##TITLE=FDDW02
##FORMAT=SPECTACLE-ASCII V-1.2
##DATA TYPE=ULTRAVIOLET SPECTRUM
##SECOND TYPE=ULTRAVIOLET SPECTRUM
##DATE=05/07/18
##TIME=14:39:39
##SPECTROMETER/DATA SYSTEM=SPECTACLE
##XUNITS=NM EM
##YUNITS=ENERGY
##YFACTOR=1
##FIRSTX=220
##LASTX=410
##NPOINTS=96
##3DDATA=Equidistant
##ZUNITS=NM EX
##FIRSTZ=210
##LASTZ=400
##ZPOINTS=39
##XYDATA=(Y..Y)
##ZVALUE=210
16.058683
16.886592
12.973547
13.067722
11.203885
10.473728
11.097789
7.630587
6.637573
5.211830
4.969835
3.519654
3.101826
2.761483
2.884865
2.908707
3.173947
3.585815
4.010797
3.198981
3.439784
3.692508
3.955960
5.513430
7.298589
10.630488
14.296770
17.036796
23.593903
29.834509
33.362508
38.465858
43.724775
47.404766
49.240589
48.483610
49.038529
48.765540
48.280954
49.059987
47.043562
43.798685
41.878819
39.190650
37.215948
34.503937
32.580495
31.545758
28.345585
28.696656
26.906729
26.784539
25.913715
25.152564
24.392605
25.176406
24.208426
24.210811
25.289655
21.411777
21.757483
21.945834
20.940900
20.668507
20.636916
20.484924
19.441843
19.310713
19.228458
20.356774
20.863414
20.924807
20.669699
20.235777
22.725463
21.042824
19.515753
21.443963
19.179583
17.074943
16.358495
14.901757
14.145970
12.570620
11.779666
11.347532
9.781718
8.531809
10.396838
10.339618
12.409687
16.391873
17.427802
22.743940
28.662682
30.727983
##ZVALUE=215
37.362576
38.047433
31.660795
24.181604
20.795465
18.493533
16.007423
15.811920
14.544725
14.017820
12.903810
9.987950
6.949902
5.014539
3.981590
4.222989
2.900958
2.995729
3.377795
3.137589
3.850460
3.708601
4.487634
5.655885
7.985830
11.961460
15.246868
21.864772
26.323795
34.684539
39.007664
48.285723
52.778721
58.389902
61.649680
65.176487
62.108636
61.777830
60.966611
57.499409
54.029822
50.057769
49.693584
44.717789
40.348768
41.684508
39.772987
37.012696
37.214756
34.929514
35.061836
32.828450
31.039715
29.366612
31.392574
31.380653
28.163791
28.443933
29.203892
27.489662
26.750565
27.147532
27.663708
25.095940
26.224852
25.134683
24.661422
24.514794
23.490787
22.242665
24.371743
23.237467
24.011731
22.636652
24.404526
23.905635
23.217797
21.323562
18.803477
20.835996
18.618703
16.792417
14.976859
12.803674
12.916923
12.427568
11.707544
10.771751
11.677742
10.568500
9.535551
9.896755
9.574890
10.257959
11.542439
14.253855
##ZVALUE=220
87.876916
86.030960
81.983805
74.224472
59.741735
47.358871
38.519502
29.184818
25.698543
25.610924
25.876760
24.946928
22.634864
18.817782
13.492703
10.769963
7.832646
5.080700
4.513860
4.608631
4.408956
4.730821
5.107522
5.862713
8.722544
12.910962
17.674565
24.208426
30.229688
36.917925
46.434999
51.876903
58.634877
66.409707
71.900487
72.247982
73.806643
71.162581
72.106719
70.758462
69.749951
65.592527
62.860847
59.656501
52.420497
48.305988
48.589706
42.879581
41.106939
43.608546
39.093494
38.765669
38.970709
37.458539
37.975907
34.375787
37.723780
34.010410
33.363700
34.891963
34.661889
32.096505
31.378865
32.823682
30.585527
31.335950
29.976964
28.958917
28.873682
27.704835
25.753975
27.455688
27.652979
27.303696
26.685596
25.772452
25.142431
23.089647
22.690892
22.076964
20.437837
19.755960
17.814636
18.299818
14.390945
13.812780
14.202595
12.900829
12.547970
11.772513
11.036992
10.173917
10.185838
10.856986
9.114742
10.063648
##ZVALUE=225
105.332732
115.411878
137.566924
150.090456
145.764947
132.959485
109.480619
82.483888
62.592626
49.059987
42.765737
40.288568
39.391518
40.147901
36.810637
35.853982
27.615428
21.034479
16.768575
11.571646
7.944703
5.595684
5.861521
5.848408
7.883906
10.993481
14.656782
21.526814
27.990937
34.189820
41.455626
48.637986
53.827763
58.870912
65.106750
66.726804
71.342587
66.615939
66.043735
64.543486
64.763427
59.485435
59.057474
55.145621
53.446889
52.692890
47.126412
45.005679
43.476820
42.364597
40.576458
43.006539
42.023659
42.273998
38.641691
38.668513
41.327477
41.758418
37.862659
38.175583
39.443970
36.575794
37.021637
35.028458
36.505461
33.862591
35.015941
34.610629
32.593608
33.494830
31.697750
34.327507
30.568838
30.896664
30.883551
28.701425
27.838945
27.673841
25.047660
22.228956
23.878813
22.005439
19.281507
18.628836
18.021464
17.197728
17.986894
15.323758
14.980435
14.360547
13.243556
14.205575
12.483597
12.702942
12.131929
12.429953
##ZVALUE=230
75.451732
80.552697
118.409991
170.011520
209.569931
239.625573
249.832869
225.373507
195.222497
157.583952
110.181570
79.045892
62.911510
59.456825
59.122443
61.977506
61.202645
55.845976
52.870512
39.593577
29.269457
20.790696
13.215542
8.408427
8.209944
9.058714
11.293888
14.342666
19.051433
23.589730
25.084615
31.171441
34.675598
37.646890
39.656758
43.617487
46.635866
44.898987
43.613911
44.791698
43.686628
42.843819
42.300820
39.985776
39.575696
37.498474
37.117600
37.797689
35.304427
38.763881
36.718845
40.023923
38.346648
40.841699
39.950609
43.205619
45.140982
44.048429
44.654608
43.910742
46.757460
41.512847
43.253899
43.432713
40.893555
41.176677
40.894747
39.495826
38.997531
37.802458
36.789775
38.061738
34.999847
36.646724
34.941435
32.957792
34.484863
32.367706
31.563640
28.182864
27.421713
25.548935
26.008487
22.547841
22.458434
20.022988
18.241405
18.494725
16.885996
15.249848
15.943646
15.281439
16.104579
15.832782
14.385581
13.771653
##ZVALUE=235
19.616485
23.958683
47.790408
105.456710
157.965422
245.578885
308.018923
358.842611
381.170511
369.842649
316.999555
248.636603
171.710849
126.480460
93.397498
83.533525
81.965923
87.325573
91.457963
88.997483
87.030530
70.470572
57.432652
37.110448
24.975538
16.533732
12.361407
10.281801
12.067556
12.886524
14.721751
16.031861
16.855597
19.259453
22.657514
22.478700
23.680925
24.749637
27.270913
24.432540
25.848746
26.068687
25.848746
26.497841
25.609732
25.952458
24.189949
27.322769
27.921796
29.658675
33.360720
38.096905
38.330555
42.236447
43.115616
45.003891
47.260523
50.024986
52.131414
49.807429
48.793554
51.283836
49.350858
52.009821
50.893426
48.976541
47.549605
45.873523
45.484900
48.259497
46.752691
45.360923
42.888522
43.950677
42.243600
41.581988
38.026571
37.403703
35.913587
31.638741
30.650496
31.240582
30.514598
29.204488
26.427507
22.684932
25.323629
24.016500
20.463467
21.851659
19.966960
19.390583
18.369555
18.426776
18.181801
16.711950
##ZVALUE=240
2.823472
2.311468
8.112788
21.133423
53.323507
96.509457
186.727643
275.750756
398.447514
466.268659
507.192016
505.506992
461.753011
355.439782
279.849768
178.445578
127.923489
97.040534
92.721581
101.946592
114.126801
115.922689
111.192465
100.271702
79.029799
62.728524
45.558810
32.672882
22.823811
15.852451
13.943911
12.443662
13.349652
15.258789
13.484955
16.564727
17.232895
17.740726
18.758774
19.125938
18.233657
19.468665
19.663572
18.485785
22.092462
20.475984
21.426678
24.405718
28.470755
30.238628
31.928420
37.306547
38.647652
41.483641
46.574473
49.676895
51.731467
53.661466
56.857467
58.740973
57.456493
59.800744
59.826970
56.560636
57.163835
57.395697
54.796934
56.037903
54.234862
56.428909
52.211881
51.517487
47.802925
47.457814
48.916936
47.950745
41.422844
41.927695
40.313601
36.567450
36.080480
30.773878
31.967759
30.694604
29.438734
27.002692
27.042627
26.579499
26.140809
24.290681
22.568703
21.257997
20.257831
21.530986
19.389987
18.949509
##ZVALUE=245
1.946688
2.032518
2.492666
2.700686
5.714893
13.211966
38.023591
80.326796
176.912546
269.834995
406.868458
513.813496
574.978590
590.727925
564.507842
456.098914
369.059443
248.435736
177.092552
115.270615
94.145536
95.820427
111.552477
124.404430
124.373436
123.942494
108.112693
93.273520
74.444413
56.232810
42.449832
29.306412
20.432472
18.229485
16.525984
18.961430
18.378496
19.206405
18.991828
18.386841
19.497871
19.801855
20.224452
19.522905
19.609928
20.407438
22.928715
25.429726
26.163459
30.176640
32.504797
35.967827
41.507483
42.647719
43.489933
47.499537
50.067902
52.459836
52.262545
57.097673
58.840513
58.803558
56.830645
56.338906
58.226585
54.766536
54.363608
53.529739
52.282810
50.758719
50.461888
49.331784
50.969720
48.244596
44.543743
43.832660
41.305423
40.159822
37.942529
34.957528
31.464696
32.197833
31.148791
28.820634
27.790666
26.788712
25.138855
24.136901
23.374557
22.132993
22.329688
20.627975
21.123886
18.864870
18.926859
18.612742
##ZVALUE=250
1.987815
2.061725
2.175570
1.851916
2.094507
2.280474
2.841949
7.952452
30.978918
62.261820
147.938728
249.505639
362.063646
517.587662
610.545874
674.096942
660.376549
573.448539
485.422611
333.589911
230.282545
155.311823
101.101995
90.026855
101.278424
119.955540
133.450627
139.529705
138.529539
127.718449
111.401677
88.132620
67.144632
49.602985
38.253665
29.835701
25.829673
24.042726
25.446415
26.040673
24.957657
26.075840
24.159551
22.928715
23.609996
26.187897
25.366545
26.782751
29.380918
32.785535
34.362674
36.690831
39.148927
41.856766
40.786862
43.426752
45.076609
47.850609
47.518611
49.471855
51.000714
50.058961
49.176812
49.938560
50.208569
49.445629
46.432614
48.360825
46.429634
44.879913
45.320988
43.919683
41.481853
40.482879
40.692687
37.427545
34.834743
34.598708
33.246875
32.742620
30.638576
29.416680
26.034713
26.825666
24.192929
22.538900
22.046566
21.674633
21.442771
21.011829
19.356608
18.539429
18.368959
17.297864
16.896725
16.527772
##ZVALUE=255
1.573563
1.434684
1.544952
1.620650
1.723766
1.601577
1.764894
2.142787
2.058744
3.681779
17.309785
45.139790
116.589665
202.903748
342.423916
475.968719
639.344454
717.960596
749.289989
700.514913
610.660911
438.027978
316.311717
183.294415
121.479630
87.754726
89.051723
107.818842
126.343966
149.175525
159.700513
155.160427
145.272613
123.831630
103.147626
78.396797
63.165426
48.797727
43.027997
36.660433
35.165548
35.158992
33.406615
33.476949
32.290816
33.069849
33.455491
32.751560
34.374595
34.901500
36.253929
36.325455
40.281415
40.779710
40.038824
42.667985
43.884516
43.714643
47.078729
46.565533
47.689676
45.955777
44.741631
43.862462
45.619607
43.867826
42.290688
42.395592
42.735934
41.411519
40.809512
37.359595
35.457611
36.746860
33.838749
33.402443
33.581853
29.973984
28.711557
26.862621
27.077794
25.404692
24.933815
23.851991
22.661686
20.664930
20.427704
19.581914
18.843412
17.307997
18.240809
17.473698
16.705990
15.455484
16.829967
15.395880
##ZVALUE=260
1.388788
1.406670
1.455545
1.306534
1.373887
1.272559
1.537800
1.650453
1.728535
1.729727
1.580715
2.437830
7.835627
31.307936
69.479942
167.236924
273.502469
449.211597
585.870743
750.361681
817.850828
825.500488
712.412000
585.243702
391.046405
269.120932
163.093805
110.765696
90.340972
97.389817
121.581554
150.663853
168.089867
180.354714
180.740952
167.459846
146.879554
120.595694
99.461675
79.219937
63.595772
54.332614
49.124956
46.052933
43.185949
42.354465
41.415691
42.350888
41.208863
42.650700
42.948723
43.015480
44.354796
46.117902
46.613812
46.925545
47.275424
50.254464
49.741864
49.485564
50.130486
50.976872
48.521757
47.114491
47.699809
47.609806
46.538711
44.156909
43.113828
43.281913
41.962862
40.198565
39.909482
36.938787
37.341714
34.407973
33.627748
31.857491
30.202866
28.424859
27.507544
26.264787
25.065541
24.518967
22.419691
22.288561
20.868778
21.067858
19.922853
18.550754
18.371940
16.925931
16.556978
16.362667
15.418530
15.658736
##ZVALUE=265
1.192689
1.083612
1.250505
1.541972
1.339912
1.450777
1.424551
1.366735
1.445413
1.513958
1.807809
1.718998
1.498461
2.164841
4.258752
21.109581
49.815774
126.933455
224.627852
411.811471
573.956966
724.092722
868.251920
891.495943
813.208818
696.470737
520.557761
377.097726
224.249959
147.828460
110.324621
100.276470
116.580725
149.861574
172.626972
192.483664
199.812651
195.605755
181.297660
155.469775
131.110549
101.893544
86.596608
69.044828
60.283542
53.320527
50.897598
50.471425
49.121976
50.110817
50.688982
51.261783
52.037835
54.192543
52.952766
53.362846
55.854917
54.720640
55.891871
57.752728
57.755709
56.579709
55.216551
55.069923
53.813457
53.064823
52.683949
51.191449
50.046444
48.088431
45.467615
45.455694
42.689443
42.608976
40.627718
38.916469
38.668513
35.975575
33.418536
32.194853
30.664802
28.660893
26.587844
26.044846
24.120808
23.566484
21.911860
21.192431
19.960999
19.806623
19.381642
18.159747
17.689466
17.069578
15.913844
15.640855
##ZVALUE=270
1.179576
1.014471
1.193881
1.134872
1.027584
1.434684
1.065731
1.280904
1.383424
1.242757
1.269579
1.549721
1.588464
1.668930
1.657605
1.710653
2.743602
10.195971
29.903650
91.182590
176.443458
279.011726
520.883799
702.212453
886.684656
949.667692
927.178860
842.123032
654.971600
505.924821
321.981907
216.133595
129.436851
103.407502
109.552741
127.811432
159.467459
178.701878
203.048587
204.016566
196.812749
185.559988
158.595443
133.616924
107.498765
86.669922
69.905519
61.276555
55.917501
54.646730
54.174662
55.242777
56.693554
56.824684
57.250857
58.621764
61.216950
61.446428
62.561631
61.544776
63.796639
62.936544
62.136650
60.274601
60.565472
58.154464
57.789683
57.392716
54.580569
54.007769
51.231980
50.482750
48.779845
47.613978
44.342875
42.103529
39.343834
38.697720
36.864877
34.981966
32.542944
31.055808
29.959679
27.063489
26.158690
25.119781
23.328662
22.907853
21.800995
20.251870
19.279718
18.921494
17.898679
17.767549
17.742515
16.328692
##ZVALUE=275
1.116991
1.076460
0.895858
0.904799
1.198649
1.134872
0.997782
1.113415
1.141429
1.088977
1.529455
1.415610
1.454949
1.469851
1.362562
1.737475
1.739860
1.739860
1.959801
4.593730
17.232895
60.638785
134.237409
254.086852
468.887687
635.668635
825.966597
943.252444
992.701650
937.036872
785.090923
629.554987
415.660739
275.732875
152.340531
106.989741
88.336468
96.315742
125.135779
146.565437
172.988772
186.039805
193.859935
188.194513
170.207620
147.079825
120.575428
102.419853
80.846548
70.479512
61.344504
58.707595
58.921576
59.037805
59.577823
59.671998
63.412786
63.257813
65.795779
66.811442
67.583919
68.139434
67.323446
66.480637
65.421462
65.187812
63.941479
61.661601
59.620738
59.618950
57.092905
54.223537
52.359700
49.730539
48.613548
46.769977
44.084787
42.232871
39.288998
36.557913
35.975575
33.126473
31.704903
31.244755
27.842522
26.345849
25.226474
24.125576
22.469759
21.603703
20.265579
19.994974
19.168854
18.298626
17.265677
16.278625
##ZVALUE=280
0.818968
0.965595
1.003742
0.968575
1.030564
1.042485
0.879765
0.902414
1.013875
1.090765
1.263618
0.986457
1.206994
1.166463
1.217723
1.236796
1.306534
1.337528
1.321435
1.721978
1.764894
2.293587
11.202693
36.155581
110.681653
199.248791
375.345945
539.713502
764.697790
910.926461
995.353460
989.064574
895.062685
683.887005
516.417623
301.919580
191.669464
101.015568
70.625544
67.657828
79.304576
105.640888
127.251744
154.863000
169.226527
174.276829
170.218945
156.352520
139.983892
113.952756
98.662972
80.655813
71.445704
64.029694
61.581731
61.251521
63.809752
67.072511
68.861842
72.252750
71.566701
72.444677
71.513653
71.779490
70.362687
69.187880
68.700910
67.037940
65.679550
62.736869
60.233474
57.011843
55.976510
53.381920
51.015615
47.732592
45.775771
43.812990
41.952729
40.325522
38.524866
35.723448
33.696890
31.135678
29.838681
27.281642
27.369857
25.565624
23.987889
22.541881
21.377802
20.521879
20.556450
18.881559
18.321872
17.549992
##ZVALUE=285
0.887513
0.738502
0.963807
0.828505
0.993609
0.903606
0.965595
0.969768
1.061559
0.930429
0.943542
0.981688
1.132488
1.285672
1.151562
1.235604
1.112819
1.166463
1.137853
1.449585
1.478791
1.678467
1.905560
1.811981
5.297661
18.208623
60.005784
122.668743
267.332792
423.934460
598.074794
826.608539
964.514613
1014.708877
964.331031
783.419609
617.590547
391.570926
246.056914
123.410821
72.263479
44.037700
47.004819
64.464808
85.174441
115.258694
135.707855
155.710578
165.263414
167.472959
160.595775
143.793821
128.612518
105.935931
91.875792
79.611540
75.107813
73.076487
73.700547
76.138973
78.008771
78.370571
77.285767
76.854825
75.653791
75.061917
73.577762
72.613955
71.837902
68.539977
66.756606
63.281655
60.399771
57.714581
55.460930
52.291751
49.806833
46.576858
45.570731
41.988492
39.929748
37.015676
36.299825
33.831000
31.468868
30.340552
28.016567
26.604533
25.750995
24.124980
22.405982
21.469593
20.246506
19.452572
18.622875
18.175840
##ZVALUE=290
0.783801
0.737906
0.793934
0.884533
0.969768
0.781417
0.837445
0.874996
0.831485
0.870824
0.847578
1.020432
1.078844
1.032948
0.847578
0.881553
0.974536
1.079440
0.999570
1.307726
1.319647
1.354814
1.497865
1.498461
1.859665
1.808405
2.560616
7.974505
35.042763
81.048012
153.230429
323.918462
504.138470
756.537914
912.744999
1015.684605
1012.791991
883.986950
725.374818
487.884879
323.304534
165.105462
90.054870
40.892959
30.998588
41.241646
55.885911
82.530975
106.972456
141.131878
160.232782
175.421834
181.031823
169.559717
156.608820
135.090947
118.758678
105.155706
95.011592
89.319944
87.545514
84.173679
82.380772
81.413984
80.241561
78.888535
77.539682
76.197982
75.491667
73.275566
71.613789
66.608787
65.912604
60.184002
58.060884
55.362582
52.887797
49.207807
46.649575
44.158697
41.863918
38.820505
36.078691
34.334660
32.672882
30.874610
28.973818
26.836991
25.623441
25.328994
23.069978
21.428466
21.503568
19.637942
18.781424
18.195510
##ZVALUE=295
0.751615
0.850558
0.728965
0.777841
0.586510
0.828505
0.778437
0.947714
0.792742
0.876784
0.844598
0.753999
0.668764
0.795722
0.932813
0.764728
0.876784
1.007915
0.990629
0.989437
1.137853
1.216531
1.190901
1.263618
1.385808
1.426935
1.380444
1.578927
1.778603
3.624558
11.801720
48.543811
112.841725
263.119936
422.572494
663.738847
835.750699
992.182493
1015.684605
952.321887
813.442469
586.853027
410.652757
217.401981
120.892525
49.619675
31.387806
32.694936
44.231415
69.278479
92.489719
125.165582
148.720741
172.820687
184.989572
185.809731
180.448890
166.244507
151.129961
132.689476
116.407871
102.822781
95.355511
88.937879
84.417462
83.187819
82.224607
80.056787
77.137947
74.569583
72.460771
68.677664
64.829588
62.429905
58.736801
55.984855
53.557754
49.795508
49.141645
44.632554
43.167472
38.281679
36.961436
34.090877
33.039451
30.958652
28.965473
26.776791
26.081800
24.356842
23.001432
21.153688
21.063685
19.482970
18.394589
17.409921
##ZVALUE=300
0.730753
0.775456
0.699759
0.624657
0.765920
0.739694
0.729561
0.851750
0.745654
0.718832
0.583529
0.741482
0.714660
0.835657
0.761747
0.771880
0.866652
0.924468
0.861883
0.943542
0.911951
1.241565
1.059771
1.207590
1.329780
1.203418
1.276731
1.228452
1.428723
1.499653
1.772642
2.071857
7.471442
25.422573
85.397959
168.348551
349.652767
523.409843
768.834949
915.761590
1014.725566
1008.203626
875.025988
717.215538
480.879545
316.394567
162.564516
94.097853
49.876571
39.774776
49.491525
61.858892
84.035993
103.554726
133.028626
156.150460
179.026723
191.090703
195.683837
191.495419
175.662637
157.963634
133.772492
119.795799
102.267861
92.856884
84.407926
80.546737
78.960657
75.646639
71.030855
68.575740
64.781904
61.504841
59.371591
56.449771
52.168965
49.888492
47.501922
43.793917
42.060614
39.053559
36.581755
34.366846
31.746626
30.269623
28.269887
26.667714
24.650693
24.556518
22.523999
22.027493
20.659566
19.264817
17.940998
17.202497
##ZVALUE=305
0.647902
0.666976
0.731945
0.735521
0.669956
0.599623
0.578761
0.652671
0.709891
0.786781
0.691414
0.671744
0.809431
0.820756
0.796914
0.727773
0.789762
0.849962
0.847578
0.793934
0.969768
0.885725
0.713468
1.138449
1.195669
1.119971
1.110435
1.131892
1.336932
1.186728
1.208782
1.456738
1.557469
1.816750
2.948642
17.244816
47.581792
133.578777
242.848992
453.707576
636.186004
855.293870
978.424549
1015.682817
955.654979
763.925910
594.140887
384.950638
247.376561
128.097534
79.879761
53.895712
52.183867
60.697794
70.997477
92.398524
111.234784
138.759613
159.204006
181.763768
189.245939
190.404654
181.185603
164.541006
145.276785
120.705962
106.463432
90.108514
81.593990
72.586536
68.869591
62.984824
60.306787
56.535602
53.757429
50.040483
49.118996
46.002865
43.872595
41.174889
38.195848
35.285950
34.318566
31.826496
29.779673
28.436780
26.165843
24.999976
23.620725
22.544861
21.328926
20.200610
19.074678
17.892718
17.363429
16.544461
##ZVALUE=310
0.750422
0.563860
0.583529
0.565648
0.634789
0.556707
0.759959
0.666976
0.687838
0.752807
0.725985
0.756979
0.593662
0.769496
0.639558
0.690818
