Data from DW_log8 (I=1 T=5x3 V=3ml)_RamanShift_4.txt Node
Date: Mon Jun 05 13:29:16 IDT 2017
User: aro
Spectrometer: QEPB0276
Trigger mode: 0
Integration Time (sec): 5.000000E0
Scans to average: 1
Electric dark correction enabled: true
Nonlinearity correction enabled: false
Boxcar width: 0
XAxis mode: Raman Shifts
Number of Pixels in Spectrum: 1044
>>>>>Begin Spectral Data<<<<<
160.701	-8
166.742	3.67
172.777	25.67
178.805	113
184.826	290.33
190.841	592.33
196.849	930.67
202.85	1164.67
208.845	1213
214.833	1171
220.815	1132.67
226.789	1097.67
232.758	1067
238.719	1045.33
244.674	1001.33
250.623	963
256.565	917.33
262.5	880
268.429	843.67
274.351	817.67
280.267	789.67
286.176	768.33
292.079	740.33
297.975	717.67
303.865	709.33
309.748	691
315.625	684.67
321.495	677.67
327.359	669
333.217	659.67
339.068	662
344.912	658.33
350.751	668.67
356.583	665.67
362.408	657.67
368.227	670
374.04	691.67
379.847	706.33
385.647	707.33
391.44	701.67
397.228	692
403.009	694.67
408.784	719.67
414.553	759.67
420.315	832.33
426.071	830.67
431.821	773.33
437.565	726.67
443.302	697.67
449.033	704
454.758	687.33
460.477	680.67
466.189	677
471.896	659
477.596	663.67
483.29	646.33
488.978	647.67
494.66	638.67
500.335	619.67
506.005	608.33
511.668	575.33
517.325	549
522.977	527.67
528.622	527.33
534.261	509.67
539.894	492
545.521	498
551.141	486
556.756	483
562.365	480.67
567.968	463.67
573.565	467
579.155	470.33
584.74	454.67
590.319	458.67
595.892	452.33
601.459	454.33
607.02	442.67
612.575	437.67
618.124	432.67
623.667	420
629.204	428
634.735	424.67
640.261	417.33
645.781	439.67
651.294	443
656.802	436
662.304	411
667.8	394
673.29	389.33
678.775	389
684.254	389
689.726	382
695.193	378.33
700.655	375.33
706.11	377.67
711.56	373.33
717.004	363.67
722.442	365.67
727.874	354.33
733.301	348
738.722	352.67
744.137	347
749.547	358.33
754.951	356.33
760.349	346.67
765.741	347.67
771.128	353.67
776.509	341.33
781.885	343.33
787.254	346.67
792.618	338
797.977	343.67
803.33	338.33
808.677	331.33
814.019	341.67
819.355	328.33
824.686	323
830.011	324
835.33	317.67
840.644	304.67
845.952	310.67
851.255	295.67
856.552	290.67
861.844	291.67
867.13	281
872.41	277
877.686	275.67
882.955	275
888.219	269.67
893.478	262
898.731	256.67
903.979	245
909.221	242.33
914.458	238.67
919.69	242.33
924.916	237.67
930.136	239
935.351	232
940.561	234.33
945.766	229.33
950.965	228.67
956.158	230.33
961.347	222
966.529	213.33
971.707	214.67
976.879	207.33
982.046	202.67
987.208	198.33
992.364	199
997.515	207.33
1002.66	204.67
1007.801	210
1012.936	203.67
1018.066	212.33
1023.19	206.67
1028.309	205.67
1033.423	214.67
1038.532	206.67
1043.636	210
1048.734	202
1053.827	205
1058.915	206
1063.998	199.67
1069.075	198.33
1074.147	199.67
1079.214	199.67
1084.276	198
1089.333	198.33
1094.385	201
1099.431	199
1104.472	199
1109.509	195.67
1114.54	182
1119.565	188.67
1124.586	174.33
1129.602	177
1134.613	183.33
1139.618	179
1144.619	176
1149.614	178.33
1154.604	178
1159.589	177.67
1164.57	182.67
1169.545	182.67
1174.515	175.33
1179.48	180.33
1184.44	175.33
1189.395	173
1194.345	175.67
1199.29	167.67
1204.23	174.33
1209.165	170.67
1214.095	178.33
1219.021	172.67
1223.941	176.33
1228.856	172.67
1233.766	180
1238.672	173.67
1243.572	178.67
1248.467	173.67
1253.358	169.33
1258.244	173.33
1263.124	168.33
1268	166
1272.871	162
1277.737	158.67
1282.599	160.33
1287.455	152.33
1292.306	157.33
1297.153	162.33
1301.995	162.33
1306.832	155
1311.664	155.33
1316.491	153.33
1321.314	158.33
1326.132	160
1330.945	147.33
1335.753	151
1340.556	148.33
1345.354	139.33
1350.148	142.67
1354.937	144
1359.722	137.33
1364.501	139.33
1369.276	133.33
1374.046	139.33
1378.811	133.33
1383.572	143.67
1388.327	136.33
1393.079	135
1397.825	133.33
1402.567	134
1407.304	132.67
1412.036	127.67
1416.764	125.67
1421.487	129.67
1426.205	129
1430.919	127.67
1435.628	129.33
1440.333	133.67
1445.032	135
1449.727	136.33
1454.418	132.33
1459.104	130.67
1463.785	135
1468.462	129.33
1473.134	132.67
1477.802	131.33
1482.465	134
1487.123	126.67
1491.777	128.67
1496.426	124.33
1501.071	132
1505.711	135
1510.347	136.33
1514.978	137
1519.604	133.67
1524.226	140
1528.844	137.33
1533.457	146.67
1538.065	143.33
1542.669	141.33
1547.269	136.67
1551.864	148.67
1556.454	144
1561.041	142
1565.622	142.67
1570.199	152.67
1574.772	158.33
1579.34	159.67
1583.904	169
1588.464	172
1593.019	176.67
1597.569	178.67
1602.115	178
1606.657	190.33
1611.195	185
1615.728	195
1620.256	202.33
1624.78	202.33
1629.3	217.67
1633.816	225
1638.327	222.67
1642.834	228.33
1647.336	230.67
1651.834	232.33
1656.328	224.67
1660.817	224
1665.302	221.67
1669.783	209.33
1674.259	200.67
1678.732	191
1683.199	183
1687.663	174.33
1692.122	161
1696.577	150.33
1701.028	143
1705.474	135
1709.917	129.67
1714.355	128
1718.788	120.33
1723.218	107.67
1727.643	104.67
1732.064	94.67
1736.481	95.33
1740.893	90
1745.301	81.33
1749.705	76.33
1754.105	73.33
1758.501	63
1762.893	59.33
1767.28	63
1771.663	64
1776.042	60.33
1780.417	57.67
1784.787	59
1789.154	59
1793.516	56.67
1797.874	57.33
1802.228	53.33
1806.578	48.67
1810.924	53
1815.266	59.33
1819.603	48.33
1823.937	44.67
1828.266	49
1832.591	49.67
1836.913	44.67
1841.23	40.33
1845.543	42
1849.852	38.67
1854.156	37.67
1858.457	42.67
1862.754	43.67
1867.047	39
1871.335	37.33
1875.62	43.33
1879.9	38.67
1884.177	40
1888.449	38.67
1892.718	42.33
1896.982	43
1901.243	41.33
1905.499	38.67
1909.752	42
1914	45
1918.245	45.67
1922.485	46.67
1926.722	44.33
1930.954	43
1935.183	46.33
1939.408	45.33
1943.628	44.33
1947.845	46
1952.058	42
1956.267	41.67
1960.472	40.67
1964.673	40
1968.87	42
1973.063	39.33
1977.252	39.67
1981.438	44.67
1985.619	39
1989.797	39
1993.971	41.67
1998.14	44.67
2002.306	46.67
2006.469	41.33
2010.627	43.33
2014.781	41.67
2018.932	44.33
2023.078	40
2027.221	39.33
2031.36	40.33
2035.495	37.33
2039.627	37
2043.754	38
2047.878	38
2051.998	40.33
2056.114	37.67
2060.226	46
2064.334	45
2068.439	39.33
2072.54	43
2076.637	40.33
2080.73	49.67
2084.82	46.33
2088.906	49
2092.988	50.33
2097.066	47.33
2101.14	45
2105.211	43.33
2109.278	46.33
2113.342	43
2117.401	42.67
2121.457	44
2125.509	41.67
2129.558	45.33
2133.602	37.33
2137.643	38
2141.681	42.67
2145.714	41
2149.744	37.67
2153.77	37.33
2157.793	34
2161.812	35.33
2165.827	36.33
2169.838	34
2173.846	29.33
2177.851	28.33
2181.851	26
2185.848	24.33
2189.841	24
2193.831	23.33
2197.817	21.33
2201.799	24
2205.778	21
2209.753	19
2213.725	24.33
2217.693	22.67
2221.657	17
2225.618	19
2229.575	19.67
2233.529	23.33
2237.479	19.33
2241.425	17.33
2245.368	18.67
2249.307	15
2253.243	13.33
2257.175	12.67
2261.104	15.33
2265.029	13
2268.95	8
2272.868	4.33
2276.783	3
2280.694	6
2284.601	2.33
2288.505	4
2292.405	4.67
2296.302	3.33
2300.195	1.67
2304.085	4
2307.971	5.33
2311.854	4
2315.734	6.33
2319.609	4.33
2323.482	0.33
2327.351	4
2331.216	3.67
2335.078	2.33
2338.937	1.67
2342.792	3.67
2346.643	-4.33
2350.492	-4
2354.336	-4.67
2358.178	-7
2362.015	-1.67
2365.85	-5.33
2369.681	-6
2373.508	-6
2377.333	-5.33
2381.153	-3.67
2384.971	-5.67
2388.785	-2.67
2392.595	-4.33
2396.402	-3.33
2400.206	-2.67
2404.007	-6
2407.804	-3.33
2411.597	-3.67
2415.388	-6
2419.174	-7.33
2422.958	-9.33
2426.738	-10.33
2430.515	-9.67
2434.289	-10
2438.059	-10.33
2441.825	-8.67
2445.589	-10.33
2449.349	-11
2453.106	-11.67
2456.859	-8.33
2460.61	-10.33
2464.356	-7.33
2468.1	-9
2471.84	-9.67
2475.577	-5.67
2479.311	-8.67
2483.041	-11
2486.768	-9
2490.492	-11.33
2494.213	-5.67
2497.93	-11.67
2501.644	-9.67
2505.355	-11.33
2509.062	-10.67
2512.766	-11.67
2516.467	-15.33
2520.165	-14
2523.859	-13.33
2527.551	-10.67
2531.239	-17
2534.923	-10
2538.605	-10.33
2542.283	-11
2545.958	-10
2549.63	-9.67
2553.299	-10
2556.964	-8.33
2560.626	-8.67
2564.285	-11.33
2567.941	-10.67
2571.594	-11.67
2575.243	-11.67
2578.89	-12.67
2582.533	-10.67
2586.173	-12
2589.809	-16
2593.443	-18
2597.073	-14.33
2600.701	-13.67
2604.325	-14.33
2607.946	-15
2611.564	-15.33
2615.178	-14.67
2618.79	-15.67
2622.398	-16.33
2626.004	-15.33
2629.606	-13
2633.205	-14.33
2636.801	-13.33
2640.394	-11.67
2643.983	-16.67
2647.57	-10.33
2651.153	-16.67
2654.734	-15.67
2658.311	-14
2661.885	-16.33
2665.456	-15.33
2669.025	-18
2672.589	-19.67
2676.151	-16.67
2679.71	-16
2683.266	-14.33
2686.819	-20.67
2690.368	-13.33
2693.915	-17
2697.458	-15
2700.999	-13.67
2704.536	-12.33
2708.071	-12.33
2711.602	-14.33
2715.13	-15
2718.656	-15.33
2722.178	-12.33
2725.697	-17
2729.214	-11
2732.727	-14.33
2736.237	-14
2739.744	-14.67
2743.249	-11.67
2746.75	-15
2750.248	-13.67
2753.743	-13.33
2757.236	-12.67
2760.725	-11.67
2764.211	-15.33
2767.695	-11.33
2771.175	-10.33
2774.652	-10
2778.127	-12
2781.598	-9.67
2785.067	-7.67
2788.532	-8.33
2791.995	-7.67
2795.455	-5.33
2798.911	-9.33
2802.365	-8.33
2805.816	-6.67
2809.264	-8
2812.709	-7.67
2816.151	-6.33
2819.59	-8.33
2823.026	-8
2826.46	-4
2829.89	-5.33
2833.318	-4.67
2836.742	-1
2840.164	-1.67
2843.583	-1.67
2846.999	1.33
2850.412	-2.67
2853.822	1
2857.229	3.33
2860.634	2.33
2864.035	7.67
2867.434	9
2870.83	4.33
2874.223	5
2877.613	10.33
2881	6.67
2884.385	8.67
2887.766	12
2891.145	11.33
2894.521	12
2897.894	13.33
2901.264	10.33
2904.631	14
2907.996	16.33
2911.358	18.33
2914.717	18.67
2918.073	20.33
2921.426	21
2924.777	22.33
2928.124	23
2931.469	25.33
2934.811	28.67
2938.15	31.33
2941.487	33.67
2944.821	31.33
2948.152	34.67
2951.48	37
2954.805	32.33
2958.128	36.67
2961.447	35
2964.765	39.33
2968.079	42.33
2971.39	39.67
2974.699	49
2978.005	52
2981.308	52.67
2984.609	51.33
2987.907	58
2991.202	58.67
2994.494	68.33
2997.784	71.33
3001.07	70
3004.355	71
3007.636	76.33
3010.915	75.33
3014.191	76
3017.464	89.33
3020.734	80
3024.002	84
3027.267	89.33
3030.53	86.67
3033.789	93.67
3037.046	95
3040.301	93
3043.552	94.67
3046.801	105.33
3050.048	107.67
3053.291	118
3056.532	122.33
3059.771	126.67
3063.006	130.33
3066.239	141.67
3069.469	145
3072.697	153.33
3075.922	154
3079.144	162.33
3082.364	163
3085.581	171.67
3088.795	173.33
3092.007	173
3095.216	183
3098.423	190.33
3101.627	192.67
3104.828	195
3108.026	205.33
3111.222	213
3114.416	221.33
3117.607	231
3120.795	224.33
3123.98	231
3127.163	246.67
3130.344	246.67
3133.521	258
3136.696	264.67
3139.869	266
3143.039	269.33
3146.206	281.67
3149.371	280.67
3152.533	288
3155.693	288
3158.85	285.67
3162.005	295
3165.157	293
3168.306	291.33
3171.453	296
3174.597	308.67
3177.739	305.67
3180.878	304.33
3184.014	297.67
3187.149	311.33
3190.28	314.33
3193.409	313.33
3196.536	318
3199.659	315.67
3202.781	314.33
3205.9	315.67
3209.016	308
3212.13	310.67
3215.241	319.33
3218.35	316
3221.456	304
3224.56	298.67
3227.661	307.67
3230.76	297.33
3233.856	293.67
3236.95	297
3240.041	289.67
3243.13	296.67
3246.216	293.67
3249.3	286
3252.382	289
3255.46	288.33
3258.537	291.67
3261.611	295
3264.682	291.33
3267.751	290.33
3270.818	286.33
3273.882	290.33
3276.943	283.33
3280.002	279.67
3283.059	273
3286.113	275
3289.165	270
3292.214	263
3295.261	260.33
3298.306	262.33
3301.348	249
3304.387	246.33
3307.425	249.33
3310.459	249.33
3313.492	239.33
3316.521	236.33
3319.549	239
3322.574	241
3325.597	234
3328.617	229.67
3331.635	236.33
3334.65	229.67
3337.663	231
3340.674	232.67
3343.682	232.67
3346.688	228
3349.691	218.67
3352.692	227.67
3355.691	228
3358.687	220.33
3361.681	214.67
3364.673	219.33
3367.662	220.67
3370.649	210.67
3373.633	212
3376.615	203
3379.595	203.67
3382.572	200.67
3385.547	202.33
3388.52	198
3391.49	198.33
3394.458	200
3397.424	192
3400.387	194
3403.348	183.67
3406.307	176.33
3409.263	184.33
3412.217	176.67
3415.168	177.67
3418.118	177
3421.065	181.67
3424.009	171.33
3426.951	171.33
3429.891	172.67
3432.829	169.67
3435.764	169
3438.697	169.67
3441.628	156.67
3444.557	153.67
3447.483	158.33
3450.407	147.33
3453.328	142.33
3456.247	131.67
3459.164	133.67
3462.079	126.33
3464.991	123.33
3467.902	120.67
3470.809	116.33
3473.715	109.33
3476.618	112.33
3479.519	109.67
3482.418	102.67
3485.315	102.33
3488.209	100.67
3491.101	96
3493.99	102
3496.878	92
3499.763	93.67
3502.646	85.33
3505.527	88
3508.405	81
3511.281	78
3514.155	79
3517.027	72.67
3519.897	63.33
3522.764	63.67
3525.629	58
3528.492	53.33
3531.352	49.67
3534.211	46.67
3537.067	40
3539.921	44.67
3542.773	38.67
3545.622	37.67
3548.469	39
3551.315	35.67
3554.157	32.67
3556.998	30.67
3559.837	30.67
3562.673	28.33
3565.507	29
3568.339	24
3571.169	23.33
3573.996	22.33
3576.822	22
3579.645	18.33
3582.466	13
3585.285	10
3588.101	9.67
3590.916	10
3593.728	4.67
3596.538	5.33
3599.346	10.67
3602.152	3.33
3604.956	1
3607.757	6.33
3610.556	4
3613.354	-2
3616.149	-0.33
3618.942	0.33
3621.732	1.33
3624.521	-6.67
3627.307	-3
3630.092	-9.33
3632.874	-8.67
3635.654	-12.33
3638.432	-8.33
3641.208	-8
3643.982	-12.33
3646.753	-13.33
3649.523	-13.67
3652.29	-14.67
3655.055	-16
3657.818	-9.67
3660.579	-18.33
3663.338	-15.67
3666.095	-17.33
3668.849	-18.67
3671.602	-17.33
3674.352	-17.33
3677.101	-16.67
3679.847	-19.67
3682.591	-21.67
3685.333	-18
3688.073	-19.33
3690.811	-21.67
3693.547	-22.67
3696.281	-25
3699.013	-26
3701.742	-28.33
3704.47	-23.33
3707.195	-26.67
3709.919	-28.67
3712.64	-28.67
3715.359	-26
3718.076	-25
3720.792	-26.33
3723.505	-24
3726.216	-28
3728.925	-24.67
3731.632	-23.67
3734.336	-26
3737.039	-25
3739.74	-23.67
3742.439	-27.33
3745.136	-23.67
3747.83	-30.67
3750.523	-31
3753.213	-31.67
3755.902	-33.33
3758.589	-28.67
3761.273	-32
3763.956	-32.67
3766.636	-32.67
3769.315	-30.67
3771.991	-30.33
3774.665	-31.33
3777.338	-31
3780.008	-28.33
3782.677	-28.33
3785.343	-24.33
3788.007	-28.67
3790.67	-27.67
3793.33	-32
3795.989	-28
3798.645	-30
3801.299	-33
3803.952	-29.67
3806.602	-30.33
3809.251	-33.33
3811.897	-36
3814.542	-34
3817.184	-34.33
3819.825	-33
3822.463	-33.33
3825.1	-33
3827.735	-30.33
3830.367	-30.67
3832.998	-31.33
3835.627	-31.67
3838.253	-31.33
3840.878	-33.33
3843.501	-31.67
3846.122	-31.33
3848.741	-28
3851.358	-31.67
3853.973	-31
3856.586	-32.33
3859.197	-29
3861.806	-30
3864.414	-34.33
3867.019	-33
3869.622	-34
3872.224	-32
3874.823	-33
3877.421	-31.33
3880.016	-25.33
3882.61	-20
3885.202	-19.33
3887.792	-23
3890.38	-28.67
3892.966	-30.67
3895.55	-30
3898.132	-32.67
3900.713	-35
3903.291	-29.33
3905.868	-30
3908.442	-30.67
3911.015	-32
3913.586	-32
3916.155	-32.33
3918.722	-36
3921.287	-31.33
3923.85	-35.33
3926.411	-30.33
3928.971	-32.67
3931.528	-35.67
3934.084	-32
3936.638	-34.33
3939.19	-38
3941.74	-34
3944.288	-35.67
3946.834	-32
3949.378	-33
3951.921	-32.33
3954.462	-32
3957	-32
3959.537	-31
3962.072	-31
3964.606	-33
3967.137	-33
3969.667	-29.67
3972.194	-34
3974.72	-30
3977.244	-33.33
3979.766	-34.33
3982.286	-31.67
3984.805	-33
3987.321	-34.67
3989.836	-35
3992.349	-34
3994.86	-34
3997.369	-34.67
3999.877	-32.67
4002.382	-33.67
4004.886	-32.67
4007.388	-28.33
4009.888	-31
4012.386	-32.33
4014.883	-30.33
4017.377	-31.67
4019.87	-31
4022.361	-34
4024.85	-31.67
4027.338	-33
4029.823	-30.33
4032.307	-33
4034.789	-32
4037.269	-34
4039.747	-32
4042.224	-33.33
4044.699	-34.33
4047.172	-35.33
4049.643	-33.67
4052.112	-33
4054.58	-32
4057.046	-31
4059.51	-32.67
4061.972	-29
4064.432	-32.33
4066.891	-30.67
4069.348	-33
4071.803	-29
4074.256	-32.33
4076.708	-32.67
4079.158	-30
4081.606	-33.33
4084.052	-34
4086.497	-32.67
4088.939	-31.67
4091.38	-38.67
4093.819	-33.67
4096.257	-33.67
4098.693	-34.67
4101.127	-34.33
4103.559	-35.67
4105.989	-20.33
4108.418	-21.33
4110.845	-17.33
4113.27	-13.33
4115.694	-14.67
4118.115	-12
4120.535	-35.33
4122.954	-34
4125.37	-29
4127.785	-34.33
4130.198	-34.33
4132.609	-32
4135.019	-31.33
4137.427	-37.67
4139.833	-32
4142.237	-33.33
