Data from Saline_log5 (I=1 T=5x1 V=3ml)_RamanShift_9.txt Node
Date: Mon Jun 05 14:26:55 IDT 2017
User: aro
Spectrometer: QEPB0276
Trigger mode: 0
Integration Time (sec): 5.000000E0
Scans to average: 1
Electric dark correction enabled: true
Nonlinearity correction enabled: false
Boxcar width: 0
XAxis mode: Raman Shifts
Number of Pixels in Spectrum: 1044
>>>>>Begin Spectral Data<<<<<
160.701	-25.88
166.742	3.79
172.777	88.79
178.805	380.12
184.826	1067.46
190.841	2226.46
196.849	3510.79
202.85	4409.79
208.845	4611.12
214.833	4434.12
220.815	4246.79
226.789	4090.79
232.758	3969.12
238.719	3792.46
244.674	3600.46
250.623	3465.12
256.565	3282.46
262.5	3117.12
268.429	2950.79
274.351	2813.79
280.267	2696.79
286.176	2568.46
292.079	2471.46
297.975	2401.79
303.865	2319.46
309.748	2252.12
315.625	2202.79
321.495	2162.79
327.359	2138.12
333.217	2098.79
339.068	2099.12
344.912	2073.46
350.751	2068.79
356.583	2062.79
362.408	2064.79
368.227	2061.12
374.04	2067.79
379.847	2105.46
385.647	2119.46
391.44	2110.79
397.228	2115.12
403.009	2119.79
408.784	2142.79
414.553	2214.79
420.315	2278.46
426.071	2291.79
431.821	2198.46
437.565	2156.79
443.302	2107.79
449.033	2098.12
454.758	2081.46
460.477	2063.79
466.189	2052.12
471.896	2036.12
477.596	2005.79
483.29	1997.46
488.978	1964.79
494.66	1971.79
500.335	1942.79
506.005	1892.46
511.668	1850.46
517.325	1800.12
522.977	1766.79
528.622	1727.46
534.261	1707.79
539.894	1687.12
545.521	1666.12
551.141	1668.12
556.756	1621.12
562.365	1618.79
567.968	1603.79
573.565	1588.12
579.155	1570.46
584.74	1563.79
590.319	1540.79
595.892	1527.46
601.459	1484.46
607.02	1489.79
612.575	1463.79
618.124	1455.79
623.667	1417.12
629.204	1414.12
634.735	1412.79
640.261	1407.46
645.781	1409.79
651.294	1406.12
656.802	1379.12
662.304	1333.12
667.8	1336.12
673.29	1317.46
678.775	1289.12
684.254	1288.12
689.726	1273.12
695.193	1263.46
700.655	1238.46
706.11	1232.79
711.56	1205.46
717.004	1192.79
722.442	1187.79
727.874	1173.46
733.301	1157.12
738.722	1157.79
744.137	1161.12
749.547	1150.46
754.951	1143.46
760.349	1127.79
765.741	1096.79
771.128	1106.79
776.509	1089.46
781.885	1085.46
787.254	1073.79
792.618	1068.12
797.977	1036.79
803.33	1030.46
808.677	1025.46
814.019	994.79
819.355	969.46
824.686	975.12
830.011	939.12
835.33	941.79
840.644	927.79
845.952	915.79
851.255	918.79
856.552	875.79
861.844	885.79
867.13	863.12
872.41	862.12
877.686	860.79
882.955	869.12
888.219	830.79
893.478	805.12
898.731	766.79
903.979	739.12
909.221	729.46
914.458	717.79
919.69	708.46
924.916	703.79
930.136	704.12
935.351	684.12
940.561	677.46
945.766	659.46
950.965	658.79
956.158	647.46
961.347	633.12
966.529	619.46
971.707	610.79
976.879	592.46
982.046	600.79
987.208	588.46
992.364	582.12
997.515	576.46
1002.66	584.79
1007.801	579.12
1012.936	582.79
1018.066	595.46
1023.19	592.79
1028.309	591.79
1033.423	594.79
1038.532	584.79
1043.636	585.12
1048.734	574.12
1053.827	572.12
1058.915	552.12
1063.998	552.79
1069.075	546.46
1074.147	534.79
1079.214	548.79
1084.276	547.12
1089.333	557.46
1094.385	547.12
1099.431	566.12
1104.472	551.12
1109.509	543.79
1114.54	534.12
1119.565	523.79
1124.586	508.46
1129.602	508.12
1134.613	500.46
1139.618	504.12
1144.619	495.12
1149.614	493.46
1154.604	498.12
1159.589	507.79
1164.57	490.79
1169.545	501.79
1174.515	504.46
1179.48	492.46
1184.44	487.46
1189.395	489.12
1194.345	479.79
1199.29	473.79
1204.23	483.46
1209.165	485.79
1214.095	476.46
1219.021	484.79
1223.941	471.46
1228.856	481.79
1233.766	483.12
1238.672	496.79
1243.572	478.79
1248.467	475.79
1253.358	465.46
1258.244	467.46
1263.124	453.46
1268	450.12
1272.871	441.12
1277.737	434.79
1282.599	435.46
1287.455	435.46
1292.306	436.46
1297.153	439.46
1301.995	432.46
1306.832	442.12
1311.664	428.46
1316.491	430.46
1321.314	423.46
1326.132	425.12
1330.945	410.46
1335.753	414.12
1340.556	388.46
1345.354	386.46
1350.148	375.79
1354.937	380.12
1359.722	373.46
1364.501	374.46
1369.276	374.46
1374.046	381.46
1378.811	368.46
1383.572	372.79
1388.327	377.46
1393.079	372.12
1397.825	360.46
1402.567	357.12
1407.304	354.79
1412.036	341.79
1416.764	352.79
1421.487	339.79
1426.205	348.12
1430.919	349.79
1435.628	357.46
1440.333	353.79
1445.032	354.12
1449.727	364.46
1454.418	357.46
1459.104	365.79
1463.785	356.12
1468.462	353.46
1473.134	350.79
1477.802	343.46
1482.465	340.12
1487.123	338.79
1491.777	344.79
1496.426	338.46
1501.071	355.12
1505.711	362.12
1510.347	369.46
1514.978	387.12
1519.604	387.79
1524.226	396.12
1528.844	391.46
1533.457	392.79
1538.065	398.46
1542.669	395.46
1547.269	399.79
1551.864	407.79
1556.454	425.12
1561.041	428.12
1565.622	434.79
1570.199	444.79
1574.772	459.46
1579.34	470.79
1583.904	508.12
1588.464	519.12
1593.019	527.79
1597.569	545.79
1602.115	580.12
1606.657	593.46
1611.195	612.12
1615.728	638.12
1620.256	655.46
1624.78	674.46
1629.3	688.79
1633.816	704.12
1638.327	724.79
1642.834	743.46
1647.336	748.79
1651.834	748.46
1656.328	744.79
1660.817	732.12
1665.302	704.79
1669.783	686.46
1674.259	651.79
1678.732	609.12
1683.199	569.12
1687.663	521.46
1692.122	503.12
1696.577	460.46
1701.028	439.12
1705.474	402.12
1709.917	384.79
1714.355	364.12
1718.788	331.46
1723.218	313.79
1727.643	289.79
1732.064	265.79
1736.481	252.46
1740.893	226.12
1745.301	207.46
1749.705	198.46
1754.105	174.46
1758.501	160.12
1762.893	159.46
1767.28	148.12
1771.663	135.12
1776.042	133.46
1780.417	134.79
1784.787	125.12
1789.154	122.12
1793.516	121.79
1797.874	115.46
1802.228	118.46
1806.578	114.79
1810.924	104.12
1815.266	102.46
1819.603	93.46
1823.937	94.79
1828.266	99.12
1832.591	89.79
1836.913	86.79
1841.23	77.46
1845.543	82.12
1849.852	76.79
1854.156	81.79
1858.457	77.79
1862.754	78.79
1867.047	76.12
1871.335	73.46
1875.62	75.46
1879.9	81.79
1884.177	75.12
1888.449	73.79
1892.718	76.46
1896.982	76.12
1901.243	81.46
1905.499	76.79
1909.752	79.12
1914	81.12
1918.245	84.79
1922.485	82.79
1926.722	90.46
1930.954	90.12
1935.183	89.46
1939.408	93.46
1943.628	90.46
1947.845	89.12
1952.058	90.12
1956.267	91.79
1960.472	92.79
1964.673	88.12
1968.87	82.12
1973.063	86.46
1977.252	83.79
1981.438	93.79
1985.619	89.12
1989.797	82.12
1993.971	88.79
1998.14	91.79
2002.306	88.79
2006.469	88.46
2010.627	92.46
2014.781	91.79
2018.932	94.46
2023.078	100.12
2027.221	98.46
2031.36	98.46
2035.495	93.46
2039.627	102.12
2043.754	96.12
2047.878	91.12
2051.998	105.46
2056.114	96.79
2060.226	102.12
2064.334	108.12
2068.439	106.46
2072.54	112.12
2076.637	108.46
2080.73	115.79
2084.82	115.46
2088.906	116.12
2092.988	115.46
2097.066	115.46
2101.14	112.12
2105.211	106.46
2109.278	109.46
2113.342	99.12
2117.401	102.79
2121.457	101.12
2125.509	103.79
2129.558	99.46
2133.602	99.46
2137.643	97.12
2141.681	99.79
2145.714	93.12
2149.744	88.79
2153.77	94.46
2157.793	83.12
2161.812	82.46
2165.827	79.46
2169.838	72.12
2173.846	68.46
2177.851	69.46
2181.851	68.12
2185.848	55.46
2189.841	52.12
2193.831	46.46
2197.817	50.46
2201.799	45.12
2205.778	43.12
2209.753	36.12
2213.725	35.46
2217.693	34.79
2221.657	38.12
2225.618	28.12
2229.575	31.79
2233.529	30.46
2237.479	23.46
2241.425	27.46
2245.368	17.79
2249.307	18.12
2253.243	14.46
2257.175	11.79
2261.104	9.46
2265.029	11.12
2268.95	6.12
2272.868	-1.54
2276.783	-0.88
2280.694	-1.88
2284.601	-4.54
2288.505	-3.88
2292.405	-11.21
2296.302	-8.54
2300.195	-14.21
2304.085	-16.88
2307.971	-15.54
2311.854	-15.88
2315.734	-20.54
2319.609	-26.54
2323.482	-29.54
2327.351	-23.88
2331.216	-25.21
2335.078	-18.54
2338.937	-33.21
2342.792	-30.21
2346.643	-32.21
2350.492	-34.88
2354.336	-33.54
2358.178	-31.88
2362.015	-36.54
2365.85	-33.21
2369.681	-33.88
2373.508	-32.88
2377.333	-36.21
2381.153	-33.54
2384.971	-34.54
2388.785	-32.54
2392.595	-36.21
2396.402	-39.21
2400.206	-41.54
2404.007	-41.88
2407.804	-44.21
2411.597	-46.54
2415.388	-45.88
2419.174	-50.21
2422.958	-47.21
2426.738	-47.21
2430.515	-50.54
2434.289	-49.88
2438.059	-50.21
2441.825	-51.54
2445.589	-47.21
2449.349	-51.88
2453.106	-51.54
2456.859	-51.21
2460.61	-52.21
2464.356	-52.21
2468.1	-51.88
2471.84	-54.54
2475.577	-52.54
2479.311	-52.54
2483.041	-50.88
2486.768	-55.88
2490.492	-56.21
2494.213	-53.54
2497.93	-60.54
2501.644	-58.54
2505.355	-60.21
2509.062	-52.54
2512.766	-55.54
2516.467	-60.21
2520.165	-58.88
2523.859	-66.21
2527.551	-57.54
2531.239	-64.88
2534.923	-60.88
2538.605	-62.21
2542.283	-56.88
2545.958	-58.88
2549.63	-58.54
2553.299	-56.88
2556.964	-59.21
2560.626	-54.54
2564.285	-63.21
2567.941	-60.54
2571.594	-55.54
2575.243	-59.54
2578.89	-62.54
2582.533	-60.54
2586.173	-65.88
2589.809	-61.88
2593.443	-63.88
2597.073	-60.21
2600.701	-67.54
2604.325	-64.21
2607.946	-63.88
2611.564	-66.21
2615.178	-67.54
2618.79	-66.54
2622.398	-63.21
2626.004	-66.21
2629.606	-65.88
2633.205	-64.21
2636.801	-65.21
2640.394	-65.54
2643.983	-63.54
2647.57	-65.21
2651.153	-67.54
2654.734	-66.54
2658.311	-61.88
2661.885	-68.21
2665.456	-61.21
2669.025	-63.88
2672.589	-65.54
2676.151	-62.54
2679.71	-63.88
2683.266	-63.21
2686.819	-68.54
2690.368	-64.21
2693.915	-63.88
2697.458	-64.88
2700.999	-69.54
2704.536	-65.21
2708.071	-65.21
2711.602	-67.21
2715.13	-64.88
2718.656	-66.21
2722.178	-64.21
2725.697	-66.88
2729.214	-64.88
2732.727	-60.21
2736.237	-58.88
2739.744	-58.54
2743.249	-59.54
2746.75	-55.88
2750.248	-54.54
2753.743	-55.21
2757.236	-53.54
2760.725	-50.54
2764.211	-50.21
2767.695	-51.21
2771.175	-50.21
2774.652	-47.88
2778.127	-49.88
2781.598	-46.54
2785.067	-48.54
2788.532	-45.21
2791.995	-49.54
2795.455	-49.21
2798.911	-43.21
2802.365	-48.21
2805.816	-39.54
2809.264	-39.88
2812.709	-41.54
2816.151	-35.21
2819.59	-34.21
2823.026	-28.88
2826.46	-28.88
2829.89	-25.21
2833.318	-28.54
2836.742	-20.88
2840.164	-13.54
2843.583	-17.54
2846.999	-12.54
2850.412	-11.54
2853.822	-7.88
2857.229	-5.54
2860.634	-4.54
2864.035	0.79
2867.434	9.12
2870.83	4.46
2874.223	3.12
2877.613	15.46
2881	15.79
2884.385	16.79
2887.766	24.12
2891.145	29.46
2894.521	26.12
2897.894	25.46
2901.264	29.46
2904.631	38.12
2907.996	35.46
2911.358	42.46
2914.717	47.79
2918.073	51.46
2921.426	56.12
2924.777	62.46
2928.124	66.12
2931.469	68.46
2934.811	74.79
2938.15	87.46
2941.487	84.79
2944.821	93.46
2948.152	95.79
2951.48	104.12
2954.805	100.46
2958.128	101.79
2961.447	110.12
2964.765	116.46
2968.079	128.46
2971.39	128.79
2974.699	138.12
2978.005	151.12
2981.308	155.79
2984.609	161.46
2987.907	171.12
2991.202	177.79
2994.494	192.46
2997.784	200.46
3001.07	211.12
3004.355	217.12
3007.636	228.46
3010.915	236.46
3014.191	238.12
3017.464	250.46
3020.734	257.12
3024.002	263.12
3027.267	279.46
3030.53	279.79
3033.789	302.79
3037.046	302.12
3040.301	307.12
3043.552	319.79
3046.801	343.46
3050.048	348.79
3053.291	363.12
3056.532	382.46
3059.771	401.79
3063.006	419.46
3066.239	436.79
3069.469	445.12
3072.697	462.46
3075.922	480.12
3079.144	499.46
3082.364	522.12
3085.581	524.79
3088.795	543.46
3092.007	567.12
3095.216	584.12
3098.423	596.46
3101.627	626.79
3104.828	636.12
3108.026	651.46
3111.222	679.12
3114.416	689.46
3117.607	714.12
3120.795	739.46
3123.98	749.12
3127.163	777.79
3130.344	804.79
3133.521	828.12
3136.696	824.79
3139.869	854.12
3143.039	878.46
3146.206	901.79
3149.371	907.79
3152.533	914.12
3155.693	924.12
3158.85	926.79
3162.005	943.12
3165.157	947.12
3168.306	947.46
3171.453	970.12
3174.597	965.79
3177.739	959.79
3180.878	976.46
3184.014	986.79
3187.149	982.46
3190.28	980.46
3193.409	1003.46
3196.536	1001.12
3199.659	1005.79
3202.781	1014.46
3205.9	1020.79
3209.016	1020.12
3212.13	1013.79
3215.241	1020.46
3218.35	1025.12
3221.456	1009.12
3224.56	987.79
3227.661	1000.79
3230.76	986.46
3233.856	969.79
3236.95	978.12
3240.041	964.79
3243.13	963.79
3246.216	946.79
3249.3	961.12
3252.382	943.12
3255.46	939.46
3258.537	951.79
3261.611	927.12
3264.682	941.46
3267.751	953.46
3270.818	927.46
3273.882	937.46
3276.943	938.46
3280.002	925.79
3283.059	911.12
3286.113	893.12
3289.165	889.12
3292.214	888.12
3295.261	874.46
3298.306	853.46
3301.348	837.12
3304.387	824.46
3307.425	821.46
3310.459	794.46
3313.492	795.46
3316.521	787.46
3319.549	791.12
3322.574	773.12
3325.597	767.12
3328.617	760.79
3331.635	755.46
3334.65	760.79
3337.663	751.12
3340.674	740.79
3343.682	741.79
3346.688	742.12
3349.691	752.79
3352.692	736.79
3355.691	732.12
3358.687	720.46
3361.681	718.79
3364.673	714.46
3367.662	700.79
3370.649	692.79
3373.633	688.12
3376.615	687.12
3379.595	679.79
3382.572	667.79
3385.547	655.46
3388.52	652.12
3391.49	652.46
3394.458	644.12
3397.424	641.12
3400.387	622.12
3403.348	615.79
3406.307	605.46
3409.263	609.46
3412.217	597.79
3415.168	591.79
3418.118	594.12
3421.065	591.79
3424.009	579.46
3426.951	568.46
3429.891	565.79
3432.829	540.79
3435.764	532.12
3438.697	528.79
3441.628	525.79
3444.557	498.79
3447.483	484.46
3450.407	473.46
3453.328	462.46
3456.247	454.79
3459.164	446.79
3462.079	428.46
3464.991	411.46
3467.902	410.79
3470.809	393.46
3473.715	379.46
3476.618	365.46
3479.519	356.79
3482.418	354.79
3485.315	334.46
3488.209	338.79
3491.101	318.12
3493.99	317.12
3496.878	302.12
3499.763	302.79
3502.646	282.46
3505.527	282.12
3508.405	266.12
3511.281	255.12
3514.155	242.12
3517.027	227.79
3519.897	227.46
3522.764	213.79
3525.629	192.12
3528.492	185.46
3531.352	177.79
3534.211	164.79
3537.067	151.12
3539.921	149.79
3542.773	137.79
3545.622	124.79
3548.469	119.12
3551.315	115.79
3554.157	108.79
3556.998	98.79
3559.837	97.79
3562.673	89.46
3565.507	76.12
3568.339	77.12
3571.169	73.46
3573.996	65.46
3576.822	60.12
3579.645	52.46
3582.466	43.12
3585.285	40.12
3588.101	38.79
3590.916	30.12
3593.728	23.79
3596.538	16.46
3599.346	14.79
3602.152	9.46
3604.956	-5.88
3607.757	-0.54
3610.556	-3.88
3613.354	-8.88
3616.149	-16.21
3618.942	-9.54
3621.732	-18.54
3624.521	-18.54
3627.307	-25.88
3630.092	-27.21
3632.874	-26.54
3635.654	-31.21
3638.432	-36.21
3641.208	-28.88
3643.982	-37.21
3646.753	-40.21
3649.523	-41.54
3652.29	-43.54
3655.055	-49.88
3657.818	-50.54
3660.579	-55.21
3663.338	-58.54
3666.095	-60.21
3668.849	-61.54
3671.602	-64.21
3674.352	-67.21
3677.101	-67.54
3679.847	-70.54
3682.591	-69.54
3685.333	-70.88
3688.073	-76.21
3690.811	-79.54
3693.547	-79.54
3696.281	-76.88
3699.013	-82.88
3701.742	-85.21
3704.47	-85.21
3707.195	-85.54
3709.919	-84.54
3712.64	-87.54
3715.359	-83.88
3718.076	-86.88
3720.792	-87.21
3723.505	-90.88
3726.216	-91.88
3728.925	-89.54
3731.632	-90.54
3734.336	-92.88
3737.039	-94.88
3739.74	-93.54
3742.439	-95.21
3745.136	-97.54
3747.83	-97.54
3750.523	-100.88
3753.213	-98.54
3755.902	-102.21
3758.589	-99.54
3761.273	-97.88
3763.956	-97.54
3766.636	-101.54
3769.315	-99.54
3771.991	-99.21
3774.665	-100.21
3777.338	-99.88
3780.008	-101.21
3782.677	-99.21
3785.343	-99.21
3788.007	-101.54
3790.67	-100.54
3793.33	-99.88
3795.989	-101.88
3798.645	-101.88
3801.299	-101.88
3803.952	-102.54
3806.602	-103.21
3809.251	-106.21
3811.897	-108.88
3814.542	-107.88
3817.184	-109.21
3819.825	-105.88
3822.463	-105.21
3825.1	-106.88
3827.735	-105.21
3830.367	-110.54
3832.998	-103.21
3835.627	-103.54
3838.253	-108.21
3840.878	-104.21
3843.501	-104.54
3846.122	-105.21
3848.741	-100.88
3851.358	-104.54
3853.973	-104.88
3856.586	-107.21
3859.197	-104.88
3861.806	-102.88
3864.414	-105.21
3867.019	-104.88
3869.622	-105.88
3872.224	-102.88
3874.823	-101.88
3877.421	-98.21
3880.016	-91.21
3882.61	-86.88
3885.202	-85.21
3887.792	-91.88
3890.38	-97.54
3892.966	-104.54
3895.55	-108.88
3898.132	-108.54
3900.713	-109.88
3903.291	-107.21
3905.868	-106.88
3908.442	-108.54
3911.015	-108.88
3913.586	-107.88
3916.155	-111.21
3918.722	-107.88
3921.287	-107.21
3923.85	-106.21
3926.411	-105.21
3928.971	-107.54
3931.528	-104.54
3934.084	-106.88
3936.638	-110.21
3939.19	-108.88
3941.74	-108.88
3944.288	-106.54
3946.834	-108.88
3949.378	-107.88
3951.921	-108.21
3954.462	-107.88
3957	-109.88
3959.537	-108.88
3962.072	-111.88
3964.606	-109.88
3967.137	-107.88
3969.667	-104.54
3972.194	-108.88
3974.72	-107.88
3977.244	-110.21
3979.766	-107.21
3982.286	-104.54
3984.805	-106.88
3987.321	-102.54
3989.836	-102.88
3992.349	-102.88
3994.86	-105.88
3997.369	-106.54
3999.877	-105.54
4002.382	-104.54
4004.886	-105.54
4007.388	-105.21
4009.888	-106.88
4012.386	-107.21
4014.883	-105.21
4017.377	-107.54
4019.87	-107.88
4022.361	-107.88
4024.85	-109.54
4027.338	-106.88
4029.823	-111.21
4032.307	-107.88
4034.789	-107.88
4037.269	-108.88
4039.747	-106.88
4042.224	-106.21
4044.699	-109.21
4047.172	-107.21
4049.643	-106.54
4052.112	-107.88
4054.58	-107.88
4057.046	-102.88
4059.51	-107.54
4061.972	-106.88
4064.432	-105.21
4066.891	-106.54
4069.348	-105.88
4071.803	-103.88
4074.256	-107.21
4076.708	-109.54
4079.158	-107.88
4081.606	-109.21
4084.052	-109.88
4086.497	-109.54
4088.939	-109.54
4091.38	-110.54
4093.819	-111.54
4096.257	-110.54
4098.693	-111.54
4101.127	-110.21
4103.559	-108.54
4105.989	-70.21
4108.418	-63.21
4110.845	-59.21
4113.27	-56.21
4115.694	-48.54
4118.115	-44.88
4120.535	-108.21
4122.954	-108.88
4125.37	-107.88
4127.785	-106.21
4130.198	-108.21
4132.609	-106.88
4135.019	-110.21
4137.427	-115.54
4139.833	-109.88
4142.237	-111.21
