Data from Saline_1 (I=1 T=5x1 V=3ml)_RamanShift_3.txt Node
Date: Mon Jun 05 13:58:57 IDT 2017
User: aro
Spectrometer: QEPB0276
Trigger mode: 0
Integration Time (sec): 5.000000E0
Scans to average: 1
Electric dark correction enabled: true
Nonlinearity correction enabled: false
Boxcar width: 0
XAxis mode: Raman Shifts
Number of Pixels in Spectrum: 1044
>>>>>Begin Spectral Data<<<<<
160.701	-28.88
166.742	0.79
172.777	93.79
178.805	371.12
184.826	1052.46
190.841	2216.46
196.849	3510.79
202.85	4367.79
208.845	4566.12
214.833	4375.12
220.815	4194.79
226.789	4013.79
232.758	3914.12
238.719	3754.46
244.674	3595.46
250.623	3396.12
256.565	3230.46
262.5	3067.12
268.429	2928.79
274.351	2775.79
280.267	2636.79
286.176	2546.46
292.079	2431.46
297.975	2369.79
303.865	2281.46
309.748	2217.12
315.625	2157.79
321.495	2126.79
327.359	2086.12
333.217	2064.79
339.068	2059.12
344.912	2057.46
350.751	2043.79
356.583	2040.79
362.408	2030.79
368.227	2029.12
374.04	2052.79
379.847	2073.46
385.647	2090.46
391.44	2087.79
397.228	2090.12
403.009	2076.79
408.784	2086.79
414.553	2181.79
420.315	2253.46
426.071	2281.79
431.821	2184.46
437.565	2123.79
443.302	2084.79
449.033	2058.12
454.758	2047.46
460.477	2044.79
466.189	2031.12
471.896	2002.12
477.596	1964.79
483.29	1962.46
488.978	1929.79
494.66	1933.79
500.335	1883.79
506.005	1844.46
511.668	1804.46
517.325	1782.12
522.977	1741.79
528.622	1700.46
534.261	1690.79
539.894	1660.12
545.521	1634.12
551.141	1630.12
556.756	1624.12
562.365	1595.79
567.968	1585.79
573.565	1572.12
579.155	1556.46
584.74	1548.79
590.319	1521.79
595.892	1504.46
601.459	1492.46
607.02	1471.79
612.575	1450.79
618.124	1433.79
623.667	1426.12
629.204	1407.12
634.735	1392.79
640.261	1399.46
645.781	1404.79
651.294	1394.12
656.802	1371.12
662.304	1330.12
667.8	1316.12
673.29	1293.46
678.775	1278.12
684.254	1257.12
689.726	1268.12
695.193	1242.46
700.655	1232.46
706.11	1203.79
711.56	1211.46
717.004	1178.79
722.442	1177.79
727.874	1143.46
733.301	1138.12
738.722	1127.79
744.137	1127.12
749.547	1133.46
754.951	1129.46
760.349	1106.79
765.741	1092.79
771.128	1090.79
776.509	1075.46
781.885	1075.46
787.254	1073.79
792.618	1048.12
797.977	1049.79
803.33	1017.46
808.677	1017.46
814.019	995.79
819.355	978.46
824.686	964.12
830.011	951.12
835.33	930.79
840.644	914.79
845.952	898.79
851.255	892.79
856.552	878.79
861.844	871.79
867.13	859.12
872.41	840.12
877.686	852.79
882.955	829.12
888.219	808.79
893.478	783.12
898.731	765.79
903.979	741.12
909.221	724.46
914.458	711.79
919.69	700.46
924.916	691.79
930.136	707.12
935.351	684.12
940.561	678.46
945.766	673.46
950.965	647.79
956.158	636.46
961.347	641.12
966.529	617.46
971.707	594.79
976.879	598.46
982.046	585.79
987.208	578.46
992.364	576.12
997.515	578.46
1002.66	568.79
1007.801	573.12
1012.936	584.79
1018.066	591.46
1023.19	582.79
1028.309	580.79
1033.423	588.79
1038.532	583.79
1043.636	560.12
1048.734	576.12
1053.827	557.12
1058.915	538.12
1063.998	538.79
1069.075	543.46
1074.147	539.79
1079.214	543.79
1084.276	538.12
1089.333	551.46
1094.385	542.12
1099.431	538.12
1104.472	548.12
1109.509	533.79
1114.54	526.12
1119.565	513.79
1124.586	505.46
1129.602	495.12
1134.613	500.46
1139.618	502.12
1144.619	494.12
1149.614	494.46
1154.604	488.12
1159.589	492.79
1164.57	501.79
1169.545	497.79
1174.515	496.46
1179.48	486.46
1184.44	483.46
1189.395	482.12
1194.345	471.79
1199.29	466.79
1204.23	477.46
1209.165	475.79
1214.095	484.46
1219.021	482.79
1223.941	482.46
1228.856	485.79
1233.766	495.12
1238.672	484.79
1243.572	482.79
1248.467	472.79
1253.358	472.46
1258.244	450.46
1263.124	456.46
1268	448.12
1272.871	424.12
1277.737	430.79
1282.599	420.46
1287.455	420.46
1292.306	424.46
1297.153	430.46
1301.995	429.46
1306.832	421.12
1311.664	428.46
1316.491	429.46
1321.314	421.46
1326.132	424.12
1330.945	400.46
1335.753	405.12
1340.556	392.46
1345.354	377.46
1350.148	380.79
1354.937	367.12
1359.722	367.46
1364.501	370.46
1369.276	358.46
1374.046	362.46
1378.811	368.46
1383.572	364.79
1388.327	361.46
1393.079	369.12
1397.825	353.46
1402.567	350.12
1407.304	350.79
1412.036	343.79
1416.764	344.79
1421.487	343.79
1426.205	342.12
1430.919	338.79
1435.628	348.46
1440.333	358.79
1445.032	350.12
1449.727	355.46
1454.418	355.46
1459.104	352.79
1463.785	359.12
1468.462	343.46
1473.134	330.79
1477.802	340.46
1482.465	335.12
1487.123	338.79
1491.777	340.79
1496.426	346.46
1501.071	353.12
1505.711	364.12
1510.347	366.46
1514.978	376.12
1519.604	380.79
1524.226	401.12
1528.844	387.46
1533.457	389.79
1538.065	394.46
1542.669	384.46
1547.269	398.79
1551.864	404.79
1556.454	410.12
1561.041	408.12
1565.622	428.79
1570.199	434.79
1574.772	450.46
1579.34	493.79
1583.904	500.12
1588.464	517.12
1593.019	523.79
1597.569	549.79
1602.115	562.12
1606.657	592.46
1611.195	596.12
1615.728	621.12
1620.256	647.46
1624.78	668.46
1629.3	689.79
1633.816	700.12
1638.327	714.79
1642.834	738.46
1647.336	714.79
1651.834	729.46
1656.328	735.79
1660.817	707.12
1665.302	672.79
1669.783	666.46
1674.259	633.79
1678.732	596.12
1683.199	553.12
1687.663	526.46
1692.122	488.12
1696.577	456.46
1701.028	423.12
1705.474	406.12
1709.917	375.79
1714.355	355.12
1718.788	337.46
1723.218	298.79
1727.643	285.79
1732.064	261.79
1736.481	244.46
1740.893	221.12
1745.301	203.46
1749.705	195.46
1754.105	176.46
1758.501	166.12
1762.893	153.46
1767.28	142.12
1771.663	134.12
1776.042	134.46
1780.417	123.79
1784.787	123.12
1789.154	125.12
1793.516	120.79
1797.874	123.46
1802.228	111.46
1806.578	104.79
1810.924	106.12
1815.266	103.46
1819.603	95.46
1823.937	91.79
1828.266	84.12
1832.591	88.79
1836.913	84.79
1841.23	79.46
1845.543	72.12
1849.852	67.79
1854.156	71.79
1858.457	72.79
1862.754	76.79
1867.047	76.12
1871.335	80.46
1875.62	79.46
1879.9	77.79
1884.177	76.12
1888.449	80.79
1892.718	75.46
1896.982	78.12
1901.243	78.46
1905.499	76.79
1909.752	71.12
1914	78.12
1918.245	78.79
1922.485	78.79
1926.722	79.46
1930.954	78.12
1935.183	88.46
1939.408	87.46
1943.628	85.46
1947.845	92.12
1952.058	86.12
1956.267	87.79
1960.472	91.79
1964.673	84.12
1968.87	88.12
1973.063	91.46
1977.252	88.79
1981.438	85.79
1985.619	85.12
1989.797	84.12
1993.971	90.79
1998.14	82.79
2002.306	91.79
2006.469	89.46
2010.627	89.46
2014.781	92.79
2018.932	92.46
2023.078	89.12
2027.221	97.46
2031.36	85.46
2035.495	86.46
2039.627	93.12
2043.754	88.12
2047.878	92.12
2051.998	98.46
2056.114	97.79
2060.226	104.12
2064.334	102.12
2068.439	108.46
2072.54	111.12
2076.637	108.46
2080.73	109.79
2084.82	110.46
2088.906	109.12
2092.988	115.46
2097.066	113.46
2101.14	104.12
2105.211	102.46
2109.278	108.46
2113.342	101.12
2117.401	99.79
2121.457	98.12
2125.509	95.79
2129.558	96.46
2133.602	93.46
2137.643	96.12
2141.681	92.79
2145.714	93.12
2149.744	91.79
2153.77	88.46
2157.793	85.12
2161.812	81.46
2165.827	78.46
2169.838	76.12
2173.846	68.46
2177.851	65.46
2181.851	67.12
2185.848	55.46
2189.841	47.12
2193.831	49.46
2197.817	46.46
2201.799	41.12
2205.778	35.12
2209.753	38.12
2213.725	39.46
2217.693	37.79
2221.657	37.12
2225.618	35.12
2229.575	35.79
2233.529	31.46
2237.479	27.46
2241.425	23.46
2245.368	24.79
2249.307	22.12
2253.243	16.46
2257.175	14.79
2261.104	6.46
2265.029	2.12
2268.95	3.12
2272.868	0.46
2276.783	-0.88
2280.694	-6.88
2284.601	-10.54
2288.505	-6.88
2292.405	-11.21
2296.302	-12.54
2300.195	-16.21
2304.085	-15.88
2307.971	-15.54
2311.854	-21.88
2315.734	-19.54
2319.609	-22.54
2323.482	-26.54
2327.351	-26.88
2331.216	-23.21
2335.078	-23.54
2338.937	-27.21
2342.792	-31.21
2346.643	-29.21
2350.492	-28.88
2354.336	-35.54
2358.178	-37.88
2362.015	-40.54
2365.85	-32.21
2369.681	-36.88
2373.508	-38.88
2377.333	-42.21
2381.153	-36.54
2384.971	-38.54
2388.785	-40.54
2392.595	-38.21
2396.402	-36.21
2400.206	-41.54
2404.007	-40.88
2407.804	-39.21
2411.597	-41.54
2415.388	-39.88
2419.174	-46.21
2422.958	-47.21
2426.738	-41.21
2430.515	-48.54
2434.289	-46.88
2438.059	-55.21
2441.825	-54.54
2445.589	-50.21
2449.349	-51.88
2453.106	-50.54
2456.859	-51.21
2460.61	-55.21
2464.356	-52.21
2468.1	-53.88
2471.84	-50.54
2475.577	-51.54
2479.311	-54.54
2483.041	-55.88
2486.768	-52.88
2490.492	-54.21
2494.213	-51.54
2497.93	-58.54
2501.644	-52.54
2505.355	-53.21
2509.062	-55.54
2512.766	-55.54
2516.467	-60.21
2520.165	-57.88
2523.859	-58.21
2527.551	-63.54
2531.239	-58.88
2534.923	-57.88
2538.605	-60.21
2542.283	-60.88
2545.958	-56.88
2549.63	-59.54
2553.299	-56.88
2556.964	-55.21
2560.626	-57.54
2564.285	-60.21
2567.941	-57.54
2571.594	-60.54
2575.243	-59.54
2578.89	-58.54
2582.533	-58.54
2586.173	-64.88
2589.809	-62.88
2593.443	-68.88
2597.073	-64.21
2600.701	-68.54
2604.325	-62.21
2607.946	-62.88
2611.564	-65.21
2615.178	-64.54
2618.79	-63.54
2622.398	-63.21
2626.004	-66.21
2629.606	-65.88
2633.205	-63.21
2636.801	-61.21
2640.394	-61.54
2643.983	-66.54
2647.57	-66.21
2651.153	-65.54
2654.734	-66.54
2658.311	-62.88
2661.885	-66.21
2665.456	-69.21
2669.025	-70.88
2672.589	-68.54
2676.151	-66.54
2679.71	-70.88
2683.266	-63.21
2686.819	-67.54
2690.368	-63.21
2693.915	-62.88
2697.458	-60.88
2700.999	-62.54
2704.536	-60.21
2708.071	-60.21
2711.602	-62.21
2715.13	-60.88
2718.656	-64.21
2722.178	-63.21
2725.697	-62.88
2729.214	-60.88
2732.727	-59.21
2736.237	-62.88
2739.744	-58.54
2743.249	-57.54
2746.75	-56.88
2750.248	-57.54
2753.743	-54.21
2757.236	-53.54
2760.725	-55.54
2764.211	-56.21
2767.695	-53.21
2771.175	-50.21
2774.652	-50.88
2778.127	-44.88
2781.598	-46.54
2785.067	-44.54
2788.532	-48.21
2791.995	-46.54
2795.455	-41.21
2798.911	-42.21
2802.365	-38.21
2805.816	-40.54
2809.264	-34.88
2812.709	-36.54
2816.151	-35.21
2819.59	-32.21
2823.026	-30.88
2826.46	-31.88
2829.89	-26.21
2833.318	-20.54
2836.742	-23.88
2840.164	-17.54
2843.583	-17.54
2846.999	-18.54
2850.412	-11.54
2853.822	-10.88
2857.229	-7.54
2860.634	-4.54
2864.035	-2.21
2867.434	3.12
2870.83	0.46
2874.223	6.12
2877.613	11.46
2881	17.79
2884.385	24.79
2887.766	26.12
2891.145	19.46
2894.521	22.12
2897.894	29.46
2901.264	32.46
2904.631	32.12
2907.996	37.46
2911.358	34.46
2914.717	44.79
2918.073	45.46
2921.426	55.12
2924.777	53.46
2928.124	55.12
2931.469	61.46
2934.811	70.79
2938.15	72.46
2941.487	81.79
2944.821	87.46
2948.152	89.79
2951.48	98.12
2954.805	101.46
2958.128	102.79
2961.447	109.12
2964.765	111.46
2968.079	122.46
2971.39	127.79
2974.699	134.12
2978.005	148.12
2981.308	156.79
2984.609	156.46
2987.907	172.12
2991.202	177.79
2994.494	186.46
2997.784	199.46
3001.07	206.12
3004.355	218.12
3007.636	226.46
3010.915	231.46
3014.191	235.12
3017.464	248.46
3020.734	261.12
3024.002	266.12
3027.267	272.46
3030.53	281.79
3033.789	289.79
3037.046	293.12
3040.301	320.12
3043.552	318.79
3046.801	333.46
3050.048	342.79
3053.291	368.12
3056.532	367.46
3059.771	393.79
3063.006	400.46
3066.239	426.79
3069.469	441.12
3072.697	460.46
3075.922	471.12
3079.144	496.46
3082.364	512.12
3085.581	518.79
3088.795	542.46
3092.007	558.12
3095.216	576.12
3098.423	591.46
3101.627	617.79
3104.828	623.12
3108.026	636.46
3111.222	664.12
3114.416	683.46
3117.607	709.12
3120.795	716.46
3123.98	749.12
3127.163	760.79
3130.344	779.79
3133.521	808.12
3136.696	837.79
3139.869	841.12
3143.039	866.46
3146.206	885.79
3149.371	900.79
3152.533	899.12
3155.693	905.12
3158.85	923.79
3162.005	931.12
3165.157	932.12
3168.306	948.46
3171.453	951.12
3174.597	951.79
3177.739	963.79
3180.878	972.46
3184.014	971.79
3187.149	968.46
3190.28	992.46
3193.409	996.46
3196.536	987.12
3199.659	1008.79
3202.781	997.46
3205.9	993.79
3209.016	1001.12
3212.13	1002.79
3215.241	1002.46
3218.35	994.12
3221.456	989.12
3224.56	980.79
3227.661	986.79
3230.76	985.46
3233.856	964.79
3236.95	948.12
3240.041	952.79
3243.13	968.79
3246.216	946.79
3249.3	936.12
3252.382	948.12
3255.46	943.46
3258.537	942.79
3261.611	949.12
3264.682	937.46
3267.751	937.46
3270.818	927.46
3273.882	928.46
3276.943	909.46
3280.002	906.79
3283.059	896.12
3286.113	892.12
3289.165	876.12
3292.214	871.12
3295.261	853.46
3298.306	838.46
3301.348	823.12
3304.387	822.46
3307.425	807.46
3310.459	784.46
3313.492	782.46
3316.521	779.46
3319.549	762.12
3322.574	756.12
3325.597	766.12
3328.617	757.79
3331.635	734.46
3334.65	740.79
3337.663	742.12
3340.674	733.79
3343.682	752.79
3346.688	728.12
3349.691	724.79
3352.692	722.79
3355.691	743.12
3358.687	731.46
3361.681	721.79
3364.673	715.46
3367.662	706.79
3370.649	699.79
3373.633	682.12
3376.615	671.12
3379.595	669.79
3382.572	665.79
3385.547	664.46
3388.52	641.12
3391.49	634.46
3394.458	626.12
3397.424	618.12
3400.387	610.12
3403.348	613.79
3406.307	595.46
3409.263	604.46
3412.217	594.79
3415.168	586.79
3418.118	590.12
3421.065	574.79
3424.009	573.46
3426.951	560.46
3429.891	550.79
3432.829	551.79
3435.764	537.12
3438.697	526.79
3441.628	509.79
3444.557	491.79
3447.483	485.46
3450.407	473.46
3453.328	454.46
3456.247	443.79
3459.164	435.79
3462.079	423.46
3464.991	404.46
3467.902	394.79
3470.809	380.46
3473.715	369.46
3476.618	355.46
3479.519	353.79
3482.418	336.79
3485.315	335.46
3488.209	330.79
3491.101	309.12
3493.99	303.12
3496.878	295.12
3499.763	294.79
3502.646	274.46
3505.527	273.12
3508.405	265.12
3511.281	251.12
3514.155	243.12
3517.027	235.79
3519.897	222.46
3522.764	200.79
3525.629	197.12
3528.492	178.46
3531.352	169.79
3534.211	160.79
3537.067	144.12
3539.921	141.79
3542.773	132.79
3545.622	117.79
3548.469	123.12
3551.315	106.79
3554.157	101.79
3556.998	99.79
3559.837	95.79
3562.673	82.46
3565.507	77.12
3568.339	70.12
3571.169	68.46
3573.996	60.46
3576.822	52.12
3579.645	51.46
3582.466	40.12
3585.285	41.12
3588.101	34.79
3590.916	25.12
3593.728	19.79
3596.538	18.46
3599.346	12.79
3602.152	12.46
3604.956	7.12
3607.757	-1.54
3610.556	-8.88
3613.354	-3.88
3616.149	-7.21
3618.942	-14.54
3621.732	-12.54
3624.521	-17.54
3627.307	-16.88
3630.092	-28.21
3632.874	-24.54
3635.654	-25.21
3638.432	-30.21
3641.208	-38.88
3643.982	-40.21
3646.753	-41.21
3649.523	-45.54
3652.29	-47.54
3655.055	-48.88
3657.818	-53.54
3660.579	-54.21
3663.338	-55.54
3666.095	-57.21
3668.849	-60.54
3671.602	-63.21
3674.352	-60.21
3677.101	-64.54
3679.847	-67.54
3682.591	-67.54
3685.333	-69.88
3688.073	-71.21
3690.811	-76.54
3693.547	-74.54
3696.281	-76.88
3699.013	-79.88
3701.742	-80.21
3704.47	-84.21
3707.195	-84.54
3709.919	-87.54
3712.64	-87.54
3715.359	-85.88
3718.076	-85.88
3720.792	-89.21
3723.505	-88.88
3726.216	-87.88
3728.925	-90.54
3731.632	-94.54
3734.336	-89.88
3737.039	-87.88
3739.74	-91.54
3742.439	-91.21
3745.136	-90.54
3747.83	-91.54
3750.523	-91.88
3753.213	-99.54
3755.902	-96.21
3758.589	-95.54
3761.273	-95.88
3763.956	-98.54
3766.636	-98.54
3769.315	-100.54
3771.991	-100.21
3774.665	-99.21
3777.338	-97.88
3780.008	-98.21
3782.677	-99.21
3785.343	-96.21
3788.007	-96.54
3790.67	-96.54
3793.33	-97.88
3795.989	-98.88
3798.645	-96.88
3801.299	-98.88
3803.952	-101.54
3806.602	-101.21
3809.251	-104.21
3811.897	-105.88
3814.542	-102.88
3817.184	-106.21
3819.825	-103.88
3822.463	-103.21
3825.1	-104.88
3827.735	-104.21
3830.367	-100.54
3832.998	-99.21
3835.627	-106.54
3838.253	-101.21
3840.878	-103.21
3843.501	-102.54
3846.122	-105.21
3848.741	-97.88
3851.358	-103.54
3853.973	-101.88
3856.586	-103.21
3859.197	-100.88
3861.806	-102.88
3864.414	-106.21
3867.019	-106.88
3869.622	-104.88
3872.224	-102.88
3874.823	-101.88
3877.421	-97.21
3880.016	-92.21
3882.61	-84.88
3885.202	-86.21
3887.792	-87.88
3890.38	-94.54
3892.966	-96.54
3895.55	-103.88
3898.132	-102.54
3900.713	-104.88
3903.291	-105.21
3905.868	-106.88
3908.442	-104.54
3911.015	-108.88
3913.586	-106.88
3916.155	-107.21
3918.722	-108.88
3921.287	-108.21
3923.85	-109.21
3926.411	-108.21
3928.971	-106.54
3931.528	-107.54
3934.084	-104.88
3936.638	-106.21
3939.19	-106.88
3941.74	-106.88
3944.288	-103.54
3946.834	-106.88
3949.378	-105.88
3951.921	-103.21
3954.462	-105.88
3957	-104.88
3959.537	-103.88
3962.072	-108.88
3964.606	-107.88
3967.137	-107.88
3969.667	-103.54
3972.194	-108.88
3974.72	-107.88
3977.244	-107.21
3979.766	-106.21
3982.286	-105.54
3984.805	-100.88
3987.321	-102.54
3989.836	-103.88
3992.349	-103.88
3994.86	-101.88
3997.369	-104.54
3999.877	-103.54
4002.382	-103.54
4004.886	-102.54
4007.388	-101.21
4009.888	-101.88
4012.386	-104.21
4014.883	-104.21
4017.377	-105.54
4019.87	-107.88
4022.361	-105.88
4024.85	-104.54
4027.338	-106.88
4029.823	-106.21
4032.307	-104.88
4034.789	-106.88
4037.269	-104.88
4039.747	-102.88
4042.224	-105.21
4044.699	-105.21
4047.172	-105.21
4049.643	-105.54
4052.112	-102.88
4054.58	-104.88
4057.046	-103.88
4059.51	-105.54
4061.972	-102.88
4064.432	-105.21
4066.891	-103.54
4069.348	-106.88
4071.803	-106.88
4074.256	-108.21
4076.708	-106.54
4079.158	-103.88
4081.606	-109.21
4084.052	-106.88
4086.497	-106.54
4088.939	-102.54
4091.38	-105.54
4093.819	-104.54
4096.257	-109.54
4098.693	-111.54
4101.127	-108.21
4103.559	-112.54
4105.989	-71.21
4108.418	-66.21
4110.845	-63.21
4113.27	-60.21
4115.694	-53.54
4118.115	-41.88
4120.535	-105.21
4122.954	-104.88
4125.37	-102.88
4127.785	-103.21
4130.198	-104.21
4132.609	-105.88
4135.019	-108.21
4137.427	-109.54
4139.833	-109.88
4142.237	-109.21
