Data from .125_RamanShift_01.txt Node
Date: Wed Mar 21 15:04:12 IST 2018
User: aro
Spectrometer: QEPB0276
Trigger mode: 0
Integration Time (sec): 5.000000E0
Scans to average: 1
Electric dark correction enabled: true
Nonlinearity correction enabled: false
Boxcar width: 0
XAxis mode: Raman Shifts
Number of Pixels in Spectrum: 1044
>>>>>Begin Spectral Data<<<<<
160.701	0.6
166.742	1.6
172.777	2.6
178.805	11.6
184.826	28.6
190.841	62.6
196.849	95.6
202.85	117.6
208.845	128.6
214.833	116.6
220.815	115.6
226.789	116.6
232.758	117.6
238.719	120.6
244.674	120.6
250.623	121.6
256.565	118.6
262.5	110.6
268.429	110.6
274.351	104.6
280.267	109.6
286.176	101.6
292.079	101.6
297.975	98.6
303.865	94.6
309.748	103.6
315.625	98.6
321.495	102.6
327.359	99.6
333.217	97.6
339.068	99.6
344.912	97.6
350.751	96.6
356.583	94.6
362.408	100.6
368.227	103.6
374.04	105.6
379.847	103.6
385.647	114.6
391.44	111.6
397.228	109.6
403.009	112.6
408.784	125.6
414.553	138.6
420.315	155.6
426.071	151.6
431.821	129.6
437.565	112.6
443.302	107.6
449.033	109.6
454.758	102.6
460.477	105.6
466.189	103.6
471.896	95.6
477.596	94.6
483.29	94.6
488.978	99.6
494.66	94.6
500.335	88.6
506.005	77.6
511.668	75.6
517.325	67.6
522.977	61.6
528.622	60.6
534.261	59.6
539.894	50.6
545.521	61.6
551.141	56.6
556.756	60.6
562.365	52.6
567.968	53.6
573.565	50.6
579.155	54.6
584.74	46.6
590.319	53.6
595.892	52.6
601.459	53.6
607.02	56.6
612.575	54.6
618.124	50.6
623.667	50.6
629.204	48.6
634.735	48.6
640.261	52.6
645.781	62.6
651.294	58.6
656.802	55.6
662.304	50.6
667.8	41.6
673.29	40.6
678.775	46.6
684.254	41.6
689.726	39.6
695.193	40.6
700.655	41.6
706.11	34.6
711.56	41.6
717.004	40.6
722.442	41.6
727.874	42.6
733.301	42.6
738.722	42.6
744.137	40.6
749.547	35.6
754.951	46.6
760.349	49.6
765.741	45.6
771.128	46.6
776.509	45.6
781.885	47.6
787.254	46.6
792.618	46.6
797.977	41.6
803.33	42.6
808.677	44.6
814.019	43.6
819.355	39.6
824.686	43.6
830.011	36.6
835.33	38.6
840.644	41.6
845.952	43.6
851.255	42.6
856.552	36.6
861.844	37.6
867.13	39.6
872.41	44.6
877.686	39.6
882.955	36.6
888.219	35.6
893.478	32.6
898.731	29.6
903.979	26.6
909.221	30.6
914.458	29.6
919.69	31.6
924.916	28.6
930.136	28.6
935.351	34.6
940.561	32.6
945.766	30.6
950.965	27.6
956.158	31.6
961.347	29.6
966.529	29.6
971.707	31.6
976.879	25.6
982.046	25.6
987.208	28.6
992.364	26.6
997.515	27.6
1002.66	28.6
1007.801	28.6
1012.936	28.6
1018.066	25.6
1023.19	23.6
1028.309	23.6
1033.423	23.6
1038.532	28.6
1043.636	30.6
1048.734	28.6
1053.827	25.6
1058.915	25.6
1063.998	25.6
1069.075	21.6
1074.147	27.6
1079.214	25.6
1084.276	26.6
1089.333	27.6
1094.385	30.6
1099.431	28.6
1104.472	24.6
1109.509	25.6
1114.54	23.6
1119.565	25.6
1124.586	24.6
1129.602	18.6
1134.613	27.6
1139.618	25.6
1144.619	25.6
1149.614	27.6
1154.604	28.6
1159.589	23.6
1164.57	20.6
1169.545	21.6
1174.515	23.6
1179.48	27.6
1184.44	22.6
1189.395	21.6
1194.345	23.6
1199.29	27.6
1204.23	20.6
1209.165	20.6
1214.095	22.6
1219.021	22.6
1223.941	22.6
1228.856	24.6
1233.766	23.6
1238.672	24.6
1243.572	27.6
1248.467	26.6
1253.358	26.6
1258.244	25.6
1263.124	18.6
1268	23.6
1272.871	21.6
1277.737	20.6
1282.599	23.6
1287.455	21.6
1292.306	26.6
1297.153	23.6
1301.995	22.6
1306.832	19.6
1311.664	22.6
1316.491	21.6
1321.314	22.6
1326.132	22.6
1330.945	22.6
1335.753	21.6
1340.556	20.6
1345.354	17.6
1350.148	21.6
1354.937	17.6
1359.722	17.6
1364.501	14.6
1369.276	18.6
1374.046	20.6
1378.811	21.6
1383.572	22.6
1388.327	18.6
1393.079	20.6
1397.825	12.6
1402.567	15.6
1407.304	13.6
1412.036	18.6
1416.764	18.6
1421.487	18.6
1426.205	18.6
1430.919	18.6
1435.628	15.6
1440.333	19.6
1445.032	17.6
1449.727	19.6
1454.418	17.6
1459.104	19.6
1463.785	21.6
1468.462	18.6
1473.134	23.6
1477.802	19.6
1482.465	18.6
1487.123	16.6
1491.777	18.6
1496.426	16.6
1501.071	18.6
1505.711	20.6
1510.347	19.6
1514.978	18.6
1519.604	21.6
1524.226	20.6
1528.844	17.6
1533.457	21.6
1538.065	18.6
1542.669	17.6
1547.269	15.6
1551.864	16.6
1556.454	17.6
1561.041	19.6
1565.622	22.6
1570.199	20.6
1574.772	17.6
1579.34	18.6
1583.904	16.6
1588.464	15.6
1593.019	14.6
1597.569	18.6
1602.115	19.6
1606.657	18.6
1611.195	20.6
1615.728	22.6
1620.256	21.6
1624.78	24.6
1629.3	22.6
1633.816	23.6
1638.327	22.6
1642.834	23.6
1647.336	26.6
1651.834	31.6
1656.328	26.6
1660.817	25.6
1665.302	22.6
1669.783	24.6
1674.259	23.6
1678.732	20.6
1683.199	18.6
1687.663	17.6
1692.122	18.6
1696.577	19.6
1701.028	20.6
1705.474	19.6
1709.917	17.6
1714.355	16.6
1718.788	14.6
1723.218	10.6
1727.643	12.6
1732.064	11.6
1736.481	10.6
1740.893	14.6
1745.301	14.6
1749.705	12.6
1754.105	12.6
1758.501	13.6
1762.893	9.6
1767.28	14.6
1771.663	9.6
1776.042	14.6
1780.417	21.6
1784.787	22.6
1789.154	16.6
1793.516	11.6
1797.874	11.6
1802.228	12.6
1806.578	11.6
1810.924	11.6
1815.266	10.6
1819.603	9.6
1823.937	10.6
1828.266	14.6
1832.591	11.6
1836.913	11.6
1841.23	11.6
1845.543	9.6
1849.852	10.6
1854.156	6.6
1858.457	7.6
1862.754	7.6
1867.047	8.6
1871.335	9.6
1875.62	8.6
1879.9	8.6
1884.177	8.6
1888.449	9.6
1892.718	5.6
1896.982	10.6
1901.243	8.6
1905.499	11.6
1909.752	6.6
1914	5.6
1918.245	8.6
1922.485	8.6
1926.722	5.6
1930.954	7.6
1935.183	7.6
1939.408	10.6
1943.628	6.6
1947.845	9.6
1952.058	6.6
1956.267	7.6
1960.472	8.6
1964.673	9.6
1968.87	9.6
1973.063	10.6
1977.252	12.6
1981.438	9.6
1985.619	10.6
1989.797	9.6
1993.971	8.6
1998.14	10.6
2002.306	9.6
2006.469	4.6
2010.627	8.6
2014.781	10.6
2018.932	12.6
2023.078	9.6
2027.221	7.6
2031.36	6.6
2035.495	4.6
2039.627	1.6
2043.754	2.6
2047.878	2.6
2051.998	3.6
2056.114	6.6
2060.226	1.6
2064.334	9.6
2068.439	11.6
2072.54	13.6
2076.637	9.6
2080.73	5.6
2084.82	6.6
2088.906	6.6
2092.988	5.6
2097.066	8.6
2101.14	7.6
2105.211	7.6
2109.278	13.6
2113.342	12.6
2117.401	7.6
2121.457	8.6
2125.509	6.6
2129.558	10.6
2133.602	6.6
2137.643	8.6
2141.681	5.6
2145.714	8.6
2149.744	10.6
2153.77	7.6
2157.793	7.6
2161.812	5.6
2165.827	6.6
2169.838	4.6
2173.846	6.6
2177.851	6.6
2181.851	6.6
2185.848	7.6
2189.841	6.6
2193.831	4.6
2197.817	5.6
2201.799	4.6
2205.778	-0.4
2209.753	3.6
2213.725	2.6
2217.693	4.6
2221.657	9.6
2225.618	5.6
2229.575	6.6
2233.529	4.6
2237.479	6.6
2241.425	5.6
2245.368	6.6
2249.307	4.6
2253.243	5.6
2257.175	6.6
2261.104	6.6
2265.029	7.6
2268.95	3.6
2272.868	8.6
2276.783	5.6
2280.694	2.6
2284.601	0.6
2288.505	-1.4
2292.405	2.6
2296.302	-1.4
2300.195	0.6
2304.085	3.6
2307.971	6.6
2311.854	5.6
2315.734	2.6
2319.609	3.6
2323.482	1.6
2327.351	0.6
2331.216	6.6
2335.078	-1.4
2338.937	-1.4
2342.792	1.6
2346.643	0.6
2350.492	1.6
2354.336	3.6
2358.178	5.6
2362.015	4.6
2365.85	4.6
2369.681	3.6
2373.508	1.6
2377.333	1.6
2381.153	1.6
2384.971	3.6
2388.785	8.6
2392.595	6.6
2396.402	4.6
2400.206	7.6
2404.007	2.6
2407.804	-0.4
2411.597	2.6
2415.388	2.6
2419.174	1.6
2422.958	-0.4
2426.738	0.6
2430.515	0.6
2434.289	4.6
2438.059	2.6
2441.825	2.6
2445.589	-0.4
2449.349	-4.4
2453.106	-0.4
2456.859	-1.4
2460.61	-2.4
2464.356	2.6
2468.1	2.6
2471.84	5.6
2475.577	2.6
2479.311	1.6
2483.041	1.6
2486.768	5.6
2490.492	-1.4
2494.213	1.6
2497.93	0.6
2501.644	5.6
2505.355	4.6
2509.062	3.6
2512.766	3.6
2516.467	2.6
2520.165	2.6
2523.859	1.6
2527.551	-1.4
2531.239	1.6
2534.923	2.6
2538.605	4.6
2542.283	1.6
2545.958	2.6
2549.63	-0.4
2553.299	-0.4
2556.964	3.6
2560.626	1.6
2564.285	-2.4
2567.941	1.6
2571.594	-2.4
2575.243	-4.4
2578.89	3.6
2582.533	2.6
2586.173	1.6
2589.809	1.6
2593.443	3.6
2597.073	1.6
2600.701	-2.4
2604.325	0.6
2607.946	3.6
2611.564	0.6
2615.178	1.6
2618.79	1.6
2622.398	-1.4
2626.004	6.6
2629.606	6.6
2633.205	3.6
2636.801	0.6
2640.394	3.6
2643.983	2.6
2647.57	2.6
2651.153	-3.4
2654.734	1.6
2658.311	2.6
2661.885	2.6
2665.456	0.6
2669.025	1.6
2672.589	2.6
2676.151	-0.4
2679.71	-1.4
2683.266	-4.4
2686.819	-0.4
2690.368	-4.4
2693.915	1.6
2697.458	0.6
2700.999	4.6
2704.536	1.6
2708.071	-2.4
2711.602	-2.4
2715.13	-3.4
2718.656	1.6
2722.178	2.6
2725.697	2.6
2729.214	3.6
2732.727	4.6
2736.237	3.6
2739.744	2.6
2743.249	1.6
2746.75	0.6
2750.248	0.6
2753.743	2.6
2757.236	-1.4
2760.725	-0.4
2764.211	-0.4
2767.695	4.6
2771.175	3.6
2774.652	3.6
2778.127	-0.4
2781.598	-0.4
2785.067	-1.4
2788.532	-2.4
2791.995	-4.4
2795.455	0.6
2798.911	2.6
2802.365	3.6
2805.816	2.6
2809.264	2.6
2812.709	-3.4
2816.151	-3.4
2819.59	1.6
2823.026	-4.4
2826.46	1.6
2829.89	-0.4
2833.318	6.6
2836.742	4.6
2840.164	2.6
2843.583	4.6
2846.999	1.6
2850.412	2.6
2853.822	3.6
2857.229	5.6
2860.634	2.6
2864.035	7.6
2867.434	2.6
2870.83	2.6
2874.223	6.6
2877.613	11.6
2881	14.6
2884.385	5.6
2887.766	3.6
2891.145	0.6
2894.521	3.6
2897.894	2.6
2901.264	0.6
2904.631	0.6
2907.996	9.6
2911.358	2.6
2914.717	0.6
2918.073	-1.4
2921.426	-2.4
2924.777	6.6
2928.124	-2.4
2931.469	2.6
2934.811	2.6
2938.15	7.6
2941.487	3.6
2944.821	3.6
2948.152	2.6
2951.48	1.6
2954.805	2.6
2958.128	4.6
2961.447	5.6
2964.765	5.6
2968.079	7.6
2971.39	7.6
2974.699	3.6
2978.005	3.6
2981.308	5.6
2984.609	0.6
2987.907	6.6
2991.202	5.6
2994.494	6.6
2997.784	-0.4
3001.07	6.6
3004.355	8.6
3007.636	5.6
3010.915	5.6
3014.191	2.6
3017.464	7.6
3020.734	5.6
3024.002	5.6
3027.267	5.6
3030.53	9.6
3033.789	5.6
3037.046	8.6
3040.301	7.6
3043.552	5.6
3046.801	5.6
3050.048	5.6
3053.291	1.6
3056.532	7.6
3059.771	7.6
3063.006	9.6
3066.239	7.6
3069.469	10.6
3072.697	6.6
3075.922	8.6
3079.144	3.6
3082.364	12.6
3085.581	11.6
3088.795	11.6
3092.007	12.6
3095.216	12.6
3098.423	13.6
3101.627	12.6
3104.828	13.6
3108.026	11.6
3111.222	9.6
3114.416	11.6
3117.607	15.6
3120.795	15.6
3123.98	17.6
3127.163	18.6
3130.344	16.6
3133.521	19.6
3136.696	14.6
3139.869	18.6
3143.039	13.6
3146.206	14.6
3149.371	13.6
3152.533	17.6
3155.693	16.6
3158.85	21.6
3162.005	17.6
3165.157	14.6
3168.306	17.6
3171.453	18.6
3174.597	18.6
3177.739	15.6
3180.878	11.6
3184.014	20.6
3187.149	17.6
3190.28	18.6
3193.409	19.6
3196.536	22.6
3199.659	20.6
3202.781	19.6
3205.9	15.6
3209.016	20.6
3212.13	21.6
3215.241	20.6
3218.35	22.6
3221.456	23.6
3224.56	19.6
3227.661	24.6
3230.76	20.6
3233.856	20.6
3236.95	19.6
3240.041	16.6
3243.13	18.6
3246.216	18.6
3249.3	14.6
3252.382	14.6
3255.46	18.6
3258.537	18.6
3261.611	18.6
3264.682	14.6
3267.751	14.6
3270.818	14.6
3273.882	11.6
3276.943	12.6
3280.002	14.6
3283.059	12.6
3286.113	18.6
3289.165	17.6
3292.214	16.6
3295.261	13.6
3298.306	12.6
3301.348	13.6
3304.387	12.6
3307.425	13.6
3310.459	14.6
3313.492	12.6
3316.521	18.6
3319.549	17.6
3322.574	16.6
3325.597	13.6
3328.617	12.6
3331.635	15.6
3334.65	17.6
3337.663	14.6
3340.674	15.6
3343.682	12.6
3346.688	17.6
3349.691	17.6
3352.692	11.6
3355.691	16.6
3358.687	14.6
3361.681	14.6
3364.673	13.6
3367.662	14.6
3370.649	13.6
3373.633	13.6
3376.615	12.6
3379.595	14.6
3382.572	14.6
3385.547	13.6
3388.52	13.6
3391.49	11.6
3394.458	10.6
3397.424	7.6
3400.387	8.6
3403.348	9.6
3406.307	5.6
3409.263	5.6
3412.217	7.6
3415.168	12.6
3418.118	12.6
3421.065	12.6
3424.009	9.6
3426.951	14.6
3429.891	9.6
3432.829	7.6
3435.764	8.6
3438.697	8.6
3441.628	8.6
3444.557	11.6
3447.483	11.6
3450.407	10.6
3453.328	11.6
3456.247	12.6
3459.164	8.6
3462.079	10.6
3464.991	6.6
3467.902	10.6
3470.809	7.6
3473.715	13.6
3476.618	8.6
3479.519	10.6
3482.418	9.6
3485.315	8.6
3488.209	5.6
3491.101	7.6
3493.99	6.6
3496.878	10.6
3499.763	7.6
3502.646	6.6
3505.527	7.6
3508.405	7.6
3511.281	5.6
3514.155	5.6
3517.027	2.6
3519.897	3.6
3522.764	1.6
3525.629	4.6
3528.492	5.6
3531.352	4.6
3534.211	8.6
3537.067	12.6
3539.921	8.6
3542.773	13.6
3545.622	6.6
3548.469	6.6
3551.315	5.6
3554.157	8.6
3556.998	3.6
3559.837	7.6
3562.673	5.6
3565.507	7.6
3568.339	3.6
3571.169	8.6
3573.996	5.6
3576.822	1.6
3579.645	0.6
3582.466	-0.4
3585.285	3.6
3588.101	3.6
3590.916	3.6
3593.728	4.6
3596.538	3.6
3599.346	3.6
3602.152	5.6
3604.956	9.6
3607.757	1.6
3610.556	-0.4
3613.354	-0.4
3616.149	0.6
3618.942	0.6
3621.732	2.6
3624.521	0.6
3627.307	8.6
3630.092	0.6
3632.874	1.6
3635.654	3.6
3638.432	2.6
3641.208	-0.4
3643.982	4.6
3646.753	-0.4
3649.523	2.6
3652.29	0.6
3655.055	5.6
3657.818	1.6
3660.579	3.6
3663.338	1.6
3666.095	-1.4
3668.849	-3.4
3671.602	0.6
3674.352	-0.4
3677.101	-4.4
3679.847	2.6
3682.591	-1.4
3685.333	-3.4
3688.073	-2.4
3690.811	-3.4
3693.547	-9.4
3696.281	-6.4
3699.013	-5.4
3701.742	-5.4
3704.47	-0.4
3707.195	-4.4
3709.919	-1.4
3712.64	-0.4
3715.359	-2.4
3718.076	-2.4
3720.792	-0.4
3723.505	-2.4
3726.216	-2.4
3728.925	-4.4
3731.632	-0.4
3734.336	-1.4
3737.039	-0.4
3739.74	-0.4
3742.439	1.6
3745.136	-1.4
3747.83	-4.4
3750.523	-4.4
3753.213	-2.4
3755.902	-7.4
3758.589	-0.4
3761.273	-7.4
3763.956	-2.4
3766.636	-5.4
3769.315	-0.4
3771.991	-1.4
3774.665	-0.4
3777.338	-1.4
3780.008	-5.4
3782.677	-6.4
3785.343	-2.4
3788.007	-5.4
3790.67	-0.4
3793.33	-1.4
3795.989	-1.4
3798.645	-0.4
3801.299	-1.4
3803.952	-0.4
3806.602	-0.4
3809.251	-3.4
3811.897	-2.4
3814.542	-2.4
3817.184	-2.4
3819.825	0.6
3822.463	0.6
3825.1	0.6
3827.735	-3.4
3830.367	-1.4
3832.998	-1.4
3835.627	-4.4
3838.253	-0.4
3840.878	-1.4
3843.501	-3.4
3846.122	1.6
3848.741	-2.4
3851.358	-5.4
3853.973	-5.4
3856.586	-3.4
3859.197	-6.4
3861.806	-3.4
3864.414	-4.4
3867.019	-8.4
3869.622	-3.4
3872.224	-0.4
3874.823	-2.4
3877.421	1.6
3880.016	3.6
3882.61	3.6
3885.202	1.6
3887.792	1.6
3890.38	-1.4
3892.966	-1.4
3895.55	-5.4
3898.132	-2.4
3900.713	2.6
3903.291	-1.4
3905.868	-3.4
3908.442	-2.4
3911.015	-2.4
3913.586	-6.4
3916.155	-7.4
3918.722	-2.4
3921.287	-4.4
3923.85	-4.4
3926.411	-4.4
3928.971	-2.4
3931.528	-5.4
3934.084	-4.4
3936.638	-3.4
3939.19	-5.4
3941.74	-6.4
3944.288	-3.4
3946.834	-5.4
3949.378	-3.4
3951.921	-2.4
3954.462	-0.4
3957	-1.4
3959.537	-5.4
3962.072	-0.4
3964.606	0.6
3967.137	1.6
3969.667	-0.4
3972.194	-5.4
3974.72	3.6
3977.244	-3.4
3979.766	0.6
3982.286	2.6
3984.805	-2.4
3987.321	-2.4
3989.836	-3.4
3992.349	-2.4
3994.86	-5.4
3997.369	-3.4
3999.877	-3.4
4002.382	-0.4
4004.886	-4.4
4007.388	-2.4
4009.888	-0.4
4012.386	-2.4
4014.883	-6.4
4017.377	-6.4
4019.87	-5.4
4022.361	-2.4
4024.85	-3.4
4027.338	1.6
4029.823	-6.4
4032.307	-4.4
4034.789	-2.4
4037.269	-4.4
4039.747	-4.4
4042.224	-5.4
4044.699	-2.4
4047.172	-3.4
4049.643	-2.4
4052.112	-1.4
4054.58	-1.4
4057.046	1.6
4059.51	-2.4
4061.972	-2.4
4064.432	-2.4
4066.891	-2.4
4069.348	-4.4
4071.803	-0.4
4074.256	-1.4
4076.708	-0.4
4079.158	-0.4
4081.606	1.6
4084.052	-1.4
4086.497	-1.4
4088.939	-3.4
4091.38	-2.4
4093.819	-4.4
4096.257	-3.4
4098.693	-4.4
4101.127	-3.4
4103.559	-2.4
4105.989	4.6
4108.418	1.6
4110.845	3.6
4113.27	2.6
4115.694	-1.4
4118.115	1.6
4120.535	-1.4
4122.954	-0.4
4125.37	-2.4
4127.785	-6.4
4130.198	-3.4
4132.609	-2.4
4135.019	-4.4
4137.427	-7.4
4139.833	-1.4
4142.237	-3.4
