Data from DDW_RamanShift_2.txt Node
Date: Mon Aug 14 12:09:28 IDT 2017
User: aro
Spectrometer: QEPB0276
Trigger mode: 0
Integration Time (sec): 3.000000E1
Scans to average: 3
Electric dark correction enabled: true
Nonlinearity correction enabled: false
Boxcar width: 5
XAxis mode: Raman Shifts
Number of Pixels in Spectrum: 1044
>>>>>Begin Spectral Data<<<<<
160.701	-0.11
166.742	0.07
172.777	0.46
178.805	-0.24
184.826	-0.13
190.841	-0.35
196.849	-0.14
202.85	-0.32
208.845	-0.35
214.833	-0.23
220.815	-0.29
226.789	-0.14
232.758	-0.56
238.719	-0.89
244.674	-0.62
250.623	-0.83
256.565	-0.89
262.5	-1.14
268.429	-0.65
274.351	-0.95
280.267	-1.08
286.176	-1.41
292.079	-1.29
297.975	-1.32
303.865	-1.5
309.748	-1.44
315.625	-1.26
321.495	-0.86
327.359	-0.86
333.217	-1.35
339.068	-1.35
344.912	-1.74
350.751	-1.41
356.583	-1.38
362.408	-1.11
368.227	-0.68
374.04	-0.77
379.847	-0.83
385.647	-0.92
391.44	-0.59
397.228	-0.41
403.009	0.05
408.784	0.5
414.553	0.53
420.315	0.02
426.071	-0.08
431.821	-0.47
437.565	-0.29
443.302	-0.41
449.033	-0.71
454.758	-1.23
460.477	-1.32
466.189	-1.44
471.896	-1.11
477.596	-0.86
483.29	-0.74
488.978	-0.56
494.66	-0.32
500.335	-0.11
506.005	-0.05
511.668	0.2
517.325	0.38
522.977	0.5
528.622	0.29
534.261	-0.17
539.894	-0.53
545.521	-0.44
551.141	-0.59
556.756	-0.59
562.365	-0.59
567.968	-0.29
573.565	-0.17
579.155	0.11
584.74	0.38
590.319	0.59
595.892	0.62
601.459	0.65
607.02	0.26
612.575	0.08
618.124	-0.26
623.667	-0.38
629.204	-0.92
634.735	-1.23
640.261	-1.35
645.781	-1.71
651.294	-1.65
656.802	-1.41
662.304	-1.08
667.8	-0.62
673.29	-0.35
678.775	-0.32
684.254	-0.2
689.726	-0.11
695.193	-0.2
700.655	-0.29
706.11	-0.41
711.56	-0.74
717.004	-1.05
722.442	-1.47
727.874	-1.8
733.301	-1.98
738.722	-1.83
744.137	-1.89
749.547	-1.56
754.951	-0.89
760.349	-0.56
765.741	-0.38
771.128	-0.08
776.509	0.32
781.885	0.71
787.254	0.74
792.618	0.8
797.977	0.59
803.33	0.17
808.677	-0.26
814.019	-0.92
819.355	-1.5
824.686	-1.41
830.011	-1.53
835.33	-1.65
840.644	-1.68
845.952	-1.35
851.255	-0.92
856.552	-0.41
861.844	0.05
867.13	0.17
872.41	0.41
877.686	0.71
882.955	0.38
888.219	-0.05
893.478	-0.35
898.731	-0.56
903.979	-0.59
909.221	-1.26
914.458	-1.41
919.69	-1.47
924.916	-0.89
930.136	-0.62
935.351	-0.41
940.561	-0.05
945.766	0.5
950.965	0.44
956.158	0.41
961.347	0.05
966.529	0.35
971.707	-0.14
976.879	-0.23
982.046	-1.11
987.208	-1.53
992.364	-2.08
997.515	-2.47
1002.66	-2.44
1007.801	-2.41
1012.936	-2.14
1018.066	-1.95
1023.19	-1.53
1028.309	-1.08
1033.423	-0.98
1038.532	-4.05
1043.636	-14.59
1048.734	-15.38
1053.827	-14.98
1058.915	-15.05
1063.998	-14.95
1069.075	-15.08
1074.147	-14.74
1079.214	-14.77
1084.276	-14.74
1089.333	-14.92
1094.385	-11.41
1099.431	-0.47
1104.472	0.68
1109.509	0.53
1114.54	0.44
1119.565	0.53
1124.586	0.47
1129.602	0.26
1134.613	-0.23
1139.618	-0.2
1144.619	-0.23
1149.614	-0.47
1154.604	-1.11
1159.589	-1.29
1164.57	-1.53
1169.545	-1.53
1174.515	-1.56
1179.48	-1.35
1184.44	-1.44
1189.395	-1.26
1194.345	-1.29
1199.29	-0.83
1204.23	-0.65
1209.165	-0.59
1214.095	-0.77
1219.021	-0.68
1223.941	-0.53
1228.856	-0.95
1233.766	-0.98
1238.672	-0.89
1243.572	-1.11
1248.467	-1.23
1253.358	-1.59
1258.244	-1.59
1263.124	-1.23
1268	-0.86
1272.871	-0.53
1277.737	-0.95
1282.599	-0.89
1287.455	-0.92
1292.306	-1.05
1297.153	-0.86
1301.995	-0.8
1306.832	-0.56
1311.664	-0.59
1316.491	-0.56
1321.314	-0.77
1326.132	-0.71
1330.945	-0.35
1335.753	0.26
1340.556	0.08
1345.354	0.08
1350.148	0.14
1354.937	0.32
1359.722	0.08
1364.501	0.29
1369.276	0.26
1374.046	0.35
1378.811	0.38
1383.572	0.02
1388.327	-0.14
1393.079	-0.05
1397.825	-0.26
1402.567	-0.05
1407.304	0.05
1412.036	0.05
1416.764	-0.23
1421.487	-0.23
1426.205	-0.26
1430.919	-0.41
1435.628	-0.29
1440.333	-0.23
1445.032	-0.53
1449.727	-0.32
1454.418	-0.74
1459.104	-1.17
1463.785	-1.17
1468.462	-1.17
1473.134	-1.08
1477.802	-1.2
1482.465	-1.17
1487.123	-1.26
1491.777	-1.38
1496.426	-1.32
1501.071	-1.2
1505.711	-0.89
1510.347	-0.89
1514.978	-0.95
1519.604	-1.11
1524.226	-0.8
1528.844	-0.89
1533.457	-1.26
1538.065	-1.17
1542.669	-1.17
1547.269	-0.86
1551.864	-0.74
1556.454	-1.14
1561.041	-0.8
1565.622	-0.56
1570.199	-0.35
1574.772	-0.98
1579.34	-1.71
1583.904	-1.74
1588.464	-1.98
1593.019	-2.23
1597.569	-2.23
1602.115	-2.41
1606.657	-2.29
1611.195	-2.23
1615.728	-2.2
1620.256	-2.11
1624.78	-1.95
1629.3	-0.83
1633.816	-0.65
1638.327	-0.35
1642.834	-0.05
1647.336	-0.38
1651.834	-0.59
1656.328	-0.53
1660.817	-0.65
1665.302	-0.53
1669.783	-0.44
1674.259	-0.77
1678.732	-0.98
1683.199	-0.8
1687.663	-0.86
1692.122	-1.08
1696.577	-0.89
1701.028	-1.17
1705.474	-1.38
1709.917	-1.35
1714.355	-2.53
1718.788	-2.86
1723.218	-2.56
1727.643	-2.41
1732.064	-2.53
1736.481	-2.41
1740.893	-2.29
1745.301	-1.95
1749.705	-1.59
1754.105	-1.14
1758.501	-1.29
1762.893	-0.41
1767.28	-0.2
1771.663	-0.23
1776.042	-0.56
1780.417	-0.2
1784.787	-0.59
1789.154	-0.62
1793.516	-1.17
1797.874	-1.38
1802.228	-1.59
1806.578	-1.65
1810.924	-2.08
1815.266	-1.83
1819.603	-2.11
1823.937	-1.68
1828.266	-1.89
1832.591	-1.29
1836.913	-1.26
1841.23	-0.8
1845.543	-0.41
1849.852	-0.2
1854.156	-0.29
1858.457	0.05
1862.754	-0.11
1867.047	0.11
1871.335	0.05
1875.62	0.05
1879.9	-0.32
1884.177	-0.59
1888.449	-0.86
1892.718	-1.26
1896.982	-1.17
1901.243	-1.38
1905.499	-1.29
1909.752	-1.56
1914	-1.2
1918.245	-1.2
1922.485	-1.29
1926.722	-1.32
1930.954	-0.8
1935.183	-1.29
1939.408	-1.29
1943.628	-2.08
1947.845	-1.74
1952.058	-1.83
1956.267	-1.89
1960.472	-2.2
1964.673	-2.14
1968.87	-2.32
1973.063	-1.8
1977.252	-1.86
1981.438	-1.44
1985.619	-1.2
1989.797	-0.5
1993.971	-0.62
1998.14	-0.56
2002.306	-0.35
2006.469	-0.26
2010.627	-0.77
2014.781	-0.74
2018.932	-1.35
2023.078	-1.5
2027.221	-1.29
2031.36	-1.11
2035.495	-0.95
2039.627	-0.68
2043.754	-0.47
2047.878	-0.32
2051.998	-0.29
2056.114	0.02
2060.226	0.17
2064.334	0.38
2068.439	0.23
2072.54	-0.26
2076.637	-0.38
2080.73	-0.92
2084.82	-0.89
2088.906	-0.83
2092.988	-0.95
2097.066	-1.08
2101.14	-1.05
2105.211	-1.08
2109.278	-0.8
2113.342	-0.71
2117.401	-0.26
2121.457	-0.08
2125.509	0.29
2129.558	0.05
2133.602	0.11
2137.643	-0.05
2141.681	-0.29
2145.714	-0.71
2149.744	-0.8
2153.77	-1.38
2157.793	-1.53
2161.812	-1.47
2165.827	-1.5
2169.838	-1.56
2173.846	-1.59
2177.851	-1.56
2181.851	-1.17
2185.848	-0.98
2189.841	0.02
2193.831	0.08
2197.817	0.8
2201.799	0.95
2205.778	0.62
2209.753	0.29
2213.725	0.11
2217.693	0.23
2221.657	-0.56
2225.618	-1.11
2229.575	-1.35
2233.529	-1.86
2237.479	-2.08
2241.425	-2.5
2245.368	-2.35
2249.307	-2.17
2253.243	-1.68
2257.175	-1.35
2261.104	-1.32
2265.029	-0.74
2268.95	-0.47
2272.868	-0.11
2276.783	-0.59
2280.694	-0.53
2284.601	-0.62
2288.505	-0.83
2292.405	-0.95
2296.302	-1.29
2300.195	-1.59
2304.085	-1.83
2307.971	-2.11
2311.854	-2.02
2315.734	-1.8
2319.609	-1.17
2323.482	-1.23
2327.351	-1.17
2331.216	-1.17
2335.078	-0.74
2338.937	-0.59
2342.792	-0.74
2346.643	-0.59
2350.492	-0.56
2354.336	-0.86
2358.178	-1.17
2362.015	-1.56
2365.85	-1.38
2369.681	-1.44
2373.508	-1.35
2377.333	-1.53
2381.153	-1.68
2384.971	-1.68
2388.785	-1.38
2392.595	-1.35
2396.402	-1.11
2400.206	-1.14
2404.007	-0.95
2407.804	-0.77
2411.597	-0.65
2415.388	-0.59
2419.174	-1.17
2422.958	-1.08
2426.738	-0.86
2430.515	-1.02
2434.289	-1.08
2438.059	-1.23
2441.825	-1.02
2445.589	-0.92
2449.349	-0.83
2453.106	-0.89
2456.859	-0.98
2460.61	-0.59
2464.356	-0.62
2468.1	-0.74
2471.84	-1.11
2475.577	-1.35
2479.311	-1.47
2483.041	-1.38
2486.768	-1.77
2490.492	-2.02
2494.213	-1.98
2497.93	-1.92
2501.644	-1.71
2505.355	-1.62
2509.062	-1.35
2512.766	-0.92
2516.467	-0.68
2520.165	-0.53
2523.859	-0.74
2527.551	-0.56
2531.239	-0.77
2534.923	-0.74
2538.605	-0.71
2542.283	-0.83
2545.958	-0.89
2549.63	-1.14
2553.299	-1.5
2556.964	-1.29
2560.626	-1.11
2564.285	-1.05
2567.941	-1.05
2571.594	-0.68
2575.243	-0.59
2578.89	-0.53
2582.533	-0.59
2586.173	-0.56
2589.809	-0.56
2593.443	-0.59
2597.073	-0.77
2600.701	-0.86
2604.325	-1.11
2607.946	-1.05
2611.564	-1.29
2615.178	-1.23
2618.79	-1.29
2622.398	-1.11
2626.004	-1.11
2629.606	-1.02
2633.205	-0.53
2636.801	-0.29
2640.394	-0.32
2643.983	-0.11
2647.57	-0.17
2651.153	0.2
2654.734	0.2
2658.311	-0.14
2661.885	-0.14
2665.456	-0.26
2669.025	-0.47
2672.589	-0.77
2676.151	-0.68
2679.71	-0.86
2683.266	-0.86
2686.819	-0.77
2690.368	-0.95
2693.915	-0.98
2697.458	-0.59
2700.999	-0.35
2704.536	-0.08
2708.071	0.23
2711.602	0.23
2715.13	-0.2
2718.656	-0.05
2722.178	0.05
2725.697	-0.26
2729.214	-0.5
2732.727	-0.59
2736.237	-0.68
2739.744	-0.89
2743.249	-1.02
2746.75	-1.59
2750.248	-1.5
2753.743	-1.5
2757.236	-1.44
2760.725	-1.38
2764.211	-0.89
2767.695	-0.83
2771.175	-0.92
2774.652	-1.11
2778.127	-1.32
2781.598	-1.38
2785.067	-1.02
2788.532	-1.17
2791.995	-0.92
2795.455	-0.83
2798.911	-0.8
2802.365	-0.77
2805.816	-0.47
2809.264	-0.56
2812.709	-0.38
2816.151	-0.2
2819.59	-0.41
2823.026	-0.5
2826.46	-0.17
2829.89	-0.29
2833.318	-0.47
2836.742	-0.65
2840.164	-1.08
2843.583	-1.26
2846.999	-1.29
2850.412	-1.29
2853.822	-1.17
2857.229	-0.98
2860.634	-0.68
2864.035	-0.83
2867.434	-0.8
2870.83	-0.62
2874.223	-0.68
2877.613	-0.56
2881	-0.53
2884.385	-0.35
2887.766	-0.56
2891.145	-1.11
2894.521	-1.14
2897.894	-1.14
2901.264	-1.05
2904.631	-0.68
2907.996	-0.8
2911.358	-0.65
2914.717	-0.77
2918.073	-0.59
2921.426	-0.38
2924.777	-0.35
2928.124	0.2
2931.469	0.38
2934.811	0.14
2938.15	-0.11
2941.487	-0.5
2944.821	-0.59
2948.152	-0.86
2951.48	-0.62
2954.805	-0.92
2958.128	-0.98
2961.447	-1.14
2964.765	-1.41
2968.079	-1.5
2971.39	-1.35
2974.699	-1.11
2978.005	-1.2
2981.308	-1.08
2984.609	-0.89
2987.907	-0.95
2991.202	-0.59
2994.494	-0.38
2997.784	-0.14
3001.07	-0.38
3004.355	-1.26
3007.636	-1.14
3010.915	-1.38
3014.191	-1.35
3017.464	-1.56
3020.734	-1.86
3024.002	-1.8
3027.267	-1.95
3030.53	-2.44
3033.789	-2.08
3037.046	-1.77
3040.301	-0.77
3043.552	-0.77
3046.801	-0.62
3050.048	-0.11
3053.291	0.23
3056.532	0.53
3059.771	0.74
3063.006	0.41
3066.239	0.56
3069.469	-0.14
3072.697	-0.41
3075.922	-0.83
3079.144	-1.08
3082.364	-1.38
3085.581	-1.53
3088.795	-1.56
3092.007	-1.47
3095.216	-1.71
3098.423	-1.44
3101.627	-1.44
3104.828	-1.02
3108.026	-0.56
3111.222	-0.5
3114.416	-0.35
3117.607	0.26
3120.795	0.23
3123.98	0.14
3127.163	-0.29
3130.344	-0.2
3133.521	-0.68
3136.696	-0.56
3139.869	-0.41
3143.039	-0.74
3146.206	-0.59
3149.371	-0.35
3152.533	-0.59
3155.693	-0.74
3158.85	-0.38
3162.005	0.32
3165.157	-0.02
3168.306	0.41
3171.453	0.2
3174.597	0.05
3177.739	0.2
3180.878	-0.35
3184.014	-0.71
3187.149	-1.08
3190.28	-1.17
3193.409	-1.26
3196.536	-1.47
3199.659	-1.23
3202.781	-1.2
3205.9	-1.08
3209.016	-0.77
3212.13	-0.47
3215.241	-0.02
3218.35	0.35
3221.456	0.44
3224.56	0.47
3227.661	-0.02
3230.76	0.26
3233.856	0.11
3236.95	0.14
3240.041	0.11
3243.13	-0.23
3246.216	-0.56
3249.3	-0.41
3252.382	-0.74
3255.46	-0.47
3258.537	0.14
3261.611	0.44
3264.682	0.05
3267.751	0.23
3270.818	0.08
3273.882	0.05
3276.943	0.05
3280.002	-0.11
3283.059	-0.68
3286.113	-0.8
3289.165	-0.92
3292.214	-1.74
3295.261	-1.92
3298.306	-1.95
3301.348	-1.92
3304.387	-1.8
3307.425	-1.89
3310.459	-1.71
3313.492	-1.38
3316.521	-0.44
3319.549	-0.26
3322.574	-0.38
3325.597	-0.32
3328.617	-0.23
3331.635	-0.05
3334.65	-0.11
3337.663	-0.05
3340.674	-0.38
3343.682	-0.8
3346.688	-0.92
3349.691	-1.26
3352.692	-1.32
3355.691	-1.23
3358.687	-0.92
3361.681	-0.74
3364.673	-0.89
3367.662	-0.56
3370.649	-0.68
3373.633	-0.35
3376.615	-0.32
3379.595	-0.26
3382.572	-0.71
3385.547	-1.08
3388.52	-1.53
3391.49	-1.65
3394.458	-1.74
3397.424	-1.56
3400.387	-2.26
3403.348	-2.44
3406.307	-2.53
3409.263	-2.32
3412.217	-2.32
3415.168	-1.65
3418.118	-1.14
3421.065	-0.29
3424.009	0.05
3426.951	0.32
3429.891	0.38
3432.829	0.74
3435.764	0.92
3438.697	0.89
3441.628	0.56
3444.557	0.35
3447.483	-0.14
3450.407	-0.08
3453.328	-0.32
3456.247	-0.23
3459.164	-0.59
3462.079	-0.65
3464.991	-0.23
3467.902	0.14
3470.809	0.68
3473.715	1.11
3476.618	1.26
3479.519	1.53
3482.418	1.23
3485.315	0.83
3488.209	0.2
3491.101	0.05
3493.99	-0.23
3496.878	-0.65
3499.763	-0.95
3502.646	-1.23
3505.527	-1.26
3508.405	-0.98
3511.281	-1.14
3514.155	-0.8
3517.027	-0.35
3519.897	-0.26
3522.764	0.26
3525.629	0.71
3528.492	0.56
3531.352	0.23
3534.211	0.17
3537.067	0.2
3539.921	-0.32
3542.773	-0.11
3545.622	-0.62
3548.469	-1.08
3551.315	-1.02
3554.157	-1.35
3556.998	-1.92
3559.837	-1.56
3562.673	-1.5
3565.507	-1.26
3568.339	-1.38
3571.169	-1.29
3573.996	-0.98
3576.822	-0.59
3579.645	-0.23
3582.466	0.05
3585.285	-0.41
3588.101	-0.29
3590.916	-0.68
3593.728	-0.5
3596.538	-0.8
3599.346	-1.02
3602.152	-1.02
3604.956	-1.56
3607.757	-1.47
3610.556	-1.5
3613.354	-1.38
3616.149	-0.65
3618.942	-0.59
3621.732	-0.44
3624.521	-0.41
3627.307	-0.2
3630.092	0.08
3632.874	0.23
3635.654	-0.02
3638.432	-0.41
3641.208	-0.77
3643.982	-1.2
3646.753	-1.47
3649.523	-1.32
3652.29	-0.83
3655.055	-0.59
3657.818	-0.71
3660.579	-0.5
3663.338	-0.5
3666.095	0.05
3668.849	0.29
3671.602	0.68
3674.352	0.86
3677.101	0.68
3679.847	0.53
3682.591	0.08
3685.333	-0.47
3688.073	-0.98
3690.811	-1.23
3693.547	-1.71
3696.281	-1.95
3699.013	-2.02
3701.742	-2.38
3704.47	-2.29
3707.195	-2.08
3709.919	-1.83
3712.64	-1.71
3715.359	-1.26
3718.076	-1.02
3720.792	-1.29
3723.505	-1.26
3726.216	-1.14
3728.925	-0.98
3731.632	-0.95
3734.336	-1.41
3737.039	-1.5
3739.74	-0.65
3742.439	-0.53
3745.136	-0.26
3747.83	0.2
3750.523	0.71
3753.213	1.08
3755.902	0.77
3758.589	0.53
3761.273	0.47
3763.956	0.59
3766.636	0.56
3769.315	-0.41
3771.991	-0.68
3774.665	-1.26
3777.338	-1.23
3780.008	-1.86
3782.677	-1.8
3785.343	-1.74
3788.007	-1.5
3790.67	-1.23
3793.33	-0.92
3795.989	-0.8
3798.645	-0.83
3801.299	-1.14
3803.952	-0.95
3806.602	-1.29
3809.251	-1.11
3811.897	-1.29
3814.542	-0.92
3817.184	-1.11
3819.825	-0.92
3822.463	-1.08
3825.1	-1.05
3827.735	-0.92
3830.367	-0.26
3832.998	-0.26
3835.627	-0.14
3838.253	0.38
3840.878	0.56
3843.501	0.2
3846.122	0.05
3848.741	-0.05
3851.358	-0.29
3853.973	-0.35
3856.586	-0.59
3859.197	-0.86
3861.806	-0.77
3864.414	-0.86
3867.019	-0.89
3869.622	-0.71
3872.224	-0.77
3874.823	-0.35
3877.421	-0.41
3880.016	0.26
3882.61	0.38
3885.202	0.65
3887.792	0.32
3890.38	0.05
3892.966	0.29
3895.55	0.2
3898.132	-0.17
3900.713	0.47
3903.291	-0.17
3905.868	0.05
3908.442	-0.47
3911.015	-0.68
3913.586	-0.77
3916.155	-0.41
3918.722	-0.38
3921.287	-0.5
3923.85	-0.41
3926.411	-0.2
3928.971	-0.2
3931.528	0.29
3934.084	-0.08
3936.638	0.26
3939.19	0.17
3941.74	-0.08
3944.288	-0.29
3946.834	-0.29
3949.378	-0.26
3951.921	-0.44
3954.462	-0.44
3957	-0.92
3959.537	-0.89
3962.072	-0.83
3964.606	-1.08
3967.137	-1.17
3969.667	-1.02
3972.194	-0.92
3974.72	-0.65
3977.244	-0.65
3979.766	-0.68
3982.286	-1.11
3984.805	-1.17
3987.321	-1.29
3989.836	-1.38
3992.349	-1.23
3994.86	-0.92
3997.369	-1.08
3999.877	-1.26
4002.382	-1.56
4004.886	-1.5
4007.388	-1.26
4009.888	-0.68
4012.386	-0.62
4014.883	-0.23
4017.377	0.05
4019.87	-0.26
4022.361	-0.26
4024.85	-0.29
4027.338	-0.23
4029.823	0.14
4032.307	0.14
4034.789	-0.02
4037.269	-0.08
4039.747	-0.08
4042.224	-0.53
4044.699	-0.95
4047.172	-0.89
4049.643	-5.83
4052.112	-8.29
4054.58	-8.77
4057.046	-9.11
4059.51	-9.26
4061.972	-9.26
4064.432	-9.14
4066.891	-9.53
4069.348	-9.53
4071.803	-9.26
4074.256	-9.14
4076.708	-4.08
4079.158	-1.29
4081.606	-0.71
4084.052	-0.32
4086.497	-0.32
4088.939	-0.65
4091.38	-1.02
4093.819	-0.74
4096.257	-0.98
4098.693	-1.35
4101.127	-1.23
4103.559	-1.44
4105.989	-1.83
4108.418	-2.02
4110.845	-2.29
4113.27	-2.47
4115.694	-2.56
4118.115	-2.59
4120.535	-2.47
4122.954	-1.86
4125.37	-1.47
4127.785	-1.8
4130.198	-1.5
4132.609	-1.3
4135.019	-1.06
4137.427	-1.08
4139.833	-0.88
4142.237	-0.39
