Data from 1000CFU2_D_RamanShift_1.txt Node
Date: Thu Feb 02 12:08:23 IST 2017
User: aro
Spectrometer: QEPB0276
Trigger mode: 0
Integration Time (sec): 5.000000E0
Scans to average: 1
Electric dark correction enabled: true
Nonlinearity correction enabled: false
Boxcar width: 0
XAxis mode: Raman Shifts
Number of Pixels in Spectrum: 1044
>>>>>Begin Spectral Data<<<<<
160.701	-1.75
166.742	2.25
172.777	20.25
178.805	77.25
184.826	203.25
190.841	406.25
196.849	643.25
202.85	802.25
208.845	839.25
214.833	838.25
220.815	805.25
226.789	801.25
232.758	787.25
238.719	786.25
244.674	776.25
250.623	759.25
256.565	735.25
262.5	722.25
268.429	694.25
274.351	689.25
280.267	684.25
286.176	681.25
292.079	662.25
297.975	662.25
303.865	664.25
309.748	648.25
315.625	651.25
321.495	640.25
327.359	650.25
333.217	647.25
339.068	646.25
344.912	655.25
350.751	665.25
356.583	665.25
362.408	672.25
368.227	653.25
374.04	658.25
379.847	647.25
385.647	640.25
391.44	650.25
397.228	663.25
403.009	660.25
408.784	670.25
414.553	683.25
420.315	670.25
426.071	682.25
431.821	697.25
437.565	681.25
443.302	677.25
449.033	684.25
454.758	671.25
460.477	672.25
466.189	661.25
471.896	660.25
477.596	645.25
483.29	638.25
488.978	629.25
494.66	630.25
500.335	605.25
506.005	595.25
511.668	575.25
517.325	552.25
522.977	534.25
528.622	507.25
534.261	501.25
539.894	496.25
545.521	486.25
551.141	485.25
556.756	476.25
562.365	465.25
567.968	462.25
573.565	459.25
579.155	461.25
584.74	456.25
590.319	458.25
595.892	466.25
601.459	451.25
607.02	441.25
612.575	443.25
618.124	434.25
623.667	434.25
629.204	437.25
634.735	431.25
640.261	420.25
645.781	427.25
651.294	422.25
656.802	411.25
662.304	413.25
667.8	404.25
673.29	410.25
678.775	404.25
684.254	406.25
689.726	395.25
695.193	392.25
700.655	393.25
706.11	389.25
711.56	396.25
717.004	388.25
722.442	398.25
727.874	389.25
733.301	377.25
738.722	381.25
744.137	381.25
749.547	381.25
754.951	387.25
760.349	390.25
765.741	385.25
771.128	387.25
776.509	390.25
781.885	387.25
787.254	383.25
792.618	394.25
797.977	383.25
803.33	378.25
808.677	396.25
814.019	390.25
819.355	385.25
824.686	384.25
830.011	381.25
835.33	384.25
840.644	391.25
845.952	388.25
851.255	405.25
856.552	398.25
861.844	399.25
867.13	399.25
872.41	399.25
877.686	396.25
882.955	406.25
888.219	398.25
893.478	394.25
898.731	384.25
903.979	382.25
909.221	356.25
914.458	367.25
919.69	358.25
924.916	353.25
930.136	358.25
935.351	355.25
940.561	349.25
945.766	353.25
950.965	351.25
956.158	351.25
961.347	344.25
966.529	327.25
971.707	325.25
976.879	329.25
982.046	326.25
987.208	325.25
992.364	321.25
997.515	329.25
1002.66	336.25
1007.801	345.25
1012.936	349.25
1018.066	352.25
1023.19	350.25
1028.309	354.25
1033.423	355.25
1038.532	360.25
1043.636	353.25
1048.734	354.25
1053.827	359.25
1058.915	362.25
1063.998	373.25
1069.075	379.25
1074.147	380.25
1079.214	385.25
1084.276	390.25
1089.333	389.25
1094.385	387.25
1099.431	385.25
1104.472	367.25
1109.509	357.25
1114.54	345.25
1119.565	358.25
1124.586	357.25
1129.602	363.25
1134.613	356.25
1139.618	334.25
1144.619	315.25
1149.614	304.25
1154.604	301.25
1159.589	307.25
1164.57	300.25
1169.545	308.25
1174.515	292.25
1179.48	300.25
1184.44	284.25
1189.395	273.25
1194.345	275.25
1199.29	277.25
1204.23	274.25
1209.165	288.25
1214.095	291.25
1219.021	280.25
1223.941	278.25
1228.856	283.25
1233.766	293.25
1238.672	304.25
1243.572	309.25
1248.467	309.25
1253.358	312.25
1258.244	314.25
1263.124	311.25
1268	309.25
1272.871	311.25
1277.737	302.25
1282.599	301.25
1287.455	294.25
1292.306	302.25
1297.153	324.25
1301.995	340.25
1306.832	341.25
1311.664	338.25
1316.491	324.25
1321.314	320.25
1326.132	299.25
1330.945	304.25
1335.753	288.25
1340.556	290.25
1345.354	279.25
1350.148	280.25
1354.937	265.25
1359.722	270.25
1364.501	258.25
1369.276	263.25
1374.046	260.25
1378.811	272.25
1383.572	252.25
1388.327	256.25
1393.079	243.25
1397.825	245.25
1402.567	237.25
1407.304	242.25
1412.036	244.25
1416.764	244.25
1421.487	252.25
1426.205	253.25
1430.919	267.25
1435.628	285.25
1440.333	323.25
1445.032	343.25
1449.727	357.25
1454.418	350.25
1459.104	335.25
1463.785	332.25
1468.462	312.25
1473.134	291.25
1477.802	268.25
1482.465	246.25
1487.123	229.25
1491.777	218.25
1496.426	209.25
1501.071	201.25
1505.711	199.25
1510.347	204.25
1514.978	207.25
1519.604	198.25
1524.226	200.25
1528.844	200.25
1533.457	188.25
1538.065	191.25
1542.669	192.25
1547.269	198.25
1551.864	193.25
1556.454	191.25
1561.041	199.25
1565.622	194.25
1570.199	193.25
1574.772	192.25
1579.34	196.25
1583.904	194.25
1588.464	194.25
1593.019	205.25
1597.569	204.25
1602.115	198.25
1606.657	200.25
1611.195	202.25
1615.728	209.25
1620.256	209.25
1624.78	214.25
1629.3	219.25
1633.816	215.25
1638.327	214.25
1642.834	216.25
1647.336	223.25
1651.834	246.25
1656.328	244.25
1660.817	247.25
1665.302	244.25
1669.783	235.25
1674.259	224.25
1678.732	219.25
1683.199	213.25
1687.663	200.25
1692.122	195.25
1696.577	179.25
1701.028	176.25
1705.474	170.25
1709.917	164.25
1714.355	158.25
1718.788	151.25
1723.218	150.25
1727.643	148.25
1732.064	144.25
1736.481	146.25
1740.893	148.25
1745.301	146.25
1749.705	132.25
1754.105	132.25
1758.501	132.25
1762.893	124.25
1767.28	121.25
1771.663	121.25
1776.042	118.25
1780.417	114.25
1784.787	114.25
1789.154	119.25
1793.516	119.25
1797.874	118.25
1802.228	113.25
1806.578	117.25
1810.924	116.25
1815.266	110.25
1819.603	110.25
1823.937	105.25
1828.266	108.25
1832.591	102.25
1836.913	102.25
1841.23	100.25
1845.543	103.25
1849.852	95.25
1854.156	101.25
1858.457	101.25
1862.754	99.25
1867.047	99.25
1871.335	96.25
1875.62	103.25
1879.9	98.25
1884.177	96.25
1888.449	102.25
1892.718	100.25
1896.982	97.25
1901.243	97.25
1905.499	98.25
1909.752	94.25
1914	101.25
1918.245	97.25
1922.485	90.25
1926.722	102.25
1930.954	94.25
1935.183	101.25
1939.408	94.25
1943.628	94.25
1947.845	94.25
1952.058	94.25
1956.267	97.25
1960.472	95.25
1964.673	89.25
1968.87	92.25
1973.063	83.25
1977.252	89.25
1981.438	90.25
1985.619	89.25
1989.797	83.25
1993.971	85.25
1998.14	87.25
2002.306	86.25
2006.469	84.25
2010.627	85.25
2014.781	89.25
2018.932	90.25
2023.078	87.25
2027.221	87.25
2031.36	77.25
2035.495	78.25
2039.627	80.25
2043.754	83.25
2047.878	82.25
2051.998	80.25
2056.114	84.25
2060.226	78.25
2064.334	77.25
2068.439	81.25
2072.54	82.25
2076.637	85.25
2080.73	84.25
2084.82	91.25
2088.906	90.25
2092.988	83.25
2097.066	79.25
2101.14	88.25
2105.211	79.25
2109.278	76.25
2113.342	84.25
2117.401	84.25
2121.457	78.25
2125.509	77.25
2129.558	77.25
2133.602	77.25
2137.643	80.25
2141.681	75.25
2145.714	77.25
2149.744	77.25
2153.77	75.25
2157.793	71.25
2161.812	71.25
2165.827	69.25
2169.838	68.25
2173.846	69.25
2177.851	68.25
2181.851	72.25
2185.848	66.25
2189.841	62.25
2193.831	63.25
2197.817	62.25
2201.799	65.25
2205.778	67.25
2209.753	65.25
2213.725	64.25
2217.693	64.25
2221.657	62.25
2225.618	55.25
2229.575	56.25
2233.529	58.25
2237.479	60.25
2241.425	57.25
2245.368	60.25
2249.307	59.25
2253.243	50.25
2257.175	56.25
2261.104	52.25
2265.029	50.25
2268.95	52.25
2272.868	49.25
2276.783	50.25
2280.694	51.25
2284.601	48.25
2288.505	48.25
2292.405	45.25
2296.302	45.25
2300.195	45.25
2304.085	46.25
2307.971	40.25
2311.854	43.25
2315.734	42.25
2319.609	38.25
2323.482	43.25
2327.351	44.25
2331.216	50.25
2335.078	53.25
2338.937	51.25
2342.792	39.25
2346.643	40.25
2350.492	38.25
2354.336	30.25
2358.178	37.25
2362.015	37.25
2365.85	38.25
2369.681	34.25
2373.508	36.25
2377.333	42.25
2381.153	36.25
2384.971	32.25
2388.785	33.25
2392.595	38.25
2396.402	33.25
2400.206	34.25
2404.007	34.25
2407.804	29.25
2411.597	33.25
2415.388	32.25
2419.174	31.25
2422.958	30.25
2426.738	25.25
2430.515	23.25
2434.289	28.25
2438.059	28.25
2441.825	25.25
2445.589	31.25
2449.349	32.25
2453.106	30.25
2456.859	28.25
2460.61	28.25
2464.356	30.25
2468.1	26.25
2471.84	29.25
2475.577	27.25
2479.311	22.25
2483.041	28.25
2486.768	27.25
2490.492	28.25
2494.213	28.25
2497.93	27.25
2501.644	23.25
2505.355	23.25
2509.062	24.25
2512.766	27.25
2516.467	28.25
2520.165	25.25
2523.859	27.25
2527.551	23.25
2531.239	24.25
2534.923	23.25
2538.605	25.25
2542.283	19.25
2545.958	27.25
2549.63	26.25
2553.299	27.25
2556.964	19.25
2560.626	24.25
2564.285	18.25
2567.941	20.25
2571.594	23.25
2575.243	22.25
2578.89	30.25
2582.533	22.25
2586.173	23.25
2589.809	24.25
2593.443	24.25
2597.073	22.25
2600.701	23.25
2604.325	21.25
2607.946	26.25
2611.564	21.25
2615.178	22.25
2618.79	19.25
2622.398	27.25
2626.004	23.25
2629.606	27.25
2633.205	22.25
2636.801	21.25
2640.394	20.25
2643.983	18.25
2647.57	19.25
2651.153	20.25
2654.734	20.25
2658.311	23.25
2661.885	25.25
2665.456	21.25
2669.025	14.25
2672.589	15.25
2676.151	20.25
2679.71	22.25
2683.266	21.25
2686.819	22.25
2690.368	20.25
2693.915	15.25
2697.458	21.25
2700.999	15.25
2704.536	22.25
2708.071	23.25
2711.602	21.25
2715.13	22.25
2718.656	22.25
2722.178	18.25
2725.697	16.25
2729.214	23.25
2732.727	23.25
2736.237	27.25
2739.744	30.25
2743.249	24.25
2746.75	23.25
2750.248	18.25
2753.743	22.25
2757.236	20.25
2760.725	21.25
2764.211	27.25
2767.695	23.25
2771.175	22.25
2774.652	20.25
2778.127	16.25
2781.598	19.25
2785.067	19.25
2788.532	22.25
2791.995	23.25
2795.455	25.25
2798.911	25.25
2802.365	19.25
2805.816	23.25
2809.264	26.25
2812.709	27.25
2816.151	27.25
2819.59	34.25
2823.026	30.25
2826.46	33.25
2829.89	42.25
2833.318	38.25
2836.742	45.25
2840.164	58.25
2843.583	64.25
2846.999	85.25
2850.412	96.25
2853.822	107.25
2857.229	108.25
2860.634	114.25
2864.035	112.25
2867.434	115.25
2870.83	117.25
2874.223	120.25
2877.613	125.25
2881	138.25
2884.385	143.25
2887.766	154.25
2891.145	145.25
2894.521	143.25
2897.894	142.25
2901.264	142.25
2904.631	139.25
2907.996	130.25
2911.358	135.25
2914.717	133.25
2918.073	131.25
2921.426	129.25
2924.777	138.25
2928.124	130.25
2931.469	131.25
2934.811	121.25
2938.15	123.25
2941.487	121.25
2944.821	120.25
2948.152	112.25
2951.48	107.25
2954.805	102.25
2958.128	95.25
2961.447	97.25
2964.765	90.25
2968.079	88.25
2971.39	82.25
2974.699	78.25
2978.005	74.25
2981.308	73.25
2984.609	68.25
2987.907	68.25
2991.202	62.25
2994.494	64.25
2997.784	58.25
3001.07	67.25
3004.355	57.25
3007.636	53.25
3010.915	55.25
3014.191	58.25
3017.464	53.25
3020.734	52.25
3024.002	56.25
3027.267	48.25
3030.53	51.25
3033.789	54.25
3037.046	48.25
3040.301	51.25
3043.552	49.25
3046.801	53.25
3050.048	55.25
3053.291	56.25
3056.532	59.25
3059.771	59.25
3063.006	58.25
3066.239	61.25
3069.469	64.25
3072.697	69.25
3075.922	70.25
3079.144	73.25
3082.364	71.25
3085.581	66.25
3088.795	74.25
3092.007	75.25
3095.216	77.25
3098.423	78.25
3101.627	79.25
3104.828	80.25
3108.026	80.25
3111.222	83.25
3114.416	88.25
3117.607	90.25
3120.795	95.25
3123.98	91.25
3127.163	103.25
3130.344	98.25
3133.521	98.25
3136.696	94.25
3139.869	104.25
3143.039	106.25
3146.206	114.25
3149.371	109.25
3152.533	109.25
3155.693	109.25
3158.85	114.25
3162.005	103.25
3165.157	112.25
3168.306	114.25
3171.453	113.25
3174.597	113.25
3177.739	108.25
3180.878	109.25
3184.014	114.25
3187.149	113.25
3190.28	120.25
3193.409	116.25
3196.536	120.25
3199.659	118.25
3202.781	112.25
3205.9	114.25
3209.016	117.25
3212.13	126.25
3215.241	122.25
3218.35	122.25
3221.456	115.25
3224.56	115.25
3227.661	107.25
3230.76	114.25
3233.856	114.25
3236.95	105.25
3240.041	107.25
3243.13	107.25
3246.216	101.25
3249.3	106.25
3252.382	107.25
3255.46	106.25
3258.537	108.25
3261.611	108.25
3264.682	103.25
3267.751	97.25
3270.818	102.25
3273.882	101.25
3276.943	97.25
3280.002	99.25
3283.059	101.25
3286.113	102.25
3289.165	93.25
3292.214	94.25
3295.261	86.25
3298.306	91.25
3301.348	89.25
3304.387	89.25
3307.425	86.25
3310.459	87.25
3313.492	84.25
3316.521	79.25
3319.549	80.25
3322.574	84.25
3325.597	80.25
3328.617	84.25
3331.635	75.25
3334.65	81.25
3337.663	73.25
3340.674	77.25
3343.682	84.25
3346.688	76.25
3349.691	78.25
3352.692	81.25
3355.691	77.25
3358.687	76.25
3361.681	76.25
3364.673	74.25
3367.662	73.25
3370.649	74.25
3373.633	73.25
3376.615	70.25
3379.595	64.25
3382.572	63.25
3385.547	67.25
3388.52	65.25
3391.49	66.25
3394.458	66.25
3397.424	59.25
3400.387	62.25
3403.348	59.25
3406.307	61.25
3409.263	61.25
3412.217	60.25
3415.168	59.25
3418.118	60.25
3421.065	57.25
3424.009	54.25
3426.951	51.25
3429.891	53.25
3432.829	55.25
3435.764	53.25
3438.697	60.25
3441.628	46.25
3444.557	47.25
3447.483	45.25
3450.407	45.25
3453.328	43.25
3456.247	43.25
3459.164	39.25
3462.079	40.25
3464.991	34.25
3467.902	32.25
3470.809	32.25
3473.715	31.25
3476.618	31.25
3479.519	25.25
3482.418	29.25
3485.315	30.25
3488.209	27.25
3491.101	21.25
3493.99	24.25
3496.878	23.25
3499.763	21.25
3502.646	23.25
3505.527	21.25
3508.405	14.25
3511.281	16.25
3514.155	17.25
3517.027	13.25
3519.897	15.25
3522.764	14.25
3525.629	15.25
3528.492	10.25
3531.352	7.25
3534.211	6.25
3537.067	6.25
3539.921	8.25
3542.773	3.25
3545.622	5.25
3548.469	3.25
3551.315	2.25
3554.157	-2.75
3556.998	0.25
3559.837	-0.75
3562.673	0.25
3565.507	-4.75
3568.339	-1.75
3571.169	-4.75
3573.996	-0.75
3576.822	-5.75
3579.645	-7.75
3582.466	-4.75
3585.285	-4.75
3588.101	-4.75
3590.916	-8.75
3593.728	-10.75
3596.538	-7.75
3599.346	-9.75
3602.152	-7.75
3604.956	-9.75
3607.757	-9.75
3610.556	-8.75
3613.354	-14.75
3616.149	-14.75
3618.942	-9.75
3621.732	-13.75
3624.521	-12.75
3627.307	-11.75
3630.092	-12.75
3632.874	-14.75
3635.654	-13.75
3638.432	-14.75
3641.208	-13.75
3643.982	-12.75
3646.753	-12.75
3649.523	-17.75
3652.29	-16.75
3655.055	-18.75
3657.818	-18.75
3660.579	-17.75
3663.338	-15.75
3666.095	-11.75
3668.849	-13.75
3671.602	-16.75
3674.352	-18.75
3677.101	-17.75
3679.847	-18.75
3682.591	-17.75
3685.333	-15.75
3688.073	-17.75
3690.811	-20.75
3693.547	-26.75
3696.281	-20.75
3699.013	-19.75
3701.742	-19.75
3704.47	-16.75
3707.195	-19.75
3709.919	-18.75
3712.64	-27.75
3715.359	-22.75
3718.076	-18.75
3720.792	-24.75
3723.505	-16.75
3726.216	-18.75
3728.925	-20.75
3731.632	-22.75
3734.336	-20.75
3737.039	-20.75
3739.74	-23.75
3742.439	-19.75
3745.136	-18.75
3747.83	-18.75
3750.523	-18.75
3753.213	-21.75
3755.902	-24.75
3758.589	-21.75
3761.273	-23.75
3763.956	-17.75
3766.636	-17.75
3769.315	-19.75
3771.991	-19.75
3774.665	-27.75
3777.338	-22.75
3780.008	-20.75
3782.677	-20.75
3785.343	-17.75
3788.007	-14.75
3790.67	-20.75
3793.33	-22.75
3795.989	-23.75
3798.645	-22.75
3801.299	-22.75
3803.952	-21.75
3806.602	-19.75
3809.251	-20.75
3811.897	-20.75
3814.542	-24.75
3817.184	-22.75
3819.825	-21.75
3822.463	-20.75
3825.1	-21.75
3827.735	-16.75
3830.367	-19.75
3832.998	-18.75
3835.627	-19.75
3838.253	-19.75
3840.878	-23.75
3843.501	-21.75
3846.122	-20.75
3848.741	-17.75
3851.358	-22.75
3853.973	-23.75
3856.586	-22.75
3859.197	-22.75
3861.806	-23.75
3864.414	-23.75
3867.019	-19.75
3869.622	-21.75
3872.224	-21.75
3874.823	-22.75
3877.421	-19.75
3880.016	-21.75
3882.61	-19.75
3885.202	-13.75
3887.792	-11.75
3890.38	-14.75
3892.966	-21.75
3895.55	-20.75
3898.132	-24.75
3900.713	-20.75
3903.291	-22.75
3905.868	-21.75
3908.442	-23.75
3911.015	-23.75
3913.586	-24.75
3916.155	-24.75
3918.722	-24.75
3921.287	-19.75
3923.85	-23.75
3926.411	-24.75
3928.971	-18.75
3931.528	-22.75
3934.084	-23.75
3936.638	-21.75
3939.19	-25.75
3941.74	-20.75
3944.288	-22.75
3946.834	-22.75
3949.378	-21.75
3951.921	-21.75
3954.462	-17.75
3957	-22.75
3959.537	-21.75
3962.072	-22.75
3964.606	-21.75
3967.137	-20.75
3969.667	-20.75
3972.194	-20.75
3974.72	-20.75
3977.244	-23.75
3979.766	-19.75
3982.286	-20.75
3984.805	-19.75
3987.321	-21.75
3989.836	-22.75
3992.349	-21.75
3994.86	-20.75
3997.369	-20.75
3999.877	-23.75
4002.382	-22.75
4004.886	-20.75
4007.388	-21.75
4009.888	-20.75
4012.386	-20.75
4014.883	-20.75
4017.377	-22.75
4019.87	-22.75
4022.361	-19.75
4024.85	-22.75
4027.338	-25.75
4029.823	-22.75
4032.307	-20.75
4034.789	-18.75
4037.269	-20.75
4039.747	-22.75
4042.224	-26.75
4044.699	-28.75
4047.172	-23.75
4049.643	-19.75
4052.112	-20.75
4054.58	-19.75
4057.046	-21.75
4059.51	-24.75
4061.972	-25.75
4064.432	-19.75
4066.891	-21.75
4069.348	-19.75
4071.803	-20.75
4074.256	-22.75
4076.708	-21.75
4079.158	-21.75
4081.606	-22.75
4084.052	-21.75
4086.497	-16.75
4088.939	-17.75
4091.38	-22.75
4093.819	-22.75
4096.257	-20.75
4098.693	-22.75
4101.127	-21.75
4103.559	-22.75
4105.989	-9.75
4108.418	-10.75
4110.845	-6.75
4113.27	-7.75
4115.694	-8.75
4118.115	-7.75
4120.535	-24.75
4122.954	-23.75
4125.37	-20.75
4127.785	-19.75
4130.198	-19.75
4132.609	-19.75
4135.019	-22.75
4137.427	-27.75
4139.833	-23.75
4142.237	-23.75
