Data from 1000CFU2_A_RamanShift_1.txt Node
Date: Thu Feb 02 13:49:10 IST 2017
User: aro
Spectrometer: QEPB0276
Trigger mode: 0
Integration Time (sec): 5.000000E0
Scans to average: 1
Electric dark correction enabled: true
Nonlinearity correction enabled: false
Boxcar width: 0
XAxis mode: Raman Shifts
Number of Pixels in Spectrum: 1044
>>>>>Begin Spectral Data<<<<<
160.701	-6.75
166.742	3.25
172.777	24.25
178.805	88.25
184.826	217.25
190.841	430.25
196.849	677.25
202.85	843.25
208.845	868.25
214.833	855.25
220.815	871.25
226.789	832.25
232.758	830.25
238.719	824.25
244.674	808.25
250.623	803.25
256.565	773.25
262.5	762.25
268.429	738.25
274.351	723.25
280.267	706.25
286.176	706.25
292.079	707.25
297.975	696.25
303.865	686.25
309.748	685.25
315.625	681.25
321.495	673.25
327.359	669.25
333.217	675.25
339.068	675.25
344.912	688.25
350.751	694.25
356.583	705.25
362.408	699.25
368.227	695.25
374.04	674.25
379.847	685.25
385.647	682.25
391.44	673.25
397.228	683.25
403.009	693.25
408.784	692.25
414.553	701.25
420.315	709.25
426.071	716.25
431.821	713.25
437.565	721.25
443.302	712.25
449.033	701.25
454.758	704.25
460.477	692.25
466.189	692.25
471.896	684.25
477.596	676.25
483.29	661.25
488.978	653.25
494.66	652.25
500.335	625.25
506.005	611.25
511.668	587.25
517.325	570.25
522.977	557.25
528.622	539.25
534.261	521.25
539.894	516.25
545.521	508.25
551.141	493.25
556.756	496.25
562.365	492.25
567.968	488.25
573.565	476.25
579.155	477.25
584.74	474.25
590.319	476.25
595.892	473.25
601.459	469.25
607.02	469.25
612.575	468.25
618.124	455.25
623.667	440.25
629.204	445.25
634.735	440.25
640.261	444.25
645.781	436.25
651.294	429.25
656.802	426.25
662.304	439.25
667.8	412.25
673.29	421.25
678.775	423.25
684.254	412.25
689.726	407.25
695.193	408.25
700.655	405.25
706.11	406.25
711.56	407.25
717.004	399.25
722.442	404.25
727.874	401.25
733.301	400.25
738.722	391.25
744.137	395.25
749.547	391.25
754.951	389.25
760.349	402.25
765.741	397.25
771.128	392.25
776.509	398.25
781.885	399.25
787.254	399.25
792.618	409.25
797.977	411.25
803.33	393.25
808.677	398.25
814.019	395.25
819.355	391.25
824.686	387.25
830.011	390.25
835.33	395.25
840.644	408.25
845.952	402.25
851.255	407.25
856.552	410.25
861.844	414.25
867.13	406.25
872.41	410.25
877.686	420.25
882.955	417.25
888.219	407.25
893.478	404.25
898.731	371.25
903.979	386.25
909.221	369.25
914.458	365.25
919.69	353.25
924.916	361.25
930.136	365.25
935.351	363.25
940.561	357.25
945.766	360.25
950.965	362.25
956.158	353.25
961.347	342.25
966.529	335.25
971.707	330.25
976.879	324.25
982.046	331.25
987.208	326.25
992.364	319.25
997.515	333.25
1002.66	337.25
1007.801	346.25
1012.936	356.25
1018.066	359.25
1023.19	356.25
1028.309	368.25
1033.423	359.25
1038.532	358.25
1043.636	352.25
1048.734	368.25
1053.827	359.25
1058.915	366.25
1063.998	375.25
1069.075	383.25
1074.147	393.25
1079.214	388.25
1084.276	394.25
1089.333	402.25
1094.385	395.25
1099.431	391.25
1104.472	375.25
1109.509	368.25
1114.54	354.25
1119.565	359.25
1124.586	355.25
1129.602	364.25
1134.613	354.25
1139.618	339.25
1144.619	321.25
1149.614	314.25
1154.604	304.25
1159.589	308.25
1164.57	300.25
1169.545	300.25
1174.515	299.25
1179.48	297.25
1184.44	283.25
1189.395	281.25
1194.345	268.25
1199.29	269.25
1204.23	274.25
1209.165	282.25
1214.095	281.25
1219.021	288.25
1223.941	280.25
1228.856	293.25
1233.766	287.25
1238.672	295.25
1243.572	305.25
1248.467	312.25
1253.358	300.25
1258.244	318.25
1263.124	309.25
1268	317.25
1272.871	303.25
1277.737	300.25
1282.599	299.25
1287.455	298.25
1292.306	305.25
1297.153	315.25
1301.995	337.25
1306.832	336.25
1311.664	329.25
1316.491	319.25
1321.314	311.25
1326.132	296.25
1330.945	290.25
1335.753	269.25
1340.556	270.25
1345.354	264.25
1350.148	264.25
1354.937	262.25
1359.722	251.25
1364.501	249.25
1369.276	250.25
1374.046	258.25
1378.811	258.25
1383.572	256.25
1388.327	251.25
1393.079	237.25
1397.825	234.25
1402.567	235.25
1407.304	236.25
1412.036	240.25
1416.764	236.25
1421.487	238.25
1426.205	243.25
1430.919	256.25
1435.628	275.25
1440.333	303.25
1445.032	325.25
1449.727	342.25
1454.418	335.25
1459.104	315.25
1463.785	306.25
1468.462	292.25
1473.134	273.25
1477.802	242.25
1482.465	231.25
1487.123	210.25
1491.777	198.25
1496.426	188.25
1501.071	188.25
1505.711	182.25
1510.347	181.25
1514.978	190.25
1519.604	191.25
1524.226	186.25
1528.844	184.25
1533.457	184.25
1538.065	182.25
1542.669	175.25
1547.269	182.25
1551.864	179.25
1556.454	183.25
1561.041	175.25
1565.622	183.25
1570.199	181.25
1574.772	179.25
1579.34	178.25
1583.904	183.25
1588.464	176.25
1593.019	184.25
1597.569	189.25
1602.115	183.25
1606.657	189.25
1611.195	191.25
1615.728	193.25
1620.256	195.25
1624.78	187.25
1629.3	189.25
1633.816	196.25
1638.327	201.25
1642.834	202.25
1647.336	211.25
1651.834	217.25
1656.328	216.25
1660.817	219.25
1665.302	221.25
1669.783	208.25
1674.259	208.25
1678.732	197.25
1683.199	191.25
1687.663	177.25
1692.122	164.25
1696.577	156.25
1701.028	156.25
1705.474	149.25
1709.917	147.25
1714.355	147.25
1718.788	133.25
1723.218	132.25
1727.643	136.25
1732.064	129.25
1736.481	131.25
1740.893	122.25
1745.301	126.25
1749.705	126.25
1754.105	122.25
1758.501	112.25
1762.893	105.25
1767.28	102.25
1771.663	100.25
1776.042	101.25
1780.417	98.25
1784.787	98.25
1789.154	94.25
1793.516	101.25
1797.874	102.25
1802.228	97.25
1806.578	102.25
1810.924	100.25
1815.266	94.25
1819.603	86.25
1823.937	90.25
1828.266	89.25
1832.591	85.25
1836.913	90.25
1841.23	85.25
1845.543	84.25
1849.852	80.25
1854.156	81.25
1858.457	83.25
1862.754	84.25
1867.047	79.25
1871.335	85.25
1875.62	84.25
1879.9	80.25
1884.177	82.25
1888.449	84.25
1892.718	76.25
1896.982	79.25
1901.243	84.25
1905.499	78.25
1909.752	83.25
1914	82.25
1918.245	75.25
1922.485	74.25
1926.722	78.25
1930.954	82.25
1935.183	78.25
1939.408	85.25
1943.628	82.25
1947.845	82.25
1952.058	84.25
1956.267	74.25
1960.472	74.25
1964.673	77.25
1968.87	72.25
1973.063	77.25
1977.252	72.25
1981.438	71.25
1985.619	72.25
1989.797	66.25
1993.971	71.25
1998.14	68.25
2002.306	69.25
2006.469	69.25
2010.627	68.25
2014.781	72.25
2018.932	71.25
2023.078	72.25
2027.221	71.25
2031.36	61.25
2035.495	62.25
2039.627	67.25
2043.754	61.25
2047.878	66.25
2051.998	65.25
2056.114	64.25
2060.226	65.25
2064.334	63.25
2068.439	63.25
2072.54	58.25
2076.637	64.25
2080.73	66.25
2084.82	67.25
2088.906	71.25
2092.988	68.25
2097.066	62.25
2101.14	67.25
2105.211	62.25
2109.278	57.25
2113.342	64.25
2117.401	66.25
2121.457	67.25
2125.509	64.25
2129.558	66.25
2133.602	62.25
2137.643	63.25
2141.681	53.25
2145.714	60.25
2149.744	63.25
2153.77	58.25
2157.793	57.25
2161.812	60.25
2165.827	53.25
2169.838	50.25
2173.846	53.25
2177.851	52.25
2181.851	51.25
2185.848	47.25
2189.841	48.25
2193.831	50.25
2197.817	45.25
2201.799	50.25
2205.778	50.25
2209.753	42.25
2213.725	46.25
2217.693	47.25
2221.657	44.25
2225.618	41.25
2229.575	42.25
2233.529	43.25
2237.479	40.25
2241.425	44.25
2245.368	42.25
2249.307	39.25
2253.243	36.25
2257.175	37.25
2261.104	35.25
2265.029	39.25
2268.95	40.25
2272.868	39.25
2276.783	34.25
2280.694	37.25
2284.601	35.25
2288.505	34.25
2292.405	29.25
2296.302	32.25
2300.195	35.25
2304.085	29.25
2307.971	30.25
2311.854	24.25
2315.734	24.25
2319.609	25.25
2323.482	32.25
2327.351	33.25
2331.216	29.25
2335.078	31.25
2338.937	30.25
2342.792	21.25
2346.643	22.25
2350.492	26.25
2354.336	20.25
2358.178	24.25
2362.015	23.25
2365.85	18.25
2369.681	18.25
2373.508	20.25
2377.333	22.25
2381.153	24.25
2384.971	24.25
2388.785	25.25
2392.595	22.25
2396.402	18.25
2400.206	19.25
2404.007	17.25
2407.804	17.25
2411.597	19.25
2415.388	16.25
2419.174	21.25
2422.958	19.25
2426.738	16.25
2430.515	17.25
2434.289	14.25
2438.059	17.25
2441.825	15.25
2445.589	15.25
2449.349	16.25
2453.106	13.25
2456.859	12.25
2460.61	13.25
2464.356	16.25
2468.1	14.25
2471.84	14.25
2475.577	14.25
2479.311	6.25
2483.041	13.25
2486.768	13.25
2490.492	15.25
2494.213	15.25
2497.93	15.25
2501.644	13.25
2505.355	10.25
2509.062	13.25
2512.766	13.25
2516.467	10.25
2520.165	13.25
2523.859	13.25
2527.551	12.25
2531.239	11.25
2534.923	7.25
2538.605	9.25
2542.283	12.25
2545.958	12.25
2549.63	12.25
2553.299	15.25
2556.964	10.25
2560.626	7.25
2564.285	5.25
2567.941	8.25
2571.594	11.25
2575.243	13.25
2578.89	15.25
2582.533	11.25
2586.173	10.25
2589.809	9.25
2593.443	14.25
2597.073	8.25
2600.701	15.25
2604.325	11.25
2607.946	15.25
2611.564	9.25
2615.178	13.25
2618.79	9.25
2622.398	11.25
2626.004	9.25
2629.606	11.25
2633.205	9.25
2636.801	13.25
2640.394	12.25
2643.983	11.25
2647.57	8.25
2651.153	9.25
2654.734	6.25
2658.311	9.25
2661.885	14.25
2665.456	8.25
2669.025	7.25
2672.589	2.25
2676.151	3.25
2679.71	8.25
2683.266	9.25
2686.819	10.25
2690.368	6.25
2693.915	5.25
2697.458	8.25
2700.999	4.25
2704.536	6.25
2708.071	5.25
2711.602	9.25
2715.13	5.25
2718.656	10.25
2722.178	7.25
2725.697	5.25
2729.214	13.25
2732.727	11.25
2736.237	14.25
2739.744	13.25
2743.249	13.25
2746.75	9.25
2750.248	12.25
2753.743	11.25
2757.236	10.25
2760.725	12.25
2764.211	11.25
2767.695	10.25
2771.175	11.25
2774.652	7.25
2778.127	7.25
2781.598	12.25
2785.067	8.25
2788.532	6.25
2791.995	9.25
2795.455	9.25
2798.911	10.25
2802.365	12.25
2805.816	18.25
2809.264	17.25
2812.709	15.25
2816.151	15.25
2819.59	19.25
2823.026	16.25
2826.46	22.25
2829.89	29.25
2833.318	31.25
2836.742	37.25
2840.164	48.25
2843.583	53.25
2846.999	66.25
2850.412	76.25
2853.822	83.25
2857.229	92.25
2860.634	94.25
2864.035	94.25
2867.434	99.25
2870.83	102.25
2874.223	99.25
2877.613	103.25
2881	117.25
2884.385	123.25
2887.766	129.25
2891.145	131.25
2894.521	125.25
2897.894	119.25
2901.264	116.25
2904.631	116.25
2907.996	118.25
2911.358	114.25
2914.717	116.25
2918.073	111.25
2921.426	112.25
2924.777	113.25
2928.124	111.25
2931.469	103.25
2934.811	105.25
2938.15	108.25
2941.487	105.25
2944.821	101.25
2948.152	89.25
2951.48	83.25
2954.805	82.25
2958.128	78.25
2961.447	78.25
2964.765	68.25
2968.079	69.25
2971.39	63.25
2974.699	62.25
2978.005	61.25
2981.308	56.25
2984.609	53.25
2987.907	52.25
2991.202	50.25
2994.494	47.25
2997.784	45.25
3001.07	45.25
3004.355	41.25
3007.636	44.25
3010.915	45.25
3014.191	47.25
3017.464	38.25
3020.734	41.25
3024.002	38.25
3027.267	34.25
3030.53	38.25
3033.789	40.25
3037.046	33.25
3040.301	39.25
3043.552	32.25
3046.801	37.25
3050.048	41.25
3053.291	46.25
3056.532	46.25
3059.771	44.25
3063.006	42.25
3066.239	43.25
3069.469	46.25
3072.697	49.25
3075.922	61.25
3079.144	54.25
3082.364	53.25
3085.581	52.25
3088.795	53.25
3092.007	53.25
3095.216	61.25
3098.423	61.25
3101.627	67.25
3104.828	70.25
3108.026	65.25
3111.222	64.25
3114.416	70.25
3117.607	69.25
3120.795	70.25
3123.98	67.25
3127.163	79.25
3130.344	78.25
3133.521	83.25
3136.696	81.25
3139.869	82.25
3143.039	91.25
3146.206	90.25
3149.371	87.25
3152.533	94.25
3155.693	88.25
3158.85	89.25
3162.005	89.25
3165.157	94.25
3168.306	87.25
3171.453	95.25
3174.597	87.25
3177.739	94.25
3180.878	93.25
3184.014	94.25
3187.149	91.25
3190.28	95.25
3193.409	93.25
3196.536	91.25
3199.659	94.25
3202.781	94.25
3205.9	97.25
3209.016	94.25
3212.13	96.25
3215.241	90.25
3218.35	92.25
3221.456	90.25
3224.56	89.25
3227.661	94.25
3230.76	88.25
3233.856	88.25
3236.95	84.25
3240.041	87.25
3243.13	89.25
3246.216	86.25
3249.3	87.25
3252.382	84.25
3255.46	83.25
3258.537	86.25
3261.611	87.25
3264.682	79.25
3267.751	79.25
3270.818	80.25
3273.882	74.25
3276.943	82.25
3280.002	80.25
3283.059	80.25
3286.113	84.25
3289.165	78.25
3292.214	72.25
3295.261	71.25
3298.306	69.25
3301.348	72.25
3304.387	69.25
3307.425	71.25
3310.459	66.25
3313.492	69.25
3316.521	65.25
3319.549	66.25
3322.574	63.25
3325.597	64.25
3328.617	61.25
3331.635	63.25
3334.65	63.25
3337.663	58.25
3340.674	64.25
3343.682	62.25
3346.688	62.25
3349.691	59.25
3352.692	56.25
3355.691	57.25
3358.687	56.25
3361.681	56.25
3364.673	64.25
3367.662	63.25
3370.649	58.25
3373.633	55.25
3376.615	57.25
3379.595	52.25
3382.572	49.25
3385.547	53.25
3388.52	50.25
3391.49	52.25
3394.458	54.25
3397.424	44.25
3400.387	46.25
3403.348	44.25
3406.307	46.25
3409.263	45.25
3412.217	47.25
3415.168	43.25
3418.118	46.25
3421.065	43.25
3424.009	41.25
3426.951	44.25
3429.891	44.25
3432.829	44.25
3435.764	37.25
3438.697	41.25
3441.628	30.25
3444.557	37.25
3447.483	36.25
3450.407	33.25
3453.328	30.25
3456.247	27.25
3459.164	26.25
3462.079	24.25
3464.991	26.25
3467.902	22.25
3470.809	28.25
3473.715	24.25
3476.618	24.25
3479.519	18.25
3482.418	14.25
3485.315	15.25
3488.209	11.25
3491.101	13.25
3493.99	16.25
3496.878	14.25
3499.763	12.25
3502.646	9.25
3505.527	9.25
3508.405	9.25
3511.281	10.25
3514.155	10.25
3517.027	11.25
3519.897	4.25
3522.764	4.25
3525.629	2.25
3528.492	2.25
3531.352	-1.75
3534.211	2.25
3537.067	-0.75
3539.921	2.25
3542.773	2.25
3545.622	-3.75
3548.469	-6.75
3551.315	-6.75
3554.157	-5.75
3556.998	-4.75
3559.837	-3.75
3562.673	-1.75
3565.507	-6.75
3568.339	-4.75
3571.169	-9.75
3573.996	-7.75
3576.822	-13.75
3579.645	-10.75
3582.466	-8.75
3585.285	-9.75
3588.101	-9.75
3590.916	-12.75
3593.728	-15.75
3596.538	-14.75
3599.346	-14.75
3602.152	-17.75
3604.956	-12.75
3607.757	-11.75
3610.556	-14.75
3613.354	-16.75
3616.149	-18.75
3618.942	-11.75
3621.732	-19.75
3624.521	-19.75
3627.307	-15.75
3630.092	-17.75
3632.874	-15.75
3635.654	-15.75
3638.432	-15.75
3641.208	-18.75
3643.982	-17.75
3646.753	-17.75
3649.523	-17.75
3652.29	-18.75
3655.055	-18.75
3657.818	-20.75
3660.579	-18.75
3663.338	-18.75
3666.095	-18.75
3668.849	-17.75
3671.602	-19.75
3674.352	-23.75
3677.101	-21.75
3679.847	-21.75
3682.591	-19.75
3685.333	-16.75
3688.073	-19.75
3690.811	-24.75
3693.547	-28.75
3696.281	-25.75
3699.013	-21.75
3701.742	-22.75
3704.47	-18.75
3707.195	-22.75
3709.919	-20.75
3712.64	-22.75
3715.359	-23.75
3718.076	-22.75
3720.792	-27.75
3723.505	-18.75
3726.216	-20.75
3728.925	-23.75
3731.632	-26.75
3734.336	-21.75
3737.039	-24.75
3739.74	-25.75
3742.439	-25.75
3745.136	-22.75
3747.83	-22.75
3750.523	-20.75
3753.213	-27.75
3755.902	-24.75
3758.589	-25.75
3761.273	-26.75
3763.956	-24.75
3766.636	-22.75
3769.315	-21.75
3771.991	-21.75
3774.665	-24.75
3777.338	-22.75
3780.008	-23.75
3782.677	-20.75
3785.343	-24.75
3788.007	-21.75
3790.67	-23.75
3793.33	-25.75
3795.989	-25.75
3798.645	-22.75
3801.299	-23.75
3803.952	-27.75
3806.602	-24.75
3809.251	-23.75
3811.897	-21.75
3814.542	-24.75
3817.184	-23.75
3819.825	-22.75
3822.463	-24.75
3825.1	-22.75
3827.735	-22.75
3830.367	-27.75
3832.998	-22.75
3835.627	-24.75
3838.253	-20.75
3840.878	-24.75
3843.501	-22.75
3846.122	-25.75
3848.741	-24.75
3851.358	-23.75
3853.973	-25.75
3856.586	-22.75
3859.197	-23.75
3861.806	-23.75
3864.414	-23.75
3867.019	-20.75
3869.622	-22.75
3872.224	-28.75
3874.823	-23.75
3877.421	-22.75
3880.016	-19.75
3882.61	-16.75
3885.202	-9.75
3887.792	-13.75
3890.38	-21.75
3892.966	-26.75
3895.55	-22.75
3898.132	-25.75
3900.713	-22.75
3903.291	-22.75
3905.868	-21.75
3908.442	-24.75
3911.015	-25.75
3913.586	-30.75
3916.155	-29.75
3918.722	-25.75
3921.287	-21.75
3923.85	-23.75
3926.411	-21.75
3928.971	-20.75
3931.528	-27.75
3934.084	-28.75
3936.638	-26.75
3939.19	-26.75
3941.74	-22.75
3944.288	-22.75
3946.834	-24.75
3949.378	-25.75
3951.921	-22.75
3954.462	-21.75
3957	-25.75
3959.537	-26.75
3962.072	-21.75
3964.606	-22.75
3967.137	-20.75
3969.667	-24.75
3972.194	-24.75
3974.72	-25.75
3977.244	-22.75
3979.766	-26.75
3982.286	-20.75
3984.805	-20.75
3987.321	-24.75
3989.836	-26.75
3992.349	-25.75
3994.86	-25.75
3997.369	-24.75
3999.877	-24.75
4002.382	-24.75
4004.886	-23.75
4007.388	-21.75
4009.888	-24.75
4012.386	-22.75
4014.883	-23.75
4017.377	-24.75
4019.87	-26.75
4022.361	-23.75
4024.85	-25.75
4027.338	-26.75
4029.823	-26.75
4032.307	-22.75
4034.789	-22.75
4037.269	-26.75
4039.747	-23.75
4042.224	-26.75
4044.699	-30.75
4047.172	-26.75
4049.643	-24.75
4052.112	-22.75
4054.58	-21.75
4057.046	-23.75
4059.51	-28.75
4061.972	-28.75
4064.432	-20.75
4066.891	-23.75
4069.348	-25.75
4071.803	-24.75
4074.256	-24.75
4076.708	-26.75
4079.158	-25.75
4081.606	-23.75
4084.052	-20.75
4086.497	-23.75
4088.939	-20.75
4091.38	-22.75
4093.819	-25.75
4096.257	-22.75
4098.693	-28.75
4101.127	-27.75
4103.559	-28.75
4105.989	-14.75
4108.418	-13.75
4110.845	-8.75
4113.27	-9.75
4115.694	-7.75
4118.115	-9.75
4120.535	-24.75
4122.954	-30.75
4125.37	-26.75
4127.785	-21.75
4130.198	-22.75
4132.609	-23.75
4135.019	-26.75
4137.427	-28.75
4139.833	-24.75
4142.237	-28.75
