Data from 10000000CFU2_C_RamanShift_1.txt Node
Date: Thu Feb 02 15:20:20 IST 2017
User: aro
Spectrometer: QEPB0276
Trigger mode: 0
Integration Time (sec): 5.000000E0
Scans to average: 1
Electric dark correction enabled: true
Nonlinearity correction enabled: false
Boxcar width: 0
XAxis mode: Raman Shifts
Number of Pixels in Spectrum: 1044
>>>>>Begin Spectral Data<<<<<
160.701	-3.75
166.742	3.25
172.777	22.25
178.805	90.25
184.826	208.25
190.841	412.25
196.849	656.25
202.85	812.25
208.845	850.25
214.833	842.25
220.815	823.25
226.789	804.25
232.758	813.25
238.719	803.25
244.674	783.25
250.623	774.25
256.565	751.25
262.5	737.25
268.429	719.25
274.351	698.25
280.267	697.25
286.176	692.25
292.079	690.25
297.975	677.25
303.865	665.25
309.748	678.25
315.625	664.25
321.495	673.25
327.359	660.25
333.217	659.25
339.068	670.25
344.912	676.25
350.751	680.25
356.583	686.25
362.408	684.25
368.227	694.25
374.04	672.25
379.847	662.25
385.647	674.25
391.44	668.25
397.228	683.25
403.009	675.25
408.784	700.25
414.553	693.25
420.315	696.25
426.071	697.25
431.821	698.25
437.565	704.25
443.302	684.25
449.033	702.25
454.758	685.25
460.477	678.25
466.189	679.25
471.896	661.25
477.596	656.25
483.29	648.25
488.978	657.25
494.66	632.25
500.335	620.25
506.005	597.25
511.668	578.25
517.325	563.25
522.977	545.25
528.622	525.25
534.261	509.25
539.894	492.25
545.521	491.25
551.141	482.25
556.756	479.25
562.365	472.25
567.968	470.25
573.565	471.25
579.155	454.25
584.74	458.25
590.319	457.25
595.892	460.25
601.459	459.25
607.02	459.25
612.575	457.25
618.124	456.25
623.667	442.25
629.204	437.25
634.735	421.25
640.261	433.25
645.781	429.25
651.294	417.25
656.802	409.25
662.304	413.25
667.8	410.25
673.29	405.25
678.775	409.25
684.254	396.25
689.726	402.25
695.193	395.25
700.655	388.25
706.11	400.25
711.56	399.25
717.004	398.25
722.442	387.25
727.874	390.25
733.301	386.25
738.722	385.25
744.137	373.25
749.547	378.25
754.951	384.25
760.349	390.25
765.741	389.25
771.128	387.25
776.509	393.25
781.885	385.25
787.254	394.25
792.618	386.25
797.977	386.25
803.33	385.25
808.677	379.25
814.019	383.25
819.355	379.25
824.686	376.25
830.011	388.25
835.33	391.25
840.644	388.25
845.952	387.25
851.255	389.25
856.552	391.25
861.844	398.25
867.13	406.25
872.41	390.25
877.686	404.25
882.955	399.25
888.219	391.25
893.478	388.25
898.731	370.25
903.979	373.25
909.221	353.25
914.458	360.25
919.69	357.25
924.916	350.25
930.136	347.25
935.351	342.25
940.561	344.25
945.766	343.25
950.965	345.25
956.158	337.25
961.347	340.25
966.529	329.25
971.707	328.25
976.879	316.25
982.046	316.25
987.208	318.25
992.364	316.25
997.515	317.25
1002.66	326.25
1007.801	327.25
1012.936	334.25
1018.066	341.25
1023.19	348.25
1028.309	348.25
1033.423	352.25
1038.532	354.25
1043.636	345.25
1048.734	351.25
1053.827	351.25
1058.915	353.25
1063.998	360.25
1069.075	372.25
1074.147	375.25
1079.214	370.25
1084.276	377.25
1089.333	382.25
1094.385	375.25
1099.431	375.25
1104.472	362.25
1109.509	354.25
1114.54	345.25
1119.565	346.25
1124.586	352.25
1129.602	352.25
1134.613	339.25
1139.618	329.25
1144.619	304.25
1149.614	299.25
1154.604	296.25
1159.589	295.25
1164.57	290.25
1169.545	293.25
1174.515	288.25
1179.48	278.25
1184.44	270.25
1189.395	263.25
1194.345	260.25
1199.29	264.25
1204.23	270.25
1209.165	273.25
1214.095	274.25
1219.021	277.25
1223.941	274.25
1228.856	278.25
1233.766	287.25
1238.672	277.25
1243.572	301.25
1248.467	300.25
1253.358	299.25
1258.244	301.25
1263.124	302.25
1268	301.25
1272.871	289.25
1277.737	282.25
1282.599	293.25
1287.455	287.25
1292.306	293.25
1297.153	301.25
1301.995	309.25
1306.832	332.25
1311.664	326.25
1316.491	303.25
1321.314	300.25
1326.132	278.25
1330.945	280.25
1335.753	265.25
1340.556	256.25
1345.354	260.25
1350.148	255.25
1354.937	247.25
1359.722	244.25
1364.501	242.25
1369.276	249.25
1374.046	245.25
1378.811	247.25
1383.572	234.25
1388.327	238.25
1393.079	239.25
1397.825	226.25
1402.567	223.25
1407.304	222.25
1412.036	220.25
1416.764	222.25
1421.487	234.25
1426.205	242.25
1430.919	245.25
1435.628	266.25
1440.333	295.25
1445.032	315.25
1449.727	326.25
1454.418	319.25
1459.104	307.25
1463.785	294.25
1468.462	278.25
1473.134	259.25
1477.802	244.25
1482.465	215.25
1487.123	204.25
1491.777	191.25
1496.426	191.25
1501.071	178.25
1505.711	181.25
1510.347	177.25
1514.978	179.25
1519.604	176.25
1524.226	182.25
1528.844	177.25
1533.457	177.25
1538.065	166.25
1542.669	170.25
1547.269	179.25
1551.864	171.25
1556.454	176.25
1561.041	175.25
1565.622	175.25
1570.199	170.25
1574.772	165.25
1579.34	175.25
1583.904	177.25
1588.464	178.25
1593.019	177.25
1597.569	181.25
1602.115	177.25
1606.657	177.25
1611.195	180.25
1615.728	179.25
1620.256	184.25
1624.78	183.25
1629.3	183.25
1633.816	186.25
1638.327	192.25
1642.834	195.25
1647.336	193.25
1651.834	208.25
1656.328	209.25
1660.817	203.25
1665.302	210.25
1669.783	202.25
1674.259	198.25
1678.732	188.25
1683.199	176.25
1687.663	164.25
1692.122	156.25
1696.577	153.25
1701.028	154.25
1705.474	142.25
1709.917	140.25
1714.355	145.25
1718.788	133.25
1723.218	131.25
1727.643	122.25
1732.064	124.25
1736.481	126.25
1740.893	124.25
1745.301	121.25
1749.705	115.25
1754.105	113.25
1758.501	104.25
1762.893	106.25
1767.28	99.25
1771.663	92.25
1776.042	95.25
1780.417	93.25
1784.787	89.25
1789.154	98.25
1793.516	99.25
1797.874	101.25
1802.228	96.25
1806.578	96.25
1810.924	97.25
1815.266	95.25
1819.603	84.25
1823.937	91.25
1828.266	87.25
1832.591	87.25
1836.913	84.25
1841.23	81.25
1845.543	81.25
1849.852	77.25
1854.156	79.25
1858.457	79.25
1862.754	80.25
1867.047	80.25
1871.335	74.25
1875.62	81.25
1879.9	77.25
1884.177	76.25
1888.449	79.25
1892.718	83.25
1896.982	79.25
1901.243	77.25
1905.499	79.25
1909.752	72.25
1914	77.25
1918.245	77.25
1922.485	70.25
1926.722	81.25
1930.954	71.25
1935.183	73.25
1939.408	76.25
1943.628	75.25
1947.845	78.25
1952.058	80.25
1956.267	76.25
1960.472	78.25
1964.673	71.25
1968.87	68.25
1973.063	69.25
1977.252	69.25
1981.438	68.25
1985.619	67.25
1989.797	62.25
1993.971	68.25
1998.14	72.25
2002.306	69.25
2006.469	62.25
2010.627	61.25
2014.781	63.25
2018.932	66.25
2023.078	67.25
2027.221	64.25
2031.36	62.25
2035.495	60.25
2039.627	64.25
2043.754	64.25
2047.878	56.25
2051.998	58.25
2056.114	59.25
2060.226	60.25
2064.334	63.25
2068.439	65.25
2072.54	59.25
2076.637	65.25
2080.73	61.25
2084.82	65.25
2088.906	64.25
2092.988	58.25
2097.066	63.25
2101.14	58.25
2105.211	58.25
2109.278	58.25
2113.342	59.25
2117.401	58.25
2121.457	61.25
2125.509	57.25
2129.558	64.25
2133.602	53.25
2137.643	60.25
2141.681	56.25
2145.714	56.25
2149.744	56.25
2153.77	55.25
2157.793	49.25
2161.812	51.25
2165.827	45.25
2169.838	46.25
2173.846	46.25
2177.851	47.25
2181.851	53.25
2185.848	45.25
2189.841	45.25
2193.831	45.25
2197.817	43.25
2201.799	42.25
2205.778	46.25
2209.753	43.25
2213.725	46.25
2217.693	43.25
2221.657	43.25
2225.618	39.25
2229.575	37.25
2233.529	37.25
2237.479	39.25
2241.425	41.25
2245.368	40.25
2249.307	37.25
2253.243	37.25
2257.175	37.25
2261.104	34.25
2265.029	42.25
2268.95	36.25
2272.868	30.25
2276.783	28.25
2280.694	33.25
2284.601	30.25
2288.505	29.25
2292.405	26.25
2296.302	27.25
2300.195	30.25
2304.085	27.25
2307.971	26.25
2311.854	23.25
2315.734	24.25
2319.609	24.25
2323.482	23.25
2327.351	31.25
2331.216	28.25
2335.078	29.25
2338.937	26.25
2342.792	19.25
2346.643	18.25
2350.492	18.25
2354.336	17.25
2358.178	19.25
2362.015	23.25
2365.85	19.25
2369.681	19.25
2373.508	21.25
2377.333	19.25
2381.153	18.25
2384.971	16.25
2388.785	18.25
2392.595	17.25
2396.402	15.25
2400.206	19.25
2404.007	14.25
2407.804	20.25
2411.597	19.25
2415.388	14.25
2419.174	14.25
2422.958	14.25
2426.738	16.25
2430.515	11.25
2434.289	16.25
2438.059	18.25
2441.825	15.25
2445.589	12.25
2449.349	10.25
2453.106	10.25
2456.859	8.25
2460.61	11.25
2464.356	16.25
2468.1	16.25
2471.84	15.25
2475.577	12.25
2479.311	6.25
2483.041	10.25
2486.768	8.25
2490.492	7.25
2494.213	10.25
2497.93	13.25
2501.644	13.25
2505.355	10.25
2509.062	10.25
2512.766	12.25
2516.467	10.25
2520.165	10.25
2523.859	9.25
2527.551	12.25
2531.239	12.25
2534.923	11.25
2538.605	7.25
2542.283	7.25
2545.958	11.25
2549.63	9.25
2553.299	11.25
2556.964	10.25
2560.626	12.25
2564.285	11.25
2567.941	7.25
2571.594	12.25
2575.243	10.25
2578.89	8.25
2582.533	6.25
2586.173	10.25
2589.809	7.25
2593.443	10.25
2597.073	3.25
2600.701	12.25
2604.325	6.25
2607.946	10.25
2611.564	7.25
2615.178	9.25
2618.79	6.25
2622.398	4.25
2626.004	7.25
2629.606	13.25
2633.205	8.25
2636.801	11.25
2640.394	12.25
2643.983	4.25
2647.57	3.25
2651.153	5.25
2654.734	4.25
2658.311	9.25
2661.885	7.25
2665.456	6.25
2669.025	5.25
2672.589	4.25
2676.151	4.25
2679.71	5.25
2683.266	9.25
2686.819	5.25
2690.368	4.25
2693.915	7.25
2697.458	9.25
2700.999	5.25
2704.536	7.25
2708.071	10.25
2711.602	7.25
2715.13	4.25
2718.656	5.25
2722.178	6.25
2725.697	5.25
2729.214	10.25
2732.727	12.25
2736.237	10.25
2739.744	11.25
2743.249	12.25
2746.75	9.25
2750.248	8.25
2753.743	7.25
2757.236	7.25
2760.725	7.25
2764.211	13.25
2767.695	9.25
2771.175	13.25
2774.652	8.25
2778.127	4.25
2781.598	5.25
2785.067	4.25
2788.532	5.25
2791.995	12.25
2795.455	9.25
2798.911	7.25
2802.365	7.25
2805.816	11.25
2809.264	14.25
2812.709	15.25
2816.151	11.25
2819.59	19.25
2823.026	19.25
2826.46	20.25
2829.89	26.25
2833.318	28.25
2836.742	37.25
2840.164	43.25
2843.583	47.25
2846.999	54.25
2850.412	73.25
2853.822	76.25
2857.229	86.25
2860.634	93.25
2864.035	90.25
2867.434	91.25
2870.83	96.25
2874.223	102.25
2877.613	101.25
2881	111.25
2884.385	114.25
2887.766	118.25
2891.145	116.25
2894.521	115.25
2897.894	111.25
2901.264	114.25
2904.631	103.25
2907.996	110.25
2911.358	104.25
2914.717	104.25
2918.073	106.25
2921.426	103.25
2924.777	101.25
2928.124	103.25
2931.469	100.25
2934.811	103.25
2938.15	94.25
2941.487	95.25
2944.821	91.25
2948.152	83.25
2951.48	80.25
2954.805	79.25
2958.128	71.25
2961.447	73.25
2964.765	68.25
2968.079	60.25
2971.39	58.25
2974.699	54.25
2978.005	52.25
2981.308	49.25
2984.609	47.25
2987.907	43.25
2991.202	47.25
2994.494	43.25
2997.784	44.25
3001.07	46.25
3004.355	42.25
3007.636	36.25
3010.915	35.25
3014.191	34.25
3017.464	34.25
3020.734	31.25
3024.002	33.25
3027.267	34.25
3030.53	36.25
3033.789	34.25
3037.046	27.25
3040.301	34.25
3043.552	29.25
3046.801	33.25
3050.048	36.25
3053.291	34.25
3056.532	39.25
3059.771	40.25
3063.006	41.25
3066.239	43.25
3069.469	42.25
3072.697	39.25
3075.922	48.25
3079.144	48.25
3082.364	54.25
3085.581	48.25
3088.795	52.25
3092.007	53.25
3095.216	52.25
3098.423	58.25
3101.627	59.25
3104.828	64.25
3108.026	59.25
3111.222	63.25
3114.416	65.25
3117.607	67.25
3120.795	69.25
3123.98	67.25
3127.163	71.25
3130.344	74.25
3133.521	69.25
3136.696	70.25
3139.869	74.25
3143.039	83.25
3146.206	79.25
3149.371	86.25
3152.533	83.25
3155.693	82.25
3158.85	81.25
3162.005	82.25
3165.157	83.25
3168.306	84.25
3171.453	90.25
3174.597	84.25
3177.739	84.25
3180.878	83.25
3184.014	86.25
3187.149	85.25
3190.28	84.25
3193.409	85.25
3196.536	93.25
3199.659	91.25
3202.781	91.25
3205.9	86.25
3209.016	93.25
3212.13	93.25
3215.241	86.25
3218.35	89.25
3221.456	84.25
3224.56	84.25
3227.661	82.25
3230.76	85.25
3233.856	80.25
3236.95	76.25
3240.041	82.25
3243.13	76.25
3246.216	82.25
3249.3	80.25
3252.382	75.25
3255.46	75.25
3258.537	77.25
3261.611	75.25
3264.682	71.25
3267.751	74.25
3270.818	77.25
3273.882	72.25
3276.943	79.25
3280.002	74.25
3283.059	76.25
3286.113	74.25
3289.165	68.25
3292.214	72.25
3295.261	67.25
3298.306	68.25
3301.348	69.25
3304.387	63.25
3307.425	64.25
3310.459	61.25
3313.492	56.25
3316.521	55.25
3319.549	55.25
3322.574	57.25
3325.597	61.25
3328.617	54.25
3331.635	49.25
3334.65	63.25
3337.663	55.25
3340.674	54.25
3343.682	56.25
3346.688	54.25
3349.691	58.25
3352.692	57.25
3355.691	57.25
3358.687	56.25
3361.681	53.25
3364.673	50.25
3367.662	50.25
3370.649	50.25
3373.633	44.25
3376.615	50.25
3379.595	46.25
3382.572	45.25
3385.547	46.25
3388.52	45.25
3391.49	50.25
3394.458	47.25
3397.424	45.25
3400.387	36.25
3403.348	41.25
3406.307	38.25
3409.263	42.25
3412.217	44.25
3415.168	38.25
3418.118	41.25
3421.065	35.25
3424.009	35.25
3426.951	37.25
3429.891	36.25
3432.829	35.25
3435.764	31.25
3438.697	38.25
3441.628	30.25
3444.557	32.25
3447.483	26.25
3450.407	31.25
3453.328	26.25
3456.247	25.25
3459.164	24.25
3462.079	19.25
3464.991	24.25
3467.902	25.25
3470.809	23.25
3473.715	21.25
3476.618	20.25
3479.519	12.25
3482.418	8.25
3485.315	14.25
3488.209	10.25
3491.101	10.25
3493.99	12.25
3496.878	14.25
3499.763	11.25
3502.646	11.25
3505.527	9.25
3508.405	4.25
3511.281	6.25
3514.155	6.25
3517.027	6.25
3519.897	8.25
3522.764	4.25
3525.629	2.25
3528.492	2.25
3531.352	-2.75
3534.211	-0.75
3537.067	-3.75
3539.921	-0.75
3542.773	-3.75
3545.622	-2.75
3548.469	-6.75
3551.315	-4.75
3554.157	-9.75
3556.998	-9.75
3559.837	-1.75
3562.673	-5.75
3565.507	-10.75
3568.339	-7.75
3571.169	-12.75
3573.996	-5.75
3576.822	-14.75
3579.645	-12.75
3582.466	-9.75
3585.285	-9.75
3588.101	-11.75
3590.916	-13.75
3593.728	-13.75
3596.538	-15.75
3599.346	-14.75
3602.152	-11.75
3604.956	-10.75
3607.757	-14.75
3610.556	-15.75
3613.354	-20.75
3616.149	-18.75
3618.942	-13.75
3621.732	-17.75
3624.521	-15.75
3627.307	-15.75
3630.092	-16.75
3632.874	-16.75
3635.654	-20.75
3638.432	-21.75
3641.208	-21.75
3643.982	-19.75
3646.753	-13.75
3649.523	-14.75
3652.29	-16.75
3655.055	-20.75
3657.818	-24.75
3660.579	-21.75
3663.338	-20.75
3666.095	-16.75
3668.849	-19.75
3671.602	-19.75
3674.352	-21.75
3677.101	-21.75
3679.847	-21.75
3682.591	-21.75
3685.333	-20.75
3688.073	-23.75
3690.811	-22.75
3693.547	-28.75
3696.281	-21.75
3699.013	-21.75
3701.742	-22.75
3704.47	-19.75
3707.195	-22.75
3709.919	-23.75
3712.64	-26.75
3715.359	-26.75
3718.076	-21.75
3720.792	-26.75
3723.505	-17.75
3726.216	-22.75
3728.925	-25.75
3731.632	-26.75
3734.336	-25.75
3737.039	-23.75
3739.74	-28.75
3742.439	-24.75
3745.136	-24.75
3747.83	-23.75
3750.523	-21.75
3753.213	-25.75
3755.902	-23.75
3758.589	-28.75
3761.273	-24.75
3763.956	-25.75
3766.636	-23.75
3769.315	-21.75
3771.991	-24.75
3774.665	-26.75
3777.338	-24.75
3780.008	-23.75
3782.677	-23.75
3785.343	-24.75
3788.007	-22.75
3790.67	-26.75
3793.33	-26.75
3795.989	-26.75
3798.645	-25.75
3801.299	-23.75
3803.952	-25.75
3806.602	-25.75
3809.251	-25.75
3811.897	-26.75
3814.542	-29.75
3817.184	-26.75
3819.825	-24.75
3822.463	-21.75
3825.1	-22.75
3827.735	-19.75
3830.367	-25.75
3832.998	-24.75
3835.627	-23.75
3838.253	-25.75
3840.878	-24.75
3843.501	-20.75
3846.122	-23.75
3848.741	-22.75
3851.358	-24.75
3853.973	-26.75
3856.586	-24.75
3859.197	-27.75
3861.806	-24.75
3864.414	-23.75
3867.019	-22.75
3869.622	-23.75
3872.224	-27.75
3874.823	-27.75
3877.421	-22.75
3880.016	-21.75
3882.61	-18.75
3885.202	-12.75
3887.792	-13.75
3890.38	-19.75
3892.966	-23.75
3895.55	-22.75
3898.132	-24.75
3900.713	-22.75
3903.291	-25.75
3905.868	-25.75
3908.442	-28.75
3911.015	-26.75
3913.586	-27.75
3916.155	-25.75
3918.722	-25.75
3921.287	-20.75
3923.85	-26.75
3926.411	-27.75
3928.971	-20.75
3931.528	-27.75
3934.084	-27.75
3936.638	-22.75
3939.19	-26.75
3941.74	-19.75
3944.288	-25.75
3946.834	-24.75
3949.378	-26.75
3951.921	-26.75
3954.462	-24.75
3957	-24.75
3959.537	-20.75
3962.072	-23.75
3964.606	-20.75
3967.137	-23.75
3969.667	-27.75
3972.194	-30.75
3974.72	-26.75
3977.244	-25.75
3979.766	-24.75
3982.286	-19.75
3984.805	-24.75
3987.321	-27.75
3989.836	-27.75
3992.349	-25.75
3994.86	-24.75
3997.369	-27.75
3999.877	-28.75
4002.382	-27.75
4004.886	-25.75
4007.388	-22.75
4009.888	-25.75
4012.386	-24.75
4014.883	-24.75
4017.377	-22.75
4019.87	-24.75
4022.361	-25.75
4024.85	-28.75
4027.338	-26.75
4029.823	-26.75
4032.307	-23.75
4034.789	-22.75
4037.269	-21.75
4039.747	-23.75
4042.224	-27.75
4044.699	-29.75
4047.172	-29.75
4049.643	-27.75
4052.112	-22.75
4054.58	-20.75
4057.046	-23.75
4059.51	-25.75
4061.972	-26.75
4064.432	-24.75
4066.891	-25.75
4069.348	-22.75
4071.803	-27.75
4074.256	-21.75
4076.708	-21.75
4079.158	-24.75
4081.606	-23.75
4084.052	-23.75
4086.497	-24.75
4088.939	-20.75
4091.38	-26.75
4093.819	-25.75
4096.257	-23.75
4098.693	-27.75
4101.127	-25.75
4103.559	-26.75
4105.989	-9.75
4108.418	-13.75
4110.845	-11.75
4113.27	-13.75
4115.694	-7.75
4118.115	-7.75
4120.535	-24.75
4122.954	-26.75
4125.37	-24.75
4127.785	-20.75
4130.198	-22.75
4132.609	-27.75
4135.019	-27.75
4137.427	-29.75
4139.833	-24.75
4142.237	-29.75
