Data from 100000CFU3_B_RamanShift_1.txt Node
Date: Thu Feb 02 14:38:30 IST 2017
User: aro
Spectrometer: QEPB0276
Trigger mode: 0
Integration Time (sec): 5.000000E0
Scans to average: 1
Electric dark correction enabled: true
Nonlinearity correction enabled: false
Boxcar width: 0
XAxis mode: Raman Shifts
Number of Pixels in Spectrum: 1044
>>>>>Begin Spectral Data<<<<<
160.701	-2.75
166.742	1.25
172.777	22.25
178.805	88.25
184.826	218.25
190.841	431.25
196.849	677.25
202.85	825.25
208.845	890.25
214.833	863.25
220.815	844.25
226.789	829.25
232.758	817.25
238.719	823.25
244.674	803.25
250.623	779.25
256.565	752.25
262.5	733.25
268.429	715.25
274.351	712.25
280.267	706.25
286.176	693.25
292.079	681.25
297.975	685.25
303.865	676.25
309.748	665.25
315.625	668.25
321.495	656.25
327.359	669.25
333.217	669.25
339.068	675.25
344.912	677.25
350.751	673.25
356.583	691.25
362.408	675.25
368.227	678.25
374.04	663.25
379.847	664.25
385.647	664.25
391.44	676.25
397.228	675.25
403.009	679.25
408.784	690.25
414.553	679.25
420.315	688.25
426.071	701.25
431.821	691.25
437.565	700.25
443.302	696.25
449.033	688.25
454.758	684.25
460.477	683.25
466.189	671.25
471.896	658.25
477.596	653.25
483.29	645.25
488.978	648.25
494.66	631.25
500.335	622.25
506.005	602.25
511.668	580.25
517.325	559.25
522.977	541.25
528.622	522.25
534.261	504.25
539.894	495.25
545.521	495.25
551.141	491.25
556.756	469.25
562.365	478.25
567.968	465.25
573.565	468.25
579.155	457.25
584.74	473.25
590.319	467.25
595.892	460.25
601.459	465.25
607.02	455.25
612.575	450.25
618.124	447.25
623.667	427.25
629.204	441.25
634.735	427.25
640.261	435.25
645.781	423.25
651.294	423.25
656.802	423.25
662.304	412.25
667.8	407.25
673.29	409.25
678.775	413.25
684.254	401.25
689.726	404.25
695.193	399.25
700.655	399.25
706.11	393.25
711.56	390.25
717.004	399.25
722.442	393.25
727.874	393.25
733.301	393.25
738.722	384.25
744.137	375.25
749.547	377.25
754.951	379.25
760.349	379.25
765.741	389.25
771.128	393.25
776.509	392.25
781.885	395.25
787.254	386.25
792.618	387.25
797.977	382.25
803.33	372.25
808.677	386.25
814.019	392.25
819.355	372.25
824.686	376.25
830.011	387.25
835.33	389.25
840.644	390.25
845.952	379.25
851.255	397.25
856.552	398.25
861.844	404.25
867.13	405.25
872.41	397.25
877.686	404.25
882.955	395.25
888.219	396.25
893.478	389.25
898.731	375.25
903.979	371.25
909.221	374.25
914.458	360.25
919.69	364.25
924.916	354.25
930.136	362.25
935.351	349.25
940.561	351.25
945.766	351.25
950.965	348.25
956.158	343.25
961.347	337.25
966.529	324.25
971.707	324.25
976.879	313.25
982.046	311.25
987.208	313.25
992.364	322.25
997.515	323.25
1002.66	327.25
1007.801	330.25
1012.936	342.25
1018.066	356.25
1023.19	351.25
1028.309	348.25
1033.423	346.25
1038.532	354.25
1043.636	353.25
1048.734	355.25
1053.827	358.25
1058.915	366.25
1063.998	376.25
1069.075	375.25
1074.147	375.25
1079.214	379.25
1084.276	379.25
1089.333	390.25
1094.385	386.25
1099.431	375.25
1104.472	368.25
1109.509	362.25
1114.54	350.25
1119.565	357.25
1124.586	355.25
1129.602	356.25
1134.613	344.25
1139.618	333.25
1144.619	314.25
1149.614	303.25
1154.604	304.25
1159.589	297.25
1164.57	294.25
1169.545	293.25
1174.515	286.25
1179.48	283.25
1184.44	281.25
1189.395	273.25
1194.345	263.25
1199.29	265.25
1204.23	265.25
1209.165	267.25
1214.095	276.25
1219.021	276.25
1223.941	278.25
1228.856	277.25
1233.766	291.25
1238.672	290.25
1243.572	306.25
1248.467	304.25
1253.358	295.25
1258.244	309.25
1263.124	306.25
1268	310.25
1272.871	295.25
1277.737	294.25
1282.599	285.25
1287.455	288.25
1292.306	294.25
1297.153	311.25
1301.995	329.25
1306.832	333.25
1311.664	328.25
1316.491	310.25
1321.314	299.25
1326.132	280.25
1330.945	275.25
1335.753	264.25
1340.556	272.25
1345.354	267.25
1350.148	260.25
1354.937	252.25
1359.722	244.25
1364.501	242.25
1369.276	239.25
1374.046	250.25
1378.811	250.25
1383.572	249.25
1388.327	244.25
1393.079	228.25
1397.825	231.25
1402.567	221.25
1407.304	224.25
1412.036	227.25
1416.764	223.25
1421.487	239.25
1426.205	239.25
1430.919	249.25
1435.628	275.25
1440.333	294.25
1445.032	321.25
1449.727	320.25
1454.418	324.25
1459.104	313.25
1463.785	306.25
1468.462	292.25
1473.134	269.25
1477.802	239.25
1482.465	217.25
1487.123	194.25
1491.777	192.25
1496.426	182.25
1501.071	178.25
1505.711	176.25
1510.347	179.25
1514.978	183.25
1519.604	190.25
1524.226	180.25
1528.844	180.25
1533.457	179.25
1538.065	181.25
1542.669	170.25
1547.269	174.25
1551.864	180.25
1556.454	177.25
1561.041	177.25
1565.622	174.25
1570.199	167.25
1574.772	177.25
1579.34	169.25
1583.904	175.25
1588.464	173.25
1593.019	187.25
1597.569	180.25
1602.115	181.25
1606.657	185.25
1611.195	189.25
1615.728	189.25
1620.256	190.25
1624.78	186.25
1629.3	193.25
1633.816	189.25
1638.327	190.25
1642.834	197.25
1647.336	208.25
1651.834	210.25
1656.328	212.25
1660.817	218.25
1665.302	211.25
1669.783	206.25
1674.259	195.25
1678.732	188.25
1683.199	182.25
1687.663	175.25
1692.122	158.25
1696.577	153.25
1701.028	158.25
1705.474	146.25
1709.917	146.25
1714.355	142.25
1718.788	130.25
1723.218	127.25
1727.643	127.25
1732.064	127.25
1736.481	127.25
1740.893	118.25
1745.301	120.25
1749.705	117.25
1754.105	115.25
1758.501	105.25
1762.893	105.25
1767.28	100.25
1771.663	102.25
1776.042	92.25
1780.417	94.25
1784.787	100.25
1789.154	90.25
1793.516	92.25
1797.874	97.25
1802.228	94.25
1806.578	98.25
1810.924	94.25
1815.266	90.25
1819.603	87.25
1823.937	85.25
1828.266	79.25
1832.591	83.25
1836.913	83.25
1841.23	83.25
1845.543	83.25
1849.852	81.25
1854.156	78.25
1858.457	85.25
1862.754	81.25
1867.047	76.25
1871.335	75.25
1875.62	84.25
1879.9	79.25
1884.177	78.25
1888.449	83.25
1892.718	78.25
1896.982	76.25
1901.243	79.25
1905.499	75.25
1909.752	73.25
1914	81.25
1918.245	72.25
1922.485	68.25
1926.722	73.25
1930.954	78.25
1935.183	73.25
1939.408	78.25
1943.628	75.25
1947.845	75.25
1952.058	76.25
1956.267	77.25
1960.472	80.25
1964.673	79.25
1968.87	72.25
1973.063	72.25
1977.252	67.25
1981.438	67.25
1985.619	69.25
1989.797	64.25
1993.971	69.25
1998.14	71.25
2002.306	64.25
2006.469	60.25
2010.627	62.25
2014.781	67.25
2018.932	66.25
2023.078	62.25
2027.221	63.25
2031.36	60.25
2035.495	59.25
2039.627	63.25
2043.754	60.25
2047.878	61.25
2051.998	62.25
2056.114	64.25
2060.226	61.25
2064.334	61.25
2068.439	66.25
2072.54	61.25
2076.637	65.25
2080.73	66.25
2084.82	65.25
2088.906	68.25
2092.988	64.25
2097.066	56.25
2101.14	64.25
2105.211	64.25
2109.278	56.25
2113.342	63.25
2117.401	65.25
2121.457	65.25
2125.509	60.25
2129.558	60.25
2133.602	58.25
2137.643	63.25
2141.681	58.25
2145.714	59.25
2149.744	59.25
2153.77	59.25
2157.793	54.25
2161.812	54.25
2165.827	51.25
2169.838	47.25
2173.846	51.25
2177.851	48.25
2181.851	51.25
2185.848	45.25
2189.841	48.25
2193.831	46.25
2197.817	43.25
2201.799	43.25
2205.778	44.25
2209.753	46.25
2213.725	49.25
2217.693	47.25
2221.657	47.25
2225.618	40.25
2229.575	38.25
2233.529	39.25
2237.479	40.25
2241.425	41.25
2245.368	42.25
2249.307	41.25
2253.243	36.25
2257.175	37.25
2261.104	31.25
2265.029	37.25
2268.95	33.25
2272.868	32.25
2276.783	32.25
2280.694	38.25
2284.601	32.25
2288.505	29.25
2292.405	30.25
2296.302	31.25
2300.195	31.25
2304.085	29.25
2307.971	26.25
2311.854	24.25
2315.734	26.25
2319.609	27.25
2323.482	30.25
2327.351	29.25
2331.216	33.25
2335.078	30.25
2338.937	28.25
2342.792	23.25
2346.643	16.25
2350.492	24.25
2354.336	24.25
2358.178	22.25
2362.015	24.25
2365.85	20.25
2369.681	21.25
2373.508	20.25
2377.333	19.25
2381.153	23.25
2384.971	19.25
2388.785	16.25
2392.595	16.25
2396.402	21.25
2400.206	17.25
2404.007	14.25
2407.804	18.25
2411.597	16.25
2415.388	18.25
2419.174	15.25
2422.958	19.25
2426.738	14.25
2430.515	14.25
2434.289	16.25
2438.059	19.25
2441.825	13.25
2445.589	15.25
2449.349	13.25
2453.106	11.25
2456.859	13.25
2460.61	13.25
2464.356	17.25
2468.1	12.25
2471.84	17.25
2475.577	17.25
2479.311	8.25
2483.041	11.25
2486.768	13.25
2490.492	14.25
2494.213	14.25
2497.93	11.25
2501.644	8.25
2505.355	10.25
2509.062	6.25
2512.766	10.25
2516.467	14.25
2520.165	11.25
2523.859	13.25
2527.551	12.25
2531.239	8.25
2534.923	7.25
2538.605	5.25
2542.283	6.25
2545.958	12.25
2549.63	12.25
2553.299	16.25
2556.964	10.25
2560.626	12.25
2564.285	8.25
2567.941	8.25
2571.594	9.25
2575.243	7.25
2578.89	13.25
2582.533	11.25
2586.173	11.25
2589.809	11.25
2593.443	14.25
2597.073	8.25
2600.701	8.25
2604.325	9.25
2607.946	11.25
2611.564	9.25
2615.178	10.25
2618.79	11.25
2622.398	9.25
2626.004	13.25
2629.606	11.25
2633.205	10.25
2636.801	6.25
2640.394	12.25
2643.983	11.25
2647.57	8.25
2651.153	10.25
2654.734	5.25
2658.311	8.25
2661.885	4.25
2665.456	6.25
2669.025	5.25
2672.589	6.25
2676.151	3.25
2679.71	8.25
2683.266	10.25
2686.819	7.25
2690.368	6.25
2693.915	4.25
2697.458	7.25
2700.999	2.25
2704.536	11.25
2708.071	9.25
2711.602	9.25
2715.13	4.25
2718.656	9.25
2722.178	9.25
2725.697	8.25
2729.214	9.25
2732.727	10.25
2736.237	15.25
2739.744	13.25
2743.249	9.25
2746.75	8.25
2750.248	11.25
2753.743	10.25
2757.236	6.25
2760.725	8.25
2764.211	14.25
2767.695	9.25
2771.175	11.25
2774.652	6.25
2778.127	5.25
2781.598	6.25
2785.067	4.25
2788.532	6.25
2791.995	11.25
2795.455	11.25
2798.911	12.25
2802.365	13.25
2805.816	12.25
2809.264	14.25
2812.709	16.25
2816.151	18.25
2819.59	23.25
2823.026	21.25
2826.46	26.25
2829.89	27.25
2833.318	30.25
2836.742	32.25
2840.164	44.25
2843.583	49.25
2846.999	67.25
2850.412	76.25
2853.822	84.25
2857.229	92.25
2860.634	99.25
2864.035	96.25
2867.434	98.25
2870.83	100.25
2874.223	97.25
2877.613	104.25
2881	119.25
2884.385	125.25
2887.766	131.25
2891.145	123.25
2894.521	127.25
2897.894	117.25
2901.264	116.25
2904.631	118.25
2907.996	116.25
2911.358	117.25
2914.717	119.25
2918.073	114.25
2921.426	107.25
2924.777	109.25
2928.124	107.25
2931.469	104.25
2934.811	108.25
2938.15	100.25
2941.487	105.25
2944.821	95.25
2948.152	82.25
2951.48	87.25
2954.805	78.25
2958.128	75.25
2961.447	70.25
2964.765	72.25
2968.079	69.25
2971.39	67.25
2974.699	62.25
2978.005	56.25
2981.308	54.25
2984.609	55.25
2987.907	46.25
2991.202	50.25
2994.494	48.25
2997.784	47.25
3001.07	43.25
3004.355	48.25
3007.636	46.25
3010.915	40.25
3014.191	40.25
3017.464	36.25
3020.734	36.25
3024.002	39.25
3027.267	36.25
3030.53	37.25
3033.789	40.25
3037.046	30.25
3040.301	37.25
3043.552	37.25
3046.801	36.25
3050.048	39.25
3053.291	43.25
3056.532	44.25
3059.771	44.25
3063.006	42.25
3066.239	48.25
3069.469	42.25
3072.697	46.25
3075.922	54.25
3079.144	54.25
3082.364	51.25
3085.581	58.25
3088.795	58.25
3092.007	56.25
3095.216	60.25
3098.423	58.25
3101.627	61.25
3104.828	63.25
3108.026	66.25
3111.222	69.25
3114.416	69.25
3117.607	74.25
3120.795	68.25
3123.98	71.25
3127.163	75.25
3130.344	73.25
3133.521	79.25
3136.696	82.25
3139.869	85.25
3143.039	91.25
3146.206	96.25
3149.371	90.25
3152.533	86.25
3155.693	88.25
3158.85	85.25
3162.005	93.25
3165.157	96.25
3168.306	94.25
3171.453	92.25
3174.597	91.25
3177.739	93.25
3180.878	91.25
3184.014	90.25
3187.149	91.25
3190.28	94.25
3193.409	98.25
3196.536	95.25
3199.659	93.25
3202.781	95.25
3205.9	86.25
3209.016	95.25
3212.13	98.25
3215.241	90.25
3218.35	93.25
3221.456	86.25
3224.56	86.25
3227.661	91.25
3230.76	89.25
3233.856	87.25
3236.95	87.25
3240.041	85.25
3243.13	86.25
3246.216	83.25
3249.3	85.25
3252.382	89.25
3255.46	84.25
3258.537	86.25
3261.611	79.25
3264.682	82.25
3267.751	83.25
3270.818	83.25
3273.882	76.25
3276.943	78.25
3280.002	78.25
3283.059	83.25
3286.113	83.25
3289.165	75.25
3292.214	74.25
3295.261	74.25
3298.306	75.25
3301.348	69.25
3304.387	67.25
3307.425	64.25
3310.459	72.25
3313.492	67.25
3316.521	67.25
3319.549	67.25
3322.574	64.25
3325.597	64.25
3328.617	62.25
3331.635	59.25
3334.65	60.25
3337.663	53.25
3340.674	63.25
3343.682	63.25
3346.688	60.25
3349.691	59.25
3352.692	60.25
3355.691	58.25
3358.687	60.25
3361.681	59.25
3364.673	65.25
3367.662	56.25
3370.649	62.25
3373.633	55.25
3376.615	55.25
3379.595	50.25
3382.572	52.25
3385.547	50.25
3388.52	46.25
3391.49	51.25
3394.458	55.25
3397.424	47.25
3400.387	42.25
3403.348	50.25
3406.307	41.25
3409.263	43.25
3412.217	45.25
3415.168	45.25
3418.118	45.25
3421.065	46.25
3424.009	37.25
3426.951	40.25
3429.891	38.25
3432.829	41.25
3435.764	34.25
3438.697	35.25
3441.628	29.25
3444.557	36.25
3447.483	34.25
3450.407	37.25
3453.328	30.25
3456.247	34.25
3459.164	28.25
3462.079	26.25
3464.991	24.25
3467.902	22.25
3470.809	25.25
3473.715	22.25
3476.618	23.25
3479.519	16.25
3482.418	16.25
3485.315	16.25
3488.209	10.25
3491.101	11.25
3493.99	13.25
3496.878	18.25
3499.763	17.25
3502.646	10.25
3505.527	9.25
3508.405	7.25
3511.281	1.25
3514.155	7.25
3517.027	8.25
3519.897	11.25
3522.764	7.25
3525.629	4.25
3528.492	1.25
3531.352	1.25
3534.211	3.25
3537.067	-0.75
3539.921	-1.75
3542.773	-2.75
3545.622	-1.75
3548.469	-4.75
3551.315	-2.75
3554.157	-4.75
3556.998	-3.75
3559.837	-5.75
3562.673	-3.75
3565.507	-7.75
3568.339	-8.75
3571.169	-9.75
3573.996	-4.75
3576.822	-6.75
3579.645	-11.75
3582.466	-8.75
3585.285	-8.75
3588.101	-10.75
3590.916	-13.75
3593.728	-13.75
3596.538	-15.75
3599.346	-13.75
3602.152	-10.75
3604.956	-11.75
3607.757	-14.75
3610.556	-17.75
3613.354	-18.75
3616.149	-18.75
3618.942	-15.75
3621.732	-19.75
3624.521	-16.75
3627.307	-11.75
3630.092	-13.75
3632.874	-18.75
3635.654	-17.75
3638.432	-20.75
3641.208	-19.75
3643.982	-19.75
3646.753	-18.75
3649.523	-15.75
3652.29	-14.75
3655.055	-20.75
3657.818	-23.75
3660.579	-20.75
3663.338	-20.75
3666.095	-18.75
3668.849	-16.75
3671.602	-16.75
3674.352	-19.75
3677.101	-20.75
3679.847	-23.75
3682.591	-22.75
3685.333	-17.75
3688.073	-23.75
3690.811	-23.75
3693.547	-27.75
3696.281	-24.75
3699.013	-23.75
3701.742	-21.75
3704.47	-22.75
3707.195	-23.75
3709.919	-23.75
3712.64	-26.75
3715.359	-23.75
3718.076	-20.75
3720.792	-25.75
3723.505	-17.75
3726.216	-16.75
3728.925	-22.75
3731.632	-23.75
3734.336	-23.75
3737.039	-25.75
3739.74	-26.75
3742.439	-21.75
3745.136	-23.75
3747.83	-19.75
3750.523	-21.75
3753.213	-25.75
3755.902	-24.75
3758.589	-31.75
3761.273	-26.75
3763.956	-22.75
3766.636	-22.75
3769.315	-19.75
3771.991	-22.75
3774.665	-25.75
3777.338	-23.75
3780.008	-25.75
3782.677	-23.75
3785.343	-27.75
3788.007	-25.75
3790.67	-24.75
3793.33	-26.75
3795.989	-26.75
3798.645	-24.75
3801.299	-25.75
3803.952	-26.75
3806.602	-25.75
3809.251	-25.75
3811.897	-24.75
3814.542	-24.75
3817.184	-25.75
3819.825	-24.75
3822.463	-21.75
3825.1	-23.75
3827.735	-22.75
3830.367	-26.75
3832.998	-24.75
3835.627	-24.75
3838.253	-19.75
3840.878	-22.75
3843.501	-21.75
3846.122	-26.75
3848.741	-24.75
3851.358	-26.75
3853.973	-25.75
3856.586	-23.75
3859.197	-28.75
3861.806	-22.75
3864.414	-20.75
3867.019	-22.75
3869.622	-25.75
3872.224	-27.75
3874.823	-26.75
3877.421	-22.75
3880.016	-21.75
3882.61	-14.75
3885.202	-9.75
3887.792	-11.75
3890.38	-18.75
3892.966	-25.75
3895.55	-26.75
3898.132	-27.75
3900.713	-22.75
3903.291	-21.75
3905.868	-21.75
3908.442	-20.75
3911.015	-24.75
3913.586	-27.75
3916.155	-26.75
3918.722	-27.75
3921.287	-22.75
3923.85	-23.75
3926.411	-24.75
3928.971	-20.75
3931.528	-27.75
3934.084	-25.75
3936.638	-26.75
3939.19	-28.75
3941.74	-23.75
3944.288	-25.75
3946.834	-26.75
3949.378	-26.75
3951.921	-19.75
3954.462	-20.75
3957	-26.75
3959.537	-22.75
3962.072	-23.75
3964.606	-28.75
3967.137	-23.75
3969.667	-26.75
3972.194	-26.75
3974.72	-23.75
3977.244	-23.75
3979.766	-20.75
3982.286	-22.75
3984.805	-26.75
3987.321	-25.75
3989.836	-28.75
3992.349	-23.75
3994.86	-20.75
3997.369	-24.75
3999.877	-23.75
4002.382	-26.75
4004.886	-23.75
4007.388	-27.75
4009.888	-25.75
4012.386	-24.75
4014.883	-23.75
4017.377	-22.75
4019.87	-21.75
4022.361	-21.75
4024.85	-27.75
4027.338	-26.75
4029.823	-26.75
4032.307	-25.75
4034.789	-21.75
4037.269	-21.75
4039.747	-23.75
4042.224	-26.75
4044.699	-28.75
4047.172	-28.75
4049.643	-26.75
4052.112	-24.75
4054.58	-22.75
4057.046	-20.75
4059.51	-24.75
4061.972	-26.75
4064.432	-24.75
4066.891	-27.75
4069.348	-24.75
4071.803	-23.75
4074.256	-23.75
4076.708	-21.75
4079.158	-22.75
4081.606	-24.75
4084.052	-23.75
4086.497	-21.75
4088.939	-22.75
4091.38	-26.75
4093.819	-24.75
4096.257	-24.75
4098.693	-27.75
4101.127	-25.75
4103.559	-28.75
4105.989	-14.75
4108.418	-15.75
4110.845	-8.75
4113.27	-8.75
4115.694	-6.75
4118.115	-8.75
4120.535	-24.75
4122.954	-25.75
4125.37	-24.75
4127.785	-22.75
4130.198	-22.75
4132.609	-23.75
4135.019	-26.75
4137.427	-30.75
4139.833	-23.75
4142.237	-27.75
