Data from 10CFU3_B_RamanShift_1.txt Node
Date: Thu Feb 02 14:24:20 IST 2017
User: aro
Spectrometer: QEPB0276
Trigger mode: 0
Integration Time (sec): 5.000000E0
Scans to average: 1
Electric dark correction enabled: true
Nonlinearity correction enabled: false
Boxcar width: 0
XAxis mode: Raman Shifts
Number of Pixels in Spectrum: 1044
>>>>>Begin Spectral Data<<<<<
160.701	-4.75
166.742	5.25
172.777	23.25
178.805	88.25
184.826	210.25
190.841	422.25
196.849	664.25
202.85	826.25
208.845	859.25
214.833	864.25
220.815	841.25
226.789	841.25
232.758	817.25
238.719	808.25
244.674	809.25
250.623	779.25
256.565	764.25
262.5	731.25
268.429	739.25
274.351	701.25
280.267	694.25
286.176	689.25
292.079	695.25
297.975	687.25
303.865	684.25
309.748	684.25
315.625	673.25
321.495	659.25
327.359	675.25
333.217	682.25
339.068	676.25
344.912	696.25
350.751	690.25
356.583	691.25
362.408	690.25
368.227	688.25
374.04	668.25
379.847	676.25
385.647	671.25
391.44	673.25
397.228	677.25
403.009	675.25
408.784	694.25
414.553	706.25
420.315	707.25
426.071	697.25
431.821	706.25
437.565	702.25
443.302	701.25
449.033	697.25
454.758	690.25
460.477	681.25
466.189	687.25
471.896	683.25
477.596	664.25
483.29	661.25
488.978	657.25
494.66	642.25
500.335	621.25
506.005	598.25
511.668	588.25
517.325	566.25
522.977	545.25
528.622	535.25
534.261	509.25
539.894	507.25
545.521	499.25
551.141	485.25
556.756	482.25
562.365	481.25
567.968	478.25
573.565	473.25
579.155	468.25
584.74	469.25
590.319	468.25
595.892	471.25
601.459	469.25
607.02	466.25
612.575	457.25
618.124	451.25
623.667	446.25
629.204	444.25
634.735	428.25
640.261	434.25
645.781	426.25
651.294	432.25
656.802	422.25
662.304	423.25
667.8	419.25
673.29	419.25
678.775	414.25
684.254	413.25
689.726	401.25
695.193	406.25
700.655	393.25
706.11	402.25
711.56	402.25
717.004	404.25
722.442	406.25
727.874	394.25
733.301	397.25
738.722	400.25
744.137	380.25
749.547	390.25
754.951	381.25
760.349	390.25
765.741	393.25
771.128	384.25
776.509	397.25
781.885	388.25
787.254	390.25
792.618	393.25
797.977	383.25
803.33	392.25
808.677	385.25
814.019	395.25
819.355	393.25
824.686	381.25
830.011	391.25
835.33	391.25
840.644	394.25
845.952	392.25
851.255	399.25
856.552	406.25
861.844	414.25
867.13	410.25
872.41	410.25
877.686	405.25
882.955	409.25
888.219	399.25
893.478	397.25
898.731	376.25
903.979	381.25
909.221	366.25
914.458	364.25
919.69	369.25
924.916	356.25
930.136	360.25
935.351	357.25
940.561	353.25
945.766	352.25
950.965	358.25
956.158	350.25
961.347	342.25
966.529	340.25
971.707	324.25
976.879	320.25
982.046	322.25
987.208	316.25
992.364	323.25
997.515	325.25
1002.66	338.25
1007.801	336.25
1012.936	342.25
1018.066	358.25
1023.19	354.25
1028.309	362.25
1033.423	350.25
1038.532	348.25
1043.636	363.25
1048.734	361.25
1053.827	357.25
1058.915	378.25
1063.998	378.25
1069.075	378.25
1074.147	397.25
1079.214	376.25
1084.276	383.25
1089.333	398.25
1094.385	383.25
1099.431	383.25
1104.472	380.25
1109.509	367.25
1114.54	353.25
1119.565	359.25
1124.586	366.25
1129.602	365.25
1134.613	350.25
1139.618	334.25
1144.619	318.25
1149.614	315.25
1154.604	308.25
1159.589	314.25
1164.57	305.25
1169.545	299.25
1174.515	295.25
1179.48	287.25
1184.44	280.25
1189.395	278.25
1194.345	268.25
1199.29	268.25
1204.23	278.25
1209.165	272.25
1214.095	279.25
1219.021	275.25
1223.941	280.25
1228.856	290.25
1233.766	291.25
1238.672	295.25
1243.572	300.25
1248.467	307.25
1253.358	306.25
1258.244	304.25
1263.124	311.25
1268	312.25
1272.871	301.25
1277.737	302.25
1282.599	296.25
1287.455	289.25
1292.306	305.25
1297.153	314.25
1301.995	324.25
1306.832	339.25
1311.664	325.25
1316.491	313.25
1321.314	309.25
1326.132	293.25
1330.945	277.25
1335.753	266.25
1340.556	266.25
1345.354	269.25
1350.148	265.25
1354.937	250.25
1359.722	252.25
1364.501	242.25
1369.276	250.25
1374.046	259.25
1378.811	252.25
1383.572	246.25
1388.327	244.25
1393.079	228.25
1397.825	233.25
1402.567	231.25
1407.304	235.25
1412.036	230.25
1416.764	231.25
1421.487	240.25
1426.205	246.25
1430.919	247.25
1435.628	274.25
1440.333	299.25
1445.032	319.25
1449.727	328.25
1454.418	327.25
1459.104	316.25
1463.785	305.25
1468.462	283.25
1473.134	266.25
1477.802	245.25
1482.465	221.25
1487.123	203.25
1491.777	189.25
1496.426	188.25
1501.071	182.25
1505.711	177.25
1510.347	178.25
1514.978	187.25
1519.604	183.25
1524.226	185.25
1528.844	181.25
1533.457	178.25
1538.065	183.25
1542.669	179.25
1547.269	181.25
1551.864	177.25
1556.454	176.25
1561.041	181.25
1565.622	175.25
1570.199	168.25
1574.772	179.25
1579.34	174.25
1583.904	176.25
1588.464	179.25
1593.019	182.25
1597.569	176.25
1602.115	178.25
1606.657	183.25
1611.195	186.25
1615.728	182.25
1620.256	185.25
1624.78	190.25
1629.3	189.25
1633.816	187.25
1638.327	188.25
1642.834	200.25
1647.336	210.25
1651.834	215.25
1656.328	218.25
1660.817	220.25
1665.302	216.25
1669.783	207.25
1674.259	196.25
1678.732	187.25
1683.199	188.25
1687.663	172.25
1692.122	163.25
1696.577	161.25
1701.028	155.25
1705.474	142.25
1709.917	148.25
1714.355	143.25
1718.788	125.25
1723.218	139.25
1727.643	130.25
1732.064	121.25
1736.481	125.25
1740.893	121.25
1745.301	123.25
1749.705	115.25
1754.105	114.25
1758.501	109.25
1762.893	102.25
1767.28	98.25
1771.663	102.25
1776.042	95.25
1780.417	95.25
1784.787	92.25
1789.154	97.25
1793.516	95.25
1797.874	99.25
1802.228	92.25
1806.578	98.25
1810.924	101.25
1815.266	95.25
1819.603	88.25
1823.937	87.25
1828.266	83.25
1832.591	81.25
1836.913	87.25
1841.23	88.25
1845.543	81.25
1849.852	76.25
1854.156	83.25
1858.457	85.25
1862.754	77.25
1867.047	79.25
1871.335	80.25
1875.62	82.25
1879.9	82.25
1884.177	82.25
1888.449	79.25
1892.718	76.25
1896.982	76.25
1901.243	73.25
1905.499	76.25
1909.752	77.25
1914	79.25
1918.245	80.25
1922.485	77.25
1926.722	81.25
1930.954	76.25
1935.183	80.25
1939.408	79.25
1943.628	77.25
1947.845	72.25
1952.058	79.25
1956.267	78.25
1960.472	77.25
1964.673	77.25
1968.87	68.25
1973.063	70.25
1977.252	70.25
1981.438	67.25
1985.619	68.25
1989.797	62.25
1993.971	68.25
1998.14	70.25
2002.306	68.25
2006.469	67.25
2010.627	64.25
2014.781	67.25
2018.932	74.25
2023.078	70.25
2027.221	68.25
2031.36	65.25
2035.495	62.25
2039.627	62.25
2043.754	61.25
2047.878	58.25
2051.998	65.25
2056.114	62.25
2060.226	64.25
2064.334	63.25
2068.439	65.25
2072.54	60.25
2076.637	65.25
2080.73	63.25
2084.82	66.25
2088.906	66.25
2092.988	69.25
2097.066	65.25
2101.14	68.25
2105.211	62.25
2109.278	57.25
2113.342	57.25
2117.401	60.25
2121.457	65.25
2125.509	59.25
2129.558	60.25
2133.602	62.25
2137.643	66.25
2141.681	56.25
2145.714	56.25
2149.744	55.25
2153.77	54.25
2157.793	54.25
2161.812	58.25
2165.827	53.25
2169.838	55.25
2173.846	51.25
2177.851	47.25
2181.851	49.25
2185.848	51.25
2189.841	46.25
2193.831	43.25
2197.817	46.25
2201.799	48.25
2205.778	48.25
2209.753	42.25
2213.725	44.25
2217.693	45.25
2221.657	41.25
2225.618	42.25
2229.575	40.25
2233.529	45.25
2237.479	44.25
2241.425	40.25
2245.368	43.25
2249.307	35.25
2253.243	34.25
2257.175	35.25
2261.104	37.25
2265.029	36.25
2268.95	36.25
2272.868	39.25
2276.783	33.25
2280.694	32.25
2284.601	25.25
2288.505	28.25
2292.405	26.25
2296.302	31.25
2300.195	34.25
2304.085	31.25
2307.971	29.25
2311.854	27.25
2315.734	27.25
2319.609	20.25
2323.482	29.25
2327.351	29.25
2331.216	29.25
2335.078	31.25
2338.937	30.25
2342.792	22.25
2346.643	21.25
2350.492	24.25
2354.336	19.25
2358.178	19.25
2362.015	26.25
2365.85	20.25
2369.681	19.25
2373.508	19.25
2377.333	18.25
2381.153	23.25
2384.971	16.25
2388.785	16.25
2392.595	18.25
2396.402	16.25
2400.206	19.25
2404.007	19.25
2407.804	19.25
2411.597	20.25
2415.388	14.25
2419.174	17.25
2422.958	18.25
2426.738	13.25
2430.515	19.25
2434.289	18.25
2438.059	19.25
2441.825	15.25
2445.589	20.25
2449.349	16.25
2453.106	14.25
2456.859	9.25
2460.61	17.25
2464.356	15.25
2468.1	13.25
2471.84	12.25
2475.577	13.25
2479.311	10.25
2483.041	11.25
2486.768	14.25
2490.492	14.25
2494.213	13.25
2497.93	12.25
2501.644	13.25
2505.355	9.25
2509.062	8.25
2512.766	10.25
2516.467	11.25
2520.165	15.25
2523.859	14.25
2527.551	14.25
2531.239	18.25
2534.923	13.25
2538.605	9.25
2542.283	6.25
2545.958	9.25
2549.63	13.25
2553.299	12.25
2556.964	11.25
2560.626	16.25
2564.285	8.25
2567.941	4.25
2571.594	10.25
2575.243	8.25
2578.89	13.25
2582.533	10.25
2586.173	12.25
2589.809	10.25
2593.443	13.25
2597.073	7.25
2600.701	8.25
2604.325	9.25
2607.946	10.25
2611.564	9.25
2615.178	12.25
2618.79	12.25
2622.398	11.25
2626.004	12.25
2629.606	11.25
2633.205	11.25
2636.801	9.25
2640.394	8.25
2643.983	4.25
2647.57	8.25
2651.153	6.25
2654.734	8.25
2658.311	10.25
2661.885	11.25
2665.456	6.25
2669.025	6.25
2672.589	4.25
2676.151	6.25
2679.71	8.25
2683.266	11.25
2686.819	8.25
2690.368	8.25
2693.915	5.25
2697.458	6.25
2700.999	4.25
2704.536	6.25
2708.071	8.25
2711.602	8.25
2715.13	10.25
2718.656	12.25
2722.178	7.25
2725.697	9.25
2729.214	8.25
2732.727	11.25
2736.237	9.25
2739.744	16.25
2743.249	13.25
2746.75	10.25
2750.248	10.25
2753.743	11.25
2757.236	12.25
2760.725	11.25
2764.211	14.25
2767.695	6.25
2771.175	8.25
2774.652	4.25
2778.127	7.25
2781.598	11.25
2785.067	9.25
2788.532	10.25
2791.995	9.25
2795.455	11.25
2798.911	8.25
2802.365	9.25
2805.816	13.25
2809.264	16.25
2812.709	15.25
2816.151	18.25
2819.59	21.25
2823.026	17.25
2826.46	26.25
2829.89	27.25
2833.318	24.25
2836.742	33.25
2840.164	45.25
2843.583	47.25
2846.999	66.25
2850.412	78.25
2853.822	82.25
2857.229	94.25
2860.634	92.25
2864.035	97.25
2867.434	96.25
2870.83	101.25
2874.223	106.25
2877.613	111.25
2881	111.25
2884.385	121.25
2887.766	126.25
2891.145	120.25
2894.521	123.25
2897.894	111.25
2901.264	112.25
2904.631	110.25
2907.996	112.25
2911.358	113.25
2914.717	111.25
2918.073	104.25
2921.426	109.25
2924.777	110.25
2928.124	104.25
2931.469	106.25
2934.811	108.25
2938.15	107.25
2941.487	101.25
2944.821	94.25
2948.152	89.25
2951.48	86.25
2954.805	86.25
2958.128	73.25
2961.447	75.25
2964.765	69.25
2968.079	67.25
2971.39	60.25
2974.699	60.25
2978.005	52.25
2981.308	53.25
2984.609	47.25
2987.907	51.25
2991.202	50.25
2994.494	46.25
2997.784	45.25
3001.07	43.25
3004.355	46.25
3007.636	42.25
3010.915	44.25
3014.191	42.25
3017.464	37.25
3020.734	36.25
3024.002	38.25
3027.267	37.25
3030.53	38.25
3033.789	42.25
3037.046	30.25
3040.301	38.25
3043.552	35.25
3046.801	37.25
3050.048	38.25
3053.291	39.25
3056.532	43.25
3059.771	41.25
3063.006	44.25
3066.239	48.25
3069.469	50.25
3072.697	42.25
3075.922	50.25
3079.144	52.25
3082.364	50.25
3085.581	48.25
3088.795	56.25
3092.007	52.25
3095.216	57.25
3098.423	59.25
3101.627	60.25
3104.828	63.25
3108.026	64.25
3111.222	65.25
3114.416	69.25
3117.607	67.25
3120.795	65.25
3123.98	70.25
3127.163	75.25
3130.344	77.25
3133.521	75.25
3136.696	76.25
3139.869	80.25
3143.039	89.25
3146.206	90.25
3149.371	85.25
3152.533	82.25
3155.693	81.25
3158.85	83.25
3162.005	93.25
3165.157	88.25
3168.306	90.25
3171.453	90.25
3174.597	86.25
3177.739	90.25
3180.878	88.25
3184.014	89.25
3187.149	84.25
3190.28	93.25
3193.409	95.25
3196.536	91.25
3199.659	89.25
3202.781	86.25
3205.9	88.25
3209.016	92.25
3212.13	92.25
3215.241	91.25
3218.35	92.25
3221.456	84.25
3224.56	91.25
3227.661	86.25
3230.76	86.25
3233.856	82.25
3236.95	75.25
3240.041	81.25
3243.13	84.25
3246.216	86.25
3249.3	80.25
3252.382	84.25
3255.46	83.25
3258.537	80.25
3261.611	79.25
3264.682	76.25
3267.751	72.25
3270.818	79.25
3273.882	71.25
3276.943	80.25
3280.002	74.25
3283.059	78.25
3286.113	80.25
3289.165	70.25
3292.214	67.25
3295.261	62.25
3298.306	69.25
3301.348	73.25
3304.387	72.25
3307.425	66.25
3310.459	59.25
3313.492	66.25
3316.521	61.25
3319.549	65.25
3322.574	63.25
3325.597	62.25
3328.617	59.25
3331.635	55.25
3334.65	63.25
3337.663	59.25
3340.674	57.25
3343.682	56.25
3346.688	54.25
3349.691	63.25
3352.692	60.25
3355.691	59.25
3358.687	56.25
3361.681	51.25
3364.673	61.25
3367.662	55.25
3370.649	58.25
3373.633	51.25
3376.615	51.25
3379.595	50.25
3382.572	53.25
3385.547	49.25
3388.52	51.25
3391.49	48.25
3394.458	47.25
3397.424	45.25
3400.387	43.25
3403.348	42.25
3406.307	44.25
3409.263	45.25
3412.217	42.25
3415.168	40.25
3418.118	42.25
3421.065	38.25
3424.009	34.25
3426.951	41.25
3429.891	39.25
3432.829	39.25
3435.764	38.25
3438.697	39.25
3441.628	29.25
3444.557	32.25
3447.483	30.25
3450.407	35.25
3453.328	34.25
3456.247	32.25
3459.164	30.25
3462.079	23.25
3464.991	23.25
3467.902	22.25
3470.809	24.25
3473.715	20.25
3476.618	21.25
3479.519	20.25
3482.418	17.25
3485.315	17.25
3488.209	12.25
3491.101	11.25
3493.99	15.25
3496.878	14.25
3499.763	8.25
3502.646	10.25
3505.527	13.25
3508.405	11.25
3511.281	10.25
3514.155	4.25
3517.027	8.25
3519.897	6.25
3522.764	3.25
3525.629	2.25
3528.492	-1.75
3531.352	-0.75
3534.211	1.25
3537.067	-1.75
3539.921	-4.75
3542.773	-5.75
3545.622	-5.75
3548.469	-4.75
3551.315	-5.75
3554.157	-7.75
3556.998	-2.75
3559.837	-2.75
3562.673	-5.75
3565.507	-11.75
3568.339	-9.75
3571.169	-11.75
3573.996	-9.75
3576.822	-12.75
3579.645	-9.75
3582.466	-5.75
3585.285	-8.75
3588.101	-8.75
3590.916	-16.75
3593.728	-16.75
3596.538	-18.75
3599.346	-15.75
3602.152	-11.75
3604.956	-12.75
3607.757	-9.75
3610.556	-13.75
3613.354	-20.75
3616.149	-21.75
3618.942	-16.75
3621.732	-18.75
3624.521	-14.75
3627.307	-13.75
3630.092	-13.75
3632.874	-18.75
3635.654	-18.75
3638.432	-21.75
3641.208	-18.75
3643.982	-19.75
3646.753	-15.75
3649.523	-18.75
3652.29	-16.75
3655.055	-19.75
3657.818	-23.75
3660.579	-21.75
3663.338	-22.75
3666.095	-18.75
3668.849	-19.75
3671.602	-20.75
3674.352	-23.75
3677.101	-19.75
3679.847	-22.75
3682.591	-21.75
3685.333	-20.75
3688.073	-22.75
3690.811	-22.75
3693.547	-24.75
3696.281	-22.75
3699.013	-21.75
3701.742	-23.75
3704.47	-21.75
3707.195	-20.75
3709.919	-24.75
3712.64	-27.75
3715.359	-24.75
3718.076	-20.75
3720.792	-25.75
3723.505	-19.75
3726.216	-21.75
3728.925	-24.75
3731.632	-27.75
3734.336	-27.75
3737.039	-25.75
3739.74	-25.75
3742.439	-21.75
3745.136	-22.75
3747.83	-23.75
3750.523	-20.75
3753.213	-25.75
3755.902	-27.75
3758.589	-27.75
3761.273	-25.75
3763.956	-22.75
3766.636	-18.75
3769.315	-21.75
3771.991	-22.75
3774.665	-30.75
3777.338	-23.75
3780.008	-23.75
3782.677	-22.75
3785.343	-23.75
3788.007	-19.75
3790.67	-24.75
3793.33	-23.75
3795.989	-26.75
3798.645	-25.75
3801.299	-25.75
3803.952	-26.75
3806.602	-21.75
3809.251	-21.75
3811.897	-24.75
3814.542	-25.75
3817.184	-23.75
3819.825	-25.75
3822.463	-24.75
3825.1	-25.75
3827.735	-22.75
3830.367	-23.75
3832.998	-23.75
3835.627	-23.75
3838.253	-21.75
3840.878	-26.75
3843.501	-22.75
3846.122	-27.75
3848.741	-23.75
3851.358	-24.75
3853.973	-23.75
3856.586	-24.75
3859.197	-24.75
3861.806	-19.75
3864.414	-24.75
3867.019	-24.75
3869.622	-25.75
3872.224	-24.75
3874.823	-22.75
3877.421	-20.75
3880.016	-20.75
3882.61	-16.75
3885.202	-12.75
3887.792	-15.75
3890.38	-20.75
3892.966	-25.75
3895.55	-22.75
3898.132	-22.75
3900.713	-18.75
3903.291	-22.75
3905.868	-22.75
3908.442	-26.75
3911.015	-26.75
3913.586	-29.75
3916.155	-29.75
3918.722	-23.75
3921.287	-20.75
3923.85	-22.75
3926.411	-25.75
3928.971	-21.75
3931.528	-25.75
3934.084	-29.75
3936.638	-28.75
3939.19	-26.75
3941.74	-21.75
3944.288	-23.75
3946.834	-24.75
3949.378	-25.75
3951.921	-24.75
3954.462	-23.75
3957	-25.75
3959.537	-25.75
3962.072	-23.75
3964.606	-19.75
3967.137	-23.75
3969.667	-24.75
3972.194	-27.75
3974.72	-26.75
3977.244	-25.75
3979.766	-27.75
3982.286	-22.75
3984.805	-23.75
3987.321	-27.75
3989.836	-24.75
3992.349	-25.75
3994.86	-23.75
3997.369	-27.75
3999.877	-25.75
4002.382	-24.75
4004.886	-25.75
4007.388	-23.75
4009.888	-23.75
4012.386	-23.75
4014.883	-24.75
4017.377	-19.75
4019.87	-25.75
4022.361	-23.75
4024.85	-28.75
4027.338	-28.75
4029.823	-26.75
4032.307	-25.75
4034.789	-21.75
4037.269	-21.75
4039.747	-22.75
4042.224	-22.75
4044.699	-26.75
4047.172	-29.75
4049.643	-26.75
4052.112	-25.75
4054.58	-22.75
4057.046	-19.75
4059.51	-26.75
4061.972	-22.75
4064.432	-21.75
4066.891	-24.75
4069.348	-24.75
4071.803	-23.75
4074.256	-25.75
4076.708	-26.75
4079.158	-23.75
4081.606	-23.75
4084.052	-20.75
4086.497	-23.75
4088.939	-22.75
4091.38	-21.75
4093.819	-24.75
4096.257	-25.75
4098.693	-29.75
4101.127	-28.75
4103.559	-27.75
4105.989	-12.75
4108.418	-13.75
4110.845	-8.75
4113.27	-7.75
4115.694	-9.75
4118.115	-8.75
4120.535	-25.75
4122.954	-26.75
4125.37	-23.75
4127.785	-20.75
4130.198	-24.75
4132.609	-24.75
4135.019	-26.75
4137.427	-29.75
4139.833	-26.75
4142.237	-28.75
