Data from 0.125_n=5_RamanShift_01.txt Node
Date: Mon Mar 19 12:09:33 IST 2018
User: aro
Spectrometer: QEPB0276
Trigger mode: 0
Integration Time (sec): 5.000000E0
Scans to average: 1
Electric dark correction enabled: true
Nonlinearity correction enabled: false
Boxcar width: 0
XAxis mode: Raman Shifts
Number of Pixels in Spectrum: 1044
>>>>>Begin Spectral Data<<<<<
160.701	0.8
166.742	0.8
172.777	4.8
178.805	14.8
184.826	30.8
190.841	55.8
196.849	82.8
202.85	118.8
208.845	126.8
214.833	124.8
220.815	121.8
226.789	123.8
232.758	127.8
238.719	132.8
244.674	133.8
250.623	129.8
256.565	126.8
262.5	123.8
268.429	123.8
274.351	122.8
280.267	132.8
286.176	123.8
292.079	131.8
297.975	126.8
303.865	125.8
309.748	126.8
315.625	126.8
321.495	129.8
327.359	132.8
333.217	135.8
339.068	131.8
344.912	136.8
350.751	128.8
356.583	133.8
362.408	127.8
368.227	126.8
374.04	127.8
379.847	130.8
385.647	143.8
391.44	150.8
397.228	152.8
403.009	159.8
408.784	159.8
414.553	165.8
420.315	165.8
426.071	169.8
431.821	152.8
437.565	142.8
443.302	135.8
449.033	146.8
454.758	136.8
460.477	138.8
466.189	140.8
471.896	129.8
477.596	127.8
483.29	122.8
488.978	122.8
494.66	123.8
500.335	126.8
506.005	114.8
511.668	108.8
517.325	105.8
522.977	94.8
528.622	91.8
534.261	95.8
539.894	87.8
545.521	86.8
551.141	85.8
556.756	82.8
562.365	77.8
567.968	80.8
573.565	81.8
579.155	78.8
584.74	74.8
590.319	74.8
595.892	75.8
601.459	77.8
607.02	74.8
612.575	76.8
618.124	74.8
623.667	71.8
629.204	69.8
634.735	72.8
640.261	76.8
645.781	77.8
651.294	81.8
656.802	83.8
662.304	71.8
667.8	70.8
673.29	65.8
678.775	66.8
684.254	67.8
689.726	60.8
695.193	66.8
700.655	64.8
706.11	69.8
711.56	63.8
717.004	62.8
722.442	56.8
727.874	60.8
733.301	60.8
738.722	62.8
744.137	63.8
749.547	71.8
754.951	65.8
760.349	65.8
765.741	66.8
771.128	67.8
776.509	58.8
781.885	70.8
787.254	72.8
792.618	71.8
797.977	75.8
803.33	80.8
808.677	96.8
814.019	102.8
819.355	100.8
824.686	84.8
830.011	78.8
835.33	84.8
840.644	84.8
845.952	95.8
851.255	90.8
856.552	77.8
861.844	68.8
867.13	62.8
872.41	61.8
877.686	61.8
882.955	54.8
888.219	59.8
893.478	61.8
898.731	58.8
903.979	57.8
909.221	69.8
914.458	58.8
919.69	58.8
924.916	54.8
930.136	51.8
935.351	56.8
940.561	57.8
945.766	63.8
950.965	57.8
956.158	60.8
961.347	58.8
966.529	62.8
971.707	58.8
976.879	66.8
982.046	64.8
987.208	53.8
992.364	55.8
997.515	59.8
1002.66	65.8
1007.801	71.8
1012.936	57.8
1018.066	55.8
1023.19	55.8
1028.309	57.8
1033.423	58.8
1038.532	62.8
1043.636	68.8
1048.734	65.8
1053.827	60.8
1058.915	57.8
1063.998	53.8
1069.075	49.8
1074.147	48.8
1079.214	51.8
1084.276	49.8
1089.333	52.8
1094.385	53.8
1099.431	55.8
1104.472	54.8
1109.509	55.8
1114.54	52.8
1119.565	49.8
1124.586	49.8
1129.602	48.8
1134.613	45.8
1139.618	54.8
1144.619	56.8
1149.614	64.8
1154.604	72.8
1159.589	86.8
1164.57	86.8
1169.545	73.8
1174.515	69.8
1179.48	64.8
1184.44	51.8
1189.395	50.8
1194.345	48.8
1199.29	49.8
1204.23	51.8
1209.165	49.8
1214.095	50.8
1219.021	52.8
1223.941	62.8
1228.856	55.8
1233.766	53.8
1238.672	54.8
1243.572	48.8
1248.467	48.8
1253.358	48.8
1258.244	53.8
1263.124	48.8
1268	43.8
1272.871	45.8
1277.737	40.8
1282.599	45.8
1287.455	48.8
1292.306	49.8
1297.153	49.8
1301.995	48.8
1306.832	51.8
1311.664	47.8
1316.491	50.8
1321.314	53.8
1326.132	68.8
1330.945	72.8
1335.753	81.8
1340.556	69.8
1345.354	63.8
1350.148	53.8
1354.937	50.8
1359.722	53.8
1364.501	53.8
1369.276	56.8
1374.046	45.8
1378.811	42.8
1383.572	41.8
1388.327	39.8
1393.079	38.8
1397.825	43.8
1402.567	38.8
1407.304	36.8
1412.036	36.8
1416.764	34.8
1421.487	35.8
1426.205	36.8
1430.919	44.8
1435.628	46.8
1440.333	55.8
1445.032	59.8
1449.727	64.8
1454.418	72.8
1459.104	82.8
1463.785	85.8
1468.462	86.8
1473.134	67.8
1477.802	52.8
1482.465	40.8
1487.123	41.8
1491.777	36.8
1496.426	38.8
1501.071	35.8
1505.711	34.8
1510.347	35.8
1514.978	36.8
1519.604	33.8
1524.226	29.8
1528.844	34.8
1533.457	33.8
1538.065	36.8
1542.669	33.8
1547.269	29.8
1551.864	29.8
1556.454	29.8
1561.041	27.8
1565.622	28.8
1570.199	32.8
1574.772	30.8
1579.34	32.8
1583.904	35.8
1588.464	31.8
1593.019	27.8
1597.569	26.8
1602.115	33.8
1606.657	31.8
1611.195	30.8
1615.728	35.8
1620.256	34.8
1624.78	32.8
1629.3	29.8
1633.816	30.8
1638.327	29.8
1642.834	26.8
1647.336	26.8
1651.834	30.8
1656.328	32.8
1660.817	33.8
1665.302	34.8
1669.783	29.8
1674.259	26.8
1678.732	28.8
1683.199	27.8
1687.663	26.8
1692.122	21.8
1696.577	29.8
1701.028	32.8
1705.474	26.8
1709.917	25.8
1714.355	21.8
1718.788	23.8
1723.218	22.8
1727.643	24.8
1732.064	22.8
1736.481	22.8
1740.893	22.8
1745.301	26.8
1749.705	25.8
1754.105	23.8
1758.501	20.8
1762.893	20.8
1767.28	15.8
1771.663	16.8
1776.042	17.8
1780.417	19.8
1784.787	26.8
1789.154	20.8
1793.516	21.8
1797.874	21.8
1802.228	16.8
1806.578	16.8
1810.924	20.8
1815.266	13.8
1819.603	17.8
1823.937	23.8
1828.266	17.8
1832.591	23.8
1836.913	17.8
1841.23	16.8
1845.543	18.8
1849.852	18.8
1854.156	17.8
1858.457	18.8
1862.754	23.8
1867.047	20.8
1871.335	23.8
1875.62	22.8
1879.9	17.8
1884.177	18.8
1888.449	15.8
1892.718	17.8
1896.982	13.8
1901.243	17.8
1905.499	16.8
1909.752	17.8
1914	17.8
1918.245	16.8
1922.485	13.8
1926.722	17.8
1930.954	13.8
1935.183	13.8
1939.408	15.8
1943.628	18.8
1947.845	17.8
1952.058	23.8
1956.267	15.8
1960.472	11.8
1964.673	16.8
1968.87	11.8
1973.063	13.8
1977.252	14.8
1981.438	10.8
1985.619	13.8
1989.797	14.8
1993.971	14.8
1998.14	15.8
2002.306	16.8
2006.469	14.8
2010.627	17.8
2014.781	16.8
2018.932	15.8
2023.078	12.8
2027.221	11.8
2031.36	11.8
2035.495	9.8
2039.627	9.8
2043.754	11.8
2047.878	14.8
2051.998	13.8
2056.114	14.8
2060.226	16.8
2064.334	10.8
2068.439	11.8
2072.54	9.8
2076.637	9.8
2080.73	15.8
2084.82	13.8
2088.906	18.8
2092.988	14.8
2097.066	8.8
2101.14	11.8
2105.211	10.8
2109.278	8.8
2113.342	8.8
2117.401	13.8
2121.457	12.8
2125.509	15.8
2129.558	13.8
2133.602	12.8
2137.643	8.8
2141.681	7.8
2145.714	6.8
2149.744	9.8
2153.77	8.8
2157.793	14.8
2161.812	10.8
2165.827	11.8
2169.838	10.8
2173.846	11.8
2177.851	8.8
2181.851	7.8
2185.848	10.8
2189.841	8.8
2193.831	2.8
2197.817	7.8
2201.799	7.8
2205.778	7.8
2209.753	9.8
2213.725	7.8
2217.693	5.8
2221.657	7.8
2225.618	9.8
2229.575	9.8
2233.529	8.8
2237.479	4.8
2241.425	3.8
2245.368	7.8
2249.307	5.8
2253.243	9.8
2257.175	9.8
2261.104	12.8
2265.029	6.8
2268.95	5.8
2272.868	4.8
2276.783	2.8
2280.694	6.8
2284.601	3.8
2288.505	6.8
2292.405	9.8
2296.302	9.8
2300.195	9.8
2304.085	5.8
2307.971	7.8
2311.854	2.8
2315.734	2.8
2319.609	1.8
2323.482	5.8
2327.351	5.8
2331.216	11.8
2335.078	6.8
2338.937	6.8
2342.792	1.8
2346.643	1.8
2350.492	5.8
2354.336	2.8
2358.178	6.8
2362.015	5.8
2365.85	5.8
2369.681	7.8
2373.508	5.8
2377.333	3.8
2381.153	1.8
2384.971	4.8
2388.785	2.8
2392.595	5.8
2396.402	6.8
2400.206	7.8
2404.007	4.8
2407.804	2.8
2411.597	4.8
2415.388	0.8
2419.174	5.8
2422.958	4.8
2426.738	0.8
2430.515	5.8
2434.289	4.8
2438.059	2.8
2441.825	2.8
2445.589	0.8
2449.349	2.8
2453.106	6.8
2456.859	5.8
2460.61	5.8
2464.356	6.8
2468.1	1.8
2471.84	-1.2
2475.577	0.8
2479.311	-0.2
2483.041	-0.2
2486.768	5.8
2490.492	2.8
2494.213	5.8
2497.93	0.8
2501.644	3.8
2505.355	-2.2
2509.062	-3.2
2512.766	1.8
2516.467	-0.2
2520.165	3.8
2523.859	2.8
2527.551	2.8
2531.239	4.8
2534.923	0.8
2538.605	-3.2
2542.283	-4.2
2545.958	2.8
2549.63	1.8
2553.299	2.8
2556.964	4.8
2560.626	3.8
2564.285	1.8
2567.941	0.8
2571.594	-1.2
2575.243	-0.2
2578.89	0.8
2582.533	2.8
2586.173	2.8
2589.809	2.8
2593.443	1.8
2597.073	4.8
2600.701	-0.2
2604.325	0.8
2607.946	1.8
2611.564	4.8
2615.178	3.8
2618.79	-1.2
2622.398	3.8
2626.004	1.8
2629.606	6.8
2633.205	2.8
2636.801	1.8
2640.394	2.8
2643.983	4.8
2647.57	2.8
2651.153	3.8
2654.734	-0.2
2658.311	-1.2
2661.885	1.8
2665.456	-0.2
2669.025	3.8
2672.589	5.8
2676.151	4.8
2679.71	8.8
2683.266	0.8
2686.819	7.8
2690.368	2.8
2693.915	-3.2
2697.458	-2.2
2700.999	2.8
2704.536	6.8
2708.071	6.8
2711.602	4.8
2715.13	6.8
2718.656	5.8
2722.178	2.8
2725.697	-0.2
2729.214	5.8
2732.727	4.8
2736.237	6.8
2739.744	4.8
2743.249	9.8
2746.75	5.8
2750.248	3.8
2753.743	1.8
2757.236	-1.2
2760.725	0.8
2764.211	-2.2
2767.695	2.8
2771.175	0.8
2774.652	6.8
2778.127	3.8
2781.598	2.8
2785.067	-0.2
2788.532	0.8
2791.995	0.8
2795.455	0.8
2798.911	-0.2
2802.365	3.8
2805.816	1.8
2809.264	6.8
2812.709	7.8
2816.151	5.8
2819.59	4.8
2823.026	5.8
2826.46	0.8
2829.89	5.8
2833.318	11.8
2836.742	9.8
2840.164	18.8
2843.583	18.8
2846.999	19.8
2850.412	21.8
2853.822	16.8
2857.229	15.8
2860.634	11.8
2864.035	16.8
2867.434	25.8
2870.83	30.8
2874.223	34.8
2877.613	32.8
2881	33.8
2884.385	36.8
2887.766	38.8
2891.145	37.8
2894.521	43.8
2897.894	35.8
2901.264	34.8
2904.631	37.8
2907.996	34.8
2911.358	33.8
2914.717	27.8
2918.073	24.8
2921.426	27.8
2924.777	25.8
2928.124	18.8
2931.469	18.8
2934.811	19.8
2938.15	18.8
2941.487	16.8
2944.821	22.8
2948.152	15.8
2951.48	18.8
2954.805	20.8
2958.128	21.8
2961.447	14.8
2964.765	17.8
2968.079	24.8
2971.39	15.8
2974.699	16.8
2978.005	9.8
2981.308	9.8
2984.609	6.8
2987.907	6.8
2991.202	7.8
2994.494	2.8
2997.784	4.8
3001.07	9.8
3004.355	5.8
3007.636	4.8
3010.915	5.8
3014.191	5.8
3017.464	-0.2
3020.734	1.8
3024.002	0.8
3027.267	0.8
3030.53	1.8
3033.789	0.8
3037.046	-0.2
3040.301	4.8
3043.552	1.8
3046.801	4.8
3050.048	3.8
3053.291	1.8
3056.532	2.8
3059.771	4.8
3063.006	-1.2
3066.239	1.8
3069.469	4.8
3072.697	3.8
3075.922	2.8
3079.144	5.8
3082.364	3.8
3085.581	4.8
3088.795	7.8
3092.007	-1.2
3095.216	-1.2
3098.423	1.8
3101.627	2.8
3104.828	7.8
3108.026	3.8
3111.222	5.8
3114.416	4.8
3117.607	6.8
3120.795	5.8
3123.98	6.8
3127.163	9.8
3130.344	0.8
3133.521	7.8
3136.696	5.8
3139.869	7.8
3143.039	7.8
3146.206	6.8
3149.371	1.8
3152.533	5.8
3155.693	4.8
3158.85	0.8
3162.005	5.8
3165.157	5.8
3168.306	5.8
3171.453	3.8
3174.597	8.8
3177.739	4.8
3180.878	6.8
3184.014	4.8
3187.149	1.8
3190.28	2.8
3193.409	5.8
3196.536	4.8
3199.659	9.8
3202.781	6.8
3205.9	10.8
3209.016	9.8
3212.13	3.8
3215.241	5.8
3218.35	6.8
3221.456	6.8
3224.56	5.8
3227.661	9.8
3230.76	7.8
3233.856	7.8
3236.95	8.8
3240.041	2.8
3243.13	2.8
3246.216	4.8
3249.3	4.8
3252.382	6.8
3255.46	6.8
3258.537	9.8
3261.611	8.8
3264.682	7.8
3267.751	2.8
3270.818	2.8
3273.882	5.8
3276.943	6.8
3280.002	4.8
3283.059	7.8
3286.113	5.8
3289.165	2.8
3292.214	2.8
3295.261	3.8
3298.306	1.8
3301.348	2.8
3304.387	0.8
3307.425	5.8
3310.459	5.8
3313.492	2.8
3316.521	8.8
3319.549	2.8
3322.574	4.8
3325.597	1.8
3328.617	0.8
3331.635	1.8
3334.65	1.8
3337.663	5.8
3340.674	8.8
3343.682	3.8
3346.688	5.8
3349.691	3.8
3352.692	0.8
3355.691	-1.2
3358.687	-2.2
3361.681	1.8
3364.673	5.8
3367.662	2.8
3370.649	7.8
3373.633	6.8
3376.615	5.8
3379.595	0.8
3382.572	2.8
3385.547	2.8
3388.52	1.8
3391.49	3.8
3394.458	5.8
3397.424	2.8
3400.387	4.8
3403.348	3.8
3406.307	0.8
3409.263	1.8
3412.217	1.8
3415.168	-0.2
3418.118	0.8
3421.065	4.8
3424.009	2.8
3426.951	2.8
3429.891	0.8
3432.829	1.8
3435.764	4.8
3438.697	-0.2
3441.628	0.8
3444.557	1.8
3447.483	-1.2
3450.407	2.8
3453.328	6.8
3456.247	-2.2
3459.164	-1.2
3462.079	1.8
3464.991	2.8
3467.902	-2.2
3470.809	3.8
3473.715	1.8
3476.618	-0.2
3479.519	-4.2
3482.418	-0.2
3485.315	-2.2
3488.209	-0.2
3491.101	1.8
3493.99	-1.2
3496.878	0.8
3499.763	-2.2
3502.646	2.8
3505.527	-2.2
3508.405	-0.2
3511.281	-4.2
3514.155	-2.2
3517.027	2.8
3519.897	1.8
3522.764	-0.2
3525.629	-1.2
3528.492	-2.2
3531.352	-1.2
3534.211	-2.2
3537.067	-5.2
3539.921	-6.2
3542.773	-3.2
3545.622	-0.2
3548.469	-1.2
3551.315	2.8
3554.157	0.8
3556.998	-2.2
3559.837	-5.2
3562.673	-4.2
3565.507	-1.2
3568.339	-2.2
3571.169	-0.2
3573.996	-0.2
3576.822	-0.2
3579.645	-4.2
3582.466	-2.2
3585.285	-0.2
3588.101	-5.2
3590.916	-2.2
3593.728	-1.2
3596.538	-1.2
3599.346	-5.2
3602.152	-2.2
3604.956	-4.2
3607.757	-2.2
3610.556	-0.2
3613.354	1.8
3616.149	-3.2
3618.942	-0.2
3621.732	-0.2
3624.521	-4.2
3627.307	-3.2
3630.092	-2.2
3632.874	-3.2
3635.654	-3.2
3638.432	-6.2
3641.208	-3.2
3643.982	-0.2
3646.753	-2.2
3649.523	-6.2
3652.29	-5.2
3655.055	-3.2
3657.818	-2.2
3660.579	-1.2
3663.338	-4.2
3666.095	1.8
3668.849	-1.2
3671.602	-0.2
3674.352	-1.2
3677.101	-4.2
3679.847	-6.2
3682.591	-5.2
3685.333	-4.2
3688.073	-2.2
3690.811	-0.2
3693.547	0.8
3696.281	0.8
3699.013	-1.2
3701.742	-3.2
3704.47	-7.2
3707.195	-6.2
3709.919	-5.2
3712.64	-4.2
3715.359	-3.2
3718.076	-1.2
3720.792	-0.2
3723.505	-3.2
3726.216	-2.2
3728.925	-1.2
3731.632	-5.2
3734.336	-6.2
3737.039	-1.2
3739.74	-3.2
3742.439	-5.2
3745.136	-1.2
3747.83	-1.2
3750.523	-3.2
3753.213	-5.2
3755.902	-0.2
3758.589	-1.2
3761.273	-1.2
3763.956	-4.2
3766.636	-7.2
3769.315	-6.2
3771.991	-6.2
3774.665	-3.2
3777.338	-1.2
3780.008	-2.2
3782.677	-4.2
3785.343	-4.2
3788.007	-4.2
3790.67	-3.2
3793.33	-3.2
3795.989	-8.2
3798.645	-7.2
3801.299	-5.2
3803.952	-3.2
3806.602	-0.2
3809.251	-1.2
3811.897	-2.2
3814.542	-3.2
3817.184	-6.2
3819.825	-9.2
3822.463	-8.2
3825.1	-7.2
3827.735	-4.2
3830.367	2.8
3832.998	-3.2
3835.627	1.8
3838.253	-0.2
3840.878	-5.2
3843.501	-5.2
3846.122	-6.2
3848.741	-5.2
3851.358	-7.2
3853.973	1.8
3856.586	-1.2
3859.197	-1.2
3861.806	-5.2
3864.414	-5.2
3867.019	-7.2
3869.622	-6.2
3872.224	-5.2
3874.823	-4.2
3877.421	0.8
3880.016	-1.2
3882.61	4.8
3885.202	4.8
3887.792	-0.2
3890.38	-2.2
3892.966	-1.2
3895.55	-3.2
3898.132	-3.2
3900.713	-1.2
3903.291	-5.2
3905.868	-1.2
3908.442	-4.2
3911.015	-4.2
3913.586	-1.2
3916.155	-1.2
3918.722	-4.2
3921.287	-6.2
3923.85	-2.2
3926.411	-4.2
3928.971	-6.2
3931.528	-2.2
3934.084	-2.2
3936.638	-2.2
3939.19	-1.2
3941.74	-1.2
3944.288	-5.2
3946.834	-2.2
3949.378	-3.2
3951.921	-1.2
3954.462	-5.2
3957	-3.2
3959.537	-1.2
3962.072	-0.2
3964.606	-1.2
3967.137	-3.2
3969.667	-1.2
3972.194	-6.2
3974.72	-6.2
3977.244	-6.2
3979.766	0.8
3982.286	-6.2
3984.805	-2.2
3987.321	-2.2
3989.836	-5.2
3992.349	-1.2
3994.86	-1.2
3997.369	-6.2
3999.877	-4.2
4002.382	-5.2
4004.886	-5.2
4007.388	-4.2
4009.888	-4.2
4012.386	-0.2
4014.883	-3.2
4017.377	-2.2
4019.87	-2.2
4022.361	-1.2
4024.85	-6.2
4027.338	-9.2
4029.823	-3.2
4032.307	-3.2
4034.789	-1.2
4037.269	-2.2
4039.747	-2.2
4042.224	0.8
4044.699	-7.2
4047.172	-4.2
4049.643	-9.2
4052.112	-6.2
4054.58	-7.2
4057.046	-1.2
4059.51	-1.2
4061.972	-1.2
4064.432	-2.2
4066.891	-0.2
4069.348	-4.2
4071.803	-4.2
4074.256	-10.2
4076.708	-2.2
4079.158	1.8
4081.606	-5.2
4084.052	1.8
4086.497	-4.2
4088.939	-2.2
4091.38	-3.2
4093.819	-4.2
4096.257	-6.2
4098.693	-3.2
4101.127	-5.2
4103.559	0.8
4105.989	4.8
4108.418	2.8
4110.845	-0.2
4113.27	-3.2
4115.694	1.8
4118.115	-0.2
4120.535	-6.2
4122.954	-4.2
4125.37	-7.2
4127.785	-6.2
4130.198	-1.2
4132.609	-1.2
4135.019	-1.2
4137.427	-6.2
4139.833	-5.2
4142.237	-8.2
