Data from 0.125_n=1_RamanShift_03.txt Node
Date: Mon Mar 19 12:05:29 IST 2018
User: aro
Spectrometer: QEPB0276
Trigger mode: 0
Integration Time (sec): 5.000000E0
Scans to average: 1
Electric dark correction enabled: true
Nonlinearity correction enabled: false
Boxcar width: 0
XAxis mode: Raman Shifts
Number of Pixels in Spectrum: 1044
>>>>>Begin Spectral Data<<<<<
160.701	-1.1
166.742	-1.1
172.777	1.9
178.805	11.9
184.826	28.9
190.841	53.9
196.849	90.9
202.85	107.9
208.845	111.9
214.833	117.9
220.815	114.9
226.789	114.9
232.758	116.9
238.719	124.9
244.674	120.9
250.623	123.9
256.565	121.9
262.5	121.9
268.429	124.9
274.351	121.9
280.267	119.9
286.176	118.9
292.079	117.9
297.975	120.9
303.865	123.9
309.748	122.9
315.625	124.9
321.495	126.9
327.359	132.9
333.217	129.9
339.068	133.9
344.912	126.9
350.751	123.9
356.583	124.9
362.408	127.9
368.227	132.9
374.04	126.9
379.847	142.9
385.647	133.9
391.44	147.9
397.228	144.9
403.009	159.9
408.784	158.9
414.553	166.9
420.315	170.9
426.071	172.9
431.821	156.9
437.565	136.9
443.302	133.9
449.033	141.9
454.758	134.9
460.477	133.9
466.189	130.9
471.896	128.9
477.596	122.9
483.29	122.9
488.978	121.9
494.66	113.9
500.335	115.9
506.005	109.9
511.668	103.9
517.325	96.9
522.977	93.9
528.622	97.9
534.261	90.9
539.894	82.9
545.521	83.9
551.141	83.9
556.756	76.9
562.365	74.9
567.968	72.9
573.565	76.9
579.155	73.9
584.74	71.9
590.319	72.9
595.892	73.9
601.459	71.9
607.02	80.9
612.575	70.9
618.124	69.9
623.667	68.9
629.204	68.9
634.735	65.9
640.261	72.9
645.781	73.9
651.294	82.9
656.802	76.9
662.304	71.9
667.8	64.9
673.29	60.9
678.775	61.9
684.254	60.9
689.726	57.9
695.193	69.9
700.655	63.9
706.11	63.9
711.56	63.9
717.004	60.9
722.442	60.9
727.874	63.9
733.301	59.9
738.722	62.9
744.137	57.9
749.547	58.9
754.951	64.9
760.349	65.9
765.741	65.9
771.128	66.9
776.509	66.9
781.885	65.9
787.254	65.9
792.618	69.9
797.977	74.9
803.33	84.9
808.677	102.9
814.019	112.9
819.355	112.9
824.686	92.9
830.011	79.9
835.33	80.9
840.644	87.9
845.952	93.9
851.255	95.9
856.552	82.9
861.844	69.9
867.13	69.9
872.41	63.9
877.686	60.9
882.955	55.9
888.219	54.9
893.478	53.9
898.731	55.9
903.979	58.9
909.221	68.9
914.458	58.9
919.69	57.9
924.916	57.9
930.136	49.9
935.351	53.9
940.561	57.9
945.766	56.9
950.965	60.9
956.158	57.9
961.347	62.9
966.529	63.9
971.707	61.9
976.879	72.9
982.046	72.9
987.208	59.9
992.364	55.9
997.515	61.9
1002.66	62.9
1007.801	61.9
1012.936	57.9
1018.066	55.9
1023.19	51.9
1028.309	54.9
1033.423	57.9
1038.532	67.9
1043.636	71.9
1048.734	64.9
1053.827	60.9
1058.915	47.9
1063.998	48.9
1069.075	45.9
1074.147	46.9
1079.214	50.9
1084.276	53.9
1089.333	52.9
1094.385	56.9
1099.431	60.9
1104.472	49.9
1109.509	47.9
1114.54	46.9
1119.565	46.9
1124.586	52.9
1129.602	50.9
1134.613	51.9
1139.618	52.9
1144.619	63.9
1149.614	68.9
1154.604	76.9
1159.589	83.9
1164.57	84.9
1169.545	78.9
1174.515	73.9
1179.48	66.9
1184.44	58.9
1189.395	48.9
1194.345	52.9
1199.29	48.9
1204.23	50.9
1209.165	49.9
1214.095	48.9
1219.021	54.9
1223.941	64.9
1228.856	59.9
1233.766	60.9
1238.672	52.9
1243.572	54.9
1248.467	45.9
1253.358	46.9
1258.244	48.9
1263.124	45.9
1268	41.9
1272.871	43.9
1277.737	44.9
1282.599	41.9
1287.455	50.9
1292.306	46.9
1297.153	46.9
1301.995	48.9
1306.832	49.9
1311.664	47.9
1316.491	51.9
1321.314	58.9
1326.132	61.9
1330.945	79.9
1335.753	86.9
1340.556	78.9
1345.354	64.9
1350.148	55.9
1354.937	53.9
1359.722	56.9
1364.501	53.9
1369.276	59.9
1374.046	50.9
1378.811	48.9
1383.572	41.9
1388.327	43.9
1393.079	42.9
1397.825	40.9
1402.567	34.9
1407.304	38.9
1412.036	36.9
1416.764	31.9
1421.487	37.9
1426.205	39.9
1430.919	43.9
1435.628	47.9
1440.333	57.9
1445.032	63.9
1449.727	68.9
1454.418	81.9
1459.104	89.9
1463.785	100.9
1468.462	94.9
1473.134	78.9
1477.802	58.9
1482.465	41.9
1487.123	39.9
1491.777	42.9
1496.426	37.9
1501.071	35.9
1505.711	31.9
1510.347	36.9
1514.978	32.9
1519.604	36.9
1524.226	31.9
1528.844	34.9
1533.457	32.9
1538.065	36.9
1542.669	32.9
1547.269	32.9
1551.864	25.9
1556.454	29.9
1561.041	26.9
1565.622	29.9
1570.199	29.9
1574.772	33.9
1579.34	33.9
1583.904	32.9
1588.464	30.9
1593.019	26.9
1597.569	28.9
1602.115	28.9
1606.657	25.9
1611.195	30.9
1615.728	33.9
1620.256	33.9
1624.78	29.9
1629.3	31.9
1633.816	29.9
1638.327	31.9
1642.834	28.9
1647.336	27.9
1651.834	26.9
1656.328	29.9
1660.817	29.9
1665.302	34.9
1669.783	27.9
1674.259	30.9
1678.732	28.9
1683.199	28.9
1687.663	23.9
1692.122	23.9
1696.577	25.9
1701.028	30.9
1705.474	26.9
1709.917	29.9
1714.355	26.9
1718.788	26.9
1723.218	22.9
1727.643	21.9
1732.064	22.9
1736.481	22.9
1740.893	22.9
1745.301	27.9
1749.705	27.9
1754.105	26.9
1758.501	22.9
1762.893	21.9
1767.28	18.9
1771.663	19.9
1776.042	13.9
1780.417	23.9
1784.787	22.9
1789.154	22.9
1793.516	23.9
1797.874	23.9
1802.228	21.9
1806.578	15.9
1810.924	20.9
1815.266	17.9
1819.603	14.9
1823.937	25.9
1828.266	16.9
1832.591	22.9
1836.913	15.9
1841.23	18.9
1845.543	18.9
1849.852	15.9
1854.156	14.9
1858.457	18.9
1862.754	19.9
1867.047	17.9
1871.335	21.9
1875.62	18.9
1879.9	20.9
1884.177	18.9
1888.449	14.9
1892.718	17.9
1896.982	17.9
1901.243	18.9
1905.499	14.9
1909.752	18.9
1914	19.9
1918.245	15.9
1922.485	15.9
1926.722	21.9
1930.954	15.9
1935.183	15.9
1939.408	17.9
1943.628	17.9
1947.845	18.9
1952.058	23.9
1956.267	16.9
1960.472	11.9
1964.673	17.9
1968.87	12.9
1973.063	12.9
1977.252	12.9
1981.438	14.9
1985.619	13.9
1989.797	14.9
1993.971	13.9
1998.14	15.9
2002.306	15.9
2006.469	14.9
2010.627	14.9
2014.781	18.9
2018.932	16.9
2023.078	9.9
2027.221	17.9
2031.36	14.9
2035.495	16.9
2039.627	14.9
2043.754	12.9
2047.878	17.9
2051.998	14.9
2056.114	13.9
2060.226	14.9
2064.334	4.9
2068.439	8.9
2072.54	12.9
2076.637	13.9
2080.73	14.9
2084.82	16.9
2088.906	14.9
2092.988	11.9
2097.066	10.9
2101.14	13.9
2105.211	9.9
2109.278	12.9
2113.342	11.9
2117.401	13.9
2121.457	12.9
2125.509	15.9
2129.558	11.9
2133.602	11.9
2137.643	8.9
2141.681	8.9
2145.714	6.9
2149.744	10.9
2153.77	10.9
2157.793	15.9
2161.812	13.9
2165.827	9.9
2169.838	7.9
2173.846	5.9
2177.851	8.9
2181.851	6.9
2185.848	10.9
2189.841	12.9
2193.831	8.9
2197.817	11.9
2201.799	8.9
2205.778	9.9
2209.753	5.9
2213.725	4.9
2217.693	6.9
2221.657	7.9
2225.618	8.9
2229.575	11.9
2233.529	9.9
2237.479	9.9
2241.425	6.9
2245.368	8.9
2249.307	3.9
2253.243	7.9
2257.175	3.9
2261.104	8.9
2265.029	7.9
2268.95	9.9
2272.868	7.9
2276.783	7.9
2280.694	8.9
2284.601	5.9
2288.505	4.9
2292.405	6.9
2296.302	7.9
2300.195	7.9
2304.085	4.9
2307.971	7.9
2311.854	2.9
2315.734	4.9
2319.609	4.9
2323.482	3.9
2327.351	3.9
2331.216	7.9
2335.078	8.9
2338.937	6.9
2342.792	-0.1
2346.643	3.9
2350.492	6.9
2354.336	5.9
2358.178	3.9
2362.015	6.9
2365.85	5.9
2369.681	5.9
2373.508	-1.1
2377.333	3.9
2381.153	2.9
2384.971	5.9
2388.785	7.9
2392.595	6.9
2396.402	10.9
2400.206	4.9
2404.007	1.9
2407.804	1.9
2411.597	2.9
2415.388	1.9
2419.174	3.9
2422.958	5.9
2426.738	2.9
2430.515	9.9
2434.289	5.9
2438.059	4.9
2441.825	-1.1
2445.589	2.9
2449.349	-0.1
2453.106	0.9
2456.859	3.9
2460.61	7.9
2464.356	4.9
2468.1	5.9
2471.84	3.9
2475.577	2.9
2479.311	-0.1
2483.041	3.9
2486.768	2.9
2490.492	0.9
2494.213	1.9
2497.93	1.9
2501.644	1.9
2505.355	2.9
2509.062	-1.1
2512.766	5.9
2516.467	0.9
2520.165	3.9
2523.859	2.9
2527.551	0.9
2531.239	3.9
2534.923	3.9
2538.605	-0.1
2542.283	-1.1
2545.958	3.9
2549.63	5.9
2553.299	6.9
2556.964	5.9
2560.626	4.9
2564.285	-0.1
2567.941	2.9
2571.594	0.9
2575.243	-2.1
2578.89	1.9
2582.533	0.9
2586.173	4.9
2589.809	5.9
2593.443	5.9
2597.073	4.9
2600.701	-0.1
2604.325	-1.1
2607.946	1.9
2611.564	2.9
2615.178	4.9
2618.79	1.9
2622.398	4.9
2626.004	2.9
2629.606	7.9
2633.205	-0.1
2636.801	4.9
2640.394	-0.1
2643.983	4.9
2647.57	2.9
2651.153	2.9
2654.734	2.9
2658.311	2.9
2661.885	4.9
2665.456	3.9
2669.025	2.9
2672.589	3.9
2676.151	3.9
2679.71	4.9
2683.266	2.9
2686.819	7.9
2690.368	5.9
2693.915	2.9
2697.458	1.9
2700.999	5.9
2704.536	4.9
2708.071	8.9
2711.602	3.9
2715.13	3.9
2718.656	3.9
2722.178	3.9
2725.697	2.9
2729.214	7.9
2732.727	8.9
2736.237	11.9
2739.744	3.9
2743.249	9.9
2746.75	3.9
2750.248	-0.1
2753.743	0.9
2757.236	3.9
2760.725	1.9
2764.211	4.9
2767.695	3.9
2771.175	3.9
2774.652	6.9
2778.127	1.9
2781.598	2.9
2785.067	-3.1
2788.532	1.9
2791.995	0.9
2795.455	1.9
2798.911	3.9
2802.365	3.9
2805.816	6.9
2809.264	1.9
2812.709	4.9
2816.151	4.9
2819.59	2.9
2823.026	3.9
2826.46	7.9
2829.89	6.9
2833.318	10.9
2836.742	15.9
2840.164	26.9
2843.583	20.9
2846.999	27.9
2850.412	24.9
2853.822	23.9
2857.229	19.9
2860.634	19.9
2864.035	19.9
2867.434	30.9
2870.83	32.9
2874.223	42.9
2877.613	42.9
2881	43.9
2884.385	45.9
2887.766	48.9
2891.145	49.9
2894.521	47.9
2897.894	45.9
2901.264	38.9
2904.631	41.9
2907.996	41.9
2911.358	39.9
2914.717	34.9
2918.073	31.9
2921.426	30.9
2924.777	26.9
2928.124	25.9
2931.469	25.9
2934.811	23.9
2938.15	23.9
2941.487	21.9
2944.821	19.9
2948.152	15.9
2951.48	20.9
2954.805	25.9
2958.128	23.9
2961.447	22.9
2964.765	19.9
2968.079	24.9
2971.39	19.9
2974.699	21.9
2978.005	9.9
2981.308	12.9
2984.609	8.9
2987.907	5.9
2991.202	7.9
2994.494	2.9
2997.784	6.9
3001.07	4.9
3004.355	2.9
3007.636	7.9
3010.915	3.9
3014.191	4.9
3017.464	1.9
3020.734	4.9
3024.002	-0.1
3027.267	4.9
3030.53	2.9
3033.789	2.9
3037.046	-2.1
3040.301	4.9
3043.552	2.9
3046.801	5.9
3050.048	1.9
3053.291	3.9
3056.532	0.9
3059.771	1.9
3063.006	-2.1
3066.239	-1.1
3069.469	1.9
3072.697	2.9
3075.922	2.9
3079.144	1.9
3082.364	0.9
3085.581	2.9
3088.795	4.9
3092.007	1.9
3095.216	-0.1
3098.423	-0.1
3101.627	-2.1
3104.828	4.9
3108.026	2.9
3111.222	1.9
3114.416	4.9
3117.607	3.9
3120.795	4.9
3123.98	1.9
3127.163	0.9
3130.344	3.9
3133.521	2.9
3136.696	4.9
3139.869	6.9
3143.039	7.9
3146.206	5.9
3149.371	1.9
3152.533	4.9
3155.693	-1.1
3158.85	1.9
3162.005	2.9
3165.157	2.9
3168.306	2.9
3171.453	3.9
3174.597	7.9
3177.739	5.9
3180.878	4.9
3184.014	2.9
3187.149	0.9
3190.28	-1.1
3193.409	-1.1
3196.536	3.9
3199.659	8.9
3202.781	7.9
3205.9	9.9
3209.016	1.9
3212.13	0.9
3215.241	2.9
3218.35	4.9
3221.456	1.9
3224.56	3.9
3227.661	6.9
3230.76	7.9
3233.856	5.9
3236.95	10.9
3240.041	0.9
3243.13	-1.1
3246.216	-0.1
3249.3	3.9
3252.382	2.9
3255.46	4.9
3258.537	2.9
3261.611	8.9
3264.682	2.9
3267.751	5.9
3270.818	0.9
3273.882	1.9
3276.943	-0.1
3280.002	-0.1
3283.059	-0.1
3286.113	2.9
3289.165	-0.1
3292.214	6.9
3295.261	-0.1
3298.306	1.9
3301.348	-0.1
3304.387	0.9
3307.425	-0.1
3310.459	5.9
3313.492	-0.1
3316.521	2.9
3319.549	2.9
3322.574	3.9
3325.597	-0.1
3328.617	-1.1
3331.635	-0.1
3334.65	-1.1
3337.663	0.9
3340.674	2.9
3343.682	3.9
3346.688	4.9
3349.691	3.9
3352.692	1.9
3355.691	-1.1
3358.687	-2.1
3361.681	-0.1
3364.673	2.9
3367.662	-1.1
3370.649	6.9
3373.633	2.9
3376.615	3.9
3379.595	-2.1
3382.572	-0.1
3385.547	-0.1
3388.52	-2.1
3391.49	0.9
3394.458	0.9
3397.424	-0.1
3400.387	0.9
3403.348	-1.1
3406.307	1.9
3409.263	0.9
3412.217	1.9
3415.168	-2.1
3418.118	-0.1
3421.065	1.9
3424.009	-0.1
3426.951	4.9
3429.891	0.9
3432.829	-1.1
3435.764	0.9
3438.697	-3.1
3441.628	-2.1
3444.557	-1.1
3447.483	-0.1
3450.407	-0.1
3453.328	0.9
3456.247	-3.1
3459.164	-0.1
3462.079	-1.1
3464.991	0.9
3467.902	-1.1
3470.809	0.9
3473.715	-1.1
3476.618	-0.1
3479.519	-8.1
3482.418	-4.1
3485.315	-3.1
3488.209	1.9
3491.101	1.9
3493.99	-2.1
3496.878	0.9
3499.763	-0.1
3502.646	0.9
3505.527	-2.1
3508.405	-3.1
3511.281	-4.1
3514.155	-3.1
3517.027	0.9
3519.897	0.9
3522.764	-0.1
3525.629	-4.1
3528.492	-2.1
3531.352	-5.1
3534.211	-5.1
3537.067	-9.1
3539.921	-3.1
3542.773	-4.1
3545.622	3.9
3548.469	-2.1
3551.315	-0.1
3554.157	-0.1
3556.998	-0.1
3559.837	-9.1
3562.673	-4.1
3565.507	-5.1
3568.339	-1.1
3571.169	-0.1
3573.996	2.9
3576.822	-2.1
3579.645	-4.1
3582.466	-1.1
3585.285	-3.1
3588.101	-8.1
3590.916	-5.1
3593.728	-4.1
3596.538	-1.1
3599.346	-3.1
3602.152	-0.1
3604.956	-4.1
3607.757	-1.1
3610.556	-5.1
3613.354	-0.1
3616.149	-4.1
3618.942	-4.1
3621.732	-4.1
3624.521	-3.1
3627.307	-5.1
3630.092	0.9
3632.874	-1.1
3635.654	-1.1
3638.432	-4.1
3641.208	-2.1
3643.982	-4.1
3646.753	-2.1
3649.523	-8.1
3652.29	-4.1
3655.055	-7.1
3657.818	-3.1
3660.579	-2.1
3663.338	1.9
3666.095	-3.1
3668.849	0.9
3671.602	-1.1
3674.352	-1.1
3677.101	-4.1
3679.847	-5.1
3682.591	-3.1
3685.333	-1.1
3688.073	-3.1
3690.811	-0.1
3693.547	0.9
3696.281	-2.1
3699.013	-6.1
3701.742	-3.1
3704.47	-8.1
3707.195	-4.1
3709.919	-7.1
3712.64	-2.1
3715.359	1.9
3718.076	0.9
3720.792	2.9
3723.505	-4.1
3726.216	-6.1
3728.925	-6.1
3731.632	-5.1
3734.336	-6.1
3737.039	-3.1
3739.74	-2.1
3742.439	-1.1
3745.136	0.9
3747.83	-2.1
3750.523	-1.1
3753.213	-4.1
3755.902	-1.1
3758.589	-3.1
3761.273	-5.1
3763.956	-3.1
3766.636	-5.1
3769.315	-3.1
3771.991	-2.1
3774.665	1.9
3777.338	-0.1
3780.008	0.9
3782.677	-4.1
3785.343	-3.1
3788.007	-1.1
3790.67	-5.1
3793.33	-5.1
3795.989	-3.1
3798.645	-4.1
3801.299	-3.1
3803.952	-2.1
3806.602	-0.1
3809.251	-2.1
3811.897	-4.1
3814.542	-3.1
3817.184	-8.1
3819.825	-9.1
3822.463	-6.1
3825.1	-4.1
3827.735	-2.1
3830.367	1.9
3832.998	0.9
3835.627	0.9
3838.253	-0.1
3840.878	-4.1
3843.501	-5.1
3846.122	-7.1
3848.741	-7.1
3851.358	-3.1
3853.973	-0.1
3856.586	-2.1
3859.197	0.9
3861.806	-3.1
3864.414	-8.1
3867.019	-8.1
3869.622	-9.1
3872.224	-5.1
3874.823	-1.1
3877.421	0.9
3880.016	-1.1
3882.61	-1.1
3885.202	4.9
3887.792	-2.1
3890.38	-2.1
3892.966	-4.1
3895.55	-2.1
3898.132	-2.1
3900.713	-1.1
3903.291	-2.1
3905.868	0.9
3908.442	-3.1
3911.015	-7.1
3913.586	-4.1
3916.155	-4.1
3918.722	-4.1
3921.287	-3.1
3923.85	-2.1
3926.411	-6.1
3928.971	-7.1
3931.528	-4.1
3934.084	-5.1
3936.638	-6.1
3939.19	-2.1
3941.74	-4.1
3944.288	-4.1
3946.834	-1.1
3949.378	-2.1
3951.921	-4.1
3954.462	-3.1
3957	-4.1
3959.537	0.9
3962.072	0.9
3964.606	-2.1
3967.137	-1.1
3969.667	-1.1
3972.194	-5.1
3974.72	-6.1
3977.244	-7.1
3979.766	-5.1
3982.286	-6.1
3984.805	-1.1
3987.321	-2.1
3989.836	-3.1
3992.349	-0.1
3994.86	1.9
3997.369	-5.1
3999.877	-4.1
4002.382	-6.1
4004.886	-5.1
4007.388	-6.1
4009.888	-3.1
4012.386	-2.1
4014.883	-3.1
4017.377	-1.1
4019.87	-2.1
4022.361	-0.1
4024.85	-4.1
4027.338	-9.1
4029.823	-6.1
4032.307	-5.1
4034.789	-2.1
4037.269	-2.1
4039.747	0.9
4042.224	0.9
4044.699	-7.1
4047.172	-2.1
4049.643	-6.1
4052.112	-8.1
4054.58	-7.1
4057.046	-5.1
4059.51	0.9
4061.972	-3.1
4064.432	-0.1
4066.891	-3.1
4069.348	0.9
4071.803	-5.1
4074.256	-8.1
4076.708	-4.1
4079.158	-2.1
4081.606	-7.1
4084.052	-1.1
4086.497	-1.1
4088.939	0.9
4091.38	-1.1
4093.819	-1.1
4096.257	-6.1
4098.693	-5.1
4101.127	-6.1
4103.559	-1.1
4105.989	4.9
4108.418	4.9
4110.845	2.9
4113.27	0.9
4115.694	-2.1
4118.115	1.9
4120.535	-3.1
4122.954	-4.1
4125.37	-8.1
4127.785	-7.1
4130.198	-4.1
4132.609	0.9
4135.019	-2.1
4137.427	-2.1
4139.833	-1.1
4142.237	-6.1
