Data from 0.125_n=4_RamanShift_02.txt Node
Date: Mon Mar 19 12:08:28 IST 2018
User: aro
Spectrometer: QEPB0276
Trigger mode: 0
Integration Time (sec): 5.000000E0
Scans to average: 1
Electric dark correction enabled: true
Nonlinearity correction enabled: false
Boxcar width: 0
XAxis mode: Raman Shifts
Number of Pixels in Spectrum: 1044
>>>>>Begin Spectral Data<<<<<
160.701	-0.8
166.742	1.2
172.777	3.2
178.805	14.2
184.826	28.2
190.841	54.2
196.849	86.2
202.85	106.2
208.845	108.2
214.833	111.2
220.815	110.2
226.789	116.2
232.758	119.2
238.719	120.2
244.674	120.2
250.623	120.2
256.565	118.2
262.5	119.2
268.429	114.2
274.351	115.2
280.267	112.2
286.176	116.2
292.079	114.2
297.975	122.2
303.865	120.2
309.748	123.2
315.625	124.2
321.495	126.2
327.359	122.2
333.217	121.2
339.068	123.2
344.912	123.2
350.751	116.2
356.583	123.2
362.408	119.2
368.227	123.2
374.04	120.2
379.847	132.2
385.647	138.2
391.44	137.2
397.228	146.2
403.009	154.2
408.784	152.2
414.553	158.2
420.315	162.2
426.071	165.2
431.821	155.2
437.565	132.2
443.302	129.2
449.033	133.2
454.758	129.2
460.477	122.2
466.189	131.2
471.896	123.2
477.596	115.2
483.29	119.2
488.978	115.2
494.66	117.2
500.335	113.2
506.005	101.2
511.668	98.2
517.325	91.2
522.977	91.2
528.622	90.2
534.261	86.2
539.894	86.2
545.521	80.2
551.141	77.2
556.756	73.2
562.365	70.2
567.968	70.2
573.565	70.2
579.155	70.2
584.74	69.2
590.319	67.2
595.892	69.2
601.459	71.2
607.02	66.2
612.575	62.2
618.124	66.2
623.667	63.2
629.204	62.2
634.735	68.2
640.261	66.2
645.781	66.2
651.294	77.2
656.802	75.2
662.304	70.2
667.8	60.2
673.29	61.2
678.775	56.2
684.254	56.2
689.726	53.2
695.193	58.2
700.655	59.2
706.11	63.2
711.56	59.2
717.004	59.2
722.442	56.2
727.874	56.2
733.301	51.2
738.722	53.2
744.137	57.2
749.547	59.2
754.951	55.2
760.349	58.2
765.741	63.2
771.128	62.2
776.509	61.2
781.885	61.2
787.254	59.2
792.618	64.2
797.977	65.2
803.33	75.2
808.677	89.2
814.019	102.2
819.355	97.2
824.686	88.2
830.011	74.2
835.33	72.2
840.644	77.2
845.952	88.2
851.255	84.2
856.552	76.2
861.844	67.2
867.13	63.2
872.41	62.2
877.686	54.2
882.955	52.2
888.219	54.2
893.478	50.2
898.731	52.2
903.979	49.2
909.221	54.2
914.458	54.2
919.69	53.2
924.916	49.2
930.136	51.2
935.351	53.2
940.561	48.2
945.766	56.2
950.965	54.2
956.158	53.2
961.347	51.2
966.529	55.2
971.707	55.2
976.879	61.2
982.046	62.2
987.208	58.2
992.364	51.2
997.515	52.2
1002.66	58.2
1007.801	57.2
1012.936	48.2
1018.066	55.2
1023.19	47.2
1028.309	51.2
1033.423	54.2
1038.532	62.2
1043.636	64.2
1048.734	60.2
1053.827	53.2
1058.915	48.2
1063.998	41.2
1069.075	44.2
1074.147	42.2
1079.214	45.2
1084.276	48.2
1089.333	51.2
1094.385	47.2
1099.431	48.2
1104.472	44.2
1109.509	42.2
1114.54	39.2
1119.565	45.2
1124.586	47.2
1129.602	46.2
1134.613	50.2
1139.618	50.2
1144.619	54.2
1149.614	56.2
1154.604	70.2
1159.589	75.2
1164.57	72.2
1169.545	70.2
1174.515	65.2
1179.48	59.2
1184.44	52.2
1189.395	45.2
1194.345	43.2
1199.29	46.2
1204.23	45.2
1209.165	43.2
1214.095	46.2
1219.021	51.2
1223.941	57.2
1228.856	52.2
1233.766	52.2
1238.672	51.2
1243.572	50.2
1248.467	42.2
1253.358	41.2
1258.244	41.2
1263.124	37.2
1268	37.2
1272.871	40.2
1277.737	43.2
1282.599	40.2
1287.455	45.2
1292.306	43.2
1297.153	42.2
1301.995	39.2
1306.832	40.2
1311.664	43.2
1316.491	45.2
1321.314	51.2
1326.132	61.2
1330.945	69.2
1335.753	78.2
1340.556	68.2
1345.354	56.2
1350.148	46.2
1354.937	45.2
1359.722	46.2
1364.501	52.2
1369.276	50.2
1374.046	46.2
1378.811	43.2
1383.572	37.2
1388.327	37.2
1393.079	37.2
1397.825	36.2
1402.567	32.2
1407.304	31.2
1412.036	28.2
1416.764	31.2
1421.487	32.2
1426.205	36.2
1430.919	39.2
1435.628	46.2
1440.333	52.2
1445.032	57.2
1449.727	54.2
1454.418	67.2
1459.104	83.2
1463.785	85.2
1468.462	85.2
1473.134	71.2
1477.802	51.2
1482.465	36.2
1487.123	35.2
1491.777	32.2
1496.426	31.2
1501.071	29.2
1505.711	34.2
1510.347	33.2
1514.978	30.2
1519.604	31.2
1524.226	29.2
1528.844	25.2
1533.457	29.2
1538.065	30.2
1542.669	26.2
1547.269	25.2
1551.864	27.2
1556.454	29.2
1561.041	29.2
1565.622	29.2
1570.199	25.2
1574.772	25.2
1579.34	28.2
1583.904	27.2
1588.464	29.2
1593.019	25.2
1597.569	23.2
1602.115	31.2
1606.657	24.2
1611.195	28.2
1615.728	31.2
1620.256	25.2
1624.78	27.2
1629.3	27.2
1633.816	26.2
1638.327	28.2
1642.834	29.2
1647.336	27.2
1651.834	26.2
1656.328	27.2
1660.817	24.2
1665.302	26.2
1669.783	28.2
1674.259	24.2
1678.732	25.2
1683.199	25.2
1687.663	26.2
1692.122	23.2
1696.577	25.2
1701.028	25.2
1705.474	20.2
1709.917	25.2
1714.355	22.2
1718.788	23.2
1723.218	22.2
1727.643	15.2
1732.064	21.2
1736.481	23.2
1740.893	21.2
1745.301	25.2
1749.705	23.2
1754.105	19.2
1758.501	14.2
1762.893	13.2
1767.28	18.2
1771.663	17.2
1776.042	15.2
1780.417	21.2
1784.787	18.2
1789.154	18.2
1793.516	20.2
1797.874	18.2
1802.228	15.2
1806.578	13.2
1810.924	18.2
1815.266	17.2
1819.603	19.2
1823.937	23.2
1828.266	20.2
1832.591	16.2
1836.913	15.2
1841.23	12.2
1845.543	13.2
1849.852	15.2
1854.156	13.2
1858.457	18.2
1862.754	18.2
1867.047	16.2
1871.335	19.2
1875.62	14.2
1879.9	14.2
1884.177	15.2
1888.449	12.2
1892.718	15.2
1896.982	19.2
1901.243	19.2
1905.499	16.2
1909.752	13.2
1914	16.2
1918.245	10.2
1922.485	10.2
1926.722	13.2
1930.954	11.2
1935.183	16.2
1939.408	13.2
1943.628	19.2
1947.845	19.2
1952.058	17.2
1956.267	10.2
1960.472	8.2
1964.673	8.2
1968.87	9.2
1973.063	14.2
1977.252	12.2
1981.438	12.2
1985.619	14.2
1989.797	15.2
1993.971	8.2
1998.14	7.2
2002.306	8.2
2006.469	7.2
2010.627	11.2
2014.781	14.2
2018.932	13.2
2023.078	12.2
2027.221	12.2
2031.36	11.2
2035.495	9.2
2039.627	10.2
2043.754	7.2
2047.878	10.2
2051.998	12.2
2056.114	9.2
2060.226	15.2
2064.334	11.2
2068.439	9.2
2072.54	9.2
2076.637	8.2
2080.73	10.2
2084.82	11.2
2088.906	13.2
2092.988	8.2
2097.066	9.2
2101.14	14.2
2105.211	10.2
2109.278	8.2
2113.342	11.2
2117.401	10.2
2121.457	8.2
2125.509	12.2
2129.558	7.2
2133.602	12.2
2137.643	1.2
2141.681	11.2
2145.714	9.2
2149.744	13.2
2153.77	10.2
2157.793	20.2
2161.812	12.2
2165.827	9.2
2169.838	3.2
2173.846	5.2
2177.851	4.2
2181.851	6.2
2185.848	8.2
2189.841	11.2
2193.831	5.2
2197.817	11.2
2201.799	8.2
2205.778	5.2
2209.753	6.2
2213.725	4.2
2217.693	4.2
2221.657	5.2
2225.618	6.2
2229.575	11.2
2233.529	8.2
2237.479	4.2
2241.425	5.2
2245.368	6.2
2249.307	2.2
2253.243	5.2
2257.175	5.2
2261.104	9.2
2265.029	2.2
2268.95	6.2
2272.868	3.2
2276.783	4.2
2280.694	5.2
2284.601	9.2
2288.505	5.2
2292.405	8.2
2296.302	4.2
2300.195	7.2
2304.085	3.2
2307.971	0.2
2311.854	3.2
2315.734	3.2
2319.609	6.2
2323.482	5.2
2327.351	4.2
2331.216	9.2
2335.078	7.2
2338.937	3.2
2342.792	0.2
2346.643	0.2
2350.492	3.2
2354.336	0.2
2358.178	2.2
2362.015	3.2
2365.85	1.2
2369.681	6.2
2373.508	-1.8
2377.333	1.2
2381.153	3.2
2384.971	3.2
2388.785	1.2
2392.595	5.2
2396.402	7.2
2400.206	6.2
2404.007	2.2
2407.804	1.2
2411.597	3.2
2415.388	-0.8
2419.174	1.2
2422.958	6.2
2426.738	0.2
2430.515	4.2
2434.289	3.2
2438.059	0.2
2441.825	-1.8
2445.589	3.2
2449.349	-0.8
2453.106	5.2
2456.859	1.2
2460.61	1.2
2464.356	5.2
2468.1	3.2
2471.84	2.2
2475.577	1.2
2479.311	1.2
2483.041	5.2
2486.768	1.2
2490.492	0.2
2494.213	1.2
2497.93	-0.8
2501.644	6.2
2505.355	0.2
2509.062	4.2
2512.766	1.2
2516.467	-0.8
2520.165	2.2
2523.859	1.2
2527.551	4.2
2531.239	-0.8
2534.923	-0.8
2538.605	-0.8
2542.283	-1.8
2545.958	1.2
2549.63	2.2
2553.299	2.2
2556.964	5.2
2560.626	2.2
2564.285	-1.8
2567.941	0.2
2571.594	-3.8
2575.243	-1.8
2578.89	-0.8
2582.533	1.2
2586.173	1.2
2589.809	4.2
2593.443	4.2
2597.073	4.2
2600.701	1.2
2604.325	0.2
2607.946	0.2
2611.564	3.2
2615.178	0.2
2618.79	3.2
2622.398	2.2
2626.004	2.2
2629.606	3.2
2633.205	1.2
2636.801	4.2
2640.394	1.2
2643.983	4.2
2647.57	-0.8
2651.153	3.2
2654.734	3.2
2658.311	1.2
2661.885	1.2
2665.456	3.2
2669.025	3.2
2672.589	4.2
2676.151	0.2
2679.71	2.2
2683.266	0.2
2686.819	4.2
2690.368	0.2
2693.915	1.2
2697.458	2.2
2700.999	5.2
2704.536	5.2
2708.071	3.2
2711.602	1.2
2715.13	7.2
2718.656	0.2
2722.178	3.2
2725.697	-0.8
2729.214	2.2
2732.727	1.2
2736.237	8.2
2739.744	8.2
2743.249	7.2
2746.75	3.2
2750.248	0.2
2753.743	2.2
2757.236	-0.8
2760.725	-2.8
2764.211	1.2
2767.695	4.2
2771.175	4.2
2774.652	6.2
2778.127	2.2
2781.598	2.2
2785.067	-0.8
2788.532	-3.8
2791.995	-1.8
2795.455	-1.8
2798.911	1.2
2802.365	1.2
2805.816	5.2
2809.264	2.2
2812.709	3.2
2816.151	4.2
2819.59	1.2
2823.026	2.2
2826.46	4.2
2829.89	5.2
2833.318	8.2
2836.742	13.2
2840.164	21.2
2843.583	20.2
2846.999	21.2
2850.412	19.2
2853.822	18.2
2857.229	15.2
2860.634	14.2
2864.035	17.2
2867.434	26.2
2870.83	27.2
2874.223	36.2
2877.613	38.2
2881	34.2
2884.385	34.2
2887.766	45.2
2891.145	41.2
2894.521	39.2
2897.894	37.2
2901.264	34.2
2904.631	36.2
2907.996	34.2
2911.358	32.2
2914.717	28.2
2918.073	21.2
2921.426	23.2
2924.777	21.2
2928.124	22.2
2931.469	21.2
2934.811	19.2
2938.15	23.2
2941.487	19.2
2944.821	17.2
2948.152	16.2
2951.48	16.2
2954.805	18.2
2958.128	19.2
2961.447	16.2
2964.765	13.2
2968.079	22.2
2971.39	13.2
2974.699	13.2
2978.005	8.2
2981.308	6.2
2984.609	2.2
2987.907	4.2
2991.202	3.2
2994.494	5.2
2997.784	7.2
3001.07	7.2
3004.355	2.2
3007.636	3.2
3010.915	1.2
3014.191	2.2
3017.464	1.2
3020.734	0.2
3024.002	-0.8
3027.267	3.2
3030.53	2.2
3033.789	3.2
3037.046	-1.8
3040.301	3.2
3043.552	-1.8
3046.801	1.2
3050.048	1.2
3053.291	0.2
3056.532	1.2
3059.771	4.2
3063.006	0.2
3066.239	-0.8
3069.469	4.2
3072.697	1.2
3075.922	1.2
3079.144	3.2
3082.364	3.2
3085.581	3.2
3088.795	3.2
3092.007	3.2
3095.216	-0.8
3098.423	0.2
3101.627	-1.8
3104.828	6.2
3108.026	3.2
3111.222	3.2
3114.416	5.2
3117.607	6.2
3120.795	3.2
3123.98	4.2
3127.163	5.2
3130.344	2.2
3133.521	5.2
3136.696	6.2
3139.869	5.2
3143.039	8.2
3146.206	2.2
3149.371	5.2
3152.533	4.2
3155.693	4.2
3158.85	1.2
3162.005	8.2
3165.157	2.2
3168.306	2.2
3171.453	4.2
3174.597	7.2
3177.739	6.2
3180.878	6.2
3184.014	2.2
3187.149	2.2
3190.28	0.2
3193.409	2.2
3196.536	5.2
3199.659	8.2
3202.781	9.2
3205.9	9.2
3209.016	4.2
3212.13	4.2
3215.241	3.2
3218.35	6.2
3221.456	3.2
3224.56	6.2
3227.661	6.2
3230.76	8.2
3233.856	5.2
3236.95	8.2
3240.041	1.2
3243.13	3.2
3246.216	4.2
3249.3	4.2
3252.382	6.2
3255.46	9.2
3258.537	4.2
3261.611	10.2
3264.682	4.2
3267.751	5.2
3270.818	0.2
3273.882	0.2
3276.943	2.2
3280.002	4.2
3283.059	4.2
3286.113	7.2
3289.165	2.2
3292.214	2.2
3295.261	1.2
3298.306	1.2
3301.348	1.2
3304.387	0.2
3307.425	1.2
3310.459	4.2
3313.492	3.2
3316.521	5.2
3319.549	2.2
3322.574	3.2
3325.597	-1.8
3328.617	-3.8
3331.635	0.2
3334.65	1.2
3337.663	1.2
3340.674	7.2
3343.682	1.2
3346.688	5.2
3349.691	2.2
3352.692	2.2
3355.691	2.2
3358.687	-3.8
3361.681	0.2
3364.673	6.2
3367.662	3.2
3370.649	8.2
3373.633	5.2
3376.615	5.2
3379.595	-4.8
3382.572	1.2
3385.547	-1.8
3388.52	-5.8
3391.49	0.2
3394.458	3.2
3397.424	1.2
3400.387	5.2
3403.348	3.2
3406.307	0.2
3409.263	1.2
3412.217	-1.8
3415.168	-0.8
3418.118	2.2
3421.065	5.2
3424.009	2.2
3426.951	3.2
3429.891	1.2
3432.829	-0.8
3435.764	-0.8
3438.697	-3.8
3441.628	-0.8
3444.557	0.2
3447.483	-0.8
3450.407	1.2
3453.328	5.2
3456.247	-0.8
3459.164	0.2
3462.079	1.2
3464.991	-0.8
3467.902	-0.8
3470.809	0.2
3473.715	0.2
3476.618	-0.8
3479.519	-7.8
3482.418	-1.8
3485.315	-1.8
3488.209	1.2
3491.101	0.2
3493.99	-1.8
3496.878	-0.8
3499.763	1.2
3502.646	-1.8
3505.527	-3.8
3508.405	-1.8
3511.281	-3.8
3514.155	-3.8
3517.027	1.2
3519.897	1.2
3522.764	0.2
3525.629	-3.8
3528.492	-2.8
3531.352	-2.8
3534.211	-3.8
3537.067	-7.8
3539.921	-6.8
3542.773	-2.8
3545.622	4.2
3548.469	-3.8
3551.315	1.2
3554.157	-2.8
3556.998	0.2
3559.837	-11.8
3562.673	-7.8
3565.507	-3.8
3568.339	-3.8
3571.169	-1.8
3573.996	2.2
3576.822	-1.8
3579.645	-2.8
3582.466	-0.8
3585.285	-0.8
3588.101	-6.8
3590.916	-0.8
3593.728	-5.8
3596.538	-5.8
3599.346	-5.8
3602.152	-4.8
3604.956	-2.8
3607.757	0.2
3610.556	-3.8
3613.354	-0.8
3616.149	-3.8
3618.942	-0.8
3621.732	-2.8
3624.521	-4.8
3627.307	-3.8
3630.092	-5.8
3632.874	-4.8
3635.654	-4.8
3638.432	-3.8
3641.208	-2.8
3643.982	1.2
3646.753	1.2
3649.523	-6.8
3652.29	-4.8
3655.055	-7.8
3657.818	-5.8
3660.579	-3.8
3663.338	-3.8
3666.095	-1.8
3668.849	1.2
3671.602	-2.8
3674.352	2.2
3677.101	-4.8
3679.847	-8.8
3682.591	-3.8
3685.333	-4.8
3688.073	-3.8
3690.811	1.2
3693.547	0.2
3696.281	-2.8
3699.013	-2.8
3701.742	-4.8
3704.47	-6.8
3707.195	-4.8
3709.919	-8.8
3712.64	-7.8
3715.359	-3.8
3718.076	0.2
3720.792	1.2
3723.505	-1.8
3726.216	-4.8
3728.925	-2.8
3731.632	-4.8
3734.336	-6.8
3737.039	-0.8
3739.74	-0.8
3742.439	-0.8
3745.136	-1.8
3747.83	-3.8
3750.523	-1.8
3753.213	-5.8
3755.902	-3.8
3758.589	-4.8
3761.273	-3.8
3763.956	-3.8
3766.636	-8.8
3769.315	-6.8
3771.991	-3.8
3774.665	-3.8
3777.338	-1.8
3780.008	1.2
3782.677	-2.8
3785.343	-4.8
3788.007	-2.8
3790.67	-2.8
3793.33	-4.8
3795.989	-5.8
3798.645	-7.8
3801.299	-5.8
3803.952	-0.8
3806.602	-1.8
3809.251	1.2
3811.897	-4.8
3814.542	-2.8
3817.184	-6.8
3819.825	-7.8
3822.463	-9.8
3825.1	-6.8
3827.735	-6.8
3830.367	0.2
3832.998	-1.8
3835.627	-1.8
3838.253	-1.8
3840.878	-5.8
3843.501	-4.8
3846.122	-6.8
3848.741	-3.8
3851.358	-5.8
3853.973	-0.8
3856.586	-1.8
3859.197	0.2
3861.806	-3.8
3864.414	-8.8
3867.019	-4.8
3869.622	-6.8
3872.224	-3.8
3874.823	-3.8
3877.421	-1.8
3880.016	-3.8
3882.61	-0.8
3885.202	4.2
3887.792	0.2
3890.38	-3.8
3892.966	-4.8
3895.55	-0.8
3898.132	-1.8
3900.713	-2.8
3903.291	-3.8
3905.868	-2.8
3908.442	-3.8
3911.015	-6.8
3913.586	-1.8
3916.155	1.2
3918.722	-2.8
3921.287	-3.8
3923.85	0.2
3926.411	-3.8
3928.971	-6.8
3931.528	-6.8
3934.084	-6.8
3936.638	-3.8
3939.19	-5.8
3941.74	-1.8
3944.288	-2.8
3946.834	-0.8
3949.378	-0.8
3951.921	-5.8
3954.462	-10.8
3957	-4.8
3959.537	-1.8
3962.072	-2.8
3964.606	-1.8
3967.137	-1.8
3969.667	2.2
3972.194	-4.8
3974.72	-5.8
3977.244	-5.8
3979.766	-5.8
3982.286	-7.8
3984.805	-4.8
3987.321	-3.8
3989.836	-2.8
3992.349	0.2
3994.86	-0.8
3997.369	-6.8
3999.877	-3.8
4002.382	-5.8
4004.886	-7.8
4007.388	-7.8
4009.888	-6.8
4012.386	-1.8
4014.883	-6.8
4017.377	-1.8
4019.87	-2.8
4022.361	-5.8
4024.85	-3.8
4027.338	-4.8
4029.823	-4.8
4032.307	-3.8
4034.789	-3.8
4037.269	-0.8
4039.747	1.2
4042.224	-3.8
4044.699	-5.8
4047.172	-4.8
4049.643	-9.8
4052.112	-7.8
4054.58	-6.8
4057.046	-6.8
4059.51	-3.8
4061.972	-0.8
4064.432	-0.8
4066.891	-4.8
4069.348	-0.8
4071.803	-6.8
4074.256	-7.8
4076.708	-4.8
4079.158	-2.8
4081.606	-7.8
4084.052	-1.8
4086.497	-1.8
4088.939	3.2
4091.38	-1.8
4093.819	-2.8
4096.257	-6.8
4098.693	-6.8
4101.127	-4.8
4103.559	-1.8
4105.989	4.2
4108.418	3.2
4110.845	1.2
4113.27	1.2
4115.694	-2.8
4118.115	0.2
4120.535	-4.8
4122.954	-4.8
4125.37	-8.8
4127.785	-8.8
4130.198	-4.8
4132.609	-0.8
4135.019	-2.8
4137.427	-3.8
4139.833	-3.8
4142.237	-7.8
