Data from 0.125_n=1_RamanShift_02.txt Node
Date: Mon Mar 19 12:05:24 IST 2018
User: aro
Spectrometer: QEPB0276
Trigger mode: 0
Integration Time (sec): 5.000000E0
Scans to average: 1
Electric dark correction enabled: true
Nonlinearity correction enabled: false
Boxcar width: 0
XAxis mode: Raman Shifts
Number of Pixels in Spectrum: 1044
>>>>>Begin Spectral Data<<<<<
160.701	-0.4
166.742	1.6
172.777	4.6
178.805	13.6
184.826	26.6
190.841	48.6
196.849	83.6
202.85	107.6
208.845	108.6
214.833	113.6
220.815	118.6
226.789	115.6
232.758	113.6
238.719	118.6
244.674	120.6
250.623	121.6
256.565	118.6
262.5	116.6
268.429	124.6
274.351	121.6
280.267	126.6
286.176	118.6
292.079	119.6
297.975	124.6
303.865	122.6
309.748	126.6
315.625	125.6
321.495	123.6
327.359	131.6
333.217	129.6
339.068	128.6
344.912	126.6
350.751	122.6
356.583	122.6
362.408	121.6
368.227	124.6
374.04	126.6
379.847	138.6
385.647	137.6
391.44	141.6
397.228	150.6
403.009	158.6
408.784	157.6
414.553	156.6
420.315	163.6
426.071	171.6
431.821	159.6
437.565	141.6
443.302	133.6
449.033	136.6
454.758	131.6
460.477	134.6
466.189	135.6
471.896	121.6
477.596	119.6
483.29	119.6
488.978	124.6
494.66	120.6
500.335	121.6
506.005	108.6
511.668	106.6
517.325	97.6
522.977	90.6
528.622	89.6
534.261	92.6
539.894	83.6
545.521	84.6
551.141	81.6
556.756	82.6
562.365	77.6
567.968	75.6
573.565	79.6
579.155	68.6
584.74	70.6
590.319	71.6
595.892	72.6
601.459	77.6
607.02	73.6
612.575	70.6
618.124	69.6
623.667	73.6
629.204	69.6
634.735	64.6
640.261	70.6
645.781	72.6
651.294	78.6
656.802	76.6
662.304	68.6
667.8	67.6
673.29	67.6
678.775	62.6
684.254	64.6
689.726	57.6
695.193	62.6
700.655	63.6
706.11	63.6
711.56	62.6
717.004	64.6
722.442	60.6
727.874	64.6
733.301	57.6
738.722	60.6
744.137	56.6
749.547	57.6
754.951	63.6
760.349	60.6
765.741	65.6
771.128	64.6
776.509	61.6
781.885	67.6
787.254	66.6
792.618	66.6
797.977	71.6
803.33	84.6
808.677	100.6
814.019	112.6
819.355	109.6
824.686	87.6
830.011	78.6
835.33	78.6
840.644	95.6
845.952	99.6
851.255	94.6
856.552	83.6
861.844	68.6
867.13	65.6
872.41	59.6
877.686	58.6
882.955	56.6
888.219	59.6
893.478	59.6
898.731	57.6
903.979	61.6
909.221	63.6
914.458	53.6
919.69	53.6
924.916	53.6
930.136	50.6
935.351	56.6
940.561	54.6
945.766	62.6
950.965	56.6
956.158	57.6
961.347	56.6
966.529	56.6
971.707	61.6
976.879	66.6
982.046	68.6
987.208	59.6
992.364	59.6
997.515	57.6
1002.66	65.6
1007.801	66.6
1012.936	61.6
1018.066	57.6
1023.19	50.6
1028.309	54.6
1033.423	58.6
1038.532	68.6
1043.636	67.6
1048.734	70.6
1053.827	69.6
1058.915	52.6
1063.998	54.6
1069.075	49.6
1074.147	46.6
1079.214	47.6
1084.276	47.6
1089.333	54.6
1094.385	54.6
1099.431	58.6
1104.472	50.6
1109.509	55.6
1114.54	48.6
1119.565	45.6
1124.586	49.6
1129.602	45.6
1134.613	52.6
1139.618	53.6
1144.619	62.6
1149.614	70.6
1154.604	82.6
1159.589	86.6
1164.57	85.6
1169.545	76.6
1174.515	75.6
1179.48	68.6
1184.44	56.6
1189.395	56.6
1194.345	52.6
1199.29	49.6
1204.23	49.6
1209.165	50.6
1214.095	52.6
1219.021	55.6
1223.941	63.6
1228.856	58.6
1233.766	55.6
1238.672	53.6
1243.572	50.6
1248.467	50.6
1253.358	47.6
1258.244	50.6
1263.124	45.6
1268	41.6
1272.871	46.6
1277.737	46.6
1282.599	46.6
1287.455	48.6
1292.306	46.6
1297.153	47.6
1301.995	52.6
1306.832	52.6
1311.664	44.6
1316.491	55.6
1321.314	58.6
1326.132	64.6
1330.945	82.6
1335.753	90.6
1340.556	82.6
1345.354	60.6
1350.148	57.6
1354.937	46.6
1359.722	51.6
1364.501	56.6
1369.276	55.6
1374.046	56.6
1378.811	49.6
1383.572	41.6
1388.327	40.6
1393.079	41.6
1397.825	35.6
1402.567	36.6
1407.304	37.6
1412.036	36.6
1416.764	35.6
1421.487	39.6
1426.205	40.6
1430.919	41.6
1435.628	46.6
1440.333	60.6
1445.032	64.6
1449.727	58.6
1454.418	77.6
1459.104	91.6
1463.785	98.6
1468.462	91.6
1473.134	80.6
1477.802	53.6
1482.465	40.6
1487.123	42.6
1491.777	39.6
1496.426	38.6
1501.071	33.6
1505.711	33.6
1510.347	36.6
1514.978	35.6
1519.604	36.6
1524.226	30.6
1528.844	34.6
1533.457	29.6
1538.065	32.6
1542.669	35.6
1547.269	31.6
1551.864	28.6
1556.454	34.6
1561.041	28.6
1565.622	29.6
1570.199	28.6
1574.772	31.6
1579.34	31.6
1583.904	32.6
1588.464	31.6
1593.019	27.6
1597.569	31.6
1602.115	34.6
1606.657	29.6
1611.195	34.6
1615.728	30.6
1620.256	28.6
1624.78	31.6
1629.3	25.6
1633.816	25.6
1638.327	31.6
1642.834	28.6
1647.336	28.6
1651.834	24.6
1656.328	30.6
1660.817	24.6
1665.302	30.6
1669.783	28.6
1674.259	25.6
1678.732	24.6
1683.199	27.6
1687.663	26.6
1692.122	29.6
1696.577	29.6
1701.028	27.6
1705.474	27.6
1709.917	25.6
1714.355	23.6
1718.788	23.6
1723.218	24.6
1727.643	22.6
1732.064	26.6
1736.481	26.6
1740.893	20.6
1745.301	29.6
1749.705	22.6
1754.105	23.6
1758.501	17.6
1762.893	17.6
1767.28	20.6
1771.663	20.6
1776.042	17.6
1780.417	20.6
1784.787	24.6
1789.154	20.6
1793.516	18.6
1797.874	20.6
1802.228	17.6
1806.578	13.6
1810.924	21.6
1815.266	18.6
1819.603	21.6
1823.937	24.6
1828.266	18.6
1832.591	18.6
1836.913	15.6
1841.23	16.6
1845.543	17.6
1849.852	15.6
1854.156	13.6
1858.457	18.6
1862.754	25.6
1867.047	19.6
1871.335	21.6
1875.62	15.6
1879.9	17.6
1884.177	17.6
1888.449	14.6
1892.718	18.6
1896.982	19.6
1901.243	20.6
1905.499	24.6
1909.752	18.6
1914	20.6
1918.245	16.6
1922.485	17.6
1926.722	15.6
1930.954	14.6
1935.183	17.6
1939.408	19.6
1943.628	21.6
1947.845	18.6
1952.058	19.6
1956.267	16.6
1960.472	10.6
1964.673	16.6
1968.87	12.6
1973.063	15.6
1977.252	16.6
1981.438	12.6
1985.619	14.6
1989.797	13.6
1993.971	14.6
1998.14	13.6
2002.306	11.6
2006.469	14.6
2010.627	12.6
2014.781	14.6
2018.932	16.6
2023.078	13.6
2027.221	13.6
2031.36	16.6
2035.495	15.6
2039.627	12.6
2043.754	10.6
2047.878	12.6
2051.998	12.6
2056.114	12.6
2060.226	15.6
2064.334	12.6
2068.439	11.6
2072.54	12.6
2076.637	12.6
2080.73	11.6
2084.82	13.6
2088.906	16.6
2092.988	14.6
2097.066	10.6
2101.14	12.6
2105.211	11.6
2109.278	12.6
2113.342	11.6
2117.401	12.6
2121.457	12.6
2125.509	16.6
2129.558	16.6
2133.602	12.6
2137.643	9.6
2141.681	8.6
2145.714	6.6
2149.744	10.6
2153.77	9.6
2157.793	16.6
2161.812	14.6
2165.827	14.6
2169.838	8.6
2173.846	7.6
2177.851	7.6
2181.851	7.6
2185.848	9.6
2189.841	10.6
2193.831	4.6
2197.817	10.6
2201.799	8.6
2205.778	10.6
2209.753	9.6
2213.725	5.6
2217.693	8.6
2221.657	5.6
2225.618	11.6
2229.575	10.6
2233.529	7.6
2237.479	3.6
2241.425	4.6
2245.368	8.6
2249.307	6.6
2253.243	12.6
2257.175	9.6
2261.104	12.6
2265.029	8.6
2268.95	7.6
2272.868	4.6
2276.783	2.6
2280.694	7.6
2284.601	8.6
2288.505	10.6
2292.405	9.6
2296.302	11.6
2300.195	10.6
2304.085	3.6
2307.971	4.6
2311.854	1.6
2315.734	5.6
2319.609	8.6
2323.482	6.6
2327.351	3.6
2331.216	10.6
2335.078	9.6
2338.937	6.6
2342.792	0.6
2346.643	0.6
2350.492	5.6
2354.336	3.6
2358.178	7.6
2362.015	8.6
2365.85	6.6
2369.681	6.6
2373.508	2.6
2377.333	1.6
2381.153	1.6
2384.971	1.6
2388.785	5.6
2392.595	7.6
2396.402	7.6
2400.206	7.6
2404.007	3.6
2407.804	1.6
2411.597	2.6
2415.388	0.6
2419.174	5.6
2422.958	4.6
2426.738	0.6
2430.515	5.6
2434.289	6.6
2438.059	2.6
2441.825	0.6
2445.589	3.6
2449.349	2.6
2453.106	2.6
2456.859	5.6
2460.61	4.6
2464.356	5.6
2468.1	1.6
2471.84	1.6
2475.577	4.6
2479.311	1.6
2483.041	6.6
2486.768	4.6
2490.492	2.6
2494.213	4.6
2497.93	0.6
2501.644	5.6
2505.355	0.6
2509.062	-3.4
2512.766	0.6
2516.467	-0.4
2520.165	5.6
2523.859	3.6
2527.551	1.6
2531.239	3.6
2534.923	3.6
2538.605	-1.4
2542.283	-1.4
2545.958	1.6
2549.63	2.6
2553.299	4.6
2556.964	4.6
2560.626	5.6
2564.285	-0.4
2567.941	0.6
2571.594	1.6
2575.243	-3.4
2578.89	2.6
2582.533	-0.4
2586.173	1.6
2589.809	5.6
2593.443	5.6
2597.073	4.6
2600.701	2.6
2604.325	3.6
2607.946	1.6
2611.564	4.6
2615.178	1.6
2618.79	0.6
2622.398	0.6
2626.004	3.6
2629.606	5.6
2633.205	2.6
2636.801	2.6
2640.394	1.6
2643.983	1.6
2647.57	2.6
2651.153	2.6
2654.734	2.6
2658.311	0.6
2661.885	5.6
2665.456	3.6
2669.025	5.6
2672.589	6.6
2676.151	6.6
2679.71	7.6
2683.266	3.6
2686.819	7.6
2690.368	3.6
2693.915	0.6
2697.458	-0.4
2700.999	6.6
2704.536	6.6
2708.071	5.6
2711.602	7.6
2715.13	5.6
2718.656	2.6
2722.178	0.6
2725.697	2.6
2729.214	1.6
2732.727	4.6
2736.237	6.6
2739.744	6.6
2743.249	10.6
2746.75	6.6
2750.248	3.6
2753.743	0.6
2757.236	-0.4
2760.725	-1.4
2764.211	3.6
2767.695	3.6
2771.175	4.6
2774.652	5.6
2778.127	3.6
2781.598	5.6
2785.067	-1.4
2788.532	0.6
2791.995	0.6
2795.455	-0.4
2798.911	2.6
2802.365	3.6
2805.816	4.6
2809.264	7.6
2812.709	6.6
2816.151	8.6
2819.59	4.6
2823.026	4.6
2826.46	0.6
2829.89	8.6
2833.318	11.6
2836.742	16.6
2840.164	22.6
2843.583	24.6
2846.999	26.6
2850.412	22.6
2853.822	20.6
2857.229	19.6
2860.634	17.6
2864.035	21.6
2867.434	28.6
2870.83	37.6
2874.223	44.6
2877.613	41.6
2881	39.6
2884.385	46.6
2887.766	51.6
2891.145	50.6
2894.521	46.6
2897.894	42.6
2901.264	43.6
2904.631	43.6
2907.996	41.6
2911.358	37.6
2914.717	30.6
2918.073	33.6
2921.426	29.6
2924.777	26.6
2928.124	23.6
2931.469	24.6
2934.811	21.6
2938.15	28.6
2941.487	21.6
2944.821	21.6
2948.152	19.6
2951.48	19.6
2954.805	21.6
2958.128	23.6
2961.447	21.6
2964.765	23.6
2968.079	24.6
2971.39	20.6
2974.699	17.6
2978.005	9.6
2981.308	8.6
2984.609	4.6
2987.907	7.6
2991.202	5.6
2994.494	5.6
2997.784	5.6
3001.07	5.6
3004.355	5.6
3007.636	4.6
3010.915	6.6
3014.191	4.6
3017.464	0.6
3020.734	1.6
3024.002	0.6
3027.267	1.6
3030.53	2.6
3033.789	4.6
3037.046	0.6
3040.301	2.6
3043.552	0.6
3046.801	2.6
3050.048	2.6
3053.291	-1.4
3056.532	-0.4
3059.771	2.6
3063.006	1.6
3066.239	0.6
3069.469	6.6
3072.697	3.6
3075.922	1.6
3079.144	3.6
3082.364	2.6
3085.581	0.6
3088.795	1.6
3092.007	0.6
3095.216	3.6
3098.423	2.6
3101.627	-2.4
3104.828	4.6
3108.026	-1.4
3111.222	0.6
3114.416	2.6
3117.607	3.6
3120.795	3.6
3123.98	0.6
3127.163	-0.4
3130.344	3.6
3133.521	4.6
3136.696	2.6
3139.869	3.6
3143.039	4.6
3146.206	1.6
3149.371	3.6
3152.533	4.6
3155.693	2.6
3158.85	2.6
3162.005	2.6
3165.157	1.6
3168.306	1.6
3171.453	2.6
3174.597	4.6
3177.739	1.6
3180.878	1.6
3184.014	1.6
3187.149	-0.4
3190.28	1.6
3193.409	2.6
3196.536	-0.4
3199.659	5.6
3202.781	3.6
3205.9	5.6
3209.016	2.6
3212.13	1.6
3215.241	1.6
3218.35	3.6
3221.456	4.6
3224.56	5.6
3227.661	6.6
3230.76	5.6
3233.856	4.6
3236.95	3.6
3240.041	1.6
3243.13	-0.4
3246.216	0.6
3249.3	5.6
3252.382	4.6
3255.46	8.6
3258.537	3.6
3261.611	4.6
3264.682	3.6
3267.751	1.6
3270.818	-0.4
3273.882	0.6
3276.943	3.6
3280.002	0.6
3283.059	0.6
3286.113	4.6
3289.165	2.6
3292.214	1.6
3295.261	1.6
3298.306	-1.4
3301.348	1.6
3304.387	2.6
3307.425	4.6
3310.459	5.6
3313.492	0.6
3316.521	2.6
3319.549	2.6
3322.574	2.6
3325.597	-1.4
3328.617	-1.4
3331.635	0.6
3334.65	-3.4
3337.663	1.6
3340.674	5.6
3343.682	1.6
3346.688	2.6
3349.691	0.6
3352.692	1.6
3355.691	-2.4
3358.687	-5.4
3361.681	0.6
3364.673	2.6
3367.662	3.6
3370.649	9.6
3373.633	2.6
3376.615	1.6
3379.595	-1.4
3382.572	0.6
3385.547	-2.4
3388.52	-2.4
3391.49	2.6
3394.458	1.6
3397.424	1.6
3400.387	4.6
3403.348	-0.4
3406.307	0.6
3409.263	0.6
3412.217	-2.4
3415.168	-3.4
3418.118	-1.4
3421.065	4.6
3424.009	2.6
3426.951	1.6
3429.891	0.6
3432.829	-0.4
3435.764	1.6
3438.697	-4.4
3441.628	-1.4
3444.557	2.6
3447.483	-0.4
3450.407	0.6
3453.328	3.6
3456.247	-3.4
3459.164	0.6
3462.079	0.6
3464.991	-0.4
3467.902	-3.4
3470.809	1.6
3473.715	0.6
3476.618	-1.4
3479.519	-2.4
3482.418	-0.4
3485.315	-2.4
3488.209	-1.4
3491.101	-0.4
3493.99	-3.4
3496.878	-0.4
3499.763	-3.4
3502.646	0.6
3505.527	-4.4
3508.405	-2.4
3511.281	-5.4
3514.155	-4.4
3517.027	-2.4
3519.897	0.6
3522.764	-0.4
3525.629	-1.4
3528.492	-0.4
3531.352	0.6
3534.211	-3.4
3537.067	-5.4
3539.921	-7.4
3542.773	-5.4
3545.622	-0.4
3548.469	-2.4
3551.315	0.6
3554.157	1.6
3556.998	-1.4
3559.837	-4.4
3562.673	-3.4
3565.507	-4.4
3568.339	-2.4
3571.169	-2.4
3573.996	-1.4
3576.822	-3.4
3579.645	-3.4
3582.466	-2.4
3585.285	-2.4
3588.101	-4.4
3590.916	-2.4
3593.728	-5.4
3596.538	-4.4
3599.346	-4.4
3602.152	-4.4
3604.956	-3.4
3607.757	-2.4
3610.556	-3.4
3613.354	0.6
3616.149	-5.4
3618.942	-2.4
3621.732	-2.4
3624.521	-1.4
3627.307	-5.4
3630.092	-3.4
3632.874	-5.4
3635.654	1.6
3638.432	-4.4
3641.208	-2.4
3643.982	-3.4
3646.753	-1.4
3649.523	-6.4
3652.29	-3.4
3655.055	-7.4
3657.818	-5.4
3660.579	-1.4
3663.338	-0.4
3666.095	1.6
3668.849	1.6
3671.602	-3.4
3674.352	1.6
3677.101	-4.4
3679.847	-5.4
3682.591	-4.4
3685.333	-6.4
3688.073	-3.4
3690.811	-0.4
3693.547	2.6
3696.281	-3.4
3699.013	-0.4
3701.742	-2.4
3704.47	-4.4
3707.195	-2.4
3709.919	-6.4
3712.64	-6.4
3715.359	-3.4
3718.076	-2.4
3720.792	-1.4
3723.505	0.6
3726.216	-3.4
3728.925	-3.4
3731.632	-4.4
3734.336	-4.4
3737.039	-2.4
3739.74	-5.4
3742.439	-3.4
3745.136	-1.4
3747.83	-3.4
3750.523	-2.4
3753.213	-5.4
3755.902	-1.4
3758.589	-1.4
3761.273	-2.4
3763.956	-2.4
3766.636	-7.4
3769.315	-7.4
3771.991	-5.4
3774.665	-3.4
3777.338	-0.4
3780.008	-1.4
3782.677	-0.4
3785.343	-3.4
3788.007	-1.4
3790.67	-1.4
3793.33	-2.4
3795.989	-2.4
3798.645	-7.4
3801.299	-2.4
3803.952	-2.4
3806.602	0.6
3809.251	-1.4
3811.897	-1.4
3814.542	-4.4
3817.184	-4.4
3819.825	-9.4
3822.463	-7.4
3825.1	-5.4
3827.735	-2.4
3830.367	-1.4
3832.998	-1.4
3835.627	0.6
3838.253	-0.4
3840.878	-5.4
3843.501	-3.4
3846.122	-7.4
3848.741	-6.4
3851.358	-4.4
3853.973	-1.4
3856.586	-3.4
3859.197	-1.4
3861.806	-1.4
3864.414	-5.4
3867.019	-6.4
3869.622	-8.4
3872.224	-5.4
3874.823	-3.4
3877.421	-0.4
3880.016	-4.4
3882.61	0.6
3885.202	2.6
3887.792	-1.4
3890.38	-0.4
3892.966	-5.4
3895.55	-3.4
3898.132	-2.4
3900.713	-4.4
3903.291	-5.4
3905.868	-1.4
3908.442	-1.4
3911.015	-5.4
3913.586	-3.4
3916.155	-2.4
3918.722	-0.4
3921.287	-3.4
3923.85	-2.4
3926.411	-2.4
3928.971	-7.4
3931.528	-1.4
3934.084	-4.4
3936.638	-2.4
3939.19	-5.4
3941.74	0.6
3944.288	-5.4
3946.834	-3.4
3949.378	-2.4
3951.921	-4.4
3954.462	-5.4
3957	-5.4
3959.537	-0.4
3962.072	-3.4
3964.606	1.6
3967.137	-3.4
3969.667	-4.4
3972.194	-3.4
3974.72	-7.4
3977.244	-7.4
3979.766	-4.4
3982.286	-2.4
3984.805	-2.4
3987.321	-1.4
3989.836	-3.4
3992.349	-0.4
3994.86	-0.4
3997.369	-6.4
3999.877	-4.4
4002.382	-4.4
4004.886	-5.4
4007.388	-6.4
4009.888	-7.4
4012.386	-1.4
4014.883	-4.4
4017.377	-1.4
4019.87	-3.4
4022.361	-3.4
4024.85	-6.4
4027.338	-6.4
4029.823	-3.4
4032.307	-0.4
4034.789	-1.4
4037.269	-2.4
4039.747	-0.4
4042.224	-0.4
4044.699	-5.4
4047.172	-5.4
4049.643	-9.4
4052.112	-6.4
4054.58	-4.4
4057.046	-3.4
4059.51	0.6
4061.972	-0.4
4064.432	-1.4
4066.891	-2.4
4069.348	-2.4
4071.803	-7.4
4074.256	-7.4
4076.708	-0.4
4079.158	0.6
4081.606	-5.4
4084.052	1.6
4086.497	-4.4
4088.939	0.6
4091.38	-0.4
4093.819	-9.4
4096.257	-3.4
4098.693	-4.4
4101.127	-2.4
4103.559	-1.4
4105.989	4.6
4108.418	1.6
4110.845	-1.4
4113.27	-3.4
4115.694	-0.4
4118.115	2.6
4120.535	-7.4
4122.954	-6.4
4125.37	-6.4
4127.785	-6.4
4130.198	-1.4
4132.609	-1.4
4135.019	-1.4
4137.427	-3.4
4139.833	-4.4
4142.237	-10.4
