Data from 0.125_n=3_RamanShift_01.txt Node
Date: Mon Mar 19 12:07:28 IST 2018
User: aro
Spectrometer: QEPB0276
Trigger mode: 0
Integration Time (sec): 5.000000E0
Scans to average: 1
Electric dark correction enabled: true
Nonlinearity correction enabled: false
Boxcar width: 0
XAxis mode: Raman Shifts
Number of Pixels in Spectrum: 1044
>>>>>Begin Spectral Data<<<<<
160.701	-0.4
166.742	1.6
172.777	3.6
178.805	9.6
184.826	23.6
190.841	53.6
196.849	90.6
202.85	109.6
208.845	116.6
214.833	120.6
220.815	121.6
226.789	126.6
232.758	117.6
238.719	120.6
244.674	117.6
250.623	123.6
256.565	123.6
262.5	120.6
268.429	118.6
274.351	119.6
280.267	124.6
286.176	115.6
292.079	119.6
297.975	123.6
303.865	117.6
309.748	120.6
315.625	126.6
321.495	124.6
327.359	123.6
333.217	133.6
339.068	124.6
344.912	129.6
350.751	123.6
356.583	122.6
362.408	116.6
368.227	128.6
374.04	129.6
379.847	133.6
385.647	141.6
391.44	146.6
397.228	147.6
403.009	154.6
408.784	164.6
414.553	158.6
420.315	172.6
426.071	169.6
431.821	152.6
437.565	140.6
443.302	128.6
449.033	135.6
454.758	130.6
460.477	127.6
466.189	131.6
471.896	122.6
477.596	117.6
483.29	119.6
488.978	116.6
494.66	117.6
500.335	114.6
506.005	115.6
511.668	98.6
517.325	93.6
522.977	87.6
528.622	88.6
534.261	87.6
539.894	82.6
545.521	88.6
551.141	77.6
556.756	79.6
562.365	72.6
567.968	78.6
573.565	72.6
579.155	66.6
584.74	72.6
590.319	67.6
595.892	71.6
601.459	72.6
607.02	72.6
612.575	75.6
618.124	71.6
623.667	69.6
629.204	67.6
634.735	65.6
640.261	66.6
645.781	65.6
651.294	75.6
656.802	78.6
662.304	71.6
667.8	67.6
673.29	60.6
678.775	63.6
684.254	62.6
689.726	56.6
695.193	59.6
700.655	58.6
706.11	62.6
711.56	59.6
717.004	59.6
722.442	55.6
727.874	59.6
733.301	53.6
738.722	59.6
744.137	53.6
749.547	57.6
754.951	58.6
760.349	62.6
765.741	62.6
771.128	64.6
776.509	63.6
781.885	64.6
787.254	65.6
792.618	63.6
797.977	66.6
803.33	80.6
808.677	85.6
814.019	105.6
819.355	102.6
824.686	84.6
830.011	74.6
835.33	78.6
840.644	86.6
845.952	94.6
851.255	88.6
856.552	77.6
861.844	66.6
867.13	61.6
872.41	61.6
877.686	56.6
882.955	50.6
888.219	52.6
893.478	51.6
898.731	55.6
903.979	55.6
909.221	56.6
914.458	51.6
919.69	54.6
924.916	51.6
930.136	48.6
935.351	51.6
940.561	52.6
945.766	54.6
950.965	54.6
956.158	54.6
961.347	51.6
966.529	50.6
971.707	57.6
976.879	64.6
982.046	65.6
987.208	57.6
992.364	46.6
997.515	55.6
1002.66	64.6
1007.801	59.6
1012.936	50.6
1018.066	50.6
1023.19	50.6
1028.309	51.6
1033.423	53.6
1038.532	62.6
1043.636	65.6
1048.734	62.6
1053.827	58.6
1058.915	48.6
1063.998	47.6
1069.075	48.6
1074.147	46.6
1079.214	47.6
1084.276	47.6
1089.333	52.6
1094.385	43.6
1099.431	48.6
1104.472	46.6
1109.509	46.6
1114.54	45.6
1119.565	44.6
1124.586	50.6
1129.602	41.6
1134.613	49.6
1139.618	51.6
1144.619	58.6
1149.614	59.6
1154.604	68.6
1159.589	75.6
1164.57	79.6
1169.545	66.6
1174.515	69.6
1179.48	63.6
1184.44	51.6
1189.395	46.6
1194.345	48.6
1199.29	39.6
1204.23	44.6
1209.165	42.6
1214.095	48.6
1219.021	51.6
1223.941	57.6
1228.856	56.6
1233.766	49.6
1238.672	47.6
1243.572	46.6
1248.467	42.6
1253.358	40.6
1258.244	45.6
1263.124	41.6
1268	39.6
1272.871	42.6
1277.737	41.6
1282.599	44.6
1287.455	40.6
1292.306	43.6
1297.153	42.6
1301.995	44.6
1306.832	42.6
1311.664	41.6
1316.491	48.6
1321.314	54.6
1326.132	63.6
1330.945	69.6
1335.753	76.6
1340.556	71.6
1345.354	48.6
1350.148	49.6
1354.937	45.6
1359.722	49.6
1364.501	53.6
1369.276	53.6
1374.046	48.6
1378.811	42.6
1383.572	36.6
1388.327	37.6
1393.079	32.6
1397.825	34.6
1402.567	31.6
1407.304	32.6
1412.036	32.6
1416.764	32.6
1421.487	39.6
1426.205	38.6
1430.919	36.6
1435.628	41.6
1440.333	50.6
1445.032	56.6
1449.727	60.6
1454.418	71.6
1459.104	87.6
1463.785	89.6
1468.462	82.6
1473.134	69.6
1477.802	48.6
1482.465	39.6
1487.123	34.6
1491.777	33.6
1496.426	35.6
1501.071	32.6
1505.711	34.6
1510.347	30.6
1514.978	29.6
1519.604	30.6
1524.226	27.6
1528.844	28.6
1533.457	26.6
1538.065	29.6
1542.669	30.6
1547.269	27.6
1551.864	25.6
1556.454	29.6
1561.041	26.6
1565.622	27.6
1570.199	27.6
1574.772	23.6
1579.34	25.6
1583.904	29.6
1588.464	25.6
1593.019	26.6
1597.569	28.6
1602.115	30.6
1606.657	24.6
1611.195	29.6
1615.728	27.6
1620.256	25.6
1624.78	24.6
1629.3	29.6
1633.816	25.6
1638.327	29.6
1642.834	24.6
1647.336	28.6
1651.834	25.6
1656.328	29.6
1660.817	28.6
1665.302	26.6
1669.783	25.6
1674.259	27.6
1678.732	24.6
1683.199	27.6
1687.663	26.6
1692.122	26.6
1696.577	24.6
1701.028	24.6
1705.474	24.6
1709.917	24.6
1714.355	17.6
1718.788	20.6
1723.218	17.6
1727.643	20.6
1732.064	21.6
1736.481	21.6
1740.893	20.6
1745.301	23.6
1749.705	20.6
1754.105	20.6
1758.501	17.6
1762.893	12.6
1767.28	15.6
1771.663	18.6
1776.042	16.6
1780.417	18.6
1784.787	20.6
1789.154	21.6
1793.516	16.6
1797.874	18.6
1802.228	15.6
1806.578	12.6
1810.924	15.6
1815.266	16.6
1819.603	16.6
1823.937	22.6
1828.266	18.6
1832.591	20.6
1836.913	10.6
1841.23	13.6
1845.543	11.6
1849.852	13.6
1854.156	9.6
1858.457	12.6
1862.754	21.6
1867.047	14.6
1871.335	19.6
1875.62	17.6
1879.9	14.6
1884.177	15.6
1888.449	11.6
1892.718	14.6
1896.982	12.6
1901.243	17.6
1905.499	16.6
1909.752	15.6
1914	17.6
1918.245	13.6
1922.485	14.6
1926.722	15.6
1930.954	10.6
1935.183	15.6
1939.408	15.6
1943.628	16.6
1947.845	13.6
1952.058	15.6
1956.267	10.6
1960.472	14.6
1964.673	11.6
1968.87	13.6
1973.063	17.6
1977.252	12.6
1981.438	12.6
1985.619	13.6
1989.797	8.6
1993.971	5.6
1998.14	11.6
2002.306	10.6
2006.469	9.6
2010.627	14.6
2014.781	14.6
2018.932	13.6
2023.078	13.6
2027.221	11.6
2031.36	7.6
2035.495	11.6
2039.627	10.6
2043.754	11.6
2047.878	13.6
2051.998	11.6
2056.114	11.6
2060.226	15.6
2064.334	6.6
2068.439	8.6
2072.54	5.6
2076.637	11.6
2080.73	13.6
2084.82	15.6
2088.906	15.6
2092.988	12.6
2097.066	8.6
2101.14	11.6
2105.211	13.6
2109.278	8.6
2113.342	7.6
2117.401	10.6
2121.457	7.6
2125.509	9.6
2129.558	11.6
2133.602	12.6
2137.643	7.6
2141.681	8.6
2145.714	5.6
2149.744	8.6
2153.77	7.6
2157.793	12.6
2161.812	7.6
2165.827	10.6
2169.838	4.6
2173.846	8.6
2177.851	8.6
2181.851	7.6
2185.848	7.6
2189.841	7.6
2193.831	4.6
2197.817	7.6
2201.799	8.6
2205.778	5.6
2209.753	5.6
2213.725	2.6
2217.693	4.6
2221.657	5.6
2225.618	9.6
2229.575	12.6
2233.529	8.6
2237.479	4.6
2241.425	3.6
2245.368	5.6
2249.307	2.6
2253.243	10.6
2257.175	6.6
2261.104	10.6
2265.029	6.6
2268.95	4.6
2272.868	5.6
2276.783	0.6
2280.694	1.6
2284.601	4.6
2288.505	4.6
2292.405	7.6
2296.302	7.6
2300.195	8.6
2304.085	4.6
2307.971	2.6
2311.854	1.6
2315.734	3.6
2319.609	1.6
2323.482	2.6
2327.351	1.6
2331.216	5.6
2335.078	9.6
2338.937	5.6
2342.792	-0.4
2346.643	3.6
2350.492	3.6
2354.336	0.6
2358.178	0.6
2362.015	2.6
2365.85	2.6
2369.681	3.6
2373.508	2.6
2377.333	3.6
2381.153	4.6
2384.971	2.6
2388.785	4.6
2392.595	6.6
2396.402	5.6
2400.206	3.6
2404.007	0.6
2407.804	0.6
2411.597	2.6
2415.388	-0.4
2419.174	4.6
2422.958	5.6
2426.738	1.6
2430.515	5.6
2434.289	1.6
2438.059	-0.4
2441.825	-3.4
2445.589	0.6
2449.349	2.6
2453.106	5.6
2456.859	1.6
2460.61	6.6
2464.356	4.6
2468.1	3.6
2471.84	1.6
2475.577	-1.4
2479.311	-2.4
2483.041	0.6
2486.768	3.6
2490.492	2.6
2494.213	4.6
2497.93	1.6
2501.644	4.6
2505.355	2.6
2509.062	-0.4
2512.766	0.6
2516.467	-0.4
2520.165	-0.4
2523.859	0.6
2527.551	2.6
2531.239	3.6
2534.923	1.6
2538.605	-1.4
2542.283	-2.4
2545.958	2.6
2549.63	-2.4
2553.299	1.6
2556.964	3.6
2560.626	2.6
2564.285	-0.4
2567.941	2.6
2571.594	-1.4
2575.243	-1.4
2578.89	3.6
2582.533	-0.4
2586.173	2.6
2589.809	0.6
2593.443	4.6
2597.073	3.6
2600.701	1.6
2604.325	0.6
2607.946	3.6
2611.564	3.6
2615.178	2.6
2618.79	4.6
2622.398	1.6
2626.004	-0.4
2629.606	1.6
2633.205	-1.4
2636.801	2.6
2640.394	1.6
2643.983	1.6
2647.57	6.6
2651.153	3.6
2654.734	2.6
2658.311	1.6
2661.885	-0.4
2665.456	-0.4
2669.025	0.6
2672.589	3.6
2676.151	3.6
2679.71	7.6
2683.266	2.6
2686.819	7.6
2690.368	2.6
2693.915	-1.4
2697.458	-2.4
2700.999	3.6
2704.536	1.6
2708.071	3.6
2711.602	5.6
2715.13	8.6
2718.656	4.6
2722.178	3.6
2725.697	-0.4
2729.214	3.6
2732.727	3.6
2736.237	5.6
2739.744	3.6
2743.249	8.6
2746.75	3.6
2750.248	4.6
2753.743	0.6
2757.236	1.6
2760.725	-3.4
2764.211	-2.4
2767.695	1.6
2771.175	2.6
2774.652	3.6
2778.127	4.6
2781.598	4.6
2785.067	1.6
2788.532	-2.4
2791.995	-1.4
2795.455	1.6
2798.911	2.6
2802.365	0.6
2805.816	5.6
2809.264	4.6
2812.709	5.6
2816.151	5.6
2819.59	2.6
2823.026	2.6
2826.46	4.6
2829.89	7.6
2833.318	8.6
2836.742	8.6
2840.164	22.6
2843.583	20.6
2846.999	19.6
2850.412	18.6
2853.822	19.6
2857.229	19.6
2860.634	13.6
2864.035	14.6
2867.434	25.6
2870.83	28.6
2874.223	35.6
2877.613	37.6
2881	34.6
2884.385	35.6
2887.766	38.6
2891.145	44.6
2894.521	39.6
2897.894	37.6
2901.264	37.6
2904.631	31.6
2907.996	40.6
2911.358	35.6
2914.717	29.6
2918.073	24.6
2921.426	23.6
2924.777	22.6
2928.124	22.6
2931.469	19.6
2934.811	23.6
2938.15	25.6
2941.487	19.6
2944.821	17.6
2948.152	13.6
2951.48	15.6
2954.805	19.6
2958.128	21.6
2961.447	18.6
2964.765	15.6
2968.079	21.6
2971.39	13.6
2974.699	13.6
2978.005	7.6
2981.308	7.6
2984.609	3.6
2987.907	4.6
2991.202	3.6
2994.494	6.6
2997.784	4.6
3001.07	6.6
3004.355	2.6
3007.636	4.6
3010.915	5.6
3014.191	2.6
3017.464	0.6
3020.734	4.6
3024.002	3.6
3027.267	2.6
3030.53	2.6
3033.789	6.6
3037.046	0.6
3040.301	2.6
3043.552	1.6
3046.801	2.6
3050.048	2.6
3053.291	1.6
3056.532	-2.4
3059.771	4.6
3063.006	-0.4
3066.239	1.6
3069.469	5.6
3072.697	4.6
3075.922	3.6
3079.144	6.6
3082.364	3.6
3085.581	2.6
3088.795	2.6
3092.007	1.6
3095.216	3.6
3098.423	3.6
3101.627	-0.4
3104.828	7.6
3108.026	5.6
3111.222	5.6
3114.416	4.6
3117.607	5.6
3120.795	5.6
3123.98	2.6
3127.163	5.6
3130.344	4.6
3133.521	5.6
3136.696	3.6
3139.869	6.6
3143.039	8.6
3146.206	5.6
3149.371	6.6
3152.533	5.6
3155.693	6.6
3158.85	5.6
3162.005	7.6
3165.157	4.6
3168.306	1.6
3171.453	9.6
3174.597	8.6
3177.739	4.6
3180.878	4.6
3184.014	0.6
3187.149	1.6
3190.28	-0.4
3193.409	5.6
3196.536	5.6
3199.659	6.6
3202.781	8.6
3205.9	11.6
3209.016	3.6
3212.13	5.6
3215.241	4.6
3218.35	7.6
3221.456	6.6
3224.56	7.6
3227.661	6.6
3230.76	9.6
3233.856	9.6
3236.95	10.6
3240.041	3.6
3243.13	2.6
3246.216	1.6
3249.3	4.6
3252.382	3.6
3255.46	6.6
3258.537	7.6
3261.611	8.6
3264.682	5.6
3267.751	4.6
3270.818	0.6
3273.882	3.6
3276.943	3.6
3280.002	-0.4
3283.059	2.6
3286.113	2.6
3289.165	2.6
3292.214	4.6
3295.261	1.6
3298.306	3.6
3301.348	2.6
3304.387	3.6
3307.425	3.6
3310.459	1.6
3313.492	3.6
3316.521	-0.4
3319.549	5.6
3322.574	4.6
3325.597	0.6
3328.617	-0.4
3331.635	4.6
3334.65	1.6
3337.663	2.6
3340.674	2.6
3343.682	-0.4
3346.688	2.6
3349.691	3.6
3352.692	5.6
3355.691	1.6
3358.687	-0.4
3361.681	2.6
3364.673	7.6
3367.662	0.6
3370.649	6.6
3373.633	1.6
3376.615	2.6
3379.595	-0.4
3382.572	-1.4
3385.547	-0.4
3388.52	1.6
3391.49	5.6
3394.458	3.6
3397.424	1.6
3400.387	3.6
3403.348	0.6
3406.307	-0.4
3409.263	0.6
3412.217	0.6
3415.168	0.6
3418.118	1.6
3421.065	4.6
3424.009	3.6
3426.951	4.6
3429.891	0.6
3432.829	-2.4
3435.764	-1.4
3438.697	-5.4
3441.628	-0.4
3444.557	2.6
3447.483	3.6
3450.407	3.6
3453.328	7.6
3456.247	-2.4
3459.164	1.6
3462.079	-1.4
3464.991	-2.4
3467.902	-3.4
3470.809	0.6
3473.715	4.6
3476.618	1.6
3479.519	1.6
3482.418	-0.4
3485.315	-2.4
3488.209	-0.4
3491.101	-1.4
3493.99	-4.4
3496.878	0.6
3499.763	0.6
3502.646	0.6
3505.527	-0.4
3508.405	-1.4
3511.281	-1.4
3514.155	-4.4
3517.027	-0.4
3519.897	-0.4
3522.764	-2.4
3525.629	-5.4
3528.492	-0.4
3531.352	-0.4
3534.211	-1.4
3537.067	-4.4
3539.921	-1.4
3542.773	-4.4
3545.622	3.6
3548.469	-2.4
3551.315	-0.4
3554.157	-3.4
3556.998	0.6
3559.837	-6.4
3562.673	-3.4
3565.507	-2.4
3568.339	-0.4
3571.169	-0.4
3573.996	-0.4
3576.822	-1.4
3579.645	-4.4
3582.466	-4.4
3585.285	-3.4
3588.101	-4.4
3590.916	-1.4
3593.728	-4.4
3596.538	-0.4
3599.346	-2.4
3602.152	-3.4
3604.956	-4.4
3607.757	-2.4
3610.556	-6.4
3613.354	-3.4
3616.149	-4.4
3618.942	-2.4
3621.732	-2.4
3624.521	0.6
3627.307	-3.4
3630.092	-2.4
3632.874	-4.4
3635.654	-3.4
3638.432	-5.4
3641.208	-0.4
3643.982	-5.4
3646.753	-0.4
3649.523	-3.4
3652.29	-0.4
3655.055	-4.4
3657.818	-4.4
3660.579	-0.4
3663.338	-2.4
3666.095	-3.4
3668.849	-1.4
3671.602	-3.4
3674.352	-0.4
3677.101	-5.4
3679.847	-3.4
3682.591	-1.4
3685.333	-1.4
3688.073	0.6
3690.811	-0.4
3693.547	0.6
3696.281	-4.4
3699.013	-4.4
3701.742	-3.4
3704.47	-10.4
3707.195	-6.4
3709.919	-3.4
3712.64	-2.4
3715.359	-0.4
3718.076	-2.4
3720.792	-2.4
3723.505	-4.4
3726.216	-6.4
3728.925	-6.4
3731.632	-5.4
3734.336	-5.4
3737.039	1.6
3739.74	-2.4
3742.439	-1.4
3745.136	-4.4
3747.83	-4.4
3750.523	-4.4
3753.213	-5.4
3755.902	-0.4
3758.589	-2.4
3761.273	0.6
3763.956	-3.4
3766.636	-2.4
3769.315	-5.4
3771.991	-4.4
3774.665	-2.4
3777.338	-2.4
3780.008	-3.4
3782.677	-3.4
3785.343	-3.4
3788.007	-1.4
3790.67	-2.4
3793.33	-2.4
3795.989	-4.4
3798.645	-4.4
3801.299	-4.4
3803.952	-4.4
3806.602	-1.4
3809.251	-2.4
3811.897	-4.4
3814.542	-4.4
3817.184	-5.4
3819.825	-6.4
3822.463	-7.4
3825.1	-5.4
3827.735	-5.4
3830.367	-3.4
3832.998	-4.4
3835.627	-0.4
3838.253	-2.4
3840.878	-5.4
3843.501	-2.4
3846.122	-0.4
3848.741	-1.4
3851.358	-2.4
3853.973	-1.4
3856.586	-7.4
3859.197	-5.4
3861.806	-7.4
3864.414	-8.4
3867.019	-2.4
3869.622	-4.4
3872.224	-5.4
3874.823	-1.4
3877.421	0.6
3880.016	-1.4
3882.61	0.6
3885.202	2.6
3887.792	-1.4
3890.38	-1.4
3892.966	-4.4
3895.55	-1.4
3898.132	-0.4
3900.713	-0.4
3903.291	-2.4
3905.868	-1.4
3908.442	-2.4
3911.015	-6.4
3913.586	-3.4
3916.155	-2.4
3918.722	-4.4
3921.287	0.6
3923.85	0.6
3926.411	-1.4
3928.971	-4.4
3931.528	-5.4
3934.084	-5.4
3936.638	-5.4
3939.19	-6.4
3941.74	-2.4
3944.288	-2.4
3946.834	-2.4
3949.378	-0.4
3951.921	-1.4
3954.462	-6.4
3957	-8.4
3959.537	-2.4
3962.072	-0.4
3964.606	-3.4
3967.137	-1.4
3969.667	2.6
3972.194	-3.4
3974.72	-1.4
3977.244	-5.4
3979.766	-1.4
3982.286	-6.4
3984.805	-5.4
3987.321	-7.4
3989.836	-5.4
3992.349	-6.4
3994.86	1.6
3997.369	-4.4
3999.877	-3.4
4002.382	-5.4
4004.886	-6.4
4007.388	-4.4
4009.888	-7.4
4012.386	-2.4
4014.883	-2.4
4017.377	-1.4
4019.87	-2.4
4022.361	0.6
4024.85	-3.4
4027.338	-8.4
4029.823	-3.4
4032.307	-3.4
4034.789	-2.4
4037.269	-3.4
4039.747	-0.4
4042.224	-0.4
4044.699	-2.4
4047.172	-4.4
4049.643	-7.4
4052.112	-3.4
4054.58	-7.4
4057.046	-3.4
4059.51	-3.4
4061.972	2.6
4064.432	-1.4
4066.891	-1.4
4069.348	-1.4
4071.803	-3.4
4074.256	-5.4
4076.708	-3.4
4079.158	0.6
4081.606	-5.4
4084.052	-2.4
4086.497	-2.4
4088.939	2.6
4091.38	1.6
4093.819	-2.4
4096.257	-6.4
4098.693	-4.4
4101.127	-7.4
4103.559	-1.4
4105.989	1.6
4108.418	-0.4
4110.845	-1.4
4113.27	2.6
4115.694	-1.4
4118.115	2.6
4120.535	-7.4
4122.954	-3.4
4125.37	-8.4
4127.785	-7.4
4130.198	-4.4
4132.609	-4.4
4135.019	-2.4
4137.427	-2.4
4139.833	-4.4
4142.237	-5.4
