Data from 0.125_n=4_RamanShift_03.txt Node
Date: Mon Mar 19 12:08:33 IST 2018
User: aro
Spectrometer: QEPB0276
Trigger mode: 0
Integration Time (sec): 5.000000E0
Scans to average: 1
Electric dark correction enabled: true
Nonlinearity correction enabled: false
Boxcar width: 0
XAxis mode: Raman Shifts
Number of Pixels in Spectrum: 1044
>>>>>Begin Spectral Data<<<<<
160.701	-0.1
166.742	-0.1
172.777	1.9
178.805	12.9
184.826	24.9
190.841	49.9
196.849	85.9
202.85	109.9
208.845	112.9
214.833	119.9
220.815	112.9
226.789	113.9
232.758	115.9
238.719	117.9
244.674	119.9
250.623	117.9
256.565	116.9
262.5	116.9
268.429	122.9
274.351	121.9
280.267	120.9
286.176	113.9
292.079	111.9
297.975	115.9
303.865	118.9
309.748	114.9
315.625	118.9
321.495	122.9
327.359	126.9
333.217	131.9
339.068	124.9
344.912	132.9
350.751	119.9
356.583	119.9
362.408	118.9
368.227	122.9
374.04	125.9
379.847	130.9
385.647	141.9
391.44	147.9
397.228	143.9
403.009	152.9
408.784	161.9
414.553	157.9
420.315	165.9
426.071	174.9
431.821	154.9
437.565	137.9
443.302	130.9
449.033	138.9
454.758	128.9
460.477	126.9
466.189	127.9
471.896	116.9
477.596	120.9
483.29	113.9
488.978	120.9
494.66	116.9
500.335	118.9
506.005	106.9
511.668	99.9
517.325	92.9
522.977	88.9
528.622	89.9
534.261	86.9
539.894	83.9
545.521	81.9
551.141	74.9
556.756	78.9
562.365	67.9
567.968	69.9
573.565	68.9
579.155	62.9
584.74	68.9
590.319	68.9
595.892	69.9
601.459	71.9
607.02	71.9
612.575	67.9
618.124	66.9
623.667	65.9
629.204	67.9
634.735	61.9
640.261	63.9
645.781	68.9
651.294	75.9
656.802	72.9
662.304	65.9
667.8	62.9
673.29	58.9
678.775	63.9
684.254	57.9
689.726	58.9
695.193	56.9
700.655	57.9
706.11	60.9
711.56	57.9
717.004	56.9
722.442	54.9
727.874	59.9
733.301	53.9
738.722	58.9
744.137	62.9
749.547	54.9
754.951	60.9
760.349	65.9
765.741	64.9
771.128	60.9
776.509	56.9
781.885	64.9
787.254	62.9
792.618	59.9
797.977	64.9
803.33	77.9
808.677	88.9
814.019	104.9
819.355	102.9
824.686	82.9
830.011	70.9
835.33	75.9
840.644	78.9
845.952	89.9
851.255	86.9
856.552	76.9
861.844	66.9
867.13	65.9
872.41	62.9
877.686	53.9
882.955	50.9
888.219	53.9
893.478	51.9
898.731	52.9
903.979	52.9
909.221	58.9
914.458	51.9
919.69	56.9
924.916	50.9
930.136	48.9
935.351	46.9
940.561	51.9
945.766	52.9
950.965	55.9
956.158	49.9
961.347	54.9
966.529	61.9
971.707	57.9
976.879	66.9
982.046	62.9
987.208	57.9
992.364	51.9
997.515	54.9
1002.66	57.9
1007.801	61.9
1012.936	49.9
1018.066	55.9
1023.19	48.9
1028.309	49.9
1033.423	55.9
1038.532	61.9
1043.636	63.9
1048.734	63.9
1053.827	57.9
1058.915	50.9
1063.998	42.9
1069.075	42.9
1074.147	42.9
1079.214	46.9
1084.276	45.9
1089.333	47.9
1094.385	48.9
1099.431	53.9
1104.472	50.9
1109.509	45.9
1114.54	43.9
1119.565	41.9
1124.586	42.9
1129.602	40.9
1134.613	43.9
1139.618	45.9
1144.619	57.9
1149.614	59.9
1154.604	72.9
1159.589	79.9
1164.57	78.9
1169.545	66.9
1174.515	66.9
1179.48	60.9
1184.44	50.9
1189.395	43.9
1194.345	48.9
1199.29	49.9
1204.23	41.9
1209.165	43.9
1214.095	45.9
1219.021	50.9
1223.941	55.9
1228.856	48.9
1233.766	53.9
1238.672	50.9
1243.572	44.9
1248.467	47.9
1253.358	40.9
1258.244	41.9
1263.124	41.9
1268	35.9
1272.871	41.9
1277.737	39.9
1282.599	41.9
1287.455	45.9
1292.306	44.9
1297.153	42.9
1301.995	44.9
1306.832	47.9
1311.664	41.9
1316.491	44.9
1321.314	50.9
1326.132	64.9
1330.945	71.9
1335.753	77.9
1340.556	71.9
1345.354	58.9
1350.148	49.9
1354.937	45.9
1359.722	48.9
1364.501	49.9
1369.276	51.9
1374.046	44.9
1378.811	47.9
1383.572	32.9
1388.327	40.9
1393.079	38.9
1397.825	35.9
1402.567	38.9
1407.304	34.9
1412.036	30.9
1416.764	26.9
1421.487	33.9
1426.205	29.9
1430.919	37.9
1435.628	45.9
1440.333	54.9
1445.032	60.9
1449.727	59.9
1454.418	71.9
1459.104	84.9
1463.785	86.9
1468.462	83.9
1473.134	63.9
1477.802	44.9
1482.465	39.9
1487.123	39.9
1491.777	35.9
1496.426	36.9
1501.071	34.9
1505.711	33.9
1510.347	31.9
1514.978	29.9
1519.604	29.9
1524.226	26.9
1528.844	31.9
1533.457	31.9
1538.065	33.9
1542.669	34.9
1547.269	30.9
1551.864	31.9
1556.454	27.9
1561.041	27.9
1565.622	22.9
1570.199	25.9
1574.772	27.9
1579.34	27.9
1583.904	31.9
1588.464	30.9
1593.019	27.9
1597.569	27.9
1602.115	29.9
1606.657	23.9
1611.195	30.9
1615.728	26.9
1620.256	29.9
1624.78	29.9
1629.3	27.9
1633.816	29.9
1638.327	29.9
1642.834	25.9
1647.336	23.9
1651.834	24.9
1656.328	21.9
1660.817	27.9
1665.302	26.9
1669.783	26.9
1674.259	27.9
1678.732	27.9
1683.199	26.9
1687.663	23.9
1692.122	23.9
1696.577	21.9
1701.028	24.9
1705.474	22.9
1709.917	28.9
1714.355	20.9
1718.788	24.9
1723.218	19.9
1727.643	16.9
1732.064	20.9
1736.481	22.9
1740.893	16.9
1745.301	24.9
1749.705	20.9
1754.105	20.9
1758.501	17.9
1762.893	15.9
1767.28	19.9
1771.663	19.9
1776.042	15.9
1780.417	18.9
1784.787	17.9
1789.154	17.9
1793.516	17.9
1797.874	20.9
1802.228	18.9
1806.578	18.9
1810.924	20.9
1815.266	17.9
1819.603	16.9
1823.937	19.9
1828.266	14.9
1832.591	11.9
1836.913	11.9
1841.23	16.9
1845.543	19.9
1849.852	16.9
1854.156	13.9
1858.457	16.9
1862.754	18.9
1867.047	15.9
1871.335	16.9
1875.62	14.9
1879.9	17.9
1884.177	17.9
1888.449	11.9
1892.718	15.9
1896.982	18.9
1901.243	19.9
1905.499	17.9
1909.752	14.9
1914	16.9
1918.245	13.9
1922.485	11.9
1926.722	16.9
1930.954	14.9
1935.183	16.9
1939.408	17.9
1943.628	19.9
1947.845	16.9
1952.058	17.9
1956.267	12.9
1960.472	9.9
1964.673	9.9
1968.87	10.9
1973.063	15.9
1977.252	13.9
1981.438	14.9
1985.619	16.9
1989.797	9.9
1993.971	8.9
1998.14	10.9
2002.306	8.9
2006.469	12.9
2010.627	13.9
2014.781	16.9
2018.932	20.9
2023.078	12.9
2027.221	13.9
2031.36	9.9
2035.495	12.9
2039.627	5.9
2043.754	6.9
2047.878	12.9
2051.998	13.9
2056.114	12.9
2060.226	17.9
2064.334	11.9
2068.439	9.9
2072.54	7.9
2076.637	9.9
2080.73	9.9
2084.82	10.9
2088.906	13.9
2092.988	11.9
2097.066	10.9
2101.14	14.9
2105.211	10.9
2109.278	11.9
2113.342	9.9
2117.401	10.9
2121.457	8.9
2125.509	10.9
2129.558	9.9
2133.602	9.9
2137.643	7.9
2141.681	7.9
2145.714	9.9
2149.744	10.9
2153.77	7.9
2157.793	12.9
2161.812	11.9
2165.827	11.9
2169.838	7.9
2173.846	9.9
2177.851	7.9
2181.851	6.9
2185.848	11.9
2189.841	8.9
2193.831	6.9
2197.817	9.9
2201.799	8.9
2205.778	3.9
2209.753	7.9
2213.725	9.9
2217.693	4.9
2221.657	6.9
2225.618	9.9
2229.575	7.9
2233.529	7.9
2237.479	0.9
2241.425	1.9
2245.368	5.9
2249.307	4.9
2253.243	7.9
2257.175	6.9
2261.104	9.9
2265.029	8.9
2268.95	3.9
2272.868	2.9
2276.783	0.9
2280.694	4.9
2284.601	2.9
2288.505	4.9
2292.405	10.9
2296.302	7.9
2300.195	8.9
2304.085	2.9
2307.971	1.9
2311.854	1.9
2315.734	3.9
2319.609	4.9
2323.482	7.9
2327.351	2.9
2331.216	10.9
2335.078	8.9
2338.937	7.9
2342.792	3.9
2346.643	0.9
2350.492	0.9
2354.336	1.9
2358.178	3.9
2362.015	6.9
2365.85	4.9
2369.681	7.9
2373.508	3.9
2377.333	2.9
2381.153	1.9
2384.971	2.9
2388.785	4.9
2392.595	3.9
2396.402	5.9
2400.206	2.9
2404.007	1.9
2407.804	0.9
2411.597	0.9
2415.388	3.9
2419.174	4.9
2422.958	5.9
2426.738	1.9
2430.515	5.9
2434.289	1.9
2438.059	2.9
2441.825	-0.1
2445.589	1.9
2449.349	3.9
2453.106	2.9
2456.859	2.9
2460.61	-0.1
2464.356	5.9
2468.1	1.9
2471.84	0.9
2475.577	3.9
2479.311	1.9
2483.041	0.9
2486.768	4.9
2490.492	1.9
2494.213	5.9
2497.93	2.9
2501.644	3.9
2505.355	1.9
2509.062	-0.1
2512.766	2.9
2516.467	3.9
2520.165	3.9
2523.859	3.9
2527.551	1.9
2531.239	1.9
2534.923	3.9
2538.605	-2.1
2542.283	-1.1
2545.958	1.9
2549.63	3.9
2553.299	4.9
2556.964	5.9
2560.626	0.9
2564.285	-0.1
2567.941	1.9
2571.594	-1.1
2575.243	-2.1
2578.89	2.9
2582.533	0.9
2586.173	1.9
2589.809	4.9
2593.443	4.9
2597.073	3.9
2600.701	-0.1
2604.325	-2.1
2607.946	0.9
2611.564	6.9
2615.178	2.9
2618.79	3.9
2622.398	6.9
2626.004	4.9
2629.606	1.9
2633.205	2.9
2636.801	2.9
2640.394	-2.1
2643.983	-0.1
2647.57	2.9
2651.153	5.9
2654.734	4.9
2658.311	5.9
2661.885	7.9
2665.456	1.9
2669.025	1.9
2672.589	1.9
2676.151	3.9
2679.71	5.9
2683.266	-0.1
2686.819	4.9
2690.368	3.9
2693.915	0.9
2697.458	1.9
2700.999	4.9
2704.536	4.9
2708.071	2.9
2711.602	5.9
2715.13	2.9
2718.656	4.9
2722.178	0.9
2725.697	0.9
2729.214	1.9
2732.727	5.9
2736.237	6.9
2739.744	6.9
2743.249	9.9
2746.75	7.9
2750.248	1.9
2753.743	1.9
2757.236	0.9
2760.725	-2.1
2764.211	-1.1
2767.695	1.9
2771.175	1.9
2774.652	7.9
2778.127	0.9
2781.598	3.9
2785.067	0.9
2788.532	-2.1
2791.995	-0.1
2795.455	-0.1
2798.911	1.9
2802.365	0.9
2805.816	2.9
2809.264	4.9
2812.709	5.9
2816.151	8.9
2819.59	2.9
2823.026	3.9
2826.46	2.9
2829.89	6.9
2833.318	10.9
2836.742	13.9
2840.164	18.9
2843.583	22.9
2846.999	18.9
2850.412	23.9
2853.822	13.9
2857.229	15.9
2860.634	13.9
2864.035	16.9
2867.434	26.9
2870.83	29.9
2874.223	37.9
2877.613	41.9
2881	37.9
2884.385	39.9
2887.766	42.9
2891.145	45.9
2894.521	42.9
2897.894	39.9
2901.264	34.9
2904.631	37.9
2907.996	36.9
2911.358	34.9
2914.717	29.9
2918.073	29.9
2921.426	28.9
2924.777	23.9
2928.124	22.9
2931.469	21.9
2934.811	20.9
2938.15	23.9
2941.487	19.9
2944.821	19.9
2948.152	18.9
2951.48	13.9
2954.805	21.9
2958.128	20.9
2961.447	18.9
2964.765	18.9
2968.079	22.9
2971.39	15.9
2974.699	12.9
2978.005	9.9
2981.308	10.9
2984.609	6.9
2987.907	7.9
2991.202	6.9
2994.494	4.9
2997.784	4.9
3001.07	3.9
3004.355	1.9
3007.636	1.9
3010.915	3.9
3014.191	3.9
3017.464	4.9
3020.734	6.9
3024.002	5.9
3027.267	3.9
3030.53	2.9
3033.789	3.9
3037.046	-0.1
3040.301	-1.1
3043.552	0.9
3046.801	5.9
3050.048	3.9
3053.291	6.9
3056.532	4.9
3059.771	5.9
3063.006	-0.1
3066.239	-0.1
3069.469	1.9
3072.697	-0.1
3075.922	1.9
3079.144	3.9
3082.364	2.9
3085.581	4.9
3088.795	5.9
3092.007	4.9
3095.216	4.9
3098.423	0.9
3101.627	-1.1
3104.828	-0.1
3108.026	1.9
3111.222	3.9
3114.416	4.9
3117.607	8.9
3120.795	5.9
3123.98	6.9
3127.163	3.9
3130.344	1.9
3133.521	2.9
3136.696	2.9
3139.869	5.9
3143.039	5.9
3146.206	8.9
3149.371	6.9
3152.533	8.9
3155.693	7.9
3158.85	3.9
3162.005	3.9
3165.157	2.9
3168.306	-0.1
3171.453	3.9
3174.597	7.9
3177.739	3.9
3180.878	5.9
3184.014	6.9
3187.149	1.9
3190.28	1.9
3193.409	3.9
3196.536	3.9
3199.659	5.9
3202.781	5.9
3205.9	6.9
3209.016	6.9
3212.13	6.9
3215.241	9.9
3218.35	11.9
3221.456	4.9
3224.56	4.9
3227.661	5.9
3230.76	4.9
3233.856	5.9
3236.95	7.9
3240.041	3.9
3243.13	3.9
3246.216	4.9
3249.3	4.9
3252.382	3.9
3255.46	6.9
3258.537	3.9
3261.611	6.9
3264.682	3.9
3267.751	2.9
3270.818	3.9
3273.882	5.9
3276.943	6.9
3280.002	3.9
3283.059	3.9
3286.113	4.9
3289.165	0.9
3292.214	-1.1
3295.261	1.9
3298.306	3.9
3301.348	-0.1
3304.387	4.9
3307.425	6.9
3310.459	1.9
3313.492	1.9
3316.521	3.9
3319.549	0.9
3322.574	0.9
3325.597	-0.1
3328.617	-0.1
3331.635	3.9
3334.65	2.9
3337.663	5.9
3340.674	7.9
3343.682	2.9
3346.688	3.9
3349.691	1.9
3352.692	-0.1
3355.691	-2.1
3358.687	-1.1
3361.681	2.9
3364.673	7.9
3367.662	2.9
3370.649	6.9
3373.633	2.9
3376.615	1.9
3379.595	-2.1
3382.572	-0.1
3385.547	-2.1
3388.52	0.9
3391.49	5.9
3394.458	2.9
3397.424	1.9
3400.387	3.9
3403.348	-0.1
3406.307	-1.1
3409.263	2.9
3412.217	-3.1
3415.168	-1.1
3418.118	2.9
3421.065	7.9
3424.009	4.9
3426.951	1.9
3429.891	0.9
3432.829	-1.1
3435.764	1.9
3438.697	-4.1
3441.628	-2.1
3444.557	1.9
3447.483	1.9
3450.407	4.9
3453.328	3.9
3456.247	-3.1
3459.164	-2.1
3462.079	-0.1
3464.991	-1.1
3467.902	-4.1
3470.809	0.9
3473.715	3.9
3476.618	0.9
3479.519	-2.1
3482.418	0.9
3485.315	-1.1
3488.209	-2.1
3491.101	-0.1
3493.99	-7.1
3496.878	-2.1
3499.763	-1.1
3502.646	3.9
3505.527	-0.1
3508.405	2.9
3511.281	0.9
3514.155	-1.1
3517.027	-1.1
3519.897	-2.1
3522.764	-2.1
3525.629	-4.1
3528.492	-1.1
3531.352	-0.1
3534.211	-2.1
3537.067	-6.1
3539.921	-3.1
3542.773	-1.1
3545.622	1.9
3548.469	-3.1
3551.315	-2.1
3554.157	-0.1
3556.998	1.9
3559.837	-4.1
3562.673	-5.1
3565.507	-1.1
3568.339	-2.1
3571.169	-0.1
3573.996	-1.1
3576.822	-6.1
3579.645	-4.1
3582.466	-1.1
3585.285	-1.1
3588.101	-5.1
3590.916	-0.1
3593.728	-0.1
3596.538	-0.1
3599.346	-3.1
3602.152	-1.1
3604.956	-8.1
3607.757	-5.1
3610.556	-3.1
3613.354	-0.1
3616.149	-2.1
3618.942	0.9
3621.732	0.9
3624.521	-0.1
3627.307	-6.1
3630.092	-5.1
3632.874	-4.1
3635.654	-5.1
3638.432	-7.1
3641.208	-0.1
3643.982	-0.1
3646.753	-0.1
3649.523	-7.1
3652.29	-6.1
3655.055	-9.1
3657.818	-4.1
3660.579	-2.1
3663.338	-5.1
3666.095	-1.1
3668.849	-1.1
3671.602	-1.1
3674.352	-1.1
3677.101	-5.1
3679.847	-9.1
3682.591	-4.1
3685.333	-5.1
3688.073	-4.1
3690.811	-2.1
3693.547	1.9
3696.281	-3.1
3699.013	-0.1
3701.742	-3.1
3704.47	-5.1
3707.195	-5.1
3709.919	-5.1
3712.64	-5.1
3715.359	-0.1
3718.076	-3.1
3720.792	-1.1
3723.505	-2.1
3726.216	-3.1
3728.925	-1.1
3731.632	-5.1
3734.336	-8.1
3737.039	-2.1
3739.74	-6.1
3742.439	-3.1
3745.136	-3.1
3747.83	-4.1
3750.523	0.9
3753.213	-5.1
3755.902	-0.1
3758.589	-3.1
3761.273	-6.1
3763.956	-5.1
3766.636	-6.1
3769.315	-6.1
3771.991	-3.1
3774.665	-2.1
3777.338	-1.1
3780.008	-1.1
3782.677	-2.1
3785.343	-4.1
3788.007	-4.1
3790.67	-4.1
3793.33	-6.1
3795.989	-2.1
3798.645	-2.1
3801.299	-1.1
3803.952	-7.1
3806.602	-1.1
3809.251	-1.1
3811.897	-3.1
3814.542	-4.1
3817.184	-7.1
3819.825	-9.1
3822.463	-6.1
3825.1	-1.1
3827.735	-1.1
3830.367	-0.1
3832.998	-2.1
3835.627	-1.1
3838.253	-2.1
3840.878	-7.1
3843.501	-5.1
3846.122	-3.1
3848.741	-4.1
3851.358	-2.1
3853.973	0.9
3856.586	-3.1
3859.197	-1.1
3861.806	-6.1
3864.414	-6.1
3867.019	-5.1
3869.622	-5.1
3872.224	-4.1
3874.823	-2.1
3877.421	-0.1
3880.016	-0.1
3882.61	0.9
3885.202	4.9
3887.792	-1.1
3890.38	-3.1
3892.966	-4.1
3895.55	-3.1
3898.132	-2.1
3900.713	-0.1
3903.291	-1.1
3905.868	-1.1
3908.442	-2.1
3911.015	-5.1
3913.586	-5.1
3916.155	-2.1
3918.722	-6.1
3921.287	-4.1
3923.85	-2.1
3926.411	-4.1
3928.971	-4.1
3931.528	-0.1
3934.084	-3.1
3936.638	-0.1
3939.19	-5.1
3941.74	-2.1
3944.288	-6.1
3946.834	-2.1
3949.378	-1.1
3951.921	-6.1
3954.462	-6.1
3957	-4.1
3959.537	-2.1
3962.072	-1.1
3964.606	-1.1
3967.137	-2.1
3969.667	0.9
3972.194	-4.1
3974.72	-4.1
3977.244	-5.1
3979.766	-7.1
3982.286	-7.1
3984.805	-2.1
3987.321	-2.1
3989.836	-3.1
3992.349	1.9
3994.86	0.9
3997.369	-3.1
3999.877	-5.1
4002.382	-4.1
4004.886	-6.1
4007.388	-1.1
4009.888	-8.1
4012.386	-3.1
4014.883	-6.1
4017.377	-1.1
4019.87	-2.1
4022.361	-3.1
4024.85	-5.1
4027.338	-5.1
4029.823	-4.1
4032.307	-4.1
4034.789	-4.1
4037.269	-5.1
4039.747	-1.1
4042.224	1.9
4044.699	-3.1
4047.172	-2.1
4049.643	-5.1
4052.112	-6.1
4054.58	-6.1
4057.046	-4.1
4059.51	-5.1
4061.972	-1.1
4064.432	-1.1
4066.891	-4.1
4069.348	1.9
4071.803	-6.1
4074.256	-7.1
4076.708	-2.1
4079.158	-4.1
4081.606	-6.1
4084.052	-3.1
4086.497	-0.1
4088.939	-0.1
4091.38	-1.1
4093.819	-4.1
4096.257	-4.1
4098.693	-6.1
4101.127	-4.1
4103.559	-2.1
4105.989	2.9
4108.418	0.9
4110.845	2.9
4113.27	3.9
4115.694	1.9
4118.115	3.9
4120.535	-2.1
4122.954	-5.1
4125.37	-7.1
4127.785	-6.1
4130.198	-1.1
4132.609	-2.1
4135.019	0.9
4137.427	-4.1
4139.833	-4.1
4142.237	-7.1
