Data from 0.125_n=3_RamanShift_03.txt Node
Date: Mon Mar 19 12:07:38 IST 2018
User: aro
Spectrometer: QEPB0276
Trigger mode: 0
Integration Time (sec): 5.000000E0
Scans to average: 1
Electric dark correction enabled: true
Nonlinearity correction enabled: false
Boxcar width: 0
XAxis mode: Raman Shifts
Number of Pixels in Spectrum: 1044
>>>>>Begin Spectral Data<<<<<
160.701	-0.1
166.742	-0.1
172.777	-0.1
178.805	12.9
184.826	26.9
190.841	54.9
196.849	87.9
202.85	107.9
208.845	116.9
214.833	117.9
220.815	114.9
226.789	125.9
232.758	118.9
238.719	115.9
244.674	118.9
250.623	124.9
256.565	127.9
262.5	119.9
268.429	123.9
274.351	119.9
280.267	119.9
286.176	117.9
292.079	115.9
297.975	115.9
303.865	119.9
309.748	120.9
315.625	123.9
321.495	126.9
327.359	126.9
333.217	123.9
339.068	125.9
344.912	125.9
350.751	120.9
356.583	128.9
362.408	123.9
368.227	123.9
374.04	128.9
379.847	131.9
385.647	145.9
391.44	133.9
397.228	140.9
403.009	149.9
408.784	155.9
414.553	157.9
420.315	165.9
426.071	168.9
431.821	152.9
437.565	142.9
443.302	132.9
449.033	134.9
454.758	133.9
460.477	127.9
466.189	131.9
471.896	124.9
477.596	119.9
483.29	121.9
488.978	116.9
494.66	115.9
500.335	115.9
506.005	105.9
511.668	100.9
517.325	94.9
522.977	85.9
528.622	91.9
534.261	85.9
539.894	81.9
545.521	83.9
551.141	79.9
556.756	81.9
562.365	70.9
567.968	72.9
573.565	71.9
579.155	73.9
584.74	69.9
590.319	68.9
595.892	76.9
601.459	67.9
607.02	70.9
612.575	66.9
618.124	70.9
623.667	66.9
629.204	62.9
634.735	62.9
640.261	65.9
645.781	65.9
651.294	75.9
656.802	76.9
662.304	66.9
667.8	64.9
673.29	62.9
678.775	58.9
684.254	56.9
689.726	54.9
695.193	58.9
700.655	57.9
706.11	58.9
711.56	59.9
717.004	57.9
722.442	59.9
727.874	57.9
733.301	47.9
738.722	57.9
744.137	55.9
749.547	56.9
754.951	63.9
760.349	61.9
765.741	61.9
771.128	62.9
776.509	61.9
781.885	61.9
787.254	63.9
792.618	58.9
797.977	64.9
803.33	73.9
808.677	92.9
814.019	102.9
819.355	108.9
824.686	77.9
830.011	73.9
835.33	74.9
840.644	81.9
845.952	87.9
851.255	89.9
856.552	74.9
861.844	65.9
867.13	63.9
872.41	65.9
877.686	56.9
882.955	47.9
888.219	51.9
893.478	52.9
898.731	51.9
903.979	50.9
909.221	61.9
914.458	54.9
919.69	52.9
924.916	52.9
930.136	50.9
935.351	51.9
940.561	49.9
945.766	54.9
950.965	51.9
956.158	49.9
961.347	50.9
966.529	55.9
971.707	56.9
976.879	64.9
982.046	65.9
987.208	56.9
992.364	51.9
997.515	51.9
1002.66	59.9
1007.801	61.9
1012.936	55.9
1018.066	55.9
1023.19	51.9
1028.309	45.9
1033.423	51.9
1038.532	57.9
1043.636	63.9
1048.734	61.9
1053.827	54.9
1058.915	48.9
1063.998	48.9
1069.075	49.9
1074.147	44.9
1079.214	44.9
1084.276	47.9
1089.333	50.9
1094.385	45.9
1099.431	49.9
1104.472	50.9
1109.509	47.9
1114.54	47.9
1119.565	43.9
1124.586	46.9
1129.602	42.9
1134.613	44.9
1139.618	44.9
1144.619	51.9
1149.614	59.9
1154.604	71.9
1159.589	80.9
1164.57	80.9
1169.545	71.9
1174.515	66.9
1179.48	62.9
1184.44	55.9
1189.395	44.9
1194.345	44.9
1199.29	43.9
1204.23	42.9
1209.165	43.9
1214.095	48.9
1219.021	52.9
1223.941	62.9
1228.856	56.9
1233.766	50.9
1238.672	47.9
1243.572	44.9
1248.467	43.9
1253.358	43.9
1258.244	43.9
1263.124	44.9
1268	40.9
1272.871	40.9
1277.737	41.9
1282.599	36.9
1287.455	39.9
1292.306	41.9
1297.153	38.9
1301.995	47.9
1306.832	45.9
1311.664	46.9
1316.491	45.9
1321.314	51.9
1326.132	59.9
1330.945	69.9
1335.753	77.9
1340.556	71.9
1345.354	54.9
1350.148	51.9
1354.937	44.9
1359.722	49.9
1364.501	51.9
1369.276	57.9
1374.046	48.9
1378.811	42.9
1383.572	36.9
1388.327	37.9
1393.079	38.9
1397.825	37.9
1402.567	36.9
1407.304	35.9
1412.036	36.9
1416.764	32.9
1421.487	30.9
1426.205	34.9
1430.919	33.9
1435.628	40.9
1440.333	51.9
1445.032	61.9
1449.727	60.9
1454.418	70.9
1459.104	81.9
1463.785	89.9
1468.462	76.9
1473.134	66.9
1477.802	52.9
1482.465	37.9
1487.123	41.9
1491.777	32.9
1496.426	35.9
1501.071	34.9
1505.711	31.9
1510.347	29.9
1514.978	28.9
1519.604	28.9
1524.226	24.9
1528.844	30.9
1533.457	33.9
1538.065	32.9
1542.669	29.9
1547.269	29.9
1551.864	27.9
1556.454	27.9
1561.041	19.9
1565.622	23.9
1570.199	24.9
1574.772	29.9
1579.34	29.9
1583.904	31.9
1588.464	30.9
1593.019	27.9
1597.569	27.9
1602.115	28.9
1606.657	24.9
1611.195	27.9
1615.728	25.9
1620.256	31.9
1624.78	31.9
1629.3	29.9
1633.816	26.9
1638.327	30.9
1642.834	23.9
1647.336	27.9
1651.834	19.9
1656.328	26.9
1660.817	24.9
1665.302	28.9
1669.783	25.9
1674.259	26.9
1678.732	25.9
1683.199	24.9
1687.663	24.9
1692.122	21.9
1696.577	22.9
1701.028	25.9
1705.474	19.9
1709.917	24.9
1714.355	23.9
1718.788	26.9
1723.218	22.9
1727.643	19.9
1732.064	23.9
1736.481	19.9
1740.893	15.9
1745.301	23.9
1749.705	20.9
1754.105	20.9
1758.501	17.9
1762.893	18.9
1767.28	18.9
1771.663	19.9
1776.042	13.9
1780.417	20.9
1784.787	20.9
1789.154	16.9
1793.516	18.9
1797.874	16.9
1802.228	16.9
1806.578	13.9
1810.924	16.9
1815.266	18.9
1819.603	17.9
1823.937	18.9
1828.266	17.9
1832.591	18.9
1836.913	14.9
1841.23	11.9
1845.543	12.9
1849.852	11.9
1854.156	13.9
1858.457	16.9
1862.754	21.9
1867.047	16.9
1871.335	19.9
1875.62	19.9
1879.9	16.9
1884.177	16.9
1888.449	11.9
1892.718	15.9
1896.982	12.9
1901.243	18.9
1905.499	17.9
1909.752	17.9
1914	14.9
1918.245	10.9
1922.485	11.9
1926.722	14.9
1930.954	10.9
1935.183	13.9
1939.408	15.9
1943.628	15.9
1947.845	15.9
1952.058	21.9
1956.267	11.9
1960.472	8.9
1964.673	11.9
1968.87	8.9
1973.063	11.9
1977.252	13.9
1981.438	10.9
1985.619	14.9
1989.797	13.9
1993.971	9.9
1998.14	9.9
2002.306	8.9
2006.469	12.9
2010.627	14.9
2014.781	11.9
2018.932	13.9
2023.078	11.9
2027.221	14.9
2031.36	10.9
2035.495	11.9
2039.627	11.9
2043.754	9.9
2047.878	15.9
2051.998	9.9
2056.114	8.9
2060.226	12.9
2064.334	8.9
2068.439	10.9
2072.54	6.9
2076.637	13.9
2080.73	9.9
2084.82	14.9
2088.906	11.9
2092.988	9.9
2097.066	9.9
2101.14	13.9
2105.211	10.9
2109.278	10.9
2113.342	10.9
2117.401	11.9
2121.457	11.9
2125.509	16.9
2129.558	11.9
2133.602	11.9
2137.643	4.9
2141.681	7.9
2145.714	8.9
2149.744	7.9
2153.77	7.9
2157.793	14.9
2161.812	13.9
2165.827	11.9
2169.838	9.9
2173.846	7.9
2177.851	6.9
2181.851	6.9
2185.848	6.9
2189.841	8.9
2193.831	4.9
2197.817	10.9
2201.799	8.9
2205.778	9.9
2209.753	5.9
2213.725	6.9
2217.693	3.9
2221.657	5.9
2225.618	7.9
2229.575	9.9
2233.529	5.9
2237.479	6.9
2241.425	5.9
2245.368	8.9
2249.307	2.9
2253.243	9.9
2257.175	8.9
2261.104	9.9
2265.029	4.9
2268.95	2.9
2272.868	2.9
2276.783	4.9
2280.694	7.9
2284.601	6.9
2288.505	6.9
2292.405	8.9
2296.302	5.9
2300.195	10.9
2304.085	2.9
2307.971	3.9
2311.854	0.9
2315.734	5.9
2319.609	5.9
2323.482	7.9
2327.351	2.9
2331.216	11.9
2335.078	8.9
2338.937	3.9
2342.792	2.9
2346.643	-1.1
2350.492	2.9
2354.336	3.9
2358.178	5.9
2362.015	9.9
2365.85	4.9
2369.681	6.9
2373.508	3.9
2377.333	0.9
2381.153	0.9
2384.971	3.9
2388.785	3.9
2392.595	4.9
2396.402	5.9
2400.206	6.9
2404.007	3.9
2407.804	4.9
2411.597	4.9
2415.388	-0.1
2419.174	3.9
2422.958	6.9
2426.738	-2.1
2430.515	5.9
2434.289	5.9
2438.059	4.9
2441.825	-0.1
2445.589	1.9
2449.349	3.9
2453.106	6.9
2456.859	0.9
2460.61	3.9
2464.356	4.9
2468.1	3.9
2471.84	4.9
2475.577	3.9
2479.311	0.9
2483.041	5.9
2486.768	2.9
2490.492	1.9
2494.213	4.9
2497.93	0.9
2501.644	2.9
2505.355	3.9
2509.062	1.9
2512.766	3.9
2516.467	1.9
2520.165	2.9
2523.859	1.9
2527.551	-0.1
2531.239	2.9
2534.923	0.9
2538.605	-1.1
2542.283	-2.1
2545.958	4.9
2549.63	2.9
2553.299	3.9
2556.964	6.9
2560.626	6.9
2564.285	-0.1
2567.941	0.9
2571.594	-3.1
2575.243	-2.1
2578.89	2.9
2582.533	3.9
2586.173	4.9
2589.809	5.9
2593.443	6.9
2597.073	3.9
2600.701	-1.1
2604.325	-1.1
2607.946	0.9
2611.564	5.9
2615.178	7.9
2618.79	6.9
2622.398	3.9
2626.004	3.9
2629.606	3.9
2633.205	1.9
2636.801	-1.1
2640.394	-1.1
2643.983	0.9
2647.57	3.9
2651.153	6.9
2654.734	5.9
2658.311	4.9
2661.885	4.9
2665.456	2.9
2669.025	3.9
2672.589	2.9
2676.151	2.9
2679.71	7.9
2683.266	0.9
2686.819	8.9
2690.368	5.9
2693.915	1.9
2697.458	1.9
2700.999	5.9
2704.536	2.9
2708.071	4.9
2711.602	1.9
2715.13	4.9
2718.656	1.9
2722.178	1.9
2725.697	6.9
2729.214	5.9
2732.727	4.9
2736.237	5.9
2739.744	5.9
2743.249	5.9
2746.75	3.9
2750.248	3.9
2753.743	5.9
2757.236	4.9
2760.725	0.9
2764.211	2.9
2767.695	6.9
2771.175	4.9
2774.652	0.9
2778.127	1.9
2781.598	4.9
2785.067	0.9
2788.532	1.9
2791.995	2.9
2795.455	1.9
2798.911	1.9
2802.365	2.9
2805.816	2.9
2809.264	2.9
2812.709	3.9
2816.151	5.9
2819.59	2.9
2823.026	5.9
2826.46	4.9
2829.89	10.9
2833.318	11.9
2836.742	13.9
2840.164	21.9
2843.583	17.9
2846.999	18.9
2850.412	21.9
2853.822	16.9
2857.229	16.9
2860.634	17.9
2864.035	23.9
2867.434	26.9
2870.83	29.9
2874.223	30.9
2877.613	37.9
2881	34.9
2884.385	38.9
2887.766	43.9
2891.145	44.9
2894.521	41.9
2897.894	34.9
2901.264	38.9
2904.631	33.9
2907.996	33.9
2911.358	32.9
2914.717	29.9
2918.073	27.9
2921.426	26.9
2924.777	25.9
2928.124	24.9
2931.469	24.9
2934.811	23.9
2938.15	20.9
2941.487	18.9
2944.821	15.9
2948.152	14.9
2951.48	16.9
2954.805	21.9
2958.128	24.9
2961.447	23.9
2964.765	20.9
2968.079	22.9
2971.39	16.9
2974.699	11.9
2978.005	6.9
2981.308	9.9
2984.609	4.9
2987.907	5.9
2991.202	9.9
2994.494	7.9
2997.784	11.9
3001.07	5.9
3004.355	-0.1
3007.636	4.9
3010.915	4.9
3014.191	6.9
3017.464	2.9
3020.734	8.9
3024.002	4.9
3027.267	5.9
3030.53	2.9
3033.789	4.9
3037.046	-1.1
3040.301	0.9
3043.552	-0.1
3046.801	5.9
3050.048	5.9
3053.291	5.9
3056.532	5.9
3059.771	8.9
3063.006	3.9
3066.239	-1.1
3069.469	3.9
3072.697	2.9
3075.922	2.9
3079.144	2.9
3082.364	8.9
3085.581	6.9
3088.795	9.9
3092.007	4.9
3095.216	1.9
3098.423	3.9
3101.627	-0.1
3104.828	7.9
3108.026	4.9
3111.222	4.9
3114.416	6.9
3117.607	9.9
3120.795	5.9
3123.98	6.9
3127.163	4.9
3130.344	0.9
3133.521	4.9
3136.696	7.9
3139.869	8.9
3143.039	9.9
3146.206	9.9
3149.371	9.9
3152.533	9.9
3155.693	7.9
3158.85	5.9
3162.005	3.9
3165.157	2.9
3168.306	1.9
3171.453	5.9
3174.597	12.9
3177.739	8.9
3180.878	8.9
3184.014	7.9
3187.149	4.9
3190.28	3.9
3193.409	5.9
3196.536	0.9
3199.659	6.9
3202.781	8.9
3205.9	10.9
3209.016	6.9
3212.13	10.9
3215.241	8.9
3218.35	9.9
3221.456	3.9
3224.56	3.9
3227.661	6.9
3230.76	8.9
3233.856	6.9
3236.95	9.9
3240.041	6.9
3243.13	5.9
3246.216	6.9
3249.3	4.9
3252.382	6.9
3255.46	9.9
3258.537	4.9
3261.611	10.9
3264.682	6.9
3267.751	5.9
3270.818	1.9
3273.882	5.9
3276.943	5.9
3280.002	5.9
3283.059	4.9
3286.113	5.9
3289.165	0.9
3292.214	3.9
3295.261	1.9
3298.306	1.9
3301.348	3.9
3304.387	3.9
3307.425	7.9
3310.459	10.9
3313.492	6.9
3316.521	8.9
3319.549	5.9
3322.574	3.9
3325.597	3.9
3328.617	0.9
3331.635	1.9
3334.65	0.9
3337.663	5.9
3340.674	7.9
3343.682	5.9
3346.688	5.9
3349.691	4.9
3352.692	2.9
3355.691	-0.1
3358.687	-4.1
3361.681	0.9
3364.673	7.9
3367.662	0.9
3370.649	8.9
3373.633	7.9
3376.615	8.9
3379.595	-0.1
3382.572	6.9
3385.547	1.9
3388.52	1.9
3391.49	3.9
3394.458	5.9
3397.424	5.9
3400.387	7.9
3403.348	5.9
3406.307	2.9
3409.263	2.9
3412.217	1.9
3415.168	-0.1
3418.118	0.9
3421.065	6.9
3424.009	1.9
3426.951	5.9
3429.891	7.9
3432.829	1.9
3435.764	4.9
3438.697	-2.1
3441.628	0.9
3444.557	2.9
3447.483	2.9
3450.407	3.9
3453.328	3.9
3456.247	-0.1
3459.164	2.9
3462.079	4.9
3464.991	4.9
3467.902	-0.1
3470.809	2.9
3473.715	-1.1
3476.618	-0.1
3479.519	-2.1
3482.418	2.9
3485.315	2.9
3488.209	1.9
3491.101	1.9
3493.99	2.9
3496.878	0.9
3499.763	2.9
3502.646	0.9
3505.527	-0.1
3508.405	-2.1
3511.281	-3.1
3514.155	-2.1
3517.027	1.9
3519.897	0.9
3522.764	0.9
3525.629	0.9
3528.492	0.9
3531.352	-2.1
3534.211	-2.1
3537.067	-7.1
3539.921	-5.1
3542.773	-2.1
3545.622	3.9
3548.469	-0.1
3551.315	3.9
3554.157	-0.1
3556.998	0.9
3559.837	-4.1
3562.673	-2.1
3565.507	-3.1
3568.339	-0.1
3571.169	-1.1
3573.996	0.9
3576.822	0.9
3579.645	-1.1
3582.466	-0.1
3585.285	2.9
3588.101	-2.1
3590.916	-1.1
3593.728	-3.1
3596.538	-2.1
3599.346	-1.1
3602.152	-2.1
3604.956	-3.1
3607.757	-0.1
3610.556	1.9
3613.354	-0.1
3616.149	-0.1
3618.942	-0.1
3621.732	-0.1
3624.521	-0.1
3627.307	-3.1
3630.092	-2.1
3632.874	-5.1
3635.654	-0.1
3638.432	-3.1
3641.208	0.9
3643.982	-2.1
3646.753	2.9
3649.523	-3.1
3652.29	-0.1
3655.055	-3.1
3657.818	-4.1
3660.579	-0.1
3663.338	-0.1
3666.095	-2.1
3668.849	0.9
3671.602	-0.1
3674.352	0.9
3677.101	-4.1
3679.847	-5.1
3682.591	-2.1
3685.333	-2.1
3688.073	-2.1
3690.811	0.9
3693.547	0.9
3696.281	-0.1
3699.013	-3.1
3701.742	-3.1
3704.47	-6.1
3707.195	-5.1
3709.919	-7.1
3712.64	-4.1
3715.359	0.9
3718.076	-0.1
3720.792	0.9
3723.505	1.9
3726.216	-3.1
3728.925	-3.1
3731.632	-5.1
3734.336	-4.1
3737.039	-4.1
3739.74	-2.1
3742.439	1.9
3745.136	0.9
3747.83	-1.1
3750.523	0.9
3753.213	-2.1
3755.902	-1.1
3758.589	-3.1
3761.273	-2.1
3763.956	-3.1
3766.636	-3.1
3769.315	-3.1
3771.991	-3.1
3774.665	-0.1
3777.338	0.9
3780.008	0.9
3782.677	-5.1
3785.343	-3.1
3788.007	-4.1
3790.67	-4.1
3793.33	-2.1
3795.989	-4.1
3798.645	-2.1
3801.299	-1.1
3803.952	0.9
3806.602	-0.1
3809.251	-0.1
3811.897	-3.1
3814.542	-4.1
3817.184	-5.1
3819.825	-5.1
3822.463	-4.1
3825.1	-0.1
3827.735	-4.1
3830.367	1.9
3832.998	-1.1
3835.627	1.9
3838.253	1.9
3840.878	-4.1
3843.501	-4.1
3846.122	-3.1
3848.741	-3.1
3851.358	0.9
3853.973	-0.1
3856.586	-3.1
3859.197	-2.1
3861.806	-4.1
3864.414	-7.1
3867.019	-4.1
3869.622	-6.1
3872.224	-3.1
3874.823	-0.1
3877.421	3.9
3880.016	-1.1
3882.61	-0.1
3885.202	4.9
3887.792	-2.1
3890.38	-4.1
3892.966	-4.1
3895.55	-4.1
3898.132	-2.1
3900.713	-0.1
3903.291	0.9
3905.868	-1.1
3908.442	-0.1
3911.015	-5.1
3913.586	-4.1
3916.155	-2.1
3918.722	-3.1
3921.287	-4.1
3923.85	0.9
3926.411	-1.1
3928.971	-3.1
3931.528	-3.1
3934.084	-5.1
3936.638	-3.1
3939.19	-5.1
3941.74	-3.1
3944.288	-2.1
3946.834	0.9
3949.378	3.9
3951.921	0.9
3954.462	-2.1
3957	-4.1
3959.537	0.9
3962.072	-1.1
3964.606	-3.1
3967.137	-4.1
3969.667	0.9
3972.194	-2.1
3974.72	-2.1
3977.244	-1.1
3979.766	-1.1
3982.286	-4.1
3984.805	-1.1
3987.321	-1.1
3989.836	-5.1
3992.349	-0.1
3994.86	1.9
3997.369	-4.1
3999.877	-2.1
4002.382	-3.1
4004.886	-3.1
4007.388	-1.1
4009.888	-5.1
4012.386	-3.1
4014.883	-5.1
4017.377	-1.1
4019.87	-0.1
4022.361	0.9
4024.85	-2.1
4027.338	-0.1
4029.823	-2.1
4032.307	-2.1
4034.789	-2.1
4037.269	-3.1
4039.747	-1.1
4042.224	-3.1
4044.699	-5.1
4047.172	-0.1
4049.643	-5.1
4052.112	-3.1
4054.58	-1.1
4057.046	-4.1
4059.51	-4.1
4061.972	-3.1
4064.432	-2.1
4066.891	-3.1
4069.348	-1.1
4071.803	-4.1
4074.256	-4.1
4076.708	-0.1
4079.158	0.9
4081.606	-3.1
4084.052	-2.1
4086.497	-2.1
4088.939	-1.1
4091.38	0.9
4093.819	-1.1
4096.257	-2.1
4098.693	-1.1
4101.127	-4.1
4103.559	-3.1
4105.989	4.9
4108.418	0.9
4110.845	3.9
4113.27	0.9
4115.694	0.9
4118.115	1.9
4120.535	-2.1
4122.954	-2.1
4125.37	-5.1
4127.785	-5.1
4130.198	-2.1
4132.609	-4.1
4135.019	-4.1
4137.427	-1.1
4139.833	-4.1
4142.237	-3.1
