Data from 0.25_n=3_RamanShift_02.txt Node
Date: Mon Mar 19 12:12:23 IST 2018
User: aro
Spectrometer: QEPB0276
Trigger mode: 0
Integration Time (sec): 5.000000E0
Scans to average: 1
Electric dark correction enabled: true
Nonlinearity correction enabled: false
Boxcar width: 0
XAxis mode: Raman Shifts
Number of Pixels in Spectrum: 1044
>>>>>Begin Spectral Data<<<<<
160.701	-0.8
166.742	-0.8
172.777	2.2
178.805	11.2
184.826	25.2
190.841	45.2
196.849	72.2
202.85	88.2
208.845	91.2
214.833	91.2
220.815	93.2
226.789	94.2
232.758	92.2
238.719	101.2
244.674	98.2
250.623	97.2
256.565	99.2
262.5	98.2
268.429	94.2
274.351	97.2
280.267	98.2
286.176	97.2
292.079	95.2
297.975	99.2
303.865	98.2
309.748	101.2
315.625	102.2
321.495	105.2
327.359	108.2
333.217	107.2
339.068	106.2
344.912	104.2
350.751	102.2
356.583	101.2
362.408	102.2
368.227	105.2
374.04	105.2
379.847	111.2
385.647	119.2
391.44	123.2
397.228	120.2
403.009	127.2
408.784	127.2
414.553	135.2
420.315	146.2
426.071	147.2
431.821	133.2
437.565	112.2
443.302	109.2
449.033	106.2
454.758	109.2
460.477	106.2
466.189	104.2
471.896	101.2
477.596	104.2
483.29	98.2
488.978	99.2
494.66	100.2
500.335	97.2
506.005	85.2
511.668	77.2
517.325	73.2
522.977	70.2
528.622	69.2
534.261	67.2
539.894	62.2
545.521	63.2
551.141	58.2
556.756	59.2
562.365	53.2
567.968	55.2
573.565	56.2
579.155	49.2
584.74	58.2
590.319	51.2
595.892	54.2
601.459	54.2
607.02	56.2
612.575	54.2
618.124	51.2
623.667	52.2
629.204	46.2
634.735	50.2
640.261	51.2
645.781	52.2
651.294	65.2
656.802	57.2
662.304	50.2
667.8	44.2
673.29	43.2
678.775	45.2
684.254	43.2
689.726	40.2
695.193	44.2
700.655	45.2
706.11	48.2
711.56	46.2
717.004	42.2
722.442	43.2
727.874	42.2
733.301	40.2
738.722	45.2
744.137	45.2
749.547	46.2
754.951	48.2
760.349	52.2
765.741	46.2
771.128	46.2
776.509	44.2
781.885	50.2
787.254	48.2
792.618	49.2
797.977	52.2
803.33	61.2
808.677	74.2
814.019	79.2
819.355	75.2
824.686	58.2
830.011	53.2
835.33	55.2
840.644	60.2
845.952	68.2
851.255	67.2
856.552	55.2
861.844	50.2
867.13	46.2
872.41	44.2
877.686	41.2
882.955	36.2
888.219	34.2
893.478	38.2
898.731	41.2
903.979	39.2
909.221	47.2
914.458	42.2
919.69	43.2
924.916	40.2
930.136	35.2
935.351	34.2
940.561	38.2
945.766	40.2
950.965	39.2
956.158	40.2
961.347	42.2
966.529	45.2
971.707	42.2
976.879	45.2
982.046	47.2
987.208	41.2
992.364	39.2
997.515	41.2
1002.66	41.2
1007.801	49.2
1012.936	41.2
1018.066	38.2
1023.19	36.2
1028.309	38.2
1033.423	39.2
1038.532	45.2
1043.636	44.2
1048.734	46.2
1053.827	40.2
1058.915	33.2
1063.998	32.2
1069.075	36.2
1074.147	32.2
1079.214	34.2
1084.276	37.2
1089.333	41.2
1094.385	37.2
1099.431	37.2
1104.472	31.2
1109.509	32.2
1114.54	35.2
1119.565	34.2
1124.586	37.2
1129.602	32.2
1134.613	35.2
1139.618	38.2
1144.619	38.2
1149.614	45.2
1154.604	46.2
1159.589	52.2
1164.57	51.2
1169.545	54.2
1174.515	49.2
1179.48	45.2
1184.44	40.2
1189.395	35.2
1194.345	32.2
1199.29	32.2
1204.23	30.2
1209.165	31.2
1214.095	33.2
1219.021	44.2
1223.941	47.2
1228.856	37.2
1233.766	36.2
1238.672	33.2
1243.572	33.2
1248.467	31.2
1253.358	34.2
1258.244	31.2
1263.124	28.2
1268	28.2
1272.871	27.2
1277.737	34.2
1282.599	34.2
1287.455	32.2
1292.306	30.2
1297.153	26.2
1301.995	30.2
1306.832	31.2
1311.664	26.2
1316.491	33.2
1321.314	37.2
1326.132	46.2
1330.945	53.2
1335.753	58.2
1340.556	51.2
1345.354	38.2
1350.148	36.2
1354.937	32.2
1359.722	36.2
1364.501	36.2
1369.276	43.2
1374.046	37.2
1378.811	33.2
1383.572	27.2
1388.327	26.2
1393.079	28.2
1397.825	24.2
1402.567	27.2
1407.304	24.2
1412.036	25.2
1416.764	21.2
1421.487	31.2
1426.205	23.2
1430.919	31.2
1435.628	30.2
1440.333	40.2
1445.032	41.2
1449.727	44.2
1454.418	55.2
1459.104	60.2
1463.785	63.2
1468.462	58.2
1473.134	48.2
1477.802	35.2
1482.465	30.2
1487.123	29.2
1491.777	24.2
1496.426	28.2
1501.071	22.2
1505.711	24.2
1510.347	21.2
1514.978	20.2
1519.604	26.2
1524.226	20.2
1528.844	27.2
1533.457	26.2
1538.065	25.2
1542.669	25.2
1547.269	21.2
1551.864	14.2
1556.454	18.2
1561.041	19.2
1565.622	19.2
1570.199	23.2
1574.772	22.2
1579.34	19.2
1583.904	26.2
1588.464	23.2
1593.019	17.2
1597.569	20.2
1602.115	20.2
1606.657	17.2
1611.195	20.2
1615.728	21.2
1620.256	25.2
1624.78	20.2
1629.3	21.2
1633.816	19.2
1638.327	20.2
1642.834	20.2
1647.336	17.2
1651.834	20.2
1656.328	19.2
1660.817	19.2
1665.302	24.2
1669.783	21.2
1674.259	20.2
1678.732	16.2
1683.199	17.2
1687.663	18.2
1692.122	13.2
1696.577	15.2
1701.028	19.2
1705.474	16.2
1709.917	23.2
1714.355	17.2
1718.788	17.2
1723.218	17.2
1727.643	15.2
1732.064	13.2
1736.481	12.2
1740.893	13.2
1745.301	21.2
1749.705	15.2
1754.105	17.2
1758.501	16.2
1762.893	13.2
1767.28	13.2
1771.663	14.2
1776.042	9.2
1780.417	12.2
1784.787	18.2
1789.154	17.2
1793.516	16.2
1797.874	17.2
1802.228	16.2
1806.578	9.2
1810.924	15.2
1815.266	13.2
1819.603	10.2
1823.937	13.2
1828.266	12.2
1832.591	14.2
1836.913	13.2
1841.23	14.2
1845.543	14.2
1849.852	11.2
1854.156	12.2
1858.457	10.2
1862.754	14.2
1867.047	14.2
1871.335	15.2
1875.62	12.2
1879.9	15.2
1884.177	15.2
1888.449	11.2
1892.718	14.2
1896.982	13.2
1901.243	13.2
1905.499	11.2
1909.752	9.2
1914	13.2
1918.245	7.2
1922.485	14.2
1926.722	14.2
1930.954	11.2
1935.183	11.2
1939.408	12.2
1943.628	12.2
1947.845	11.2
1952.058	12.2
1956.267	12.2
1960.472	5.2
1964.673	10.2
1968.87	8.2
1973.063	11.2
1977.252	10.2
1981.438	12.2
1985.619	11.2
1989.797	6.2
1993.971	5.2
1998.14	12.2
2002.306	7.2
2006.469	12.2
2010.627	12.2
2014.781	13.2
2018.932	10.2
2023.078	8.2
2027.221	7.2
2031.36	8.2
2035.495	9.2
2039.627	8.2
2043.754	10.2
2047.878	13.2
2051.998	13.2
2056.114	13.2
2060.226	11.2
2064.334	8.2
2068.439	9.2
2072.54	6.2
2076.637	8.2
2080.73	10.2
2084.82	13.2
2088.906	14.2
2092.988	13.2
2097.066	9.2
2101.14	12.2
2105.211	6.2
2109.278	6.2
2113.342	7.2
2117.401	10.2
2121.457	9.2
2125.509	13.2
2129.558	10.2
2133.602	13.2
2137.643	9.2
2141.681	7.2
2145.714	4.2
2149.744	4.2
2153.77	8.2
2157.793	10.2
2161.812	11.2
2165.827	9.2
2169.838	8.2
2173.846	3.2
2177.851	4.2
2181.851	6.2
2185.848	10.2
2189.841	8.2
2193.831	5.2
2197.817	11.2
2201.799	10.2
2205.778	5.2
2209.753	5.2
2213.725	6.2
2217.693	4.2
2221.657	2.2
2225.618	7.2
2229.575	9.2
2233.529	10.2
2237.479	6.2
2241.425	2.2
2245.368	7.2
2249.307	2.2
2253.243	6.2
2257.175	6.2
2261.104	6.2
2265.029	4.2
2268.95	3.2
2272.868	10.2
2276.783	7.2
2280.694	6.2
2284.601	6.2
2288.505	4.2
2292.405	6.2
2296.302	5.2
2300.195	4.2
2304.085	3.2
2307.971	3.2
2311.854	3.2
2315.734	5.2
2319.609	7.2
2323.482	5.2
2327.351	5.2
2331.216	7.2
2335.078	4.2
2338.937	2.2
2342.792	1.2
2346.643	3.2
2350.492	7.2
2354.336	3.2
2358.178	4.2
2362.015	3.2
2365.85	5.2
2369.681	3.2
2373.508	1.2
2377.333	1.2
2381.153	-0.8
2384.971	5.2
2388.785	7.2
2392.595	8.2
2396.402	5.2
2400.206	5.2
2404.007	2.2
2407.804	-0.8
2411.597	3.2
2415.388	0.2
2419.174	5.2
2422.958	7.2
2426.738	2.2
2430.515	11.2
2434.289	3.2
2438.059	5.2
2441.825	-1.8
2445.589	3.2
2449.349	-0.8
2453.106	3.2
2456.859	5.2
2460.61	5.2
2464.356	8.2
2468.1	6.2
2471.84	2.2
2475.577	1.2
2479.311	1.2
2483.041	2.2
2486.768	0.2
2490.492	1.2
2494.213	4.2
2497.93	4.2
2501.644	6.2
2505.355	5.2
2509.062	-0.8
2512.766	1.2
2516.467	-1.8
2520.165	1.2
2523.859	5.2
2527.551	0.2
2531.239	4.2
2534.923	4.2
2538.605	4.2
2542.283	0.2
2545.958	5.2
2549.63	0.2
2553.299	4.2
2556.964	3.2
2560.626	4.2
2564.285	-0.8
2567.941	4.2
2571.594	-0.8
2575.243	2.2
2578.89	3.2
2582.533	5.2
2586.173	4.2
2589.809	4.2
2593.443	3.2
2597.073	3.2
2600.701	-0.8
2604.325	1.2
2607.946	3.2
2611.564	8.2
2615.178	7.2
2618.79	1.2
2622.398	4.2
2626.004	2.2
2629.606	4.2
2633.205	0.2
2636.801	1.2
2640.394	2.2
2643.983	4.2
2647.57	7.2
2651.153	9.2
2654.734	4.2
2658.311	3.2
2661.885	2.2
2665.456	4.2
2669.025	0.2
2672.589	4.2
2676.151	4.2
2679.71	7.2
2683.266	4.2
2686.819	10.2
2690.368	5.2
2693.915	4.2
2697.458	0.2
2700.999	1.2
2704.536	3.2
2708.071	2.2
2711.602	4.2
2715.13	4.2
2718.656	6.2
2722.178	6.2
2725.697	7.2
2729.214	6.2
2732.727	5.2
2736.237	5.2
2739.744	3.2
2743.249	5.2
2746.75	2.2
2750.248	3.2
2753.743	0.2
2757.236	4.2
2760.725	1.2
2764.211	7.2
2767.695	4.2
2771.175	5.2
2774.652	5.2
2778.127	4.2
2781.598	4.2
2785.067	-0.8
2788.532	-0.8
2791.995	0.2
2795.455	3.2
2798.911	5.2
2802.365	6.2
2805.816	5.2
2809.264	2.2
2812.709	2.2
2816.151	4.2
2819.59	0.2
2823.026	1.2
2826.46	2.2
2829.89	8.2
2833.318	10.2
2836.742	13.2
2840.164	18.2
2843.583	17.2
2846.999	15.2
2850.412	15.2
2853.822	10.2
2857.229	15.2
2860.634	14.2
2864.035	20.2
2867.434	23.2
2870.83	26.2
2874.223	27.2
2877.613	28.2
2881	28.2
2884.385	27.2
2887.766	32.2
2891.145	32.2
2894.521	33.2
2897.894	36.2
2901.264	30.2
2904.631	29.2
2907.996	28.2
2911.358	29.2
2914.717	21.2
2918.073	21.2
2921.426	16.2
2924.777	22.2
2928.124	23.2
2931.469	23.2
2934.811	18.2
2938.15	20.2
2941.487	14.2
2944.821	12.2
2948.152	13.2
2951.48	10.2
2954.805	16.2
2958.128	20.2
2961.447	15.2
2964.765	17.2
2968.079	25.2
2971.39	16.2
2974.699	13.2
2978.005	9.2
2981.308	9.2
2984.609	3.2
2987.907	7.2
2991.202	8.2
2994.494	5.2
2997.784	7.2
3001.07	8.2
3004.355	3.2
3007.636	3.2
3010.915	5.2
3014.191	4.2
3017.464	2.2
3020.734	3.2
3024.002	-1.8
3027.267	3.2
3030.53	4.2
3033.789	6.2
3037.046	3.2
3040.301	3.2
3043.552	6.2
3046.801	5.2
3050.048	2.2
3053.291	2.2
3056.532	1.2
3059.771	3.2
3063.006	-1.8
3066.239	3.2
3069.469	4.2
3072.697	3.2
3075.922	0.2
3079.144	3.2
3082.364	2.2
3085.581	2.2
3088.795	2.2
3092.007	0.2
3095.216	0.2
3098.423	1.2
3101.627	2.2
3104.828	8.2
3108.026	3.2
3111.222	2.2
3114.416	6.2
3117.607	4.2
3120.795	3.2
3123.98	1.2
3127.163	3.2
3130.344	1.2
3133.521	3.2
3136.696	6.2
3139.869	7.2
3143.039	5.2
3146.206	6.2
3149.371	6.2
3152.533	5.2
3155.693	0.2
3158.85	2.2
3162.005	2.2
3165.157	2.2
3168.306	2.2
3171.453	6.2
3174.597	5.2
3177.739	4.2
3180.878	3.2
3184.014	4.2
3187.149	-0.8
3190.28	-0.8
3193.409	0.2
3196.536	1.2
3199.659	7.2
3202.781	5.2
3205.9	7.2
3209.016	6.2
3212.13	4.2
3215.241	2.2
3218.35	5.2
3221.456	2.2
3224.56	4.2
3227.661	5.2
3230.76	8.2
3233.856	8.2
3236.95	7.2
3240.041	2.2
3243.13	0.2
3246.216	1.2
3249.3	3.2
3252.382	4.2
3255.46	6.2
3258.537	9.2
3261.611	9.2
3264.682	7.2
3267.751	5.2
3270.818	1.2
3273.882	2.2
3276.943	2.2
3280.002	0.2
3283.059	2.2
3286.113	5.2
3289.165	-1.8
3292.214	4.2
3295.261	2.2
3298.306	3.2
3301.348	0.2
3304.387	1.2
3307.425	2.2
3310.459	4.2
3313.492	-0.8
3316.521	3.2
3319.549	4.2
3322.574	4.2
3325.597	2.2
3328.617	0.2
3331.635	3.2
3334.65	-0.8
3337.663	1.2
3340.674	5.2
3343.682	3.2
3346.688	7.2
3349.691	3.2
3352.692	3.2
3355.691	2.2
3358.687	-1.8
3361.681	3.2
3364.673	2.2
3367.662	-0.8
3370.649	6.2
3373.633	5.2
3376.615	4.2
3379.595	2.2
3382.572	2.2
3385.547	4.2
3388.52	3.2
3391.49	2.2
3394.458	4.2
3397.424	0.2
3400.387	2.2
3403.348	0.2
3406.307	1.2
3409.263	4.2
3412.217	3.2
3415.168	1.2
3418.118	1.2
3421.065	7.2
3424.009	1.2
3426.951	1.2
3429.891	2.2
3432.829	0.2
3435.764	5.2
3438.697	-1.8
3441.628	2.2
3444.557	4.2
3447.483	3.2
3450.407	1.2
3453.328	3.2
3456.247	-0.8
3459.164	-0.8
3462.079	2.2
3464.991	1.2
3467.902	0.2
3470.809	2.2
3473.715	0.2
3476.618	2.2
3479.519	-1.8
3482.418	-2.8
3485.315	-2.8
3488.209	3.2
3491.101	1.2
3493.99	-0.8
3496.878	4.2
3499.763	2.2
3502.646	3.2
3505.527	0.2
3508.405	0.2
3511.281	-2.8
3514.155	-2.8
3517.027	1.2
3519.897	4.2
3522.764	1.2
3525.629	-1.8
3528.492	-0.8
3531.352	-0.8
3534.211	-3.8
3537.067	-4.8
3539.921	-3.8
3542.773	-3.8
3545.622	3.2
3548.469	-0.8
3551.315	1.2
3554.157	5.2
3556.998	1.2
3559.837	-3.8
3562.673	-4.8
3565.507	-0.8
3568.339	-1.8
3571.169	0.2
3573.996	4.2
3576.822	1.2
3579.645	1.2
3582.466	1.2
3585.285	1.2
3588.101	-1.8
3590.916	-1.8
3593.728	-0.8
3596.538	-0.8
3599.346	0.2
3602.152	2.2
3604.956	-0.8
3607.757	-0.8
3610.556	1.2
3613.354	0.2
3616.149	-6.8
3618.942	-3.8
3621.732	-0.8
3624.521	0.2
3627.307	0.2
3630.092	-1.8
3632.874	1.2
3635.654	1.2
3638.432	-3.8
3641.208	2.2
3643.982	-0.8
3646.753	1.2
3649.523	-5.8
3652.29	-1.8
3655.055	-3.8
3657.818	-0.8
3660.579	1.2
3663.338	-1.8
3666.095	1.2
3668.849	1.2
3671.602	-0.8
3674.352	3.2
3677.101	-0.8
3679.847	-2.8
3682.591	0.2
3685.333	-2.8
3688.073	0.2
3690.811	3.2
3693.547	1.2
3696.281	-1.8
3699.013	-2.8
3701.742	-2.8
3704.47	-2.8
3707.195	0.2
3709.919	-0.8
3712.64	-1.8
3715.359	2.2
3718.076	0.2
3720.792	2.2
3723.505	-3.8
3726.216	-2.8
3728.925	-2.8
3731.632	-2.8
3734.336	-3.8
3737.039	1.2
3739.74	0.2
3742.439	2.2
3745.136	2.2
3747.83	-4.8
3750.523	-2.8
3753.213	-4.8
3755.902	0.2
3758.589	-2.8
3761.273	1.2
3763.956	1.2
3766.636	0.2
3769.315	-1.8
3771.991	-3.8
3774.665	-0.8
3777.338	-1.8
3780.008	0.2
3782.677	-2.8
3785.343	-0.8
3788.007	1.2
3790.67	-1.8
3793.33	0.2
3795.989	-0.8
3798.645	-5.8
3801.299	-0.8
3803.952	-1.8
3806.602	-1.8
3809.251	3.2
3811.897	2.2
3814.542	1.2
3817.184	-1.8
3819.825	-4.8
3822.463	-2.8
3825.1	-3.8
3827.735	-1.8
3830.367	0.2
3832.998	1.2
3835.627	2.2
3838.253	1.2
3840.878	-3.8
3843.501	-2.8
3846.122	-3.8
3848.741	-1.8
3851.358	-0.8
3853.973	0.2
3856.586	-2.8
3859.197	-2.8
3861.806	-4.8
3864.414	-3.8
3867.019	-2.8
3869.622	-4.8
3872.224	0.2
3874.823	2.2
3877.421	2.2
3880.016	0.2
3882.61	0.2
3885.202	6.2
3887.792	-1.8
3890.38	-1.8
3892.966	-0.8
3895.55	-1.8
3898.132	3.2
3900.713	3.2
3903.291	3.2
3905.868	1.2
3908.442	-3.8
3911.015	-5.8
3913.586	-0.8
3916.155	-2.8
3918.722	-0.8
3921.287	0.2
3923.85	3.2
3926.411	2.2
3928.971	-2.8
3931.528	-0.8
3934.084	-2.8
3936.638	-4.8
3939.19	-3.8
3941.74	1.2
3944.288	-2.8
3946.834	3.2
3949.378	2.2
3951.921	1.2
3954.462	-0.8
3957	-1.8
3959.537	1.2
3962.072	0.2
3964.606	-0.8
3967.137	-3.8
3969.667	-0.8
3972.194	-2.8
3974.72	0.2
3977.244	-1.8
3979.766	-0.8
3982.286	-2.8
3984.805	-2.8
3987.321	0.2
3989.836	-3.8
3992.349	-0.8
3994.86	3.2
3997.369	-4.8
3999.877	-1.8
4002.382	-1.8
4004.886	-0.8
4007.388	-2.8
4009.888	-1.8
4012.386	-0.8
4014.883	-2.8
4017.377	-1.8
4019.87	-0.8
4022.361	1.2
4024.85	-3.8
4027.338	-0.8
4029.823	-1.8
4032.307	1.2
4034.789	-1.8
4037.269	0.2
4039.747	0.2
4042.224	1.2
4044.699	-3.8
4047.172	-2.8
4049.643	-2.8
4052.112	-0.8
4054.58	-3.8
4057.046	-0.8
4059.51	-0.8
4061.972	1.2
4064.432	-1.8
4066.891	-2.8
4069.348	0.2
4071.803	-2.8
4074.256	-2.8
4076.708	4.2
4079.158	0.2
4081.606	-3.8
4084.052	2.2
4086.497	-0.8
4088.939	0.2
4091.38	-2.8
4093.819	-5.8
4096.257	-2.8
4098.693	-4.8
4101.127	-2.8
4103.559	-1.8
4105.989	7.2
4108.418	5.2
4110.845	4.2
4113.27	2.2
4115.694	1.2
4118.115	4.2
4120.535	-0.8
4122.954	-2.8
4125.37	-3.8
4127.785	-1.8
4130.198	1.2
4132.609	1.2
4135.019	1.2
4137.427	-4.8
4139.833	-2.8
4142.237	-5.8
