Data from 0.25_n=3_RamanShift_01.txt Node
Date: Mon Mar 19 12:12:18 IST 2018
User: aro
Spectrometer: QEPB0276
Trigger mode: 0
Integration Time (sec): 5.000000E0
Scans to average: 1
Electric dark correction enabled: true
Nonlinearity correction enabled: false
Boxcar width: 0
XAxis mode: Raman Shifts
Number of Pixels in Spectrum: 1044
>>>>>Begin Spectral Data<<<<<
160.701	-1.2
166.742	1.8
172.777	1.8
178.805	12.8
184.826	19.8
190.841	42.8
196.849	65.8
202.85	83.8
208.845	89.8
214.833	92.8
220.815	88.8
226.789	92.8
232.758	94.8
238.719	91.8
244.674	93.8
250.623	97.8
256.565	91.8
262.5	92.8
268.429	97.8
274.351	93.8
280.267	98.8
286.176	98.8
292.079	96.8
297.975	99.8
303.865	97.8
309.748	98.8
315.625	97.8
321.495	98.8
327.359	102.8
333.217	106.8
339.068	106.8
344.912	107.8
350.751	103.8
356.583	102.8
362.408	102.8
368.227	100.8
374.04	105.8
379.847	113.8
385.647	113.8
391.44	120.8
397.228	115.8
403.009	122.8
408.784	123.8
414.553	127.8
420.315	137.8
426.071	144.8
431.821	130.8
437.565	117.8
443.302	107.8
449.033	112.8
454.758	107.8
460.477	109.8
466.189	103.8
471.896	100.8
477.596	97.8
483.29	95.8
488.978	97.8
494.66	94.8
500.335	95.8
506.005	87.8
511.668	79.8
517.325	77.8
522.977	67.8
528.622	64.8
534.261	60.8
539.894	62.8
545.521	57.8
551.141	60.8
556.756	55.8
562.365	54.8
567.968	53.8
573.565	51.8
579.155	49.8
584.74	52.8
590.319	51.8
595.892	56.8
601.459	55.8
607.02	54.8
612.575	52.8
618.124	51.8
623.667	47.8
629.204	44.8
634.735	45.8
640.261	45.8
645.781	49.8
651.294	60.8
656.802	58.8
662.304	50.8
667.8	47.8
673.29	43.8
678.775	40.8
684.254	41.8
689.726	36.8
695.193	35.8
700.655	45.8
706.11	40.8
711.56	44.8
717.004	44.8
722.442	40.8
727.874	36.8
733.301	34.8
738.722	37.8
744.137	39.8
749.547	41.8
754.951	43.8
760.349	45.8
765.741	49.8
771.128	46.8
776.509	45.8
781.885	52.8
787.254	44.8
792.618	41.8
797.977	48.8
803.33	55.8
808.677	66.8
814.019	75.8
819.355	73.8
824.686	66.8
830.011	48.8
835.33	55.8
840.644	59.8
845.952	62.8
851.255	61.8
856.552	53.8
861.844	47.8
867.13	43.8
872.41	43.8
877.686	39.8
882.955	34.8
888.219	35.8
893.478	35.8
898.731	39.8
903.979	34.8
909.221	45.8
914.458	35.8
919.69	43.8
924.916	36.8
930.136	32.8
935.351	34.8
940.561	35.8
945.766	35.8
950.965	32.8
956.158	39.8
961.347	36.8
966.529	38.8
971.707	38.8
976.879	43.8
982.046	46.8
987.208	36.8
992.364	32.8
997.515	33.8
1002.66	42.8
1007.801	45.8
1012.936	38.8
1018.066	38.8
1023.19	37.8
1028.309	31.8
1033.423	37.8
1038.532	44.8
1043.636	43.8
1048.734	42.8
1053.827	38.8
1058.915	34.8
1063.998	34.8
1069.075	36.8
1074.147	31.8
1079.214	30.8
1084.276	33.8
1089.333	32.8
1094.385	32.8
1099.431	33.8
1104.472	34.8
1109.509	33.8
1114.54	33.8
1119.565	30.8
1124.586	33.8
1129.602	28.8
1134.613	31.8
1139.618	37.8
1144.619	38.8
1149.614	40.8
1154.604	49.8
1159.589	55.8
1164.57	57.8
1169.545	52.8
1174.515	47.8
1179.48	40.8
1184.44	38.8
1189.395	27.8
1194.345	31.8
1199.29	26.8
1204.23	27.8
1209.165	31.8
1214.095	35.8
1219.021	36.8
1223.941	39.8
1228.856	38.8
1233.766	38.8
1238.672	31.8
1243.572	28.8
1248.467	27.8
1253.358	28.8
1258.244	33.8
1263.124	30.8
1268	27.8
1272.871	28.8
1277.737	27.8
1282.599	27.8
1287.455	28.8
1292.306	28.8
1297.153	27.8
1301.995	32.8
1306.832	30.8
1311.664	32.8
1316.491	31.8
1321.314	34.8
1326.132	42.8
1330.945	45.8
1335.753	52.8
1340.556	46.8
1345.354	38.8
1350.148	32.8
1354.937	34.8
1359.722	33.8
1364.501	33.8
1369.276	36.8
1374.046	31.8
1378.811	26.8
1383.572	21.8
1388.327	24.8
1393.079	26.8
1397.825	22.8
1402.567	23.8
1407.304	28.8
1412.036	23.8
1416.764	20.8
1421.487	23.8
1426.205	20.8
1430.919	23.8
1435.628	28.8
1440.333	33.8
1445.032	41.8
1449.727	43.8
1454.418	54.8
1459.104	54.8
1463.785	62.8
1468.462	56.8
1473.134	47.8
1477.802	28.8
1482.465	21.8
1487.123	26.8
1491.777	25.8
1496.426	26.8
1501.071	26.8
1505.711	19.8
1510.347	21.8
1514.978	13.8
1519.604	18.8
1524.226	14.8
1528.844	18.8
1533.457	22.8
1538.065	22.8
1542.669	23.8
1547.269	20.8
1551.864	16.8
1556.454	19.8
1561.041	16.8
1565.622	15.8
1570.199	18.8
1574.772	15.8
1579.34	19.8
1583.904	25.8
1588.464	23.8
1593.019	18.8
1597.569	18.8
1602.115	21.8
1606.657	14.8
1611.195	19.8
1615.728	18.8
1620.256	17.8
1624.78	18.8
1629.3	19.8
1633.816	19.8
1638.327	21.8
1642.834	16.8
1647.336	15.8
1651.834	12.8
1656.328	14.8
1660.817	9.8
1665.302	20.8
1669.783	16.8
1674.259	16.8
1678.732	15.8
1683.199	16.8
1687.663	18.8
1692.122	18.8
1696.577	13.8
1701.028	18.8
1705.474	14.8
1709.917	14.8
1714.355	9.8
1718.788	16.8
1723.218	15.8
1727.643	11.8
1732.064	13.8
1736.481	15.8
1740.893	10.8
1745.301	20.8
1749.705	10.8
1754.105	13.8
1758.501	8.8
1762.893	7.8
1767.28	9.8
1771.663	11.8
1776.042	10.8
1780.417	14.8
1784.787	15.8
1789.154	14.8
1793.516	13.8
1797.874	14.8
1802.228	10.8
1806.578	7.8
1810.924	9.8
1815.266	9.8
1819.603	8.8
1823.937	14.8
1828.266	15.8
1832.591	14.8
1836.913	9.8
1841.23	10.8
1845.543	8.8
1849.852	7.8
1854.156	3.8
1858.457	8.8
1862.754	16.8
1867.047	10.8
1871.335	13.8
1875.62	10.8
1879.9	7.8
1884.177	9.8
1888.449	4.8
1892.718	6.8
1896.982	8.8
1901.243	11.8
1905.499	11.8
1909.752	12.8
1914	8.8
1918.245	8.8
1922.485	5.8
1926.722	9.8
1930.954	7.8
1935.183	9.8
1939.408	8.8
1943.628	12.8
1947.845	11.8
1952.058	13.8
1956.267	10.8
1960.472	6.8
1964.673	7.8
1968.87	2.8
1973.063	5.8
1977.252	7.8
1981.438	6.8
1985.619	10.8
1989.797	8.8
1993.971	6.8
1998.14	8.8
2002.306	6.8
2006.469	5.8
2010.627	7.8
2014.781	8.8
2018.932	9.8
2023.078	5.8
2027.221	5.8
2031.36	5.8
2035.495	8.8
2039.627	7.8
2043.754	6.8
2047.878	7.8
2051.998	9.8
2056.114	2.8
2060.226	11.8
2064.334	2.8
2068.439	3.8
2072.54	4.8
2076.637	9.8
2080.73	8.8
2084.82	7.8
2088.906	9.8
2092.988	8.8
2097.066	4.8
2101.14	7.8
2105.211	2.8
2109.278	4.8
2113.342	4.8
2117.401	7.8
2121.457	8.8
2125.509	9.8
2129.558	4.8
2133.602	8.8
2137.643	2.8
2141.681	4.8
2145.714	4.8
2149.744	4.8
2153.77	3.8
2157.793	9.8
2161.812	3.8
2165.827	9.8
2169.838	4.8
2173.846	4.8
2177.851	5.8
2181.851	2.8
2185.848	3.8
2189.841	1.8
2193.831	2.8
2197.817	10.8
2201.799	7.8
2205.778	2.8
2209.753	3.8
2213.725	4.8
2217.693	3.8
2221.657	0.8
2225.618	3.8
2229.575	5.8
2233.529	5.8
2237.479	2.8
2241.425	4.8
2245.368	7.8
2249.307	0.8
2253.243	6.8
2257.175	4.8
2261.104	8.8
2265.029	1.8
2268.95	1.8
2272.868	-1.2
2276.783	0.8
2280.694	4.8
2284.601	3.8
2288.505	6.8
2292.405	4.8
2296.302	1.8
2300.195	6.8
2304.085	1.8
2307.971	-0.2
2311.854	-3.2
2315.734	3.8
2319.609	-1.2
2323.482	4.8
2327.351	0.8
2331.216	5.8
2335.078	1.8
2338.937	1.8
2342.792	-4.2
2346.643	-3.2
2350.492	-1.2
2354.336	0.8
2358.178	3.8
2362.015	3.8
2365.85	1.8
2369.681	2.8
2373.508	1.8
2377.333	-1.2
2381.153	2.8
2384.971	-1.2
2388.785	-0.2
2392.595	6.8
2396.402	2.8
2400.206	5.8
2404.007	0.8
2407.804	1.8
2411.597	1.8
2415.388	-4.2
2419.174	-1.2
2422.958	0.8
2426.738	-2.2
2430.515	5.8
2434.289	1.8
2438.059	1.8
2441.825	-2.2
2445.589	1.8
2449.349	0.8
2453.106	1.8
2456.859	0.8
2460.61	0.8
2464.356	2.8
2468.1	1.8
2471.84	-2.2
2475.577	1.8
2479.311	-1.2
2483.041	0.8
2486.768	-1.2
2490.492	0.8
2494.213	1.8
2497.93	-1.2
2501.644	0.8
2505.355	0.8
2509.062	-0.2
2512.766	2.8
2516.467	-4.2
2520.165	1.8
2523.859	0.8
2527.551	-0.2
2531.239	-2.2
2534.923	-1.2
2538.605	-4.2
2542.283	-1.2
2545.958	2.8
2549.63	3.8
2553.299	1.8
2556.964	2.8
2560.626	-1.2
2564.285	-5.2
2567.941	-1.2
2571.594	-6.2
2575.243	-4.2
2578.89	0.8
2582.533	-0.2
2586.173	3.8
2589.809	3.8
2593.443	2.8
2597.073	0.8
2600.701	-0.2
2604.325	-3.2
2607.946	-1.2
2611.564	2.8
2615.178	1.8
2618.79	4.8
2622.398	-0.2
2626.004	3.8
2629.606	2.8
2633.205	-3.2
2636.801	4.8
2640.394	-2.2
2643.983	-1.2
2647.57	0.8
2651.153	1.8
2654.734	-0.2
2658.311	2.8
2661.885	-0.2
2665.456	2.8
2669.025	-3.2
2672.589	0.8
2676.151	-2.2
2679.71	2.8
2683.266	-3.2
2686.819	5.8
2690.368	3.8
2693.915	2.8
2697.458	0.8
2700.999	3.8
2704.536	0.8
2708.071	2.8
2711.602	1.8
2715.13	0.8
2718.656	-1.2
2722.178	1.8
2725.697	0.8
2729.214	4.8
2732.727	2.8
2736.237	-0.2
2739.744	2.8
2743.249	4.8
2746.75	-0.2
2750.248	-1.2
2753.743	0.8
2757.236	1.8
2760.725	-0.2
2764.211	0.8
2767.695	0.8
2771.175	2.8
2774.652	3.8
2778.127	-1.2
2781.598	-0.2
2785.067	-0.2
2788.532	-0.2
2791.995	-0.2
2795.455	2.8
2798.911	0.8
2802.365	2.8
2805.816	2.8
2809.264	1.8
2812.709	-0.2
2816.151	3.8
2819.59	1.8
2823.026	1.8
2826.46	2.8
2829.89	6.8
2833.318	8.8
2836.742	5.8
2840.164	14.8
2843.583	11.8
2846.999	13.8
2850.412	15.8
2853.822	9.8
2857.229	13.8
2860.634	13.8
2864.035	12.8
2867.434	18.8
2870.83	23.8
2874.223	23.8
2877.613	27.8
2881	26.8
2884.385	24.8
2887.766	31.8
2891.145	38.8
2894.521	31.8
2897.894	30.8
2901.264	26.8
2904.631	26.8
2907.996	26.8
2911.358	24.8
2914.717	18.8
2918.073	19.8
2921.426	20.8
2924.777	16.8
2928.124	18.8
2931.469	15.8
2934.811	14.8
2938.15	15.8
2941.487	10.8
2944.821	9.8
2948.152	6.8
2951.48	10.8
2954.805	14.8
2958.128	18.8
2961.447	15.8
2964.765	11.8
2968.079	16.8
2971.39	12.8
2974.699	8.8
2978.005	-0.2
2981.308	3.8
2984.609	4.8
2987.907	4.8
2991.202	2.8
2994.494	5.8
2997.784	5.8
3001.07	4.8
3004.355	-1.2
3007.636	-1.2
3010.915	-0.2
3014.191	-0.2
3017.464	0.8
3020.734	3.8
3024.002	-0.2
3027.267	4.8
3030.53	3.8
3033.789	-0.2
3037.046	-4.2
3040.301	-2.2
3043.552	-5.2
3046.801	0.8
3050.048	0.8
3053.291	0.8
3056.532	2.8
3059.771	3.8
3063.006	-2.2
3066.239	-2.2
3069.469	-3.2
3072.697	-2.2
3075.922	-1.2
3079.144	2.8
3082.364	2.8
3085.581	3.8
3088.795	1.8
3092.007	1.8
3095.216	-1.2
3098.423	-2.2
3101.627	-3.2
3104.828	1.8
3108.026	0.8
3111.222	2.8
3114.416	3.8
3117.607	5.8
3120.795	2.8
3123.98	3.8
3127.163	-0.2
3130.344	-5.2
3133.521	-3.2
3136.696	1.8
3139.869	2.8
3143.039	3.8
3146.206	5.8
3149.371	5.8
3152.533	6.8
3155.693	1.8
3158.85	-0.2
3162.005	-0.2
3165.157	-1.2
3168.306	-2.2
3171.453	-2.2
3174.597	4.8
3177.739	2.8
3180.878	4.8
3184.014	3.8
3187.149	0.8
3190.28	-1.2
3193.409	-1.2
3196.536	-2.2
3199.659	6.8
3202.781	0.8
3205.9	4.8
3209.016	1.8
3212.13	5.8
3215.241	0.8
3218.35	6.8
3221.456	0.8
3224.56	2.8
3227.661	-0.2
3230.76	3.8
3233.856	5.8
3236.95	3.8
3240.041	1.8
3243.13	-1.2
3246.216	1.8
3249.3	1.8
3252.382	1.8
3255.46	5.8
3258.537	3.8
3261.611	6.8
3264.682	2.8
3267.751	3.8
3270.818	-3.2
3273.882	-1.2
3276.943	3.8
3280.002	1.8
3283.059	1.8
3286.113	3.8
3289.165	0.8
3292.214	4.8
3295.261	-1.2
3298.306	-0.2
3301.348	-2.2
3304.387	-1.2
3307.425	0.8
3310.459	4.8
3313.492	0.8
3316.521	-0.2
3319.549	0.8
3322.574	-2.2
3325.597	-2.2
3328.617	-4.2
3331.635	-0.2
3334.65	1.8
3337.663	-1.2
3340.674	6.8
3343.682	2.8
3346.688	3.8
3349.691	0.8
3352.692	-1.2
3355.691	-3.2
3358.687	-4.2
3361.681	-1.2
3364.673	3.8
3367.662	2.8
3370.649	4.8
3373.633	3.8
3376.615	2.8
3379.595	-5.2
3382.572	-0.2
3385.547	-2.2
3388.52	-3.2
3391.49	-0.2
3394.458	0.8
3397.424	0.8
3400.387	-0.2
3403.348	-1.2
3406.307	-1.2
3409.263	1.8
3412.217	-2.2
3415.168	-3.2
3418.118	-2.2
3421.065	1.8
3424.009	0.8
3426.951	0.8
3429.891	-0.2
3432.829	0.8
3435.764	-1.2
3438.697	-2.2
3441.628	-2.2
3444.557	0.8
3447.483	-0.2
3450.407	-1.2
3453.328	2.8
3456.247	-5.2
3459.164	-0.2
3462.079	-0.2
3464.991	0.8
3467.902	-3.2
3470.809	-0.2
3473.715	1.8
3476.618	1.8
3479.519	-5.2
3482.418	-3.2
3485.315	-5.2
3488.209	-1.2
3491.101	-0.2
3493.99	-0.2
3496.878	0.8
3499.763	1.8
3502.646	-1.2
3505.527	-1.2
3508.405	-1.2
3511.281	-2.2
3514.155	-2.2
3517.027	0.8
3519.897	0.8
3522.764	-2.2
3525.629	-1.2
3528.492	-0.2
3531.352	-3.2
3534.211	-2.2
3537.067	-7.2
3539.921	-6.2
3542.773	-4.2
3545.622	0.8
3548.469	-1.2
3551.315	3.8
3554.157	-1.2
3556.998	0.8
3559.837	-5.2
3562.673	-5.2
3565.507	-5.2
3568.339	-3.2
3571.169	-1.2
3573.996	-2.2
3576.822	-3.2
3579.645	-3.2
3582.466	-1.2
3585.285	-2.2
3588.101	-3.2
3590.916	-1.2
3593.728	-1.2
3596.538	-1.2
3599.346	-4.2
3602.152	-3.2
3604.956	-3.2
3607.757	-3.2
3610.556	-4.2
3613.354	0.8
3616.149	-4.2
3618.942	-3.2
3621.732	-2.2
3624.521	-1.2
3627.307	-7.2
3630.092	-6.2
3632.874	-3.2
3635.654	-0.2
3638.432	-6.2
3641.208	-2.2
3643.982	0.8
3646.753	0.8
3649.523	-6.2
3652.29	-5.2
3655.055	-8.2
3657.818	-5.2
3660.579	-3.2
3663.338	-0.2
3666.095	-2.2
3668.849	-1.2
3671.602	-3.2
3674.352	1.8
3677.101	-4.2
3679.847	-8.2
3682.591	-3.2
3685.333	-5.2
3688.073	-4.2
3690.811	2.8
3693.547	0.8
3696.281	0.8
3699.013	-1.2
3701.742	-1.2
3704.47	-8.2
3707.195	-2.2
3709.919	-8.2
3712.64	-6.2
3715.359	-3.2
3718.076	0.8
3720.792	-1.2
3723.505	-4.2
3726.216	-6.2
3728.925	-3.2
3731.632	-7.2
3734.336	-7.2
3737.039	-3.2
3739.74	-2.2
3742.439	-3.2
3745.136	0.8
3747.83	-4.2
3750.523	-1.2
3753.213	-4.2
3755.902	-3.2
3758.589	-1.2
3761.273	-5.2
3763.956	-3.2
3766.636	-7.2
3769.315	-6.2
3771.991	-4.2
3774.665	-1.2
3777.338	0.8
3780.008	-4.2
3782.677	-6.2
3785.343	-5.2
3788.007	-3.2
3790.67	-3.2
3793.33	-6.2
3795.989	-4.2
3798.645	-2.2
3801.299	-2.2
3803.952	-1.2
3806.602	1.8
3809.251	-0.2
3811.897	-7.2
3814.542	-5.2
3817.184	-6.2
3819.825	-7.2
3822.463	-5.2
3825.1	-3.2
3827.735	-4.2
3830.367	0.8
3832.998	-2.2
3835.627	-1.2
3838.253	-3.2
3840.878	-5.2
3843.501	-4.2
3846.122	-4.2
3848.741	-3.2
3851.358	-1.2
3853.973	-1.2
3856.586	-4.2
3859.197	-2.2
3861.806	-4.2
3864.414	-10.2
3867.019	-8.2
3869.622	-6.2
3872.224	-2.2
3874.823	-0.2
3877.421	2.8
3880.016	-2.2
3882.61	-0.2
3885.202	-0.2
3887.792	0.8
3890.38	-7.2
3892.966	-6.2
3895.55	-4.2
3898.132	-1.2
3900.713	-0.2
3903.291	1.8
3905.868	-0.2
3908.442	-2.2
3911.015	-10.2
3913.586	-5.2
3916.155	-3.2
3918.722	-5.2
3921.287	-2.2
3923.85	-1.2
3926.411	-1.2
3928.971	-5.2
3931.528	-2.2
3934.084	-8.2
3936.638	-7.2
3939.19	-5.2
3941.74	-5.2
3944.288	-4.2
3946.834	-2.2
3949.378	-1.2
3951.921	0.8
3954.462	-2.2
3957	-8.2
3959.537	0.8
3962.072	-3.2
3964.606	-2.2
3967.137	-5.2
3969.667	-2.2
3972.194	-3.2
3974.72	-1.2
3977.244	-2.2
3979.766	-0.2
3982.286	-7.2
3984.805	-5.2
3987.321	-6.2
3989.836	-7.2
3992.349	-1.2
3994.86	-0.2
3997.369	-8.2
3999.877	-3.2
4002.382	-5.2
4004.886	-6.2
4007.388	-6.2
4009.888	-7.2
4012.386	-3.2
4014.883	-6.2
4017.377	-4.2
4019.87	-4.2
4022.361	-1.2
4024.85	-5.2
4027.338	-2.2
4029.823	-7.2
4032.307	-3.2
4034.789	-3.2
4037.269	-5.2
4039.747	-2.2
4042.224	-5.2
4044.699	-3.2
4047.172	-1.2
4049.643	-5.2
4052.112	-5.2
4054.58	-5.2
4057.046	-3.2
4059.51	-0.2
4061.972	-4.2
4064.432	-3.2
4066.891	-1.2
4069.348	0.8
4071.803	-4.2
4074.256	-4.2
4076.708	-2.2
4079.158	-1.2
4081.606	-7.2
4084.052	-4.2
4086.497	-4.2
4088.939	-0.2
4091.38	-2.2
4093.819	-2.2
4096.257	-4.2
4098.693	-3.2
4101.127	-5.2
4103.559	-0.2
4105.989	2.8
4108.418	1.8
4110.845	-0.2
4113.27	-1.2
4115.694	0.8
4118.115	3.8
4120.535	-4.2
4122.954	-3.2
4125.37	-6.2
4127.785	-6.2
4130.198	-3.2
4132.609	-6.2
4135.019	-3.2
4137.427	-4.2
4139.833	-4.2
4142.237	-3.2
