Data from 0.25_n=5_RamanShift_03.txt Node
Date: Mon Mar 19 12:14:08 IST 2018
User: aro
Spectrometer: QEPB0276
Trigger mode: 0
Integration Time (sec): 5.000000E0
Scans to average: 1
Electric dark correction enabled: true
Nonlinearity correction enabled: false
Boxcar width: 0
XAxis mode: Raman Shifts
Number of Pixels in Spectrum: 1044
>>>>>Begin Spectral Data<<<<<
160.701	-2.2
166.742	-1.2
172.777	-0.2
178.805	10.8
184.826	21.8
190.841	40.8
196.849	74.8
202.85	89.8
208.845	96.8
214.833	95.8
220.815	94.8
226.789	93.8
232.758	89.8
238.719	97.8
244.674	97.8
250.623	96.8
256.565	98.8
262.5	97.8
268.429	103.8
274.351	95.8
280.267	98.8
286.176	92.8
292.079	96.8
297.975	100.8
303.865	97.8
309.748	100.8
315.625	108.8
321.495	102.8
327.359	108.8
333.217	104.8
339.068	105.8
344.912	107.8
350.751	105.8
356.583	103.8
362.408	100.8
368.227	103.8
374.04	105.8
379.847	111.8
385.647	116.8
391.44	122.8
397.228	121.8
403.009	126.8
408.784	128.8
414.553	139.8
420.315	143.8
426.071	156.8
431.821	134.8
437.565	118.8
443.302	109.8
449.033	113.8
454.758	110.8
460.477	106.8
466.189	111.8
471.896	106.8
477.596	106.8
483.29	100.8
488.978	99.8
494.66	98.8
500.335	96.8
506.005	87.8
511.668	79.8
517.325	75.8
522.977	71.8
528.622	71.8
534.261	68.8
539.894	58.8
545.521	64.8
551.141	58.8
556.756	57.8
562.365	57.8
567.968	54.8
573.565	56.8
579.155	56.8
584.74	51.8
590.319	55.8
595.892	57.8
601.459	54.8
607.02	51.8
612.575	51.8
618.124	50.8
623.667	52.8
629.204	51.8
634.735	52.8
640.261	53.8
645.781	55.8
651.294	62.8
656.802	60.8
662.304	51.8
667.8	45.8
673.29	43.8
678.775	46.8
684.254	42.8
689.726	40.8
695.193	45.8
700.655	44.8
706.11	48.8
711.56	43.8
717.004	43.8
722.442	45.8
727.874	45.8
733.301	39.8
738.722	44.8
744.137	46.8
749.547	44.8
754.951	46.8
760.349	45.8
765.741	43.8
771.128	45.8
776.509	40.8
781.885	49.8
787.254	48.8
792.618	47.8
797.977	54.8
803.33	63.8
808.677	69.8
814.019	78.8
819.355	77.8
824.686	62.8
830.011	54.8
835.33	56.8
840.644	63.8
845.952	67.8
851.255	67.8
856.552	60.8
861.844	51.8
867.13	44.8
872.41	43.8
877.686	35.8
882.955	39.8
888.219	39.8
893.478	42.8
898.731	40.8
903.979	41.8
909.221	44.8
914.458	39.8
919.69	40.8
924.916	33.8
930.136	32.8
935.351	36.8
940.561	38.8
945.766	40.8
950.965	39.8
956.158	40.8
961.347	40.8
966.529	44.8
971.707	37.8
976.879	42.8
982.046	42.8
987.208	41.8
992.364	44.8
997.515	43.8
1002.66	47.8
1007.801	47.8
1012.936	37.8
1018.066	39.8
1023.19	31.8
1028.309	34.8
1033.423	40.8
1038.532	46.8
1043.636	46.8
1048.734	50.8
1053.827	41.8
1058.915	36.8
1063.998	35.8
1069.075	30.8
1074.147	32.8
1079.214	30.8
1084.276	35.8
1089.333	36.8
1094.385	38.8
1099.431	39.8
1104.472	35.8
1109.509	36.8
1114.54	32.8
1119.565	30.8
1124.586	34.8
1129.602	28.8
1134.613	30.8
1139.618	40.8
1144.619	46.8
1149.614	49.8
1154.604	54.8
1159.589	60.8
1164.57	59.8
1169.545	47.8
1174.515	48.8
1179.48	40.8
1184.44	40.8
1189.395	32.8
1194.345	39.8
1199.29	38.8
1204.23	32.8
1209.165	30.8
1214.095	32.8
1219.021	34.8
1223.941	43.8
1228.856	33.8
1233.766	38.8
1238.672	35.8
1243.572	34.8
1248.467	31.8
1253.358	30.8
1258.244	32.8
1263.124	29.8
1268	27.8
1272.871	28.8
1277.737	23.8
1282.599	29.8
1287.455	29.8
1292.306	33.8
1297.153	28.8
1301.995	33.8
1306.832	34.8
1311.664	33.8
1316.491	30.8
1321.314	36.8
1326.132	44.8
1330.945	51.8
1335.753	57.8
1340.556	50.8
1345.354	39.8
1350.148	34.8
1354.937	33.8
1359.722	34.8
1364.501	36.8
1369.276	35.8
1374.046	31.8
1378.811	31.8
1383.572	25.8
1388.327	27.8
1393.079	26.8
1397.825	29.8
1402.567	23.8
1407.304	25.8
1412.036	28.8
1416.764	22.8
1421.487	21.8
1426.205	22.8
1430.919	28.8
1435.628	30.8
1440.333	39.8
1445.032	40.8
1449.727	43.8
1454.418	54.8
1459.104	62.8
1463.785	66.8
1468.462	60.8
1473.134	47.8
1477.802	34.8
1482.465	24.8
1487.123	28.8
1491.777	25.8
1496.426	28.8
1501.071	24.8
1505.711	23.8
1510.347	26.8
1514.978	21.8
1519.604	23.8
1524.226	12.8
1528.844	23.8
1533.457	20.8
1538.065	26.8
1542.669	22.8
1547.269	23.8
1551.864	17.8
1556.454	21.8
1561.041	15.8
1565.622	17.8
1570.199	17.8
1574.772	16.8
1579.34	21.8
1583.904	23.8
1588.464	21.8
1593.019	17.8
1597.569	21.8
1602.115	20.8
1606.657	14.8
1611.195	20.8
1615.728	20.8
1620.256	20.8
1624.78	19.8
1629.3	22.8
1633.816	20.8
1638.327	24.8
1642.834	20.8
1647.336	15.8
1651.834	15.8
1656.328	18.8
1660.817	18.8
1665.302	21.8
1669.783	19.8
1674.259	16.8
1678.732	17.8
1683.199	18.8
1687.663	21.8
1692.122	15.8
1696.577	18.8
1701.028	16.8
1705.474	15.8
1709.917	17.8
1714.355	9.8
1718.788	17.8
1723.218	14.8
1727.643	12.8
1732.064	14.8
1736.481	15.8
1740.893	13.8
1745.301	21.8
1749.705	14.8
1754.105	15.8
1758.501	10.8
1762.893	12.8
1767.28	13.8
1771.663	10.8
1776.042	9.8
1780.417	10.8
1784.787	17.8
1789.154	15.8
1793.516	14.8
1797.874	15.8
1802.228	12.8
1806.578	6.8
1810.924	14.8
1815.266	14.8
1819.603	11.8
1823.937	17.8
1828.266	13.8
1832.591	14.8
1836.913	11.8
1841.23	11.8
1845.543	10.8
1849.852	8.8
1854.156	2.8
1858.457	10.8
1862.754	16.8
1867.047	13.8
1871.335	19.8
1875.62	12.8
1879.9	12.8
1884.177	11.8
1888.449	7.8
1892.718	9.8
1896.982	9.8
1901.243	11.8
1905.499	11.8
1909.752	12.8
1914	8.8
1918.245	8.8
1922.485	8.8
1926.722	9.8
1930.954	4.8
1935.183	6.8
1939.408	10.8
1943.628	15.8
1947.845	10.8
1952.058	12.8
1956.267	7.8
1960.472	7.8
1964.673	10.8
1968.87	6.8
1973.063	10.8
1977.252	8.8
1981.438	7.8
1985.619	11.8
1989.797	8.8
1993.971	5.8
1998.14	7.8
2002.306	8.8
2006.469	9.8
2010.627	8.8
2014.781	11.8
2018.932	8.8
2023.078	4.8
2027.221	8.8
2031.36	3.8
2035.495	8.8
2039.627	7.8
2043.754	4.8
2047.878	9.8
2051.998	9.8
2056.114	9.8
2060.226	10.8
2064.334	4.8
2068.439	4.8
2072.54	7.8
2076.637	10.8
2080.73	10.8
2084.82	11.8
2088.906	12.8
2092.988	10.8
2097.066	5.8
2101.14	11.8
2105.211	6.8
2109.278	5.8
2113.342	5.8
2117.401	9.8
2121.457	10.8
2125.509	11.8
2129.558	8.8
2133.602	7.8
2137.643	7.8
2141.681	3.8
2145.714	3.8
2149.744	6.8
2153.77	5.8
2157.793	12.8
2161.812	8.8
2165.827	8.8
2169.838	5.8
2173.846	5.8
2177.851	4.8
2181.851	5.8
2185.848	5.8
2189.841	7.8
2193.831	1.8
2197.817	8.8
2201.799	6.8
2205.778	3.8
2209.753	3.8
2213.725	4.8
2217.693	2.8
2221.657	3.8
2225.618	4.8
2229.575	8.8
2233.529	6.8
2237.479	6.8
2241.425	4.8
2245.368	5.8
2249.307	1.8
2253.243	6.8
2257.175	0.8
2261.104	8.8
2265.029	2.8
2268.95	3.8
2272.868	1.8
2276.783	4.8
2280.694	5.8
2284.601	6.8
2288.505	3.8
2292.405	4.8
2296.302	1.8
2300.195	4.8
2304.085	2.8
2307.971	1.8
2311.854	2.8
2315.734	4.8
2319.609	4.8
2323.482	2.8
2327.351	3.8
2331.216	5.8
2335.078	3.8
2338.937	3.8
2342.792	-1.2
2346.643	2.8
2350.492	1.8
2354.336	3.8
2358.178	2.8
2362.015	5.8
2365.85	1.8
2369.681	3.8
2373.508	-1.2
2377.333	0.8
2381.153	1.8
2384.971	2.8
2388.785	5.8
2392.595	7.8
2396.402	6.8
2400.206	3.8
2404.007	0.8
2407.804	-0.2
2411.597	-1.2
2415.388	0.8
2419.174	1.8
2422.958	8.8
2426.738	1.8
2430.515	6.8
2434.289	4.8
2438.059	3.8
2441.825	-2.2
2445.589	0.8
2449.349	-1.2
2453.106	3.8
2456.859	0.8
2460.61	5.8
2464.356	4.8
2468.1	4.8
2471.84	-1.2
2475.577	0.8
2479.311	0.8
2483.041	1.8
2486.768	1.8
2490.492	0.8
2494.213	4.8
2497.93	0.8
2501.644	4.8
2505.355	0.8
2509.062	-0.2
2512.766	1.8
2516.467	-3.2
2520.165	-1.2
2523.859	1.8
2527.551	1.8
2531.239	2.8
2534.923	1.8
2538.605	2.8
2542.283	-3.2
2545.958	2.8
2549.63	0.8
2553.299	0.8
2556.964	1.8
2560.626	2.8
2564.285	-2.2
2567.941	1.8
2571.594	-0.2
2575.243	-4.2
2578.89	2.8
2582.533	-1.2
2586.173	0.8
2589.809	1.8
2593.443	1.8
2597.073	3.8
2600.701	0.8
2604.325	1.8
2607.946	0.8
2611.564	5.8
2615.178	1.8
2618.79	1.8
2622.398	2.8
2626.004	0.8
2629.606	2.8
2633.205	1.8
2636.801	5.8
2640.394	0.8
2643.983	1.8
2647.57	4.8
2651.153	1.8
2654.734	1.8
2658.311	-1.2
2661.885	-0.2
2665.456	2.8
2669.025	0.8
2672.589	3.8
2676.151	1.8
2679.71	5.8
2683.266	0.8
2686.819	5.8
2690.368	0.8
2693.915	-1.2
2697.458	0.8
2700.999	7.8
2704.536	3.8
2708.071	5.8
2711.602	4.8
2715.13	5.8
2718.656	2.8
2722.178	0.8
2725.697	-2.2
2729.214	0.8
2732.727	2.8
2736.237	5.8
2739.744	6.8
2743.249	8.8
2746.75	5.8
2750.248	2.8
2753.743	3.8
2757.236	0.8
2760.725	-1.2
2764.211	0.8
2767.695	0.8
2771.175	0.8
2774.652	5.8
2778.127	2.8
2781.598	3.8
2785.067	-0.2
2788.532	-2.2
2791.995	-0.2
2795.455	-0.2
2798.911	-0.2
2802.365	3.8
2805.816	4.8
2809.264	2.8
2812.709	3.8
2816.151	5.8
2819.59	1.8
2823.026	0.8
2826.46	-0.2
2829.89	4.8
2833.318	4.8
2836.742	12.8
2840.164	15.8
2843.583	17.8
2846.999	19.8
2850.412	17.8
2853.822	14.8
2857.229	11.8
2860.634	11.8
2864.035	15.8
2867.434	20.8
2870.83	24.8
2874.223	28.8
2877.613	30.8
2881	27.8
2884.385	34.8
2887.766	36.8
2891.145	34.8
2894.521	30.8
2897.894	27.8
2901.264	27.8
2904.631	27.8
2907.996	30.8
2911.358	25.8
2914.717	23.8
2918.073	20.8
2921.426	22.8
2924.777	16.8
2928.124	16.8
2931.469	12.8
2934.811	14.8
2938.15	16.8
2941.487	13.8
2944.821	16.8
2948.152	9.8
2951.48	13.8
2954.805	19.8
2958.128	17.8
2961.447	12.8
2964.765	13.8
2968.079	18.8
2971.39	11.8
2974.699	12.8
2978.005	6.8
2981.308	6.8
2984.609	3.8
2987.907	5.8
2991.202	6.8
2994.494	4.8
2997.784	5.8
3001.07	4.8
3004.355	-2.2
3007.636	3.8
3010.915	0.8
3014.191	2.8
3017.464	1.8
3020.734	3.8
3024.002	1.8
3027.267	4.8
3030.53	1.8
3033.789	1.8
3037.046	-3.2
3040.301	1.8
3043.552	-2.2
3046.801	4.8
3050.048	0.8
3053.291	2.8
3056.532	3.8
3059.771	5.8
3063.006	-0.2
3066.239	-2.2
3069.469	0.8
3072.697	0.8
3075.922	-1.2
3079.144	-0.2
3082.364	1.8
3085.581	1.8
3088.795	5.8
3092.007	1.8
3095.216	-0.2
3098.423	-0.2
3101.627	-3.2
3104.828	1.8
3108.026	1.8
3111.222	-0.2
3114.416	2.8
3117.607	5.8
3120.795	2.8
3123.98	2.8
3127.163	3.8
3130.344	4.8
3133.521	1.8
3136.696	-2.2
3139.869	2.8
3143.039	3.8
3146.206	6.8
3149.371	7.8
3152.533	1.8
3155.693	3.8
3158.85	3.8
3162.005	-0.2
3165.157	-0.2
3168.306	-0.2
3171.453	-0.2
3174.597	3.8
3177.739	2.8
3180.878	7.8
3184.014	4.8
3187.149	0.8
3190.28	-1.2
3193.409	-2.2
3196.536	-1.2
3199.659	4.8
3202.781	4.8
3205.9	5.8
3209.016	4.8
3212.13	7.8
3215.241	2.8
3218.35	8.8
3221.456	3.8
3224.56	4.8
3227.661	0.8
3230.76	5.8
3233.856	5.8
3236.95	7.8
3240.041	1.8
3243.13	4.8
3246.216	2.8
3249.3	3.8
3252.382	4.8
3255.46	5.8
3258.537	3.8
3261.611	5.8
3264.682	0.8
3267.751	1.8
3270.818	-0.2
3273.882	2.8
3276.943	1.8
3280.002	2.8
3283.059	4.8
3286.113	5.8
3289.165	-0.2
3292.214	3.8
3295.261	-2.2
3298.306	-0.2
3301.348	-0.2
3304.387	-1.2
3307.425	4.8
3310.459	5.8
3313.492	-0.2
3316.521	3.8
3319.549	0.8
3322.574	1.8
3325.597	-2.2
3328.617	-4.2
3331.635	-0.2
3334.65	-1.2
3337.663	0.8
3340.674	6.8
3343.682	6.8
3346.688	2.8
3349.691	3.8
3352.692	0.8
3355.691	-5.2
3358.687	-4.2
3361.681	-1.2
3364.673	2.8
3367.662	1.8
3370.649	5.8
3373.633	2.8
3376.615	4.8
3379.595	-2.2
3382.572	1.8
3385.547	-1.2
3388.52	-5.2
3391.49	1.8
3394.458	2.8
3397.424	2.8
3400.387	3.8
3403.348	-1.2
3406.307	-1.2
3409.263	0.8
3412.217	-0.2
3415.168	-0.2
3418.118	-0.2
3421.065	0.8
3424.009	-1.2
3426.951	3.8
3429.891	-0.2
3432.829	2.8
3435.764	0.8
3438.697	-0.2
3441.628	-0.2
3444.557	0.8
3447.483	-1.2
3450.407	-1.2
3453.328	3.8
3456.247	-3.2
3459.164	2.8
3462.079	1.8
3464.991	-0.2
3467.902	-2.2
3470.809	-0.2
3473.715	-1.2
3476.618	-2.2
3479.519	-6.2
3482.418	-2.2
3485.315	-1.2
3488.209	0.8
3491.101	0.8
3493.99	-4.2
3496.878	-0.2
3499.763	-0.2
3502.646	-3.2
3505.527	-1.2
3508.405	-0.2
3511.281	-1.2
3514.155	-2.2
3517.027	2.8
3519.897	2.8
3522.764	-1.2
3525.629	-2.2
3528.492	-1.2
3531.352	-2.2
3534.211	-2.2
3537.067	-10.2
3539.921	-2.2
3542.773	-4.2
3545.622	3.8
3548.469	-4.2
3551.315	0.8
3554.157	-3.2
3556.998	-3.2
3559.837	-9.2
3562.673	-4.2
3565.507	-5.2
3568.339	-0.2
3571.169	2.8
3573.996	2.8
3576.822	-0.2
3579.645	-3.2
3582.466	-2.2
3585.285	-2.2
3588.101	-4.2
3590.916	-3.2
3593.728	-2.2
3596.538	0.8
3599.346	-2.2
3602.152	-0.2
3604.956	-2.2
3607.757	-2.2
3610.556	-3.2
3613.354	-4.2
3616.149	-6.2
3618.942	-4.2
3621.732	-2.2
3624.521	-0.2
3627.307	-3.2
3630.092	-2.2
3632.874	-2.2
3635.654	-3.2
3638.432	-3.2
3641.208	-3.2
3643.982	-1.2
3646.753	-1.2
3649.523	-4.2
3652.29	-1.2
3655.055	-3.2
3657.818	-3.2
3660.579	-0.2
3663.338	-2.2
3666.095	-0.2
3668.849	-1.2
3671.602	-3.2
3674.352	0.8
3677.101	-3.2
3679.847	-2.2
3682.591	-0.2
3685.333	-1.2
3688.073	-2.2
3690.811	-0.2
3693.547	0.8
3696.281	-3.2
3699.013	-3.2
3701.742	-4.2
3704.47	-5.2
3707.195	-3.2
3709.919	-2.2
3712.64	-1.2
3715.359	-1.2
3718.076	0.8
3720.792	-1.2
3723.505	-1.2
3726.216	-5.2
3728.925	-4.2
3731.632	-3.2
3734.336	-3.2
3737.039	1.8
3739.74	1.8
3742.439	-1.2
3745.136	-2.2
3747.83	-4.2
3750.523	-4.2
3753.213	-5.2
3755.902	0.8
3758.589	-0.2
3761.273	-2.2
3763.956	0.8
3766.636	-2.2
3769.315	-5.2
3771.991	-4.2
3774.665	-2.2
3777.338	-3.2
3780.008	-1.2
3782.677	-3.2
3785.343	-2.2
3788.007	0.8
3790.67	-0.2
3793.33	-0.2
3795.989	-3.2
3798.645	-4.2
3801.299	-5.2
3803.952	-2.2
3806.602	-4.2
3809.251	-0.2
3811.897	-0.2
3814.542	1.8
3817.184	-3.2
3819.825	-6.2
3822.463	-3.2
3825.1	-4.2
3827.735	-7.2
3830.367	-0.2
3832.998	-2.2
3835.627	2.8
3838.253	2.8
3840.878	-3.2
3843.501	-2.2
3846.122	-2.2
3848.741	-6.2
3851.358	-1.2
3853.973	-1.2
3856.586	-2.2
3859.197	-1.2
3861.806	-3.2
3864.414	-2.2
3867.019	-1.2
3869.622	-5.2
3872.224	-7.2
3874.823	-2.2
3877.421	-0.2
3880.016	-3.2
3882.61	0.8
3885.202	3.8
3887.792	2.8
3890.38	-1.2
3892.966	-2.2
3895.55	-4.2
3898.132	-1.2
3900.713	-2.2
3903.291	-2.2
3905.868	-4.2
3908.442	-3.2
3911.015	-6.2
3913.586	-2.2
3916.155	-0.2
3918.722	-0.2
3921.287	-2.2
3923.85	0.8
3926.411	-3.2
3928.971	-5.2
3931.528	-4.2
3934.084	-3.2
3936.638	-1.2
3939.19	-3.2
3941.74	0.8
3944.288	-3.2
3946.834	-2.2
3949.378	-1.2
3951.921	-5.2
3954.462	-3.2
3957	-7.2
3959.537	2.8
3962.072	-1.2
3964.606	-1.2
3967.137	0.8
3969.667	3.8
3972.194	-3.2
3974.72	-3.2
3977.244	-6.2
3979.766	-2.2
3982.286	-6.2
3984.805	-0.2
3987.321	-1.2
3989.836	-2.2
3992.349	-0.2
3994.86	0.8
3997.369	-5.2
3999.877	-2.2
4002.382	-6.2
4004.886	-5.2
4007.388	-3.2
4009.888	-3.2
4012.386	-1.2
4014.883	-2.2
4017.377	-0.2
4019.87	-2.2
4022.361	-2.2
4024.85	-5.2
4027.338	-7.2
4029.823	-5.2
4032.307	-5.2
4034.789	-3.2
4037.269	1.8
4039.747	0.8
4042.224	-2.2
4044.699	-3.2
4047.172	-4.2
4049.643	-8.2
4052.112	-8.2
4054.58	-6.2
4057.046	-5.2
4059.51	-1.2
4061.972	1.8
4064.432	1.8
4066.891	-1.2
4069.348	-1.2
4071.803	-3.2
4074.256	-9.2
4076.708	-1.2
4079.158	-1.2
4081.606	-7.2
4084.052	0.8
4086.497	0.8
4088.939	0.8
4091.38	-0.2
4093.819	-0.2
4096.257	-7.2
4098.693	-5.2
4101.127	-6.2
4103.559	0.8
4105.989	4.8
4108.418	0.8
4110.845	3.8
4113.27	1.8
4115.694	2.8
4118.115	1.8
4120.535	-3.2
4122.954	-3.2
4125.37	-6.2
4127.785	-7.2
4130.198	-2.2
4132.609	-2.2
4135.019	-2.2
4137.427	-0.2
4139.833	-1.2
4142.237	-3.2
