Data from 0.25_n=2_RamanShift_02.txt Node
Date: Mon Mar 19 12:11:28 IST 2018
User: aro
Spectrometer: QEPB0276
Trigger mode: 0
Integration Time (sec): 5.000000E0
Scans to average: 1
Electric dark correction enabled: true
Nonlinearity correction enabled: false
Boxcar width: 0
XAxis mode: Raman Shifts
Number of Pixels in Spectrum: 1044
>>>>>Begin Spectral Data<<<<<
160.701	2.4
166.742	-0.6
172.777	0.4
178.805	10.4
184.826	18.4
190.841	40.4
196.849	68.4
202.85	87.4
208.845	90.4
214.833	93.4
220.815	89.4
226.789	90.4
232.758	90.4
238.719	91.4
244.674	97.4
250.623	100.4
256.565	97.4
262.5	96.4
268.429	98.4
274.351	96.4
280.267	95.4
286.176	91.4
292.079	97.4
297.975	96.4
303.865	97.4
309.748	105.4
315.625	100.4
321.495	102.4
327.359	100.4
333.217	104.4
339.068	101.4
344.912	108.4
350.751	99.4
356.583	100.4
362.408	98.4
368.227	103.4
374.04	106.4
379.847	116.4
385.647	116.4
391.44	121.4
397.228	117.4
403.009	127.4
408.784	130.4
414.553	135.4
420.315	146.4
426.071	153.4
431.821	136.4
437.565	116.4
443.302	107.4
449.033	108.4
454.758	107.4
460.477	106.4
466.189	108.4
471.896	104.4
477.596	100.4
483.29	100.4
488.978	96.4
494.66	97.4
500.335	94.4
506.005	86.4
511.668	82.4
517.325	72.4
522.977	73.4
528.622	70.4
534.261	70.4
539.894	65.4
545.521	63.4
551.141	58.4
556.756	57.4
562.365	50.4
567.968	52.4
573.565	55.4
579.155	49.4
584.74	50.4
590.319	53.4
595.892	53.4
601.459	55.4
607.02	54.4
612.575	50.4
618.124	46.4
623.667	49.4
629.204	47.4
634.735	45.4
640.261	47.4
645.781	53.4
651.294	62.4
656.802	57.4
662.304	51.4
667.8	47.4
673.29	42.4
678.775	45.4
684.254	45.4
689.726	42.4
695.193	46.4
700.655	43.4
706.11	45.4
711.56	44.4
717.004	43.4
722.442	41.4
727.874	40.4
733.301	34.4
738.722	39.4
744.137	45.4
749.547	46.4
754.951	44.4
760.349	48.4
765.741	45.4
771.128	44.4
776.509	43.4
781.885	46.4
787.254	46.4
792.618	49.4
797.977	54.4
803.33	57.4
808.677	71.4
814.019	75.4
819.355	76.4
824.686	63.4
830.011	54.4
835.33	53.4
840.644	58.4
845.952	66.4
851.255	65.4
856.552	62.4
861.844	49.4
867.13	43.4
872.41	43.4
877.686	39.4
882.955	31.4
888.219	36.4
893.478	37.4
898.731	42.4
903.979	40.4
909.221	47.4
914.458	38.4
919.69	38.4
924.916	33.4
930.136	33.4
935.351	39.4
940.561	36.4
945.766	40.4
950.965	38.4
956.158	41.4
961.347	42.4
966.529	43.4
971.707	41.4
976.879	46.4
982.046	41.4
987.208	42.4
992.364	37.4
997.515	41.4
1002.66	46.4
1007.801	46.4
1012.936	37.4
1018.066	40.4
1023.19	32.4
1028.309	34.4
1033.423	37.4
1038.532	44.4
1043.636	47.4
1048.734	50.4
1053.827	39.4
1058.915	37.4
1063.998	37.4
1069.075	30.4
1074.147	31.4
1079.214	28.4
1084.276	31.4
1089.333	37.4
1094.385	35.4
1099.431	36.4
1104.472	37.4
1109.509	37.4
1114.54	30.4
1119.565	29.4
1124.586	34.4
1129.602	29.4
1134.613	31.4
1139.618	33.4
1144.619	40.4
1149.614	44.4
1154.604	56.4
1159.589	56.4
1164.57	59.4
1169.545	46.4
1174.515	48.4
1179.48	42.4
1184.44	36.4
1189.395	30.4
1194.345	35.4
1199.29	35.4
1204.23	36.4
1209.165	27.4
1214.095	31.4
1219.021	37.4
1223.941	42.4
1228.856	38.4
1233.766	36.4
1238.672	35.4
1243.572	32.4
1248.467	32.4
1253.358	33.4
1258.244	34.4
1263.124	32.4
1268	28.4
1272.871	28.4
1277.737	28.4
1282.599	27.4
1287.455	32.4
1292.306	33.4
1297.153	31.4
1301.995	33.4
1306.832	34.4
1311.664	32.4
1316.491	36.4
1321.314	36.4
1326.132	40.4
1330.945	49.4
1335.753	55.4
1340.556	48.4
1345.354	39.4
1350.148	36.4
1354.937	33.4
1359.722	35.4
1364.501	34.4
1369.276	39.4
1374.046	34.4
1378.811	32.4
1383.572	21.4
1388.327	29.4
1393.079	28.4
1397.825	27.4
1402.567	24.4
1407.304	25.4
1412.036	23.4
1416.764	20.4
1421.487	24.4
1426.205	23.4
1430.919	23.4
1435.628	35.4
1440.333	37.4
1445.032	44.4
1449.727	43.4
1454.418	52.4
1459.104	60.4
1463.785	63.4
1468.462	58.4
1473.134	44.4
1477.802	36.4
1482.465	28.4
1487.123	29.4
1491.777	29.4
1496.426	26.4
1501.071	24.4
1505.711	22.4
1510.347	21.4
1514.978	16.4
1519.604	19.4
1524.226	17.4
1528.844	21.4
1533.457	21.4
1538.065	29.4
1542.669	20.4
1547.269	23.4
1551.864	16.4
1556.454	18.4
1561.041	18.4
1565.622	16.4
1570.199	16.4
1574.772	17.4
1579.34	20.4
1583.904	25.4
1588.464	21.4
1593.019	20.4
1597.569	18.4
1602.115	21.4
1606.657	14.4
1611.195	15.4
1615.728	15.4
1620.256	18.4
1624.78	18.4
1629.3	17.4
1633.816	18.4
1638.327	24.4
1642.834	18.4
1647.336	19.4
1651.834	19.4
1656.328	19.4
1660.817	20.4
1665.302	20.4
1669.783	17.4
1674.259	15.4
1678.732	15.4
1683.199	18.4
1687.663	18.4
1692.122	16.4
1696.577	16.4
1701.028	17.4
1705.474	14.4
1709.917	19.4
1714.355	15.4
1718.788	17.4
1723.218	15.4
1727.643	13.4
1732.064	12.4
1736.481	17.4
1740.893	12.4
1745.301	20.4
1749.705	17.4
1754.105	12.4
1758.501	14.4
1762.893	11.4
1767.28	10.4
1771.663	15.4
1776.042	9.4
1780.417	14.4
1784.787	12.4
1789.154	11.4
1793.516	16.4
1797.874	14.4
1802.228	13.4
1806.578	8.4
1810.924	13.4
1815.266	13.4
1819.603	14.4
1823.937	15.4
1828.266	11.4
1832.591	14.4
1836.913	6.4
1841.23	8.4
1845.543	10.4
1849.852	11.4
1854.156	9.4
1858.457	11.4
1862.754	17.4
1867.047	11.4
1871.335	14.4
1875.62	8.4
1879.9	11.4
1884.177	13.4
1888.449	7.4
1892.718	11.4
1896.982	13.4
1901.243	15.4
1905.499	12.4
1909.752	12.4
1914	14.4
1918.245	11.4
1922.485	9.4
1926.722	10.4
1930.954	8.4
1935.183	9.4
1939.408	9.4
1943.628	13.4
1947.845	12.4
1952.058	13.4
1956.267	13.4
1960.472	6.4
1964.673	9.4
1968.87	6.4
1973.063	9.4
1977.252	7.4
1981.438	9.4
1985.619	14.4
1989.797	8.4
1993.971	7.4
1998.14	10.4
2002.306	7.4
2006.469	10.4
2010.627	9.4
2014.781	6.4
2018.932	9.4
2023.078	5.4
2027.221	9.4
2031.36	7.4
2035.495	11.4
2039.627	6.4
2043.754	7.4
2047.878	9.4
2051.998	10.4
2056.114	6.4
2060.226	12.4
2064.334	6.4
2068.439	5.4
2072.54	4.4
2076.637	10.4
2080.73	10.4
2084.82	11.4
2088.906	10.4
2092.988	10.4
2097.066	8.4
2101.14	7.4
2105.211	10.4
2109.278	6.4
2113.342	5.4
2117.401	6.4
2121.457	8.4
2125.509	9.4
2129.558	6.4
2133.602	10.4
2137.643	4.4
2141.681	2.4
2145.714	3.4
2149.744	4.4
2153.77	2.4
2157.793	11.4
2161.812	6.4
2165.827	10.4
2169.838	7.4
2173.846	6.4
2177.851	5.4
2181.851	2.4
2185.848	6.4
2189.841	6.4
2193.831	5.4
2197.817	11.4
2201.799	6.4
2205.778	7.4
2209.753	6.4
2213.725	1.4
2217.693	3.4
2221.657	2.4
2225.618	4.4
2229.575	7.4
2233.529	4.4
2237.479	3.4
2241.425	3.4
2245.368	6.4
2249.307	1.4
2253.243	8.4
2257.175	2.4
2261.104	6.4
2265.029	3.4
2268.95	5.4
2272.868	2.4
2276.783	5.4
2280.694	6.4
2284.601	4.4
2288.505	6.4
2292.405	4.4
2296.302	2.4
2300.195	5.4
2304.085	0.4
2307.971	3.4
2311.854	0.4
2315.734	3.4
2319.609	4.4
2323.482	5.4
2327.351	3.4
2331.216	9.4
2335.078	3.4
2338.937	5.4
2342.792	-0.6
2346.643	-0.6
2350.492	2.4
2354.336	0.4
2358.178	2.4
2362.015	8.4
2365.85	5.4
2369.681	5.4
2373.508	1.4
2377.333	0.4
2381.153	-0.6
2384.971	2.4
2388.785	2.4
2392.595	5.4
2396.402	5.4
2400.206	3.4
2404.007	2.4
2407.804	1.4
2411.597	2.4
2415.388	-3.6
2419.174	1.4
2422.958	6.4
2426.738	0.4
2430.515	6.4
2434.289	3.4
2438.059	3.4
2441.825	-3.6
2445.589	0.4
2449.349	-1.6
2453.106	0.4
2456.859	4.4
2460.61	2.4
2464.356	6.4
2468.1	3.4
2471.84	2.4
2475.577	4.4
2479.311	1.4
2483.041	3.4
2486.768	-0.6
2490.492	0.4
2494.213	0.4
2497.93	-0.6
2501.644	2.4
2505.355	1.4
2509.062	3.4
2512.766	2.4
2516.467	-0.6
2520.165	1.4
2523.859	-0.6
2527.551	-0.6
2531.239	2.4
2534.923	-0.6
2538.605	-0.6
2542.283	-1.6
2545.958	2.4
2549.63	4.4
2553.299	-0.6
2556.964	2.4
2560.626	-0.6
2564.285	-5.6
2567.941	-1.6
2571.594	-3.6
2575.243	-2.6
2578.89	4.4
2582.533	0.4
2586.173	2.4
2589.809	1.4
2593.443	4.4
2597.073	2.4
2600.701	-4.6
2604.325	-1.6
2607.946	0.4
2611.564	5.4
2615.178	6.4
2618.79	6.4
2622.398	3.4
2626.004	0.4
2629.606	3.4
2633.205	-4.6
2636.801	0.4
2640.394	0.4
2643.983	4.4
2647.57	6.4
2651.153	8.4
2654.734	3.4
2658.311	2.4
2661.885	0.4
2665.456	-1.6
2669.025	-0.6
2672.589	0.4
2676.151	1.4
2679.71	5.4
2683.266	0.4
2686.819	6.4
2690.368	1.4
2693.915	0.4
2697.458	-0.6
2700.999	2.4
2704.536	2.4
2708.071	6.4
2711.602	2.4
2715.13	3.4
2718.656	4.4
2722.178	4.4
2725.697	0.4
2729.214	2.4
2732.727	0.4
2736.237	2.4
2739.744	-0.6
2743.249	8.4
2746.75	2.4
2750.248	2.4
2753.743	0.4
2757.236	2.4
2760.725	-1.6
2764.211	0.4
2767.695	-0.6
2771.175	-1.6
2774.652	3.4
2778.127	1.4
2781.598	5.4
2785.067	-1.6
2788.532	2.4
2791.995	-1.6
2795.455	5.4
2798.911	3.4
2802.365	-1.6
2805.816	1.4
2809.264	2.4
2812.709	1.4
2816.151	4.4
2819.59	2.4
2823.026	1.4
2826.46	0.4
2829.89	2.4
2833.318	6.4
2836.742	9.4
2840.164	14.4
2843.583	15.4
2846.999	13.4
2850.412	16.4
2853.822	13.4
2857.229	14.4
2860.634	12.4
2864.035	14.4
2867.434	20.4
2870.83	18.4
2874.223	23.4
2877.613	31.4
2881	28.4
2884.385	26.4
2887.766	36.4
2891.145	32.4
2894.521	31.4
2897.894	30.4
2901.264	31.4
2904.631	24.4
2907.996	31.4
2911.358	28.4
2914.717	25.4
2918.073	19.4
2921.426	21.4
2924.777	19.4
2928.124	15.4
2931.469	14.4
2934.811	10.4
2938.15	20.4
2941.487	14.4
2944.821	13.4
2948.152	11.4
2951.48	14.4
2954.805	15.4
2958.128	16.4
2961.447	13.4
2964.765	12.4
2968.079	19.4
2971.39	13.4
2974.699	12.4
2978.005	6.4
2981.308	7.4
2984.609	4.4
2987.907	4.4
2991.202	5.4
2994.494	4.4
2997.784	4.4
3001.07	5.4
3004.355	1.4
3007.636	1.4
3010.915	1.4
3014.191	4.4
3017.464	1.4
3020.734	3.4
3024.002	0.4
3027.267	3.4
3030.53	-0.6
3033.789	1.4
3037.046	-5.6
3040.301	0.4
3043.552	-1.6
3046.801	7.4
3050.048	-0.6
3053.291	2.4
3056.532	1.4
3059.771	3.4
3063.006	-1.6
3066.239	-1.6
3069.469	0.4
3072.697	1.4
3075.922	-1.6
3079.144	4.4
3082.364	0.4
3085.581	4.4
3088.795	4.4
3092.007	1.4
3095.216	0.4
3098.423	-4.6
3101.627	-7.6
3104.828	0.4
3108.026	0.4
3111.222	2.4
3114.416	6.4
3117.607	3.4
3120.795	4.4
3123.98	4.4
3127.163	2.4
3130.344	-1.6
3133.521	1.4
3136.696	2.4
3139.869	5.4
3143.039	4.4
3146.206	5.4
3149.371	3.4
3152.533	7.4
3155.693	3.4
3158.85	-2.6
3162.005	0.4
3165.157	-0.6
3168.306	-0.6
3171.453	-1.6
3174.597	4.4
3177.739	3.4
3180.878	7.4
3184.014	5.4
3187.149	0.4
3190.28	-2.6
3193.409	-1.6
3196.536	-3.6
3199.659	5.4
3202.781	2.4
3205.9	5.4
3209.016	3.4
3212.13	4.4
3215.241	4.4
3218.35	5.4
3221.456	1.4
3224.56	6.4
3227.661	3.4
3230.76	5.4
3233.856	2.4
3236.95	4.4
3240.041	0.4
3243.13	-0.6
3246.216	1.4
3249.3	6.4
3252.382	3.4
3255.46	4.4
3258.537	3.4
3261.611	6.4
3264.682	-0.6
3267.751	0.4
3270.818	2.4
3273.882	2.4
3276.943	1.4
3280.002	2.4
3283.059	4.4
3286.113	3.4
3289.165	2.4
3292.214	-0.6
3295.261	-0.6
3298.306	0.4
3301.348	1.4
3304.387	-0.6
3307.425	1.4
3310.459	6.4
3313.492	-0.6
3316.521	4.4
3319.549	-1.6
3322.574	0.4
3325.597	-4.6
3328.617	-0.6
3331.635	0.4
3334.65	2.4
3337.663	3.4
3340.674	6.4
3343.682	3.4
3346.688	3.4
3349.691	1.4
3352.692	-1.6
3355.691	-2.6
3358.687	-2.6
3361.681	0.4
3364.673	3.4
3367.662	-2.6
3370.649	7.4
3373.633	4.4
3376.615	4.4
3379.595	-3.6
3382.572	1.4
3385.547	-2.6
3388.52	-1.6
3391.49	0.4
3394.458	-0.6
3397.424	-1.6
3400.387	5.4
3403.348	-0.6
3406.307	-1.6
3409.263	3.4
3412.217	0.4
3415.168	-3.6
3418.118	-0.6
3421.065	2.4
3424.009	2.4
3426.951	3.4
3429.891	-0.6
3432.829	-0.6
3435.764	3.4
3438.697	-3.6
3441.628	-1.6
3444.557	-1.6
3447.483	0.4
3450.407	-0.6
3453.328	3.4
3456.247	-4.6
3459.164	0.4
3462.079	2.4
3464.991	0.4
3467.902	-1.6
3470.809	1.4
3473.715	-0.6
3476.618	-0.6
3479.519	-4.6
3482.418	-4.6
3485.315	-1.6
3488.209	-0.6
3491.101	-0.6
3493.99	0.4
3496.878	1.4
3499.763	0.4
3502.646	1.4
3505.527	-2.6
3508.405	-3.6
3511.281	-4.6
3514.155	-4.6
3517.027	1.4
3519.897	2.4
3522.764	-0.6
3525.629	-1.6
3528.492	0.4
3531.352	-2.6
3534.211	-2.6
3537.067	-9.6
3539.921	-7.6
3542.773	-2.6
3545.622	2.4
3548.469	-1.6
3551.315	3.4
3554.157	-3.6
3556.998	-1.6
3559.837	-8.6
3562.673	-4.6
3565.507	-5.6
3568.339	-3.6
3571.169	-3.6
3573.996	0.4
3576.822	1.4
3579.645	-0.6
3582.466	-1.6
3585.285	-0.6
3588.101	-5.6
3590.916	-0.6
3593.728	-3.6
3596.538	-3.6
3599.346	-6.6
3602.152	-0.6
3604.956	-2.6
3607.757	0.4
3610.556	-3.6
3613.354	-1.6
3616.149	-4.6
3618.942	-3.6
3621.732	-0.6
3624.521	-1.6
3627.307	-2.6
3630.092	-3.6
3632.874	-0.6
3635.654	-2.6
3638.432	-5.6
3641.208	-1.6
3643.982	1.4
3646.753	-1.6
3649.523	-6.6
3652.29	-3.6
3655.055	-8.6
3657.818	-6.6
3660.579	0.4
3663.338	-2.6
3666.095	-2.6
3668.849	-0.6
3671.602	-4.6
3674.352	0.4
3677.101	-4.6
3679.847	-7.6
3682.591	-3.6
3685.333	-2.6
3688.073	-1.6
3690.811	-0.6
3693.547	1.4
3696.281	-2.6
3699.013	-2.6
3701.742	-3.6
3704.47	-8.6
3707.195	-4.6
3709.919	-6.6
3712.64	-5.6
3715.359	-0.6
3718.076	0.4
3720.792	0.4
3723.505	-3.6
3726.216	-6.6
3728.925	-3.6
3731.632	-4.6
3734.336	-4.6
3737.039	-2.6
3739.74	-2.6
3742.439	-2.6
3745.136	0.4
3747.83	-2.6
3750.523	-3.6
3753.213	-8.6
3755.902	-1.6
3758.589	-3.6
3761.273	0.4
3763.956	-2.6
3766.636	-1.6
3769.315	-1.6
3771.991	-2.6
3774.665	-2.6
3777.338	-0.6
3780.008	-2.6
3782.677	-6.6
3785.343	-4.6
3788.007	-2.6
3790.67	-2.6
3793.33	0.4
3795.989	-1.6
3798.645	-4.6
3801.299	-1.6
3803.952	-4.6
3806.602	-2.6
3809.251	-3.6
3811.897	-4.6
3814.542	-3.6
3817.184	-3.6
3819.825	-4.6
3822.463	-3.6
3825.1	-3.6
3827.735	-4.6
3830.367	-1.6
3832.998	-3.6
3835.627	-0.6
3838.253	-1.6
3840.878	-4.6
3843.501	-0.6
3846.122	-2.6
3848.741	-3.6
3851.358	-2.6
3853.973	0.4
3856.586	-3.6
3859.197	-3.6
3861.806	-6.6
3864.414	-4.6
3867.019	-3.6
3869.622	-5.6
3872.224	-1.6
3874.823	-2.6
3877.421	-0.6
3880.016	-1.6
3882.61	-1.6
3885.202	-1.6
3887.792	-3.6
3890.38	-1.6
3892.966	-1.6
3895.55	-0.6
3898.132	1.4
3900.713	2.4
3903.291	-0.6
3905.868	-0.6
3908.442	-4.6
3911.015	-9.6
3913.586	-3.6
3916.155	-0.6
3918.722	-3.6
3921.287	0.4
3923.85	2.4
3926.411	-2.6
3928.971	-4.6
3931.528	-3.6
3934.084	-6.6
3936.638	-3.6
3939.19	-4.6
3941.74	-3.6
3944.288	-1.6
3946.834	-0.6
3949.378	-1.6
3951.921	-0.6
3954.462	-6.6
3957	-5.6
3959.537	-3.6
3962.072	-0.6
3964.606	-3.6
3967.137	-0.6
3969.667	0.4
3972.194	-0.6
3974.72	-1.6
3977.244	-5.6
3979.766	-3.6
3982.286	-6.6
3984.805	-7.6
3987.321	-2.6
3989.836	-3.6
3992.349	0.4
3994.86	1.4
3997.369	-5.6
3999.877	-2.6
4002.382	-4.6
4004.886	-4.6
4007.388	-3.6
4009.888	-7.6
4012.386	-3.6
4014.883	-1.6
4017.377	-3.6
4019.87	0.4
4022.361	0.4
4024.85	-3.6
4027.338	-5.6
4029.823	-2.6
4032.307	-3.6
4034.789	-6.6
4037.269	-1.6
4039.747	-0.6
4042.224	0.4
4044.699	-3.6
4047.172	-5.6
4049.643	-7.6
4052.112	-7.6
4054.58	-4.6
4057.046	-4.6
4059.51	-3.6
4061.972	1.4
4064.432	0.4
4066.891	-0.6
4069.348	-0.6
4071.803	-3.6
4074.256	-8.6
4076.708	-4.6
4079.158	-1.6
4081.606	-5.6
4084.052	-2.6
4086.497	-3.6
4088.939	1.4
4091.38	-0.6
4093.819	-0.6
4096.257	-2.6
4098.693	-2.6
4101.127	-3.6
4103.559	-0.6
4105.989	2.4
4108.418	3.4
4110.845	0.4
4113.27	1.4
4115.694	0.4
4118.115	4.4
4120.535	-5.6
4122.954	-3.6
4125.37	-8.6
4127.785	-5.6
4130.198	-5.6
4132.609	-2.6
4135.019	-1.6
4137.427	-1.6
4139.833	-3.6
4142.237	-5.6
