Data from 0.25_n=2_RamanShift_01.txt Node
Date: Mon Mar 19 12:11:23 IST 2018
User: aro
Spectrometer: QEPB0276
Trigger mode: 0
Integration Time (sec): 5.000000E0
Scans to average: 1
Electric dark correction enabled: true
Nonlinearity correction enabled: false
Boxcar width: 0
XAxis mode: Raman Shifts
Number of Pixels in Spectrum: 1044
>>>>>Begin Spectral Data<<<<<
160.701	1.6
166.742	0.6
172.777	-0.4
178.805	11.6
184.826	23.6
190.841	44.6
196.849	71.6
202.85	91.6
208.845	89.6
214.833	94.6
220.815	94.6
226.789	94.6
232.758	90.6
238.719	97.6
244.674	93.6
250.623	97.6
256.565	102.6
262.5	98.6
268.429	98.6
274.351	95.6
280.267	101.6
286.176	100.6
292.079	96.6
297.975	96.6
303.865	103.6
309.748	99.6
315.625	106.6
321.495	105.6
327.359	103.6
333.217	109.6
339.068	103.6
344.912	106.6
350.751	105.6
356.583	103.6
362.408	100.6
368.227	105.6
374.04	107.6
379.847	114.6
385.647	119.6
391.44	119.6
397.228	119.6
403.009	125.6
408.784	130.6
414.553	131.6
420.315	143.6
426.071	148.6
431.821	135.6
437.565	116.6
443.302	109.6
449.033	110.6
454.758	112.6
460.477	109.6
466.189	111.6
471.896	101.6
477.596	103.6
483.29	98.6
488.978	98.6
494.66	100.6
500.335	94.6
506.005	85.6
511.668	77.6
517.325	77.6
522.977	73.6
528.622	70.6
534.261	72.6
539.894	66.6
545.521	65.6
551.141	59.6
556.756	58.6
562.365	51.6
567.968	52.6
573.565	56.6
579.155	50.6
584.74	53.6
590.319	54.6
595.892	58.6
601.459	55.6
607.02	54.6
612.575	54.6
618.124	49.6
623.667	48.6
629.204	51.6
634.735	49.6
640.261	54.6
645.781	53.6
651.294	58.6
656.802	59.6
662.304	55.6
667.8	46.6
673.29	42.6
678.775	45.6
684.254	41.6
689.726	40.6
695.193	47.6
700.655	43.6
706.11	48.6
711.56	47.6
717.004	45.6
722.442	43.6
727.874	38.6
733.301	39.6
738.722	43.6
744.137	45.6
749.547	43.6
754.951	47.6
760.349	47.6
765.741	48.6
771.128	50.6
776.509	48.6
781.885	49.6
787.254	48.6
792.618	44.6
797.977	53.6
803.33	61.6
808.677	70.6
814.019	75.6
819.355	77.6
824.686	58.6
830.011	58.6
835.33	56.6
840.644	61.6
845.952	67.6
851.255	68.6
856.552	53.6
861.844	48.6
867.13	46.6
872.41	45.6
877.686	41.6
882.955	40.6
888.219	38.6
893.478	36.6
898.731	40.6
903.979	36.6
909.221	43.6
914.458	38.6
919.69	37.6
924.916	36.6
930.136	35.6
935.351	42.6
940.561	40.6
945.766	39.6
950.965	40.6
956.158	39.6
961.347	37.6
966.529	43.6
971.707	37.6
976.879	40.6
982.046	46.6
987.208	39.6
992.364	42.6
997.515	41.6
1002.66	43.6
1007.801	45.6
1012.936	37.6
1018.066	39.6
1023.19	35.6
1028.309	39.6
1033.423	38.6
1038.532	48.6
1043.636	47.6
1048.734	47.6
1053.827	41.6
1058.915	36.6
1063.998	34.6
1069.075	31.6
1074.147	31.6
1079.214	32.6
1084.276	37.6
1089.333	41.6
1094.385	36.6
1099.431	42.6
1104.472	37.6
1109.509	34.6
1114.54	28.6
1119.565	28.6
1124.586	33.6
1129.602	34.6
1134.613	32.6
1139.618	39.6
1144.619	40.6
1149.614	40.6
1154.604	50.6
1159.589	57.6
1164.57	55.6
1169.545	49.6
1174.515	49.6
1179.48	43.6
1184.44	38.6
1189.395	34.6
1194.345	40.6
1199.29	33.6
1204.23	31.6
1209.165	35.6
1214.095	32.6
1219.021	38.6
1223.941	45.6
1228.856	39.6
1233.766	42.6
1238.672	40.6
1243.572	36.6
1248.467	30.6
1253.358	30.6
1258.244	35.6
1263.124	29.6
1268	27.6
1272.871	27.6
1277.737	28.6
1282.599	34.6
1287.455	33.6
1292.306	34.6
1297.153	33.6
1301.995	36.6
1306.832	35.6
1311.664	33.6
1316.491	33.6
1321.314	35.6
1326.132	41.6
1330.945	54.6
1335.753	58.6
1340.556	49.6
1345.354	43.6
1350.148	34.6
1354.937	34.6
1359.722	36.6
1364.501	37.6
1369.276	37.6
1374.046	35.6
1378.811	30.6
1383.572	26.6
1388.327	29.6
1393.079	27.6
1397.825	26.6
1402.567	25.6
1407.304	26.6
1412.036	28.6
1416.764	20.6
1421.487	27.6
1426.205	20.6
1430.919	31.6
1435.628	34.6
1440.333	38.6
1445.032	40.6
1449.727	42.6
1454.418	54.6
1459.104	61.6
1463.785	62.6
1468.462	57.6
1473.134	52.6
1477.802	37.6
1482.465	32.6
1487.123	28.6
1491.777	28.6
1496.426	25.6
1501.071	25.6
1505.711	23.6
1510.347	24.6
1514.978	23.6
1519.604	24.6
1524.226	20.6
1528.844	24.6
1533.457	24.6
1538.065	27.6
1542.669	25.6
1547.269	22.6
1551.864	20.6
1556.454	22.6
1561.041	16.6
1565.622	18.6
1570.199	19.6
1574.772	20.6
1579.34	21.6
1583.904	24.6
1588.464	21.6
1593.019	17.6
1597.569	20.6
1602.115	20.6
1606.657	15.6
1611.195	19.6
1615.728	24.6
1620.256	25.6
1624.78	21.6
1629.3	19.6
1633.816	20.6
1638.327	20.6
1642.834	18.6
1647.336	15.6
1651.834	13.6
1656.328	20.6
1660.817	18.6
1665.302	24.6
1669.783	21.6
1674.259	17.6
1678.732	18.6
1683.199	19.6
1687.663	17.6
1692.122	15.6
1696.577	14.6
1701.028	22.6
1705.474	16.6
1709.917	21.6
1714.355	16.6
1718.788	16.6
1723.218	16.6
1727.643	13.6
1732.064	12.6
1736.481	12.6
1740.893	13.6
1745.301	20.6
1749.705	18.6
1754.105	18.6
1758.501	16.6
1762.893	16.6
1767.28	14.6
1771.663	9.6
1776.042	9.6
1780.417	12.6
1784.787	19.6
1789.154	15.6
1793.516	18.6
1797.874	18.6
1802.228	15.6
1806.578	12.6
1810.924	13.6
1815.266	9.6
1819.603	11.6
1823.937	14.6
1828.266	11.6
1832.591	12.6
1836.913	12.6
1841.23	11.6
1845.543	13.6
1849.852	9.6
1854.156	8.6
1858.457	10.6
1862.754	15.6
1867.047	14.6
1871.335	13.6
1875.62	8.6
1879.9	15.6
1884.177	12.6
1888.449	10.6
1892.718	11.6
1896.982	13.6
1901.243	11.6
1905.499	10.6
1909.752	11.6
1914	9.6
1918.245	10.6
1922.485	13.6
1926.722	14.6
1930.954	11.6
1935.183	13.6
1939.408	9.6
1943.628	11.6
1947.845	13.6
1952.058	11.6
1956.267	10.6
1960.472	8.6
1964.673	10.6
1968.87	9.6
1973.063	12.6
1977.252	8.6
1981.438	9.6
1985.619	11.6
1989.797	10.6
1993.971	7.6
1998.14	8.6
2002.306	9.6
2006.469	13.6
2010.627	12.6
2014.781	11.6
2018.932	15.6
2023.078	9.6
2027.221	7.6
2031.36	5.6
2035.495	12.6
2039.627	8.6
2043.754	7.6
2047.878	12.6
2051.998	11.6
2056.114	10.6
2060.226	10.6
2064.334	6.6
2068.439	4.6
2072.54	4.6
2076.637	7.6
2080.73	8.6
2084.82	11.6
2088.906	12.6
2092.988	9.6
2097.066	8.6
2101.14	9.6
2105.211	9.6
2109.278	4.6
2113.342	10.6
2117.401	8.6
2121.457	6.6
2125.509	14.6
2129.558	7.6
2133.602	9.6
2137.643	4.6
2141.681	6.6
2145.714	5.6
2149.744	5.6
2153.77	8.6
2157.793	14.6
2161.812	10.6
2165.827	11.6
2169.838	5.6
2173.846	3.6
2177.851	5.6
2181.851	4.6
2185.848	8.6
2189.841	6.6
2193.831	5.6
2197.817	10.6
2201.799	10.6
2205.778	7.6
2209.753	4.6
2213.725	2.6
2217.693	3.6
2221.657	1.6
2225.618	4.6
2229.575	8.6
2233.529	9.6
2237.479	4.6
2241.425	4.6
2245.368	5.6
2249.307	-1.4
2253.243	4.6
2257.175	-0.4
2261.104	7.6
2265.029	6.6
2268.95	0.6
2272.868	5.6
2276.783	4.6
2280.694	5.6
2284.601	6.6
2288.505	2.6
2292.405	5.6
2296.302	7.6
2300.195	4.6
2304.085	6.6
2307.971	4.6
2311.854	4.6
2315.734	6.6
2319.609	5.6
2323.482	2.6
2327.351	4.6
2331.216	4.6
2335.078	4.6
2338.937	4.6
2342.792	-1.4
2346.643	2.6
2350.492	4.6
2354.336	2.6
2358.178	5.6
2362.015	5.6
2365.85	5.6
2369.681	1.6
2373.508	0.6
2377.333	-0.4
2381.153	2.6
2384.971	5.6
2388.785	7.6
2392.595	6.6
2396.402	7.6
2400.206	4.6
2404.007	1.6
2407.804	-0.4
2411.597	1.6
2415.388	0.6
2419.174	4.6
2422.958	7.6
2426.738	2.6
2430.515	9.6
2434.289	5.6
2438.059	0.6
2441.825	-2.4
2445.589	-0.4
2449.349	-0.4
2453.106	1.6
2456.859	4.6
2460.61	7.6
2464.356	8.6
2468.1	5.6
2471.84	0.6
2475.577	3.6
2479.311	1.6
2483.041	0.6
2486.768	0.6
2490.492	-0.4
2494.213	2.6
2497.93	1.6
2501.644	6.6
2505.355	4.6
2509.062	2.6
2512.766	3.6
2516.467	-1.4
2520.165	0.6
2523.859	2.6
2527.551	-0.4
2531.239	2.6
2534.923	4.6
2538.605	3.6
2542.283	0.6
2545.958	4.6
2549.63	5.6
2553.299	4.6
2556.964	1.6
2560.626	1.6
2564.285	-2.4
2567.941	-0.4
2571.594	0.6
2575.243	0.6
2578.89	4.6
2582.533	5.6
2586.173	3.6
2589.809	5.6
2593.443	2.6
2597.073	3.6
2600.701	0.6
2604.325	-3.4
2607.946	1.6
2611.564	6.6
2615.178	8.6
2618.79	4.6
2622.398	4.6
2626.004	4.6
2629.606	3.6
2633.205	2.6
2636.801	0.6
2640.394	1.6
2643.983	3.6
2647.57	2.6
2651.153	6.6
2654.734	5.6
2658.311	3.6
2661.885	4.6
2665.456	3.6
2669.025	0.6
2672.589	1.6
2676.151	1.6
2679.71	3.6
2683.266	3.6
2686.819	7.6
2690.368	4.6
2693.915	1.6
2697.458	0.6
2700.999	3.6
2704.536	2.6
2708.071	2.6
2711.602	0.6
2715.13	7.6
2718.656	2.6
2722.178	5.6
2725.697	3.6
2729.214	2.6
2732.727	4.6
2736.237	3.6
2739.744	3.6
2743.249	7.6
2746.75	2.6
2750.248	1.6
2753.743	5.6
2757.236	3.6
2760.725	1.6
2764.211	3.6
2767.695	9.6
2771.175	1.6
2774.652	4.6
2778.127	1.6
2781.598	2.6
2785.067	-0.4
2788.532	-0.4
2791.995	2.6
2795.455	0.6
2798.911	4.6
2802.365	6.6
2805.816	5.6
2809.264	2.6
2812.709	4.6
2816.151	0.6
2819.59	1.6
2823.026	1.6
2826.46	2.6
2829.89	11.6
2833.318	7.6
2836.742	13.6
2840.164	17.6
2843.583	18.6
2846.999	13.6
2850.412	15.6
2853.822	11.6
2857.229	13.6
2860.634	12.6
2864.035	17.6
2867.434	25.6
2870.83	27.6
2874.223	30.6
2877.613	29.6
2881	27.6
2884.385	26.6
2887.766	29.6
2891.145	34.6
2894.521	33.6
2897.894	33.6
2901.264	30.6
2904.631	28.6
2907.996	31.6
2911.358	26.6
2914.717	21.6
2918.073	18.6
2921.426	21.6
2924.777	17.6
2928.124	17.6
2931.469	20.6
2934.811	17.6
2938.15	20.6
2941.487	14.6
2944.821	16.6
2948.152	12.6
2951.48	13.6
2954.805	16.6
2958.128	18.6
2961.447	11.6
2964.765	16.6
2968.079	22.6
2971.39	15.6
2974.699	13.6
2978.005	7.6
2981.308	5.6
2984.609	3.6
2987.907	0.6
2991.202	4.6
2994.494	1.6
2997.784	4.6
3001.07	4.6
3004.355	3.6
3007.636	6.6
3010.915	4.6
3014.191	3.6
3017.464	0.6
3020.734	4.6
3024.002	-0.4
3027.267	4.6
3030.53	2.6
3033.789	3.6
3037.046	1.6
3040.301	2.6
3043.552	1.6
3046.801	1.6
3050.048	0.6
3053.291	-0.4
3056.532	0.6
3059.771	3.6
3063.006	1.6
3066.239	-0.4
3069.469	4.6
3072.697	1.6
3075.922	2.6
3079.144	1.6
3082.364	4.6
3085.581	-0.4
3088.795	3.6
3092.007	0.6
3095.216	0.6
3098.423	-1.4
3101.627	-0.4
3104.828	3.6
3108.026	2.6
3111.222	2.6
3114.416	3.6
3117.607	1.6
3120.795	4.6
3123.98	1.6
3127.163	4.6
3130.344	2.6
3133.521	3.6
3136.696	5.6
3139.869	6.6
3143.039	6.6
3146.206	6.6
3149.371	1.6
3152.533	3.6
3155.693	0.6
3158.85	-1.4
3162.005	1.6
3165.157	3.6
3168.306	2.6
3171.453	2.6
3174.597	7.6
3177.739	1.6
3180.878	2.6
3184.014	-2.4
3187.149	-1.4
3190.28	0.6
3193.409	0.6
3196.536	1.6
3199.659	5.6
3202.781	4.6
3205.9	8.6
3209.016	4.6
3212.13	3.6
3215.241	1.6
3218.35	1.6
3221.456	2.6
3224.56	4.6
3227.661	4.6
3230.76	4.6
3233.856	7.6
3236.95	8.6
3240.041	3.6
3243.13	-1.4
3246.216	-2.4
3249.3	-0.4
3252.382	4.6
3255.46	5.6
3258.537	6.6
3261.611	8.6
3264.682	5.6
3267.751	2.6
3270.818	2.6
3273.882	-2.4
3276.943	1.6
3280.002	2.6
3283.059	-2.4
3286.113	4.6
3289.165	3.6
3292.214	4.6
3295.261	2.6
3298.306	1.6
3301.348	2.6
3304.387	-4.4
3307.425	1.6
3310.459	2.6
3313.492	1.6
3316.521	4.6
3319.549	4.6
3322.574	2.6
3325.597	2.6
3328.617	-1.4
3331.635	3.6
3334.65	-0.4
3337.663	1.6
3340.674	3.6
3343.682	1.6
3346.688	5.6
3349.691	2.6
3352.692	4.6
3355.691	-1.4
3358.687	-3.4
3361.681	4.6
3364.673	4.6
3367.662	-1.4
3370.649	6.6
3373.633	3.6
3376.615	5.6
3379.595	-1.4
3382.572	3.6
3385.547	-0.4
3388.52	-1.4
3391.49	0.6
3394.458	-0.4
3397.424	1.6
3400.387	1.6
3403.348	-0.4
3406.307	1.6
3409.263	0.6
3412.217	1.6
3415.168	2.6
3418.118	1.6
3421.065	4.6
3424.009	2.6
3426.951	1.6
3429.891	0.6
3432.829	1.6
3435.764	3.6
3438.697	-2.4
3441.628	-0.4
3444.557	3.6
3447.483	1.6
3450.407	0.6
3453.328	3.6
3456.247	-1.4
3459.164	0.6
3462.079	1.6
3464.991	0.6
3467.902	0.6
3470.809	3.6
3473.715	0.6
3476.618	-0.4
3479.519	-1.4
3482.418	-1.4
3485.315	-1.4
3488.209	0.6
3491.101	0.6
3493.99	-5.4
3496.878	0.6
3499.763	1.6
3502.646	0.6
3505.527	-3.4
3508.405	-1.4
3511.281	-1.4
3514.155	-0.4
3517.027	1.6
3519.897	2.6
3522.764	-0.4
3525.629	-0.4
3528.492	-1.4
3531.352	-3.4
3534.211	-2.4
3537.067	-6.4
3539.921	-3.4
3542.773	-0.4
3545.622	5.6
3548.469	2.6
3551.315	2.6
3554.157	-1.4
3556.998	-0.4
3559.837	-6.4
3562.673	-5.4
3565.507	-1.4
3568.339	0.6
3571.169	2.6
3573.996	2.6
3576.822	0.6
3579.645	-0.4
3582.466	-0.4
3585.285	-0.4
3588.101	-5.4
3590.916	0.6
3593.728	0.6
3596.538	2.6
3599.346	0.6
3602.152	0.6
3604.956	-2.4
3607.757	-2.4
3610.556	-4.4
3613.354	-0.4
3616.149	-5.4
3618.942	-1.4
3621.732	0.6
3624.521	0.6
3627.307	-0.4
3630.092	-2.4
3632.874	-2.4
3635.654	-1.4
3638.432	-3.4
3641.208	-1.4
3643.982	-2.4
3646.753	-0.4
3649.523	-6.4
3652.29	-1.4
3655.055	-3.4
3657.818	-2.4
3660.579	-0.4
3663.338	-5.4
3666.095	-1.4
3668.849	-0.4
3671.602	-2.4
3674.352	4.6
3677.101	-1.4
3679.847	-2.4
3682.591	1.6
3685.333	-0.4
3688.073	0.6
3690.811	0.6
3693.547	-1.4
3696.281	-3.4
3699.013	-1.4
3701.742	0.6
3704.47	-2.4
3707.195	1.6
3709.919	-2.4
3712.64	-3.4
3715.359	-0.4
3718.076	-2.4
3720.792	-3.4
3723.505	-3.4
3726.216	-4.4
3728.925	-1.4
3731.632	-3.4
3734.336	-0.4
3737.039	3.6
3739.74	1.6
3742.439	-3.4
3745.136	-0.4
3747.83	-3.4
3750.523	-0.4
3753.213	-5.4
3755.902	1.6
3758.589	1.6
3761.273	0.6
3763.956	-1.4
3766.636	-1.4
3769.315	-2.4
3771.991	-5.4
3774.665	-2.4
3777.338	-2.4
3780.008	-1.4
3782.677	-2.4
3785.343	-0.4
3788.007	0.6
3790.67	0.6
3793.33	-1.4
3795.989	-1.4
3798.645	-5.4
3801.299	-1.4
3803.952	-3.4
3806.602	0.6
3809.251	1.6
3811.897	-1.4
3814.542	0.6
3817.184	-1.4
3819.825	-4.4
3822.463	-5.4
3825.1	-1.4
3827.735	-5.4
3830.367	0.6
3832.998	-4.4
3835.627	0.6
3838.253	-0.4
3840.878	-2.4
3843.501	-0.4
3846.122	-1.4
3848.741	-0.4
3851.358	-0.4
3853.973	-1.4
3856.586	-3.4
3859.197	-1.4
3861.806	-3.4
3864.414	-5.4
3867.019	-3.4
3869.622	-6.4
3872.224	-1.4
3874.823	0.6
3877.421	-0.4
3880.016	-0.4
3882.61	0.6
3885.202	3.6
3887.792	1.6
3890.38	-5.4
3892.966	-2.4
3895.55	-2.4
3898.132	-1.4
3900.713	2.6
3903.291	-0.4
3905.868	0.6
3908.442	-1.4
3911.015	-4.4
3913.586	-2.4
3916.155	-1.4
3918.722	-3.4
3921.287	0.6
3923.85	1.6
3926.411	2.6
3928.971	-3.4
3931.528	0.6
3934.084	-4.4
3936.638	-2.4
3939.19	-5.4
3941.74	-1.4
3944.288	-5.4
3946.834	1.6
3949.378	3.6
3951.921	1.6
3954.462	-1.4
3957	-2.4
3959.537	-0.4
3962.072	-0.4
3964.606	-2.4
3967.137	-4.4
3969.667	1.6
3972.194	-1.4
3974.72	0.6
3977.244	-1.4
3979.766	0.6
3982.286	-3.4
3984.805	-3.4
3987.321	-3.4
3989.836	-4.4
3992.349	-1.4
3994.86	1.6
3997.369	-3.4
3999.877	0.6
4002.382	-3.4
4004.886	-3.4
4007.388	-0.4
4009.888	-3.4
4012.386	-3.4
4014.883	-4.4
4017.377	-3.4
4019.87	-1.4
4022.361	-0.4
4024.85	-2.4
4027.338	-2.4
4029.823	0.6
4032.307	-1.4
4034.789	-0.4
4037.269	-1.4
4039.747	-1.4
4042.224	-5.4
4044.699	-4.4
4047.172	-5.4
4049.643	-3.4
4052.112	-0.4
4054.58	-0.4
4057.046	0.6
4059.51	-1.4
4061.972	1.6
4064.432	-1.4
4066.891	-2.4
4069.348	-3.4
4071.803	-2.4
4074.256	-3.4
4076.708	1.6
4079.158	4.6
4081.606	-1.4
4084.052	1.6
4086.497	1.6
4088.939	2.6
4091.38	-1.4
4093.819	-4.4
4096.257	-3.4
4098.693	-3.4
4101.127	-5.4
4103.559	-1.4
4105.989	3.6
4108.418	3.6
4110.845	4.6
4113.27	1.6
4115.694	1.6
4118.115	1.6
4120.535	-4.4
4122.954	-5.4
4125.37	-5.4
4127.785	-3.4
4130.198	1.6
4132.609	1.6
4135.019	-1.4
4137.427	-1.4
4139.833	-3.4
4142.237	-7.4
