Data from 0.25_n=1_RamanShift_01.txt Node
Date: Mon Mar 19 12:10:38 IST 2018
User: aro
Spectrometer: QEPB0276
Trigger mode: 0
Integration Time (sec): 5.000000E0
Scans to average: 1
Electric dark correction enabled: true
Nonlinearity correction enabled: false
Boxcar width: 0
XAxis mode: Raman Shifts
Number of Pixels in Spectrum: 1044
>>>>>Begin Spectral Data<<<<<
160.701	-0.5
166.742	0.5
172.777	0.5
178.805	12.5
184.826	21.5
190.841	45.5
196.849	68.5
202.85	86.5
208.845	91.5
214.833	90.5
220.815	87.5
226.789	97.5
232.758	92.5
238.719	99.5
244.674	98.5
250.623	96.5
256.565	100.5
262.5	93.5
268.429	96.5
274.351	93.5
280.267	99.5
286.176	96.5
292.079	95.5
297.975	95.5
303.865	102.5
309.748	98.5
315.625	98.5
321.495	100.5
327.359	96.5
333.217	104.5
339.068	99.5
344.912	101.5
350.751	100.5
356.583	102.5
362.408	101.5
368.227	101.5
374.04	102.5
379.847	113.5
385.647	114.5
391.44	112.5
397.228	116.5
403.009	123.5
408.784	122.5
414.553	132.5
420.315	145.5
426.071	152.5
431.821	131.5
437.565	114.5
443.302	109.5
449.033	110.5
454.758	106.5
460.477	106.5
466.189	110.5
471.896	96.5
477.596	99.5
483.29	95.5
488.978	95.5
494.66	96.5
500.335	88.5
506.005	80.5
511.668	80.5
517.325	77.5
522.977	71.5
528.622	67.5
534.261	67.5
539.894	66.5
545.521	61.5
551.141	57.5
556.756	56.5
562.365	53.5
567.968	54.5
573.565	54.5
579.155	53.5
584.74	48.5
590.319	51.5
595.892	55.5
601.459	49.5
607.02	55.5
612.575	49.5
618.124	51.5
623.667	50.5
629.204	50.5
634.735	45.5
640.261	47.5
645.781	51.5
651.294	60.5
656.802	54.5
662.304	45.5
667.8	42.5
673.29	43.5
678.775	45.5
684.254	44.5
689.726	38.5
695.193	45.5
700.655	43.5
706.11	44.5
711.56	39.5
717.004	45.5
722.442	41.5
727.874	45.5
733.301	40.5
738.722	41.5
744.137	42.5
749.547	44.5
754.951	44.5
760.349	46.5
765.741	42.5
771.128	43.5
776.509	39.5
781.885	52.5
787.254	49.5
792.618	49.5
797.977	49.5
803.33	58.5
808.677	62.5
814.019	71.5
819.355	70.5
824.686	61.5
830.011	50.5
835.33	57.5
840.644	60.5
845.952	63.5
851.255	61.5
856.552	56.5
861.844	46.5
867.13	43.5
872.41	41.5
877.686	41.5
882.955	40.5
888.219	38.5
893.478	37.5
898.731	39.5
903.979	34.5
909.221	39.5
914.458	38.5
919.69	39.5
924.916	34.5
930.136	36.5
935.351	39.5
940.561	37.5
945.766	42.5
950.965	38.5
956.158	37.5
961.347	40.5
966.529	39.5
971.707	37.5
976.879	44.5
982.046	44.5
987.208	37.5
992.364	40.5
997.515	39.5
1002.66	43.5
1007.801	39.5
1012.936	36.5
1018.066	37.5
1023.19	33.5
1028.309	32.5
1033.423	37.5
1038.532	45.5
1043.636	44.5
1048.734	47.5
1053.827	42.5
1058.915	31.5
1063.998	34.5
1069.075	30.5
1074.147	28.5
1079.214	35.5
1084.276	35.5
1089.333	37.5
1094.385	37.5
1099.431	40.5
1104.472	32.5
1109.509	32.5
1114.54	30.5
1119.565	28.5
1124.586	35.5
1129.602	32.5
1134.613	36.5
1139.618	35.5
1144.619	39.5
1149.614	43.5
1154.604	53.5
1159.589	56.5
1164.57	55.5
1169.545	47.5
1174.515	50.5
1179.48	43.5
1184.44	40.5
1189.395	31.5
1194.345	33.5
1199.29	32.5
1204.23	31.5
1209.165	32.5
1214.095	34.5
1219.021	39.5
1223.941	40.5
1228.856	39.5
1233.766	37.5
1238.672	39.5
1243.572	34.5
1248.467	32.5
1253.358	28.5
1258.244	27.5
1263.124	29.5
1268	29.5
1272.871	32.5
1277.737	31.5
1282.599	32.5
1287.455	32.5
1292.306	31.5
1297.153	27.5
1301.995	31.5
1306.832	32.5
1311.664	34.5
1316.491	33.5
1321.314	37.5
1326.132	44.5
1330.945	45.5
1335.753	51.5
1340.556	49.5
1345.354	38.5
1350.148	36.5
1354.937	33.5
1359.722	32.5
1364.501	38.5
1369.276	44.5
1374.046	37.5
1378.811	32.5
1383.572	28.5
1388.327	24.5
1393.079	23.5
1397.825	25.5
1402.567	21.5
1407.304	27.5
1412.036	26.5
1416.764	23.5
1421.487	25.5
1426.205	23.5
1430.919	25.5
1435.628	29.5
1440.333	37.5
1445.032	38.5
1449.727	40.5
1454.418	53.5
1459.104	57.5
1463.785	61.5
1468.462	60.5
1473.134	45.5
1477.802	38.5
1482.465	25.5
1487.123	27.5
1491.777	21.5
1496.426	27.5
1501.071	22.5
1505.711	23.5
1510.347	24.5
1514.978	22.5
1519.604	26.5
1524.226	20.5
1528.844	22.5
1533.457	22.5
1538.065	24.5
1542.669	20.5
1547.269	22.5
1551.864	18.5
1556.454	19.5
1561.041	18.5
1565.622	18.5
1570.199	20.5
1574.772	19.5
1579.34	18.5
1583.904	19.5
1588.464	17.5
1593.019	14.5
1597.569	20.5
1602.115	18.5
1606.657	18.5
1611.195	23.5
1615.728	20.5
1620.256	22.5
1624.78	20.5
1629.3	19.5
1633.816	17.5
1638.327	22.5
1642.834	15.5
1647.336	17.5
1651.834	17.5
1656.328	21.5
1660.817	18.5
1665.302	21.5
1669.783	21.5
1674.259	24.5
1678.732	18.5
1683.199	19.5
1687.663	15.5
1692.122	15.5
1696.577	18.5
1701.028	20.5
1705.474	15.5
1709.917	22.5
1714.355	17.5
1718.788	17.5
1723.218	16.5
1727.643	13.5
1732.064	14.5
1736.481	14.5
1740.893	11.5
1745.301	18.5
1749.705	16.5
1754.105	15.5
1758.501	13.5
1762.893	15.5
1767.28	15.5
1771.663	14.5
1776.042	9.5
1780.417	13.5
1784.787	14.5
1789.154	13.5
1793.516	14.5
1797.874	14.5
1802.228	15.5
1806.578	12.5
1810.924	16.5
1815.266	12.5
1819.603	13.5
1823.937	15.5
1828.266	9.5
1832.591	13.5
1836.913	13.5
1841.23	12.5
1845.543	15.5
1849.852	11.5
1854.156	9.5
1858.457	10.5
1862.754	12.5
1867.047	10.5
1871.335	15.5
1875.62	11.5
1879.9	16.5
1884.177	13.5
1888.449	11.5
1892.718	11.5
1896.982	10.5
1901.243	14.5
1905.499	12.5
1909.752	8.5
1914	9.5
1918.245	10.5
1922.485	11.5
1926.722	12.5
1930.954	11.5
1935.183	11.5
1939.408	12.5
1943.628	13.5
1947.845	11.5
1952.058	10.5
1956.267	9.5
1960.472	4.5
1964.673	5.5
1968.87	9.5
1973.063	12.5
1977.252	12.5
1981.438	9.5
1985.619	11.5
1989.797	7.5
1993.971	8.5
1998.14	8.5
2002.306	6.5
2006.469	7.5
2010.627	12.5
2014.781	11.5
2018.932	17.5
2023.078	11.5
2027.221	12.5
2031.36	4.5
2035.495	11.5
2039.627	4.5
2043.754	6.5
2047.878	7.5
2051.998	11.5
2056.114	9.5
2060.226	17.5
2064.334	9.5
2068.439	8.5
2072.54	6.5
2076.637	8.5
2080.73	8.5
2084.82	10.5
2088.906	9.5
2092.988	9.5
2097.066	7.5
2101.14	11.5
2105.211	8.5
2109.278	7.5
2113.342	6.5
2117.401	9.5
2121.457	5.5
2125.509	8.5
2129.558	7.5
2133.602	7.5
2137.643	1.5
2141.681	7.5
2145.714	5.5
2149.744	8.5
2153.77	5.5
2157.793	10.5
2161.812	7.5
2165.827	9.5
2169.838	5.5
2173.846	4.5
2177.851	6.5
2181.851	6.5
2185.848	8.5
2189.841	9.5
2193.831	4.5
2197.817	9.5
2201.799	5.5
2205.778	2.5
2209.753	1.5
2213.725	3.5
2217.693	3.5
2221.657	4.5
2225.618	10.5
2229.575	8.5
2233.529	4.5
2237.479	6.5
2241.425	2.5
2245.368	6.5
2249.307	1.5
2253.243	5.5
2257.175	5.5
2261.104	11.5
2265.029	6.5
2268.95	5.5
2272.868	4.5
2276.783	3.5
2280.694	4.5
2284.601	2.5
2288.505	4.5
2292.405	6.5
2296.302	4.5
2300.195	9.5
2304.085	3.5
2307.971	6.5
2311.854	2.5
2315.734	4.5
2319.609	2.5
2323.482	3.5
2327.351	3.5
2331.216	6.5
2335.078	6.5
2338.937	7.5
2342.792	4.5
2346.643	3.5
2350.492	3.5
2354.336	-1.5
2358.178	-0.5
2362.015	3.5
2365.85	2.5
2369.681	2.5
2373.508	1.5
2377.333	3.5
2381.153	3.5
2384.971	4.5
2388.785	3.5
2392.595	4.5
2396.402	3.5
2400.206	4.5
2404.007	0.5
2407.804	2.5
2411.597	5.5
2415.388	1.5
2419.174	2.5
2422.958	7.5
2426.738	1.5
2430.515	5.5
2434.289	2.5
2438.059	1.5
2441.825	-2.5
2445.589	0.5
2449.349	1.5
2453.106	7.5
2456.859	3.5
2460.61	6.5
2464.356	4.5
2468.1	2.5
2471.84	-1.5
2475.577	0.5
2479.311	-0.5
2483.041	4.5
2486.768	2.5
2490.492	4.5
2494.213	4.5
2497.93	3.5
2501.644	1.5
2505.355	0.5
2509.062	-3.5
2512.766	0.5
2516.467	-3.5
2520.165	2.5
2523.859	2.5
2527.551	-0.5
2531.239	5.5
2534.923	2.5
2538.605	-0.5
2542.283	-1.5
2545.958	2.5
2549.63	1.5
2553.299	4.5
2556.964	8.5
2560.626	3.5
2564.285	-2.5
2567.941	1.5
2571.594	-0.5
2575.243	-4.5
2578.89	1.5
2582.533	0.5
2586.173	0.5
2589.809	2.5
2593.443	6.5
2597.073	5.5
2600.701	4.5
2604.325	-1.5
2607.946	2.5
2611.564	6.5
2615.178	2.5
2618.79	1.5
2622.398	4.5
2626.004	5.5
2629.606	3.5
2633.205	2.5
2636.801	4.5
2640.394	1.5
2643.983	4.5
2647.57	0.5
2651.153	3.5
2654.734	2.5
2658.311	5.5
2661.885	3.5
2665.456	4.5
2669.025	1.5
2672.589	4.5
2676.151	3.5
2679.71	5.5
2683.266	-0.5
2686.819	5.5
2690.368	4.5
2693.915	3.5
2697.458	1.5
2700.999	3.5
2704.536	4.5
2708.071	6.5
2711.602	4.5
2715.13	4.5
2718.656	3.5
2722.178	0.5
2725.697	-0.5
2729.214	2.5
2732.727	4.5
2736.237	5.5
2739.744	4.5
2743.249	10.5
2746.75	2.5
2750.248	-2.5
2753.743	2.5
2757.236	0.5
2760.725	2.5
2764.211	0.5
2767.695	4.5
2771.175	4.5
2774.652	3.5
2778.127	2.5
2781.598	2.5
2785.067	0.5
2788.532	-1.5
2791.995	0.5
2795.455	1.5
2798.911	3.5
2802.365	3.5
2805.816	3.5
2809.264	2.5
2812.709	3.5
2816.151	4.5
2819.59	0.5
2823.026	-2.5
2826.46	2.5
2829.89	7.5
2833.318	6.5
2836.742	11.5
2840.164	18.5
2843.583	17.5
2846.999	16.5
2850.412	16.5
2853.822	10.5
2857.229	13.5
2860.634	12.5
2864.035	15.5
2867.434	22.5
2870.83	26.5
2874.223	30.5
2877.613	31.5
2881	21.5
2884.385	23.5
2887.766	29.5
2891.145	33.5
2894.521	30.5
2897.894	31.5
2901.264	30.5
2904.631	29.5
2907.996	30.5
2911.358	29.5
2914.717	17.5
2918.073	15.5
2921.426	21.5
2924.777	20.5
2928.124	18.5
2931.469	19.5
2934.811	16.5
2938.15	18.5
2941.487	13.5
2944.821	12.5
2948.152	10.5
2951.48	12.5
2954.805	12.5
2958.128	18.5
2961.447	17.5
2964.765	16.5
2968.079	19.5
2971.39	11.5
2974.699	11.5
2978.005	7.5
2981.308	5.5
2984.609	1.5
2987.907	4.5
2991.202	4.5
2994.494	5.5
2997.784	6.5
3001.07	6.5
3004.355	2.5
3007.636	4.5
3010.915	4.5
3014.191	-0.5
3017.464	-0.5
3020.734	-0.5
3024.002	-0.5
3027.267	4.5
3030.53	3.5
3033.789	7.5
3037.046	-1.5
3040.301	1.5
3043.552	1.5
3046.801	3.5
3050.048	2.5
3053.291	-1.5
3056.532	-1.5
3059.771	8.5
3063.006	2.5
3066.239	3.5
3069.469	4.5
3072.697	3.5
3075.922	-0.5
3079.144	3.5
3082.364	-0.5
3085.581	1.5
3088.795	2.5
3092.007	2.5
3095.216	0.5
3098.423	-0.5
3101.627	-1.5
3104.828	2.5
3108.026	2.5
3111.222	1.5
3114.416	3.5
3117.607	3.5
3120.795	3.5
3123.98	2.5
3127.163	4.5
3130.344	2.5
3133.521	6.5
3136.696	6.5
3139.869	3.5
3143.039	8.5
3146.206	5.5
3149.371	2.5
3152.533	3.5
3155.693	2.5
3158.85	2.5
3162.005	3.5
3165.157	2.5
3168.306	0.5
3171.453	3.5
3174.597	6.5
3177.739	2.5
3180.878	7.5
3184.014	2.5
3187.149	-1.5
3190.28	-3.5
3193.409	-1.5
3196.536	0.5
3199.659	7.5
3202.781	5.5
3205.9	7.5
3209.016	4.5
3212.13	2.5
3215.241	2.5
3218.35	3.5
3221.456	0.5
3224.56	1.5
3227.661	7.5
3230.76	8.5
3233.856	7.5
3236.95	9.5
3240.041	4.5
3243.13	1.5
3246.216	-0.5
3249.3	3.5
3252.382	6.5
3255.46	8.5
3258.537	7.5
3261.611	7.5
3264.682	5.5
3267.751	1.5
3270.818	-1.5
3273.882	-0.5
3276.943	3.5
3280.002	0.5
3283.059	0.5
3286.113	5.5
3289.165	0.5
3292.214	3.5
3295.261	3.5
3298.306	1.5
3301.348	0.5
3304.387	1.5
3307.425	1.5
3310.459	2.5
3313.492	-0.5
3316.521	1.5
3319.549	2.5
3322.574	4.5
3325.597	2.5
3328.617	2.5
3331.635	2.5
3334.65	1.5
3337.663	2.5
3340.674	1.5
3343.682	0.5
3346.688	2.5
3349.691	-0.5
3352.692	1.5
3355.691	-2.5
3358.687	-0.5
3361.681	1.5
3364.673	6.5
3367.662	-0.5
3370.649	6.5
3373.633	1.5
3376.615	3.5
3379.595	-3.5
3382.572	2.5
3385.547	-1.5
3388.52	1.5
3391.49	3.5
3394.458	1.5
3397.424	1.5
3400.387	0.5
3403.348	-3.5
3406.307	-1.5
3409.263	0.5
3412.217	2.5
3415.168	1.5
3418.118	1.5
3421.065	5.5
3424.009	2.5
3426.951	4.5
3429.891	-0.5
3432.829	-0.5
3435.764	1.5
3438.697	-5.5
3441.628	-1.5
3444.557	4.5
3447.483	2.5
3450.407	3.5
3453.328	3.5
3456.247	-0.5
3459.164	-0.5
3462.079	-1.5
3464.991	-1.5
3467.902	-3.5
3470.809	2.5
3473.715	2.5
3476.618	3.5
3479.519	-0.5
3482.418	0.5
3485.315	-0.5
3488.209	0.5
3491.101	-2.5
3493.99	-6.5
3496.878	-4.5
3499.763	0.5
3502.646	2.5
3505.527	1.5
3508.405	4.5
3511.281	-0.5
3514.155	-2.5
3517.027	0.5
3519.897	0.5
3522.764	-2.5
3525.629	-1.5
3528.492	-2.5
3531.352	-0.5
3534.211	2.5
3537.067	-3.5
3539.921	-0.5
3542.773	-2.5
3545.622	1.5
3548.469	-4.5
3551.315	0.5
3554.157	-4.5
3556.998	1.5
3559.837	-5.5
3562.673	-5.5
3565.507	-2.5
3568.339	-0.5
3571.169	-1.5
3573.996	1.5
3576.822	-2.5
3579.645	-2.5
3582.466	-2.5
3585.285	-3.5
3588.101	-2.5
3590.916	0.5
3593.728	-0.5
3596.538	0.5
3599.346	-3.5
3602.152	0.5
3604.956	-4.5
3607.757	-1.5
3610.556	-3.5
3613.354	1.5
3616.149	-4.5
3618.942	1.5
3621.732	1.5
3624.521	0.5
3627.307	-0.5
3630.092	-2.5
3632.874	-3.5
3635.654	-3.5
3638.432	-6.5
3641.208	-2.5
3643.982	-3.5
3646.753	1.5
3649.523	-0.5
3652.29	1.5
3655.055	-5.5
3657.818	-4.5
3660.579	-2.5
3663.338	-3.5
3666.095	-3.5
3668.849	1.5
3671.602	0.5
3674.352	1.5
3677.101	-1.5
3679.847	-0.5
3682.591	-1.5
3685.333	-3.5
3688.073	-3.5
3690.811	-1.5
3693.547	-1.5
3696.281	-2.5
3699.013	-1.5
3701.742	1.5
3704.47	-3.5
3707.195	-2.5
3709.919	-5.5
3712.64	-2.5
3715.359	-1.5
3718.076	0.5
3720.792	-0.5
3723.505	0.5
3726.216	-2.5
3728.925	-0.5
3731.632	-2.5
3734.336	-0.5
3737.039	0.5
3739.74	0.5
3742.439	-3.5
3745.136	-2.5
3747.83	-0.5
3750.523	-1.5
3753.213	-2.5
3755.902	1.5
3758.589	-1.5
3761.273	-0.5
3763.956	-5.5
3766.636	-4.5
3769.315	-3.5
3771.991	-3.5
3774.665	-0.5
3777.338	3.5
3780.008	1.5
3782.677	-0.5
3785.343	-1.5
3788.007	-1.5
3790.67	-1.5
3793.33	-5.5
3795.989	-3.5
3798.645	-4.5
3801.299	-0.5
3803.952	0.5
3806.602	-1.5
3809.251	0.5
3811.897	0.5
3814.542	-1.5
3817.184	-6.5
3819.825	-5.5
3822.463	-5.5
3825.1	-2.5
3827.735	-0.5
3830.367	3.5
3832.998	0.5
3835.627	2.5
3838.253	1.5
3840.878	-4.5
3843.501	-3.5
3846.122	-6.5
3848.741	-4.5
3851.358	1.5
3853.973	0.5
3856.586	-2.5
3859.197	-1.5
3861.806	-3.5
3864.414	-5.5
3867.019	-2.5
3869.622	-7.5
3872.224	-1.5
3874.823	-0.5
3877.421	0.5
3880.016	0.5
3882.61	2.5
3885.202	2.5
3887.792	1.5
3890.38	-3.5
3892.966	-3.5
3895.55	-2.5
3898.132	0.5
3900.713	-2.5
3903.291	2.5
3905.868	1.5
3908.442	-0.5
3911.015	-2.5
3913.586	-3.5
3916.155	-1.5
3918.722	-3.5
3921.287	-4.5
3923.85	0.5
3926.411	-1.5
3928.971	-1.5
3931.528	2.5
3934.084	-2.5
3936.638	-2.5
3939.19	-4.5
3941.74	-3.5
3944.288	-4.5
3946.834	-2.5
3949.378	0.5
3951.921	1.5
3954.462	-1.5
3957	-2.5
3959.537	2.5
3962.072	-2.5
3964.606	-0.5
3967.137	-2.5
3969.667	2.5
3972.194	-3.5
3974.72	-1.5
3977.244	-3.5
3979.766	-1.5
3982.286	-4.5
3984.805	-2.5
3987.321	-2.5
3989.836	-3.5
3992.349	-2.5
3994.86	-0.5
3997.369	-2.5
3999.877	-0.5
4002.382	-1.5
4004.886	-1.5
4007.388	-1.5
4009.888	-1.5
4012.386	-2.5
4014.883	-3.5
4017.377	-1.5
4019.87	-2.5
4022.361	-0.5
4024.85	-1.5
4027.338	-3.5
4029.823	-1.5
4032.307	-3.5
4034.789	-1.5
4037.269	-1.5
4039.747	-1.5
4042.224	-1.5
4044.699	-2.5
4047.172	-2.5
4049.643	-3.5
4052.112	-0.5
4054.58	-1.5
4057.046	-3.5
4059.51	-2.5
4061.972	-2.5
4064.432	-2.5
4066.891	-4.5
4069.348	-1.5
4071.803	-6.5
4074.256	-4.5
4076.708	0.5
4079.158	1.5
4081.606	-3.5
4084.052	0.5
4086.497	-4.5
4088.939	-0.5
4091.38	-2.5
4093.819	-4.5
4096.257	-3.5
4098.693	-4.5
4101.127	-4.5
4103.559	-0.5
4105.989	3.5
4108.418	1.5
4110.845	3.5
4113.27	4.5
4115.694	2.5
4118.115	1.5
4120.535	0.5
4122.954	0.5
4125.37	-3.5
4127.785	-2.5
4130.198	-2.5
4132.609	-1.5
4135.019	-1.5
4137.427	-3.5
4139.833	-3.5
4142.237	-4.5
