Data from 0.25_n=1_RamanShift_03.txt Node
Date: Mon Mar 19 12:10:48 IST 2018
User: aro
Spectrometer: QEPB0276
Trigger mode: 0
Integration Time (sec): 5.000000E0
Scans to average: 1
Electric dark correction enabled: true
Nonlinearity correction enabled: false
Boxcar width: 0
XAxis mode: Raman Shifts
Number of Pixels in Spectrum: 1044
>>>>>Begin Spectral Data<<<<<
160.701	-2.1
166.742	0.9
172.777	0.9
178.805	11.9
184.826	22.9
190.841	44.9
196.849	70.9
202.85	84.9
208.845	85.9
214.833	89.9
220.815	87.9
226.789	86.9
232.758	91.9
238.719	90.9
244.674	93.9
250.623	97.9
256.565	95.9
262.5	92.9
268.429	93.9
274.351	96.9
280.267	101.9
286.176	93.9
292.079	96.9
297.975	99.9
303.865	97.9
309.748	94.9
315.625	98.9
321.495	98.9
327.359	96.9
333.217	98.9
339.068	100.9
344.912	100.9
350.751	96.9
356.583	101.9
362.408	100.9
368.227	99.9
374.04	104.9
379.847	105.9
385.647	115.9
391.44	115.9
397.228	117.9
403.009	125.9
408.784	127.9
414.553	138.9
420.315	148.9
426.071	152.9
431.821	131.9
437.565	114.9
443.302	104.9
449.033	109.9
454.758	106.9
460.477	110.9
466.189	118.9
471.896	102.9
477.596	96.9
483.29	100.9
488.978	94.9
494.66	93.9
500.335	95.9
506.005	88.9
511.668	81.9
517.325	77.9
522.977	71.9
528.622	66.9
534.261	63.9
539.894	60.9
545.521	58.9
551.141	59.9
556.756	59.9
562.365	54.9
567.968	51.9
573.565	55.9
579.155	50.9
584.74	49.9
590.319	48.9
595.892	53.9
601.459	47.9
607.02	53.9
612.575	51.9
618.124	49.9
623.667	51.9
629.204	51.9
634.735	44.9
640.261	50.9
645.781	47.9
651.294	55.9
656.802	55.9
662.304	48.9
667.8	47.9
673.29	42.9
678.775	44.9
684.254	41.9
689.726	37.9
695.193	42.9
700.655	41.9
706.11	40.9
711.56	42.9
717.004	43.9
722.442	42.9
727.874	43.9
733.301	39.9
738.722	43.9
744.137	41.9
749.547	40.9
754.951	43.9
760.349	41.9
765.741	43.9
771.128	47.9
776.509	41.9
781.885	46.9
787.254	49.9
792.618	48.9
797.977	49.9
803.33	58.9
808.677	66.9
814.019	74.9
819.355	70.9
824.686	61.9
830.011	54.9
835.33	58.9
840.644	59.9
845.952	65.9
851.255	60.9
856.552	51.9
861.844	44.9
867.13	45.9
872.41	40.9
877.686	38.9
882.955	33.9
888.219	38.9
893.478	39.9
898.731	37.9
903.979	36.9
909.221	45.9
914.458	35.9
919.69	40.9
924.916	32.9
930.136	35.9
935.351	39.9
940.561	39.9
945.766	35.9
950.965	37.9
956.158	36.9
961.347	34.9
966.529	42.9
971.707	38.9
976.879	45.9
982.046	44.9
987.208	39.9
992.364	40.9
997.515	35.9
1002.66	44.9
1007.801	41.9
1012.936	37.9
1018.066	35.9
1023.19	36.9
1028.309	36.9
1033.423	40.9
1038.532	45.9
1043.636	46.9
1048.734	43.9
1053.827	38.9
1058.915	34.9
1063.998	32.9
1069.075	29.9
1074.147	32.9
1079.214	33.9
1084.276	33.9
1089.333	37.9
1094.385	36.9
1099.431	37.9
1104.472	34.9
1109.509	34.9
1114.54	30.9
1119.565	28.9
1124.586	31.9
1129.602	31.9
1134.613	30.9
1139.618	32.9
1144.619	42.9
1149.614	43.9
1154.604	52.9
1159.589	50.9
1164.57	56.9
1169.545	49.9
1174.515	48.9
1179.48	43.9
1184.44	36.9
1189.395	32.9
1194.345	35.9
1199.29	32.9
1204.23	34.9
1209.165	30.9
1214.095	34.9
1219.021	35.9
1223.941	44.9
1228.856	39.9
1233.766	37.9
1238.672	32.9
1243.572	30.9
1248.467	27.9
1253.358	27.9
1258.244	28.9
1263.124	28.9
1268	24.9
1272.871	29.9
1277.737	28.9
1282.599	28.9
1287.455	28.9
1292.306	33.9
1297.153	28.9
1301.995	28.9
1306.832	26.9
1311.664	32.9
1316.491	32.9
1321.314	39.9
1326.132	42.9
1330.945	52.9
1335.753	53.9
1340.556	50.9
1345.354	39.9
1350.148	35.9
1354.937	30.9
1359.722	36.9
1364.501	33.9
1369.276	40.9
1374.046	37.9
1378.811	35.9
1383.572	25.9
1388.327	26.9
1393.079	28.9
1397.825	22.9
1402.567	20.9
1407.304	23.9
1412.036	26.9
1416.764	24.9
1421.487	27.9
1426.205	24.9
1430.919	27.9
1435.628	31.9
1440.333	38.9
1445.032	42.9
1449.727	42.9
1454.418	50.9
1459.104	57.9
1463.785	59.9
1468.462	57.9
1473.134	47.9
1477.802	35.9
1482.465	27.9
1487.123	30.9
1491.777	28.9
1496.426	25.9
1501.071	21.9
1505.711	23.9
1510.347	20.9
1514.978	21.9
1519.604	22.9
1524.226	19.9
1528.844	24.9
1533.457	23.9
1538.065	28.9
1542.669	24.9
1547.269	21.9
1551.864	16.9
1556.454	20.9
1561.041	17.9
1565.622	18.9
1570.199	18.9
1574.772	19.9
1579.34	20.9
1583.904	23.9
1588.464	18.9
1593.019	18.9
1597.569	21.9
1602.115	21.9
1606.657	15.9
1611.195	20.9
1615.728	20.9
1620.256	22.9
1624.78	21.9
1629.3	20.9
1633.816	17.9
1638.327	23.9
1642.834	19.9
1647.336	17.9
1651.834	18.9
1656.328	16.9
1660.817	17.9
1665.302	21.9
1669.783	19.9
1674.259	21.9
1678.732	20.9
1683.199	21.9
1687.663	17.9
1692.122	16.9
1696.577	17.9
1701.028	18.9
1705.474	16.9
1709.917	18.9
1714.355	16.9
1718.788	19.9
1723.218	15.9
1727.643	13.9
1732.064	16.9
1736.481	14.9
1740.893	11.9
1745.301	18.9
1749.705	17.9
1754.105	19.9
1758.501	13.9
1762.893	15.9
1767.28	12.9
1771.663	11.9
1776.042	8.9
1780.417	10.9
1784.787	13.9
1789.154	14.9
1793.516	16.9
1797.874	15.9
1802.228	13.9
1806.578	10.9
1810.924	15.9
1815.266	15.9
1819.603	8.9
1823.937	17.9
1828.266	12.9
1832.591	10.9
1836.913	9.9
1841.23	12.9
1845.543	12.9
1849.852	10.9
1854.156	11.9
1858.457	11.9
1862.754	15.9
1867.047	10.9
1871.335	11.9
1875.62	10.9
1879.9	11.9
1884.177	12.9
1888.449	9.9
1892.718	11.9
1896.982	11.9
1901.243	17.9
1905.499	9.9
1909.752	8.9
1914	12.9
1918.245	7.9
1922.485	6.9
1926.722	12.9
1930.954	11.9
1935.183	12.9
1939.408	12.9
1943.628	17.9
1947.845	15.9
1952.058	14.9
1956.267	10.9
1960.472	7.9
1964.673	5.9
1968.87	8.9
1973.063	12.9
1977.252	14.9
1981.438	10.9
1985.619	18.9
1989.797	10.9
1993.971	7.9
1998.14	10.9
2002.306	9.9
2006.469	5.9
2010.627	9.9
2014.781	10.9
2018.932	12.9
2023.078	10.9
2027.221	9.9
2031.36	7.9
2035.495	11.9
2039.627	8.9
2043.754	6.9
2047.878	10.9
2051.998	8.9
2056.114	9.9
2060.226	14.9
2064.334	9.9
2068.439	8.9
2072.54	10.9
2076.637	9.9
2080.73	9.9
2084.82	7.9
2088.906	7.9
2092.988	10.9
2097.066	7.9
2101.14	9.9
2105.211	8.9
2109.278	11.9
2113.342	7.9
2117.401	7.9
2121.457	6.9
2125.509	10.9
2129.558	7.9
2133.602	12.9
2137.643	4.9
2141.681	8.9
2145.714	6.9
2149.744	10.9
2153.77	6.9
2157.793	12.9
2161.812	9.9
2165.827	8.9
2169.838	3.9
2173.846	6.9
2177.851	5.9
2181.851	9.9
2185.848	10.9
2189.841	8.9
2193.831	5.9
2197.817	8.9
2201.799	7.9
2205.778	1.9
2209.753	5.9
2213.725	1.9
2217.693	4.9
2221.657	2.9
2225.618	9.9
2229.575	9.9
2233.529	6.9
2237.479	4.9
2241.425	3.9
2245.368	7.9
2249.307	-0.1
2253.243	6.9
2257.175	3.9
2261.104	11.9
2265.029	8.9
2268.95	4.9
2272.868	3.9
2276.783	6.9
2280.694	4.9
2284.601	4.9
2288.505	3.9
2292.405	4.9
2296.302	5.9
2300.195	6.9
2304.085	4.9
2307.971	5.9
2311.854	2.9
2315.734	6.9
2319.609	1.9
2323.482	3.9
2327.351	4.9
2331.216	5.9
2335.078	6.9
2338.937	7.9
2342.792	0.9
2346.643	2.9
2350.492	1.9
2354.336	1.9
2358.178	2.9
2362.015	1.9
2365.85	2.9
2369.681	5.9
2373.508	3.9
2377.333	1.9
2381.153	5.9
2384.971	5.9
2388.785	3.9
2392.595	6.9
2396.402	4.9
2400.206	4.9
2404.007	1.9
2407.804	-0.1
2411.597	2.9
2415.388	0.9
2419.174	6.9
2422.958	7.9
2426.738	0.9
2430.515	6.9
2434.289	0.9
2438.059	1.9
2441.825	-1.1
2445.589	0.9
2449.349	3.9
2453.106	6.9
2456.859	4.9
2460.61	6.9
2464.356	6.9
2468.1	3.9
2471.84	0.9
2475.577	3.9
2479.311	-0.1
2483.041	3.9
2486.768	3.9
2490.492	2.9
2494.213	5.9
2497.93	2.9
2501.644	1.9
2505.355	0.9
2509.062	-2.1
2512.766	0.9
2516.467	-2.1
2520.165	5.9
2523.859	2.9
2527.551	3.9
2531.239	3.9
2534.923	3.9
2538.605	-1.1
2542.283	-3.1
2545.958	0.9
2549.63	2.9
2553.299	3.9
2556.964	4.9
2560.626	6.9
2564.285	1.9
2567.941	2.9
2571.594	-1.1
2575.243	-2.1
2578.89	0.9
2582.533	-0.1
2586.173	-2.1
2589.809	1.9
2593.443	2.9
2597.073	4.9
2600.701	2.9
2604.325	1.9
2607.946	1.9
2611.564	4.9
2615.178	5.9
2618.79	1.9
2622.398	2.9
2626.004	5.9
2629.606	2.9
2633.205	2.9
2636.801	3.9
2640.394	0.9
2643.983	2.9
2647.57	1.9
2651.153	4.9
2654.734	2.9
2658.311	1.9
2661.885	4.9
2665.456	3.9
2669.025	2.9
2672.589	5.9
2676.151	1.9
2679.71	4.9
2683.266	2.9
2686.819	4.9
2690.368	1.9
2693.915	4.9
2697.458	0.9
2700.999	5.9
2704.536	3.9
2708.071	4.9
2711.602	4.9
2715.13	3.9
2718.656	4.9
2722.178	0.9
2725.697	1.9
2729.214	4.9
2732.727	5.9
2736.237	6.9
2739.744	3.9
2743.249	8.9
2746.75	1.9
2750.248	0.9
2753.743	0.9
2757.236	-1.1
2760.725	1.9
2764.211	3.9
2767.695	3.9
2771.175	2.9
2774.652	5.9
2778.127	2.9
2781.598	2.9
2785.067	1.9
2788.532	-1.1
2791.995	-0.1
2795.455	1.9
2798.911	3.9
2802.365	6.9
2805.816	6.9
2809.264	5.9
2812.709	4.9
2816.151	3.9
2819.59	-0.1
2823.026	2.9
2826.46	0.9
2829.89	7.9
2833.318	10.9
2836.742	14.9
2840.164	18.9
2843.583	18.9
2846.999	19.9
2850.412	14.9
2853.822	12.9
2857.229	11.9
2860.634	11.9
2864.035	14.9
2867.434	23.9
2870.83	22.9
2874.223	31.9
2877.613	28.9
2881	27.9
2884.385	25.9
2887.766	33.9
2891.145	31.9
2894.521	35.9
2897.894	33.9
2901.264	31.9
2904.631	31.9
2907.996	25.9
2911.358	28.9
2914.717	21.9
2918.073	17.9
2921.426	19.9
2924.777	19.9
2928.124	23.9
2931.469	19.9
2934.811	19.9
2938.15	19.9
2941.487	17.9
2944.821	12.9
2948.152	10.9
2951.48	11.9
2954.805	13.9
2958.128	17.9
2961.447	14.9
2964.765	16.9
2968.079	21.9
2971.39	15.9
2974.699	13.9
2978.005	8.9
2981.308	7.9
2984.609	0.9
2987.907	2.9
2991.202	3.9
2994.494	3.9
2997.784	4.9
3001.07	6.9
3004.355	2.9
3007.636	7.9
3010.915	2.9
3014.191	2.9
3017.464	0.9
3020.734	1.9
3024.002	2.9
3027.267	3.9
3030.53	1.9
3033.789	4.9
3037.046	-1.1
3040.301	4.9
3043.552	0.9
3046.801	3.9
3050.048	0.9
3053.291	1.9
3056.532	-2.1
3059.771	4.9
3063.006	-2.1
3066.239	1.9
3069.469	4.9
3072.697	0.9
3075.922	-1.1
3079.144	3.9
3082.364	4.9
3085.581	3.9
3088.795	5.9
3092.007	1.9
3095.216	0.9
3098.423	-1.1
3101.627	-4.1
3104.828	4.9
3108.026	2.9
3111.222	5.9
3114.416	4.9
3117.607	6.9
3120.795	4.9
3123.98	3.9
3127.163	1.9
3130.344	3.9
3133.521	1.9
3136.696	4.9
3139.869	6.9
3143.039	6.9
3146.206	3.9
3149.371	3.9
3152.533	4.9
3155.693	1.9
3158.85	-0.1
3162.005	0.9
3165.157	0.9
3168.306	3.9
3171.453	6.9
3174.597	10.9
3177.739	4.9
3180.878	3.9
3184.014	0.9
3187.149	-0.1
3190.28	0.9
3193.409	1.9
3196.536	1.9
3199.659	5.9
3202.781	6.9
3205.9	8.9
3209.016	6.9
3212.13	3.9
3215.241	0.9
3218.35	3.9
3221.456	-0.1
3224.56	2.9
3227.661	4.9
3230.76	9.9
3233.856	4.9
3236.95	8.9
3240.041	1.9
3243.13	2.9
3246.216	0.9
3249.3	4.9
3252.382	-0.1
3255.46	5.9
3258.537	1.9
3261.611	8.9
3264.682	5.9
3267.751	4.9
3270.818	1.9
3273.882	3.9
3276.943	3.9
3280.002	2.9
3283.059	-0.1
3286.113	0.9
3289.165	-0.1
3292.214	1.9
3295.261	3.9
3298.306	5.9
3301.348	4.9
3304.387	3.9
3307.425	2.9
3310.459	5.9
3313.492	1.9
3316.521	1.9
3319.549	-1.1
3322.574	3.9
3325.597	2.9
3328.617	1.9
3331.635	5.9
3334.65	1.9
3337.663	2.9
3340.674	3.9
3343.682	2.9
3346.688	2.9
3349.691	1.9
3352.692	1.9
3355.691	0.9
3358.687	-2.1
3361.681	2.9
3364.673	4.9
3367.662	0.9
3370.649	5.9
3373.633	2.9
3376.615	0.9
3379.595	-3.1
3382.572	-0.1
3385.547	-2.1
3388.52	0.9
3391.49	3.9
3394.458	4.9
3397.424	2.9
3400.387	4.9
3403.348	-0.1
3406.307	-4.1
3409.263	0.9
3412.217	0.9
3415.168	-0.1
3418.118	3.9
3421.065	3.9
3424.009	4.9
3426.951	3.9
3429.891	3.9
3432.829	-3.1
3435.764	3.9
3438.697	-3.1
3441.628	-0.1
3444.557	-1.1
3447.483	2.9
3450.407	2.9
3453.328	3.9
3456.247	-1.1
3459.164	-1.1
3462.079	1.9
3464.991	0.9
3467.902	-2.1
3470.809	0.9
3473.715	0.9
3476.618	-0.1
3479.519	0.9
3482.418	1.9
3485.315	-1.1
3488.209	1.9
3491.101	0.9
3493.99	-2.1
3496.878	-1.1
3499.763	-1.1
3502.646	0.9
3505.527	0.9
3508.405	1.9
3511.281	3.9
3514.155	0.9
3517.027	1.9
3519.897	0.9
3522.764	-2.1
3525.629	-3.1
3528.492	-4.1
3531.352	-2.1
3534.211	0.9
3537.067	-5.1
3539.921	0.9
3542.773	1.9
3545.622	5.9
3548.469	-2.1
3551.315	1.9
3554.157	-2.1
3556.998	-0.1
3559.837	-4.1
3562.673	-4.1
3565.507	-2.1
3568.339	0.9
3571.169	1.9
3573.996	2.9
3576.822	0.9
3579.645	-2.1
3582.466	-5.1
3585.285	-1.1
3588.101	-3.1
3590.916	1.9
3593.728	2.9
3596.538	-0.1
3599.346	0.9
3602.152	1.9
3604.956	-4.1
3607.757	-1.1
3610.556	-3.1
3613.354	-1.1
3616.149	-3.1
3618.942	0.9
3621.732	3.9
3624.521	2.9
3627.307	1.9
3630.092	-2.1
3632.874	-5.1
3635.654	-2.1
3638.432	-4.1
3641.208	-2.1
3643.982	1.9
3646.753	2.9
3649.523	-0.1
3652.29	0.9
3655.055	-4.1
3657.818	-3.1
3660.579	0.9
3663.338	-3.1
3666.095	-3.1
3668.849	1.9
3671.602	0.9
3674.352	4.9
3677.101	-0.1
3679.847	-2.1
3682.591	-1.1
3685.333	-1.1
3688.073	-1.1
3690.811	2.9
3693.547	-2.1
3696.281	-0.1
3699.013	-0.1
3701.742	1.9
3704.47	-3.1
3707.195	-0.1
3709.919	-2.1
3712.64	-1.1
3715.359	-1.1
3718.076	0.9
3720.792	-3.1
3723.505	0.9
3726.216	0.9
3728.925	0.9
3731.632	-1.1
3734.336	-2.1
3737.039	-1.1
3739.74	-1.1
3742.439	-2.1
3745.136	-0.1
3747.83	-4.1
3750.523	-2.1
3753.213	-1.1
3755.902	0.9
3758.589	0.9
3761.273	2.9
3763.956	-0.1
3766.636	-3.1
3769.315	-5.1
3771.991	-7.1
3774.665	-0.1
3777.338	-0.1
3780.008	0.9
3782.677	0.9
3785.343	-1.1
3788.007	-0.1
3790.67	-2.1
3793.33	-5.1
3795.989	-2.1
3798.645	-2.1
3801.299	-3.1
3803.952	0.9
3806.602	1.9
3809.251	1.9
3811.897	-2.1
3814.542	-2.1
3817.184	-3.1
3819.825	-4.1
3822.463	-4.1
3825.1	-2.1
3827.735	-2.1
3830.367	1.9
3832.998	-1.1
3835.627	3.9
3838.253	1.9
3840.878	-3.1
3843.501	-3.1
3846.122	-4.1
3848.741	-4.1
3851.358	-1.1
3853.973	1.9
3856.586	-1.1
3859.197	-1.1
3861.806	-1.1
3864.414	-4.1
3867.019	-4.1
3869.622	-6.1
3872.224	0.9
3874.823	-2.1
3877.421	5.9
3880.016	-0.1
3882.61	0.9
3885.202	4.9
3887.792	2.9
3890.38	-2.1
3892.966	-3.1
3895.55	-2.1
3898.132	-1.1
3900.713	1.9
3903.291	-2.1
3905.868	0.9
3908.442	-0.1
3911.015	-3.1
3913.586	-2.1
3916.155	-3.1
3918.722	-2.1
3921.287	-1.1
3923.85	0.9
3926.411	1.9
3928.971	0.9
3931.528	1.9
3934.084	-0.1
3936.638	-4.1
3939.19	-3.1
3941.74	-1.1
3944.288	-4.1
3946.834	-0.1
3949.378	-0.1
3951.921	-0.1
3954.462	-2.1
3957	-1.1
3959.537	0.9
3962.072	-0.1
3964.606	-1.1
3967.137	-3.1
3969.667	0.9
3972.194	-4.1
3974.72	0.9
3977.244	-1.1
3979.766	-1.1
3982.286	-1.1
3984.805	-0.1
3987.321	-1.1
3989.836	-2.1
3992.349	1.9
3994.86	-1.1
3997.369	-4.1
3999.877	-0.1
4002.382	-2.1
4004.886	-1.1
4007.388	1.9
4009.888	-1.1
4012.386	-0.1
4014.883	-2.1
4017.377	-1.1
4019.87	-2.1
4022.361	0.9
4024.85	-2.1
4027.338	-2.1
4029.823	-2.1
4032.307	1.9
4034.789	-1.1
4037.269	-0.1
4039.747	-1.1
4042.224	-1.1
4044.699	-4.1
4047.172	-2.1
4049.643	-2.1
4052.112	-1.1
4054.58	-1.1
4057.046	-2.1
4059.51	0.9
4061.972	-0.1
4064.432	-1.1
4066.891	-2.1
4069.348	-0.1
4071.803	-3.1
4074.256	-5.1
4076.708	-0.1
4079.158	0.9
4081.606	-2.1
4084.052	0.9
4086.497	-2.1
4088.939	-0.1
4091.38	-2.1
4093.819	-0.1
4096.257	-2.1
4098.693	-3.1
4101.127	-5.1
4103.559	0.9
4105.989	5.9
4108.418	5.9
4110.845	3.9
4113.27	2.9
4115.694	2.9
4118.115	0.9
4120.535	-2.1
4122.954	-0.1
4125.37	-4.1
4127.785	-2.1
4130.198	-1.1
4132.609	-0.1
4135.019	0.9
4137.427	-1.1
4139.833	-6.1
4142.237	-5.1
