Data from 0.5_n=3_RamanShift_04.txt Node
Date: Mon Mar 19 12:17:33 IST 2018
User: aro
Spectrometer: QEPB0276
Trigger mode: 0
Integration Time (sec): 5.000000E0
Scans to average: 1
Electric dark correction enabled: true
Nonlinearity correction enabled: false
Boxcar width: 0
XAxis mode: Raman Shifts
Number of Pixels in Spectrum: 1044
>>>>>Begin Spectral Data<<<<<
160.701	3.5
166.742	-0.5
172.777	2.5
178.805	7.5
184.826	20.5
190.841	31.5
196.849	61.5
202.85	72.5
208.845	77.5
214.833	76.5
220.815	81.5
226.789	78.5
232.758	84.5
238.719	80.5
244.674	79.5
250.623	79.5
256.565	79.5
262.5	79.5
268.429	80.5
274.351	79.5
280.267	87.5
286.176	81.5
292.079	82.5
297.975	83.5
303.865	83.5
309.748	83.5
315.625	83.5
321.495	86.5
327.359	91.5
333.217	91.5
339.068	88.5
344.912	92.5
350.751	89.5
356.583	90.5
362.408	87.5
368.227	84.5
374.04	90.5
379.847	94.5
385.647	106.5
391.44	110.5
397.228	103.5
403.009	103.5
408.784	109.5
414.553	114.5
420.315	124.5
426.071	135.5
431.821	111.5
437.565	101.5
443.302	97.5
449.033	98.5
454.758	92.5
460.477	92.5
466.189	89.5
471.896	80.5
477.596	82.5
483.29	83.5
488.978	84.5
494.66	84.5
500.335	86.5
506.005	73.5
511.668	66.5
517.325	60.5
522.977	55.5
528.622	51.5
534.261	53.5
539.894	48.5
545.521	51.5
551.141	47.5
556.756	42.5
562.365	39.5
567.968	43.5
573.565	43.5
579.155	36.5
584.74	39.5
590.319	36.5
595.892	42.5
601.459	41.5
607.02	41.5
612.575	43.5
618.124	43.5
623.667	40.5
629.204	41.5
634.735	32.5
640.261	37.5
645.781	37.5
651.294	43.5
656.802	45.5
662.304	39.5
667.8	38.5
673.29	30.5
678.775	35.5
684.254	29.5
689.726	29.5
695.193	31.5
700.655	30.5
706.11	37.5
711.56	36.5
717.004	36.5
722.442	34.5
727.874	30.5
733.301	26.5
738.722	29.5
744.137	31.5
749.547	37.5
754.951	36.5
760.349	37.5
765.741	33.5
771.128	33.5
776.509	35.5
781.885	40.5
787.254	42.5
792.618	39.5
797.977	38.5
803.33	41.5
808.677	51.5
814.019	51.5
819.355	56.5
824.686	43.5
830.011	38.5
835.33	46.5
840.644	44.5
845.952	48.5
851.255	46.5
856.552	41.5
861.844	34.5
867.13	31.5
872.41	32.5
877.686	25.5
882.955	24.5
888.219	27.5
893.478	28.5
898.731	28.5
903.979	30.5
909.221	37.5
914.458	31.5
919.69	28.5
924.916	24.5
930.136	21.5
935.351	26.5
940.561	27.5
945.766	30.5
950.965	29.5
956.158	28.5
961.347	28.5
966.529	34.5
971.707	26.5
976.879	28.5
982.046	29.5
987.208	26.5
992.364	26.5
997.515	31.5
1002.66	29.5
1007.801	34.5
1012.936	24.5
1018.066	28.5
1023.19	26.5
1028.309	24.5
1033.423	27.5
1038.532	34.5
1043.636	33.5
1048.734	36.5
1053.827	34.5
1058.915	25.5
1063.998	23.5
1069.075	24.5
1074.147	18.5
1079.214	18.5
1084.276	27.5
1089.333	30.5
1094.385	27.5
1099.431	33.5
1104.472	28.5
1109.509	26.5
1114.54	22.5
1119.565	24.5
1124.586	25.5
1129.602	24.5
1134.613	23.5
1139.618	27.5
1144.619	27.5
1149.614	33.5
1154.604	37.5
1159.589	41.5
1164.57	38.5
1169.545	37.5
1174.515	33.5
1179.48	29.5
1184.44	25.5
1189.395	21.5
1194.345	24.5
1199.29	22.5
1204.23	26.5
1209.165	20.5
1214.095	24.5
1219.021	28.5
1223.941	30.5
1228.856	23.5
1233.766	28.5
1238.672	28.5
1243.572	20.5
1248.467	25.5
1253.358	21.5
1258.244	25.5
1263.124	20.5
1268	18.5
1272.871	22.5
1277.737	20.5
1282.599	21.5
1287.455	19.5
1292.306	19.5
1297.153	19.5
1301.995	22.5
1306.832	22.5
1311.664	20.5
1316.491	25.5
1321.314	26.5
1326.132	29.5
1330.945	34.5
1335.753	36.5
1340.556	32.5
1345.354	24.5
1350.148	26.5
1354.937	22.5
1359.722	28.5
1364.501	23.5
1369.276	25.5
1374.046	26.5
1378.811	19.5
1383.572	16.5
1388.327	13.5
1393.079	19.5
1397.825	19.5
1402.567	20.5
1407.304	18.5
1412.036	20.5
1416.764	17.5
1421.487	18.5
1426.205	14.5
1430.919	21.5
1435.628	19.5
1440.333	27.5
1445.032	29.5
1449.727	29.5
1454.418	40.5
1459.104	42.5
1463.785	45.5
1468.462	40.5
1473.134	31.5
1477.802	22.5
1482.465	19.5
1487.123	15.5
1491.777	16.5
1496.426	19.5
1501.071	21.5
1505.711	21.5
1510.347	18.5
1514.978	14.5
1519.604	17.5
1524.226	11.5
1528.844	15.5
1533.457	17.5
1538.065	19.5
1542.669	17.5
1547.269	18.5
1551.864	14.5
1556.454	11.5
1561.041	13.5
1565.622	12.5
1570.199	10.5
1574.772	10.5
1579.34	15.5
1583.904	20.5
1588.464	16.5
1593.019	13.5
1597.569	16.5
1602.115	17.5
1606.657	10.5
1611.195	13.5
1615.728	12.5
1620.256	15.5
1624.78	15.5
1629.3	14.5
1633.816	14.5
1638.327	20.5
1642.834	13.5
1647.336	13.5
1651.834	11.5
1656.328	12.5
1660.817	11.5
1665.302	12.5
1669.783	15.5
1674.259	12.5
1678.732	15.5
1683.199	14.5
1687.663	15.5
1692.122	12.5
1696.577	12.5
1701.028	13.5
1705.474	13.5
1709.917	11.5
1714.355	11.5
1718.788	11.5
1723.218	11.5
1727.643	10.5
1732.064	12.5
1736.481	12.5
1740.893	8.5
1745.301	12.5
1749.705	11.5
1754.105	9.5
1758.501	7.5
1762.893	9.5
1767.28	11.5
1771.663	10.5
1776.042	7.5
1780.417	10.5
1784.787	12.5
1789.154	11.5
1793.516	7.5
1797.874	12.5
1802.228	9.5
1806.578	6.5
1810.924	14.5
1815.266	9.5
1819.603	7.5
1823.937	13.5
1828.266	7.5
1832.591	5.5
1836.913	1.5
1841.23	6.5
1845.543	10.5
1849.852	6.5
1854.156	5.5
1858.457	7.5
1862.754	13.5
1867.047	9.5
1871.335	10.5
1875.62	7.5
1879.9	8.5
1884.177	10.5
1888.449	7.5
1892.718	9.5
1896.982	8.5
1901.243	11.5
1905.499	9.5
1909.752	7.5
1914	8.5
1918.245	4.5
1922.485	5.5
1926.722	6.5
1930.954	8.5
1935.183	9.5
1939.408	14.5
1943.628	12.5
1947.845	10.5
1952.058	10.5
1956.267	6.5
1960.472	2.5
1964.673	3.5
1968.87	2.5
1973.063	9.5
1977.252	7.5
1981.438	9.5
1985.619	12.5
1989.797	8.5
1993.971	5.5
1998.14	3.5
2002.306	3.5
2006.469	6.5
2010.627	8.5
2014.781	9.5
2018.932	12.5
2023.078	8.5
2027.221	5.5
2031.36	4.5
2035.495	3.5
2039.627	2.5
2043.754	3.5
2047.878	7.5
2051.998	10.5
2056.114	8.5
2060.226	11.5
2064.334	7.5
2068.439	3.5
2072.54	2.5
2076.637	5.5
2080.73	4.5
2084.82	5.5
2088.906	10.5
2092.988	9.5
2097.066	7.5
2101.14	8.5
2105.211	8.5
2109.278	4.5
2113.342	3.5
2117.401	2.5
2121.457	3.5
2125.509	8.5
2129.558	7.5
2133.602	7.5
2137.643	5.5
2141.681	5.5
2145.714	3.5
2149.744	4.5
2153.77	2.5
2157.793	8.5
2161.812	6.5
2165.827	3.5
2169.838	5.5
2173.846	7.5
2177.851	3.5
2181.851	4.5
2185.848	4.5
2189.841	6.5
2193.831	-0.5
2197.817	3.5
2201.799	5.5
2205.778	2.5
2209.753	5.5
2213.725	3.5
2217.693	2.5
2221.657	1.5
2225.618	5.5
2229.575	4.5
2233.529	4.5
2237.479	-0.5
2241.425	0.5
2245.368	2.5
2249.307	0.5
2253.243	4.5
2257.175	2.5
2261.104	8.5
2265.029	0.5
2268.95	0.5
2272.868	0.5
2276.783	-1.5
2280.694	3.5
2284.601	4.5
2288.505	4.5
2292.405	5.5
2296.302	4.5
2300.195	5.5
2304.085	1.5
2307.971	-0.5
2311.854	-1.5
2315.734	0.5
2319.609	-0.5
2323.482	3.5
2327.351	1.5
2331.216	10.5
2335.078	5.5
2338.937	2.5
2342.792	-3.5
2346.643	-0.5
2350.492	-0.5
2354.336	0.5
2358.178	1.5
2362.015	5.5
2365.85	2.5
2369.681	4.5
2373.508	1.5
2377.333	1.5
2381.153	-0.5
2384.971	-0.5
2388.785	1.5
2392.595	4.5
2396.402	2.5
2400.206	5.5
2404.007	-1.5
2407.804	4.5
2411.597	1.5
2415.388	-2.5
2419.174	4.5
2422.958	1.5
2426.738	-3.5
2430.515	3.5
2434.289	1.5
2438.059	0.5
2441.825	-3.5
2445.589	-1.5
2449.349	-0.5
2453.106	2.5
2456.859	1.5
2460.61	1.5
2464.356	2.5
2468.1	3.5
2471.84	0.5
2475.577	0.5
2479.311	-0.5
2483.041	3.5
2486.768	0.5
2490.492	1.5
2494.213	0.5
2497.93	-1.5
2501.644	1.5
2505.355	-1.5
2509.062	-2.5
2512.766	-0.5
2516.467	0.5
2520.165	3.5
2523.859	3.5
2527.551	3.5
2531.239	-0.5
2534.923	-0.5
2538.605	-2.5
2542.283	-5.5
2545.958	-0.5
2549.63	1.5
2553.299	2.5
2556.964	4.5
2560.626	0.5
2564.285	-0.5
2567.941	-1.5
2571.594	-1.5
2575.243	-4.5
2578.89	-0.5
2582.533	-1.5
2586.173	-0.5
2589.809	0.5
2593.443	4.5
2597.073	0.5
2600.701	-1.5
2604.325	0.5
2607.946	-1.5
2611.564	2.5
2615.178	0.5
2618.79	-0.5
2622.398	-0.5
2626.004	0.5
2629.606	2.5
2633.205	1.5
2636.801	0.5
2640.394	0.5
2643.983	-0.5
2647.57	0.5
2651.153	2.5
2654.734	0.5
2658.311	-1.5
2661.885	1.5
2665.456	1.5
2669.025	0.5
2672.589	2.5
2676.151	1.5
2679.71	1.5
2683.266	-0.5
2686.819	4.5
2690.368	1.5
2693.915	-1.5
2697.458	-2.5
2700.999	3.5
2704.536	4.5
2708.071	2.5
2711.602	4.5
2715.13	1.5
2718.656	2.5
2722.178	-2.5
2725.697	-2.5
2729.214	1.5
2732.727	4.5
2736.237	3.5
2739.744	5.5
2743.249	8.5
2746.75	2.5
2750.248	-0.5
2753.743	0.5
2757.236	-0.5
2760.725	-3.5
2764.211	1.5
2767.695	3.5
2771.175	5.5
2774.652	3.5
2778.127	0.5
2781.598	-0.5
2785.067	-2.5
2788.532	-4.5
2791.995	-3.5
2795.455	-3.5
2798.911	-0.5
2802.365	0.5
2805.816	-0.5
2809.264	2.5
2812.709	3.5
2816.151	1.5
2819.59	1.5
2823.026	-1.5
2826.46	-0.5
2829.89	0.5
2833.318	2.5
2836.742	6.5
2840.164	9.5
2843.583	12.5
2846.999	12.5
2850.412	12.5
2853.822	7.5
2857.229	10.5
2860.634	7.5
2864.035	10.5
2867.434	15.5
2870.83	15.5
2874.223	20.5
2877.613	22.5
2881	18.5
2884.385	20.5
2887.766	26.5
2891.145	26.5
2894.521	21.5
2897.894	21.5
2901.264	20.5
2904.631	21.5
2907.996	19.5
2911.358	18.5
2914.717	14.5
2918.073	18.5
2921.426	14.5
2924.777	15.5
2928.124	11.5
2931.469	12.5
2934.811	7.5
2938.15	10.5
2941.487	8.5
2944.821	9.5
2948.152	7.5
2951.48	7.5
2954.805	12.5
2958.128	13.5
2961.447	9.5
2964.765	6.5
2968.079	13.5
2971.39	7.5
2974.699	6.5
2978.005	2.5
2981.308	2.5
2984.609	5.5
2987.907	4.5
2991.202	2.5
2994.494	3.5
2997.784	3.5
3001.07	0.5
3004.355	-3.5
3007.636	1.5
3010.915	0.5
3014.191	-0.5
3017.464	1.5
3020.734	4.5
3024.002	1.5
3027.267	5.5
3030.53	2.5
3033.789	0.5
3037.046	-4.5
3040.301	-0.5
3043.552	-1.5
3046.801	2.5
3050.048	0.5
3053.291	2.5
3056.532	2.5
3059.771	5.5
3063.006	1.5
3066.239	-6.5
3069.469	0.5
3072.697	-1.5
3075.922	-2.5
3079.144	-0.5
3082.364	3.5
3085.581	-0.5
3088.795	4.5
3092.007	0.5
3095.216	-0.5
3098.423	-3.5
3101.627	-3.5
3104.828	-1.5
3108.026	1.5
3111.222	-0.5
3114.416	4.5
3117.607	6.5
3120.795	1.5
3123.98	2.5
3127.163	0.5
3130.344	-1.5
3133.521	2.5
3136.696	0.5
3139.869	2.5
3143.039	6.5
3146.206	3.5
3149.371	2.5
3152.533	3.5
3155.693	1.5
3158.85	-2.5
3162.005	-1.5
3165.157	-1.5
3168.306	-2.5
3171.453	2.5
3174.597	5.5
3177.739	2.5
3180.878	1.5
3184.014	2.5
3187.149	-1.5
3190.28	-1.5
3193.409	-2.5
3196.536	-1.5
3199.659	1.5
3202.781	2.5
3205.9	8.5
3209.016	3.5
3212.13	4.5
3215.241	2.5
3218.35	3.5
3221.456	-1.5
3224.56	-0.5
3227.661	2.5
3230.76	5.5
3233.856	5.5
3236.95	6.5
3240.041	-0.5
3243.13	2.5
3246.216	2.5
3249.3	0.5
3252.382	0.5
3255.46	1.5
3258.537	0.5
3261.611	3.5
3264.682	5.5
3267.751	2.5
3270.818	0.5
3273.882	1.5
3276.943	1.5
3280.002	-1.5
3283.059	-2.5
3286.113	0.5
3289.165	-0.5
3292.214	1.5
3295.261	-0.5
3298.306	1.5
3301.348	-0.5
3304.387	-1.5
3307.425	2.5
3310.459	2.5
3313.492	-2.5
3316.521	-0.5
3319.549	0.5
3322.574	-0.5
3325.597	0.5
3328.617	-2.5
3331.635	1.5
3334.65	1.5
3337.663	-0.5
3340.674	1.5
3343.682	-1.5
3346.688	0.5
3349.691	-1.5
3352.692	3.5
3355.691	-0.5
3358.687	-2.5
3361.681	0.5
3364.673	2.5
3367.662	-3.5
3370.649	2.5
3373.633	-1.5
3376.615	1.5
3379.595	-0.5
3382.572	1.5
3385.547	-1.5
3388.52	-0.5
3391.49	1.5
3394.458	0.5
3397.424	-0.5
3400.387	-1.5
3403.348	-0.5
3406.307	-5.5
3409.263	0.5
3412.217	-0.5
3415.168	-0.5
3418.118	0.5
3421.065	2.5
3424.009	-2.5
3426.951	-2.5
3429.891	-4.5
3432.829	-2.5
3435.764	2.5
3438.697	-3.5
3441.628	0.5
3444.557	-0.5
3447.483	-1.5
3450.407	-1.5
3453.328	4.5
3456.247	-4.5
3459.164	0.5
3462.079	-0.5
3464.991	0.5
3467.902	-1.5
3470.809	3.5
3473.715	0.5
3476.618	0.5
3479.519	-2.5
3482.418	-3.5
3485.315	-5.5
3488.209	-0.5
3491.101	-2.5
3493.99	-3.5
3496.878	1.5
3499.763	0.5
3502.646	0.5
3505.527	-2.5
3508.405	-0.5
3511.281	-3.5
3514.155	-4.5
3517.027	-0.5
3519.897	-0.5
3522.764	-0.5
3525.629	-2.5
3528.492	-2.5
3531.352	0.5
3534.211	-4.5
3537.067	-7.5
3539.921	-5.5
3542.773	-6.5
3545.622	3.5
3548.469	-1.5
3551.315	3.5
3554.157	-2.5
3556.998	-0.5
3559.837	-6.5
3562.673	-9.5
3565.507	-4.5
3568.339	-2.5
3571.169	-2.5
3573.996	-0.5
3576.822	-0.5
3579.645	-2.5
3582.466	-2.5
3585.285	-1.5
3588.101	-3.5
3590.916	-0.5
3593.728	-2.5
3596.538	-4.5
3599.346	-2.5
3602.152	0.5
3604.956	-1.5
3607.757	-1.5
3610.556	-3.5
3613.354	-2.5
3616.149	-3.5
3618.942	-4.5
3621.732	-2.5
3624.521	0.5
3627.307	-2.5
3630.092	-3.5
3632.874	-4.5
3635.654	-2.5
3638.432	-3.5
3641.208	-3.5
3643.982	-0.5
3646.753	-3.5
3649.523	-7.5
3652.29	-3.5
3655.055	-5.5
3657.818	-3.5
3660.579	0.5
3663.338	-2.5
3666.095	-1.5
3668.849	-1.5
3671.602	-3.5
3674.352	1.5
3677.101	-7.5
3679.847	-6.5
3682.591	-2.5
3685.333	-2.5
3688.073	-0.5
3690.811	1.5
3693.547	-0.5
3696.281	-4.5
3699.013	-5.5
3701.742	-4.5
3704.47	-6.5
3707.195	-4.5
3709.919	-4.5
3712.64	-1.5
3715.359	-0.5
3718.076	-2.5
3720.792	-3.5
3723.505	-3.5
3726.216	-5.5
3728.925	-4.5
3731.632	-3.5
3734.336	-3.5
3737.039	1.5
3739.74	0.5
3742.439	-0.5
3745.136	2.5
3747.83	-1.5
3750.523	-3.5
3753.213	-1.5
3755.902	-2.5
3758.589	-3.5
3761.273	-3.5
3763.956	-2.5
3766.636	-1.5
3769.315	-4.5
3771.991	-2.5
3774.665	-1.5
3777.338	-3.5
3780.008	-1.5
3782.677	-6.5
3785.343	-3.5
3788.007	-4.5
3790.67	-0.5
3793.33	-2.5
3795.989	-2.5
3798.645	-4.5
3801.299	-0.5
3803.952	-3.5
3806.602	-1.5
3809.251	-2.5
3811.897	-3.5
3814.542	-7.5
3817.184	-7.5
3819.825	-6.5
3822.463	-3.5
3825.1	-2.5
3827.735	-3.5
3830.367	-0.5
3832.998	0.5
3835.627	-1.5
3838.253	-2.5
3840.878	-4.5
3843.501	-3.5
3846.122	-5.5
3848.741	-2.5
3851.358	0.5
3853.973	1.5
3856.586	-1.5
3859.197	-1.5
3861.806	-3.5
3864.414	-4.5
3867.019	-6.5
3869.622	-7.5
3872.224	-5.5
3874.823	-4.5
3877.421	-0.5
3880.016	-2.5
3882.61	1.5
3885.202	6.5
3887.792	1.5
3890.38	-1.5
3892.966	-2.5
3895.55	-3.5
3898.132	-4.5
3900.713	0.5
3903.291	-3.5
3905.868	-0.5
3908.442	-3.5
3911.015	-5.5
3913.586	-0.5
3916.155	-1.5
3918.722	-0.5
3921.287	-4.5
3923.85	-3.5
3926.411	-3.5
3928.971	-3.5
3931.528	-1.5
3934.084	-3.5
3936.638	-2.5
3939.19	-3.5
3941.74	-0.5
3944.288	-5.5
3946.834	-2.5
3949.378	-2.5
3951.921	-3.5
3954.462	-0.5
3957	-3.5
3959.537	1.5
3962.072	-0.5
3964.606	-3.5
3967.137	-2.5
3969.667	-0.5
3972.194	-1.5
3974.72	-3.5
3977.244	-2.5
3979.766	-1.5
3982.286	-5.5
3984.805	-0.5
3987.321	-0.5
3989.836	-5.5
3992.349	-0.5
3994.86	1.5
3997.369	-3.5
3999.877	-3.5
4002.382	-3.5
4004.886	-5.5
4007.388	0.5
4009.888	-1.5
4012.386	-2.5
4014.883	-4.5
4017.377	-0.5
4019.87	-4.5
4022.361	-1.5
4024.85	-4.5
4027.338	-4.5
4029.823	-1.5
4032.307	-2.5
4034.789	-2.5
4037.269	0.5
4039.747	-0.5
4042.224	0.5
4044.699	-5.5
4047.172	-5.5
4049.643	-8.5
4052.112	-3.5
4054.58	-4.5
4057.046	-6.5
4059.51	-0.5
4061.972	3.5
4064.432	-0.5
4066.891	-2.5
4069.348	-3.5
4071.803	-7.5
4074.256	-10.5
4076.708	-2.5
4079.158	1.5
4081.606	-2.5
4084.052	0.5
4086.497	-2.5
4088.939	-0.5
4091.38	-2.5
4093.819	-3.5
4096.257	-0.5
4098.693	-2.5
4101.127	-2.5
4103.559	-2.5
4105.989	1.5
4108.418	-0.5
4110.845	1.5
4113.27	0.5
4115.694	3.5
4118.115	2.5
4120.535	-6.5
4122.954	-4.5
4125.37	-7.5
4127.785	-1.5
4130.198	-0.5
4132.609	-2.5
4135.019	-0.5
4137.427	-2.5
4139.833	-2.5
4142.237	-7.5
