Data from 0.5_n=5_RamanShift_03.txt Node
Date: Mon Mar 19 12:23:23 IST 2018
User: aro
Spectrometer: QEPB0276
Trigger mode: 0
Integration Time (sec): 5.000000E0
Scans to average: 1
Electric dark correction enabled: true
Nonlinearity correction enabled: false
Boxcar width: 0
XAxis mode: Raman Shifts
Number of Pixels in Spectrum: 1044
>>>>>Begin Spectral Data<<<<<
160.701	1.5
166.742	-2.5
172.777	3.5
178.805	9.5
184.826	15.5
190.841	34.5
196.849	57.5
202.85	74.5
208.845	74.5
214.833	79.5
220.815	80.5
226.789	75.5
232.758	72.5
238.719	75.5
244.674	74.5
250.623	76.5
256.565	72.5
262.5	74.5
268.429	77.5
274.351	77.5
280.267	81.5
286.176	78.5
292.079	80.5
297.975	81.5
303.865	83.5
309.748	81.5
315.625	81.5
321.495	83.5
327.359	85.5
333.217	85.5
339.068	85.5
344.912	88.5
350.751	85.5
356.583	86.5
362.408	83.5
368.227	85.5
374.04	90.5
379.847	93.5
385.647	105.5
391.44	102.5
397.228	93.5
403.009	97.5
408.784	103.5
414.553	108.5
420.315	121.5
426.071	132.5
431.821	120.5
437.565	96.5
443.302	95.5
449.033	97.5
454.758	94.5
460.477	85.5
466.189	86.5
471.896	83.5
477.596	84.5
483.29	78.5
488.978	82.5
494.66	82.5
500.335	80.5
506.005	74.5
511.668	63.5
517.325	57.5
522.977	54.5
528.622	46.5
534.261	48.5
539.894	44.5
545.521	45.5
551.141	43.5
556.756	42.5
562.365	37.5
567.968	36.5
573.565	38.5
579.155	32.5
584.74	36.5
590.319	38.5
595.892	40.5
601.459	42.5
607.02	40.5
612.575	38.5
618.124	36.5
623.667	38.5
629.204	31.5
634.735	33.5
640.261	35.5
645.781	38.5
651.294	46.5
656.802	44.5
662.304	37.5
667.8	35.5
673.29	29.5
678.775	31.5
684.254	30.5
689.726	25.5
695.193	26.5
700.655	29.5
706.11	32.5
711.56	30.5
717.004	33.5
722.442	31.5
727.874	29.5
733.301	26.5
738.722	29.5
744.137	30.5
749.547	30.5
754.951	32.5
760.349	31.5
765.741	31.5
771.128	36.5
776.509	30.5
781.885	35.5
787.254	32.5
792.618	29.5
797.977	33.5
803.33	38.5
808.677	42.5
814.019	46.5
819.355	50.5
824.686	41.5
830.011	34.5
835.33	37.5
840.644	36.5
845.952	40.5
851.255	38.5
856.552	31.5
861.844	29.5
867.13	29.5
872.41	31.5
877.686	28.5
882.955	25.5
888.219	26.5
893.478	22.5
898.731	23.5
903.979	23.5
909.221	30.5
914.458	25.5
919.69	25.5
924.916	25.5
930.136	22.5
935.351	24.5
940.561	20.5
945.766	23.5
950.965	22.5
956.158	26.5
961.347	23.5
966.529	30.5
971.707	24.5
976.879	25.5
982.046	25.5
987.208	24.5
992.364	20.5
997.515	24.5
1002.66	28.5
1007.801	28.5
1012.936	20.5
1018.066	21.5
1023.19	20.5
1028.309	20.5
1033.423	27.5
1038.532	30.5
1043.636	32.5
1048.734	28.5
1053.827	28.5
1058.915	19.5
1063.998	20.5
1069.075	20.5
1074.147	18.5
1079.214	19.5
1084.276	23.5
1089.333	27.5
1094.385	25.5
1099.431	26.5
1104.472	22.5
1109.509	22.5
1114.54	14.5
1119.565	17.5
1124.586	17.5
1129.602	20.5
1134.613	24.5
1139.618	22.5
1144.619	30.5
1149.614	28.5
1154.604	29.5
1159.589	30.5
1164.57	27.5
1169.545	26.5
1174.515	23.5
1179.48	25.5
1184.44	23.5
1189.395	21.5
1194.345	25.5
1199.29	23.5
1204.23	20.5
1209.165	14.5
1214.095	18.5
1219.021	22.5
1223.941	26.5
1228.856	23.5
1233.766	24.5
1238.672	26.5
1243.572	23.5
1248.467	15.5
1253.358	21.5
1258.244	20.5
1263.124	17.5
1268	15.5
1272.871	15.5
1277.737	18.5
1282.599	19.5
1287.455	22.5
1292.306	19.5
1297.153	16.5
1301.995	14.5
1306.832	18.5
1311.664	13.5
1316.491	16.5
1321.314	18.5
1326.132	27.5
1330.945	25.5
1335.753	32.5
1340.556	26.5
1345.354	22.5
1350.148	23.5
1354.937	17.5
1359.722	18.5
1364.501	15.5
1369.276	23.5
1374.046	21.5
1378.811	18.5
1383.572	15.5
1388.327	15.5
1393.079	17.5
1397.825	13.5
1402.567	14.5
1407.304	12.5
1412.036	13.5
1416.764	12.5
1421.487	14.5
1426.205	15.5
1430.919	18.5
1435.628	15.5
1440.333	23.5
1445.032	22.5
1449.727	23.5
1454.418	27.5
1459.104	30.5
1463.785	31.5
1468.462	28.5
1473.134	24.5
1477.802	20.5
1482.465	12.5
1487.123	18.5
1491.777	13.5
1496.426	15.5
1501.071	13.5
1505.711	12.5
1510.347	13.5
1514.978	14.5
1519.604	15.5
1524.226	15.5
1528.844	14.5
1533.457	16.5
1538.065	18.5
1542.669	13.5
1547.269	14.5
1551.864	8.5
1556.454	11.5
1561.041	8.5
1565.622	9.5
1570.199	14.5
1574.772	9.5
1579.34	13.5
1583.904	13.5
1588.464	11.5
1593.019	9.5
1597.569	11.5
1602.115	14.5
1606.657	11.5
1611.195	12.5
1615.728	14.5
1620.256	13.5
1624.78	12.5
1629.3	10.5
1633.816	8.5
1638.327	10.5
1642.834	14.5
1647.336	11.5
1651.834	11.5
1656.328	11.5
1660.817	12.5
1665.302	14.5
1669.783	11.5
1674.259	10.5
1678.732	10.5
1683.199	9.5
1687.663	14.5
1692.122	9.5
1696.577	13.5
1701.028	11.5
1705.474	13.5
1709.917	13.5
1714.355	9.5
1718.788	6.5
1723.218	9.5
1727.643	5.5
1732.064	8.5
1736.481	11.5
1740.893	7.5
1745.301	14.5
1749.705	11.5
1754.105	12.5
1758.501	6.5
1762.893	5.5
1767.28	7.5
1771.663	7.5
1776.042	3.5
1780.417	9.5
1784.787	10.5
1789.154	10.5
1793.516	10.5
1797.874	7.5
1802.228	5.5
1806.578	2.5
1810.924	10.5
1815.266	6.5
1819.603	7.5
1823.937	10.5
1828.266	8.5
1832.591	9.5
1836.913	4.5
1841.23	5.5
1845.543	5.5
1849.852	4.5
1854.156	4.5
1858.457	8.5
1862.754	9.5
1867.047	9.5
1871.335	11.5
1875.62	5.5
1879.9	6.5
1884.177	7.5
1888.449	4.5
1892.718	5.5
1896.982	7.5
1901.243	12.5
1905.499	10.5
1909.752	7.5
1914	8.5
1918.245	8.5
1922.485	0.5
1926.722	6.5
1930.954	5.5
1935.183	6.5
1939.408	9.5
1943.628	11.5
1947.845	5.5
1952.058	12.5
1956.267	5.5
1960.472	0.5
1964.673	4.5
1968.87	0.5
1973.063	8.5
1977.252	5.5
1981.438	7.5
1985.619	10.5
1989.797	7.5
1993.971	2.5
1998.14	4.5
2002.306	0.5
2006.469	4.5
2010.627	5.5
2014.781	10.5
2018.932	8.5
2023.078	7.5
2027.221	5.5
2031.36	4.5
2035.495	4.5
2039.627	0.5
2043.754	0.5
2047.878	7.5
2051.998	7.5
2056.114	4.5
2060.226	9.5
2064.334	1.5
2068.439	3.5
2072.54	1.5
2076.637	-0.5
2080.73	2.5
2084.82	1.5
2088.906	5.5
2092.988	5.5
2097.066	4.5
2101.14	7.5
2105.211	4.5
2109.278	2.5
2113.342	2.5
2117.401	0.5
2121.457	4.5
2125.509	2.5
2129.558	3.5
2133.602	8.5
2137.643	3.5
2141.681	1.5
2145.714	5.5
2149.744	3.5
2153.77	1.5
2157.793	5.5
2161.812	3.5
2165.827	4.5
2169.838	1.5
2173.846	2.5
2177.851	3.5
2181.851	2.5
2185.848	6.5
2189.841	2.5
2193.831	-0.5
2197.817	5.5
2201.799	4.5
2205.778	3.5
2209.753	3.5
2213.725	3.5
2217.693	4.5
2221.657	1.5
2225.618	3.5
2229.575	6.5
2233.529	2.5
2237.479	-0.5
2241.425	3.5
2245.368	3.5
2249.307	1.5
2253.243	4.5
2257.175	3.5
2261.104	8.5
2265.029	3.5
2268.95	0.5
2272.868	-1.5
2276.783	-1.5
2280.694	2.5
2284.601	5.5
2288.505	3.5
2292.405	3.5
2296.302	3.5
2300.195	3.5
2304.085	-2.5
2307.971	-1.5
2311.854	-1.5
2315.734	0.5
2319.609	2.5
2323.482	2.5
2327.351	1.5
2331.216	8.5
2335.078	3.5
2338.937	4.5
2342.792	-3.5
2346.643	-3.5
2350.492	-0.5
2354.336	-2.5
2358.178	3.5
2362.015	2.5
2365.85	3.5
2369.681	4.5
2373.508	-0.5
2377.333	-2.5
2381.153	-0.5
2384.971	0.5
2388.785	1.5
2392.595	1.5
2396.402	5.5
2400.206	2.5
2404.007	2.5
2407.804	2.5
2411.597	0.5
2415.388	-1.5
2419.174	0.5
2422.958	3.5
2426.738	-4.5
2430.515	3.5
2434.289	1.5
2438.059	0.5
2441.825	-2.5
2445.589	1.5
2449.349	-0.5
2453.106	-0.5
2456.859	0.5
2460.61	1.5
2464.356	5.5
2468.1	-0.5
2471.84	-1.5
2475.577	2.5
2479.311	-1.5
2483.041	0.5
2486.768	2.5
2490.492	-1.5
2494.213	1.5
2497.93	-3.5
2501.644	-2.5
2505.355	-2.5
2509.062	-2.5
2512.766	1.5
2516.467	0.5
2520.165	-0.5
2523.859	2.5
2527.551	-0.5
2531.239	2.5
2534.923	-1.5
2538.605	-1.5
2542.283	-5.5
2545.958	-1.5
2549.63	-1.5
2553.299	0.5
2556.964	2.5
2560.626	1.5
2564.285	-1.5
2567.941	-2.5
2571.594	-3.5
2575.243	-6.5
2578.89	-0.5
2582.533	-1.5
2586.173	-1.5
2589.809	-0.5
2593.443	1.5
2597.073	4.5
2600.701	0.5
2604.325	0.5
2607.946	1.5
2611.564	2.5
2615.178	-0.5
2618.79	-1.5
2622.398	-1.5
2626.004	-0.5
2629.606	-0.5
2633.205	0.5
2636.801	0.5
2640.394	1.5
2643.983	0.5
2647.57	-1.5
2651.153	2.5
2654.734	-0.5
2658.311	-2.5
2661.885	0.5
2665.456	-2.5
2669.025	0.5
2672.589	1.5
2676.151	0.5
2679.71	1.5
2683.266	-4.5
2686.819	1.5
2690.368	-0.5
2693.915	-1.5
2697.458	-0.5
2700.999	5.5
2704.536	2.5
2708.071	2.5
2711.602	1.5
2715.13	0.5
2718.656	-1.5
2722.178	-4.5
2725.697	-3.5
2729.214	0.5
2732.727	3.5
2736.237	2.5
2739.744	3.5
2743.249	5.5
2746.75	3.5
2750.248	-4.5
2753.743	-0.5
2757.236	-2.5
2760.725	-1.5
2764.211	0.5
2767.695	2.5
2771.175	1.5
2774.652	3.5
2778.127	-2.5
2781.598	1.5
2785.067	-2.5
2788.532	-4.5
2791.995	-2.5
2795.455	-1.5
2798.911	-2.5
2802.365	1.5
2805.816	2.5
2809.264	3.5
2812.709	0.5
2816.151	-0.5
2819.59	-0.5
2823.026	-0.5
2826.46	-2.5
2829.89	0.5
2833.318	0.5
2836.742	4.5
2840.164	11.5
2843.583	9.5
2846.999	9.5
2850.412	9.5
2853.822	6.5
2857.229	5.5
2860.634	3.5
2864.035	3.5
2867.434	11.5
2870.83	10.5
2874.223	15.5
2877.613	17.5
2881	10.5
2884.385	9.5
2887.766	13.5
2891.145	18.5
2894.521	11.5
2897.894	12.5
2901.264	13.5
2904.631	15.5
2907.996	14.5
2911.358	13.5
2914.717	10.5
2918.073	7.5
2921.426	7.5
2924.777	7.5
2928.124	4.5
2931.469	6.5
2934.811	6.5
2938.15	8.5
2941.487	9.5
2944.821	7.5
2948.152	4.5
2951.48	3.5
2954.805	6.5
2958.128	6.5
2961.447	3.5
2964.765	5.5
2968.079	10.5
2971.39	6.5
2974.699	3.5
2978.005	2.5
2981.308	5.5
2984.609	-0.5
2987.907	0.5
2991.202	1.5
2994.494	1.5
2997.784	2.5
3001.07	2.5
3004.355	0.5
3007.636	3.5
3010.915	4.5
3014.191	-1.5
3017.464	-0.5
3020.734	3.5
3024.002	0.5
3027.267	1.5
3030.53	-2.5
3033.789	-0.5
3037.046	-2.5
3040.301	-0.5
3043.552	1.5
3046.801	-1.5
3050.048	-0.5
3053.291	0.5
3056.532	0.5
3059.771	0.5
3063.006	-3.5
3066.239	-1.5
3069.469	1.5
3072.697	3.5
3075.922	-2.5
3079.144	0.5
3082.364	-0.5
3085.581	-2.5
3088.795	3.5
3092.007	-1.5
3095.216	0.5
3098.423	-1.5
3101.627	-2.5
3104.828	3.5
3108.026	-0.5
3111.222	2.5
3114.416	3.5
3117.607	0.5
3120.795	0.5
3123.98	2.5
3127.163	0.5
3130.344	0.5
3133.521	2.5
3136.696	1.5
3139.869	2.5
3143.039	4.5
3146.206	3.5
3149.371	0.5
3152.533	0.5
3155.693	1.5
3158.85	0.5
3162.005	1.5
3165.157	-1.5
3168.306	-1.5
3171.453	1.5
3174.597	2.5
3177.739	2.5
3180.878	-0.5
3184.014	-2.5
3187.149	-0.5
3190.28	-2.5
3193.409	-1.5
3196.536	-0.5
3199.659	3.5
3202.781	1.5
3205.9	3.5
3209.016	2.5
3212.13	-0.5
3215.241	-0.5
3218.35	1.5
3221.456	2.5
3224.56	1.5
3227.661	1.5
3230.76	2.5
3233.856	3.5
3236.95	4.5
3240.041	-1.5
3243.13	-3.5
3246.216	-1.5
3249.3	-1.5
3252.382	4.5
3255.46	6.5
3258.537	0.5
3261.611	5.5
3264.682	0.5
3267.751	0.5
3270.818	-0.5
3273.882	-1.5
3276.943	1.5
3280.002	0.5
3283.059	1.5
3286.113	1.5
3289.165	0.5
3292.214	0.5
3295.261	-3.5
3298.306	-0.5
3301.348	-1.5
3304.387	-3.5
3307.425	0.5
3310.459	2.5
3313.492	1.5
3316.521	2.5
3319.549	0.5
3322.574	-2.5
3325.597	-6.5
3328.617	-4.5
3331.635	-1.5
3334.65	0.5
3337.663	3.5
3340.674	2.5
3343.682	-0.5
3346.688	2.5
3349.691	3.5
3352.692	-4.5
3355.691	-5.5
3358.687	-7.5
3361.681	0.5
3364.673	4.5
3367.662	0.5
3370.649	4.5
3373.633	3.5
3376.615	1.5
3379.595	-5.5
3382.572	-2.5
3385.547	-2.5
3388.52	-2.5
3391.49	2.5
3394.458	4.5
3397.424	0.5
3400.387	-0.5
3403.348	-1.5
3406.307	-3.5
3409.263	-0.5
3412.217	-2.5
3415.168	-2.5
3418.118	1.5
3421.065	3.5
3424.009	1.5
3426.951	1.5
3429.891	-1.5
3432.829	-5.5
3435.764	-0.5
3438.697	-4.5
3441.628	-2.5
3444.557	-0.5
3447.483	1.5
3450.407	3.5
3453.328	4.5
3456.247	-6.5
3459.164	0.5
3462.079	-1.5
3464.991	-3.5
3467.902	-2.5
3470.809	-3.5
3473.715	-0.5
3476.618	2.5
3479.519	-4.5
3482.418	0.5
3485.315	-2.5
3488.209	-2.5
3491.101	-2.5
3493.99	-5.5
3496.878	-2.5
3499.763	-3.5
3502.646	2.5
3505.527	-1.5
3508.405	-0.5
3511.281	-1.5
3514.155	-1.5
3517.027	-2.5
3519.897	-2.5
3522.764	-3.5
3525.629	-0.5
3528.492	-2.5
3531.352	-0.5
3534.211	-0.5
3537.067	-4.5
3539.921	-2.5
3542.773	-4.5
3545.622	-0.5
3548.469	-3.5
3551.315	-0.5
3554.157	-0.5
3556.998	-0.5
3559.837	-6.5
3562.673	-3.5
3565.507	-1.5
3568.339	-3.5
3571.169	-0.5
3573.996	-3.5
3576.822	-3.5
3579.645	-5.5
3582.466	-1.5
3585.285	-0.5
3588.101	-2.5
3590.916	-0.5
3593.728	-0.5
3596.538	-1.5
3599.346	-2.5
3602.152	-2.5
3604.956	-4.5
3607.757	-3.5
3610.556	-2.5
3613.354	1.5
3616.149	-2.5
3618.942	0.5
3621.732	-0.5
3624.521	-0.5
3627.307	-4.5
3630.092	-3.5
3632.874	-3.5
3635.654	-0.5
3638.432	-6.5
3641.208	-2.5
3643.982	-0.5
3646.753	1.5
3649.523	-5.5
3652.29	-3.5
3655.055	-6.5
3657.818	-7.5
3660.579	-2.5
3663.338	-2.5
3666.095	-0.5
3668.849	0.5
3671.602	0.5
3674.352	3.5
3677.101	-1.5
3679.847	-4.5
3682.591	-2.5
3685.333	-5.5
3688.073	-3.5
3690.811	1.5
3693.547	0.5
3696.281	-3.5
3699.013	-3.5
3701.742	-1.5
3704.47	-3.5
3707.195	-5.5
3709.919	-7.5
3712.64	-5.5
3715.359	-3.5
3718.076	-1.5
3720.792	-4.5
3723.505	-0.5
3726.216	-4.5
3728.925	-3.5
3731.632	-5.5
3734.336	-3.5
3737.039	-1.5
3739.74	-3.5
3742.439	-4.5
3745.136	-4.5
3747.83	-1.5
3750.523	-1.5
3753.213	-4.5
3755.902	-0.5
3758.589	-2.5
3761.273	-1.5
3763.956	-5.5
3766.636	-6.5
3769.315	-7.5
3771.991	-5.5
3774.665	-0.5
3777.338	-2.5
3780.008	-1.5
3782.677	-3.5
3785.343	-2.5
3788.007	-3.5
3790.67	-2.5
3793.33	-3.5
3795.989	-3.5
3798.645	-6.5
3801.299	-3.5
3803.952	0.5
3806.602	-0.5
3809.251	0.5
3811.897	-0.5
3814.542	-1.5
3817.184	-5.5
3819.825	-6.5
3822.463	-4.5
3825.1	-5.5
3827.735	-4.5
3830.367	-3.5
3832.998	-1.5
3835.627	1.5
3838.253	1.5
3840.878	-5.5
3843.501	-4.5
3846.122	-6.5
3848.741	-5.5
3851.358	-4.5
3853.973	-1.5
3856.586	-1.5
3859.197	-1.5
3861.806	-2.5
3864.414	-6.5
3867.019	-1.5
3869.622	-7.5
3872.224	-4.5
3874.823	-1.5
3877.421	-1.5
3880.016	0.5
3882.61	0.5
3885.202	2.5
3887.792	0.5
3890.38	-1.5
3892.966	-3.5
3895.55	-3.5
3898.132	-3.5
3900.713	-1.5
3903.291	-3.5
3905.868	-0.5
3908.442	-2.5
3911.015	-5.5
3913.586	-1.5
3916.155	-0.5
3918.722	-5.5
3921.287	-4.5
3923.85	-2.5
3926.411	-4.5
3928.971	-4.5
3931.528	-1.5
3934.084	-0.5
3936.638	0.5
3939.19	-2.5
3941.74	-1.5
3944.288	-3.5
3946.834	-3.5
3949.378	-3.5
3951.921	-1.5
3954.462	-7.5
3957	-3.5
3959.537	-1.5
3962.072	-1.5
3964.606	-1.5
3967.137	-1.5
3969.667	0.5
3972.194	-4.5
3974.72	-5.5
3977.244	-6.5
3979.766	-2.5
3982.286	-4.5
3984.805	-3.5
3987.321	-1.5
3989.836	-1.5
3992.349	-1.5
3994.86	-1.5
3997.369	-5.5
3999.877	-2.5
4002.382	-8.5
4004.886	-6.5
4007.388	-4.5
4009.888	-5.5
4012.386	1.5
4014.883	-2.5
4017.377	-1.5
4019.87	-2.5
4022.361	-1.5
4024.85	-5.5
4027.338	-7.5
4029.823	-5.5
4032.307	-0.5
4034.789	-2.5
4037.269	-0.5
4039.747	-1.5
4042.224	-0.5
4044.699	-2.5
4047.172	-2.5
4049.643	-6.5
4052.112	-8.5
4054.58	-5.5
4057.046	-5.5
4059.51	-4.5
4061.972	1.5
4064.432	-0.5
4066.891	-2.5
4069.348	-1.5
4071.803	-5.5
4074.256	-8.5
4076.708	-2.5
4079.158	-1.5
4081.606	-3.5
4084.052	-1.5
4086.497	-2.5
4088.939	1.5
4091.38	1.5
4093.819	-3.5
4096.257	-3.5
4098.693	-2.5
4101.127	-3.5
4103.559	-0.5
4105.989	2.5
4108.418	0.5
4110.845	3.5
4113.27	1.5
4115.694	0.5
4118.115	3.5
4120.535	-5.5
4122.954	-5.5
4125.37	-9.5
4127.785	-5.5
4130.198	-3.5
4132.609	-0.5
4135.019	-1.5
4137.427	-2.5
4139.833	-2.5
4142.237	-5.5
