Data from 0.5_n=5_RamanShift_02.txt Node
Date: Mon Mar 19 12:23:18 IST 2018
User: aro
Spectrometer: QEPB0276
Trigger mode: 0
Integration Time (sec): 5.000000E0
Scans to average: 1
Electric dark correction enabled: true
Nonlinearity correction enabled: false
Boxcar width: 0
XAxis mode: Raman Shifts
Number of Pixels in Spectrum: 1044
>>>>>Begin Spectral Data<<<<<
160.701	1.6
166.742	-1.4
172.777	2.6
178.805	10.6
184.826	21.6
190.841	38.6
196.849	63.6
202.85	76.6
208.845	80.6
214.833	77.6
220.815	77.6
226.789	80.6
232.758	75.6
238.719	77.6
244.674	74.6
250.623	84.6
256.565	81.6
262.5	80.6
268.429	83.6
274.351	81.6
280.267	79.6
286.176	76.6
292.079	78.6
297.975	79.6
303.865	77.6
309.748	86.6
315.625	83.6
321.495	84.6
327.359	84.6
333.217	85.6
339.068	87.6
344.912	88.6
350.751	84.6
356.583	88.6
362.408	87.6
368.227	93.6
374.04	90.6
379.847	98.6
385.647	104.6
391.44	99.6
397.228	96.6
403.009	100.6
408.784	100.6
414.553	113.6
420.315	122.6
426.071	136.6
431.821	123.6
437.565	105.6
443.302	92.6
449.033	100.6
454.758	99.6
460.477	88.6
466.189	89.6
471.896	80.6
477.596	90.6
483.29	88.6
488.978	83.6
494.66	77.6
500.335	80.6
506.005	76.6
511.668	65.6
517.325	59.6
522.977	53.6
528.622	53.6
534.261	52.6
539.894	48.6
545.521	48.6
551.141	49.6
556.756	44.6
562.365	37.6
567.968	41.6
573.565	41.6
579.155	35.6
584.74	38.6
590.319	40.6
595.892	41.6
601.459	44.6
607.02	42.6
612.575	37.6
618.124	36.6
623.667	34.6
629.204	34.6
634.735	36.6
640.261	39.6
645.781	45.6
651.294	51.6
656.802	49.6
662.304	38.6
667.8	37.6
673.29	31.6
678.775	34.6
684.254	29.6
689.726	30.6
695.193	30.6
700.655	34.6
706.11	37.6
711.56	35.6
717.004	30.6
722.442	32.6
727.874	33.6
733.301	25.6
738.722	27.6
744.137	28.6
749.547	33.6
754.951	33.6
760.349	33.6
765.741	36.6
771.128	37.6
776.509	31.6
781.885	36.6
787.254	36.6
792.618	27.6
797.977	33.6
803.33	42.6
808.677	48.6
814.019	52.6
819.355	53.6
824.686	43.6
830.011	33.6
835.33	37.6
840.644	40.6
845.952	39.6
851.255	42.6
856.552	39.6
861.844	32.6
867.13	34.6
872.41	30.6
877.686	30.6
882.955	23.6
888.219	26.6
893.478	24.6
898.731	26.6
903.979	22.6
909.221	33.6
914.458	30.6
919.69	27.6
924.916	28.6
930.136	23.6
935.351	22.6
940.561	22.6
945.766	27.6
950.965	25.6
956.158	25.6
961.347	28.6
966.529	30.6
971.707	26.6
976.879	26.6
982.046	28.6
987.208	26.6
992.364	23.6
997.515	24.6
1002.66	26.6
1007.801	31.6
1012.936	26.6
1018.066	28.6
1023.19	27.6
1028.309	21.6
1033.423	25.6
1038.532	28.6
1043.636	29.6
1048.734	30.6
1053.827	27.6
1058.915	21.6
1063.998	23.6
1069.075	22.6
1074.147	21.6
1079.214	23.6
1084.276	27.6
1089.333	32.6
1094.385	28.6
1099.431	25.6
1104.472	26.6
1109.509	21.6
1114.54	24.6
1119.565	22.6
1124.586	27.6
1129.602	24.6
1134.613	22.6
1139.618	23.6
1144.619	26.6
1149.614	25.6
1154.604	25.6
1159.589	31.6
1164.57	31.6
1169.545	30.6
1174.515	31.6
1179.48	27.6
1184.44	25.6
1189.395	20.6
1194.345	22.6
1199.29	22.6
1204.23	20.6
1209.165	18.6
1214.095	21.6
1219.021	25.6
1223.941	30.6
1228.856	26.6
1233.766	27.6
1238.672	25.6
1243.572	24.6
1248.467	19.6
1253.358	17.6
1258.244	21.6
1263.124	19.6
1268	20.6
1272.871	22.6
1277.737	18.6
1282.599	25.6
1287.455	24.6
1292.306	23.6
1297.153	20.6
1301.995	19.6
1306.832	17.6
1311.664	18.6
1316.491	20.6
1321.314	25.6
1326.132	30.6
1330.945	30.6
1335.753	30.6
1340.556	26.6
1345.354	20.6
1350.148	18.6
1354.937	16.6
1359.722	22.6
1364.501	23.6
1369.276	26.6
1374.046	25.6
1378.811	20.6
1383.572	14.6
1388.327	18.6
1393.079	20.6
1397.825	16.6
1402.567	15.6
1407.304	17.6
1412.036	19.6
1416.764	16.6
1421.487	19.6
1426.205	15.6
1430.919	19.6
1435.628	19.6
1440.333	25.6
1445.032	24.6
1449.727	22.6
1454.418	32.6
1459.104	37.6
1463.785	33.6
1468.462	31.6
1473.134	29.6
1477.802	23.6
1482.465	14.6
1487.123	19.6
1491.777	18.6
1496.426	19.6
1501.071	16.6
1505.711	17.6
1510.347	17.6
1514.978	16.6
1519.604	18.6
1524.226	14.6
1528.844	16.6
1533.457	15.6
1538.065	17.6
1542.669	14.6
1547.269	14.6
1551.864	14.6
1556.454	15.6
1561.041	13.6
1565.622	15.6
1570.199	14.6
1574.772	14.6
1579.34	9.6
1583.904	14.6
1588.464	14.6
1593.019	11.6
1597.569	14.6
1602.115	15.6
1606.657	12.6
1611.195	13.6
1615.728	14.6
1620.256	13.6
1624.78	13.6
1629.3	14.6
1633.816	11.6
1638.327	19.6
1642.834	16.6
1647.336	16.6
1651.834	13.6
1656.328	15.6
1660.817	13.6
1665.302	14.6
1669.783	8.6
1674.259	14.6
1678.732	11.6
1683.199	12.6
1687.663	14.6
1692.122	12.6
1696.577	15.6
1701.028	14.6
1705.474	12.6
1709.917	14.6
1714.355	10.6
1718.788	13.6
1723.218	10.6
1727.643	9.6
1732.064	8.6
1736.481	14.6
1740.893	8.6
1745.301	18.6
1749.705	10.6
1754.105	10.6
1758.501	10.6
1762.893	8.6
1767.28	9.6
1771.663	11.6
1776.042	6.6
1780.417	10.6
1784.787	14.6
1789.154	10.6
1793.516	8.6
1797.874	9.6
1802.228	9.6
1806.578	7.6
1810.924	9.6
1815.266	11.6
1819.603	8.6
1823.937	14.6
1828.266	10.6
1832.591	13.6
1836.913	7.6
1841.23	5.6
1845.543	4.6
1849.852	8.6
1854.156	9.6
1858.457	10.6
1862.754	14.6
1867.047	10.6
1871.335	12.6
1875.62	7.6
1879.9	7.6
1884.177	9.6
1888.449	6.6
1892.718	7.6
1896.982	6.6
1901.243	12.6
1905.499	11.6
1909.752	8.6
1914	7.6
1918.245	6.6
1922.485	5.6
1926.722	8.6
1930.954	7.6
1935.183	10.6
1939.408	10.6
1943.628	12.6
1947.845	11.6
1952.058	11.6
1956.267	6.6
1960.472	1.6
1964.673	4.6
1968.87	7.6
1973.063	6.6
1977.252	10.6
1981.438	8.6
1985.619	10.6
1989.797	7.6
1993.971	3.6
1998.14	2.6
2002.306	5.6
2006.469	7.6
2010.627	8.6
2014.781	12.6
2018.932	12.6
2023.078	8.6
2027.221	5.6
2031.36	6.6
2035.495	7.6
2039.627	3.6
2043.754	2.6
2047.878	7.6
2051.998	10.6
2056.114	10.6
2060.226	15.6
2064.334	3.6
2068.439	3.6
2072.54	1.6
2076.637	3.6
2080.73	2.6
2084.82	6.6
2088.906	8.6
2092.988	10.6
2097.066	6.6
2101.14	10.6
2105.211	6.6
2109.278	5.6
2113.342	4.6
2117.401	7.6
2121.457	3.6
2125.509	11.6
2129.558	8.6
2133.602	9.6
2137.643	6.6
2141.681	7.6
2145.714	4.6
2149.744	7.6
2153.77	3.6
2157.793	8.6
2161.812	10.6
2165.827	10.6
2169.838	7.6
2173.846	7.6
2177.851	4.6
2181.851	6.6
2185.848	2.6
2189.841	6.6
2193.831	3.6
2197.817	7.6
2201.799	4.6
2205.778	8.6
2209.753	3.6
2213.725	0.6
2217.693	3.6
2221.657	6.6
2225.618	2.6
2229.575	6.6
2233.529	6.6
2237.479	4.6
2241.425	1.6
2245.368	6.6
2249.307	3.6
2253.243	7.6
2257.175	2.6
2261.104	7.6
2265.029	1.6
2268.95	2.6
2272.868	1.6
2276.783	1.6
2280.694	6.6
2284.601	4.6
2288.505	6.6
2292.405	5.6
2296.302	3.6
2300.195	5.6
2304.085	1.6
2307.971	-0.4
2311.854	2.6
2315.734	2.6
2319.609	0.6
2323.482	7.6
2327.351	4.6
2331.216	8.6
2335.078	5.6
2338.937	2.6
2342.792	-1.4
2346.643	-1.4
2350.492	1.6
2354.336	2.6
2358.178	5.6
2362.015	1.6
2365.85	2.6
2369.681	1.6
2373.508	-1.4
2377.333	1.6
2381.153	0.6
2384.971	3.6
2388.785	5.6
2392.595	6.6
2396.402	5.6
2400.206	9.6
2404.007	1.6
2407.804	1.6
2411.597	0.6
2415.388	-0.4
2419.174	1.6
2422.958	6.6
2426.738	0.6
2430.515	8.6
2434.289	3.6
2438.059	3.6
2441.825	-1.4
2445.589	0.6
2449.349	1.6
2453.106	4.6
2456.859	1.6
2460.61	3.6
2464.356	7.6
2468.1	4.6
2471.84	3.6
2475.577	4.6
2479.311	-0.4
2483.041	4.6
2486.768	-0.4
2490.492	0.6
2494.213	3.6
2497.93	3.6
2501.644	3.6
2505.355	2.6
2509.062	1.6
2512.766	2.6
2516.467	-0.4
2520.165	-0.4
2523.859	0.6
2527.551	1.6
2531.239	0.6
2534.923	1.6
2538.605	0.6
2542.283	0.6
2545.958	4.6
2549.63	4.6
2553.299	4.6
2556.964	5.6
2560.626	0.6
2564.285	-4.4
2567.941	0.6
2571.594	-2.4
2575.243	-1.4
2578.89	3.6
2582.533	3.6
2586.173	5.6
2589.809	4.6
2593.443	3.6
2597.073	1.6
2600.701	-2.4
2604.325	-0.4
2607.946	0.6
2611.564	3.6
2615.178	2.6
2618.79	1.6
2622.398	3.6
2626.004	3.6
2629.606	4.6
2633.205	4.6
2636.801	1.6
2640.394	-0.4
2643.983	0.6
2647.57	5.6
2651.153	3.6
2654.734	0.6
2658.311	3.6
2661.885	0.6
2665.456	4.6
2669.025	0.6
2672.589	2.6
2676.151	2.6
2679.71	3.6
2683.266	2.6
2686.819	4.6
2690.368	3.6
2693.915	2.6
2697.458	1.6
2700.999	3.6
2704.536	2.6
2708.071	2.6
2711.602	1.6
2715.13	3.6
2718.656	3.6
2722.178	2.6
2725.697	1.6
2729.214	4.6
2732.727	3.6
2736.237	5.6
2739.744	1.6
2743.249	5.6
2746.75	2.6
2750.248	-0.4
2753.743	3.6
2757.236	4.6
2760.725	1.6
2764.211	2.6
2767.695	2.6
2771.175	1.6
2774.652	6.6
2778.127	-0.4
2781.598	0.6
2785.067	0.6
2788.532	1.6
2791.995	2.6
2795.455	0.6
2798.911	2.6
2802.365	2.6
2805.816	3.6
2809.264	0.6
2812.709	1.6
2816.151	1.6
2819.59	-1.4
2823.026	2.6
2826.46	-0.4
2829.89	5.6
2833.318	4.6
2836.742	6.6
2840.164	10.6
2843.583	6.6
2846.999	8.6
2850.412	5.6
2853.822	4.6
2857.229	5.6
2860.634	7.6
2864.035	10.6
2867.434	13.6
2870.83	13.6
2874.223	17.6
2877.613	14.6
2881	12.6
2884.385	10.6
2887.766	16.6
2891.145	17.6
2894.521	18.6
2897.894	18.6
2901.264	18.6
2904.631	12.6
2907.996	11.6
2911.358	15.6
2914.717	11.6
2918.073	7.6
2921.426	10.6
2924.777	10.6
2928.124	9.6
2931.469	12.6
2934.811	10.6
2938.15	10.6
2941.487	9.6
2944.821	5.6
2948.152	3.6
2951.48	4.6
2954.805	9.6
2958.128	10.6
2961.447	8.6
2964.765	7.6
2968.079	14.6
2971.39	8.6
2974.699	8.6
2978.005	0.6
2981.308	2.6
2984.609	-3.4
2987.907	0.6
2991.202	2.6
2994.494	3.6
2997.784	6.6
3001.07	5.6
3004.355	1.6
3007.636	3.6
3010.915	3.6
3014.191	2.6
3017.464	-1.4
3020.734	1.6
3024.002	-0.4
3027.267	5.6
3030.53	3.6
3033.789	1.6
3037.046	0.6
3040.301	2.6
3043.552	-1.4
3046.801	1.6
3050.048	-1.4
3053.291	-0.4
3056.532	1.6
3059.771	7.6
3063.006	2.6
3066.239	1.6
3069.469	4.6
3072.697	1.6
3075.922	-0.4
3079.144	-0.4
3082.364	-1.4
3085.581	-1.4
3088.795	5.6
3092.007	4.6
3095.216	0.6
3098.423	0.6
3101.627	-1.4
3104.828	1.6
3108.026	0.6
3111.222	2.6
3114.416	1.6
3117.607	4.6
3120.795	4.6
3123.98	3.6
3127.163	3.6
3130.344	0.6
3133.521	3.6
3136.696	3.6
3139.869	3.6
3143.039	6.6
3146.206	0.6
3149.371	3.6
3152.533	4.6
3155.693	2.6
3158.85	1.6
3162.005	0.6
3165.157	0.6
3168.306	0.6
3171.453	1.6
3174.597	5.6
3177.739	0.6
3180.878	4.6
3184.014	2.6
3187.149	1.6
3190.28	-0.4
3193.409	2.6
3196.536	-0.4
3199.659	6.6
3202.781	2.6
3205.9	5.6
3209.016	3.6
3212.13	3.6
3215.241	2.6
3218.35	6.6
3221.456	1.6
3224.56	1.6
3227.661	4.6
3230.76	5.6
3233.856	2.6
3236.95	8.6
3240.041	1.6
3243.13	0.6
3246.216	0.6
3249.3	6.6
3252.382	2.6
3255.46	4.6
3258.537	3.6
3261.611	3.6
3264.682	0.6
3267.751	4.6
3270.818	1.6
3273.882	0.6
3276.943	3.6
3280.002	2.6
3283.059	0.6
3286.113	3.6
3289.165	1.6
3292.214	2.6
3295.261	0.6
3298.306	3.6
3301.348	2.6
3304.387	-0.4
3307.425	3.6
3310.459	4.6
3313.492	-0.4
3316.521	1.6
3319.549	0.6
3322.574	-1.4
3325.597	-3.4
3328.617	-1.4
3331.635	1.6
3334.65	2.6
3337.663	4.6
3340.674	3.6
3343.682	3.6
3346.688	3.6
3349.691	3.6
3352.692	1.6
3355.691	-2.4
3358.687	0.6
3361.681	1.6
3364.673	3.6
3367.662	2.6
3370.649	5.6
3373.633	1.6
3376.615	4.6
3379.595	-5.4
3382.572	1.6
3385.547	2.6
3388.52	1.6
3391.49	3.6
3394.458	2.6
3397.424	2.6
3400.387	-0.4
3403.348	-1.4
3406.307	-3.4
3409.263	-0.4
3412.217	0.6
3415.168	0.6
3418.118	4.6
3421.065	8.6
3424.009	3.6
3426.951	1.6
3429.891	1.6
3432.829	-1.4
3435.764	-1.4
3438.697	-4.4
3441.628	-0.4
3444.557	3.6
3447.483	3.6
3450.407	6.6
3453.328	3.6
3456.247	-1.4
3459.164	-3.4
3462.079	-1.4
3464.991	-1.4
3467.902	-0.4
3470.809	3.6
3473.715	3.6
3476.618	2.6
3479.519	-1.4
3482.418	0.6
3485.315	-4.4
3488.209	-2.4
3491.101	-1.4
3493.99	-0.4
3496.878	1.6
3499.763	2.6
3502.646	3.6
3505.527	3.6
3508.405	0.6
3511.281	0.6
3514.155	-3.4
3517.027	1.6
3519.897	1.6
3522.764	-0.4
3525.629	-0.4
3528.492	-1.4
3531.352	-0.4
3534.211	-1.4
3537.067	-6.4
3539.921	-1.4
3542.773	-3.4
3545.622	2.6
3548.469	1.6
3551.315	3.6
3554.157	0.6
3556.998	1.6
3559.837	-1.4
3562.673	-2.4
3565.507	-3.4
3568.339	0.6
3571.169	-0.4
3573.996	4.6
3576.822	-1.4
3579.645	-0.4
3582.466	-1.4
3585.285	2.6
3588.101	-2.4
3590.916	-0.4
3593.728	0.6
3596.538	-2.4
3599.346	-1.4
3602.152	-0.4
3604.956	-0.4
3607.757	2.6
3610.556	-0.4
3613.354	1.6
3616.149	-4.4
3618.942	0.6
3621.732	-1.4
3624.521	-0.4
3627.307	-3.4
3630.092	0.6
3632.874	1.6
3635.654	-0.4
3638.432	-0.4
3641.208	0.6
3643.982	3.6
3646.753	1.6
3649.523	-6.4
3652.29	-2.4
3655.055	-5.4
3657.818	-2.4
3660.579	1.6
3663.338	-0.4
3666.095	-0.4
3668.849	0.6
3671.602	1.6
3674.352	3.6
3677.101	-2.4
3679.847	-2.4
3682.591	-1.4
3685.333	-0.4
3688.073	-0.4
3690.811	4.6
3693.547	2.6
3696.281	0.6
3699.013	-1.4
3701.742	-2.4
3704.47	-5.4
3707.195	-6.4
3709.919	-5.4
3712.64	-0.4
3715.359	4.6
3718.076	3.6
3720.792	1.6
3723.505	-1.4
3726.216	-5.4
3728.925	-2.4
3731.632	-1.4
3734.336	-4.4
3737.039	1.6
3739.74	3.6
3742.439	1.6
3745.136	3.6
3747.83	-1.4
3750.523	-1.4
3753.213	-5.4
3755.902	-0.4
3758.589	-5.4
3761.273	-0.4
3763.956	0.6
3766.636	1.6
3769.315	-0.4
3771.991	-2.4
3774.665	0.6
3777.338	-0.4
3780.008	-1.4
3782.677	-3.4
3785.343	-5.4
3788.007	-1.4
3790.67	0.6
3793.33	-1.4
3795.989	0.6
3798.645	-1.4
3801.299	-1.4
3803.952	-1.4
3806.602	-1.4
3809.251	0.6
3811.897	-2.4
3814.542	-1.4
3817.184	-3.4
3819.825	-1.4
3822.463	-2.4
3825.1	1.6
3827.735	-2.4
3830.367	3.6
3832.998	-1.4
3835.627	1.6
3838.253	2.6
3840.878	-5.4
3843.501	-1.4
3846.122	-3.4
3848.741	-0.4
3851.358	-1.4
3853.973	1.6
3856.586	0.6
3859.197	0.6
3861.806	-0.4
3864.414	-7.4
3867.019	-1.4
3869.622	-2.4
3872.224	-0.4
3874.823	2.6
3877.421	3.6
3880.016	-0.4
3882.61	2.6
3885.202	5.6
3887.792	1.6
3890.38	-1.4
3892.966	-1.4
3895.55	-2.4
3898.132	-0.4
3900.713	2.6
3903.291	1.6
3905.868	1.6
3908.442	0.6
3911.015	-5.4
3913.586	-2.4
3916.155	1.6
3918.722	-2.4
3921.287	0.6
3923.85	0.6
3926.411	2.6
3928.971	-1.4
3931.528	2.6
3934.084	-2.4
3936.638	-2.4
3939.19	-2.4
3941.74	-1.4
3944.288	0.6
3946.834	2.6
3949.378	2.6
3951.921	0.6
3954.462	-2.4
3957	-2.4
3959.537	-0.4
3962.072	-3.4
3964.606	-0.4
3967.137	-3.4
3969.667	2.6
3972.194	-2.4
3974.72	-1.4
3977.244	0.6
3979.766	2.6
3982.286	-1.4
3984.805	2.6
3987.321	-3.4
3989.836	-3.4
3992.349	0.6
3994.86	0.6
3997.369	-4.4
3999.877	1.6
4002.382	-1.4
4004.886	-1.4
4007.388	-0.4
4009.888	-1.4
4012.386	-0.4
4014.883	-2.4
4017.377	0.6
4019.87	-1.4
4022.361	0.6
4024.85	-3.4
4027.338	-3.4
4029.823	0.6
4032.307	-0.4
4034.789	1.6
4037.269	-0.4
4039.747	2.6
4042.224	-2.4
4044.699	-1.4
4047.172	1.6
4049.643	-3.4
4052.112	-3.4
4054.58	-0.4
4057.046	-1.4
4059.51	3.6
4061.972	0.6
4064.432	-1.4
4066.891	-1.4
4069.348	-2.4
4071.803	-0.4
4074.256	-2.4
4076.708	1.6
4079.158	2.6
4081.606	-0.4
4084.052	3.6
4086.497	-0.4
4088.939	2.6
4091.38	-1.4
4093.819	-3.4
4096.257	-3.4
4098.693	-3.4
4101.127	-3.4
4103.559	-1.4
4105.989	6.6
4108.418	5.6
4110.845	2.6
4113.27	4.6
4115.694	1.6
4118.115	4.6
4120.535	-4.4
4122.954	-1.4
4125.37	-3.4
4127.785	-0.4
4130.198	-0.4
4132.609	0.6
4135.019	0.6
4137.427	-3.4
4139.833	-5.4
4142.237	-5.4
