Data from 0.5_n=3_RamanShift_02.txt Node
Date: Mon Mar 19 12:16:38 IST 2018
User: aro
Spectrometer: QEPB0276
Trigger mode: 0
Integration Time (sec): 5.000000E0
Scans to average: 1
Electric dark correction enabled: true
Nonlinearity correction enabled: false
Boxcar width: 0
XAxis mode: Raman Shifts
Number of Pixels in Spectrum: 1044
>>>>>Begin Spectral Data<<<<<
160.701	-2.1
166.742	1.9
172.777	1.9
178.805	13.9
184.826	18.9
190.841	33.9
196.849	59.9
202.85	74.9
208.845	77.9
214.833	82.9
220.815	81.9
226.789	81.9
232.758	81.9
238.719	86.9
244.674	83.9
250.623	85.9
256.565	82.9
262.5	84.9
268.429	82.9
274.351	82.9
280.267	88.9
286.176	81.9
292.079	87.9
297.975	89.9
303.865	87.9
309.748	89.9
315.625	87.9
321.495	86.9
327.359	88.9
333.217	92.9
339.068	87.9
344.912	96.9
350.751	92.9
356.583	91.9
362.408	90.9
368.227	94.9
374.04	96.9
379.847	93.9
385.647	104.9
391.44	103.9
397.228	107.9
403.009	107.9
408.784	114.9
414.553	121.9
420.315	127.9
426.071	137.9
431.821	121.9
437.565	96.9
443.302	97.9
449.033	99.9
454.758	95.9
460.477	94.9
466.189	94.9
471.896	85.9
477.596	85.9
483.29	81.9
488.978	84.9
494.66	82.9
500.335	84.9
506.005	77.9
511.668	70.9
517.325	63.9
522.977	56.9
528.622	53.9
534.261	55.9
539.894	49.9
545.521	49.9
551.141	46.9
556.756	45.9
562.365	45.9
567.968	42.9
573.565	48.9
579.155	38.9
584.74	42.9
590.319	42.9
595.892	42.9
601.459	44.9
607.02	42.9
612.575	44.9
618.124	41.9
623.667	43.9
629.204	39.9
634.735	38.9
640.261	39.9
645.781	40.9
651.294	48.9
656.802	46.9
662.304	37.9
667.8	34.9
673.29	33.9
678.775	36.9
684.254	32.9
689.726	30.9
695.193	36.9
700.655	35.9
706.11	39.9
711.56	30.9
717.004	32.9
722.442	30.9
727.874	31.9
733.301	29.9
738.722	31.9
744.137	32.9
749.547	34.9
754.951	35.9
760.349	35.9
765.741	36.9
771.128	38.9
776.509	33.9
781.885	37.9
787.254	40.9
792.618	34.9
797.977	39.9
803.33	46.9
808.677	53.9
814.019	51.9
819.355	57.9
824.686	46.9
830.011	35.9
835.33	42.9
840.644	45.9
845.952	48.9
851.255	49.9
856.552	44.9
861.844	35.9
867.13	37.9
872.41	35.9
877.686	28.9
882.955	23.9
888.219	30.9
893.478	29.9
898.731	32.9
903.979	26.9
909.221	34.9
914.458	31.9
919.69	31.9
924.916	25.9
930.136	19.9
935.351	23.9
940.561	25.9
945.766	27.9
950.965	32.9
956.158	30.9
961.347	29.9
966.529	32.9
971.707	28.9
976.879	28.9
982.046	34.9
987.208	26.9
992.364	28.9
997.515	28.9
1002.66	33.9
1007.801	35.9
1012.936	30.9
1018.066	28.9
1023.19	26.9
1028.309	28.9
1033.423	26.9
1038.532	34.9
1043.636	33.9
1048.734	35.9
1053.827	36.9
1058.915	27.9
1063.998	27.9
1069.075	25.9
1074.147	23.9
1079.214	24.9
1084.276	23.9
1089.333	25.9
1094.385	25.9
1099.431	30.9
1104.472	30.9
1109.509	28.9
1114.54	24.9
1119.565	25.9
1124.586	23.9
1129.602	20.9
1134.613	21.9
1139.618	26.9
1144.619	29.9
1149.614	30.9
1154.604	36.9
1159.589	38.9
1164.57	41.9
1169.545	34.9
1174.515	35.9
1179.48	27.9
1184.44	25.9
1189.395	24.9
1194.345	26.9
1199.29	23.9
1204.23	26.9
1209.165	21.9
1214.095	25.9
1219.021	26.9
1223.941	30.9
1228.856	27.9
1233.766	23.9
1238.672	22.9
1243.572	23.9
1248.467	23.9
1253.358	23.9
1258.244	27.9
1263.124	25.9
1268	19.9
1272.871	19.9
1277.737	22.9
1282.599	23.9
1287.455	22.9
1292.306	23.9
1297.153	20.9
1301.995	22.9
1306.832	24.9
1311.664	25.9
1316.491	23.9
1321.314	24.9
1326.132	29.9
1330.945	33.9
1335.753	37.9
1340.556	31.9
1345.354	26.9
1350.148	26.9
1354.937	23.9
1359.722	25.9
1364.501	26.9
1369.276	25.9
1374.046	24.9
1378.811	21.9
1383.572	17.9
1388.327	21.9
1393.079	19.9
1397.825	20.9
1402.567	16.9
1407.304	20.9
1412.036	17.9
1416.764	15.9
1421.487	14.9
1426.205	16.9
1430.919	20.9
1435.628	23.9
1440.333	31.9
1445.032	32.9
1449.727	30.9
1454.418	37.9
1459.104	39.9
1463.785	43.9
1468.462	37.9
1473.134	32.9
1477.802	24.9
1482.465	21.9
1487.123	21.9
1491.777	20.9
1496.426	18.9
1501.071	19.9
1505.711	16.9
1510.347	15.9
1514.978	12.9
1519.604	17.9
1524.226	13.9
1528.844	18.9
1533.457	18.9
1538.065	19.9
1542.669	15.9
1547.269	14.9
1551.864	13.9
1556.454	14.9
1561.041	9.9
1565.622	11.9
1570.199	13.9
1574.772	11.9
1579.34	16.9
1583.904	17.9
1588.464	12.9
1593.019	13.9
1597.569	12.9
1602.115	15.9
1606.657	8.9
1611.195	12.9
1615.728	16.9
1620.256	15.9
1624.78	16.9
1629.3	11.9
1633.816	13.9
1638.327	15.9
1642.834	9.9
1647.336	11.9
1651.834	9.9
1656.328	15.9
1660.817	12.9
1665.302	18.9
1669.783	14.9
1674.259	13.9
1678.732	12.9
1683.199	16.9
1687.663	10.9
1692.122	7.9
1696.577	11.9
1701.028	17.9
1705.474	10.9
1709.917	14.9
1714.355	10.9
1718.788	9.9
1723.218	10.9
1727.643	5.9
1732.064	6.9
1736.481	10.9
1740.893	8.9
1745.301	16.9
1749.705	9.9
1754.105	14.9
1758.501	8.9
1762.893	9.9
1767.28	5.9
1771.663	8.9
1776.042	4.9
1780.417	10.9
1784.787	14.9
1789.154	10.9
1793.516	12.9
1797.874	10.9
1802.228	10.9
1806.578	4.9
1810.924	10.9
1815.266	11.9
1819.603	8.9
1823.937	10.9
1828.266	7.9
1832.591	12.9
1836.913	6.9
1841.23	11.9
1845.543	7.9
1849.852	7.9
1854.156	5.9
1858.457	7.9
1862.754	9.9
1867.047	6.9
1871.335	10.9
1875.62	10.9
1879.9	8.9
1884.177	13.9
1888.449	5.9
1892.718	8.9
1896.982	6.9
1901.243	7.9
1905.499	6.9
1909.752	6.9
1914	9.9
1918.245	5.9
1922.485	6.9
1926.722	10.9
1930.954	0.9
1935.183	10.9
1939.408	8.9
1943.628	10.9
1947.845	7.9
1952.058	9.9
1956.267	8.9
1960.472	4.9
1964.673	6.9
1968.87	6.9
1973.063	6.9
1977.252	8.9
1981.438	4.9
1985.619	5.9
1989.797	3.9
1993.971	2.9
1998.14	4.9
2002.306	7.9
2006.469	9.9
2010.627	8.9
2014.781	7.9
2018.932	9.9
2023.078	2.9
2027.221	5.9
2031.36	2.9
2035.495	5.9
2039.627	5.9
2043.754	5.9
2047.878	9.9
2051.998	8.9
2056.114	6.9
2060.226	10.9
2064.334	2.9
2068.439	3.9
2072.54	-1.1
2076.637	6.9
2080.73	4.9
2084.82	5.9
2088.906	9.9
2092.988	8.9
2097.066	6.9
2101.14	6.9
2105.211	10.9
2109.278	3.9
2113.342	1.9
2117.401	3.9
2121.457	3.9
2125.509	7.9
2129.558	6.9
2133.602	9.9
2137.643	2.9
2141.681	5.9
2145.714	1.9
2149.744	4.9
2153.77	1.9
2157.793	5.9
2161.812	2.9
2165.827	3.9
2169.838	3.9
2173.846	2.9
2177.851	3.9
2181.851	2.9
2185.848	5.9
2189.841	6.9
2193.831	0.9
2197.817	4.9
2201.799	0.9
2205.778	1.9
2209.753	3.9
2213.725	2.9
2217.693	4.9
2221.657	1.9
2225.618	1.9
2229.575	5.9
2233.529	0.9
2237.479	0.9
2241.425	-0.1
2245.368	-0.1
2249.307	-1.1
2253.243	4.9
2257.175	2.9
2261.104	7.9
2265.029	0.9
2268.95	-0.1
2272.868	-0.1
2276.783	0.9
2280.694	1.9
2284.601	1.9
2288.505	3.9
2292.405	5.9
2296.302	5.9
2300.195	4.9
2304.085	-0.1
2307.971	0.9
2311.854	-2.1
2315.734	0.9
2319.609	-2.1
2323.482	1.9
2327.351	2.9
2331.216	8.9
2335.078	5.9
2338.937	6.9
2342.792	-0.1
2346.643	-0.1
2350.492	-1.1
2354.336	-1.1
2358.178	1.9
2362.015	0.9
2365.85	2.9
2369.681	0.9
2373.508	-1.1
2377.333	1.9
2381.153	0.9
2384.971	1.9
2388.785	1.9
2392.595	1.9
2396.402	-1.1
2400.206	1.9
2404.007	-3.1
2407.804	-1.1
2411.597	0.9
2415.388	0.9
2419.174	4.9
2422.958	4.9
2426.738	-3.1
2430.515	3.9
2434.289	-3.1
2438.059	-1.1
2441.825	-7.1
2445.589	-1.1
2449.349	-0.1
2453.106	3.9
2456.859	1.9
2460.61	5.9
2464.356	5.9
2468.1	1.9
2471.84	-3.1
2475.577	-2.1
2479.311	-2.1
2483.041	0.9
2486.768	1.9
2490.492	0.9
2494.213	1.9
2497.93	2.9
2501.644	0.9
2505.355	0.9
2509.062	-0.1
2512.766	-0.1
2516.467	-5.1
2520.165	-1.1
2523.859	-1.1
2527.551	-0.1
2531.239	2.9
2534.923	-1.1
2538.605	1.9
2542.283	-3.1
2545.958	1.9
2549.63	-0.1
2553.299	-1.1
2556.964	0.9
2560.626	0.9
2564.285	-4.1
2567.941	-1.1
2571.594	-1.1
2575.243	-5.1
2578.89	-2.1
2582.533	-0.1
2586.173	0.9
2589.809	-2.1
2593.443	0.9
2597.073	-1.1
2600.701	-1.1
2604.325	-0.1
2607.946	-0.1
2611.564	3.9
2615.178	-0.1
2618.79	-0.1
2622.398	-2.1
2626.004	-1.1
2629.606	-0.1
2633.205	-0.1
2636.801	0.9
2640.394	-4.1
2643.983	0.9
2647.57	1.9
2651.153	2.9
2654.734	1.9
2658.311	0.9
2661.885	-0.1
2665.456	-1.1
2669.025	-1.1
2672.589	0.9
2676.151	2.9
2679.71	4.9
2683.266	-0.1
2686.819	4.9
2690.368	0.9
2693.915	-2.1
2697.458	-6.1
2700.999	-0.1
2704.536	-2.1
2708.071	2.9
2711.602	0.9
2715.13	5.9
2718.656	2.9
2722.178	3.9
2725.697	-0.1
2729.214	-2.1
2732.727	-2.1
2736.237	2.9
2739.744	1.9
2743.249	5.9
2746.75	1.9
2750.248	1.9
2753.743	-0.1
2757.236	-0.1
2760.725	-2.1
2764.211	-4.1
2767.695	-2.1
2771.175	-0.1
2774.652	0.9
2778.127	-0.1
2781.598	2.9
2785.067	-1.1
2788.532	-0.1
2791.995	-1.1
2795.455	-0.1
2798.911	-0.1
2802.365	0.9
2805.816	0.9
2809.264	-2.1
2812.709	1.9
2816.151	1.9
2819.59	0.9
2823.026	-2.1
2826.46	0.9
2829.89	1.9
2833.318	1.9
2836.742	3.9
2840.164	11.9
2843.583	9.9
2846.999	13.9
2850.412	14.9
2853.822	9.9
2857.229	9.9
2860.634	7.9
2864.035	8.9
2867.434	13.9
2870.83	12.9
2874.223	17.9
2877.613	20.9
2881	17.9
2884.385	18.9
2887.766	22.9
2891.145	26.9
2894.521	24.9
2897.894	21.9
2901.264	16.9
2904.631	18.9
2907.996	22.9
2911.358	18.9
2914.717	15.9
2918.073	13.9
2921.426	13.9
2924.777	11.9
2928.124	11.9
2931.469	11.9
2934.811	7.9
2938.15	6.9
2941.487	8.9
2944.821	8.9
2948.152	8.9
2951.48	8.9
2954.805	9.9
2958.128	11.9
2961.447	8.9
2964.765	5.9
2968.079	13.9
2971.39	2.9
2974.699	6.9
2978.005	0.9
2981.308	7.9
2984.609	2.9
2987.907	4.9
2991.202	1.9
2994.494	0.9
2997.784	2.9
3001.07	0.9
3004.355	-2.1
3007.636	1.9
3010.915	0.9
3014.191	1.9
3017.464	-2.1
3020.734	5.9
3024.002	-0.1
3027.267	0.9
3030.53	0.9
3033.789	-0.1
3037.046	-3.1
3040.301	-0.1
3043.552	-3.1
3046.801	4.9
3050.048	2.9
3053.291	-2.1
3056.532	-4.1
3059.771	3.9
3063.006	-3.1
3066.239	-5.1
3069.469	-1.1
3072.697	2.9
3075.922	0.9
3079.144	0.9
3082.364	-1.1
3085.581	0.9
3088.795	0.9
3092.007	-4.1
3095.216	-4.1
3098.423	0.9
3101.627	-4.1
3104.828	-0.1
3108.026	-0.1
3111.222	0.9
3114.416	0.9
3117.607	1.9
3120.795	-1.1
3123.98	0.9
3127.163	-2.1
3130.344	-2.1
3133.521	0.9
3136.696	3.9
3139.869	2.9
3143.039	5.9
3146.206	-0.1
3149.371	1.9
3152.533	-0.1
3155.693	-2.1
3158.85	-1.1
3162.005	-0.1
3165.157	2.9
3168.306	1.9
3171.453	0.9
3174.597	5.9
3177.739	0.9
3180.878	-2.1
3184.014	-0.1
3187.149	-2.1
3190.28	-5.1
3193.409	-1.1
3196.536	-1.1
3199.659	3.9
3202.781	2.9
3205.9	5.9
3209.016	-1.1
3212.13	2.9
3215.241	-1.1
3218.35	-0.1
3221.456	-2.1
3224.56	3.9
3227.661	0.9
3230.76	4.9
3233.856	2.9
3236.95	4.9
3240.041	-1.1
3243.13	-3.1
3246.216	-4.1
3249.3	-0.1
3252.382	2.9
3255.46	6.9
3258.537	2.9
3261.611	5.9
3264.682	2.9
3267.751	-0.1
3270.818	-5.1
3273.882	-2.1
3276.943	-1.1
3280.002	-1.1
3283.059	-3.1
3286.113	0.9
3289.165	-0.1
3292.214	0.9
3295.261	-2.1
3298.306	-3.1
3301.348	-2.1
3304.387	-5.1
3307.425	-2.1
3310.459	1.9
3313.492	-2.1
3316.521	1.9
3319.549	-1.1
3322.574	-1.1
3325.597	-1.1
3328.617	-5.1
3331.635	-6.1
3334.65	-2.1
3337.663	-2.1
3340.674	-0.1
3343.682	1.9
3346.688	1.9
3349.691	-0.1
3352.692	-0.1
3355.691	-4.1
3358.687	-4.1
3361.681	-3.1
3364.673	-0.1
3367.662	-2.1
3370.649	1.9
3373.633	0.9
3376.615	4.9
3379.595	-3.1
3382.572	2.9
3385.547	-2.1
3388.52	-0.1
3391.49	-2.1
3394.458	-1.1
3397.424	-2.1
3400.387	-1.1
3403.348	-1.1
3406.307	-0.1
3409.263	-0.1
3412.217	-1.1
3415.168	-3.1
3418.118	0.9
3421.065	2.9
3424.009	-2.1
3426.951	-2.1
3429.891	-3.1
3432.829	-2.1
3435.764	0.9
3438.697	-3.1
3441.628	0.9
3444.557	0.9
3447.483	-1.1
3450.407	-0.1
3453.328	-0.1
3456.247	-6.1
3459.164	-3.1
3462.079	-1.1
3464.991	-0.1
3467.902	-2.1
3470.809	-0.1
3473.715	-0.1
3476.618	-1.1
3479.519	-6.1
3482.418	-1.1
3485.315	-6.1
3488.209	-2.1
3491.101	-1.1
3493.99	-5.1
3496.878	-2.1
3499.763	-1.1
3502.646	-0.1
3505.527	-2.1
3508.405	-2.1
3511.281	-5.1
3514.155	-4.1
3517.027	-2.1
3519.897	-2.1
3522.764	-1.1
3525.629	-3.1
3528.492	-1.1
3531.352	-4.1
3534.211	0.9
3537.067	-5.1
3539.921	-4.1
3542.773	-3.1
3545.622	-0.1
3548.469	-6.1
3551.315	-1.1
3554.157	-2.1
3556.998	-1.1
3559.837	-5.1
3562.673	-3.1
3565.507	-5.1
3568.339	-0.1
3571.169	2.9
3573.996	-4.1
3576.822	-4.1
3579.645	-3.1
3582.466	-3.1
3585.285	-0.1
3588.101	-1.1
3590.916	-2.1
3593.728	0.9
3596.538	-4.1
3599.346	-3.1
3602.152	-2.1
3604.956	-4.1
3607.757	-3.1
3610.556	-6.1
3613.354	1.9
3616.149	-5.1
3618.942	-0.1
3621.732	-2.1
3624.521	-2.1
3627.307	-6.1
3630.092	-5.1
3632.874	-6.1
3635.654	-3.1
3638.432	-4.1
3641.208	-1.1
3643.982	-1.1
3646.753	-0.1
3649.523	-6.1
3652.29	-3.1
3655.055	-7.1
3657.818	-5.1
3660.579	-1.1
3663.338	-4.1
3666.095	-3.1
3668.849	-3.1
3671.602	-0.1
3674.352	-0.1
3677.101	-4.1
3679.847	-9.1
3682.591	-3.1
3685.333	-7.1
3688.073	-3.1
3690.811	-0.1
3693.547	-2.1
3696.281	-3.1
3699.013	-0.1
3701.742	-1.1
3704.47	-6.1
3707.195	-4.1
3709.919	-5.1
3712.64	-5.1
3715.359	-4.1
3718.076	-2.1
3720.792	0.9
3723.505	-1.1
3726.216	-5.1
3728.925	-2.1
3731.632	-4.1
3734.336	-5.1
3737.039	-2.1
3739.74	-3.1
3742.439	-4.1
3745.136	-3.1
3747.83	-4.1
3750.523	-3.1
3753.213	-4.1
3755.902	0.9
3758.589	-4.1
3761.273	-2.1
3763.956	-4.1
3766.636	-7.1
3769.315	-6.1
3771.991	-5.1
3774.665	-4.1
3777.338	-4.1
3780.008	-0.1
3782.677	-2.1
3785.343	-0.1
3788.007	-1.1
3790.67	-3.1
3793.33	-3.1
3795.989	-6.1
3798.645	-6.1
3801.299	-3.1
3803.952	-1.1
3806.602	-1.1
3809.251	0.9
3811.897	-3.1
3814.542	-2.1
3817.184	-5.1
3819.825	-6.1
3822.463	-9.1
3825.1	-5.1
3827.735	-5.1
3830.367	-1.1
3832.998	-1.1
3835.627	0.9
3838.253	-1.1
3840.878	-3.1
3843.501	-3.1
3846.122	-4.1
3848.741	-3.1
3851.358	-3.1
3853.973	-2.1
3856.586	-5.1
3859.197	-1.1
3861.806	-6.1
3864.414	-9.1
3867.019	-5.1
3869.622	-6.1
3872.224	-1.1
3874.823	-4.1
3877.421	-1.1
3880.016	-2.1
3882.61	-1.1
3885.202	3.9
3887.792	-1.1
3890.38	-1.1
3892.966	-3.1
3895.55	-3.1
3898.132	-2.1
3900.713	-3.1
3903.291	-6.1
3905.868	-4.1
3908.442	-2.1
3911.015	-8.1
3913.586	-1.1
3916.155	-1.1
3918.722	-1.1
3921.287	-4.1
3923.85	-5.1
3926.411	-3.1
3928.971	-5.1
3931.528	-4.1
3934.084	-4.1
3936.638	-3.1
3939.19	-5.1
3941.74	0.9
3944.288	-4.1
3946.834	0.9
3949.378	-3.1
3951.921	-5.1
3954.462	-7.1
3957	-7.1
3959.537	-2.1
3962.072	-3.1
3964.606	-1.1
3967.137	-0.1
3969.667	-0.1
3972.194	-6.1
3974.72	-2.1
3977.244	-7.1
3979.766	-3.1
3982.286	-7.1
3984.805	-2.1
3987.321	-3.1
3989.836	-3.1
3992.349	-1.1
3994.86	2.9
3997.369	-3.1
3999.877	-6.1
4002.382	-7.1
4004.886	-6.1
4007.388	-6.1
4009.888	-5.1
4012.386	-0.1
4014.883	-6.1
4017.377	-0.1
4019.87	-1.1
4022.361	-2.1
4024.85	-6.1
4027.338	-8.1
4029.823	-5.1
4032.307	-4.1
4034.789	-1.1
4037.269	-0.1
4039.747	-0.1
4042.224	-1.1
4044.699	-5.1
4047.172	-4.1
4049.643	-5.1
4052.112	-10.1
4054.58	-5.1
4057.046	-6.1
4059.51	-3.1
4061.972	1.9
4064.432	-4.1
4066.891	-2.1
4069.348	-2.1
4071.803	-4.1
4074.256	-9.1
4076.708	-4.1
4079.158	-3.1
4081.606	-5.1
4084.052	0.9
4086.497	-2.1
4088.939	0.9
4091.38	-3.1
4093.819	-6.1
4096.257	-5.1
4098.693	-3.1
4101.127	-2.1
4103.559	0.9
4105.989	4.9
4108.418	2.9
4110.845	-0.1
4113.27	-2.1
4115.694	-3.1
4118.115	-1.1
4120.535	-5.1
4122.954	-6.1
4125.37	-9.1
4127.785	-6.1
4130.198	-3.1
4132.609	-2.1
4135.019	-0.1
4137.427	-3.1
4139.833	-6.1
4142.237	-6.1
