Data from 0.5_n=2_RamanShift_01.txt Node
Date: Mon Mar 19 12:15:48 IST 2018
User: aro
Spectrometer: QEPB0276
Trigger mode: 0
Integration Time (sec): 5.000000E0
Scans to average: 1
Electric dark correction enabled: true
Nonlinearity correction enabled: false
Boxcar width: 0
XAxis mode: Raman Shifts
Number of Pixels in Spectrum: 1044
>>>>>Begin Spectral Data<<<<<
160.701	-2.8
166.742	0.2
172.777	1.2
178.805	11.2
184.826	22.2
190.841	39.2
196.849	60.2
202.85	78.2
208.845	83.2
214.833	80.2
220.815	83.2
226.789	86.2
232.758	84.2
238.719	89.2
244.674	92.2
250.623	88.2
256.565	89.2
262.5	83.2
268.429	88.2
274.351	83.2
280.267	90.2
286.176	91.2
292.079	87.2
297.975	87.2
303.865	88.2
309.748	93.2
315.625	89.2
321.495	88.2
327.359	96.2
333.217	91.2
339.068	92.2
344.912	100.2
350.751	92.2
356.583	97.2
362.408	95.2
368.227	94.2
374.04	96.2
379.847	102.2
385.647	108.2
391.44	112.2
397.228	105.2
403.009	113.2
408.784	113.2
414.553	122.2
420.315	133.2
426.071	139.2
431.821	122.2
437.565	104.2
443.302	100.2
449.033	103.2
454.758	99.2
460.477	101.2
466.189	97.2
471.896	93.2
477.596	95.2
483.29	82.2
488.978	89.2
494.66	83.2
500.335	87.2
506.005	82.2
511.668	75.2
517.325	68.2
522.977	61.2
528.622	61.2
534.261	54.2
539.894	52.2
545.521	53.2
551.141	50.2
556.756	49.2
562.365	47.2
567.968	46.2
573.565	47.2
579.155	41.2
584.74	43.2
590.319	45.2
595.892	50.2
601.459	43.2
607.02	45.2
612.575	43.2
618.124	45.2
623.667	47.2
629.204	40.2
634.735	43.2
640.261	47.2
645.781	43.2
651.294	54.2
656.802	52.2
662.304	41.2
667.8	37.2
673.29	38.2
678.775	39.2
684.254	35.2
689.726	36.2
695.193	38.2
700.655	39.2
706.11	39.2
711.56	38.2
717.004	35.2
722.442	36.2
727.874	35.2
733.301	32.2
738.722	33.2
744.137	37.2
749.547	38.2
754.951	41.2
760.349	41.2
765.741	39.2
771.128	39.2
776.509	37.2
781.885	39.2
787.254	39.2
792.618	38.2
797.977	46.2
803.33	48.2
808.677	56.2
814.019	62.2
819.355	61.2
824.686	50.2
830.011	41.2
835.33	43.2
840.644	46.2
845.952	50.2
851.255	49.2
856.552	44.2
861.844	37.2
867.13	37.2
872.41	38.2
877.686	33.2
882.955	24.2
888.219	28.2
893.478	27.2
898.731	28.2
903.979	33.2
909.221	40.2
914.458	33.2
919.69	33.2
924.916	31.2
930.136	28.2
935.351	29.2
940.561	25.2
945.766	27.2
950.965	30.2
956.158	32.2
961.347	33.2
966.529	37.2
971.707	31.2
976.879	33.2
982.046	32.2
987.208	31.2
992.364	28.2
997.515	28.2
1002.66	36.2
1007.801	39.2
1012.936	32.2
1018.066	29.2
1023.19	32.2
1028.309	27.2
1033.423	32.2
1038.532	33.2
1043.636	33.2
1048.734	33.2
1053.827	29.2
1058.915	28.2
1063.998	30.2
1069.075	28.2
1074.147	25.2
1079.214	24.2
1084.276	27.2
1089.333	26.2
1094.385	28.2
1099.431	31.2
1104.472	28.2
1109.509	30.2
1114.54	24.2
1119.565	25.2
1124.586	28.2
1129.602	25.2
1134.613	22.2
1139.618	24.2
1144.619	30.2
1149.614	31.2
1154.604	39.2
1159.589	38.2
1164.57	38.2
1169.545	39.2
1174.515	39.2
1179.48	30.2
1184.44	31.2
1189.395	26.2
1194.345	27.2
1199.29	22.2
1204.23	26.2
1209.165	26.2
1214.095	29.2
1219.021	28.2
1223.941	33.2
1228.856	31.2
1233.766	26.2
1238.672	29.2
1243.572	25.2
1248.467	21.2
1253.358	24.2
1258.244	26.2
1263.124	24.2
1268	22.2
1272.871	22.2
1277.737	22.2
1282.599	25.2
1287.455	23.2
1292.306	24.2
1297.153	20.2
1301.995	27.2
1306.832	26.2
1311.664	25.2
1316.491	29.2
1321.314	29.2
1326.132	31.2
1330.945	34.2
1335.753	34.2
1340.556	32.2
1345.354	25.2
1350.148	30.2
1354.937	26.2
1359.722	26.2
1364.501	26.2
1369.276	26.2
1374.046	24.2
1378.811	20.2
1383.572	18.2
1388.327	20.2
1393.079	17.2
1397.825	20.2
1402.567	18.2
1407.304	21.2
1412.036	18.2
1416.764	17.2
1421.487	20.2
1426.205	21.2
1430.919	19.2
1435.628	22.2
1440.333	28.2
1445.032	32.2
1449.727	29.2
1454.418	38.2
1459.104	42.2
1463.785	40.2
1468.462	41.2
1473.134	33.2
1477.802	24.2
1482.465	19.2
1487.123	20.2
1491.777	22.2
1496.426	19.2
1501.071	22.2
1505.711	22.2
1510.347	17.2
1514.978	16.2
1519.604	17.2
1524.226	12.2
1528.844	17.2
1533.457	20.2
1538.065	21.2
1542.669	17.2
1547.269	16.2
1551.864	12.2
1556.454	18.2
1561.041	10.2
1565.622	16.2
1570.199	15.2
1574.772	14.2
1579.34	15.2
1583.904	17.2
1588.464	17.2
1593.019	14.2
1597.569	15.2
1602.115	16.2
1606.657	10.2
1611.195	13.2
1615.728	15.2
1620.256	16.2
1624.78	18.2
1629.3	17.2
1633.816	13.2
1638.327	18.2
1642.834	9.2
1647.336	12.2
1651.834	10.2
1656.328	15.2
1660.817	13.2
1665.302	20.2
1669.783	13.2
1674.259	16.2
1678.732	12.2
1683.199	15.2
1687.663	11.2
1692.122	14.2
1696.577	11.2
1701.028	17.2
1705.474	13.2
1709.917	15.2
1714.355	14.2
1718.788	12.2
1723.218	9.2
1727.643	7.2
1732.064	9.2
1736.481	12.2
1740.893	7.2
1745.301	18.2
1749.705	14.2
1754.105	15.2
1758.501	10.2
1762.893	13.2
1767.28	9.2
1771.663	9.2
1776.042	4.2
1780.417	6.2
1784.787	14.2
1789.154	12.2
1793.516	15.2
1797.874	12.2
1802.228	11.2
1806.578	7.2
1810.924	10.2
1815.266	8.2
1819.603	4.2
1823.937	11.2
1828.266	10.2
1832.591	11.2
1836.913	8.2
1841.23	10.2
1845.543	8.2
1849.852	9.2
1854.156	6.2
1858.457	6.2
1862.754	13.2
1867.047	10.2
1871.335	13.2
1875.62	9.2
1879.9	12.2
1884.177	12.2
1888.449	9.2
1892.718	8.2
1896.982	5.2
1901.243	9.2
1905.499	7.2
1909.752	7.2
1914	9.2
1918.245	7.2
1922.485	7.2
1926.722	12.2
1930.954	8.2
1935.183	12.2
1939.408	7.2
1943.628	10.2
1947.845	6.2
1952.058	10.2
1956.267	6.2
1960.472	6.2
1964.673	7.2
1968.87	6.2
1973.063	8.2
1977.252	6.2
1981.438	7.2
1985.619	9.2
1989.797	7.2
1993.971	0.2
1998.14	6.2
2002.306	5.2
2006.469	6.2
2010.627	8.2
2014.781	10.2
2018.932	10.2
2023.078	5.2
2027.221	6.2
2031.36	4.2
2035.495	5.2
2039.627	6.2
2043.754	6.2
2047.878	10.2
2051.998	12.2
2056.114	8.2
2060.226	13.2
2064.334	1.2
2068.439	3.2
2072.54	2.2
2076.637	3.2
2080.73	5.2
2084.82	8.2
2088.906	10.2
2092.988	8.2
2097.066	7.2
2101.14	8.2
2105.211	5.2
2109.278	4.2
2113.342	0.2
2117.401	4.2
2121.457	4.2
2125.509	8.2
2129.558	6.2
2133.602	8.2
2137.643	2.2
2141.681	7.2
2145.714	3.2
2149.744	4.2
2153.77	4.2
2157.793	9.2
2161.812	4.2
2165.827	6.2
2169.838	3.2
2173.846	4.2
2177.851	6.2
2181.851	3.2
2185.848	5.2
2189.841	5.2
2193.831	1.2
2197.817	6.2
2201.799	2.2
2205.778	1.2
2209.753	2.2
2213.725	1.2
2217.693	4.2
2221.657	1.2
2225.618	4.2
2229.575	7.2
2233.529	7.2
2237.479	1.2
2241.425	0.2
2245.368	2.2
2249.307	-1.8
2253.243	3.2
2257.175	0.2
2261.104	9.2
2265.029	5.2
2268.95	2.2
2272.868	2.2
2276.783	2.2
2280.694	3.2
2284.601	0.2
2288.505	2.2
2292.405	4.2
2296.302	4.2
2300.195	5.2
2304.085	4.2
2307.971	4.2
2311.854	1.2
2315.734	3.2
2319.609	0.2
2323.482	-0.8
2327.351	0.2
2331.216	3.2
2335.078	4.2
2338.937	8.2
2342.792	1.2
2346.643	0.2
2350.492	2.2
2354.336	-0.8
2358.178	-1.8
2362.015	2.2
2365.85	2.2
2369.681	2.2
2373.508	-0.8
2377.333	-0.8
2381.153	2.2
2384.971	1.2
2388.785	3.2
2392.595	1.2
2396.402	2.2
2400.206	1.2
2404.007	0.2
2407.804	0.2
2411.597	0.2
2415.388	1.2
2419.174	2.2
2422.958	5.2
2426.738	-0.8
2430.515	5.2
2434.289	0.2
2438.059	-1.8
2441.825	-4.8
2445.589	1.2
2449.349	-0.8
2453.106	4.2
2456.859	4.2
2460.61	3.2
2464.356	3.2
2468.1	1.2
2471.84	-1.8
2475.577	-2.8
2479.311	-2.8
2483.041	0.2
2486.768	-0.8
2490.492	2.2
2494.213	4.2
2497.93	3.2
2501.644	3.2
2505.355	1.2
2509.062	-4.8
2512.766	-1.8
2516.467	-5.8
2520.165	-1.8
2523.859	-0.8
2527.551	0.2
2531.239	1.2
2534.923	3.2
2538.605	1.2
2542.283	-4.8
2545.958	-1.8
2549.63	-0.8
2553.299	-0.8
2556.964	2.2
2560.626	-0.8
2564.285	-2.8
2567.941	1.2
2571.594	-0.8
2575.243	-2.8
2578.89	1.2
2582.533	1.2
2586.173	-1.8
2589.809	-0.8
2593.443	0.2
2597.073	2.2
2600.701	-2.8
2604.325	-4.8
2607.946	0.2
2611.564	2.2
2615.178	1.2
2618.79	-0.8
2622.398	-0.8
2626.004	-0.8
2629.606	-0.8
2633.205	1.2
2636.801	0.2
2640.394	0.2
2643.983	1.2
2647.57	2.2
2651.153	3.2
2654.734	-0.8
2658.311	-0.8
2661.885	0.2
2665.456	-3.8
2669.025	-3.8
2672.589	1.2
2676.151	0.2
2679.71	6.2
2683.266	0.2
2686.819	4.2
2690.368	1.2
2693.915	-1.8
2697.458	-3.8
2700.999	2.2
2704.536	-0.8
2708.071	1.2
2711.602	1.2
2715.13	4.2
2718.656	0.2
2722.178	4.2
2725.697	-3.8
2729.214	2.2
2732.727	-0.8
2736.237	1.2
2739.744	-0.8
2743.249	5.2
2746.75	0.2
2750.248	3.2
2753.743	1.2
2757.236	3.2
2760.725	-0.8
2764.211	1.2
2767.695	-0.8
2771.175	-0.8
2774.652	2.2
2778.127	-0.8
2781.598	0.2
2785.067	-1.8
2788.532	-0.8
2791.995	3.2
2795.455	1.2
2798.911	-0.8
2802.365	0.2
2805.816	-2.8
2809.264	-1.8
2812.709	-0.8
2816.151	0.2
2819.59	-1.8
2823.026	3.2
2826.46	0.2
2829.89	2.2
2833.318	2.2
2836.742	3.2
2840.164	8.2
2843.583	6.2
2846.999	8.2
2850.412	8.2
2853.822	11.2
2857.229	6.2
2860.634	7.2
2864.035	4.2
2867.434	12.2
2870.83	16.2
2874.223	15.2
2877.613	17.2
2881	17.2
2884.385	18.2
2887.766	23.2
2891.145	24.2
2894.521	20.2
2897.894	21.2
2901.264	21.2
2904.631	18.2
2907.996	16.2
2911.358	16.2
2914.717	15.2
2918.073	13.2
2921.426	13.2
2924.777	12.2
2928.124	11.2
2931.469	11.2
2934.811	10.2
2938.15	5.2
2941.487	8.2
2944.821	7.2
2948.152	4.2
2951.48	10.2
2954.805	14.2
2958.128	13.2
2961.447	6.2
2964.765	8.2
2968.079	11.2
2971.39	5.2
2974.699	6.2
2978.005	0.2
2981.308	6.2
2984.609	3.2
2987.907	1.2
2991.202	1.2
2994.494	3.2
2997.784	2.2
3001.07	-0.8
3004.355	-1.8
3007.636	1.2
3010.915	0.2
3014.191	2.2
3017.464	1.2
3020.734	2.2
3024.002	0.2
3027.267	1.2
3030.53	-1.8
3033.789	0.2
3037.046	-3.8
3040.301	-0.8
3043.552	-1.8
3046.801	1.2
3050.048	2.2
3053.291	-1.8
3056.532	0.2
3059.771	8.2
3063.006	-0.8
3066.239	-5.8
3069.469	-0.8
3072.697	-1.8
3075.922	0.2
3079.144	2.2
3082.364	1.2
3085.581	0.2
3088.795	4.2
3092.007	-2.8
3095.216	-4.8
3098.423	-3.8
3101.627	-1.8
3104.828	3.2
3108.026	1.2
3111.222	2.2
3114.416	4.2
3117.607	3.2
3120.795	3.2
3123.98	2.2
3127.163	2.2
3130.344	-2.8
3133.521	0.2
3136.696	4.2
3139.869	1.2
3143.039	5.2
3146.206	3.2
3149.371	4.2
3152.533	3.2
3155.693	0.2
3158.85	-1.8
3162.005	-1.8
3165.157	-0.8
3168.306	2.2
3171.453	4.2
3174.597	5.2
3177.739	0.2
3180.878	2.2
3184.014	2.2
3187.149	-1.8
3190.28	-3.8
3193.409	-1.8
3196.536	-0.8
3199.659	5.2
3202.781	2.2
3205.9	6.2
3209.016	2.2
3212.13	0.2
3215.241	-2.8
3218.35	3.2
3221.456	-2.8
3224.56	1.2
3227.661	2.2
3230.76	5.2
3233.856	5.2
3236.95	7.2
3240.041	-1.8
3243.13	-2.8
3246.216	-0.8
3249.3	-2.8
3252.382	0.2
3255.46	3.2
3258.537	3.2
3261.611	8.2
3264.682	2.2
3267.751	3.2
3270.818	-3.8
3273.882	-0.8
3276.943	0.2
3280.002	-1.8
3283.059	-1.8
3286.113	3.2
3289.165	-1.8
3292.214	0.2
3295.261	0.2
3298.306	0.2
3301.348	-1.8
3304.387	1.2
3307.425	0.2
3310.459	0.2
3313.492	-0.8
3316.521	2.2
3319.549	2.2
3322.574	2.2
3325.597	-1.8
3328.617	-3.8
3331.635	2.2
3334.65	-1.8
3337.663	-1.8
3340.674	3.2
3343.682	0.2
3346.688	3.2
3349.691	3.2
3352.692	1.2
3355.691	-3.8
3358.687	-5.8
3361.681	0.2
3364.673	1.2
3367.662	-3.8
3370.649	3.2
3373.633	0.2
3376.615	2.2
3379.595	-3.8
3382.572	2.2
3385.547	-2.8
3388.52	-1.8
3391.49	-0.8
3394.458	-0.8
3397.424	-2.8
3400.387	-0.8
3403.348	-0.8
3406.307	-1.8
3409.263	-1.8
3412.217	0.2
3415.168	-1.8
3418.118	1.2
3421.065	3.2
3424.009	-1.8
3426.951	-1.8
3429.891	-1.8
3432.829	-3.8
3435.764	0.2
3438.697	-2.8
3441.628	-1.8
3444.557	0.2
3447.483	2.2
3450.407	0.2
3453.328	1.2
3456.247	-0.8
3459.164	1.2
3462.079	-1.8
3464.991	-0.8
3467.902	-2.8
3470.809	0.2
3473.715	1.2
3476.618	0.2
3479.519	-2.8
3482.418	-2.8
3485.315	-3.8
3488.209	-1.8
3491.101	-2.8
3493.99	-3.8
3496.878	0.2
3499.763	1.2
3502.646	-0.8
3505.527	-2.8
3508.405	0.2
3511.281	-0.8
3514.155	-5.8
3517.027	-2.8
3519.897	-0.8
3522.764	-2.8
3525.629	-2.8
3528.492	-0.8
3531.352	-3.8
3534.211	-0.8
3537.067	-5.8
3539.921	-3.8
3542.773	-6.8
3545.622	-1.8
3548.469	-3.8
3551.315	-0.8
3554.157	-3.8
3556.998	-0.8
3559.837	-5.8
3562.673	-2.8
3565.507	-3.8
3568.339	-0.8
3571.169	-1.8
3573.996	-0.8
3576.822	-5.8
3579.645	-6.8
3582.466	-4.8
3585.285	-0.8
3588.101	-3.8
3590.916	-0.8
3593.728	0.2
3596.538	-1.8
3599.346	-2.8
3602.152	-2.8
3604.956	-3.8
3607.757	-4.8
3610.556	-3.8
3613.354	-2.8
3616.149	-2.8
3618.942	0.2
3621.732	-0.8
3624.521	-2.8
3627.307	-5.8
3630.092	-4.8
3632.874	-5.8
3635.654	-3.8
3638.432	-6.8
3641.208	-2.8
3643.982	-0.8
3646.753	0.2
3649.523	-4.8
3652.29	-2.8
3655.055	-7.8
3657.818	-5.8
3660.579	-2.8
3663.338	-2.8
3666.095	-0.8
3668.849	0.2
3671.602	-0.8
3674.352	-0.8
3677.101	-0.8
3679.847	-6.8
3682.591	-3.8
3685.333	-5.8
3688.073	-7.8
3690.811	-1.8
3693.547	1.2
3696.281	-3.8
3699.013	0.2
3701.742	-1.8
3704.47	-5.8
3707.195	-3.8
3709.919	-5.8
3712.64	-5.8
3715.359	-2.8
3718.076	-1.8
3720.792	-1.8
3723.505	-1.8
3726.216	-3.8
3728.925	-3.8
3731.632	-5.8
3734.336	-2.8
3737.039	-1.8
3739.74	-5.8
3742.439	-1.8
3745.136	-3.8
3747.83	-5.8
3750.523	-3.8
3753.213	-5.8
3755.902	3.2
3758.589	-2.8
3761.273	0.2
3763.956	-2.8
3766.636	-3.8
3769.315	-5.8
3771.991	-5.8
3774.665	-4.8
3777.338	-0.8
3780.008	-0.8
3782.677	-1.8
3785.343	-2.8
3788.007	-2.8
3790.67	-1.8
3793.33	-1.8
3795.989	-5.8
3798.645	-6.8
3801.299	-4.8
3803.952	-0.8
3806.602	-2.8
3809.251	-0.8
3811.897	-3.8
3814.542	-1.8
3817.184	-4.8
3819.825	-4.8
3822.463	-5.8
3825.1	-6.8
3827.735	-6.8
3830.367	-0.8
3832.998	-3.8
3835.627	1.2
3838.253	0.2
3840.878	-2.8
3843.501	-2.8
3846.122	-3.8
3848.741	-2.8
3851.358	-1.8
3853.973	-2.8
3856.586	-5.8
3859.197	-2.8
3861.806	-4.8
3864.414	-3.8
3867.019	-3.8
3869.622	-3.8
3872.224	-5.8
3874.823	-1.8
3877.421	-0.8
3880.016	-5.8
3882.61	-1.8
3885.202	1.2
3887.792	1.2
3890.38	-2.8
3892.966	-3.8
3895.55	-1.8
3898.132	-0.8
3900.713	-1.8
3903.291	-2.8
3905.868	-1.8
3908.442	-4.8
3911.015	-8.8
3913.586	-3.8
3916.155	1.2
3918.722	1.2
3921.287	-2.8
3923.85	-0.8
3926.411	-2.8
3928.971	-5.8
3931.528	-3.8
3934.084	-3.8
3936.638	-4.8
3939.19	-3.8
3941.74	0.2
3944.288	-1.8
3946.834	0.2
3949.378	0.2
3951.921	-0.8
3954.462	-5.8
3957	-5.8
3959.537	-2.8
3962.072	-1.8
3964.606	-1.8
3967.137	-1.8
3969.667	0.2
3972.194	-2.8
3974.72	-1.8
3977.244	-7.8
3979.766	-4.8
3982.286	-7.8
3984.805	-4.8
3987.321	-4.8
3989.836	-3.8
3992.349	0.2
3994.86	-0.8
3997.369	-4.8
3999.877	-1.8
4002.382	-7.8
4004.886	-6.8
4007.388	-5.8
4009.888	-7.8
4012.386	-2.8
4014.883	-4.8
4017.377	-1.8
4019.87	-0.8
4022.361	-1.8
4024.85	-5.8
4027.338	-7.8
4029.823	-3.8
4032.307	-5.8
4034.789	-2.8
4037.269	-2.8
4039.747	0.2
4042.224	-1.8
4044.699	-5.8
4047.172	-2.8
4049.643	-3.8
4052.112	-6.8
4054.58	-4.8
4057.046	-8.8
4059.51	-2.8
4061.972	0.2
4064.432	-1.8
4066.891	1.2
4069.348	1.2
4071.803	-3.8
4074.256	-3.8
4076.708	-3.8
4079.158	-0.8
4081.606	-8.8
4084.052	-0.8
4086.497	-0.8
4088.939	1.2
4091.38	-0.8
4093.819	-0.8
4096.257	-6.8
4098.693	-3.8
4101.127	-5.8
4103.559	2.2
4105.989	6.2
4108.418	4.2
4110.845	4.2
4113.27	-0.8
4115.694	-1.8
4118.115	1.2
4120.535	-6.8
4122.954	-3.8
4125.37	-9.8
4127.785	-6.8
4130.198	-3.8
4132.609	-0.8
4135.019	0.2
4137.427	-1.8
4139.833	-3.8
4142.237	-4.8
