Data from 0.5_n=3_RamanShift_01.txt Node
Date: Mon Mar 19 12:16:28 IST 2018
User: aro
Spectrometer: QEPB0276
Trigger mode: 0
Integration Time (sec): 5.000000E0
Scans to average: 1
Electric dark correction enabled: true
Nonlinearity correction enabled: false
Boxcar width: 0
XAxis mode: Raman Shifts
Number of Pixels in Spectrum: 1044
>>>>>Begin Spectral Data<<<<<
160.701	0.6
166.742	0.6
172.777	1.6
178.805	11.6
184.826	20.6
190.841	38.6
196.849	59.6
202.85	74.6
208.845	75.6
214.833	82.6
220.815	83.6
226.789	84.6
232.758	86.6
238.719	84.6
244.674	85.6
250.623	88.6
256.565	84.6
262.5	85.6
268.429	83.6
274.351	81.6
280.267	88.6
286.176	87.6
292.079	88.6
297.975	90.6
303.865	86.6
309.748	91.6
315.625	88.6
321.495	87.6
327.359	87.6
333.217	95.6
339.068	90.6
344.912	97.6
350.751	93.6
356.583	93.6
362.408	92.6
368.227	93.6
374.04	93.6
379.847	99.6
385.647	109.6
391.44	110.6
397.228	106.6
403.009	114.6
408.784	114.6
414.553	124.6
420.315	131.6
426.071	139.6
431.821	120.6
437.565	103.6
443.302	101.6
449.033	100.6
454.758	100.6
460.477	97.6
466.189	102.6
471.896	93.6
477.596	92.6
483.29	89.6
488.978	83.6
494.66	87.6
500.335	83.6
506.005	82.6
511.668	75.6
517.325	70.6
522.977	62.6
528.622	55.6
534.261	55.6
539.894	52.6
545.521	48.6
551.141	48.6
556.756	51.6
562.365	45.6
567.968	45.6
573.565	49.6
579.155	44.6
584.74	42.6
590.319	48.6
595.892	46.6
601.459	48.6
607.02	43.6
612.575	46.6
618.124	46.6
623.667	43.6
629.204	42.6
634.735	42.6
640.261	43.6
645.781	46.6
651.294	55.6
656.802	50.6
662.304	43.6
667.8	39.6
673.29	36.6
678.775	36.6
684.254	40.6
689.726	35.6
695.193	36.6
700.655	38.6
706.11	36.6
711.56	33.6
717.004	33.6
722.442	33.6
727.874	36.6
733.301	31.6
738.722	36.6
744.137	36.6
749.547	37.6
754.951	36.6
760.349	36.6
765.741	36.6
771.128	39.6
776.509	37.6
781.885	41.6
787.254	40.6
792.618	40.6
797.977	44.6
803.33	53.6
808.677	54.6
814.019	61.6
819.355	55.6
824.686	49.6
830.011	40.6
835.33	44.6
840.644	49.6
845.952	51.6
851.255	49.6
856.552	46.6
861.844	36.6
867.13	32.6
872.41	32.6
877.686	33.6
882.955	29.6
888.219	32.6
893.478	30.6
898.731	34.6
903.979	34.6
909.221	35.6
914.458	31.6
919.69	31.6
924.916	25.6
930.136	26.6
935.351	25.6
940.561	29.6
945.766	31.6
950.965	32.6
956.158	30.6
961.347	29.6
966.529	30.6
971.707	28.6
976.879	32.6
982.046	33.6
987.208	28.6
992.364	28.6
997.515	32.6
1002.66	36.6
1007.801	35.6
1012.936	28.6
1018.066	30.6
1023.19	25.6
1028.309	28.6
1033.423	31.6
1038.532	32.6
1043.636	40.6
1048.734	41.6
1053.827	34.6
1058.915	28.6
1063.998	26.6
1069.075	28.6
1074.147	22.6
1079.214	21.6
1084.276	30.6
1089.333	32.6
1094.385	29.6
1099.431	33.6
1104.472	29.6
1109.509	29.6
1114.54	24.6
1119.565	22.6
1124.586	26.6
1129.602	20.6
1134.613	24.6
1139.618	27.6
1144.619	34.6
1149.614	33.6
1154.604	37.6
1159.589	45.6
1164.57	39.6
1169.545	34.6
1174.515	33.6
1179.48	32.6
1184.44	33.6
1189.395	22.6
1194.345	31.6
1199.29	27.6
1204.23	27.6
1209.165	23.6
1214.095	25.6
1219.021	30.6
1223.941	32.6
1228.856	28.6
1233.766	29.6
1238.672	30.6
1243.572	29.6
1248.467	25.6
1253.358	25.6
1258.244	25.6
1263.124	23.6
1268	20.6
1272.871	21.6
1277.737	22.6
1282.599	23.6
1287.455	26.6
1292.306	27.6
1297.153	27.6
1301.995	27.6
1306.832	21.6
1311.664	22.6
1316.491	23.6
1321.314	24.6
1326.132	36.6
1330.945	37.6
1335.753	39.6
1340.556	35.6
1345.354	27.6
1350.148	26.6
1354.937	27.6
1359.722	22.6
1364.501	25.6
1369.276	29.6
1374.046	30.6
1378.811	24.6
1383.572	21.6
1388.327	20.6
1393.079	21.6
1397.825	19.6
1402.567	19.6
1407.304	17.6
1412.036	20.6
1416.764	15.6
1421.487	19.6
1426.205	21.6
1430.919	19.6
1435.628	23.6
1440.333	30.6
1445.032	29.6
1449.727	31.6
1454.418	35.6
1459.104	43.6
1463.785	45.6
1468.462	40.6
1473.134	37.6
1477.802	28.6
1482.465	18.6
1487.123	20.6
1491.777	21.6
1496.426	20.6
1501.071	17.6
1505.711	18.6
1510.347	15.6
1514.978	17.6
1519.604	19.6
1524.226	16.6
1528.844	19.6
1533.457	16.6
1538.065	19.6
1542.669	17.6
1547.269	15.6
1551.864	15.6
1556.454	17.6
1561.041	15.6
1565.622	18.6
1570.199	14.6
1574.772	17.6
1579.34	15.6
1583.904	17.6
1588.464	12.6
1593.019	11.6
1597.569	14.6
1602.115	18.6
1606.657	14.6
1611.195	20.6
1615.728	17.6
1620.256	13.6
1624.78	14.6
1629.3	11.6
1633.816	11.6
1638.327	14.6
1642.834	11.6
1647.336	8.6
1651.834	13.6
1656.328	16.6
1660.817	16.6
1665.302	19.6
1669.783	13.6
1674.259	11.6
1678.732	13.6
1683.199	11.6
1687.663	12.6
1692.122	12.6
1696.577	14.6
1701.028	17.6
1705.474	19.6
1709.917	17.6
1714.355	10.6
1718.788	14.6
1723.218	10.6
1727.643	7.6
1732.064	11.6
1736.481	13.6
1740.893	13.6
1745.301	18.6
1749.705	14.6
1754.105	15.6
1758.501	8.6
1762.893	7.6
1767.28	9.6
1771.663	9.6
1776.042	7.6
1780.417	10.6
1784.787	13.6
1789.154	12.6
1793.516	14.6
1797.874	13.6
1802.228	11.6
1806.578	7.6
1810.924	13.6
1815.266	9.6
1819.603	3.6
1823.937	14.6
1828.266	12.6
1832.591	13.6
1836.913	8.6
1841.23	11.6
1845.543	11.6
1849.852	8.6
1854.156	5.6
1858.457	8.6
1862.754	9.6
1867.047	8.6
1871.335	11.6
1875.62	8.6
1879.9	11.6
1884.177	12.6
1888.449	8.6
1892.718	11.6
1896.982	8.6
1901.243	12.6
1905.499	9.6
1909.752	5.6
1914	7.6
1918.245	4.6
1922.485	6.6
1926.722	8.6
1930.954	10.6
1935.183	9.6
1939.408	11.6
1943.628	12.6
1947.845	9.6
1952.058	11.6
1956.267	4.6
1960.472	6.6
1964.673	8.6
1968.87	3.6
1973.063	9.6
1977.252	10.6
1981.438	8.6
1985.619	8.6
1989.797	5.6
1993.971	2.6
1998.14	3.6
2002.306	6.6
2006.469	9.6
2010.627	11.6
2014.781	9.6
2018.932	12.6
2023.078	5.6
2027.221	6.6
2031.36	2.6
2035.495	5.6
2039.627	3.6
2043.754	6.6
2047.878	12.6
2051.998	9.6
2056.114	8.6
2060.226	10.6
2064.334	6.6
2068.439	4.6
2072.54	1.6
2076.637	5.6
2080.73	4.6
2084.82	6.6
2088.906	9.6
2092.988	10.6
2097.066	6.6
2101.14	11.6
2105.211	4.6
2109.278	5.6
2113.342	4.6
2117.401	1.6
2121.457	6.6
2125.509	9.6
2129.558	2.6
2133.602	8.6
2137.643	4.6
2141.681	4.6
2145.714	2.6
2149.744	8.6
2153.77	3.6
2157.793	7.6
2161.812	6.6
2165.827	5.6
2169.838	2.6
2173.846	4.6
2177.851	3.6
2181.851	2.6
2185.848	6.6
2189.841	5.6
2193.831	1.6
2197.817	6.6
2201.799	3.6
2205.778	1.6
2209.753	3.6
2213.725	1.6
2217.693	5.6
2221.657	3.6
2225.618	3.6
2229.575	9.6
2233.529	3.6
2237.479	2.6
2241.425	0.6
2245.368	2.6
2249.307	-2.4
2253.243	3.6
2257.175	3.6
2261.104	10.6
2265.029	5.6
2268.95	1.6
2272.868	1.6
2276.783	1.6
2280.694	2.6
2284.601	-1.4
2288.505	0.6
2292.405	2.6
2296.302	4.6
2300.195	7.6
2304.085	0.6
2307.971	1.6
2311.854	-1.4
2315.734	3.6
2319.609	-0.4
2323.482	0.6
2327.351	-2.4
2331.216	5.6
2335.078	4.6
2338.937	6.6
2342.792	-0.4
2346.643	1.6
2350.492	2.6
2354.336	0.6
2358.178	1.6
2362.015	2.6
2365.85	-1.4
2369.681	1.6
2373.508	-3.4
2377.333	1.6
2381.153	3.6
2384.971	3.6
2388.785	4.6
2392.595	4.6
2396.402	2.6
2400.206	2.6
2404.007	0.6
2407.804	-1.4
2411.597	1.6
2415.388	-1.4
2419.174	3.6
2422.958	3.6
2426.738	-0.4
2430.515	7.6
2434.289	0.6
2438.059	0.6
2441.825	-4.4
2445.589	-0.4
2449.349	-0.4
2453.106	4.6
2456.859	4.6
2460.61	3.6
2464.356	5.6
2468.1	2.6
2471.84	-0.4
2475.577	-1.4
2479.311	-4.4
2483.041	-0.4
2486.768	-0.4
2490.492	1.6
2494.213	2.6
2497.93	-0.4
2501.644	3.6
2505.355	1.6
2509.062	-2.4
2512.766	0.6
2516.467	-1.4
2520.165	0.6
2523.859	1.6
2527.551	2.6
2531.239	0.6
2534.923	0.6
2538.605	0.6
2542.283	-1.4
2545.958	0.6
2549.63	0.6
2553.299	-0.4
2556.964	3.6
2560.626	3.6
2564.285	-2.4
2567.941	0.6
2571.594	0.6
2575.243	-1.4
2578.89	1.6
2582.533	1.6
2586.173	3.6
2589.809	1.6
2593.443	1.6
2597.073	3.6
2600.701	1.6
2604.325	-1.4
2607.946	1.6
2611.564	3.6
2615.178	3.6
2618.79	1.6
2622.398	0.6
2626.004	-0.4
2629.606	-0.4
2633.205	0.6
2636.801	-2.4
2640.394	0.6
2643.983	0.6
2647.57	1.6
2651.153	2.6
2654.734	-0.4
2658.311	0.6
2661.885	-0.4
2665.456	-3.4
2669.025	-1.4
2672.589	4.6
2676.151	1.6
2679.71	3.6
2683.266	0.6
2686.819	5.6
2690.368	-0.4
2693.915	-2.4
2697.458	-4.4
2700.999	3.6
2704.536	-1.4
2708.071	4.6
2711.602	2.6
2715.13	6.6
2718.656	1.6
2722.178	1.6
2725.697	-1.4
2729.214	0.6
2732.727	1.6
2736.237	4.6
2739.744	0.6
2743.249	8.6
2746.75	1.6
2750.248	2.6
2753.743	-0.4
2757.236	2.6
2760.725	-1.4
2764.211	-0.4
2767.695	-0.4
2771.175	2.6
2774.652	4.6
2778.127	1.6
2781.598	1.6
2785.067	-2.4
2788.532	-1.4
2791.995	-0.4
2795.455	-2.4
2798.911	-0.4
2802.365	0.6
2805.816	1.6
2809.264	1.6
2812.709	2.6
2816.151	2.6
2819.59	1.6
2823.026	0.6
2826.46	-1.4
2829.89	3.6
2833.318	4.6
2836.742	7.6
2840.164	10.6
2843.583	11.6
2846.999	15.6
2850.412	9.6
2853.822	8.6
2857.229	5.6
2860.634	9.6
2864.035	11.6
2867.434	17.6
2870.83	17.6
2874.223	24.6
2877.613	23.6
2881	17.6
2884.385	20.6
2887.766	23.6
2891.145	21.6
2894.521	22.6
2897.894	23.6
2901.264	20.6
2904.631	22.6
2907.996	22.6
2911.358	20.6
2914.717	16.6
2918.073	14.6
2921.426	14.6
2924.777	10.6
2928.124	12.6
2931.469	10.6
2934.811	10.6
2938.15	13.6
2941.487	10.6
2944.821	10.6
2948.152	11.6
2951.48	7.6
2954.805	7.6
2958.128	10.6
2961.447	9.6
2964.765	10.6
2968.079	17.6
2971.39	8.6
2974.699	13.6
2978.005	5.6
2981.308	3.6
2984.609	2.6
2987.907	2.6
2991.202	2.6
2994.494	0.6
2997.784	3.6
3001.07	6.6
3004.355	1.6
3007.636	4.6
3010.915	3.6
3014.191	0.6
3017.464	-1.4
3020.734	1.6
3024.002	-1.4
3027.267	2.6
3030.53	-0.4
3033.789	1.6
3037.046	-1.4
3040.301	2.6
3043.552	-1.4
3046.801	-0.4
3050.048	1.6
3053.291	-0.4
3056.532	0.6
3059.771	4.6
3063.006	-2.4
3066.239	-0.4
3069.469	2.6
3072.697	1.6
3075.922	-1.4
3079.144	-1.4
3082.364	-0.4
3085.581	0.6
3088.795	-0.4
3092.007	1.6
3095.216	-0.4
3098.423	0.6
3101.627	-2.4
3104.828	4.6
3108.026	-0.4
3111.222	-0.4
3114.416	-1.4
3117.607	2.6
3120.795	0.6
3123.98	3.6
3127.163	3.6
3130.344	0.6
3133.521	5.6
3136.696	2.6
3139.869	0.6
3143.039	2.6
3146.206	1.6
3149.371	0.6
3152.533	-2.4
3155.693	-1.4
3158.85	0.6
3162.005	2.6
3165.157	0.6
3168.306	3.6
3171.453	0.6
3174.597	1.6
3177.739	0.6
3180.878	2.6
3184.014	-3.4
3187.149	-1.4
3190.28	-1.4
3193.409	-0.4
3196.536	1.6
3199.659	4.6
3202.781	1.6
3205.9	3.6
3209.016	0.6
3212.13	-1.4
3215.241	-1.4
3218.35	3.6
3221.456	-1.4
3224.56	3.6
3227.661	3.6
3230.76	7.6
3233.856	5.6
3236.95	6.6
3240.041	-0.4
3243.13	-3.4
3246.216	-1.4
3249.3	0.6
3252.382	2.6
3255.46	7.6
3258.537	2.6
3261.611	4.6
3264.682	3.6
3267.751	-0.4
3270.818	-3.4
3273.882	-0.4
3276.943	-2.4
3280.002	1.6
3283.059	-1.4
3286.113	0.6
3289.165	1.6
3292.214	2.6
3295.261	1.6
3298.306	1.6
3301.348	-0.4
3304.387	-1.4
3307.425	-3.4
3310.459	0.6
3313.492	-2.4
3316.521	1.6
3319.549	1.6
3322.574	2.6
3325.597	-0.4
3328.617	-0.4
3331.635	0.6
3334.65	-2.4
3337.663	0.6
3340.674	2.6
3343.682	-1.4
3346.688	1.6
3349.691	0.6
3352.692	0.6
3355.691	-3.4
3358.687	-2.4
3361.681	4.6
3364.673	3.6
3367.662	-1.4
3370.649	2.6
3373.633	0.6
3376.615	1.6
3379.595	-5.4
3382.572	-0.4
3385.547	1.6
3388.52	-1.4
3391.49	2.6
3394.458	2.6
3397.424	-2.4
3400.387	-0.4
3403.348	-1.4
3406.307	-3.4
3409.263	0.6
3412.217	-0.4
3415.168	-1.4
3418.118	1.6
3421.065	3.6
3424.009	2.6
3426.951	-0.4
3429.891	-2.4
3432.829	-3.4
3435.764	-2.4
3438.697	-4.4
3441.628	-0.4
3444.557	2.6
3447.483	1.6
3450.407	2.6
3453.328	3.6
3456.247	-6.4
3459.164	-4.4
3462.079	-1.4
3464.991	-1.4
3467.902	-1.4
3470.809	-0.4
3473.715	1.6
3476.618	4.6
3479.519	-4.4
3482.418	-2.4
3485.315	-4.4
3488.209	-3.4
3491.101	-2.4
3493.99	-2.4
3496.878	1.6
3499.763	2.6
3502.646	-0.4
3505.527	0.6
3508.405	-1.4
3511.281	-4.4
3514.155	-3.4
3517.027	0.6
3519.897	-0.4
3522.764	-4.4
3525.629	-1.4
3528.492	-0.4
3531.352	-0.4
3534.211	-1.4
3537.067	-5.4
3539.921	-4.4
3542.773	-3.4
3545.622	-0.4
3548.469	-3.4
3551.315	-2.4
3554.157	-4.4
3556.998	-0.4
3559.837	-6.4
3562.673	-0.4
3565.507	-2.4
3568.339	-1.4
3571.169	-0.4
3573.996	-0.4
3576.822	-3.4
3579.645	-4.4
3582.466	-3.4
3585.285	-1.4
3588.101	-6.4
3590.916	2.6
3593.728	-1.4
3596.538	-0.4
3599.346	-1.4
3602.152	-3.4
3604.956	-6.4
3607.757	-3.4
3610.556	-5.4
3613.354	-1.4
3616.149	-3.4
3618.942	-1.4
3621.732	2.6
3624.521	-0.4
3627.307	-4.4
3630.092	-5.4
3632.874	-4.4
3635.654	-6.4
3638.432	-6.4
3641.208	-0.4
3643.982	-2.4
3646.753	1.6
3649.523	-2.4
3652.29	1.6
3655.055	-5.4
3657.818	-4.4
3660.579	-0.4
3663.338	-5.4
3666.095	-1.4
3668.849	-1.4
3671.602	-3.4
3674.352	4.6
3677.101	-3.4
3679.847	-5.4
3682.591	-3.4
3685.333	-2.4
3688.073	-3.4
3690.811	-1.4
3693.547	-0.4
3696.281	-3.4
3699.013	-3.4
3701.742	-0.4
3704.47	-5.4
3707.195	-1.4
3709.919	-5.4
3712.64	-2.4
3715.359	-1.4
3718.076	-3.4
3720.792	-5.4
3723.505	-2.4
3726.216	-5.4
3728.925	-3.4
3731.632	-0.4
3734.336	-2.4
3737.039	-0.4
3739.74	-1.4
3742.439	-0.4
3745.136	-3.4
3747.83	-7.4
3750.523	-3.4
3753.213	-7.4
3755.902	0.6
3758.589	-3.4
3761.273	0.6
3763.956	-0.4
3766.636	-2.4
3769.315	-5.4
3771.991	-6.4
3774.665	-5.4
3777.338	-4.4
3780.008	0.6
3782.677	-1.4
3785.343	-0.4
3788.007	0.6
3790.67	-1.4
3793.33	-2.4
3795.989	-4.4
3798.645	-6.4
3801.299	-5.4
3803.952	-6.4
3806.602	-0.4
3809.251	0.6
3811.897	-3.4
3814.542	-3.4
3817.184	-3.4
3819.825	-6.4
3822.463	-4.4
3825.1	-5.4
3827.735	-7.4
3830.367	-1.4
3832.998	-1.4
3835.627	1.6
3838.253	0.6
3840.878	-0.4
3843.501	-3.4
3846.122	-3.4
3848.741	-5.4
3851.358	-5.4
3853.973	-0.4
3856.586	-4.4
3859.197	0.6
3861.806	-3.4
3864.414	-3.4
3867.019	-1.4
3869.622	-5.4
3872.224	-2.4
3874.823	-0.4
3877.421	-3.4
3880.016	-5.4
3882.61	-2.4
3885.202	4.6
3887.792	1.6
3890.38	-1.4
3892.966	0.6
3895.55	-3.4
3898.132	-0.4
3900.713	-1.4
3903.291	-3.4
3905.868	-3.4
3908.442	-2.4
3911.015	-4.4
3913.586	-1.4
3916.155	-2.4
3918.722	-2.4
3921.287	-1.4
3923.85	-1.4
3926.411	-3.4
3928.971	-5.4
3931.528	-4.4
3934.084	-1.4
3936.638	-3.4
3939.19	-4.4
3941.74	-0.4
3944.288	-3.4
3946.834	0.6
3949.378	0.6
3951.921	-2.4
3954.462	-5.4
3957	-5.4
3959.537	-0.4
3962.072	-0.4
3964.606	-1.4
3967.137	-2.4
3969.667	1.6
3972.194	-2.4
3974.72	-1.4
3977.244	-4.4
3979.766	-4.4
3982.286	-6.4
3984.805	-1.4
3987.321	-1.4
3989.836	-2.4
3992.349	-1.4
3994.86	2.6
3997.369	-5.4
3999.877	-5.4
4002.382	-5.4
4004.886	-5.4
4007.388	-5.4
4009.888	-5.4
4012.386	-0.4
4014.883	-2.4
4017.377	-2.4
4019.87	-2.4
4022.361	-4.4
4024.85	-6.4
4027.338	-6.4
4029.823	-3.4
4032.307	-1.4
4034.789	-1.4
4037.269	0.6
4039.747	0.6
4042.224	-0.4
4044.699	-2.4
4047.172	-7.4
4049.643	-4.4
4052.112	-7.4
4054.58	-3.4
4057.046	-1.4
4059.51	-1.4
4061.972	1.6
4064.432	-2.4
4066.891	-1.4
4069.348	-4.4
4071.803	-5.4
4074.256	-7.4
4076.708	-3.4
4079.158	2.6
4081.606	-4.4
4084.052	1.6
4086.497	-0.4
4088.939	1.6
4091.38	-0.4
4093.819	-2.4
4096.257	-6.4
4098.693	-4.4
4101.127	-3.4
4103.559	0.6
4105.989	3.6
4108.418	4.6
4110.845	0.6
4113.27	0.6
4115.694	0.6
4118.115	-1.4
4120.535	-6.4
4122.954	-7.4
4125.37	-8.4
4127.785	-1.4
4130.198	-1.4
4132.609	1.6
4135.019	-2.4
4137.427	-2.4
4139.833	-5.4
4142.237	-4.4
