Data from 0_n=3_RamanShift_06.txt Node
Date: Mon Mar 19 12:03:34 IST 2018
User: aro
Spectrometer: QEPB0276
Trigger mode: 0
Integration Time (sec): 5.000000E0
Scans to average: 1
Electric dark correction enabled: true
Nonlinearity correction enabled: false
Boxcar width: 0
XAxis mode: Raman Shifts
Number of Pixels in Spectrum: 1044
>>>>>Begin Spectral Data<<<<<
160.701	-0.8
166.742	3.2
172.777	5.2
178.805	20.2
184.826	40.2
190.841	87.2
196.849	137.2
202.85	176.2
208.845	191.2
214.833	194.2
220.815	193.2
226.789	193.2
232.758	199.2
238.719	195.2
244.674	202.2
250.623	201.2
256.565	203.2
262.5	193.2
268.429	199.2
274.351	197.2
280.267	197.2
286.176	189.2
292.079	189.2
297.975	192.2
303.865	183.2
309.748	186.2
315.625	196.2
321.495	201.2
327.359	198.2
333.217	198.2
339.068	195.2
344.912	194.2
350.751	190.2
356.583	188.2
362.408	181.2
368.227	187.2
374.04	185.2
379.847	197.2
385.647	204.2
391.44	222.2
397.228	234.2
403.009	245.2
408.784	254.2
414.553	247.2
420.315	241.2
426.071	237.2
431.821	219.2
437.565	205.2
443.302	198.2
449.033	201.2
454.758	204.2
460.477	214.2
466.189	202.2
471.896	195.2
477.596	187.2
483.29	178.2
488.978	180.2
494.66	178.2
500.335	178.2
506.005	175.2
511.668	165.2
517.325	155.2
522.977	157.2
528.622	158.2
534.261	160.2
539.894	153.2
545.521	149.2
551.141	144.2
556.756	135.2
562.365	130.2
567.968	135.2
573.565	130.2
579.155	121.2
584.74	124.2
590.319	123.2
595.892	121.2
601.459	125.2
607.02	123.2
612.575	125.2
618.124	122.2
623.667	122.2
629.204	119.2
634.735	116.2
640.261	118.2
645.781	116.2
651.294	126.2
656.802	123.2
662.304	121.2
667.8	119.2
673.29	110.2
678.775	110.2
684.254	108.2
689.726	106.2
695.193	106.2
700.655	108.2
706.11	108.2
711.56	109.2
717.004	104.2
722.442	108.2
727.874	108.2
733.301	100.2
738.722	108.2
744.137	110.2
749.547	104.2
754.951	103.2
760.349	111.2
765.741	111.2
771.128	111.2
776.509	111.2
781.885	116.2
787.254	115.2
792.618	113.2
797.977	123.2
803.33	148.2
808.677	191.2
814.019	216.2
819.355	208.2
824.686	167.2
830.011	145.2
835.33	152.2
840.644	170.2
845.952	194.2
851.255	180.2
856.552	153.2
861.844	130.2
867.13	119.2
872.41	109.2
877.686	106.2
882.955	101.2
888.219	103.2
893.478	103.2
898.731	101.2
903.979	107.2
909.221	112.2
914.458	99.2
919.69	100.2
924.916	103.2
930.136	94.2
935.351	101.2
940.561	107.2
945.766	107.2
950.965	112.2
956.158	100.2
961.347	97.2
966.529	114.2
971.707	117.2
976.879	131.2
982.046	135.2
987.208	115.2
992.364	108.2
997.515	110.2
1002.66	116.2
1007.801	127.2
1012.936	111.2
1018.066	103.2
1023.19	98.2
1028.309	99.2
1033.423	105.2
1038.532	120.2
1043.636	121.2
1048.734	121.2
1053.827	111.2
1058.915	100.2
1063.998	94.2
1069.075	89.2
1074.147	88.2
1079.214	84.2
1084.276	85.2
1089.333	88.2
1094.385	92.2
1099.431	96.2
1104.472	91.2
1109.509	92.2
1114.54	90.2
1119.565	91.2
1124.586	89.2
1129.602	87.2
1134.613	85.2
1139.618	96.2
1144.619	103.2
1149.614	125.2
1154.604	155.2
1159.589	175.2
1164.57	170.2
1169.545	149.2
1174.515	144.2
1179.48	125.2
1184.44	99.2
1189.395	87.2
1194.345	86.2
1199.29	83.2
1204.23	84.2
1209.165	88.2
1214.095	95.2
1219.021	102.2
1223.941	114.2
1228.856	116.2
1233.766	103.2
1238.672	92.2
1243.572	88.2
1248.467	81.2
1253.358	81.2
1258.244	83.2
1263.124	86.2
1268	79.2
1272.871	81.2
1277.737	79.2
1282.599	83.2
1287.455	83.2
1292.306	84.2
1297.153	82.2
1301.995	87.2
1306.832	90.2
1311.664	90.2
1316.491	94.2
1321.314	101.2
1326.132	119.2
1330.945	155.2
1335.753	171.2
1340.556	147.2
1345.354	118.2
1350.148	96.2
1354.937	93.2
1359.722	101.2
1364.501	107.2
1369.276	113.2
1374.046	104.2
1378.811	88.2
1383.572	73.2
1388.327	78.2
1393.079	68.2
1397.825	62.2
1402.567	61.2
1407.304	63.2
1412.036	66.2
1416.764	60.2
1421.487	63.2
1426.205	72.2
1430.919	75.2
1435.628	81.2
1440.333	108.2
1445.032	118.2
1449.727	124.2
1454.418	152.2
1459.104	179.2
1463.785	200.2
1468.462	194.2
1473.134	154.2
1477.802	106.2
1482.465	74.2
1487.123	72.2
1491.777	68.2
1496.426	62.2
1501.071	59.2
1505.711	62.2
1510.347	58.2
1514.978	57.2
1519.604	57.2
1524.226	52.2
1528.844	56.2
1533.457	59.2
1538.065	54.2
1542.669	57.2
1547.269	52.2
1551.864	50.2
1556.454	52.2
1561.041	49.2
1565.622	49.2
1570.199	51.2
1574.772	50.2
1579.34	52.2
1583.904	53.2
1588.464	51.2
1593.019	46.2
1597.569	49.2
1602.115	51.2
1606.657	47.2
1611.195	55.2
1615.728	50.2
1620.256	54.2
1624.78	51.2
1629.3	49.2
1633.816	48.2
1638.327	55.2
1642.834	49.2
1647.336	48.2
1651.834	48.2
1656.328	52.2
1660.817	50.2
1665.302	50.2
1669.783	47.2
1674.259	43.2
1678.732	47.2
1683.199	51.2
1687.663	45.2
1692.122	44.2
1696.577	49.2
1701.028	50.2
1705.474	46.2
1709.917	46.2
1714.355	42.2
1718.788	44.2
1723.218	38.2
1727.643	37.2
1732.064	34.2
1736.481	37.2
1740.893	35.2
1745.301	43.2
1749.705	38.2
1754.105	42.2
1758.501	35.2
1762.893	34.2
1767.28	30.2
1771.663	35.2
1776.042	27.2
1780.417	27.2
1784.787	32.2
1789.154	31.2
1793.516	36.2
1797.874	32.2
1802.228	34.2
1806.578	29.2
1810.924	33.2
1815.266	28.2
1819.603	27.2
1823.937	32.2
1828.266	29.2
1832.591	26.2
1836.913	32.2
1841.23	28.2
1845.543	31.2
1849.852	28.2
1854.156	28.2
1858.457	25.2
1862.754	31.2
1867.047	27.2
1871.335	32.2
1875.62	26.2
1879.9	27.2
1884.177	33.2
1888.449	27.2
1892.718	33.2
1896.982	26.2
1901.243	30.2
1905.499	26.2
1909.752	23.2
1914	24.2
1918.245	23.2
1922.485	25.2
1926.722	27.2
1930.954	24.2
1935.183	27.2
1939.408	28.2
1943.628	29.2
1947.845	28.2
1952.058	27.2
1956.267	24.2
1960.472	17.2
1964.673	21.2
1968.87	22.2
1973.063	24.2
1977.252	26.2
1981.438	26.2
1985.619	21.2
1989.797	22.2
1993.971	20.2
1998.14	18.2
2002.306	17.2
2006.469	21.2
2010.627	20.2
2014.781	23.2
2018.932	23.2
2023.078	22.2
2027.221	26.2
2031.36	23.2
2035.495	17.2
2039.627	16.2
2043.754	18.2
2047.878	21.2
2051.998	23.2
2056.114	18.2
2060.226	26.2
2064.334	15.2
2068.439	18.2
2072.54	17.2
2076.637	21.2
2080.73	17.2
2084.82	19.2
2088.906	18.2
2092.988	17.2
2097.066	18.2
2101.14	23.2
2105.211	17.2
2109.278	17.2
2113.342	16.2
2117.401	17.2
2121.457	16.2
2125.509	18.2
2129.558	17.2
2133.602	16.2
2137.643	16.2
2141.681	14.2
2145.714	17.2
2149.744	14.2
2153.77	15.2
2157.793	18.2
2161.812	16.2
2165.827	14.2
2169.838	12.2
2173.846	12.2
2177.851	11.2
2181.851	13.2
2185.848	20.2
2189.841	16.2
2193.831	11.2
2197.817	16.2
2201.799	14.2
2205.778	9.2
2209.753	8.2
2213.725	8.2
2217.693	13.2
2221.657	13.2
2225.618	13.2
2229.575	14.2
2233.529	11.2
2237.479	9.2
2241.425	8.2
2245.368	11.2
2249.307	5.2
2253.243	10.2
2257.175	9.2
2261.104	13.2
2265.029	12.2
2268.95	10.2
2272.868	11.2
2276.783	5.2
2280.694	10.2
2284.601	5.2
2288.505	7.2
2292.405	12.2
2296.302	10.2
2300.195	10.2
2304.085	8.2
2307.971	6.2
2311.854	4.2
2315.734	8.2
2319.609	4.2
2323.482	7.2
2327.351	5.2
2331.216	14.2
2335.078	12.2
2338.937	8.2
2342.792	5.2
2346.643	3.2
2350.492	6.2
2354.336	2.2
2358.178	2.2
2362.015	0.2
2365.85	5.2
2369.681	7.2
2373.508	2.2
2377.333	6.2
2381.153	5.2
2384.971	6.2
2388.785	4.2
2392.595	6.2
2396.402	4.2
2400.206	7.2
2404.007	0.2
2407.804	4.2
2411.597	7.2
2415.388	1.2
2419.174	8.2
2422.958	8.2
2426.738	-0.8
2430.515	8.2
2434.289	4.2
2438.059	3.2
2441.825	-1.8
2445.589	4.2
2449.349	1.2
2453.106	5.2
2456.859	8.2
2460.61	5.2
2464.356	12.2
2468.1	2.2
2471.84	2.2
2475.577	3.2
2479.311	2.2
2483.041	3.2
2486.768	4.2
2490.492	2.2
2494.213	6.2
2497.93	3.2
2501.644	1.2
2505.355	3.2
2509.062	0.2
2512.766	-0.8
2516.467	-1.8
2520.165	5.2
2523.859	4.2
2527.551	2.2
2531.239	3.2
2534.923	2.2
2538.605	0.2
2542.283	-1.8
2545.958	3.2
2549.63	2.2
2553.299	5.2
2556.964	4.2
2560.626	7.2
2564.285	-0.8
2567.941	2.2
2571.594	1.2
2575.243	0.2
2578.89	1.2
2582.533	2.2
2586.173	1.2
2589.809	6.2
2593.443	3.2
2597.073	4.2
2600.701	2.2
2604.325	1.2
2607.946	5.2
2611.564	1.2
2615.178	4.2
2618.79	6.2
2622.398	4.2
2626.004	5.2
2629.606	7.2
2633.205	5.2
2636.801	3.2
2640.394	3.2
2643.983	0.2
2647.57	1.2
2651.153	4.2
2654.734	7.2
2658.311	3.2
2661.885	6.2
2665.456	4.2
2669.025	3.2
2672.589	4.2
2676.151	3.2
2679.71	5.2
2683.266	2.2
2686.819	5.2
2690.368	5.2
2693.915	5.2
2697.458	5.2
2700.999	5.2
2704.536	6.2
2708.071	5.2
2711.602	8.2
2715.13	8.2
2718.656	6.2
2722.178	4.2
2725.697	5.2
2729.214	9.2
2732.727	11.2
2736.237	10.2
2739.744	9.2
2743.249	10.2
2746.75	7.2
2750.248	3.2
2753.743	5.2
2757.236	5.2
2760.725	2.2
2764.211	6.2
2767.695	6.2
2771.175	3.2
2774.652	8.2
2778.127	2.2
2781.598	4.2
2785.067	1.2
2788.532	2.2
2791.995	3.2
2795.455	5.2
2798.911	6.2
2802.365	7.2
2805.816	7.2
2809.264	9.2
2812.709	6.2
2816.151	10.2
2819.59	7.2
2823.026	8.2
2826.46	12.2
2829.89	19.2
2833.318	23.2
2836.742	25.2
2840.164	37.2
2843.583	48.2
2846.999	49.2
2850.412	43.2
2853.822	35.2
2857.229	39.2
2860.634	38.2
2864.035	46.2
2867.434	59.2
2870.83	72.2
2874.223	77.2
2877.613	81.2
2881	81.2
2884.385	91.2
2887.766	99.2
2891.145	99.2
2894.521	99.2
2897.894	88.2
2901.264	83.2
2904.631	79.2
2907.996	79.2
2911.358	80.2
2914.717	68.2
2918.073	58.2
2921.426	58.2
2924.777	56.2
2928.124	55.2
2931.469	54.2
2934.811	49.2
2938.15	49.2
2941.487	40.2
2944.821	37.2
2948.152	33.2
2951.48	40.2
2954.805	44.2
2958.128	49.2
2961.447	41.2
2964.765	44.2
2968.079	44.2
2971.39	40.2
2974.699	28.2
2978.005	23.2
2981.308	23.2
2984.609	13.2
2987.907	13.2
2991.202	9.2
2994.494	11.2
2997.784	12.2
3001.07	13.2
3004.355	10.2
3007.636	10.2
3010.915	8.2
3014.191	6.2
3017.464	5.2
3020.734	8.2
3024.002	5.2
3027.267	6.2
3030.53	5.2
3033.789	6.2
3037.046	5.2
3040.301	5.2
3043.552	6.2
3046.801	7.2
3050.048	7.2
3053.291	3.2
3056.532	4.2
3059.771	8.2
3063.006	4.2
3066.239	4.2
3069.469	6.2
3072.697	5.2
3075.922	5.2
3079.144	5.2
3082.364	7.2
3085.581	7.2
3088.795	8.2
3092.007	4.2
3095.216	4.2
3098.423	4.2
3101.627	3.2
3104.828	9.2
3108.026	6.2
3111.222	11.2
3114.416	11.2
3117.607	12.2
3120.795	9.2
3123.98	13.2
3127.163	12.2
3130.344	6.2
3133.521	10.2
3136.696	5.2
3139.869	11.2
3143.039	14.2
3146.206	13.2
3149.371	16.2
3152.533	15.2
3155.693	7.2
3158.85	8.2
3162.005	7.2
3165.157	9.2
3168.306	8.2
3171.453	10.2
3174.597	14.2
3177.739	13.2
3180.878	10.2
3184.014	9.2
3187.149	7.2
3190.28	6.2
3193.409	7.2
3196.536	9.2
3199.659	13.2
3202.781	14.2
3205.9	15.2
3209.016	12.2
3212.13	9.2
3215.241	14.2
3218.35	12.2
3221.456	9.2
3224.56	8.2
3227.661	14.2
3230.76	16.2
3233.856	12.2
3236.95	14.2
3240.041	12.2
3243.13	7.2
3246.216	9.2
3249.3	10.2
3252.382	11.2
3255.46	6.2
3258.537	8.2
3261.611	11.2
3264.682	10.2
3267.751	10.2
3270.818	8.2
3273.882	10.2
3276.943	9.2
3280.002	8.2
3283.059	6.2
3286.113	9.2
3289.165	5.2
3292.214	5.2
3295.261	7.2
3298.306	10.2
3301.348	8.2
3304.387	5.2
3307.425	7.2
3310.459	6.2
3313.492	4.2
3316.521	7.2
3319.549	5.2
3322.574	5.2
3325.597	4.2
3328.617	3.2
3331.635	9.2
3334.65	9.2
3337.663	8.2
3340.674	8.2
3343.682	7.2
3346.688	6.2
3349.691	5.2
3352.692	4.2
3355.691	2.2
3358.687	3.2
3361.681	10.2
3364.673	8.2
3367.662	8.2
3370.649	10.2
3373.633	7.2
3376.615	4.2
3379.595	0.2
3382.572	3.2
3385.547	2.2
3388.52	5.2
3391.49	9.2
3394.458	5.2
3397.424	6.2
3400.387	5.2
3403.348	2.2
3406.307	4.2
3409.263	2.2
3412.217	2.2
3415.168	2.2
3418.118	5.2
3421.065	9.2
3424.009	5.2
3426.951	7.2
3429.891	4.2
3432.829	-0.8
3435.764	2.2
3438.697	-2.8
3441.628	0.2
3444.557	2.2
3447.483	6.2
3450.407	6.2
3453.328	9.2
3456.247	3.2
3459.164	0.2
3462.079	0.2
3464.991	0.2
3467.902	-1.8
3470.809	-0.8
3473.715	1.2
3476.618	1.2
3479.519	-1.8
3482.418	2.2
3485.315	0.2
3488.209	1.2
3491.101	-0.8
3493.99	-3.8
3496.878	-0.8
3499.763	-2.8
3502.646	-3.8
3505.527	-2.8
3508.405	-0.8
3511.281	-0.8
3514.155	-4.8
3517.027	2.2
3519.897	0.2
3522.764	-2.8
3525.629	-4.8
3528.492	-4.8
3531.352	-3.8
3534.211	-3.8
3537.067	-5.8
3539.921	-2.8
3542.773	-2.8
3545.622	1.2
3548.469	-4.8
3551.315	-1.8
3554.157	-3.8
3556.998	-3.8
3559.837	-6.8
3562.673	-5.8
3565.507	-3.8
3568.339	-3.8
3571.169	-1.8
3573.996	0.2
3576.822	-1.8
3579.645	-3.8
3582.466	-3.8
3585.285	-3.8
3588.101	-7.8
3590.916	-3.8
3593.728	-2.8
3596.538	-3.8
3599.346	-6.8
3602.152	-5.8
3604.956	-4.8
3607.757	-4.8
3610.556	-5.8
3613.354	-5.8
3616.149	-6.8
3618.942	-2.8
3621.732	-0.8
3624.521	-0.8
3627.307	-5.8
3630.092	-3.8
3632.874	-5.8
3635.654	-4.8
3638.432	-7.8
3641.208	-7.8
3643.982	-5.8
3646.753	-1.8
3649.523	-7.8
3652.29	-4.8
3655.055	-8.8
3657.818	-7.8
3660.579	-1.8
3663.338	-4.8
3666.095	-3.8
3668.849	-2.8
3671.602	-7.8
3674.352	-0.8
3677.101	-2.8
3679.847	-7.8
3682.591	-4.8
3685.333	-6.8
3688.073	-6.8
3690.811	-2.8
3693.547	-3.8
3696.281	-5.8
3699.013	-5.8
3701.742	-4.8
3704.47	-4.8
3707.195	-3.8
3709.919	-7.8
3712.64	-3.8
3715.359	-4.8
3718.076	-4.8
3720.792	-5.8
3723.505	-7.8
3726.216	-5.8
3728.925	-5.8
3731.632	-2.8
3734.336	-7.8
3737.039	-2.8
3739.74	-4.8
3742.439	-6.8
3745.136	-5.8
3747.83	-5.8
3750.523	-7.8
3753.213	-7.8
3755.902	-4.8
3758.589	-0.8
3761.273	-4.8
3763.956	-4.8
3766.636	-7.8
3769.315	-9.8
3771.991	-11.8
3774.665	-6.8
3777.338	-3.8
3780.008	-1.8
3782.677	-2.8
3785.343	-3.8
3788.007	-5.8
3790.67	-3.8
3793.33	-6.8
3795.989	-7.8
3798.645	-11.8
3801.299	-6.8
3803.952	-8.8
3806.602	-2.8
3809.251	-1.8
3811.897	-4.8
3814.542	-4.8
3817.184	-6.8
3819.825	-9.8
3822.463	-11.8
3825.1	-7.8
3827.735	-9.8
3830.367	-3.8
3832.998	-1.8
3835.627	-2.8
3838.253	-3.8
3840.878	-5.8
3843.501	-5.8
3846.122	-7.8
3848.741	-7.8
3851.358	-4.8
3853.973	-5.8
3856.586	-6.8
3859.197	-4.8
3861.806	-5.8
3864.414	-5.8
3867.019	-8.8
3869.622	-7.8
3872.224	-8.8
3874.823	-8.8
3877.421	-3.8
3880.016	-3.8
3882.61	-1.8
3885.202	3.2
3887.792	-1.8
3890.38	-4.8
3892.966	-5.8
3895.55	-4.8
3898.132	-5.8
3900.713	-5.8
3903.291	-6.8
3905.868	-2.8
3908.442	-2.8
3911.015	-7.8
3913.586	-5.8
3916.155	-2.8
3918.722	-4.8
3921.287	-8.8
3923.85	-5.8
3926.411	-5.8
3928.971	-10.8
3931.528	-5.8
3934.084	-7.8
3936.638	-6.8
3939.19	-6.8
3941.74	-2.8
3944.288	-5.8
3946.834	-5.8
3949.378	-4.8
3951.921	-5.8
3954.462	-5.8
3957	-6.8
3959.537	-1.8
3962.072	-0.8
3964.606	-2.8
3967.137	-3.8
3969.667	-6.8
3972.194	-8.8
3974.72	-7.8
3977.244	-8.8
3979.766	-4.8
3982.286	-6.8
3984.805	-4.8
3987.321	-5.8
3989.836	-6.8
3992.349	-3.8
3994.86	-2.8
3997.369	-9.8
3999.877	-7.8
4002.382	-7.8
4004.886	-8.8
4007.388	-2.8
4009.888	-6.8
4012.386	-4.8
4014.883	-5.8
4017.377	-4.8
4019.87	-5.8
4022.361	-5.8
4024.85	-7.8
4027.338	-7.8
4029.823	-7.8
4032.307	-4.8
4034.789	-4.8
4037.269	-3.8
4039.747	-3.8
4042.224	-5.8
4044.699	-7.8
4047.172	-6.8
4049.643	-10.8
4052.112	-6.8
4054.58	-5.8
4057.046	-4.8
4059.51	-2.8
4061.972	-1.8
4064.432	-3.8
4066.891	-6.8
4069.348	-6.8
4071.803	-7.8
4074.256	-10.8
4076.708	-4.8
4079.158	-2.8
4081.606	-4.8
4084.052	-1.8
4086.497	-2.8
4088.939	0.2
4091.38	-2.8
4093.819	-7.8
4096.257	-9.8
4098.693	-5.8
4101.127	-4.8
4103.559	-0.8
4105.989	6.2
4108.418	3.2
4110.845	1.2
4113.27	-3.8
4115.694	-2.8
4118.115	-0.8
4120.535	-10.8
4122.954	-8.8
4125.37	-10.8
4127.785	-7.8
4130.198	-3.8
4132.609	-2.8
4135.019	-4.8
4137.427	-5.8
4139.833	-6.8
4142.237	-10.8
