Data from 0_n=2_RamanShift_01.txt Node
Date: Mon Mar 19 12:01:34 IST 2018
User: aro
Spectrometer: QEPB0276
Trigger mode: 0
Integration Time (sec): 5.000000E0
Scans to average: 1
Electric dark correction enabled: true
Nonlinearity correction enabled: false
Boxcar width: 0
XAxis mode: Raman Shifts
Number of Pixels in Spectrum: 1044
>>>>>Begin Spectral Data<<<<<
160.701	-2.4
166.742	1.6
172.777	4.6
178.805	18.6
184.826	45.6
190.841	90.6
196.849	144.6
202.85	185.6
208.845	193.6
214.833	196.6
220.815	200.6
226.789	197.6
232.758	199.6
238.719	205.6
244.674	206.6
250.623	205.6
256.565	212.6
262.5	201.6
268.429	202.6
274.351	194.6
280.267	199.6
286.176	193.6
292.079	196.6
297.975	195.6
303.865	196.6
309.748	196.6
315.625	197.6
321.495	207.6
327.359	206.6
333.217	207.6
339.068	208.6
344.912	207.6
350.751	191.6
356.583	196.6
362.408	187.6
368.227	188.6
374.04	187.6
379.847	198.6
385.647	212.6
391.44	224.6
397.228	248.6
403.009	266.6
408.784	275.6
414.553	253.6
420.315	249.6
426.071	240.6
431.821	231.6
437.565	206.6
443.302	202.6
449.033	207.6
454.758	210.6
460.477	209.6
466.189	219.6
471.896	196.6
477.596	193.6
483.29	188.6
488.978	175.6
494.66	173.6
500.335	183.6
506.005	168.6
511.668	163.6
517.325	168.6
522.977	164.6
528.622	161.6
534.261	171.6
539.894	162.6
545.521	151.6
551.141	148.6
556.756	141.6
562.365	135.6
567.968	133.6
573.565	134.6
579.155	130.6
584.74	127.6
590.319	129.6
595.892	127.6
601.459	125.6
607.02	127.6
612.575	125.6
618.124	124.6
623.667	122.6
629.204	120.6
634.735	122.6
640.261	124.6
645.781	125.6
651.294	137.6
656.802	129.6
662.304	116.6
667.8	115.6
673.29	113.6
678.775	112.6
684.254	115.6
689.726	114.6
695.193	117.6
700.655	113.6
706.11	110.6
711.56	108.6
717.004	108.6
722.442	109.6
727.874	106.6
733.301	103.6
738.722	103.6
744.137	106.6
749.547	108.6
754.951	109.6
760.349	113.6
765.741	114.6
771.128	113.6
776.509	117.6
781.885	113.6
787.254	116.6
792.618	120.6
797.977	137.6
803.33	155.6
808.677	194.6
814.019	223.6
819.355	233.6
824.686	181.6
830.011	150.6
835.33	157.6
840.644	180.6
845.952	199.6
851.255	194.6
856.552	169.6
861.844	132.6
867.13	124.6
872.41	115.6
877.686	111.6
882.955	103.6
888.219	104.6
893.478	102.6
898.731	108.6
903.979	115.6
909.221	118.6
914.458	109.6
919.69	102.6
924.916	101.6
930.136	98.6
935.351	102.6
940.561	106.6
945.766	114.6
950.965	112.6
956.158	107.6
961.347	110.6
966.529	110.6
971.707	122.6
976.879	142.6
982.046	138.6
987.208	121.6
992.364	104.6
997.515	113.6
1002.66	127.6
1007.801	128.6
1012.936	111.6
1018.066	109.6
1023.19	105.6
1028.309	109.6
1033.423	116.6
1038.532	126.6
1043.636	132.6
1048.734	130.6
1053.827	123.6
1058.915	99.6
1063.998	96.6
1069.075	95.6
1074.147	91.6
1079.214	90.6
1084.276	88.6
1089.333	95.6
1094.385	90.6
1099.431	93.6
1104.472	98.6
1109.509	95.6
1114.54	98.6
1119.565	91.6
1124.586	92.6
1129.602	89.6
1134.613	91.6
1139.618	92.6
1144.619	106.6
1149.614	129.6
1154.604	166.6
1159.589	186.6
1164.57	175.6
1169.545	164.6
1174.515	156.6
1179.48	126.6
1184.44	104.6
1189.395	90.6
1194.345	91.6
1199.29	84.6
1204.23	86.6
1209.165	93.6
1214.095	96.6
1219.021	114.6
1223.941	127.6
1228.856	121.6
1233.766	110.6
1238.672	97.6
1243.572	86.6
1248.467	87.6
1253.358	88.6
1258.244	90.6
1263.124	87.6
1268	84.6
1272.871	82.6
1277.737	83.6
1282.599	83.6
1287.455	84.6
1292.306	88.6
1297.153	84.6
1301.995	98.6
1306.832	105.6
1311.664	98.6
1316.491	100.6
1321.314	108.6
1326.132	129.6
1330.945	162.6
1335.753	185.6
1340.556	168.6
1345.354	124.6
1350.148	104.6
1354.937	104.6
1359.722	106.6
1364.501	119.6
1369.276	116.6
1374.046	107.6
1378.811	92.6
1383.572	80.6
1388.327	77.6
1393.079	71.6
1397.825	66.6
1402.567	67.6
1407.304	67.6
1412.036	66.6
1416.764	63.6
1421.487	64.6
1426.205	68.6
1430.919	70.6
1435.628	88.6
1440.333	118.6
1445.032	133.6
1449.727	133.6
1454.418	159.6
1459.104	192.6
1463.785	216.6
1468.462	206.6
1473.134	161.6
1477.802	109.6
1482.465	78.6
1487.123	71.6
1491.777	68.6
1496.426	67.6
1501.071	66.6
1505.711	59.6
1510.347	58.6
1514.978	56.6
1519.604	60.6
1524.226	46.6
1528.844	53.6
1533.457	59.6
1538.065	59.6
1542.669	60.6
1547.269	54.6
1551.864	52.6
1556.454	51.6
1561.041	44.6
1565.622	48.6
1570.199	49.6
1574.772	50.6
1579.34	52.6
1583.904	55.6
1588.464	56.6
1593.019	49.6
1597.569	58.6
1602.115	51.6
1606.657	48.6
1611.195	54.6
1615.728	52.6
1620.256	52.6
1624.78	53.6
1629.3	52.6
1633.816	53.6
1638.327	54.6
1642.834	50.6
1647.336	51.6
1651.834	49.6
1656.328	55.6
1660.817	50.6
1665.302	51.6
1669.783	51.6
1674.259	50.6
1678.732	54.6
1683.199	48.6
1687.663	49.6
1692.122	40.6
1696.577	47.6
1701.028	48.6
1705.474	44.6
1709.917	45.6
1714.355	43.6
1718.788	45.6
1723.218	39.6
1727.643	38.6
1732.064	38.6
1736.481	41.6
1740.893	37.6
1745.301	41.6
1749.705	40.6
1754.105	37.6
1758.501	35.6
1762.893	36.6
1767.28	34.6
1771.663	35.6
1776.042	28.6
1780.417	35.6
1784.787	36.6
1789.154	32.6
1793.516	33.6
1797.874	36.6
1802.228	32.6
1806.578	33.6
1810.924	34.6
1815.266	28.6
1819.603	31.6
1823.937	35.6
1828.266	31.6
1832.591	26.6
1836.913	25.6
1841.23	29.6
1845.543	29.6
1849.852	29.6
1854.156	29.6
1858.457	26.6
1862.754	36.6
1867.047	31.6
1871.335	32.6
1875.62	28.6
1879.9	24.6
1884.177	29.6
1888.449	28.6
1892.718	32.6
1896.982	30.6
1901.243	33.6
1905.499	27.6
1909.752	26.6
1914	27.6
1918.245	20.6
1922.485	24.6
1926.722	24.6
1930.954	23.6
1935.183	33.6
1939.408	29.6
1943.628	31.6
1947.845	27.6
1952.058	28.6
1956.267	21.6
1960.472	19.6
1964.673	24.6
1968.87	22.6
1973.063	26.6
1977.252	23.6
1981.438	23.6
1985.619	29.6
1989.797	23.6
1993.971	21.6
1998.14	20.6
2002.306	18.6
2006.469	19.6
2010.627	21.6
2014.781	25.6
2018.932	24.6
2023.078	20.6
2027.221	23.6
2031.36	19.6
2035.495	21.6
2039.627	19.6
2043.754	16.6
2047.878	17.6
2051.998	21.6
2056.114	25.6
2060.226	24.6
2064.334	20.6
2068.439	14.6
2072.54	17.6
2076.637	24.6
2080.73	18.6
2084.82	21.6
2088.906	25.6
2092.988	18.6
2097.066	18.6
2101.14	16.6
2105.211	18.6
2109.278	20.6
2113.342	16.6
2117.401	20.6
2121.457	20.6
2125.509	20.6
2129.558	17.6
2133.602	18.6
2137.643	13.6
2141.681	13.6
2145.714	16.6
2149.744	17.6
2153.77	13.6
2157.793	19.6
2161.812	18.6
2165.827	15.6
2169.838	17.6
2173.846	12.6
2177.851	8.6
2181.851	9.6
2185.848	15.6
2189.841	13.6
2193.831	11.6
2197.817	17.6
2201.799	12.6
2205.778	9.6
2209.753	11.6
2213.725	5.6
2217.693	11.6
2221.657	9.6
2225.618	11.6
2229.575	15.6
2233.529	15.6
2237.479	10.6
2241.425	12.6
2245.368	11.6
2249.307	6.6
2253.243	10.6
2257.175	5.6
2261.104	14.6
2265.029	9.6
2268.95	8.6
2272.868	8.6
2276.783	9.6
2280.694	9.6
2284.601	8.6
2288.505	9.6
2292.405	8.6
2296.302	8.6
2300.195	8.6
2304.085	5.6
2307.971	4.6
2311.854	5.6
2315.734	8.6
2319.609	7.6
2323.482	8.6
2327.351	8.6
2331.216	9.6
2335.078	8.6
2338.937	5.6
2342.792	3.6
2346.643	-0.4
2350.492	6.6
2354.336	4.6
2358.178	8.6
2362.015	7.6
2365.85	8.6
2369.681	9.6
2373.508	4.6
2377.333	3.6
2381.153	4.6
2384.971	4.6
2388.785	7.6
2392.595	9.6
2396.402	10.6
2400.206	7.6
2404.007	9.6
2407.804	5.6
2411.597	6.6
2415.388	2.6
2419.174	5.6
2422.958	6.6
2426.738	0.6
2430.515	7.6
2434.289	5.6
2438.059	5.6
2441.825	-0.4
2445.589	5.6
2449.349	1.6
2453.106	5.6
2456.859	7.6
2460.61	5.6
2464.356	6.6
2468.1	5.6
2471.84	2.6
2475.577	4.6
2479.311	3.6
2483.041	6.6
2486.768	7.6
2490.492	4.6
2494.213	5.6
2497.93	2.6
2501.644	3.6
2505.355	1.6
2509.062	-0.4
2512.766	4.6
2516.467	5.6
2520.165	5.6
2523.859	4.6
2527.551	2.6
2531.239	1.6
2534.923	2.6
2538.605	-0.4
2542.283	-3.4
2545.958	6.6
2549.63	4.6
2553.299	7.6
2556.964	7.6
2560.626	7.6
2564.285	1.6
2567.941	1.6
2571.594	-0.4
2575.243	-1.4
2578.89	4.6
2582.533	5.6
2586.173	7.6
2589.809	5.6
2593.443	9.6
2597.073	4.6
2600.701	2.6
2604.325	2.6
2607.946	3.6
2611.564	2.6
2615.178	5.6
2618.79	3.6
2622.398	3.6
2626.004	5.6
2629.606	5.6
2633.205	4.6
2636.801	5.6
2640.394	0.6
2643.983	7.6
2647.57	7.6
2651.153	4.6
2654.734	7.6
2658.311	5.6
2661.885	6.6
2665.456	5.6
2669.025	7.6
2672.589	4.6
2676.151	6.6
2679.71	8.6
2683.266	5.6
2686.819	8.6
2690.368	4.6
2693.915	3.6
2697.458	2.6
2700.999	14.6
2704.536	10.6
2708.071	10.6
2711.602	7.6
2715.13	10.6
2718.656	7.6
2722.178	7.6
2725.697	5.6
2729.214	9.6
2732.727	7.6
2736.237	14.6
2739.744	8.6
2743.249	14.6
2746.75	9.6
2750.248	3.6
2753.743	3.6
2757.236	1.6
2760.725	3.6
2764.211	3.6
2767.695	8.6
2771.175	4.6
2774.652	8.6
2778.127	6.6
2781.598	5.6
2785.067	1.6
2788.532	1.6
2791.995	2.6
2795.455	4.6
2798.911	7.6
2802.365	7.6
2805.816	11.6
2809.264	9.6
2812.709	10.6
2816.151	12.6
2819.59	8.6
2823.026	12.6
2826.46	13.6
2829.89	20.6
2833.318	27.6
2836.742	33.6
2840.164	43.6
2843.583	45.6
2846.999	50.6
2850.412	45.6
2853.822	41.6
2857.229	39.6
2860.634	41.6
2864.035	43.6
2867.434	61.6
2870.83	71.6
2874.223	84.6
2877.613	85.6
2881	93.6
2884.385	91.6
2887.766	96.6
2891.145	99.6
2894.521	97.6
2897.894	93.6
2901.264	88.6
2904.631	85.6
2907.996	85.6
2911.358	78.6
2914.717	69.6
2918.073	62.6
2921.426	62.6
2924.777	62.6
2928.124	58.6
2931.469	56.6
2934.811	59.6
2938.15	54.6
2941.487	48.6
2944.821	40.6
2948.152	37.6
2951.48	42.6
2954.805	44.6
2958.128	47.6
2961.447	50.6
2964.765	48.6
2968.079	50.6
2971.39	38.6
2974.699	36.6
2978.005	24.6
2981.308	22.6
2984.609	16.6
2987.907	17.6
2991.202	17.6
2994.494	13.6
2997.784	14.6
3001.07	15.6
3004.355	11.6
3007.636	12.6
3010.915	9.6
3014.191	8.6
3017.464	2.6
3020.734	9.6
3024.002	5.6
3027.267	11.6
3030.53	7.6
3033.789	8.6
3037.046	4.6
3040.301	7.6
3043.552	3.6
3046.801	4.6
3050.048	3.6
3053.291	2.6
3056.532	5.6
3059.771	10.6
3063.006	6.6
3066.239	5.6
3069.469	8.6
3072.697	5.6
3075.922	6.6
3079.144	6.6
3082.364	5.6
3085.581	4.6
3088.795	11.6
3092.007	11.6
3095.216	8.6
3098.423	8.6
3101.627	6.6
3104.828	8.6
3108.026	6.6
3111.222	6.6
3114.416	9.6
3117.607	10.6
3120.795	9.6
3123.98	11.6
3127.163	13.6
3130.344	9.6
3133.521	13.6
3136.696	14.6
3139.869	13.6
3143.039	17.6
3146.206	12.6
3149.371	4.6
3152.533	13.6
3155.693	12.6
3158.85	12.6
3162.005	11.6
3165.157	11.6
3168.306	11.6
3171.453	8.6
3174.597	11.6
3177.739	12.6
3180.878	14.6
3184.014	12.6
3187.149	7.6
3190.28	6.6
3193.409	12.6
3196.536	13.6
3199.659	12.6
3202.781	14.6
3205.9	17.6
3209.016	13.6
3212.13	13.6
3215.241	10.6
3218.35	13.6
3221.456	12.6
3224.56	11.6
3227.661	13.6
3230.76	12.6
3233.856	10.6
3236.95	14.6
3240.041	7.6
3243.13	10.6
3246.216	9.6
3249.3	13.6
3252.382	11.6
3255.46	13.6
3258.537	11.6
3261.611	12.6
3264.682	9.6
3267.751	5.6
3270.818	9.6
3273.882	9.6
3276.943	11.6
3280.002	8.6
3283.059	11.6
3286.113	7.6
3289.165	6.6
3292.214	7.6
3295.261	5.6
3298.306	7.6
3301.348	6.6
3304.387	5.6
3307.425	12.6
3310.459	13.6
3313.492	5.6
3316.521	10.6
3319.549	5.6
3322.574	5.6
3325.597	3.6
3328.617	1.6
3331.635	8.6
3334.65	5.6
3337.663	8.6
3340.674	12.6
3343.682	10.6
3346.688	9.6
3349.691	8.6
3352.692	6.6
3355.691	1.6
3358.687	-0.4
3361.681	6.6
3364.673	10.6
3367.662	6.6
3370.649	10.6
3373.633	6.6
3376.615	8.6
3379.595	1.6
3382.572	3.6
3385.547	2.6
3388.52	3.6
3391.49	3.6
3394.458	7.6
3397.424	5.6
3400.387	12.6
3403.348	5.6
3406.307	3.6
3409.263	5.6
3412.217	3.6
3415.168	3.6
3418.118	3.6
3421.065	6.6
3424.009	3.6
3426.951	4.6
3429.891	4.6
3432.829	3.6
3435.764	4.6
3438.697	-1.4
3441.628	0.6
3444.557	0.6
3447.483	2.6
3450.407	-0.4
3453.328	5.6
3456.247	0.6
3459.164	-2.4
3462.079	4.6
3464.991	3.6
3467.902	-0.4
3470.809	3.6
3473.715	4.6
3476.618	2.6
3479.519	-2.4
3482.418	0.6
3485.315	-3.4
3488.209	-1.4
3491.101	5.6
3493.99	-1.4
3496.878	3.6
3499.763	0.6
3502.646	3.6
3505.527	0.6
3508.405	0.6
3511.281	-3.4
3514.155	-3.4
3517.027	0.6
3519.897	-2.4
3522.764	-0.4
3525.629	-3.4
3528.492	1.6
3531.352	1.6
3534.211	-0.4
3537.067	-6.4
3539.921	-7.4
3542.773	-5.4
3545.622	-2.4
3548.469	-5.4
3551.315	-2.4
3554.157	-3.4
3556.998	-1.4
3559.837	-5.4
3562.673	-4.4
3565.507	-4.4
3568.339	-1.4
3571.169	-2.4
3573.996	-2.4
3576.822	-5.4
3579.645	-6.4
3582.466	-2.4
3585.285	-1.4
3588.101	-3.4
3590.916	-0.4
3593.728	-3.4
3596.538	-2.4
3599.346	-6.4
3602.152	-4.4
3604.956	-6.4
3607.757	-5.4
3610.556	-2.4
3613.354	-2.4
3616.149	-5.4
3618.942	-0.4
3621.732	-4.4
3624.521	-3.4
3627.307	-4.4
3630.092	-5.4
3632.874	-6.4
3635.654	-2.4
3638.432	-5.4
3641.208	-3.4
3643.982	-0.4
3646.753	0.6
3649.523	-6.4
3652.29	-6.4
3655.055	-11.4
3657.818	-8.4
3660.579	-2.4
3663.338	-3.4
3666.095	-3.4
3668.849	-0.4
3671.602	-2.4
3674.352	0.6
3677.101	-2.4
3679.847	-7.4
3682.591	-7.4
3685.333	-4.4
3688.073	-5.4
3690.811	-1.4
3693.547	-2.4
3696.281	-5.4
3699.013	-2.4
3701.742	-3.4
3704.47	-6.4
3707.195	-6.4
3709.919	-6.4
3712.64	-7.4
3715.359	-4.4
3718.076	-6.4
3720.792	-4.4
3723.505	-1.4
3726.216	-4.4
3728.925	-5.4
3731.632	-2.4
3734.336	-6.4
3737.039	-4.4
3739.74	-8.4
3742.439	-6.4
3745.136	-6.4
3747.83	-6.4
3750.523	-4.4
3753.213	-6.4
3755.902	-1.4
3758.589	-2.4
3761.273	-1.4
3763.956	-4.4
3766.636	-8.4
3769.315	-9.4
3771.991	-8.4
3774.665	-3.4
3777.338	-3.4
3780.008	-4.4
3782.677	-5.4
3785.343	-1.4
3788.007	-3.4
3790.67	-2.4
3793.33	-8.4
3795.989	-8.4
3798.645	-10.4
3801.299	-6.4
3803.952	-3.4
3806.602	-1.4
3809.251	-2.4
3811.897	-3.4
3814.542	-3.4
3817.184	-7.4
3819.825	-7.4
3822.463	-8.4
3825.1	-9.4
3827.735	-5.4
3830.367	-4.4
3832.998	-4.4
3835.627	-1.4
3838.253	-0.4
3840.878	-6.4
3843.501	-5.4
3846.122	-8.4
3848.741	-8.4
3851.358	-6.4
3853.973	-5.4
3856.586	-6.4
3859.197	-3.4
3861.806	-3.4
3864.414	-6.4
3867.019	-4.4
3869.622	-6.4
3872.224	-4.4
3874.823	-4.4
3877.421	0.6
3880.016	-3.4
3882.61	-2.4
3885.202	1.6
3887.792	-0.4
3890.38	-3.4
3892.966	-8.4
3895.55	-4.4
3898.132	-3.4
3900.713	-2.4
3903.291	-5.4
3905.868	-4.4
3908.442	-5.4
3911.015	-7.4
3913.586	-6.4
3916.155	-3.4
3918.722	-4.4
3921.287	-7.4
3923.85	-2.4
3926.411	-4.4
3928.971	-7.4
3931.528	-7.4
3934.084	-7.4
3936.638	-3.4
3939.19	-3.4
3941.74	-2.4
3944.288	-5.4
3946.834	-3.4
3949.378	-4.4
3951.921	-5.4
3954.462	-9.4
3957	-9.4
3959.537	-3.4
3962.072	-3.4
3964.606	-4.4
3967.137	-3.4
3969.667	-2.4
3972.194	-6.4
3974.72	-2.4
3977.244	-8.4
3979.766	-7.4
3982.286	-7.4
3984.805	-5.4
3987.321	-3.4
3989.836	-4.4
3992.349	-0.4
3994.86	-0.4
3997.369	-6.4
3999.877	-7.4
4002.382	-7.4
4004.886	-11.4
4007.388	-7.4
4009.888	-8.4
4012.386	-3.4
4014.883	-5.4
4017.377	-2.4
4019.87	-2.4
4022.361	-5.4
4024.85	-7.4
4027.338	-11.4
4029.823	-9.4
4032.307	-5.4
4034.789	-5.4
4037.269	-4.4
4039.747	-4.4
4042.224	-1.4
4044.699	-5.4
4047.172	-6.4
4049.643	-10.4
4052.112	-6.4
4054.58	-6.4
4057.046	-6.4
4059.51	-4.4
4061.972	-1.4
4064.432	-3.4
4066.891	-6.4
4069.348	-2.4
4071.803	-8.4
4074.256	-12.4
4076.708	-6.4
4079.158	-3.4
4081.606	-7.4
4084.052	-3.4
4086.497	-2.4
4088.939	0.6
4091.38	-1.4
4093.819	-4.4
4096.257	-9.4
4098.693	-7.4
4101.127	-5.4
4103.559	-3.4
4105.989	8.6
4108.418	2.6
4110.845	2.6
4113.27	1.6
4115.694	1.6
4118.115	-0.4
4120.535	-8.4
4122.954	-7.4
4125.37	-9.4
4127.785	-8.4
4130.198	-4.4
4132.609	-1.4
4135.019	-3.4
4137.427	-5.4
4139.833	-5.4
4142.237	-8.4
