Data from 0_n=3_RamanShift_03.txt Node
Date: Mon Mar 19 12:02:34 IST 2018
User: aro
Spectrometer: QEPB0276
Trigger mode: 0
Integration Time (sec): 5.000000E0
Scans to average: 1
Electric dark correction enabled: true
Nonlinearity correction enabled: false
Boxcar width: 0
XAxis mode: Raman Shifts
Number of Pixels in Spectrum: 1044
>>>>>Begin Spectral Data<<<<<
160.701	0.6
166.742	0.6
172.777	4.6
178.805	19.6
184.826	49.6
190.841	93.6
196.849	159.6
202.85	212.6
208.845	229.6
214.833	233.6
220.815	225.6
226.789	219.6
232.758	223.6
238.719	235.6
244.674	234.6
250.623	229.6
256.565	232.6
262.5	232.6
268.429	238.6
274.351	229.6
280.267	220.6
286.176	224.6
292.079	216.6
297.975	227.6
303.865	224.6
309.748	228.6
315.625	233.6
321.495	239.6
327.359	246.6
333.217	239.6
339.068	238.6
344.912	228.6
350.751	228.6
356.583	225.6
362.408	228.6
368.227	224.6
374.04	230.6
379.847	235.6
385.647	243.6
391.44	256.6
397.228	285.6
403.009	306.6
408.784	315.6
414.553	291.6
420.315	283.6
426.071	274.6
431.821	262.6
437.565	244.6
443.302	235.6
449.033	242.6
454.758	247.6
460.477	243.6
466.189	247.6
471.896	235.6
477.596	225.6
483.29	220.6
488.978	218.6
494.66	212.6
500.335	210.6
506.005	202.6
511.668	202.6
517.325	191.6
522.977	190.6
528.622	203.6
534.261	204.6
539.894	189.6
545.521	186.6
551.141	180.6
556.756	163.6
562.365	162.6
567.968	165.6
573.565	162.6
579.155	157.6
584.74	154.6
590.319	160.6
595.892	161.6
601.459	157.6
607.02	160.6
612.575	154.6
618.124	152.6
623.667	149.6
629.204	142.6
634.735	149.6
640.261	148.6
645.781	146.6
651.294	158.6
656.802	158.6
662.304	144.6
667.8	145.6
673.29	138.6
678.775	132.6
684.254	138.6
689.726	135.6
695.193	138.6
700.655	135.6
706.11	136.6
711.56	137.6
717.004	135.6
722.442	134.6
727.874	135.6
733.301	128.6
738.722	129.6
744.137	137.6
749.547	135.6
754.951	136.6
760.349	140.6
765.741	138.6
771.128	139.6
776.509	134.6
781.885	141.6
787.254	143.6
792.618	144.6
797.977	157.6
803.33	190.6
808.677	238.6
814.019	271.6
819.355	265.6
824.686	215.6
830.011	185.6
835.33	191.6
840.644	222.6
845.952	247.6
851.255	235.6
856.552	203.6
861.844	165.6
867.13	152.6
872.41	148.6
877.686	136.6
882.955	129.6
888.219	129.6
893.478	125.6
898.731	133.6
903.979	142.6
909.221	141.6
914.458	130.6
919.69	125.6
924.916	120.6
930.136	123.6
935.351	129.6
940.561	134.6
945.766	139.6
950.965	139.6
956.158	135.6
961.347	130.6
966.529	137.6
971.707	147.6
976.879	166.6
982.046	174.6
987.208	153.6
992.364	129.6
997.515	136.6
1002.66	149.6
1007.801	161.6
1012.936	138.6
1018.066	138.6
1023.19	126.6
1028.309	125.6
1033.423	137.6
1038.532	150.6
1043.636	161.6
1048.734	156.6
1053.827	143.6
1058.915	123.6
1063.998	116.6
1069.075	114.6
1074.147	111.6
1079.214	111.6
1084.276	110.6
1089.333	112.6
1094.385	111.6
1099.431	123.6
1104.472	119.6
1109.509	120.6
1114.54	118.6
1119.565	111.6
1124.586	110.6
1129.602	108.6
1134.613	109.6
1139.618	118.6
1144.619	132.6
1149.614	161.6
1154.604	199.6
1159.589	232.6
1164.57	215.6
1169.545	198.6
1174.515	190.6
1179.48	160.6
1184.44	136.6
1189.395	117.6
1194.345	113.6
1199.29	109.6
1204.23	107.6
1209.165	109.6
1214.095	117.6
1219.021	138.6
1223.941	154.6
1228.856	148.6
1233.766	137.6
1238.672	120.6
1243.572	109.6
1248.467	104.6
1253.358	102.6
1258.244	112.6
1263.124	107.6
1268	101.6
1272.871	103.6
1277.737	102.6
1282.599	103.6
1287.455	104.6
1292.306	107.6
1297.153	112.6
1301.995	119.6
1306.832	117.6
1311.664	117.6
1316.491	121.6
1321.314	129.6
1326.132	157.6
1330.945	202.6
1335.753	229.6
1340.556	207.6
1345.354	158.6
1350.148	135.6
1354.937	123.6
1359.722	127.6
1364.501	145.6
1369.276	144.6
1374.046	126.6
1378.811	111.6
1383.572	105.6
1388.327	98.6
1393.079	87.6
1397.825	83.6
1402.567	86.6
1407.304	83.6
1412.036	82.6
1416.764	79.6
1421.487	87.6
1426.205	81.6
1430.919	94.6
1435.628	111.6
1440.333	141.6
1445.032	163.6
1449.727	163.6
1454.418	198.6
1459.104	231.6
1463.785	260.6
1468.462	257.6
1473.134	191.6
1477.802	138.6
1482.465	107.6
1487.123	95.6
1491.777	85.6
1496.426	77.6
1501.071	78.6
1505.711	79.6
1510.347	75.6
1514.978	74.6
1519.604	80.6
1524.226	70.6
1528.844	77.6
1533.457	77.6
1538.065	76.6
1542.669	71.6
1547.269	69.6
1551.864	64.6
1556.454	68.6
1561.041	67.6
1565.622	67.6
1570.199	68.6
1574.772	63.6
1579.34	64.6
1583.904	70.6
1588.464	68.6
1593.019	66.6
1597.569	66.6
1602.115	66.6
1606.657	58.6
1611.195	67.6
1615.728	64.6
1620.256	66.6
1624.78	69.6
1629.3	63.6
1633.816	60.6
1638.327	68.6
1642.834	63.6
1647.336	58.6
1651.834	61.6
1656.328	62.6
1660.817	65.6
1665.302	65.6
1669.783	69.6
1674.259	64.6
1678.732	62.6
1683.199	60.6
1687.663	61.6
1692.122	60.6
1696.577	58.6
1701.028	62.6
1705.474	57.6
1709.917	61.6
1714.355	54.6
1718.788	56.6
1723.218	57.6
1727.643	48.6
1732.064	50.6
1736.481	47.6
1740.893	46.6
1745.301	56.6
1749.705	49.6
1754.105	48.6
1758.501	42.6
1762.893	40.6
1767.28	44.6
1771.663	43.6
1776.042	42.6
1780.417	41.6
1784.787	46.6
1789.154	44.6
1793.516	42.6
1797.874	44.6
1802.228	42.6
1806.578	38.6
1810.924	46.6
1815.266	42.6
1819.603	37.6
1823.937	41.6
1828.266	40.6
1832.591	39.6
1836.913	38.6
1841.23	40.6
1845.543	38.6
1849.852	38.6
1854.156	40.6
1858.457	43.6
1862.754	42.6
1867.047	39.6
1871.335	39.6
1875.62	36.6
1879.9	36.6
1884.177	40.6
1888.449	35.6
1892.718	39.6
1896.982	37.6
1901.243	40.6
1905.499	40.6
1909.752	36.6
1914	37.6
1918.245	34.6
1922.485	32.6
1926.722	37.6
1930.954	40.6
1935.183	37.6
1939.408	38.6
1943.628	39.6
1947.845	39.6
1952.058	39.6
1956.267	31.6
1960.472	30.6
1964.673	29.6
1968.87	34.6
1973.063	34.6
1977.252	36.6
1981.438	35.6
1985.619	34.6
1989.797	30.6
1993.971	30.6
1998.14	25.6
2002.306	26.6
2006.469	25.6
2010.627	32.6
2014.781	31.6
2018.932	35.6
2023.078	31.6
2027.221	28.6
2031.36	27.6
2035.495	28.6
2039.627	23.6
2043.754	26.6
2047.878	30.6
2051.998	28.6
2056.114	29.6
2060.226	31.6
2064.334	24.6
2068.439	23.6
2072.54	20.6
2076.637	25.6
2080.73	25.6
2084.82	22.6
2088.906	30.6
2092.988	27.6
2097.066	27.6
2101.14	25.6
2105.211	25.6
2109.278	24.6
2113.342	24.6
2117.401	21.6
2121.457	21.6
2125.509	24.6
2129.558	20.6
2133.602	22.6
2137.643	19.6
2141.681	19.6
2145.714	21.6
2149.744	22.6
2153.77	21.6
2157.793	24.6
2161.812	23.6
2165.827	19.6
2169.838	19.6
2173.846	18.6
2177.851	17.6
2181.851	16.6
2185.848	21.6
2189.841	17.6
2193.831	16.6
2197.817	22.6
2201.799	12.6
2205.778	14.6
2209.753	14.6
2213.725	13.6
2217.693	16.6
2221.657	15.6
2225.618	15.6
2229.575	17.6
2233.529	19.6
2237.479	13.6
2241.425	13.6
2245.368	12.6
2249.307	12.6
2253.243	13.6
2257.175	13.6
2261.104	20.6
2265.029	12.6
2268.95	12.6
2272.868	7.6
2276.783	9.6
2280.694	10.6
2284.601	8.6
2288.505	12.6
2292.405	13.6
2296.302	14.6
2300.195	15.6
2304.085	13.6
2307.971	8.6
2311.854	8.6
2315.734	5.6
2319.609	6.6
2323.482	6.6
2327.351	8.6
2331.216	13.6
2335.078	13.6
2338.937	13.6
2342.792	5.6
2346.643	4.6
2350.492	9.6
2354.336	2.6
2358.178	3.6
2362.015	5.6
2365.85	10.6
2369.681	7.6
2373.508	7.6
2377.333	10.6
2381.153	7.6
2384.971	8.6
2388.785	7.6
2392.595	4.6
2396.402	5.6
2400.206	7.6
2404.007	7.6
2407.804	3.6
2411.597	6.6
2415.388	4.6
2419.174	6.6
2422.958	7.6
2426.738	4.6
2430.515	10.6
2434.289	6.6
2438.059	8.6
2441.825	4.6
2445.589	3.6
2449.349	6.6
2453.106	8.6
2456.859	8.6
2460.61	5.6
2464.356	8.6
2468.1	4.6
2471.84	4.6
2475.577	3.6
2479.311	3.6
2483.041	6.6
2486.768	7.6
2490.492	3.6
2494.213	4.6
2497.93	1.6
2501.644	2.6
2505.355	1.6
2509.062	4.6
2512.766	2.6
2516.467	3.6
2520.165	2.6
2523.859	5.6
2527.551	7.6
2531.239	5.6
2534.923	2.6
2538.605	1.6
2542.283	0.6
2545.958	3.6
2549.63	6.6
2553.299	8.6
2556.964	5.6
2560.626	7.6
2564.285	-0.4
2567.941	2.6
2571.594	1.6
2575.243	-0.4
2578.89	5.6
2582.533	6.6
2586.173	7.6
2589.809	5.6
2593.443	8.6
2597.073	9.6
2600.701	2.6
2604.325	2.6
2607.946	2.6
2611.564	4.6
2615.178	7.6
2618.79	9.6
2622.398	7.6
2626.004	7.6
2629.606	7.6
2633.205	6.6
2636.801	3.6
2640.394	2.6
2643.983	5.6
2647.57	5.6
2651.153	9.6
2654.734	9.6
2658.311	5.6
2661.885	8.6
2665.456	4.6
2669.025	7.6
2672.589	5.6
2676.151	5.6
2679.71	6.6
2683.266	4.6
2686.819	9.6
2690.368	6.6
2693.915	4.6
2697.458	6.6
2700.999	8.6
2704.536	6.6
2708.071	7.6
2711.602	7.6
2715.13	9.6
2718.656	10.6
2722.178	8.6
2725.697	12.6
2729.214	14.6
2732.727	12.6
2736.237	11.6
2739.744	13.6
2743.249	11.6
2746.75	7.6
2750.248	5.6
2753.743	5.6
2757.236	6.6
2760.725	5.6
2764.211	8.6
2767.695	7.6
2771.175	7.6
2774.652	9.6
2778.127	7.6
2781.598	5.6
2785.067	4.6
2788.532	2.6
2791.995	2.6
2795.455	8.6
2798.911	11.6
2802.365	8.6
2805.816	10.6
2809.264	10.6
2812.709	9.6
2816.151	12.6
2819.59	9.6
2823.026	13.6
2826.46	14.6
2829.89	24.6
2833.318	28.6
2836.742	37.6
2840.164	51.6
2843.583	51.6
2846.999	56.6
2850.412	57.6
2853.822	50.6
2857.229	51.6
2860.634	46.6
2864.035	55.6
2867.434	68.6
2870.83	86.6
2874.223	99.6
2877.613	104.6
2881	101.6
2884.385	115.6
2887.766	119.6
2891.145	119.6
2894.521	118.6
2897.894	108.6
2901.264	103.6
2904.631	100.6
2907.996	103.6
2911.358	98.6
2914.717	84.6
2918.073	77.6
2921.426	75.6
2924.777	73.6
2928.124	67.6
2931.469	66.6
2934.811	65.6
2938.15	54.6
2941.487	50.6
2944.821	47.6
2948.152	48.6
2951.48	51.6
2954.805	60.6
2958.128	61.6
2961.447	57.6
2964.765	53.6
2968.079	57.6
2971.39	46.6
2974.699	38.6
2978.005	27.6
2981.308	25.6
2984.609	22.6
2987.907	20.6
2991.202	17.6
2994.494	16.6
2997.784	14.6
3001.07	11.6
3004.355	6.6
3007.636	12.6
3010.915	10.6
3014.191	8.6
3017.464	7.6
3020.734	9.6
3024.002	6.6
3027.267	8.6
3030.53	3.6
3033.789	3.6
3037.046	-0.4
3040.301	4.6
3043.552	3.6
3046.801	6.6
3050.048	6.6
3053.291	6.6
3056.532	7.6
3059.771	8.6
3063.006	3.6
3066.239	2.6
3069.469	4.6
3072.697	5.6
3075.922	5.6
3079.144	10.6
3082.364	9.6
3085.581	6.6
3088.795	9.6
3092.007	4.6
3095.216	5.6
3098.423	2.6
3101.627	2.6
3104.828	7.6
3108.026	10.6
3111.222	12.6
3114.416	10.6
3117.607	13.6
3120.795	10.6
3123.98	11.6
3127.163	10.6
3130.344	8.6
3133.521	7.6
3136.696	8.6
3139.869	13.6
3143.039	14.6
3146.206	14.6
3149.371	13.6
3152.533	13.6
3155.693	12.6
3158.85	9.6
3162.005	7.6
3165.157	10.6
3168.306	7.6
3171.453	12.6
3174.597	11.6
3177.739	11.6
3180.878	12.6
3184.014	14.6
3187.149	9.6
3190.28	8.6
3193.409	8.6
3196.536	10.6
3199.659	11.6
3202.781	12.6
3205.9	15.6
3209.016	15.6
3212.13	9.6
3215.241	14.6
3218.35	15.6
3221.456	15.6
3224.56	12.6
3227.661	9.6
3230.76	12.6
3233.856	10.6
3236.95	10.6
3240.041	10.6
3243.13	7.6
3246.216	7.6
3249.3	14.6
3252.382	15.6
3255.46	9.6
3258.537	10.6
3261.611	9.6
3264.682	8.6
3267.751	9.6
3270.818	7.6
3273.882	9.6
3276.943	9.6
3280.002	9.6
3283.059	10.6
3286.113	9.6
3289.165	7.6
3292.214	5.6
3295.261	2.6
3298.306	6.6
3301.348	5.6
3304.387	5.6
3307.425	11.6
3310.459	7.6
3313.492	5.6
3316.521	7.6
3319.549	7.6
3322.574	5.6
3325.597	3.6
3328.617	1.6
3331.635	3.6
3334.65	5.6
3337.663	9.6
3340.674	8.6
3343.682	7.6
3346.688	6.6
3349.691	4.6
3352.692	3.6
3355.691	0.6
3358.687	-1.4
3361.681	4.6
3364.673	10.6
3367.662	7.6
3370.649	11.6
3373.633	7.6
3376.615	7.6
3379.595	-1.4
3382.572	2.6
3385.547	3.6
3388.52	-0.4
3391.49	5.6
3394.458	5.6
3397.424	6.6
3400.387	8.6
3403.348	2.6
3406.307	1.6
3409.263	6.6
3412.217	3.6
3415.168	1.6
3418.118	4.6
3421.065	6.6
3424.009	3.6
3426.951	4.6
3429.891	7.6
3432.829	0.6
3435.764	1.6
3438.697	-4.4
3441.628	-1.4
3444.557	2.6
3447.483	2.6
3450.407	3.6
3453.328	4.6
3456.247	-0.4
3459.164	1.6
3462.079	1.6
3464.991	1.6
3467.902	-1.4
3470.809	-1.4
3473.715	-1.4
3476.618	-1.4
3479.519	-2.4
3482.418	-0.4
3485.315	-1.4
3488.209	-0.4
3491.101	0.6
3493.99	-2.4
3496.878	-2.4
3499.763	-2.4
3502.646	-1.4
3505.527	-4.4
3508.405	-0.4
3511.281	-1.4
3514.155	-0.4
3517.027	0.6
3519.897	2.6
3522.764	-2.4
3525.629	-3.4
3528.492	-4.4
3531.352	-5.4
3534.211	-4.4
3537.067	-5.4
3539.921	-4.4
3542.773	-3.4
3545.622	0.6
3548.469	-4.4
3551.315	-0.4
3554.157	-3.4
3556.998	-3.4
3559.837	-8.4
3562.673	-6.4
3565.507	-5.4
3568.339	-0.4
3571.169	-1.4
3573.996	-1.4
3576.822	-2.4
3579.645	-6.4
3582.466	-5.4
3585.285	-2.4
3588.101	-7.4
3590.916	-1.4
3593.728	-2.4
3596.538	-2.4
3599.346	-3.4
3602.152	-3.4
3604.956	-6.4
3607.757	-5.4
3610.556	-4.4
3613.354	-5.4
3616.149	-8.4
3618.942	-5.4
3621.732	-2.4
3624.521	-1.4
3627.307	-2.4
3630.092	-7.4
3632.874	-5.4
3635.654	-6.4
3638.432	-12.4
3641.208	-8.4
3643.982	-3.4
3646.753	-2.4
3649.523	-5.4
3652.29	-6.4
3655.055	-6.4
3657.818	-5.4
3660.579	-4.4
3663.338	-6.4
3666.095	-5.4
3668.849	-4.4
3671.602	-4.4
3674.352	-0.4
3677.101	-6.4
3679.847	-9.4
3682.591	-5.4
3685.333	-8.4
3688.073	-5.4
3690.811	-4.4
3693.547	-5.4
3696.281	-7.4
3699.013	-4.4
3701.742	-6.4
3704.47	-6.4
3707.195	-7.4
3709.919	-7.4
3712.64	-7.4
3715.359	-6.4
3718.076	-6.4
3720.792	-8.4
3723.505	-7.4
3726.216	-6.4
3728.925	-6.4
3731.632	-6.4
3734.336	-7.4
3737.039	-1.4
3739.74	-6.4
3742.439	-7.4
3745.136	-9.4
3747.83	-7.4
3750.523	-5.4
3753.213	-3.4
3755.902	-3.4
3758.589	-4.4
3761.273	-4.4
3763.956	-6.4
3766.636	-6.4
3769.315	-7.4
3771.991	-9.4
3774.665	-8.4
3777.338	-6.4
3780.008	-5.4
3782.677	-5.4
3785.343	-4.4
3788.007	-6.4
3790.67	-3.4
3793.33	-7.4
3795.989	-6.4
3798.645	-11.4
3801.299	-7.4
3803.952	-5.4
3806.602	-4.4
3809.251	-2.4
3811.897	-3.4
3814.542	-4.4
3817.184	-5.4
3819.825	-11.4
3822.463	-9.4
3825.1	-10.4
3827.735	-8.4
3830.367	-6.4
3832.998	-4.4
3835.627	-2.4
3838.253	-1.4
3840.878	-7.4
3843.501	-5.4
3846.122	-7.4
3848.741	-9.4
3851.358	-6.4
3853.973	-4.4
3856.586	-9.4
3859.197	-2.4
3861.806	-8.4
3864.414	-5.4
3867.019	-6.4
3869.622	-8.4
3872.224	-8.4
3874.823	-6.4
3877.421	-5.4
3880.016	-4.4
3882.61	-5.4
3885.202	2.6
3887.792	-2.4
3890.38	-4.4
3892.966	-4.4
3895.55	-4.4
3898.132	-6.4
3900.713	-2.4
3903.291	-5.4
3905.868	-5.4
3908.442	-6.4
3911.015	-7.4
3913.586	-5.4
3916.155	-4.4
3918.722	-7.4
3921.287	-8.4
3923.85	-4.4
3926.411	-6.4
3928.971	-9.4
3931.528	-7.4
3934.084	-8.4
3936.638	-7.4
3939.19	-6.4
3941.74	-4.4
3944.288	-6.4
3946.834	-6.4
3949.378	-8.4
3951.921	-6.4
3954.462	-8.4
3957	-9.4
3959.537	-5.4
3962.072	-6.4
3964.606	-2.4
3967.137	-3.4
3969.667	-4.4
3972.194	-4.4
3974.72	-7.4
3977.244	-11.4
3979.766	-7.4
3982.286	-8.4
3984.805	-5.4
3987.321	-4.4
3989.836	-6.4
3992.349	-0.4
3994.86	-5.4
3997.369	-8.4
3999.877	-5.4
4002.382	-7.4
4004.886	-9.4
4007.388	-8.4
4009.888	-9.4
4012.386	-5.4
4014.883	-5.4
4017.377	-1.4
4019.87	-6.4
4022.361	-5.4
4024.85	-7.4
4027.338	-9.4
4029.823	-9.4
4032.307	-5.4
4034.789	-6.4
4037.269	-4.4
4039.747	-4.4
4042.224	-2.4
4044.699	-6.4
4047.172	-7.4
4049.643	-8.4
4052.112	-9.4
4054.58	-10.4
4057.046	-9.4
4059.51	-4.4
4061.972	-5.4
4064.432	-7.4
4066.891	-4.4
4069.348	-4.4
4071.803	-5.4
4074.256	-11.4
4076.708	-3.4
4079.158	-2.4
4081.606	-8.4
4084.052	-5.4
4086.497	-7.4
4088.939	-6.4
4091.38	-5.4
4093.819	-6.4
4096.257	-7.4
4098.693	-8.4
4101.127	-6.4
4103.559	-6.4
4105.989	-0.4
4108.418	-0.4
4110.845	-0.4
4113.27	1.6
4115.694	0.6
4118.115	-0.4
4120.535	-7.4
4122.954	-5.4
4125.37	-9.4
4127.785	-9.4
4130.198	-5.4
4132.609	-6.4
4135.019	-6.4
4137.427	-5.4
4139.833	-6.4
4142.237	-7.4
