Data from 0_n=2_RamanShift_02.txt Node
Date: Mon Mar 19 12:01:39 IST 2018
User: aro
Spectrometer: QEPB0276
Trigger mode: 0
Integration Time (sec): 5.000000E0
Scans to average: 1
Electric dark correction enabled: true
Nonlinearity correction enabled: false
Boxcar width: 0
XAxis mode: Raman Shifts
Number of Pixels in Spectrum: 1044
>>>>>Begin Spectral Data<<<<<
160.701	-1.6
166.742	0.4
172.777	10.4
178.805	21.4
184.826	44.4
190.841	86.4
196.849	140.4
202.85	176.4
208.845	196.4
214.833	202.4
220.815	201.4
226.789	203.4
232.758	204.4
238.719	208.4
244.674	206.4
250.623	205.4
256.565	210.4
262.5	207.4
268.429	200.4
274.351	198.4
280.267	194.4
286.176	197.4
292.079	194.4
297.975	191.4
303.865	196.4
309.748	194.4
315.625	198.4
321.495	201.4
327.359	207.4
333.217	208.4
339.068	203.4
344.912	202.4
350.751	198.4
356.583	186.4
362.408	181.4
368.227	192.4
374.04	197.4
379.847	195.4
385.647	209.4
391.44	225.4
397.228	241.4
403.009	274.4
408.784	266.4
414.553	252.4
420.315	245.4
426.071	244.4
431.821	223.4
437.565	206.4
443.302	206.4
449.033	212.4
454.758	215.4
460.477	211.4
466.189	204.4
471.896	201.4
477.596	190.4
483.29	186.4
488.978	178.4
494.66	186.4
500.335	185.4
506.005	174.4
511.668	161.4
517.325	163.4
522.977	161.4
528.622	163.4
534.261	163.4
539.894	162.4
545.521	150.4
551.141	147.4
556.756	144.4
562.365	138.4
567.968	132.4
573.565	133.4
579.155	131.4
584.74	127.4
590.319	125.4
595.892	125.4
601.459	129.4
607.02	126.4
612.575	121.4
618.124	123.4
623.667	124.4
629.204	122.4
634.735	118.4
640.261	118.4
645.781	120.4
651.294	126.4
656.802	127.4
662.304	124.4
667.8	118.4
673.29	115.4
678.775	114.4
684.254	107.4
689.726	106.4
695.193	114.4
700.655	105.4
706.11	114.4
711.56	109.4
717.004	108.4
722.442	105.4
727.874	107.4
733.301	101.4
738.722	102.4
744.137	103.4
749.547	105.4
754.951	106.4
760.349	113.4
765.741	115.4
771.128	116.4
776.509	113.4
781.885	114.4
787.254	122.4
792.618	117.4
797.977	128.4
803.33	156.4
808.677	191.4
814.019	231.4
819.355	230.4
824.686	185.4
830.011	155.4
835.33	162.4
840.644	189.4
845.952	195.4
851.255	192.4
856.552	160.4
861.844	131.4
867.13	126.4
872.41	118.4
877.686	115.4
882.955	105.4
888.219	104.4
893.478	99.4
898.731	111.4
903.979	107.4
909.221	114.4
914.458	105.4
919.69	102.4
924.916	99.4
930.136	97.4
935.351	102.4
940.561	108.4
945.766	116.4
950.965	111.4
956.158	111.4
961.347	104.4
966.529	111.4
971.707	124.4
976.879	138.4
982.046	143.4
987.208	119.4
992.364	111.4
997.515	112.4
1002.66	132.4
1007.801	128.4
1012.936	109.4
1018.066	105.4
1023.19	106.4
1028.309	105.4
1033.423	110.4
1038.532	125.4
1043.636	133.4
1048.734	127.4
1053.827	114.4
1058.915	100.4
1063.998	93.4
1069.075	90.4
1074.147	91.4
1079.214	83.4
1084.276	92.4
1089.333	90.4
1094.385	93.4
1099.431	96.4
1104.472	93.4
1109.509	97.4
1114.54	92.4
1119.565	91.4
1124.586	94.4
1129.602	89.4
1134.613	88.4
1139.618	95.4
1144.619	105.4
1149.614	129.4
1154.604	159.4
1159.589	189.4
1164.57	180.4
1169.545	165.4
1174.515	153.4
1179.48	131.4
1184.44	111.4
1189.395	90.4
1194.345	94.4
1199.29	85.4
1204.23	85.4
1209.165	88.4
1214.095	99.4
1219.021	106.4
1223.941	124.4
1228.856	121.4
1233.766	106.4
1238.672	98.4
1243.572	88.4
1248.467	86.4
1253.358	84.4
1258.244	89.4
1263.124	86.4
1268	83.4
1272.871	79.4
1277.737	84.4
1282.599	84.4
1287.455	81.4
1292.306	88.4
1297.153	91.4
1301.995	92.4
1306.832	97.4
1311.664	97.4
1316.491	96.4
1321.314	107.4
1326.132	133.4
1330.945	159.4
1335.753	184.4
1340.556	173.4
1345.354	127.4
1350.148	101.4
1354.937	92.4
1359.722	108.4
1364.501	116.4
1369.276	118.4
1374.046	102.4
1378.811	92.4
1383.572	82.4
1388.327	75.4
1393.079	72.4
1397.825	69.4
1402.567	67.4
1407.304	68.4
1412.036	63.4
1416.764	61.4
1421.487	64.4
1426.205	72.4
1430.919	72.4
1435.628	100.4
1440.333	121.4
1445.032	126.4
1449.727	133.4
1454.418	156.4
1459.104	181.4
1463.785	221.4
1468.462	205.4
1473.134	156.4
1477.802	114.4
1482.465	87.4
1487.123	74.4
1491.777	70.4
1496.426	64.4
1501.071	62.4
1505.711	57.4
1510.347	56.4
1514.978	57.4
1519.604	57.4
1524.226	56.4
1528.844	63.4
1533.457	60.4
1538.065	62.4
1542.669	58.4
1547.269	51.4
1551.864	51.4
1556.454	54.4
1561.041	48.4
1565.622	50.4
1570.199	51.4
1574.772	52.4
1579.34	51.4
1583.904	57.4
1588.464	51.4
1593.019	53.4
1597.569	52.4
1602.115	52.4
1606.657	50.4
1611.195	51.4
1615.728	52.4
1620.256	55.4
1624.78	52.4
1629.3	54.4
1633.816	53.4
1638.327	56.4
1642.834	49.4
1647.336	48.4
1651.834	47.4
1656.328	46.4
1660.817	53.4
1665.302	52.4
1669.783	50.4
1674.259	52.4
1678.732	51.4
1683.199	41.4
1687.663	41.4
1692.122	40.4
1696.577	42.4
1701.028	46.4
1705.474	39.4
1709.917	45.4
1714.355	44.4
1718.788	43.4
1723.218	42.4
1727.643	39.4
1732.064	41.4
1736.481	38.4
1740.893	33.4
1745.301	41.4
1749.705	37.4
1754.105	40.4
1758.501	31.4
1762.893	35.4
1767.28	35.4
1771.663	34.4
1776.042	28.4
1780.417	34.4
1784.787	34.4
1789.154	33.4
1793.516	33.4
1797.874	35.4
1802.228	33.4
1806.578	33.4
1810.924	36.4
1815.266	32.4
1819.603	32.4
1823.937	31.4
1828.266	31.4
1832.591	28.4
1836.913	27.4
1841.23	29.4
1845.543	31.4
1849.852	29.4
1854.156	26.4
1858.457	31.4
1862.754	32.4
1867.047	30.4
1871.335	31.4
1875.62	29.4
1879.9	28.4
1884.177	29.4
1888.449	21.4
1892.718	29.4
1896.982	27.4
1901.243	33.4
1905.499	29.4
1909.752	26.4
1914	24.4
1918.245	24.4
1922.485	19.4
1926.722	24.4
1930.954	24.4
1935.183	25.4
1939.408	30.4
1943.628	30.4
1947.845	31.4
1952.058	29.4
1956.267	25.4
1960.472	21.4
1964.673	23.4
1968.87	18.4
1973.063	24.4
1977.252	23.4
1981.438	23.4
1985.619	24.4
1989.797	22.4
1993.971	20.4
1998.14	22.4
2002.306	18.4
2006.469	26.4
2010.627	19.4
2014.781	26.4
2018.932	24.4
2023.078	19.4
2027.221	22.4
2031.36	20.4
2035.495	22.4
2039.627	17.4
2043.754	16.4
2047.878	25.4
2051.998	18.4
2056.114	18.4
2060.226	23.4
2064.334	16.4
2068.439	17.4
2072.54	17.4
2076.637	19.4
2080.73	20.4
2084.82	19.4
2088.906	21.4
2092.988	19.4
2097.066	17.4
2101.14	19.4
2105.211	16.4
2109.278	18.4
2113.342	17.4
2117.401	19.4
2121.457	17.4
2125.509	20.4
2129.558	18.4
2133.602	18.4
2137.643	13.4
2141.681	12.4
2145.714	15.4
2149.744	18.4
2153.77	14.4
2157.793	19.4
2161.812	18.4
2165.827	14.4
2169.838	9.4
2173.846	10.4
2177.851	11.4
2181.851	12.4
2185.848	10.4
2189.841	14.4
2193.831	11.4
2197.817	18.4
2201.799	15.4
2205.778	10.4
2209.753	8.4
2213.725	10.4
2217.693	8.4
2221.657	10.4
2225.618	10.4
2229.575	14.4
2233.529	15.4
2237.479	11.4
2241.425	8.4
2245.368	9.4
2249.307	8.4
2253.243	11.4
2257.175	7.4
2261.104	12.4
2265.029	8.4
2268.95	8.4
2272.868	10.4
2276.783	10.4
2280.694	11.4
2284.601	8.4
2288.505	10.4
2292.405	9.4
2296.302	8.4
2300.195	7.4
2304.085	3.4
2307.971	9.4
2311.854	3.4
2315.734	9.4
2319.609	9.4
2323.482	10.4
2327.351	9.4
2331.216	8.4
2335.078	7.4
2338.937	9.4
2342.792	0.4
2346.643	3.4
2350.492	8.4
2354.336	5.4
2358.178	3.4
2362.015	4.4
2365.85	8.4
2369.681	9.4
2373.508	0.4
2377.333	1.4
2381.153	4.4
2384.971	7.4
2388.785	7.4
2392.595	10.4
2396.402	10.4
2400.206	6.4
2404.007	7.4
2407.804	0.4
2411.597	5.4
2415.388	2.4
2419.174	5.4
2422.958	8.4
2426.738	3.4
2430.515	11.4
2434.289	6.4
2438.059	4.4
2441.825	-4.6
2445.589	2.4
2449.349	-0.6
2453.106	5.4
2456.859	8.4
2460.61	7.4
2464.356	11.4
2468.1	9.4
2471.84	3.4
2475.577	2.4
2479.311	-0.6
2483.041	3.4
2486.768	2.4
2490.492	4.4
2494.213	3.4
2497.93	3.4
2501.644	5.4
2505.355	3.4
2509.062	1.4
2512.766	3.4
2516.467	-1.6
2520.165	0.4
2523.859	1.4
2527.551	1.4
2531.239	5.4
2534.923	6.4
2538.605	2.4
2542.283	3.4
2545.958	6.4
2549.63	5.4
2553.299	0.4
2556.964	3.4
2560.626	2.4
2564.285	-1.6
2567.941	4.4
2571.594	2.4
2575.243	0.4
2578.89	3.4
2582.533	3.4
2586.173	4.4
2589.809	3.4
2593.443	5.4
2597.073	3.4
2600.701	4.4
2604.325	4.4
2607.946	5.4
2611.564	6.4
2615.178	8.4
2618.79	6.4
2622.398	6.4
2626.004	2.4
2629.606	0.4
2633.205	1.4
2636.801	4.4
2640.394	4.4
2643.983	7.4
2647.57	7.4
2651.153	7.4
2654.734	3.4
2658.311	2.4
2661.885	1.4
2665.456	0.4
2669.025	3.4
2672.589	6.4
2676.151	6.4
2679.71	9.4
2683.266	3.4
2686.819	10.4
2690.368	7.4
2693.915	1.4
2697.458	1.4
2700.999	5.4
2704.536	7.4
2708.071	10.4
2711.602	12.4
2715.13	12.4
2718.656	7.4
2722.178	10.4
2725.697	6.4
2729.214	11.4
2732.727	8.4
2736.237	10.4
2739.744	9.4
2743.249	10.4
2746.75	9.4
2750.248	6.4
2753.743	5.4
2757.236	2.4
2760.725	4.4
2764.211	5.4
2767.695	2.4
2771.175	5.4
2774.652	8.4
2778.127	6.4
2781.598	8.4
2785.067	4.4
2788.532	2.4
2791.995	6.4
2795.455	3.4
2798.911	4.4
2802.365	4.4
2805.816	5.4
2809.264	7.4
2812.709	9.4
2816.151	10.4
2819.59	11.4
2823.026	12.4
2826.46	13.4
2829.89	18.4
2833.318	22.4
2836.742	25.4
2840.164	41.4
2843.583	44.4
2846.999	48.4
2850.412	48.4
2853.822	43.4
2857.229	37.4
2860.634	39.4
2864.035	48.4
2867.434	61.4
2870.83	68.4
2874.223	80.4
2877.613	82.4
2881	86.4
2884.385	96.4
2887.766	100.4
2891.145	104.4
2894.521	100.4
2897.894	91.4
2901.264	83.4
2904.631	79.4
2907.996	82.4
2911.358	76.4
2914.717	69.4
2918.073	68.4
2921.426	59.4
2924.777	57.4
2928.124	60.4
2931.469	52.4
2934.811	48.4
2938.15	43.4
2941.487	40.4
2944.821	39.4
2948.152	41.4
2951.48	40.4
2954.805	54.4
2958.128	52.4
2961.447	44.4
2964.765	47.4
2968.079	45.4
2971.39	35.4
2974.699	31.4
2978.005	22.4
2981.308	23.4
2984.609	16.4
2987.907	18.4
2991.202	16.4
2994.494	13.4
2997.784	13.4
3001.07	10.4
3004.355	7.4
3007.636	9.4
3010.915	6.4
3014.191	7.4
3017.464	7.4
3020.734	9.4
3024.002	7.4
3027.267	9.4
3030.53	8.4
3033.789	6.4
3037.046	-1.6
3040.301	3.4
3043.552	4.4
3046.801	7.4
3050.048	3.4
3053.291	9.4
3056.532	8.4
3059.771	9.4
3063.006	3.4
3066.239	2.4
3069.469	9.4
3072.697	3.4
3075.922	2.4
3079.144	3.4
3082.364	10.4
3085.581	9.4
3088.795	10.4
3092.007	9.4
3095.216	9.4
3098.423	6.4
3101.627	6.4
3104.828	8.4
3108.026	8.4
3111.222	6.4
3114.416	9.4
3117.607	10.4
3120.795	9.4
3123.98	12.4
3127.163	10.4
3130.344	11.4
3133.521	10.4
3136.696	12.4
3139.869	13.4
3143.039	16.4
3146.206	10.4
3149.371	7.4
3152.533	12.4
3155.693	8.4
3158.85	7.4
3162.005	12.4
3165.157	8.4
3168.306	12.4
3171.453	13.4
3174.597	15.4
3177.739	10.4
3180.878	11.4
3184.014	12.4
3187.149	12.4
3190.28	11.4
3193.409	11.4
3196.536	9.4
3199.659	14.4
3202.781	14.4
3205.9	18.4
3209.016	10.4
3212.13	14.4
3215.241	12.4
3218.35	14.4
3221.456	9.4
3224.56	16.4
3227.661	10.4
3230.76	15.4
3233.856	15.4
3236.95	15.4
3240.041	9.4
3243.13	7.4
3246.216	7.4
3249.3	15.4
3252.382	10.4
3255.46	14.4
3258.537	11.4
3261.611	13.4
3264.682	13.4
3267.751	8.4
3270.818	4.4
3273.882	5.4
3276.943	7.4
3280.002	6.4
3283.059	8.4
3286.113	12.4
3289.165	9.4
3292.214	9.4
3295.261	5.4
3298.306	6.4
3301.348	4.4
3304.387	6.4
3307.425	5.4
3310.459	8.4
3313.492	4.4
3316.521	10.4
3319.549	10.4
3322.574	10.4
3325.597	6.4
3328.617	6.4
3331.635	8.4
3334.65	4.4
3337.663	5.4
3340.674	6.4
3343.682	6.4
3346.688	10.4
3349.691	9.4
3352.692	10.4
3355.691	5.4
3358.687	3.4
3361.681	4.4
3364.673	7.4
3367.662	4.4
3370.649	9.4
3373.633	6.4
3376.615	8.4
3379.595	2.4
3382.572	6.4
3385.547	5.4
3388.52	3.4
3391.49	8.4
3394.458	6.4
3397.424	3.4
3400.387	5.4
3403.348	1.4
3406.307	3.4
3409.263	6.4
3412.217	6.4
3415.168	6.4
3418.118	7.4
3421.065	9.4
3424.009	3.4
3426.951	1.4
3429.891	3.4
3432.829	1.4
3435.764	4.4
3438.697	-1.6
3441.628	3.4
3444.557	4.4
3447.483	3.4
3450.407	5.4
3453.328	6.4
3456.247	-2.6
3459.164	3.4
3462.079	0.4
3464.991	0.4
3467.902	-0.6
3470.809	3.4
3473.715	3.4
3476.618	4.4
3479.519	-2.6
3482.418	-1.6
3485.315	0.4
3488.209	-0.6
3491.101	-0.6
3493.99	-3.6
3496.878	-0.6
3499.763	1.4
3502.646	4.4
3505.527	1.4
3508.405	-0.6
3511.281	-1.6
3514.155	-2.6
3517.027	0.4
3519.897	-1.6
3522.764	-0.6
3525.629	-2.6
3528.492	1.4
3531.352	-1.6
3534.211	-0.6
3537.067	-4.6
3539.921	-1.6
3542.773	-5.6
3545.622	-3.6
3548.469	-5.6
3551.315	-1.6
3554.157	-4.6
3556.998	0.4
3559.837	-6.6
3562.673	-3.6
3565.507	-5.6
3568.339	-0.6
3571.169	-4.6
3573.996	-1.6
3576.822	-6.6
3579.645	-6.6
3582.466	-2.6
3585.285	-1.6
3588.101	-5.6
3590.916	-2.6
3593.728	-4.6
3596.538	-0.6
3599.346	-7.6
3602.152	-6.6
3604.956	-7.6
3607.757	-4.6
3610.556	-6.6
3613.354	-0.6
3616.149	-3.6
3618.942	-1.6
3621.732	-2.6
3624.521	-2.6
3627.307	-3.6
3630.092	-7.6
3632.874	-8.6
3635.654	-4.6
3638.432	-6.6
3641.208	-0.6
3643.982	-0.6
3646.753	0.4
3649.523	-8.6
3652.29	-0.6
3655.055	-10.6
3657.818	-6.6
3660.579	-3.6
3663.338	-6.6
3666.095	-5.6
3668.849	-1.6
3671.602	-3.6
3674.352	0.4
3677.101	-6.6
3679.847	-6.6
3682.591	-7.6
3685.333	-8.6
3688.073	-7.6
3690.811	-2.6
3693.547	-3.6
3696.281	-4.6
3699.013	-2.6
3701.742	-4.6
3704.47	-7.6
3707.195	-5.6
3709.919	-6.6
3712.64	-5.6
3715.359	-6.6
3718.076	-3.6
3720.792	-4.6
3723.505	-2.6
3726.216	-8.6
3728.925	-4.6
3731.632	-6.6
3734.336	-6.6
3737.039	-4.6
3739.74	-5.6
3742.439	-4.6
3745.136	-3.6
3747.83	-4.6
3750.523	-4.6
3753.213	-6.6
3755.902	-2.6
3758.589	-5.6
3761.273	-2.6
3763.956	-9.6
3766.636	-7.6
3769.315	-6.6
3771.991	-7.6
3774.665	-3.6
3777.338	-0.6
3780.008	-0.6
3782.677	-5.6
3785.343	-5.6
3788.007	-7.6
3790.67	-7.6
3793.33	-6.6
3795.989	-8.6
3798.645	-5.6
3801.299	-6.6
3803.952	-2.6
3806.602	-2.6
3809.251	-2.6
3811.897	-5.6
3814.542	-4.6
3817.184	-7.6
3819.825	-10.6
3822.463	-7.6
3825.1	-4.6
3827.735	-6.6
3830.367	-0.6
3832.998	-2.6
3835.627	-2.6
3838.253	-6.6
3840.878	-9.6
3843.501	-6.6
3846.122	-7.6
3848.741	-7.6
3851.358	-4.6
3853.973	-2.6
3856.586	-5.6
3859.197	-4.6
3861.806	-8.6
3864.414	-9.6
3867.019	-7.6
3869.622	-8.6
3872.224	-5.6
3874.823	-5.6
3877.421	-1.6
3880.016	-4.6
3882.61	1.4
3885.202	0.4
3887.792	-1.6
3890.38	-5.6
3892.966	-6.6
3895.55	-6.6
3898.132	-2.6
3900.713	-4.6
3903.291	-1.6
3905.868	-4.6
3908.442	-4.6
3911.015	-10.6
3913.586	-4.6
3916.155	-4.6
3918.722	-5.6
3921.287	-7.6
3923.85	-5.6
3926.411	-5.6
3928.971	-5.6
3931.528	-3.6
3934.084	-3.6
3936.638	-8.6
3939.19	-7.6
3941.74	-6.6
3944.288	-8.6
3946.834	-6.6
3949.378	-5.6
3951.921	-3.6
3954.462	-8.6
3957	-6.6
3959.537	-4.6
3962.072	-5.6
3964.606	-4.6
3967.137	-4.6
3969.667	-3.6
3972.194	-8.6
3974.72	-6.6
3977.244	-6.6
3979.766	-2.6
3982.286	-6.6
3984.805	-4.6
3987.321	-4.6
3989.836	-4.6
3992.349	-5.6
3994.86	-3.6
3997.369	-9.6
3999.877	-6.6
4002.382	-6.6
4004.886	-7.6
4007.388	-4.6
4009.888	-3.6
4012.386	-5.6
4014.883	-6.6
4017.377	-4.6
4019.87	-7.6
4022.361	-3.6
4024.85	-6.6
4027.338	-4.6
4029.823	-3.6
4032.307	-0.6
4034.789	-2.6
4037.269	-5.6
4039.747	-2.6
4042.224	-6.6
4044.699	-6.6
4047.172	-7.6
4049.643	-10.6
4052.112	-6.6
4054.58	-5.6
4057.046	-4.6
4059.51	-2.6
4061.972	-3.6
4064.432	-5.6
4066.891	-7.6
4069.348	-5.6
4071.803	-8.6
4074.256	-8.6
4076.708	-3.6
4079.158	-0.6
4081.606	-7.6
4084.052	0.4
4086.497	-4.6
4088.939	-3.6
4091.38	-3.6
4093.819	-8.6
4096.257	-9.6
4098.693	-7.6
4101.127	-4.6
4103.559	-1.6
4105.989	6.4
4108.418	4.4
4110.845	-0.6
4113.27	-1.6
4115.694	-2.6
4118.115	0.4
4120.535	-6.6
4122.954	-6.6
4125.37	-7.6
4127.785	-7.6
4130.198	-5.6
4132.609	-1.6
4135.019	-5.6
4137.427	-4.6
4139.833	-9.6
4142.237	-10.6
