Data from 0_n=5_RamanShift_02.txt Node
Date: Mon Mar 19 12:04:14 IST 2018
User: aro
Spectrometer: QEPB0276
Trigger mode: 0
Integration Time (sec): 5.000000E0
Scans to average: 1
Electric dark correction enabled: true
Nonlinearity correction enabled: false
Boxcar width: 0
XAxis mode: Raman Shifts
Number of Pixels in Spectrum: 1044
>>>>>Begin Spectral Data<<<<<
160.701	-1.6
166.742	2.4
172.777	8.4
178.805	23.4
184.826	50.4
190.841	98.4
196.849	162.4
202.85	210.4
208.845	223.4
214.833	215.4
220.815	218.4
226.789	226.4
232.758	213.4
238.719	220.4
244.674	223.4
250.623	212.4
256.565	216.4
262.5	211.4
268.429	212.4
274.351	203.4
280.267	208.4
286.176	198.4
292.079	200.4
297.975	196.4
303.865	198.4
309.748	194.4
315.625	197.4
321.495	198.4
327.359	208.4
333.217	201.4
339.068	200.4
344.912	197.4
350.751	193.4
356.583	193.4
362.408	198.4
368.227	187.4
374.04	195.4
379.847	201.4
385.647	204.4
391.44	219.4
397.228	235.4
403.009	252.4
408.784	261.4
414.553	254.4
420.315	244.4
426.071	243.4
431.821	225.4
437.565	208.4
443.302	206.4
449.033	212.4
454.758	214.4
460.477	210.4
466.189	210.4
471.896	199.4
477.596	192.4
483.29	179.4
488.978	182.4
494.66	183.4
500.335	185.4
506.005	172.4
511.668	167.4
517.325	164.4
522.977	158.4
528.622	160.4
534.261	157.4
539.894	150.4
545.521	153.4
551.141	145.4
556.756	140.4
562.365	139.4
567.968	132.4
573.565	134.4
579.155	128.4
584.74	125.4
590.319	129.4
595.892	124.4
601.459	127.4
607.02	122.4
612.575	127.4
618.124	128.4
623.667	122.4
629.204	111.4
634.735	114.4
640.261	116.4
645.781	117.4
651.294	126.4
656.802	124.4
662.304	124.4
667.8	123.4
673.29	117.4
678.775	115.4
684.254	111.4
689.726	104.4
695.193	111.4
700.655	110.4
706.11	111.4
711.56	104.4
717.004	113.4
722.442	106.4
727.874	104.4
733.301	101.4
738.722	101.4
744.137	106.4
749.547	109.4
754.951	110.4
760.349	106.4
765.741	112.4
771.128	115.4
776.509	109.4
781.885	112.4
787.254	117.4
792.618	120.4
797.977	123.4
803.33	143.4
808.677	173.4
814.019	196.4
819.355	196.4
824.686	166.4
830.011	140.4
835.33	142.4
840.644	165.4
845.952	180.4
851.255	175.4
856.552	147.4
861.844	125.4
867.13	111.4
872.41	113.4
877.686	103.4
882.955	92.4
888.219	100.4
893.478	103.4
898.731	102.4
903.979	103.4
909.221	104.4
914.458	99.4
919.69	92.4
924.916	93.4
930.136	95.4
935.351	97.4
940.561	100.4
945.766	108.4
950.965	104.4
956.158	103.4
961.347	93.4
966.529	104.4
971.707	107.4
976.879	124.4
982.046	125.4
987.208	107.4
992.364	100.4
997.515	102.4
1002.66	113.4
1007.801	114.4
1012.936	99.4
1018.066	97.4
1023.19	89.4
1028.309	95.4
1033.423	99.4
1038.532	115.4
1043.636	120.4
1048.734	117.4
1053.827	104.4
1058.915	94.4
1063.998	85.4
1069.075	86.4
1074.147	82.4
1079.214	82.4
1084.276	84.4
1089.333	90.4
1094.385	83.4
1099.431	96.4
1104.472	88.4
1109.509	88.4
1114.54	82.4
1119.565	80.4
1124.586	82.4
1129.602	77.4
1134.613	81.4
1139.618	90.4
1144.619	99.4
1149.614	119.4
1154.604	143.4
1159.589	161.4
1164.57	156.4
1169.545	140.4
1174.515	135.4
1179.48	110.4
1184.44	96.4
1189.395	84.4
1194.345	83.4
1199.29	83.4
1204.23	82.4
1209.165	86.4
1214.095	84.4
1219.021	97.4
1223.941	106.4
1228.856	103.4
1233.766	95.4
1238.672	90.4
1243.572	82.4
1248.467	84.4
1253.358	83.4
1258.244	82.4
1263.124	81.4
1268	78.4
1272.871	77.4
1277.737	74.4
1282.599	77.4
1287.455	76.4
1292.306	78.4
1297.153	83.4
1301.995	88.4
1306.832	84.4
1311.664	87.4
1316.491	91.4
1321.314	100.4
1326.132	113.4
1330.945	132.4
1335.753	150.4
1340.556	145.4
1345.354	108.4
1350.148	94.4
1354.937	94.4
1359.722	97.4
1364.501	99.4
1369.276	97.4
1374.046	92.4
1378.811	77.4
1383.572	70.4
1388.327	72.4
1393.079	64.4
1397.825	65.4
1402.567	60.4
1407.304	56.4
1412.036	60.4
1416.764	56.4
1421.487	62.4
1426.205	62.4
1430.919	67.4
1435.628	85.4
1440.333	104.4
1445.032	108.4
1449.727	117.4
1454.418	138.4
1459.104	165.4
1463.785	175.4
1468.462	171.4
1473.134	131.4
1477.802	95.4
1482.465	73.4
1487.123	66.4
1491.777	64.4
1496.426	62.4
1501.071	60.4
1505.711	59.4
1510.347	56.4
1514.978	54.4
1519.604	54.4
1524.226	52.4
1528.844	57.4
1533.457	50.4
1538.065	55.4
1542.669	53.4
1547.269	52.4
1551.864	51.4
1556.454	50.4
1561.041	50.4
1565.622	49.4
1570.199	51.4
1574.772	47.4
1579.34	49.4
1583.904	51.4
1588.464	54.4
1593.019	53.4
1597.569	54.4
1602.115	54.4
1606.657	52.4
1611.195	50.4
1615.728	48.4
1620.256	53.4
1624.78	53.4
1629.3	52.4
1633.816	54.4
1638.327	53.4
1642.834	50.4
1647.336	52.4
1651.834	51.4
1656.328	55.4
1660.817	56.4
1665.302	53.4
1669.783	51.4
1674.259	47.4
1678.732	49.4
1683.199	48.4
1687.663	46.4
1692.122	48.4
1696.577	39.4
1701.028	47.4
1705.474	43.4
1709.917	46.4
1714.355	40.4
1718.788	35.4
1723.218	35.4
1727.643	34.4
1732.064	38.4
1736.481	42.4
1740.893	35.4
1745.301	40.4
1749.705	36.4
1754.105	34.4
1758.501	33.4
1762.893	31.4
1767.28	27.4
1771.663	29.4
1776.042	30.4
1780.417	30.4
1784.787	34.4
1789.154	33.4
1793.516	34.4
1797.874	29.4
1802.228	30.4
1806.578	26.4
1810.924	27.4
1815.266	31.4
1819.603	26.4
1823.937	31.4
1828.266	30.4
1832.591	30.4
1836.913	27.4
1841.23	23.4
1845.543	20.4
1849.852	24.4
1854.156	22.4
1858.457	28.4
1862.754	31.4
1867.047	26.4
1871.335	29.4
1875.62	27.4
1879.9	29.4
1884.177	27.4
1888.449	24.4
1892.718	26.4
1896.982	21.4
1901.243	25.4
1905.499	23.4
1909.752	24.4
1914	26.4
1918.245	22.4
1922.485	23.4
1926.722	25.4
1930.954	20.4
1935.183	24.4
1939.408	24.4
1943.628	28.4
1947.845	29.4
1952.058	28.4
1956.267	23.4
1960.472	20.4
1964.673	24.4
1968.87	18.4
1973.063	21.4
1977.252	20.4
1981.438	17.4
1985.619	22.4
1989.797	22.4
1993.971	18.4
1998.14	26.4
2002.306	19.4
2006.469	20.4
2010.627	20.4
2014.781	22.4
2018.932	19.4
2023.078	18.4
2027.221	21.4
2031.36	16.4
2035.495	19.4
2039.627	19.4
2043.754	18.4
2047.878	21.4
2051.998	20.4
2056.114	19.4
2060.226	21.4
2064.334	11.4
2068.439	13.4
2072.54	18.4
2076.637	20.4
2080.73	19.4
2084.82	21.4
2088.906	22.4
2092.988	16.4
2097.066	13.4
2101.14	19.4
2105.211	14.4
2109.278	18.4
2113.342	16.4
2117.401	18.4
2121.457	18.4
2125.509	19.4
2129.558	16.4
2133.602	15.4
2137.643	12.4
2141.681	13.4
2145.714	12.4
2149.744	13.4
2153.77	13.4
2157.793	20.4
2161.812	16.4
2165.827	17.4
2169.838	13.4
2173.846	10.4
2177.851	11.4
2181.851	9.4
2185.848	14.4
2189.841	12.4
2193.831	9.4
2197.817	16.4
2201.799	14.4
2205.778	15.4
2209.753	8.4
2213.725	9.4
2217.693	10.4
2221.657	6.4
2225.618	11.4
2229.575	13.4
2233.529	17.4
2237.479	8.4
2241.425	9.4
2245.368	9.4
2249.307	6.4
2253.243	8.4
2257.175	5.4
2261.104	12.4
2265.029	7.4
2268.95	5.4
2272.868	8.4
2276.783	7.4
2280.694	10.4
2284.601	9.4
2288.505	8.4
2292.405	7.4
2296.302	7.4
2300.195	8.4
2304.085	4.4
2307.971	4.4
2311.854	7.4
2315.734	7.4
2319.609	4.4
2323.482	3.4
2327.351	4.4
2331.216	12.4
2335.078	7.4
2338.937	7.4
2342.792	2.4
2346.643	3.4
2350.492	5.4
2354.336	2.4
2358.178	5.4
2362.015	4.4
2365.85	4.4
2369.681	5.4
2373.508	1.4
2377.333	3.4
2381.153	7.4
2384.971	7.4
2388.785	9.4
2392.595	9.4
2396.402	7.4
2400.206	6.4
2404.007	-0.6
2407.804	-0.6
2411.597	2.4
2415.388	0.4
2419.174	7.4
2422.958	9.4
2426.738	2.4
2430.515	8.4
2434.289	4.4
2438.059	2.4
2441.825	-4.6
2445.589	-0.6
2449.349	0.4
2453.106	5.4
2456.859	7.4
2460.61	8.4
2464.356	8.4
2468.1	5.4
2471.84	3.4
2475.577	0.4
2479.311	-1.6
2483.041	-0.6
2486.768	0.4
2490.492	4.4
2494.213	7.4
2497.93	2.4
2501.644	3.4
2505.355	2.4
2509.062	1.4
2512.766	1.4
2516.467	0.4
2520.165	1.4
2523.859	0.4
2527.551	0.4
2531.239	3.4
2534.923	5.4
2538.605	2.4
2542.283	-2.6
2545.958	5.4
2549.63	0.4
2553.299	3.4
2556.964	3.4
2560.626	1.4
2564.285	-1.6
2567.941	2.4
2571.594	1.4
2575.243	0.4
2578.89	3.4
2582.533	2.4
2586.173	2.4
2589.809	0.4
2593.443	3.4
2597.073	5.4
2600.701	4.4
2604.325	2.4
2607.946	0.4
2611.564	5.4
2615.178	7.4
2618.79	-0.6
2622.398	0.4
2626.004	2.4
2629.606	5.4
2633.205	2.4
2636.801	1.4
2640.394	1.4
2643.983	3.4
2647.57	4.4
2651.153	6.4
2654.734	1.4
2658.311	0.4
2661.885	1.4
2665.456	1.4
2669.025	0.4
2672.589	7.4
2676.151	6.4
2679.71	7.4
2683.266	0.4
2686.819	7.4
2690.368	4.4
2693.915	1.4
2697.458	0.4
2700.999	4.4
2704.536	4.4
2708.071	7.4
2711.602	5.4
2715.13	11.4
2718.656	5.4
2722.178	5.4
2725.697	3.4
2729.214	6.4
2732.727	4.4
2736.237	4.4
2739.744	7.4
2743.249	11.4
2746.75	10.4
2750.248	5.4
2753.743	4.4
2757.236	4.4
2760.725	0.4
2764.211	1.4
2767.695	1.4
2771.175	1.4
2774.652	6.4
2778.127	4.4
2781.598	6.4
2785.067	2.4
2788.532	0.4
2791.995	4.4
2795.455	4.4
2798.911	0.4
2802.365	5.4
2805.816	3.4
2809.264	7.4
2812.709	6.4
2816.151	9.4
2819.59	7.4
2823.026	9.4
2826.46	10.4
2829.89	16.4
2833.318	16.4
2836.742	20.4
2840.164	33.4
2843.583	37.4
2846.999	35.4
2850.412	42.4
2853.822	37.4
2857.229	33.4
2860.634	29.4
2864.035	40.4
2867.434	43.4
2870.83	56.4
2874.223	64.4
2877.613	66.4
2881	70.4
2884.385	77.4
2887.766	78.4
2891.145	88.4
2894.521	80.4
2897.894	80.4
2901.264	71.4
2904.631	69.4
2907.996	64.4
2911.358	61.4
2914.717	56.4
2918.073	48.4
2921.426	49.4
2924.777	51.4
2928.124	46.4
2931.469	47.4
2934.811	41.4
2938.15	41.4
2941.487	38.4
2944.821	37.4
2948.152	30.4
2951.48	36.4
2954.805	35.4
2958.128	41.4
2961.447	36.4
2964.765	39.4
2968.079	42.4
2971.39	35.4
2974.699	28.4
2978.005	18.4
2981.308	18.4
2984.609	11.4
2987.907	13.4
2991.202	11.4
2994.494	14.4
2997.784	15.4
3001.07	13.4
3004.355	8.4
3007.636	10.4
3010.915	9.4
3014.191	8.4
3017.464	4.4
3020.734	13.4
3024.002	6.4
3027.267	14.4
3030.53	8.4
3033.789	8.4
3037.046	5.4
3040.301	8.4
3043.552	5.4
3046.801	7.4
3050.048	7.4
3053.291	10.4
3056.532	14.4
3059.771	13.4
3063.006	8.4
3066.239	7.4
3069.469	11.4
3072.697	8.4
3075.922	8.4
3079.144	10.4
3082.364	10.4
3085.581	12.4
3088.795	17.4
3092.007	13.4
3095.216	13.4
3098.423	11.4
3101.627	9.4
3104.828	16.4
3108.026	14.4
3111.222	12.4
3114.416	15.4
3117.607	19.4
3120.795	15.4
3123.98	21.4
3127.163	20.4
3130.344	14.4
3133.521	19.4
3136.696	18.4
3139.869	20.4
3143.039	19.4
3146.206	15.4
3149.371	17.4
3152.533	21.4
3155.693	22.4
3158.85	20.4
3162.005	21.4
3165.157	19.4
3168.306	17.4
3171.453	19.4
3174.597	25.4
3177.739	23.4
3180.878	20.4
3184.014	19.4
3187.149	15.4
3190.28	18.4
3193.409	17.4
3196.536	22.4
3199.659	24.4
3202.781	23.4
3205.9	26.4
3209.016	22.4
3212.13	19.4
3215.241	18.4
3218.35	24.4
3221.456	23.4
3224.56	23.4
3227.661	23.4
3230.76	24.4
3233.856	24.4
3236.95	25.4
3240.041	14.4
3243.13	15.4
3246.216	15.4
3249.3	18.4
3252.382	19.4
3255.46	21.4
3258.537	16.4
3261.611	21.4
3264.682	18.4
3267.751	16.4
3270.818	14.4
3273.882	17.4
3276.943	14.4
3280.002	15.4
3283.059	14.4
3286.113	20.4
3289.165	15.4
3292.214	17.4
3295.261	14.4
3298.306	15.4
3301.348	14.4
3304.387	11.4
3307.425	16.4
3310.459	14.4
3313.492	14.4
3316.521	17.4
3319.549	14.4
3322.574	15.4
3325.597	11.4
3328.617	7.4
3331.635	14.4
3334.65	11.4
3337.663	12.4
3340.674	14.4
3343.682	14.4
3346.688	16.4
3349.691	13.4
3352.692	14.4
3355.691	11.4
3358.687	8.4
3361.681	11.4
3364.673	13.4
3367.662	10.4
3370.649	14.4
3373.633	14.4
3376.615	15.4
3379.595	9.4
3382.572	15.4
3385.547	9.4
3388.52	9.4
3391.49	13.4
3394.458	8.4
3397.424	7.4
3400.387	13.4
3403.348	8.4
3406.307	8.4
3409.263	12.4
3412.217	9.4
3415.168	8.4
3418.118	10.4
3421.065	13.4
3424.009	8.4
3426.951	7.4
3429.891	11.4
3432.829	6.4
3435.764	11.4
3438.697	5.4
3441.628	4.4
3444.557	8.4
3447.483	7.4
3450.407	5.4
3453.328	7.4
3456.247	2.4
3459.164	5.4
3462.079	5.4
3464.991	5.4
3467.902	3.4
3470.809	7.4
3473.715	8.4
3476.618	6.4
3479.519	0.4
3482.418	2.4
3485.315	1.4
3488.209	1.4
3491.101	3.4
3493.99	0.4
3496.878	5.4
3499.763	4.4
3502.646	6.4
3505.527	-0.6
3508.405	2.4
3511.281	0.4
3514.155	-3.6
3517.027	4.4
3519.897	4.4
3522.764	0.4
3525.629	0.4
3528.492	1.4
3531.352	-1.6
3534.211	-0.6
3537.067	-6.6
3539.921	-2.6
3542.773	-1.6
3545.622	1.4
3548.469	0.4
3551.315	2.4
3554.157	-2.6
3556.998	2.4
3559.837	-5.6
3562.673	-5.6
3565.507	-4.6
3568.339	-1.6
3571.169	0.4
3573.996	-1.6
3576.822	-2.6
3579.645	-0.6
3582.466	0.4
3585.285	-1.6
3588.101	-6.6
3590.916	-3.6
3593.728	-2.6
3596.538	-5.6
3599.346	-2.6
3602.152	-2.6
3604.956	-3.6
3607.757	-2.6
3610.556	-2.6
3613.354	-0.6
3616.149	-5.6
3618.942	-3.6
3621.732	-2.6
3624.521	-1.6
3627.307	-2.6
3630.092	-5.6
3632.874	-4.6
3635.654	-4.6
3638.432	-6.6
3641.208	-4.6
3643.982	-4.6
3646.753	-4.6
3649.523	-6.6
3652.29	-5.6
3655.055	-4.6
3657.818	-3.6
3660.579	-2.6
3663.338	-4.6
3666.095	-2.6
3668.849	-3.6
3671.602	-4.6
3674.352	-1.6
3677.101	-7.6
3679.847	-8.6
3682.591	-3.6
3685.333	-1.6
3688.073	-4.6
3690.811	-0.6
3693.547	-2.6
3696.281	-6.6
3699.013	-6.6
3701.742	-7.6
3704.47	-8.6
3707.195	-4.6
3709.919	-6.6
3712.64	-4.6
3715.359	-0.6
3718.076	-2.6
3720.792	-3.6
3723.505	-5.6
3726.216	-7.6
3728.925	-5.6
3731.632	-6.6
3734.336	-5.6
3737.039	-6.6
3739.74	-4.6
3742.439	-3.6
3745.136	-3.6
3747.83	-3.6
3750.523	-5.6
3753.213	-9.6
3755.902	-4.6
3758.589	-6.6
3761.273	-5.6
3763.956	-3.6
3766.636	-4.6
3769.315	-4.6
3771.991	-7.6
3774.665	-2.6
3777.338	-6.6
3780.008	-5.6
3782.677	-7.6
3785.343	-6.6
3788.007	-5.6
3790.67	-1.6
3793.33	-3.6
3795.989	-6.6
3798.645	-6.6
3801.299	-4.6
3803.952	-4.6
3806.602	-5.6
3809.251	-2.6
3811.897	-3.6
3814.542	-3.6
3817.184	-5.6
3819.825	-5.6
3822.463	-7.6
3825.1	-6.6
3827.735	-10.6
3830.367	-4.6
3832.998	-6.6
3835.627	-4.6
3838.253	-2.6
3840.878	-6.6
3843.501	-2.6
3846.122	-4.6
3848.741	-4.6
3851.358	-4.6
3853.973	-3.6
3856.586	-8.6
3859.197	-8.6
3861.806	-7.6
3864.414	-7.6
3867.019	-5.6
3869.622	-7.6
3872.224	-6.6
3874.823	-6.6
3877.421	-3.6
3880.016	-5.6
3882.61	-4.6
3885.202	0.4
3887.792	-4.6
3890.38	-3.6
3892.966	-5.6
3895.55	-2.6
3898.132	-3.6
3900.713	-3.6
3903.291	-4.6
3905.868	-6.6
3908.442	-7.6
3911.015	-11.6
3913.586	-6.6
3916.155	-3.6
3918.722	-4.6
3921.287	-2.6
3923.85	-2.6
3926.411	-3.6
3928.971	-7.6
3931.528	-4.6
3934.084	-8.6
3936.638	-7.6
3939.19	-8.6
3941.74	-4.6
3944.288	-5.6
3946.834	-2.6
3949.378	-3.6
3951.921	-3.6
3954.462	-7.6
3957	-9.6
3959.537	-7.6
3962.072	-4.6
3964.606	-3.6
3967.137	-5.6
3969.667	-2.6
3972.194	-2.6
3974.72	-2.6
3977.244	-5.6
3979.766	-4.6
3982.286	-9.6
3984.805	-8.6
3987.321	-4.6
3989.836	-8.6
3992.349	-2.6
3994.86	0.4
3997.369	-6.6
3999.877	-3.6
4002.382	-7.6
4004.886	-6.6
4007.388	-5.6
4009.888	-9.6
4012.386	-3.6
4014.883	-8.6
4017.377	-5.6
4019.87	-5.6
4022.361	-3.6
4024.85	-6.6
4027.338	-5.6
4029.823	-4.6
4032.307	-6.6
4034.789	-5.6
4037.269	-6.6
4039.747	-5.6
4042.224	-4.6
4044.699	-6.6
4047.172	-4.6
4049.643	-6.6
4052.112	-6.6
4054.58	-4.6
4057.046	-8.6
4059.51	-3.6
4061.972	-3.6
4064.432	-4.6
4066.891	-5.6
4069.348	-4.6
4071.803	-7.6
4074.256	-9.6
4076.708	-2.6
4079.158	-2.6
4081.606	-7.6
4084.052	-3.6
4086.497	-5.6
4088.939	-2.6
4091.38	-6.6
4093.819	-7.6
4096.257	-8.6
4098.693	-6.6
4101.127	-6.6
4103.559	-2.6
4105.989	4.4
4108.418	0.4
4110.845	-0.6
4113.27	-1.6
4115.694	-1.6
4118.115	-2.6
4120.535	-5.6
4122.954	-3.6
4125.37	-8.6
4127.785	-5.6
4130.198	-3.6
4132.609	-2.6
4135.019	-3.6
4137.427	-7.6
4139.833	-9.6
4142.237	-11.6
