Data from 0_n=5_RamanShift_01.txt Node
Date: Mon Mar 19 12:04:09 IST 2018
User: aro
Spectrometer: QEPB0276
Trigger mode: 0
Integration Time (sec): 5.000000E0
Scans to average: 1
Electric dark correction enabled: true
Nonlinearity correction enabled: false
Boxcar width: 0
XAxis mode: Raman Shifts
Number of Pixels in Spectrum: 1044
>>>>>Begin Spectral Data<<<<<
160.701	-4.1
166.742	-0.1
172.777	10.9
178.805	24.9
184.826	51.9
190.841	101.9
196.849	169.9
202.85	208.9
208.845	220.9
214.833	221.9
220.815	220.9
226.789	221.9
232.758	225.9
238.719	217.9
244.674	225.9
250.623	222.9
256.565	214.9
262.5	213.9
268.429	216.9
274.351	202.9
280.267	207.9
286.176	198.9
292.079	201.9
297.975	199.9
303.865	192.9
309.748	194.9
315.625	202.9
321.495	201.9
327.359	208.9
333.217	205.9
339.068	205.9
344.912	203.9
350.751	193.9
356.583	197.9
362.408	190.9
368.227	189.9
374.04	195.9
379.847	204.9
385.647	209.9
391.44	222.9
397.228	233.9
403.009	254.9
408.784	251.9
414.553	245.9
420.315	243.9
426.071	247.9
431.821	234.9
437.565	209.9
443.302	197.9
449.033	204.9
454.758	215.9
460.477	207.9
466.189	213.9
471.896	192.9
477.596	191.9
483.29	182.9
488.978	188.9
494.66	184.9
500.335	183.9
506.005	177.9
511.668	168.9
517.325	164.9
522.977	156.9
528.622	160.9
534.261	158.9
539.894	159.9
545.521	144.9
551.141	139.9
556.756	136.9
562.365	137.9
567.968	130.9
573.565	133.9
579.155	129.9
584.74	125.9
590.319	122.9
595.892	128.9
601.459	128.9
607.02	128.9
612.575	128.9
618.124	124.9
623.667	121.9
629.204	123.9
634.735	118.9
640.261	117.9
645.781	117.9
651.294	132.9
656.802	127.9
662.304	124.9
667.8	116.9
673.29	110.9
678.775	111.9
684.254	110.9
689.726	111.9
695.193	117.9
700.655	108.9
706.11	109.9
711.56	110.9
717.004	110.9
722.442	108.9
727.874	105.9
733.301	97.9
738.722	107.9
744.137	102.9
749.547	103.9
754.951	103.9
760.349	111.9
765.741	112.9
771.128	113.9
776.509	108.9
781.885	113.9
787.254	118.9
792.618	116.9
797.977	121.9
803.33	142.9
808.677	170.9
814.019	203.9
819.355	198.9
824.686	160.9
830.011	140.9
835.33	150.9
840.644	158.9
845.952	179.9
851.255	169.9
856.552	147.9
861.844	126.9
867.13	115.9
872.41	110.9
877.686	99.9
882.955	99.9
888.219	99.9
893.478	96.9
898.731	101.9
903.979	103.9
909.221	107.9
914.458	99.9
919.69	95.9
924.916	91.9
930.136	96.9
935.351	99.9
940.561	96.9
945.766	102.9
950.965	102.9
956.158	96.9
961.347	100.9
966.529	102.9
971.707	107.9
976.879	121.9
982.046	121.9
987.208	109.9
992.364	97.9
997.515	101.9
1002.66	109.9
1007.801	106.9
1012.936	101.9
1018.066	93.9
1023.19	94.9
1028.309	98.9
1033.423	97.9
1038.532	109.9
1043.636	120.9
1048.734	116.9
1053.827	104.9
1058.915	88.9
1063.998	88.9
1069.075	83.9
1074.147	78.9
1079.214	84.9
1084.276	84.9
1089.333	87.9
1094.385	85.9
1099.431	85.9
1104.472	87.9
1109.509	85.9
1114.54	85.9
1119.565	87.9
1124.586	88.9
1129.602	81.9
1134.613	83.9
1139.618	85.9
1144.619	96.9
1149.614	114.9
1154.604	143.9
1159.589	159.9
1164.57	153.9
1169.545	138.9
1174.515	134.9
1179.48	115.9
1184.44	98.9
1189.395	82.9
1194.345	83.9
1199.29	82.9
1204.23	81.9
1209.165	78.9
1214.095	82.9
1219.021	97.9
1223.941	106.9
1228.856	105.9
1233.766	94.9
1238.672	90.9
1243.572	79.9
1248.467	81.9
1253.358	74.9
1258.244	80.9
1263.124	77.9
1268	76.9
1272.871	75.9
1277.737	79.9
1282.599	77.9
1287.455	74.9
1292.306	77.9
1297.153	78.9
1301.995	79.9
1306.832	83.9
1311.664	86.9
1316.491	84.9
1321.314	97.9
1326.132	112.9
1330.945	137.9
1335.753	162.9
1340.556	140.9
1345.354	114.9
1350.148	91.9
1354.937	83.9
1359.722	96.9
1364.501	98.9
1369.276	104.9
1374.046	89.9
1378.811	82.9
1383.572	70.9
1388.327	66.9
1393.079	69.9
1397.825	65.9
1402.567	59.9
1407.304	59.9
1412.036	55.9
1416.764	55.9
1421.487	62.9
1426.205	65.9
1430.919	70.9
1435.628	82.9
1440.333	100.9
1445.032	108.9
1449.727	112.9
1454.418	131.9
1459.104	156.9
1463.785	178.9
1468.462	172.9
1473.134	137.9
1477.802	94.9
1482.465	77.9
1487.123	69.9
1491.777	60.9
1496.426	58.9
1501.071	56.9
1505.711	54.9
1510.347	57.9
1514.978	52.9
1519.604	55.9
1524.226	52.9
1528.844	52.9
1533.457	55.9
1538.065	55.9
1542.669	53.9
1547.269	49.9
1551.864	47.9
1556.454	50.9
1561.041	49.9
1565.622	46.9
1570.199	50.9
1574.772	51.9
1579.34	52.9
1583.904	53.9
1588.464	50.9
1593.019	46.9
1597.569	48.9
1602.115	51.9
1606.657	54.9
1611.195	55.9
1615.728	51.9
1620.256	54.9
1624.78	53.9
1629.3	51.9
1633.816	54.9
1638.327	53.9
1642.834	51.9
1647.336	51.9
1651.834	47.9
1656.328	50.9
1660.817	51.9
1665.302	58.9
1669.783	52.9
1674.259	49.9
1678.732	48.9
1683.199	48.9
1687.663	45.9
1692.122	39.9
1696.577	43.9
1701.028	45.9
1705.474	44.9
1709.917	45.9
1714.355	42.9
1718.788	43.9
1723.218	37.9
1727.643	33.9
1732.064	34.9
1736.481	32.9
1740.893	32.9
1745.301	34.9
1749.705	35.9
1754.105	35.9
1758.501	33.9
1762.893	29.9
1767.28	25.9
1771.663	31.9
1776.042	25.9
1780.417	30.9
1784.787	30.9
1789.154	27.9
1793.516	31.9
1797.874	29.9
1802.228	26.9
1806.578	24.9
1810.924	31.9
1815.266	29.9
1819.603	25.9
1823.937	32.9
1828.266	23.9
1832.591	25.9
1836.913	23.9
1841.23	25.9
1845.543	26.9
1849.852	26.9
1854.156	23.9
1858.457	27.9
1862.754	28.9
1867.047	26.9
1871.335	29.9
1875.62	21.9
1879.9	24.9
1884.177	24.9
1888.449	23.9
1892.718	24.9
1896.982	23.9
1901.243	31.9
1905.499	25.9
1909.752	25.9
1914	20.9
1918.245	19.9
1922.485	22.9
1926.722	20.9
1930.954	22.9
1935.183	28.9
1939.408	25.9
1943.628	31.9
1947.845	22.9
1952.058	26.9
1956.267	20.9
1960.472	19.9
1964.673	20.9
1968.87	17.9
1973.063	23.9
1977.252	22.9
1981.438	21.9
1985.619	23.9
1989.797	20.9
1993.971	20.9
1998.14	15.9
2002.306	15.9
2006.469	17.9
2010.627	23.9
2014.781	20.9
2018.932	24.9
2023.078	20.9
2027.221	20.9
2031.36	16.9
2035.495	17.9
2039.627	14.9
2043.754	17.9
2047.878	19.9
2051.998	17.9
2056.114	18.9
2060.226	26.9
2064.334	20.9
2068.439	14.9
2072.54	13.9
2076.637	15.9
2080.73	16.9
2084.82	19.9
2088.906	18.9
2092.988	17.9
2097.066	18.9
2101.14	17.9
2105.211	19.9
2109.278	16.9
2113.342	12.9
2117.401	14.9
2121.457	14.9
2125.509	15.9
2129.558	13.9
2133.602	18.9
2137.643	12.9
2141.681	14.9
2145.714	14.9
2149.744	15.9
2153.77	13.9
2157.793	17.9
2161.812	13.9
2165.827	14.9
2169.838	5.9
2173.846	11.9
2177.851	10.9
2181.851	12.9
2185.848	13.9
2189.841	16.9
2193.831	6.9
2197.817	17.9
2201.799	10.9
2205.778	6.9
2209.753	8.9
2213.725	7.9
2217.693	8.9
2221.657	8.9
2225.618	12.9
2229.575	13.9
2233.529	11.9
2237.479	11.9
2241.425	8.9
2245.368	8.9
2249.307	5.9
2253.243	13.9
2257.175	12.9
2261.104	14.9
2265.029	8.9
2268.95	7.9
2272.868	7.9
2276.783	6.9
2280.694	4.9
2284.601	5.9
2288.505	7.9
2292.405	8.9
2296.302	6.9
2300.195	11.9
2304.085	4.9
2307.971	5.9
2311.854	3.9
2315.734	2.9
2319.609	3.9
2323.482	4.9
2327.351	4.9
2331.216	11.9
2335.078	7.9
2338.937	8.9
2342.792	3.9
2346.643	1.9
2350.492	2.9
2354.336	3.9
2358.178	-1.1
2362.015	4.9
2365.85	4.9
2369.681	1.9
2373.508	3.9
2377.333	2.9
2381.153	3.9
2384.971	4.9
2388.785	1.9
2392.595	3.9
2396.402	4.9
2400.206	6.9
2404.007	4.9
2407.804	4.9
2411.597	3.9
2415.388	2.9
2419.174	1.9
2422.958	7.9
2426.738	-1.1
2430.515	6.9
2434.289	0.9
2438.059	1.9
2441.825	-0.1
2445.589	3.9
2449.349	0.9
2453.106	3.9
2456.859	2.9
2460.61	3.9
2464.356	5.9
2468.1	1.9
2471.84	0.9
2475.577	3.9
2479.311	1.9
2483.041	4.9
2486.768	1.9
2490.492	1.9
2494.213	-1.1
2497.93	2.9
2501.644	-0.1
2505.355	0.9
2509.062	-3.1
2512.766	1.9
2516.467	-2.1
2520.165	3.9
2523.859	3.9
2527.551	0.9
2531.239	-0.1
2534.923	0.9
2538.605	-4.1
2542.283	-3.1
2545.958	4.9
2549.63	4.9
2553.299	2.9
2556.964	2.9
2560.626	-0.1
2564.285	-1.1
2567.941	2.9
2571.594	1.9
2575.243	-3.1
2578.89	0.9
2582.533	1.9
2586.173	4.9
2589.809	4.9
2593.443	3.9
2597.073	-0.1
2600.701	-2.1
2604.325	-3.1
2607.946	-1.1
2611.564	3.9
2615.178	2.9
2618.79	3.9
2622.398	3.9
2626.004	5.9
2629.606	0.9
2633.205	2.9
2636.801	3.9
2640.394	-2.1
2643.983	1.9
2647.57	2.9
2651.153	6.9
2654.734	6.9
2658.311	6.9
2661.885	4.9
2665.456	2.9
2669.025	2.9
2672.589	2.9
2676.151	1.9
2679.71	4.9
2683.266	0.9
2686.819	7.9
2690.368	4.9
2693.915	-0.1
2697.458	0.9
2700.999	4.9
2704.536	3.9
2708.071	3.9
2711.602	3.9
2715.13	4.9
2718.656	4.9
2722.178	5.9
2725.697	4.9
2729.214	8.9
2732.727	7.9
2736.237	9.9
2739.744	6.9
2743.249	9.9
2746.75	1.9
2750.248	3.9
2753.743	2.9
2757.236	5.9
2760.725	2.9
2764.211	4.9
2767.695	2.9
2771.175	1.9
2774.652	4.9
2778.127	-0.1
2781.598	4.9
2785.067	-0.1
2788.532	2.9
2791.995	2.9
2795.455	2.9
2798.911	4.9
2802.365	4.9
2805.816	6.9
2809.264	3.9
2812.709	1.9
2816.151	4.9
2819.59	3.9
2823.026	6.9
2826.46	8.9
2829.89	19.9
2833.318	17.9
2836.742	19.9
2840.164	32.9
2843.583	34.9
2846.999	36.9
2850.412	34.9
2853.822	33.9
2857.229	29.9
2860.634	31.9
2864.035	38.9
2867.434	50.9
2870.83	61.9
2874.223	61.9
2877.613	65.9
2881	59.9
2884.385	71.9
2887.766	80.9
2891.145	83.9
2894.521	78.9
2897.894	72.9
2901.264	70.9
2904.631	64.9
2907.996	68.9
2911.358	59.9
2914.717	55.9
2918.073	50.9
2921.426	45.9
2924.777	48.9
2928.124	46.9
2931.469	46.9
2934.811	42.9
2938.15	40.9
2941.487	36.9
2944.821	31.9
2948.152	28.9
2951.48	30.9
2954.805	37.9
2958.128	40.9
2961.447	38.9
2964.765	35.9
2968.079	43.9
2971.39	31.9
2974.699	28.9
2978.005	21.9
2981.308	18.9
2984.609	14.9
2987.907	14.9
2991.202	11.9
2994.494	11.9
2997.784	14.9
3001.07	13.9
3004.355	7.9
3007.636	10.9
3010.915	11.9
3014.191	11.9
3017.464	9.9
3020.734	10.9
3024.002	3.9
3027.267	8.9
3030.53	6.9
3033.789	8.9
3037.046	3.9
3040.301	7.9
3043.552	9.9
3046.801	8.9
3050.048	8.9
3053.291	7.9
3056.532	8.9
3059.771	10.9
3063.006	9.9
3066.239	8.9
3069.469	11.9
3072.697	9.9
3075.922	8.9
3079.144	15.9
3082.364	14.9
3085.581	8.9
3088.795	9.9
3092.007	10.9
3095.216	10.9
3098.423	11.9
3101.627	11.9
3104.828	16.9
3108.026	11.9
3111.222	15.9
3114.416	15.9
3117.607	16.9
3120.795	14.9
3123.98	14.9
3127.163	18.9
3130.344	15.9
3133.521	18.9
3136.696	19.9
3139.869	17.9
3143.039	19.9
3146.206	20.9
3149.371	19.9
3152.533	16.9
3155.693	18.9
3158.85	15.9
3162.005	19.9
3165.157	18.9
3168.306	16.9
3171.453	20.9
3174.597	21.9
3177.739	14.9
3180.878	18.9
3184.014	17.9
3187.149	15.9
3190.28	16.9
3193.409	17.9
3196.536	16.9
3199.659	24.9
3202.781	20.9
3205.9	26.9
3209.016	19.9
3212.13	18.9
3215.241	18.9
3218.35	19.9
3221.456	12.9
3224.56	16.9
3227.661	19.9
3230.76	22.9
3233.856	20.9
3236.95	23.9
3240.041	16.9
3243.13	15.9
3246.216	14.9
3249.3	19.9
3252.382	15.9
3255.46	18.9
3258.537	17.9
3261.611	21.9
3264.682	17.9
3267.751	19.9
3270.818	12.9
3273.882	15.9
3276.943	11.9
3280.002	13.9
3283.059	14.9
3286.113	14.9
3289.165	14.9
3292.214	16.9
3295.261	13.9
3298.306	16.9
3301.348	13.9
3304.387	13.9
3307.425	13.9
3310.459	16.9
3313.492	7.9
3316.521	12.9
3319.549	11.9
3322.574	13.9
3325.597	9.9
3328.617	11.9
3331.635	17.9
3334.65	11.9
3337.663	14.9
3340.674	15.9
3343.682	15.9
3346.688	10.9
3349.691	13.9
3352.692	11.9
3355.691	9.9
3358.687	9.9
3361.681	12.9
3364.673	16.9
3367.662	13.9
3370.649	18.9
3373.633	8.9
3376.615	11.9
3379.595	5.9
3382.572	11.9
3385.547	10.9
3388.52	10.9
3391.49	15.9
3394.458	11.9
3397.424	10.9
3400.387	9.9
3403.348	6.9
3406.307	5.9
3409.263	7.9
3412.217	10.9
3415.168	8.9
3418.118	9.9
3421.065	14.9
3424.009	11.9
3426.951	11.9
3429.891	6.9
3432.829	2.9
3435.764	7.9
3438.697	1.9
3441.628	6.9
3444.557	7.9
3447.483	9.9
3450.407	13.9
3453.328	11.9
3456.247	3.9
3459.164	5.9
3462.079	0.9
3464.991	1.9
3467.902	1.9
3470.809	6.9
3473.715	4.9
3476.618	6.9
3479.519	0.9
3482.418	4.9
3485.315	1.9
3488.209	-0.1
3491.101	-0.1
3493.99	-0.1
3496.878	-1.1
3499.763	1.9
3502.646	4.9
3505.527	1.9
3508.405	3.9
3511.281	-0.1
3514.155	-1.1
3517.027	0.9
3519.897	-0.1
3522.764	1.9
3525.629	-1.1
3528.492	-1.1
3531.352	0.9
3534.211	-0.1
3537.067	-6.1
3539.921	-2.1
3542.773	-2.1
3545.622	0.9
3548.469	-4.1
3551.315	-0.1
3554.157	-4.1
3556.998	-1.1
3559.837	-5.1
3562.673	-4.1
3565.507	-3.1
3568.339	-3.1
3571.169	-3.1
3573.996	-0.1
3576.822	-2.1
3579.645	-7.1
3582.466	-4.1
3585.285	-0.1
3588.101	-4.1
3590.916	0.9
3593.728	-1.1
3596.538	-3.1
3599.346	-7.1
3602.152	-5.1
3604.956	-6.1
3607.757	-4.1
3610.556	-5.1
3613.354	0.9
3616.149	-5.1
3618.942	-1.1
3621.732	-1.1
3624.521	-1.1
3627.307	-6.1
3630.092	-6.1
3632.874	-7.1
3635.654	-6.1
3638.432	-8.1
3641.208	-4.1
3643.982	-4.1
3646.753	-2.1
3649.523	-8.1
3652.29	-5.1
3655.055	-10.1
3657.818	-8.1
3660.579	-8.1
3663.338	-6.1
3666.095	-5.1
3668.849	-1.1
3671.602	-2.1
3674.352	0.9
3677.101	-7.1
3679.847	-5.1
3682.591	-8.1
3685.333	-8.1
3688.073	-8.1
3690.811	-4.1
3693.547	-0.1
3696.281	-5.1
3699.013	-5.1
3701.742	-6.1
3704.47	-8.1
3707.195	-7.1
3709.919	-10.1
3712.64	-7.1
3715.359	-8.1
3718.076	-5.1
3720.792	-5.1
3723.505	-4.1
3726.216	-5.1
3728.925	-3.1
3731.632	-6.1
3734.336	-8.1
3737.039	-8.1
3739.74	-6.1
3742.439	-6.1
3745.136	-5.1
3747.83	-6.1
3750.523	-7.1
3753.213	-8.1
3755.902	-6.1
3758.589	-7.1
3761.273	-7.1
3763.956	-7.1
3766.636	-7.1
3769.315	-10.1
3771.991	-5.1
3774.665	-5.1
3777.338	-2.1
3780.008	-4.1
3782.677	-5.1
3785.343	-9.1
3788.007	-6.1
3790.67	-7.1
3793.33	-6.1
3795.989	-5.1
3798.645	-8.1
3801.299	-6.1
3803.952	-4.1
3806.602	-5.1
3809.251	-5.1
3811.897	-8.1
3814.542	-5.1
3817.184	-9.1
3819.825	-8.1
3822.463	-7.1
3825.1	-4.1
3827.735	-6.1
3830.367	-1.1
3832.998	-5.1
3835.627	-1.1
3838.253	-6.1
3840.878	-9.1
3843.501	-7.1
3846.122	-6.1
3848.741	-5.1
3851.358	-4.1
3853.973	-2.1
3856.586	-6.1
3859.197	-3.1
3861.806	-10.1
3864.414	-7.1
3867.019	-8.1
3869.622	-10.1
3872.224	-8.1
3874.823	-3.1
3877.421	-1.1
3880.016	-4.1
3882.61	-1.1
3885.202	-0.1
3887.792	-4.1
3890.38	-7.1
3892.966	-8.1
3895.55	-5.1
3898.132	-6.1
3900.713	-4.1
3903.291	-2.1
3905.868	-5.1
3908.442	-6.1
3911.015	-8.1
3913.586	-7.1
3916.155	-7.1
3918.722	-6.1
3921.287	-6.1
3923.85	-3.1
3926.411	-2.1
3928.971	-6.1
3931.528	-6.1
3934.084	-6.1
3936.638	-6.1
3939.19	-9.1
3941.74	-5.1
3944.288	-9.1
3946.834	-4.1
3949.378	-2.1
3951.921	-5.1
3954.462	-7.1
3957	-8.1
3959.537	-4.1
3962.072	-6.1
3964.606	-5.1
3967.137	-10.1
3969.667	-6.1
3972.194	-6.1
3974.72	-6.1
3977.244	-5.1
3979.766	-2.1
3982.286	-6.1
3984.805	-3.1
3987.321	-7.1
3989.836	-5.1
3992.349	-6.1
3994.86	-3.1
3997.369	-6.1
3999.877	-4.1
4002.382	-6.1
4004.886	-8.1
4007.388	-6.1
4009.888	-10.1
4012.386	-5.1
4014.883	-9.1
4017.377	-6.1
4019.87	-6.1
4022.361	-3.1
4024.85	-5.1
4027.338	-5.1
4029.823	-7.1
4032.307	-2.1
4034.789	-4.1
4037.269	-5.1
4039.747	-6.1
4042.224	-8.1
4044.699	-9.1
4047.172	-7.1
4049.643	-5.1
4052.112	-6.1
4054.58	-7.1
4057.046	-7.1
4059.51	-5.1
4061.972	-7.1
4064.432	-7.1
4066.891	-7.1
4069.348	-5.1
4071.803	-7.1
4074.256	-10.1
4076.708	-3.1
4079.158	-2.1
4081.606	-6.1
4084.052	-2.1
4086.497	-6.1
4088.939	-4.1
4091.38	-3.1
4093.819	-6.1
4096.257	-9.1
4098.693	-7.1
4101.127	-9.1
4103.559	-3.1
4105.989	2.9
4108.418	1.9
4110.845	-0.1
4113.27	-1.1
4115.694	-5.1
4118.115	0.9
4120.535	-11.1
4122.954	-7.1
4125.37	-10.1
4127.785	-8.1
4130.198	-3.1
4132.609	-2.1
4135.019	-5.1
4137.427	-7.1
4139.833	-9.1
4142.237	-10.1
