Data from 1_n=5_RamanShift_02.txt Node
Date: Mon Mar 19 12:27:43 IST 2018
User: aro
Spectrometer: QEPB0276
Trigger mode: 0
Integration Time (sec): 5.000000E0
Scans to average: 1
Electric dark correction enabled: true
Nonlinearity correction enabled: false
Boxcar width: 0
XAxis mode: Raman Shifts
Number of Pixels in Spectrum: 1044
>>>>>Begin Spectral Data<<<<<
160.701	-3.5
166.742	-1.5
172.777	2.5
178.805	13.5
184.826	23.5
190.841	36.5
196.849	60.5
202.85	72.5
208.845	78.5
214.833	80.5
220.815	78.5
226.789	83.5
232.758	79.5
238.719	84.5
244.674	82.5
250.623	83.5
256.565	84.5
262.5	80.5
268.429	86.5
274.351	81.5
280.267	83.5
286.176	83.5
292.079	89.5
297.975	88.5
303.865	89.5
309.748	86.5
315.625	89.5
321.495	88.5
327.359	89.5
333.217	89.5
339.068	96.5
344.912	96.5
350.751	94.5
356.583	92.5
362.408	93.5
368.227	92.5
374.04	95.5
379.847	100.5
385.647	103.5
391.44	105.5
397.228	105.5
403.009	103.5
408.784	108.5
414.553	112.5
420.315	130.5
426.071	137.5
431.821	116.5
437.565	98.5
443.302	99.5
449.033	95.5
454.758	96.5
460.477	91.5
466.189	90.5
471.896	84.5
477.596	86.5
483.29	82.5
488.978	88.5
494.66	80.5
500.335	87.5
506.005	78.5
511.668	71.5
517.325	62.5
522.977	57.5
528.622	57.5
534.261	51.5
539.894	46.5
545.521	45.5
551.141	48.5
556.756	47.5
562.365	40.5
567.968	46.5
573.565	46.5
579.155	41.5
584.74	40.5
590.319	39.5
595.892	41.5
601.459	41.5
607.02	44.5
612.575	42.5
618.124	44.5
623.667	41.5
629.204	40.5
634.735	42.5
640.261	40.5
645.781	41.5
651.294	50.5
656.802	47.5
662.304	40.5
667.8	39.5
673.29	37.5
678.775	37.5
684.254	37.5
689.726	26.5
695.193	32.5
700.655	32.5
706.11	35.5
711.56	38.5
717.004	33.5
722.442	34.5
727.874	39.5
733.301	31.5
738.722	30.5
744.137	28.5
749.547	33.5
754.951	36.5
760.349	38.5
765.741	41.5
771.128	38.5
776.509	37.5
781.885	37.5
787.254	37.5
792.618	34.5
797.977	39.5
803.33	37.5
808.677	46.5
814.019	48.5
819.355	50.5
824.686	45.5
830.011	39.5
835.33	39.5
840.644	41.5
845.952	39.5
851.255	40.5
856.552	35.5
861.844	32.5
867.13	33.5
872.41	32.5
877.686	32.5
882.955	28.5
888.219	27.5
893.478	25.5
898.731	26.5
903.979	28.5
909.221	29.5
914.458	30.5
919.69	31.5
924.916	28.5
930.136	26.5
935.351	30.5
940.561	25.5
945.766	25.5
950.965	26.5
956.158	28.5
961.347	30.5
966.529	30.5
971.707	24.5
976.879	29.5
982.046	26.5
987.208	25.5
992.364	24.5
997.515	26.5
1002.66	29.5
1007.801	34.5
1012.936	28.5
1018.066	29.5
1023.19	24.5
1028.309	23.5
1033.423	27.5
1038.532	32.5
1043.636	30.5
1048.734	26.5
1053.827	26.5
1058.915	23.5
1063.998	28.5
1069.075	25.5
1074.147	25.5
1079.214	26.5
1084.276	25.5
1089.333	28.5
1094.385	24.5
1099.431	31.5
1104.472	21.5
1109.509	26.5
1114.54	25.5
1119.565	24.5
1124.586	25.5
1129.602	21.5
1134.613	22.5
1139.618	22.5
1144.619	25.5
1149.614	26.5
1154.604	28.5
1159.589	34.5
1164.57	34.5
1169.545	29.5
1174.515	29.5
1179.48	30.5
1184.44	26.5
1189.395	20.5
1194.345	24.5
1199.29	24.5
1204.23	24.5
1209.165	22.5
1214.095	20.5
1219.021	26.5
1223.941	29.5
1228.856	24.5
1233.766	24.5
1238.672	25.5
1243.572	22.5
1248.467	23.5
1253.358	21.5
1258.244	25.5
1263.124	22.5
1268	22.5
1272.871	20.5
1277.737	19.5
1282.599	19.5
1287.455	20.5
1292.306	21.5
1297.153	17.5
1301.995	22.5
1306.832	21.5
1311.664	22.5
1316.491	22.5
1321.314	22.5
1326.132	26.5
1330.945	24.5
1335.753	29.5
1340.556	28.5
1345.354	28.5
1350.148	24.5
1354.937	22.5
1359.722	24.5
1364.501	25.5
1369.276	23.5
1374.046	19.5
1378.811	17.5
1383.572	15.5
1388.327	17.5
1393.079	21.5
1397.825	17.5
1402.567	20.5
1407.304	16.5
1412.036	19.5
1416.764	14.5
1421.487	19.5
1426.205	12.5
1430.919	18.5
1435.628	17.5
1440.333	25.5
1445.032	24.5
1449.727	24.5
1454.418	30.5
1459.104	29.5
1463.785	30.5
1468.462	27.5
1473.134	28.5
1477.802	18.5
1482.465	17.5
1487.123	19.5
1491.777	21.5
1496.426	20.5
1501.071	18.5
1505.711	16.5
1510.347	14.5
1514.978	15.5
1519.604	16.5
1524.226	15.5
1528.844	18.5
1533.457	16.5
1538.065	23.5
1542.669	18.5
1547.269	12.5
1551.864	12.5
1556.454	14.5
1561.041	11.5
1565.622	10.5
1570.199	15.5
1574.772	12.5
1579.34	16.5
1583.904	16.5
1588.464	18.5
1593.019	12.5
1597.569	15.5
1602.115	16.5
1606.657	10.5
1611.195	15.5
1615.728	17.5
1620.256	17.5
1624.78	16.5
1629.3	17.5
1633.816	15.5
1638.327	16.5
1642.834	13.5
1647.336	10.5
1651.834	9.5
1656.328	15.5
1660.817	13.5
1665.302	15.5
1669.783	11.5
1674.259	12.5
1678.732	16.5
1683.199	13.5
1687.663	14.5
1692.122	12.5
1696.577	12.5
1701.028	18.5
1705.474	10.5
1709.917	12.5
1714.355	8.5
1718.788	11.5
1723.218	11.5
1727.643	9.5
1732.064	11.5
1736.481	13.5
1740.893	10.5
1745.301	15.5
1749.705	10.5
1754.105	11.5
1758.501	8.5
1762.893	11.5
1767.28	12.5
1771.663	10.5
1776.042	6.5
1780.417	11.5
1784.787	15.5
1789.154	9.5
1793.516	10.5
1797.874	10.5
1802.228	9.5
1806.578	7.5
1810.924	12.5
1815.266	13.5
1819.603	7.5
1823.937	11.5
1828.266	10.5
1832.591	8.5
1836.913	9.5
1841.23	7.5
1845.543	7.5
1849.852	10.5
1854.156	9.5
1858.457	10.5
1862.754	12.5
1867.047	7.5
1871.335	9.5
1875.62	6.5
1879.9	8.5
1884.177	13.5
1888.449	7.5
1892.718	11.5
1896.982	13.5
1901.243	12.5
1905.499	9.5
1909.752	6.5
1914	11.5
1918.245	4.5
1922.485	6.5
1926.722	8.5
1930.954	8.5
1935.183	10.5
1939.408	11.5
1943.628	11.5
1947.845	12.5
1952.058	11.5
1956.267	5.5
1960.472	4.5
1964.673	4.5
1968.87	4.5
1973.063	8.5
1977.252	10.5
1981.438	7.5
1985.619	11.5
1989.797	7.5
1993.971	3.5
1998.14	6.5
2002.306	5.5
2006.469	6.5
2010.627	6.5
2014.781	10.5
2018.932	10.5
2023.078	10.5
2027.221	11.5
2031.36	4.5
2035.495	7.5
2039.627	5.5
2043.754	3.5
2047.878	10.5
2051.998	6.5
2056.114	7.5
2060.226	12.5
2064.334	5.5
2068.439	4.5
2072.54	8.5
2076.637	6.5
2080.73	6.5
2084.82	6.5
2088.906	9.5
2092.988	8.5
2097.066	6.5
2101.14	10.5
2105.211	7.5
2109.278	7.5
2113.342	8.5
2117.401	7.5
2121.457	5.5
2125.509	4.5
2129.558	6.5
2133.602	3.5
2137.643	2.5
2141.681	4.5
2145.714	5.5
2149.744	7.5
2153.77	6.5
2157.793	14.5
2161.812	8.5
2165.827	6.5
2169.838	4.5
2173.846	2.5
2177.851	3.5
2181.851	7.5
2185.848	6.5
2189.841	6.5
2193.831	4.5
2197.817	9.5
2201.799	5.5
2205.778	3.5
2209.753	3.5
2213.725	4.5
2217.693	3.5
2221.657	2.5
2225.618	6.5
2229.575	10.5
2233.529	4.5
2237.479	2.5
2241.425	1.5
2245.368	3.5
2249.307	-2.5
2253.243	3.5
2257.175	0.5
2261.104	6.5
2265.029	6.5
2268.95	2.5
2272.868	7.5
2276.783	1.5
2280.694	4.5
2284.601	2.5
2288.505	1.5
2292.405	6.5
2296.302	6.5
2300.195	8.5
2304.085	6.5
2307.971	4.5
2311.854	1.5
2315.734	6.5
2319.609	2.5
2323.482	2.5
2327.351	1.5
2331.216	6.5
2335.078	3.5
2338.937	2.5
2342.792	2.5
2346.643	2.5
2350.492	7.5
2354.336	0.5
2358.178	3.5
2362.015	1.5
2365.85	0.5
2369.681	2.5
2373.508	0.5
2377.333	0.5
2381.153	3.5
2384.971	5.5
2388.785	4.5
2392.595	5.5
2396.402	3.5
2400.206	4.5
2404.007	-1.5
2407.804	1.5
2411.597	5.5
2415.388	0.5
2419.174	6.5
2422.958	8.5
2426.738	2.5
2430.515	6.5
2434.289	2.5
2438.059	-0.5
2441.825	-4.5
2445.589	1.5
2449.349	-0.5
2453.106	4.5
2456.859	5.5
2460.61	4.5
2464.356	6.5
2468.1	1.5
2471.84	1.5
2475.577	-0.5
2479.311	-2.5
2483.041	3.5
2486.768	3.5
2490.492	3.5
2494.213	6.5
2497.93	2.5
2501.644	0.5
2505.355	2.5
2509.062	-0.5
2512.766	1.5
2516.467	1.5
2520.165	2.5
2523.859	5.5
2527.551	4.5
2531.239	4.5
2534.923	2.5
2538.605	-0.5
2542.283	-3.5
2545.958	3.5
2549.63	1.5
2553.299	4.5
2556.964	4.5
2560.626	3.5
2564.285	-2.5
2567.941	2.5
2571.594	-0.5
2575.243	-0.5
2578.89	0.5
2582.533	1.5
2586.173	3.5
2589.809	3.5
2593.443	5.5
2597.073	5.5
2600.701	0.5
2604.325	-0.5
2607.946	-0.5
2611.564	4.5
2615.178	3.5
2618.79	0.5
2622.398	1.5
2626.004	4.5
2629.606	3.5
2633.205	0.5
2636.801	4.5
2640.394	-0.5
2643.983	-0.5
2647.57	0.5
2651.153	3.5
2654.734	3.5
2658.311	0.5
2661.885	2.5
2665.456	3.5
2669.025	1.5
2672.589	1.5
2676.151	2.5
2679.71	4.5
2683.266	3.5
2686.819	3.5
2690.368	1.5
2693.915	3.5
2697.458	1.5
2700.999	5.5
2704.536	4.5
2708.071	5.5
2711.602	3.5
2715.13	1.5
2718.656	0.5
2722.178	1.5
2725.697	0.5
2729.214	2.5
2732.727	2.5
2736.237	4.5
2739.744	5.5
2743.249	5.5
2746.75	0.5
2750.248	-2.5
2753.743	1.5
2757.236	0.5
2760.725	1.5
2764.211	4.5
2767.695	5.5
2771.175	1.5
2774.652	3.5
2778.127	-0.5
2781.598	0.5
2785.067	1.5
2788.532	0.5
2791.995	2.5
2795.455	1.5
2798.911	1.5
2802.365	6.5
2805.816	3.5
2809.264	-0.5
2812.709	2.5
2816.151	1.5
2819.59	-3.5
2823.026	3.5
2826.46	1.5
2829.89	3.5
2833.318	5.5
2836.742	4.5
2840.164	10.5
2843.583	5.5
2846.999	6.5
2850.412	7.5
2853.822	4.5
2857.229	6.5
2860.634	4.5
2864.035	6.5
2867.434	11.5
2870.83	11.5
2874.223	15.5
2877.613	14.5
2881	10.5
2884.385	8.5
2887.766	13.5
2891.145	14.5
2894.521	17.5
2897.894	16.5
2901.264	14.5
2904.631	12.5
2907.996	13.5
2911.358	13.5
2914.717	6.5
2918.073	7.5
2921.426	9.5
2924.777	10.5
2928.124	11.5
2931.469	12.5
2934.811	10.5
2938.15	10.5
2941.487	4.5
2944.821	7.5
2948.152	4.5
2951.48	5.5
2954.805	6.5
2958.128	10.5
2961.447	5.5
2964.765	7.5
2968.079	13.5
2971.39	7.5
2974.699	6.5
2978.005	-1.5
2981.308	1.5
2984.609	-0.5
2987.907	3.5
2991.202	3.5
2994.494	2.5
2997.784	4.5
3001.07	6.5
3004.355	-2.5
3007.636	3.5
3010.915	1.5
3014.191	-1.5
3017.464	0.5
3020.734	4.5
3024.002	2.5
3027.267	5.5
3030.53	4.5
3033.789	4.5
3037.046	-1.5
3040.301	1.5
3043.552	-2.5
3046.801	0.5
3050.048	2.5
3053.291	3.5
3056.532	4.5
3059.771	5.5
3063.006	0.5
3066.239	-0.5
3069.469	0.5
3072.697	-2.5
3075.922	1.5
3079.144	-0.5
3082.364	3.5
3085.581	-0.5
3088.795	3.5
3092.007	3.5
3095.216	0.5
3098.423	-2.5
3101.627	-0.5
3104.828	-1.5
3108.026	0.5
3111.222	-0.5
3114.416	4.5
3117.607	4.5
3120.795	2.5
3123.98	4.5
3127.163	3.5
3130.344	0.5
3133.521	0.5
3136.696	2.5
3139.869	-2.5
3143.039	4.5
3146.206	0.5
3149.371	4.5
3152.533	2.5
3155.693	0.5
3158.85	1.5
3162.005	2.5
3165.157	1.5
3168.306	0.5
3171.453	1.5
3174.597	0.5
3177.739	-0.5
3180.878	1.5
3184.014	-0.5
3187.149	0.5
3190.28	1.5
3193.409	-0.5
3196.536	0.5
3199.659	1.5
3202.781	3.5
3205.9	2.5
3209.016	1.5
3212.13	2.5
3215.241	3.5
3218.35	6.5
3221.456	3.5
3224.56	2.5
3227.661	4.5
3230.76	7.5
3233.856	5.5
3236.95	6.5
3240.041	-0.5
3243.13	-1.5
3246.216	1.5
3249.3	4.5
3252.382	5.5
3255.46	5.5
3258.537	3.5
3261.611	5.5
3264.682	1.5
3267.751	1.5
3270.818	0.5
3273.882	2.5
3276.943	2.5
3280.002	2.5
3283.059	1.5
3286.113	2.5
3289.165	0.5
3292.214	-1.5
3295.261	1.5
3298.306	-2.5
3301.348	1.5
3304.387	0.5
3307.425	2.5
3310.459	6.5
3313.492	-0.5
3316.521	2.5
3319.549	-0.5
3322.574	0.5
3325.597	-4.5
3328.617	-3.5
3331.635	-2.5
3334.65	0.5
3337.663	1.5
3340.674	2.5
3343.682	2.5
3346.688	3.5
3349.691	3.5
3352.692	-0.5
3355.691	-3.5
3358.687	-4.5
3361.681	1.5
3364.673	1.5
3367.662	-2.5
3370.649	5.5
3373.633	3.5
3376.615	6.5
3379.595	-2.5
3382.572	-0.5
3385.547	-1.5
3388.52	-2.5
3391.49	2.5
3394.458	0.5
3397.424	0.5
3400.387	2.5
3403.348	2.5
3406.307	-1.5
3409.263	1.5
3412.217	0.5
3415.168	1.5
3418.118	0.5
3421.065	3.5
3424.009	2.5
3426.951	4.5
3429.891	-0.5
3432.829	-1.5
3435.764	1.5
3438.697	-3.5
3441.628	-0.5
3444.557	1.5
3447.483	-0.5
3450.407	0.5
3453.328	2.5
3456.247	-2.5
3459.164	-0.5
3462.079	2.5
3464.991	-1.5
3467.902	-0.5
3470.809	1.5
3473.715	2.5
3476.618	1.5
3479.519	-2.5
3482.418	-2.5
3485.315	-1.5
3488.209	0.5
3491.101	3.5
3493.99	-2.5
3496.878	-0.5
3499.763	1.5
3502.646	0.5
3505.527	-2.5
3508.405	-0.5
3511.281	-3.5
3514.155	-3.5
3517.027	1.5
3519.897	3.5
3522.764	1.5
3525.629	-1.5
3528.492	-0.5
3531.352	-2.5
3534.211	-0.5
3537.067	-4.5
3539.921	-2.5
3542.773	-1.5
3545.622	3.5
3548.469	1.5
3551.315	0.5
3554.157	-0.5
3556.998	-0.5
3559.837	-3.5
3562.673	-5.5
3565.507	-3.5
3568.339	-1.5
3571.169	1.5
3573.996	2.5
3576.822	-0.5
3579.645	0.5
3582.466	2.5
3585.285	-0.5
3588.101	-1.5
3590.916	-0.5
3593.728	0.5
3596.538	1.5
3599.346	-1.5
3602.152	-1.5
3604.956	-1.5
3607.757	-0.5
3610.556	-1.5
3613.354	-0.5
3616.149	-2.5
3618.942	-2.5
3621.732	1.5
3624.521	0.5
3627.307	-2.5
3630.092	1.5
3632.874	-3.5
3635.654	0.5
3638.432	-2.5
3641.208	-1.5
3643.982	0.5
3646.753	-1.5
3649.523	-3.5
3652.29	-1.5
3655.055	-2.5
3657.818	-1.5
3660.579	0.5
3663.338	-4.5
3666.095	-0.5
3668.849	0.5
3671.602	-1.5
3674.352	2.5
3677.101	-3.5
3679.847	-3.5
3682.591	1.5
3685.333	1.5
3688.073	0.5
3690.811	2.5
3693.547	0.5
3696.281	-3.5
3699.013	-3.5
3701.742	-3.5
3704.47	-2.5
3707.195	-1.5
3709.919	-1.5
3712.64	-1.5
3715.359	3.5
3718.076	-0.5
3720.792	1.5
3723.505	-1.5
3726.216	-3.5
3728.925	-2.5
3731.632	-2.5
3734.336	-0.5
3737.039	3.5
3739.74	1.5
3742.439	0.5
3745.136	2.5
3747.83	-0.5
3750.523	-4.5
3753.213	-2.5
3755.902	1.5
3758.589	1.5
3761.273	0.5
3763.956	0.5
3766.636	-0.5
3769.315	-1.5
3771.991	-3.5
3774.665	-3.5
3777.338	-2.5
3780.008	-1.5
3782.677	-2.5
3785.343	-0.5
3788.007	-1.5
3790.67	2.5
3793.33	-1.5
3795.989	0.5
3798.645	-2.5
3801.299	-1.5
3803.952	-1.5
3806.602	-0.5
3809.251	1.5
3811.897	-1.5
3814.542	-1.5
3817.184	-2.5
3819.825	-3.5
3822.463	-4.5
3825.1	-6.5
3827.735	-6.5
3830.367	-0.5
3832.998	0.5
3835.627	4.5
3838.253	4.5
3840.878	-2.5
3843.501	-3.5
3846.122	-5.5
3848.741	-3.5
3851.358	-1.5
3853.973	-1.5
3856.586	-2.5
3859.197	0.5
3861.806	-1.5
3864.414	-1.5
3867.019	-4.5
3869.622	-1.5
3872.224	-2.5
3874.823	-0.5
3877.421	0.5
3880.016	-0.5
3882.61	1.5
3885.202	6.5
3887.792	3.5
3890.38	2.5
3892.966	-2.5
3895.55	-1.5
3898.132	0.5
3900.713	1.5
3903.291	-1.5
3905.868	0.5
3908.442	-0.5
3911.015	-4.5
3913.586	-2.5
3916.155	0.5
3918.722	-0.5
3921.287	-2.5
3923.85	-0.5
3926.411	-0.5
3928.971	-5.5
3931.528	-0.5
3934.084	-1.5
3936.638	0.5
3939.19	-0.5
3941.74	2.5
3944.288	-3.5
3946.834	-2.5
3949.378	-1.5
3951.921	1.5
3954.462	-0.5
3957	-0.5
3959.537	1.5
3962.072	2.5
3964.606	-1.5
3967.137	1.5
3969.667	0.5
3972.194	-2.5
3974.72	-1.5
3977.244	-0.5
3979.766	0.5
3982.286	-0.5
3984.805	1.5
3987.321	0.5
3989.836	-0.5
3992.349	0.5
3994.86	-1.5
3997.369	-2.5
3999.877	-1.5
4002.382	-3.5
4004.886	-3.5
4007.388	-1.5
4009.888	-2.5
4012.386	0.5
4014.883	-1.5
4017.377	-2.5
4019.87	-3.5
4022.361	-0.5
4024.85	-3.5
4027.338	-0.5
4029.823	-1.5
4032.307	1.5
4034.789	1.5
4037.269	-0.5
4039.747	-3.5
4042.224	-0.5
4044.699	-3.5
4047.172	-0.5
4049.643	-2.5
4052.112	-3.5
4054.58	-1.5
4057.046	0.5
4059.51	-0.5
4061.972	0.5
4064.432	1.5
4066.891	-3.5
4069.348	-1.5
4071.803	-2.5
4074.256	-5.5
4076.708	0.5
4079.158	2.5
4081.606	-0.5
4084.052	1.5
4086.497	-2.5
4088.939	-1.5
4091.38	1.5
4093.819	-1.5
4096.257	-2.5
4098.693	-4.5
4101.127	-1.5
4103.559	-0.5
4105.989	6.5
4108.418	4.5
4110.845	5.5
4113.27	3.5
4115.694	0.5
4118.115	3.5
4120.535	-1.5
4122.954	-1.5
4125.37	-3.5
4127.785	0.5
4130.198	1.5
4132.609	-0.5
4135.019	-2.5
4137.427	-1.5
4139.833	-2.5
4142.237	-4.5
