Data from 1_n=4_RamanShift_03.txt Node
Date: Mon Mar 19 12:27:03 IST 2018
User: aro
Spectrometer: QEPB0276
Trigger mode: 0
Integration Time (sec): 5.000000E0
Scans to average: 1
Electric dark correction enabled: true
Nonlinearity correction enabled: false
Boxcar width: 0
XAxis mode: Raman Shifts
Number of Pixels in Spectrum: 1044
>>>>>Begin Spectral Data<<<<<
160.701	-2.8
166.742	-1.8
172.777	2.2
178.805	10.2
184.826	20.2
190.841	34.2
196.849	62.2
202.85	69.2
208.845	77.2
214.833	84.2
220.815	76.2
226.789	80.2
232.758	77.2
238.719	82.2
244.674	85.2
250.623	83.2
256.565	81.2
262.5	79.2
268.429	81.2
274.351	81.2
280.267	84.2
286.176	77.2
292.079	79.2
297.975	86.2
303.865	87.2
309.748	87.2
315.625	89.2
321.495	88.2
327.359	86.2
333.217	84.2
339.068	91.2
344.912	92.2
350.751	91.2
356.583	95.2
362.408	89.2
368.227	88.2
374.04	88.2
379.847	94.2
385.647	102.2
391.44	105.2
397.228	101.2
403.009	107.2
408.784	105.2
414.553	113.2
420.315	125.2
426.071	128.2
431.821	116.2
437.565	102.2
443.302	94.2
449.033	99.2
454.758	98.2
460.477	90.2
466.189	88.2
471.896	85.2
477.596	84.2
483.29	81.2
488.978	87.2
494.66	84.2
500.335	82.2
506.005	75.2
511.668	72.2
517.325	61.2
522.977	56.2
528.622	53.2
534.261	47.2
539.894	48.2
545.521	49.2
551.141	45.2
556.756	43.2
562.365	39.2
567.968	44.2
573.565	43.2
579.155	36.2
584.74	42.2
590.319	43.2
595.892	45.2
601.459	38.2
607.02	42.2
612.575	39.2
618.124	42.2
623.667	40.2
629.204	37.2
634.735	38.2
640.261	37.2
645.781	41.2
651.294	50.2
656.802	46.2
662.304	38.2
667.8	34.2
673.29	30.2
678.775	34.2
684.254	32.2
689.726	33.2
695.193	35.2
700.655	37.2
706.11	37.2
711.56	32.2
717.004	33.2
722.442	29.2
727.874	31.2
733.301	29.2
738.722	33.2
744.137	33.2
749.547	36.2
754.951	36.2
760.349	35.2
765.741	35.2
771.128	36.2
776.509	33.2
781.885	31.2
787.254	37.2
792.618	36.2
797.977	37.2
803.33	40.2
808.677	48.2
814.019	48.2
819.355	47.2
824.686	43.2
830.011	35.2
835.33	36.2
840.644	37.2
845.952	41.2
851.255	42.2
856.552	37.2
861.844	37.2
867.13	34.2
872.41	32.2
877.686	28.2
882.955	23.2
888.219	24.2
893.478	24.2
898.731	29.2
903.979	25.2
909.221	33.2
914.458	29.2
919.69	27.2
924.916	24.2
930.136	22.2
935.351	23.2
940.561	19.2
945.766	27.2
950.965	26.2
956.158	28.2
961.347	30.2
966.529	27.2
971.707	27.2
976.879	26.2
982.046	22.2
987.208	25.2
992.364	21.2
997.515	25.2
1002.66	27.2
1007.801	34.2
1012.936	25.2
1018.066	27.2
1023.19	25.2
1028.309	20.2
1033.423	25.2
1038.532	33.2
1043.636	29.2
1048.734	28.2
1053.827	30.2
1058.915	26.2
1063.998	23.2
1069.075	23.2
1074.147	20.2
1079.214	23.2
1084.276	21.2
1089.333	24.2
1094.385	25.2
1099.431	29.2
1104.472	22.2
1109.509	24.2
1114.54	22.2
1119.565	21.2
1124.586	25.2
1129.602	21.2
1134.613	21.2
1139.618	24.2
1144.619	26.2
1149.614	29.2
1154.604	27.2
1159.589	36.2
1164.57	30.2
1169.545	27.2
1174.515	31.2
1179.48	28.2
1184.44	23.2
1189.395	21.2
1194.345	25.2
1199.29	25.2
1204.23	23.2
1209.165	25.2
1214.095	22.2
1219.021	23.2
1223.941	27.2
1228.856	25.2
1233.766	19.2
1238.672	22.2
1243.572	24.2
1248.467	24.2
1253.358	21.2
1258.244	21.2
1263.124	19.2
1268	19.2
1272.871	19.2
1277.737	18.2
1282.599	18.2
1287.455	20.2
1292.306	20.2
1297.153	20.2
1301.995	20.2
1306.832	18.2
1311.664	17.2
1316.491	21.2
1321.314	24.2
1326.132	23.2
1330.945	27.2
1335.753	28.2
1340.556	24.2
1345.354	23.2
1350.148	23.2
1354.937	20.2
1359.722	21.2
1364.501	19.2
1369.276	21.2
1374.046	19.2
1378.811	17.2
1383.572	14.2
1388.327	18.2
1393.079	18.2
1397.825	14.2
1402.567	19.2
1407.304	15.2
1412.036	12.2
1416.764	13.2
1421.487	19.2
1426.205	15.2
1430.919	16.2
1435.628	20.2
1440.333	27.2
1445.032	23.2
1449.727	21.2
1454.418	27.2
1459.104	29.2
1463.785	29.2
1468.462	29.2
1473.134	28.2
1477.802	21.2
1482.465	15.2
1487.123	19.2
1491.777	17.2
1496.426	18.2
1501.071	16.2
1505.711	14.2
1510.347	16.2
1514.978	16.2
1519.604	16.2
1524.226	12.2
1528.844	15.2
1533.457	14.2
1538.065	17.2
1542.669	12.2
1547.269	11.2
1551.864	12.2
1556.454	17.2
1561.041	14.2
1565.622	15.2
1570.199	15.2
1574.772	10.2
1579.34	14.2
1583.904	14.2
1588.464	14.2
1593.019	8.2
1597.569	15.2
1602.115	14.2
1606.657	14.2
1611.195	17.2
1615.728	16.2
1620.256	12.2
1624.78	12.2
1629.3	9.2
1633.816	10.2
1638.327	15.2
1642.834	14.2
1647.336	11.2
1651.834	12.2
1656.328	11.2
1660.817	12.2
1665.302	15.2
1669.783	12.2
1674.259	11.2
1678.732	13.2
1683.199	12.2
1687.663	11.2
1692.122	9.2
1696.577	13.2
1701.028	15.2
1705.474	11.2
1709.917	13.2
1714.355	10.2
1718.788	9.2
1723.218	11.2
1727.643	9.2
1732.064	10.2
1736.481	10.2
1740.893	8.2
1745.301	16.2
1749.705	9.2
1754.105	11.2
1758.501	9.2
1762.893	8.2
1767.28	6.2
1771.663	15.2
1776.042	6.2
1780.417	10.2
1784.787	12.2
1789.154	8.2
1793.516	10.2
1797.874	8.2
1802.228	8.2
1806.578	6.2
1810.924	13.2
1815.266	9.2
1819.603	9.2
1823.937	12.2
1828.266	7.2
1832.591	8.2
1836.913	4.2
1841.23	7.2
1845.543	7.2
1849.852	6.2
1854.156	10.2
1858.457	8.2
1862.754	13.2
1867.047	7.2
1871.335	9.2
1875.62	5.2
1879.9	6.2
1884.177	7.2
1888.449	5.2
1892.718	8.2
1896.982	8.2
1901.243	10.2
1905.499	6.2
1909.752	5.2
1914	8.2
1918.245	5.2
1922.485	5.2
1926.722	9.2
1930.954	6.2
1935.183	8.2
1939.408	12.2
1943.628	10.2
1947.845	8.2
1952.058	8.2
1956.267	3.2
1960.472	0.2
1964.673	4.2
1968.87	6.2
1973.063	7.2
1977.252	8.2
1981.438	8.2
1985.619	6.2
1989.797	6.2
1993.971	3.2
1998.14	4.2
2002.306	0.2
2006.469	3.2
2010.627	8.2
2014.781	12.2
2018.932	6.2
2023.078	5.2
2027.221	8.2
2031.36	5.2
2035.495	6.2
2039.627	4.2
2043.754	2.2
2047.878	6.2
2051.998	10.2
2056.114	8.2
2060.226	13.2
2064.334	5.2
2068.439	5.2
2072.54	2.2
2076.637	2.2
2080.73	3.2
2084.82	5.2
2088.906	8.2
2092.988	4.2
2097.066	3.2
2101.14	9.2
2105.211	7.2
2109.278	7.2
2113.342	4.2
2117.401	6.2
2121.457	3.2
2125.509	5.2
2129.558	4.2
2133.602	5.2
2137.643	4.2
2141.681	7.2
2145.714	4.2
2149.744	7.2
2153.77	3.2
2157.793	9.2
2161.812	6.2
2165.827	4.2
2169.838	2.2
2173.846	-1.8
2177.851	0.2
2181.851	2.2
2185.848	5.2
2189.841	5.2
2193.831	3.2
2197.817	10.2
2201.799	4.2
2205.778	4.2
2209.753	0.2
2213.725	-0.8
2217.693	0.2
2221.657	4.2
2225.618	1.2
2229.575	5.2
2233.529	5.2
2237.479	5.2
2241.425	2.2
2245.368	5.2
2249.307	1.2
2253.243	2.2
2257.175	1.2
2261.104	7.2
2265.029	2.2
2268.95	2.2
2272.868	1.2
2276.783	5.2
2280.694	7.2
2284.601	4.2
2288.505	2.2
2292.405	4.2
2296.302	1.2
2300.195	2.2
2304.085	2.2
2307.971	1.2
2311.854	-0.8
2315.734	4.2
2319.609	0.2
2323.482	0.2
2327.351	0.2
2331.216	3.2
2335.078	1.2
2338.937	4.2
2342.792	1.2
2346.643	0.2
2350.492	5.2
2354.336	0.2
2358.178	2.2
2362.015	-0.8
2365.85	1.2
2369.681	0.2
2373.508	-0.8
2377.333	1.2
2381.153	2.2
2384.971	1.2
2388.785	4.2
2392.595	2.2
2396.402	3.2
2400.206	2.2
2404.007	-0.8
2407.804	-2.8
2411.597	2.2
2415.388	-0.8
2419.174	5.2
2422.958	5.2
2426.738	0.2
2430.515	5.2
2434.289	4.2
2438.059	-1.8
2441.825	-7.8
2445.589	0.2
2449.349	0.2
2453.106	3.2
2456.859	3.2
2460.61	3.2
2464.356	8.2
2468.1	2.2
2471.84	0.2
2475.577	0.2
2479.311	-3.8
2483.041	0.2
2486.768	0.2
2490.492	-1.8
2494.213	3.2
2497.93	3.2
2501.644	2.2
2505.355	2.2
2509.062	-2.8
2512.766	-1.8
2516.467	-0.8
2520.165	-2.8
2523.859	0.2
2527.551	-0.8
2531.239	3.2
2534.923	1.2
2538.605	2.2
2542.283	-1.8
2545.958	3.2
2549.63	1.2
2553.299	1.2
2556.964	-0.8
2560.626	0.2
2564.285	-4.8
2567.941	0.2
2571.594	-1.8
2575.243	0.2
2578.89	-0.8
2582.533	2.2
2586.173	1.2
2589.809	1.2
2593.443	2.2
2597.073	1.2
2600.701	0.2
2604.325	-3.8
2607.946	-0.8
2611.564	4.2
2615.178	5.2
2618.79	3.2
2622.398	2.2
2626.004	-0.8
2629.606	1.2
2633.205	0.2
2636.801	3.2
2640.394	-1.8
2643.983	2.2
2647.57	3.2
2651.153	3.2
2654.734	4.2
2658.311	1.2
2661.885	1.2
2665.456	-2.8
2669.025	-0.8
2672.589	1.2
2676.151	2.2
2679.71	3.2
2683.266	5.2
2686.819	4.2
2690.368	-0.8
2693.915	-1.8
2697.458	-4.8
2700.999	2.2
2704.536	1.2
2708.071	3.2
2711.602	2.2
2715.13	4.2
2718.656	4.2
2722.178	1.2
2725.697	-1.8
2729.214	-0.8
2732.727	-2.8
2736.237	-0.8
2739.744	3.2
2743.249	4.2
2746.75	3.2
2750.248	1.2
2753.743	0.2
2757.236	0.2
2760.725	-0.8
2764.211	-0.8
2767.695	-1.8
2771.175	-2.8
2774.652	4.2
2778.127	1.2
2781.598	2.2
2785.067	-0.8
2788.532	-2.8
2791.995	0.2
2795.455	0.2
2798.911	-1.8
2802.365	-1.8
2805.816	-1.8
2809.264	1.2
2812.709	1.2
2816.151	4.2
2819.59	1.2
2823.026	-1.8
2826.46	1.2
2829.89	2.2
2833.318	2.2
2836.742	2.2
2840.164	8.2
2843.583	8.2
2846.999	8.2
2850.412	8.2
2853.822	6.2
2857.229	5.2
2860.634	5.2
2864.035	3.2
2867.434	10.2
2870.83	8.2
2874.223	12.2
2877.613	16.2
2881	12.2
2884.385	11.2
2887.766	18.2
2891.145	16.2
2894.521	13.2
2897.894	15.2
2901.264	12.2
2904.631	12.2
2907.996	16.2
2911.358	13.2
2914.717	7.2
2918.073	9.2
2921.426	11.2
2924.777	8.2
2928.124	8.2
2931.469	4.2
2934.811	6.2
2938.15	8.2
2941.487	6.2
2944.821	6.2
2948.152	3.2
2951.48	3.2
2954.805	6.2
2958.128	8.2
2961.447	3.2
2964.765	2.2
2968.079	9.2
2971.39	5.2
2974.699	7.2
2978.005	0.2
2981.308	7.2
2984.609	-2.8
2987.907	0.2
2991.202	2.2
2994.494	-0.8
2997.784	0.2
3001.07	1.2
3004.355	-0.8
3007.636	1.2
3010.915	2.2
3014.191	0.2
3017.464	-1.8
3020.734	1.2
3024.002	-0.8
3027.267	3.2
3030.53	2.2
3033.789	1.2
3037.046	-2.8
3040.301	3.2
3043.552	-2.8
3046.801	0.2
3050.048	1.2
3053.291	-3.8
3056.532	-0.8
3059.771	-0.8
3063.006	1.2
3066.239	-3.8
3069.469	2.2
3072.697	-0.8
3075.922	-0.8
3079.144	1.2
3082.364	-3.8
3085.581	-1.8
3088.795	1.2
3092.007	-0.8
3095.216	1.2
3098.423	1.2
3101.627	-0.8
3104.828	2.2
3108.026	-0.8
3111.222	-2.8
3114.416	-1.8
3117.607	2.2
3120.795	0.2
3123.98	1.2
3127.163	1.2
3130.344	2.2
3133.521	1.2
3136.696	2.2
3139.869	2.2
3143.039	1.2
3146.206	1.2
3149.371	0.2
3152.533	1.2
3155.693	0.2
3158.85	2.2
3162.005	0.2
3165.157	0.2
3168.306	-1.8
3171.453	-0.8
3174.597	1.2
3177.739	1.2
3180.878	0.2
3184.014	0.2
3187.149	-1.8
3190.28	0.2
3193.409	0.2
3196.536	-0.8
3199.659	3.2
3202.781	0.2
3205.9	2.2
3209.016	2.2
3212.13	-1.8
3215.241	2.2
3218.35	3.2
3221.456	2.2
3224.56	1.2
3227.661	0.2
3230.76	4.2
3233.856	1.2
3236.95	3.2
3240.041	-0.8
3243.13	-1.8
3246.216	1.2
3249.3	1.2
3252.382	2.2
3255.46	2.2
3258.537	3.2
3261.611	2.2
3264.682	3.2
3267.751	0.2
3270.818	-1.8
3273.882	-0.8
3276.943	1.2
3280.002	1.2
3283.059	1.2
3286.113	0.2
3289.165	-2.8
3292.214	-2.8
3295.261	-1.8
3298.306	-0.8
3301.348	0.2
3304.387	0.2
3307.425	0.2
3310.459	2.2
3313.492	0.2
3316.521	0.2
3319.549	-2.8
3322.574	0.2
3325.597	-3.8
3328.617	-0.8
3331.635	0.2
3334.65	1.2
3337.663	0.2
3340.674	2.2
3343.682	0.2
3346.688	3.2
3349.691	-0.8
3352.692	-0.8
3355.691	-4.8
3358.687	-4.8
3361.681	-0.8
3364.673	4.2
3367.662	3.2
3370.649	4.2
3373.633	3.2
3376.615	-0.8
3379.595	-5.8
3382.572	-3.8
3385.547	-3.8
3388.52	-0.8
3391.49	2.2
3394.458	3.2
3397.424	1.2
3400.387	0.2
3403.348	-6.8
3406.307	-5.8
3409.263	-2.8
3412.217	-1.8
3415.168	-2.8
3418.118	1.2
3421.065	8.2
3424.009	0.2
3426.951	1.2
3429.891	0.2
3432.829	-2.8
3435.764	-1.8
3438.697	-5.8
3441.628	-3.8
3444.557	1.2
3447.483	1.2
3450.407	2.2
3453.328	0.2
3456.247	0.2
3459.164	-3.8
3462.079	-0.8
3464.991	-0.8
3467.902	-2.8
3470.809	-0.8
3473.715	1.2
3476.618	1.2
3479.519	-1.8
3482.418	-0.8
3485.315	-0.8
3488.209	0.2
3491.101	0.2
3493.99	-5.8
3496.878	-2.8
3499.763	-1.8
3502.646	-0.8
3505.527	-2.8
3508.405	-1.8
3511.281	-1.8
3514.155	-1.8
3517.027	2.2
3519.897	-0.8
3522.764	-0.8
3525.629	-2.8
3528.492	-3.8
3531.352	-6.8
3534.211	-4.8
3537.067	-6.8
3539.921	-5.8
3542.773	-4.8
3545.622	6.2
3548.469	-4.8
3551.315	-0.8
3554.157	-3.8
3556.998	-4.8
3559.837	-5.8
3562.673	-3.8
3565.507	-0.8
3568.339	-0.8
3571.169	2.2
3573.996	2.2
3576.822	2.2
3579.645	-4.8
3582.466	-3.8
3585.285	-4.8
3588.101	-3.8
3590.916	0.2
3593.728	0.2
3596.538	-0.8
3599.346	-0.8
3602.152	-0.8
3604.956	-3.8
3607.757	-3.8
3610.556	-2.8
3613.354	-1.8
3616.149	-5.8
3618.942	-0.8
3621.732	1.2
3624.521	1.2
3627.307	-0.8
3630.092	-2.8
3632.874	-3.8
3635.654	-3.8
3638.432	-5.8
3641.208	-3.8
3643.982	-3.8
3646.753	0.2
3649.523	-4.8
3652.29	1.2
3655.055	-3.8
3657.818	-3.8
3660.579	-2.8
3663.338	-2.8
3666.095	-2.8
3668.849	-1.8
3671.602	-0.8
3674.352	3.2
3677.101	-1.8
3679.847	-4.8
3682.591	-1.8
3685.333	-0.8
3688.073	-0.8
3690.811	3.2
3693.547	-1.8
3696.281	-4.8
3699.013	-4.8
3701.742	-0.8
3704.47	-3.8
3707.195	-0.8
3709.919	-4.8
3712.64	-1.8
3715.359	-1.8
3718.076	-3.8
3720.792	-2.8
3723.505	-0.8
3726.216	-3.8
3728.925	-3.8
3731.632	-4.8
3734.336	-2.8
3737.039	1.2
3739.74	1.2
3742.439	0.2
3745.136	-3.8
3747.83	-5.8
3750.523	-3.8
3753.213	-4.8
3755.902	-1.8
3758.589	-1.8
3761.273	1.2
3763.956	1.2
3766.636	-3.8
3769.315	-4.8
3771.991	-4.8
3774.665	-2.8
3777.338	-2.8
3780.008	-3.8
3782.677	-3.8
3785.343	-0.8
3788.007	-0.8
3790.67	0.2
3793.33	-2.8
3795.989	-2.8
3798.645	-4.8
3801.299	-3.8
3803.952	-3.8
3806.602	-0.8
3809.251	0.2
3811.897	-0.8
3814.542	0.2
3817.184	1.2
3819.825	-2.8
3822.463	-2.8
3825.1	-3.8
3827.735	-3.8
3830.367	1.2
3832.998	-2.8
3835.627	1.2
3838.253	-0.8
3840.878	-1.8
3843.501	-1.8
3846.122	-5.8
3848.741	-1.8
3851.358	-4.8
3853.973	-0.8
3856.586	-5.8
3859.197	-2.8
3861.806	-5.8
3864.414	-2.8
3867.019	-1.8
3869.622	-3.8
3872.224	-1.8
3874.823	1.2
3877.421	0.2
3880.016	-1.8
3882.61	-0.8
3885.202	3.2
3887.792	-1.8
3890.38	1.2
3892.966	0.2
3895.55	-0.8
3898.132	-0.8
3900.713	0.2
3903.291	-2.8
3905.868	-1.8
3908.442	-6.8
3911.015	-7.8
3913.586	-2.8
3916.155	1.2
3918.722	0.2
3921.287	-1.8
3923.85	1.2
3926.411	-0.8
3928.971	-1.8
3931.528	-2.8
3934.084	-1.8
3936.638	-4.8
3939.19	-5.8
3941.74	-1.8
3944.288	-2.8
3946.834	-0.8
3949.378	-0.8
3951.921	-0.8
3954.462	-2.8
3957	-5.8
3959.537	-2.8
3962.072	-2.8
3964.606	-1.8
3967.137	-0.8
3969.667	1.2
3972.194	-2.8
3974.72	0.2
3977.244	-5.8
3979.766	-2.8
3982.286	-6.8
3984.805	-3.8
3987.321	-0.8
3989.836	-2.8
3992.349	1.2
3994.86	-0.8
3997.369	-3.8
3999.877	-2.8
4002.382	-4.8
4004.886	-3.8
4007.388	-5.8
4009.888	-5.8
4012.386	0.2
4014.883	-1.8
4017.377	3.2
4019.87	0.2
4022.361	2.2
4024.85	-4.8
4027.338	-4.8
4029.823	-3.8
4032.307	-1.8
4034.789	0.2
4037.269	1.2
4039.747	3.2
4042.224	0.2
4044.699	-3.8
4047.172	-1.8
4049.643	-5.8
4052.112	-6.8
4054.58	-6.8
4057.046	-3.8
4059.51	-0.8
4061.972	3.2
4064.432	0.2
4066.891	1.2
4069.348	-1.8
4071.803	-4.8
4074.256	-8.8
4076.708	-3.8
4079.158	0.2
4081.606	-3.8
4084.052	0.2
4086.497	0.2
4088.939	3.2
4091.38	1.2
4093.819	-3.8
4096.257	-4.8
4098.693	-4.8
4101.127	-4.8
4103.559	-0.8
4105.989	5.2
4108.418	4.2
4110.845	4.2
4113.27	2.2
4115.694	2.2
4118.115	-0.8
4120.535	-5.8
4122.954	-2.8
4125.37	-8.8
4127.785	-4.8
4130.198	0.2
4132.609	0.2
4135.019	1.2
4137.427	-1.8
4139.833	-1.8
4142.237	-5.8
