Data from 1_n=3_RamanShift_03.txt Node
Date: Mon Mar 19 12:26:18 IST 2018
User: aro
Spectrometer: QEPB0276
Trigger mode: 0
Integration Time (sec): 5.000000E0
Scans to average: 1
Electric dark correction enabled: true
Nonlinearity correction enabled: false
Boxcar width: 0
XAxis mode: Raman Shifts
Number of Pixels in Spectrum: 1044
>>>>>Begin Spectral Data<<<<<
160.701	-0.4
166.742	-1.4
172.777	1.6
178.805	8.6
184.826	17.6
190.841	40.6
196.849	61.6
202.85	75.6
208.845	73.6
214.833	81.6
220.815	74.6
226.789	82.6
232.758	80.6
238.719	81.6
244.674	78.6
250.623	80.6
256.565	78.6
262.5	81.6
268.429	82.6
274.351	83.6
280.267	82.6
286.176	80.6
292.079	83.6
297.975	86.6
303.865	85.6
309.748	82.6
315.625	89.6
321.495	90.6
327.359	90.6
333.217	86.6
339.068	89.6
344.912	93.6
350.751	83.6
356.583	89.6
362.408	94.6
368.227	91.6
374.04	96.6
379.847	106.6
385.647	108.6
391.44	104.6
397.228	98.6
403.009	102.6
408.784	105.6
414.553	114.6
420.315	128.6
426.071	136.6
431.821	116.6
437.565	102.6
443.302	97.6
449.033	97.6
454.758	91.6
460.477	87.6
466.189	92.6
471.896	86.6
477.596	86.6
483.29	88.6
488.978	88.6
494.66	87.6
500.335	83.6
506.005	76.6
511.668	69.6
517.325	62.6
522.977	53.6
528.622	53.6
534.261	53.6
539.894	49.6
545.521	47.6
551.141	49.6
556.756	45.6
562.365	42.6
567.968	42.6
573.565	48.6
579.155	40.6
584.74	41.6
590.319	41.6
595.892	45.6
601.459	45.6
607.02	40.6
612.575	40.6
618.124	42.6
623.667	41.6
629.204	37.6
634.735	39.6
640.261	40.6
645.781	38.6
651.294	51.6
656.802	48.6
662.304	41.6
667.8	33.6
673.29	36.6
678.775	36.6
684.254	34.6
689.726	31.6
695.193	35.6
700.655	35.6
706.11	35.6
711.56	30.6
717.004	32.6
722.442	31.6
727.874	31.6
733.301	31.6
738.722	33.6
744.137	33.6
749.547	34.6
754.951	33.6
760.349	36.6
765.741	33.6
771.128	36.6
776.509	34.6
781.885	40.6
787.254	38.6
792.618	36.6
797.977	36.6
803.33	44.6
808.677	44.6
814.019	45.6
819.355	46.6
824.686	38.6
830.011	32.6
835.33	39.6
840.644	38.6
845.952	40.6
851.255	41.6
856.552	35.6
861.844	32.6
867.13	36.6
872.41	28.6
877.686	32.6
882.955	23.6
888.219	30.6
893.478	28.6
898.731	30.6
903.979	21.6
909.221	35.6
914.458	27.6
919.69	29.6
924.916	24.6
930.136	26.6
935.351	29.6
940.561	26.6
945.766	29.6
950.965	26.6
956.158	25.6
961.347	26.6
966.529	29.6
971.707	21.6
976.879	26.6
982.046	28.6
987.208	26.6
992.364	27.6
997.515	29.6
1002.66	27.6
1007.801	31.6
1012.936	24.6
1018.066	24.6
1023.19	27.6
1028.309	24.6
1033.423	27.6
1038.532	33.6
1043.636	33.6
1048.734	31.6
1053.827	30.6
1058.915	25.6
1063.998	23.6
1069.075	20.6
1074.147	20.6
1079.214	21.6
1084.276	21.6
1089.333	25.6
1094.385	26.6
1099.431	29.6
1104.472	24.6
1109.509	22.6
1114.54	20.6
1119.565	20.6
1124.586	24.6
1129.602	24.6
1134.613	23.6
1139.618	24.6
1144.619	31.6
1149.614	27.6
1154.604	30.6
1159.589	27.6
1164.57	26.6
1169.545	24.6
1174.515	26.6
1179.48	24.6
1184.44	26.6
1189.395	21.6
1194.345	25.6
1199.29	26.6
1204.23	27.6
1209.165	18.6
1214.095	19.6
1219.021	22.6
1223.941	24.6
1228.856	22.6
1233.766	26.6
1238.672	25.6
1243.572	24.6
1248.467	22.6
1253.358	22.6
1258.244	22.6
1263.124	21.6
1268	19.6
1272.871	20.6
1277.737	18.6
1282.599	22.6
1287.455	21.6
1292.306	19.6
1297.153	17.6
1301.995	19.6
1306.832	19.6
1311.664	19.6
1316.491	19.6
1321.314	22.6
1326.132	23.6
1330.945	24.6
1335.753	26.6
1340.556	24.6
1345.354	21.6
1350.148	25.6
1354.937	20.6
1359.722	23.6
1364.501	18.6
1369.276	22.6
1374.046	18.6
1378.811	16.6
1383.572	12.6
1388.327	17.6
1393.079	16.6
1397.825	18.6
1402.567	18.6
1407.304	16.6
1412.036	16.6
1416.764	11.6
1421.487	15.6
1426.205	15.6
1430.919	19.6
1435.628	20.6
1440.333	25.6
1445.032	27.6
1449.727	24.6
1454.418	27.6
1459.104	29.6
1463.785	24.6
1468.462	22.6
1473.134	22.6
1477.802	20.6
1482.465	17.6
1487.123	19.6
1491.777	16.6
1496.426	17.6
1501.071	16.6
1505.711	17.6
1510.347	14.6
1514.978	14.6
1519.604	14.6
1524.226	10.6
1528.844	18.6
1533.457	17.6
1538.065	20.6
1542.669	16.6
1547.269	13.6
1551.864	10.6
1556.454	14.6
1561.041	11.6
1565.622	13.6
1570.199	12.6
1574.772	12.6
1579.34	17.6
1583.904	17.6
1588.464	16.6
1593.019	12.6
1597.569	12.6
1602.115	16.6
1606.657	11.6
1611.195	13.6
1615.728	13.6
1620.256	16.6
1624.78	15.6
1629.3	16.6
1633.816	12.6
1638.327	16.6
1642.834	12.6
1647.336	10.6
1651.834	10.6
1656.328	8.6
1660.817	11.6
1665.302	16.6
1669.783	15.6
1674.259	15.6
1678.732	15.6
1683.199	13.6
1687.663	13.6
1692.122	12.6
1696.577	12.6
1701.028	13.6
1705.474	13.6
1709.917	14.6
1714.355	11.6
1718.788	14.6
1723.218	12.6
1727.643	8.6
1732.064	8.6
1736.481	10.6
1740.893	11.6
1745.301	14.6
1749.705	12.6
1754.105	13.6
1758.501	12.6
1762.893	9.6
1767.28	7.6
1771.663	10.6
1776.042	6.6
1780.417	7.6
1784.787	12.6
1789.154	8.6
1793.516	11.6
1797.874	11.6
1802.228	8.6
1806.578	5.6
1810.924	15.6
1815.266	8.6
1819.603	6.6
1823.937	12.6
1828.266	4.6
1832.591	7.6
1836.913	6.6
1841.23	9.6
1845.543	9.6
1849.852	10.6
1854.156	9.6
1858.457	8.6
1862.754	11.6
1867.047	6.6
1871.335	11.6
1875.62	6.6
1879.9	7.6
1884.177	10.6
1888.449	7.6
1892.718	9.6
1896.982	7.6
1901.243	9.6
1905.499	8.6
1909.752	5.6
1914	8.6
1918.245	6.6
1922.485	6.6
1926.722	11.6
1930.954	6.6
1935.183	9.6
1939.408	10.6
1943.628	12.6
1947.845	8.6
1952.058	9.6
1956.267	3.6
1960.472	4.6
1964.673	5.6
1968.87	5.6
1973.063	9.6
1977.252	8.6
1981.438	6.6
1985.619	8.6
1989.797	4.6
1993.971	-0.4
1998.14	3.6
2002.306	4.6
2006.469	5.6
2010.627	7.6
2014.781	12.6
2018.932	11.6
2023.078	6.6
2027.221	7.6
2031.36	3.6
2035.495	5.6
2039.627	4.6
2043.754	5.6
2047.878	10.6
2051.998	9.6
2056.114	8.6
2060.226	10.6
2064.334	6.6
2068.439	3.6
2072.54	0.6
2076.637	6.6
2080.73	3.6
2084.82	6.6
2088.906	11.6
2092.988	7.6
2097.066	4.6
2101.14	9.6
2105.211	3.6
2109.278	1.6
2113.342	2.6
2117.401	2.6
2121.457	7.6
2125.509	7.6
2129.558	6.6
2133.602	10.6
2137.643	3.6
2141.681	6.6
2145.714	0.6
2149.744	6.6
2153.77	2.6
2157.793	7.6
2161.812	5.6
2165.827	8.6
2169.838	1.6
2173.846	4.6
2177.851	5.6
2181.851	4.6
2185.848	6.6
2189.841	4.6
2193.831	2.6
2197.817	6.6
2201.799	3.6
2205.778	2.6
2209.753	7.6
2213.725	1.6
2217.693	0.6
2221.657	-0.4
2225.618	2.6
2229.575	4.6
2233.529	6.6
2237.479	4.6
2241.425	3.6
2245.368	6.6
2249.307	1.6
2253.243	4.6
2257.175	0.6
2261.104	6.6
2265.029	2.6
2268.95	2.6
2272.868	-0.4
2276.783	-1.4
2280.694	4.6
2284.601	7.6
2288.505	3.6
2292.405	5.6
2296.302	2.6
2300.195	4.6
2304.085	0.6
2307.971	1.6
2311.854	0.6
2315.734	3.6
2319.609	3.6
2323.482	5.6
2327.351	2.6
2331.216	5.6
2335.078	4.6
2338.937	3.6
2342.792	-0.4
2346.643	0.6
2350.492	2.6
2354.336	2.6
2358.178	3.6
2362.015	6.6
2365.85	1.6
2369.681	-0.4
2373.508	-1.4
2377.333	0.6
2381.153	1.6
2384.971	2.6
2388.785	3.6
2392.595	4.6
2396.402	3.6
2400.206	4.6
2404.007	-0.4
2407.804	-2.4
2411.597	-1.4
2415.388	-2.4
2419.174	1.6
2422.958	3.6
2426.738	-0.4
2430.515	7.6
2434.289	1.6
2438.059	2.6
2441.825	-5.4
2445.589	-2.4
2449.349	-2.4
2453.106	0.6
2456.859	4.6
2460.61	5.6
2464.356	6.6
2468.1	5.6
2471.84	-1.4
2475.577	2.6
2479.311	-2.4
2483.041	0.6
2486.768	-3.4
2490.492	2.6
2494.213	1.6
2497.93	2.6
2501.644	1.6
2505.355	3.6
2509.062	-1.4
2512.766	-0.4
2516.467	-2.4
2520.165	2.6
2523.859	0.6
2527.551	3.6
2531.239	1.6
2534.923	1.6
2538.605	-0.4
2542.283	-3.4
2545.958	-3.4
2549.63	-2.4
2553.299	2.6
2556.964	2.6
2560.626	2.6
2564.285	-0.4
2567.941	0.6
2571.594	-3.4
2575.243	-2.4
2578.89	1.6
2582.533	-2.4
2586.173	3.6
2589.809	1.6
2593.443	0.6
2597.073	2.6
2600.701	1.6
2604.325	-4.4
2607.946	0.6
2611.564	3.6
2615.178	4.6
2618.79	1.6
2622.398	2.6
2626.004	1.6
2629.606	3.6
2633.205	1.6
2636.801	3.6
2640.394	-0.4
2643.983	2.6
2647.57	0.6
2651.153	2.6
2654.734	-0.4
2658.311	0.6
2661.885	2.6
2665.456	5.6
2669.025	1.6
2672.589	3.6
2676.151	1.6
2679.71	5.6
2683.266	-3.4
2686.819	4.6
2690.368	0.6
2693.915	-0.4
2697.458	-0.4
2700.999	6.6
2704.536	3.6
2708.071	4.6
2711.602	2.6
2715.13	3.6
2718.656	2.6
2722.178	-0.4
2725.697	-3.4
2729.214	1.6
2732.727	4.6
2736.237	2.6
2739.744	2.6
2743.249	8.6
2746.75	1.6
2750.248	-0.4
2753.743	1.6
2757.236	-3.4
2760.725	-3.4
2764.211	3.6
2767.695	0.6
2771.175	2.6
2774.652	3.6
2778.127	0.6
2781.598	1.6
2785.067	-3.4
2788.532	-2.4
2791.995	-3.4
2795.455	-0.4
2798.911	-0.4
2802.365	4.6
2805.816	3.6
2809.264	1.6
2812.709	1.6
2816.151	0.6
2819.59	-1.4
2823.026	0.6
2826.46	-3.4
2829.89	1.6
2833.318	3.6
2836.742	5.6
2840.164	10.6
2843.583	8.6
2846.999	7.6
2850.412	5.6
2853.822	3.6
2857.229	2.6
2860.634	1.6
2864.035	1.6
2867.434	9.6
2870.83	7.6
2874.223	14.6
2877.613	12.6
2881	11.6
2884.385	8.6
2887.766	12.6
2891.145	7.6
2894.521	12.6
2897.894	9.6
2901.264	12.6
2904.631	7.6
2907.996	10.6
2911.358	9.6
2914.717	8.6
2918.073	5.6
2921.426	8.6
2924.777	9.6
2928.124	8.6
2931.469	5.6
2934.811	3.6
2938.15	3.6
2941.487	3.6
2944.821	3.6
2948.152	2.6
2951.48	6.6
2954.805	9.6
2958.128	9.6
2961.447	3.6
2964.765	1.6
2968.079	10.6
2971.39	3.6
2974.699	0.6
2978.005	-2.4
2981.308	2.6
2984.609	1.6
2987.907	3.6
2991.202	1.6
2994.494	2.6
2997.784	6.6
3001.07	1.6
3004.355	-2.4
3007.636	1.6
3010.915	1.6
3014.191	1.6
3017.464	1.6
3020.734	1.6
3024.002	1.6
3027.267	1.6
3030.53	1.6
3033.789	-0.4
3037.046	-3.4
3040.301	0.6
3043.552	-1.4
3046.801	2.6
3050.048	3.6
3053.291	1.6
3056.532	0.6
3059.771	2.6
3063.006	-2.4
3066.239	-4.4
3069.469	0.6
3072.697	2.6
3075.922	-2.4
3079.144	3.6
3082.364	-1.4
3085.581	-0.4
3088.795	2.6
3092.007	0.6
3095.216	-1.4
3098.423	-2.4
3101.627	-4.4
3104.828	2.6
3108.026	0.6
3111.222	1.6
3114.416	5.6
3117.607	4.6
3120.795	1.6
3123.98	2.6
3127.163	-0.4
3130.344	-0.4
3133.521	0.6
3136.696	3.6
3139.869	2.6
3143.039	4.6
3146.206	2.6
3149.371	3.6
3152.533	0.6
3155.693	1.6
3158.85	-3.4
3162.005	-2.4
3165.157	0.6
3168.306	-2.4
3171.453	2.6
3174.597	5.6
3177.739	4.6
3180.878	2.6
3184.014	1.6
3187.149	-2.4
3190.28	-2.4
3193.409	-3.4
3196.536	-2.4
3199.659	1.6
3202.781	4.6
3205.9	5.6
3209.016	2.6
3212.13	2.6
3215.241	2.6
3218.35	1.6
3221.456	-0.4
3224.56	1.6
3227.661	2.6
3230.76	6.6
3233.856	4.6
3236.95	6.6
3240.041	1.6
3243.13	-1.4
3246.216	-1.4
3249.3	-0.4
3252.382	2.6
3255.46	3.6
3258.537	0.6
3261.611	6.6
3264.682	4.6
3267.751	1.6
3270.818	-1.4
3273.882	1.6
3276.943	3.6
3280.002	1.6
3283.059	-3.4
3286.113	-0.4
3289.165	-0.4
3292.214	-0.4
3295.261	2.6
3298.306	1.6
3301.348	1.6
3304.387	-0.4
3307.425	-2.4
3310.459	1.6
3313.492	-3.4
3316.521	-1.4
3319.549	0.6
3322.574	1.6
3325.597	-0.4
3328.617	-1.4
3331.635	1.6
3334.65	1.6
3337.663	1.6
3340.674	3.6
3343.682	-2.4
3346.688	2.6
3349.691	-0.4
3352.692	0.6
3355.691	-3.4
3358.687	-4.4
3361.681	-0.4
3364.673	4.6
3367.662	-1.4
3370.649	5.6
3373.633	-1.4
3376.615	1.6
3379.595	-4.4
3382.572	2.6
3385.547	-1.4
3388.52	-1.4
3391.49	-0.4
3394.458	0.6
3397.424	-1.4
3400.387	-1.4
3403.348	-5.4
3406.307	-0.4
3409.263	1.6
3412.217	3.6
3415.168	-0.4
3418.118	1.6
3421.065	3.6
3424.009	-0.4
3426.951	-0.4
3429.891	-4.4
3432.829	-4.4
3435.764	1.6
3438.697	-1.4
3441.628	-0.4
3444.557	-1.4
3447.483	0.6
3450.407	2.6
3453.328	2.6
3456.247	-6.4
3459.164	-4.4
3462.079	-0.4
3464.991	0.6
3467.902	-0.4
3470.809	2.6
3473.715	2.6
3476.618	3.6
3479.519	-4.4
3482.418	-4.4
3485.315	-4.4
3488.209	-3.4
3491.101	-3.4
3493.99	-2.4
3496.878	-0.4
3499.763	-0.4
3502.646	3.6
3505.527	0.6
3508.405	-0.4
3511.281	-4.4
3514.155	-4.4
3517.027	-1.4
3519.897	0.6
3522.764	-1.4
3525.629	-2.4
3528.492	-0.4
3531.352	0.6
3534.211	-0.4
3537.067	-5.4
3539.921	-3.4
3542.773	-4.4
3545.622	0.6
3548.469	-2.4
3551.315	1.6
3554.157	-1.4
3556.998	0.6
3559.837	-3.4
3562.673	-2.4
3565.507	-4.4
3568.339	-4.4
3571.169	-2.4
3573.996	1.6
3576.822	-0.4
3579.645	-1.4
3582.466	-1.4
3585.285	-0.4
3588.101	-4.4
3590.916	0.6
3593.728	-2.4
3596.538	-1.4
3599.346	-2.4
3602.152	0.6
3604.956	-0.4
3607.757	-0.4
3610.556	-2.4
3613.354	0.6
3616.149	-5.4
3618.942	-2.4
3621.732	0.6
3624.521	0.6
3627.307	-4.4
3630.092	-0.4
3632.874	-0.4
3635.654	0.6
3638.432	-2.4
3641.208	-1.4
3643.982	-3.4
3646.753	-2.4
3649.523	-9.4
3652.29	-1.4
3655.055	-7.4
3657.818	-2.4
3660.579	-0.4
3663.338	0.6
3666.095	-0.4
3668.849	-1.4
3671.602	-3.4
3674.352	-0.4
3677.101	-1.4
3679.847	-5.4
3682.591	1.6
3685.333	-1.4
3688.073	0.6
3690.811	0.6
3693.547	1.6
3696.281	-3.4
3699.013	-1.4
3701.742	-3.4
3704.47	-5.4
3707.195	0.6
3709.919	-2.4
3712.64	-0.4
3715.359	-0.4
3718.076	-0.4
3720.792	-3.4
3723.505	-2.4
3726.216	-4.4
3728.925	-0.4
3731.632	-1.4
3734.336	-3.4
3737.039	3.6
3739.74	-0.4
3742.439	-2.4
3745.136	-1.4
3747.83	-3.4
3750.523	-2.4
3753.213	-6.4
3755.902	0.6
3758.589	-2.4
3761.273	-0.4
3763.956	0.6
3766.636	-1.4
3769.315	-6.4
3771.991	-3.4
3774.665	-0.4
3777.338	-1.4
3780.008	-2.4
3782.677	-1.4
3785.343	-1.4
3788.007	1.6
3790.67	-0.4
3793.33	-3.4
3795.989	-3.4
3798.645	-3.4
3801.299	-5.4
3803.952	-3.4
3806.602	-0.4
3809.251	2.6
3811.897	-0.4
3814.542	1.6
3817.184	-3.4
3819.825	-4.4
3822.463	-9.4
3825.1	-4.4
3827.735	-4.4
3830.367	-0.4
3832.998	-2.4
3835.627	1.6
3838.253	0.6
3840.878	-0.4
3843.501	-5.4
3846.122	-3.4
3848.741	-4.4
3851.358	-1.4
3853.973	-1.4
3856.586	-1.4
3859.197	0.6
3861.806	-2.4
3864.414	-5.4
3867.019	-2.4
3869.622	-6.4
3872.224	-3.4
3874.823	-2.4
3877.421	-2.4
3880.016	-1.4
3882.61	1.6
3885.202	5.6
3887.792	2.6
3890.38	-1.4
3892.966	-2.4
3895.55	-3.4
3898.132	-1.4
3900.713	-2.4
3903.291	-0.4
3905.868	1.6
3908.442	0.6
3911.015	-6.4
3913.586	-0.4
3916.155	-0.4
3918.722	-1.4
3921.287	-1.4
3923.85	-0.4
3926.411	-4.4
3928.971	-6.4
3931.528	-2.4
3934.084	-2.4
3936.638	0.6
3939.19	-2.4
3941.74	-3.4
3944.288	-2.4
3946.834	-0.4
3949.378	-1.4
3951.921	-2.4
3954.462	-4.4
3957	-1.4
3959.537	-1.4
3962.072	-0.4
3964.606	-0.4
3967.137	-3.4
3969.667	0.6
3972.194	-5.4
3974.72	-4.4
3977.244	-7.4
3979.766	-3.4
3982.286	-4.4
3984.805	0.6
3987.321	0.6
3989.836	-1.4
3992.349	1.6
3994.86	1.6
3997.369	-8.4
3999.877	-4.4
4002.382	-6.4
4004.886	-4.4
4007.388	0.6
4009.888	-1.4
4012.386	-0.4
4014.883	1.6
4017.377	0.6
4019.87	-2.4
4022.361	-2.4
4024.85	-6.4
4027.338	-6.4
4029.823	-3.4
4032.307	-1.4
4034.789	2.6
4037.269	-0.4
4039.747	1.6
4042.224	-2.4
4044.699	-2.4
4047.172	-3.4
4049.643	-5.4
4052.112	-6.4
4054.58	-4.4
4057.046	-4.4
4059.51	-2.4
4061.972	1.6
4064.432	-0.4
4066.891	-0.4
4069.348	-0.4
4071.803	-2.4
4074.256	-7.4
4076.708	-3.4
4079.158	-1.4
4081.606	-6.4
4084.052	-1.4
4086.497	-2.4
4088.939	4.6
4091.38	0.6
4093.819	-1.4
4096.257	-5.4
4098.693	-3.4
4101.127	-4.4
4103.559	-0.4
4105.989	3.6
4108.418	7.6
4110.845	2.6
4113.27	2.6
4115.694	0.6
4118.115	3.6
4120.535	-6.4
4122.954	-4.4
4125.37	-7.4
4127.785	-6.4
4130.198	-3.4
4132.609	-0.4
4135.019	-0.4
4137.427	-0.4
4139.833	-2.4
4142.237	-5.4
