Data from 1_n=5_RamanShift_03.txt Node
Date: Mon Mar 19 12:27:48 IST 2018
User: aro
Spectrometer: QEPB0276
Trigger mode: 0
Integration Time (sec): 5.000000E0
Scans to average: 1
Electric dark correction enabled: true
Nonlinearity correction enabled: false
Boxcar width: 0
XAxis mode: Raman Shifts
Number of Pixels in Spectrum: 1044
>>>>>Begin Spectral Data<<<<<
160.701	1.5
166.742	1.5
172.777	2.5
178.805	11.5
184.826	20.5
190.841	33.5
196.849	56.5
202.85	65.5
208.845	76.5
214.833	75.5
220.815	75.5
226.789	80.5
232.758	75.5
238.719	79.5
244.674	81.5
250.623	80.5
256.565	81.5
262.5	78.5
268.429	79.5
274.351	78.5
280.267	85.5
286.176	78.5
292.079	78.5
297.975	87.5
303.865	84.5
309.748	86.5
315.625	81.5
321.495	81.5
327.359	82.5
333.217	89.5
339.068	85.5
344.912	93.5
350.751	89.5
356.583	86.5
362.408	87.5
368.227	84.5
374.04	88.5
379.847	95.5
385.647	96.5
391.44	106.5
397.228	103.5
403.009	103.5
408.784	104.5
414.553	110.5
420.315	120.5
426.071	137.5
431.821	112.5
437.565	102.5
443.302	90.5
449.033	105.5
454.758	92.5
460.477	92.5
466.189	92.5
471.896	85.5
477.596	81.5
483.29	79.5
488.978	78.5
494.66	84.5
500.335	80.5
506.005	76.5
511.668	68.5
517.325	59.5
522.977	51.5
528.622	53.5
534.261	50.5
539.894	46.5
545.521	43.5
551.141	48.5
556.756	45.5
562.365	41.5
567.968	41.5
573.565	41.5
579.155	35.5
584.74	36.5
590.319	36.5
595.892	45.5
601.459	42.5
607.02	42.5
612.575	40.5
618.124	42.5
623.667	34.5
629.204	34.5
634.735	32.5
640.261	36.5
645.781	37.5
651.294	47.5
656.802	48.5
662.304	41.5
667.8	37.5
673.29	35.5
678.775	35.5
684.254	34.5
689.726	25.5
695.193	32.5
700.655	32.5
706.11	35.5
711.56	30.5
717.004	29.5
722.442	30.5
727.874	31.5
733.301	25.5
738.722	27.5
744.137	30.5
749.547	30.5
754.951	31.5
760.349	34.5
765.741	32.5
771.128	35.5
776.509	35.5
781.885	35.5
787.254	30.5
792.618	32.5
797.977	32.5
803.33	39.5
808.677	42.5
814.019	46.5
819.355	46.5
824.686	43.5
830.011	34.5
835.33	36.5
840.644	37.5
845.952	38.5
851.255	38.5
856.552	36.5
861.844	29.5
867.13	30.5
872.41	32.5
877.686	28.5
882.955	26.5
888.219	27.5
893.478	25.5
898.731	28.5
903.979	23.5
909.221	32.5
914.458	24.5
919.69	25.5
924.916	24.5
930.136	25.5
935.351	23.5
940.561	24.5
945.766	26.5
950.965	24.5
956.158	26.5
961.347	23.5
966.529	27.5
971.707	23.5
976.879	26.5
982.046	24.5
987.208	26.5
992.364	25.5
997.515	25.5
1002.66	27.5
1007.801	30.5
1012.936	20.5
1018.066	23.5
1023.19	21.5
1028.309	21.5
1033.423	25.5
1038.532	32.5
1043.636	29.5
1048.734	25.5
1053.827	26.5
1058.915	21.5
1063.998	21.5
1069.075	20.5
1074.147	21.5
1079.214	21.5
1084.276	26.5
1089.333	29.5
1094.385	27.5
1099.431	25.5
1104.472	24.5
1109.509	20.5
1114.54	18.5
1119.565	23.5
1124.586	26.5
1129.602	19.5
1134.613	20.5
1139.618	22.5
1144.619	30.5
1149.614	24.5
1154.604	27.5
1159.589	29.5
1164.57	29.5
1169.545	28.5
1174.515	24.5
1179.48	24.5
1184.44	27.5
1189.395	22.5
1194.345	25.5
1199.29	18.5
1204.23	21.5
1209.165	16.5
1214.095	17.5
1219.021	21.5
1223.941	26.5
1228.856	24.5
1233.766	26.5
1238.672	23.5
1243.572	24.5
1248.467	24.5
1253.358	18.5
1258.244	19.5
1263.124	17.5
1268	15.5
1272.871	19.5
1277.737	18.5
1282.599	18.5
1287.455	20.5
1292.306	21.5
1297.153	15.5
1301.995	18.5
1306.832	18.5
1311.664	15.5
1316.491	17.5
1321.314	20.5
1326.132	23.5
1330.945	27.5
1335.753	27.5
1340.556	26.5
1345.354	18.5
1350.148	22.5
1354.937	15.5
1359.722	20.5
1364.501	22.5
1369.276	20.5
1374.046	23.5
1378.811	18.5
1383.572	15.5
1388.327	17.5
1393.079	17.5
1397.825	15.5
1402.567	15.5
1407.304	14.5
1412.036	16.5
1416.764	11.5
1421.487	18.5
1426.205	15.5
1430.919	16.5
1435.628	17.5
1440.333	21.5
1445.032	25.5
1449.727	20.5
1454.418	31.5
1459.104	29.5
1463.785	24.5
1468.462	25.5
1473.134	26.5
1477.802	23.5
1482.465	16.5
1487.123	22.5
1491.777	16.5
1496.426	19.5
1501.071	13.5
1505.711	13.5
1510.347	14.5
1514.978	13.5
1519.604	17.5
1524.226	12.5
1528.844	14.5
1533.457	13.5
1538.065	18.5
1542.669	14.5
1547.269	12.5
1551.864	11.5
1556.454	11.5
1561.041	9.5
1565.622	12.5
1570.199	10.5
1574.772	12.5
1579.34	9.5
1583.904	14.5
1588.464	13.5
1593.019	6.5
1597.569	9.5
1602.115	9.5
1606.657	11.5
1611.195	14.5
1615.728	14.5
1620.256	18.5
1624.78	16.5
1629.3	14.5
1633.816	8.5
1638.327	13.5
1642.834	11.5
1647.336	9.5
1651.834	10.5
1656.328	9.5
1660.817	11.5
1665.302	15.5
1669.783	13.5
1674.259	13.5
1678.732	10.5
1683.199	12.5
1687.663	9.5
1692.122	8.5
1696.577	10.5
1701.028	13.5
1705.474	11.5
1709.917	13.5
1714.355	9.5
1718.788	11.5
1723.218	9.5
1727.643	5.5
1732.064	5.5
1736.481	10.5
1740.893	7.5
1745.301	19.5
1749.705	12.5
1754.105	9.5
1758.501	8.5
1762.893	8.5
1767.28	6.5
1771.663	7.5
1776.042	3.5
1780.417	9.5
1784.787	11.5
1789.154	13.5
1793.516	9.5
1797.874	10.5
1802.228	8.5
1806.578	5.5
1810.924	7.5
1815.266	6.5
1819.603	6.5
1823.937	13.5
1828.266	8.5
1832.591	10.5
1836.913	6.5
1841.23	9.5
1845.543	4.5
1849.852	4.5
1854.156	2.5
1858.457	5.5
1862.754	13.5
1867.047	6.5
1871.335	10.5
1875.62	8.5
1879.9	8.5
1884.177	8.5
1888.449	2.5
1892.718	5.5
1896.982	8.5
1901.243	7.5
1905.499	9.5
1909.752	8.5
1914	6.5
1918.245	5.5
1922.485	6.5
1926.722	6.5
1930.954	5.5
1935.183	5.5
1939.408	5.5
1943.628	12.5
1947.845	8.5
1952.058	13.5
1956.267	7.5
1960.472	4.5
1964.673	6.5
1968.87	3.5
1973.063	3.5
1977.252	4.5
1981.438	4.5
1985.619	7.5
1989.797	6.5
1993.971	0.5
1998.14	7.5
2002.306	3.5
2006.469	6.5
2010.627	5.5
2014.781	5.5
2018.932	4.5
2023.078	4.5
2027.221	6.5
2031.36	5.5
2035.495	5.5
2039.627	3.5
2043.754	1.5
2047.878	6.5
2051.998	5.5
2056.114	2.5
2060.226	8.5
2064.334	3.5
2068.439	4.5
2072.54	3.5
2076.637	6.5
2080.73	2.5
2084.82	7.5
2088.906	7.5
2092.988	5.5
2097.066	2.5
2101.14	7.5
2105.211	3.5
2109.278	6.5
2113.342	4.5
2117.401	4.5
2121.457	3.5
2125.509	4.5
2129.558	2.5
2133.602	5.5
2137.643	1.5
2141.681	3.5
2145.714	5.5
2149.744	6.5
2153.77	3.5
2157.793	9.5
2161.812	5.5
2165.827	-0.5
2169.838	0.5
2173.846	0.5
2177.851	3.5
2181.851	5.5
2185.848	5.5
2189.841	7.5
2193.831	2.5
2197.817	5.5
2201.799	3.5
2205.778	2.5
2209.753	3.5
2213.725	2.5
2217.693	0.5
2221.657	3.5
2225.618	2.5
2229.575	7.5
2233.529	2.5
2237.479	0.5
2241.425	-0.5
2245.368	0.5
2249.307	0.5
2253.243	5.5
2257.175	2.5
2261.104	6.5
2265.029	4.5
2268.95	0.5
2272.868	0.5
2276.783	-2.5
2280.694	3.5
2284.601	0.5
2288.505	2.5
2292.405	6.5
2296.302	4.5
2300.195	7.5
2304.085	2.5
2307.971	0.5
2311.854	-2.5
2315.734	0.5
2319.609	1.5
2323.482	2.5
2327.351	-0.5
2331.216	6.5
2335.078	4.5
2338.937	3.5
2342.792	-3.5
2346.643	-2.5
2350.492	-1.5
2354.336	-0.5
2358.178	1.5
2362.015	2.5
2365.85	4.5
2369.681	2.5
2373.508	-1.5
2377.333	-0.5
2381.153	-2.5
2384.971	0.5
2388.785	2.5
2392.595	1.5
2396.402	4.5
2400.206	2.5
2404.007	0.5
2407.804	-0.5
2411.597	1.5
2415.388	-3.5
2419.174	1.5
2422.958	-0.5
2426.738	-5.5
2430.515	5.5
2434.289	1.5
2438.059	-1.5
2441.825	0.5
2445.589	1.5
2449.349	-3.5
2453.106	2.5
2456.859	2.5
2460.61	1.5
2464.356	2.5
2468.1	1.5
2471.84	-1.5
2475.577	-0.5
2479.311	-1.5
2483.041	2.5
2486.768	2.5
2490.492	-0.5
2494.213	-2.5
2497.93	-3.5
2501.644	-1.5
2505.355	-1.5
2509.062	-1.5
2512.766	0.5
2516.467	-1.5
2520.165	0.5
2523.859	-1.5
2527.551	-1.5
2531.239	-2.5
2534.923	0.5
2538.605	-2.5
2542.283	-3.5
2545.958	3.5
2549.63	2.5
2553.299	-0.5
2556.964	1.5
2560.626	0.5
2564.285	-3.5
2567.941	-2.5
2571.594	-3.5
2575.243	-1.5
2578.89	1.5
2582.533	-0.5
2586.173	3.5
2589.809	1.5
2593.443	2.5
2597.073	-3.5
2600.701	-0.5
2604.325	-5.5
2607.946	-4.5
2611.564	2.5
2615.178	1.5
2618.79	2.5
2622.398	1.5
2626.004	2.5
2629.606	4.5
2633.205	-1.5
2636.801	-1.5
2640.394	-4.5
2643.983	0.5
2647.57	-0.5
2651.153	3.5
2654.734	-2.5
2658.311	1.5
2661.885	1.5
2665.456	1.5
2669.025	-1.5
2672.589	3.5
2676.151	-1.5
2679.71	3.5
2683.266	-5.5
2686.819	7.5
2690.368	-1.5
2693.915	-1.5
2697.458	-1.5
2700.999	4.5
2704.536	3.5
2708.071	3.5
2711.602	0.5
2715.13	3.5
2718.656	-1.5
2722.178	-1.5
2725.697	-3.5
2729.214	0.5
2732.727	2.5
2736.237	3.5
2739.744	2.5
2743.249	6.5
2746.75	2.5
2750.248	-2.5
2753.743	-3.5
2757.236	-2.5
2760.725	-2.5
2764.211	-0.5
2767.695	3.5
2771.175	2.5
2774.652	2.5
2778.127	0.5
2781.598	-0.5
2785.067	-2.5
2788.532	-3.5
2791.995	-3.5
2795.455	1.5
2798.911	0.5
2802.365	-1.5
2805.816	-0.5
2809.264	-0.5
2812.709	0.5
2816.151	-3.5
2819.59	-5.5
2823.026	-5.5
2826.46	-2.5
2829.89	2.5
2833.318	3.5
2836.742	2.5
2840.164	7.5
2843.583	5.5
2846.999	6.5
2850.412	3.5
2853.822	5.5
2857.229	2.5
2860.634	2.5
2864.035	7.5
2867.434	9.5
2870.83	12.5
2874.223	12.5
2877.613	12.5
2881	7.5
2884.385	7.5
2887.766	9.5
2891.145	13.5
2894.521	12.5
2897.894	14.5
2901.264	14.5
2904.631	11.5
2907.996	14.5
2911.358	9.5
2914.717	5.5
2918.073	5.5
2921.426	6.5
2924.777	4.5
2928.124	7.5
2931.469	6.5
2934.811	8.5
2938.15	8.5
2941.487	6.5
2944.821	6.5
2948.152	3.5
2951.48	-0.5
2954.805	6.5
2958.128	5.5
2961.447	2.5
2964.765	5.5
2968.079	8.5
2971.39	5.5
2974.699	4.5
2978.005	-0.5
2981.308	-1.5
2984.609	-3.5
2987.907	0.5
2991.202	-1.5
2994.494	-0.5
2997.784	1.5
3001.07	4.5
3004.355	-1.5
3007.636	2.5
3010.915	-0.5
3014.191	1.5
3017.464	-2.5
3020.734	0.5
3024.002	-3.5
3027.267	2.5
3030.53	0.5
3033.789	3.5
3037.046	-5.5
3040.301	-0.5
3043.552	-3.5
3046.801	1.5
3050.048	0.5
3053.291	-0.5
3056.532	-2.5
3059.771	0.5
3063.006	-1.5
3066.239	-0.5
3069.469	2.5
3072.697	1.5
3075.922	-1.5
3079.144	2.5
3082.364	-0.5
3085.581	-3.5
3088.795	-0.5
3092.007	-1.5
3095.216	-2.5
3098.423	1.5
3101.627	-3.5
3104.828	2.5
3108.026	-0.5
3111.222	0.5
3114.416	-1.5
3117.607	-0.5
3120.795	-0.5
3123.98	-2.5
3127.163	0.5
3130.344	-2.5
3133.521	3.5
3136.696	2.5
3139.869	1.5
3143.039	0.5
3146.206	-1.5
3149.371	0.5
3152.533	1.5
3155.693	-2.5
3158.85	-1.5
3162.005	0.5
3165.157	-0.5
3168.306	0.5
3171.453	-0.5
3174.597	1.5
3177.739	-3.5
3180.878	-0.5
3184.014	-3.5
3187.149	-3.5
3190.28	-1.5
3193.409	-1.5
3196.536	-0.5
3199.659	6.5
3202.781	1.5
3205.9	4.5
3209.016	-1.5
3212.13	-2.5
3215.241	-0.5
3218.35	3.5
3221.456	0.5
3224.56	2.5
3227.661	3.5
3230.76	4.5
3233.856	2.5
3236.95	4.5
3240.041	1.5
3243.13	-5.5
3246.216	1.5
3249.3	1.5
3252.382	1.5
3255.46	5.5
3258.537	1.5
3261.611	2.5
3264.682	0.5
3267.751	-0.5
3270.818	-5.5
3273.882	-3.5
3276.943	-0.5
3280.002	1.5
3283.059	-0.5
3286.113	2.5
3289.165	-1.5
3292.214	-3.5
3295.261	-3.5
3298.306	-1.5
3301.348	-3.5
3304.387	-1.5
3307.425	0.5
3310.459	2.5
3313.492	-1.5
3316.521	2.5
3319.549	-0.5
3322.574	-1.5
3325.597	-3.5
3328.617	-5.5
3331.635	-1.5
3334.65	-2.5
3337.663	-2.5
3340.674	2.5
3343.682	2.5
3346.688	0.5
3349.691	-0.5
3352.692	-1.5
3355.691	-8.5
3358.687	-6.5
3361.681	-2.5
3364.673	1.5
3367.662	-1.5
3370.649	5.5
3373.633	1.5
3376.615	2.5
3379.595	-5.5
3382.572	-3.5
3385.547	-4.5
3388.52	-2.5
3391.49	-0.5
3394.458	-0.5
3397.424	-0.5
3400.387	2.5
3403.348	-3.5
3406.307	-2.5
3409.263	-1.5
3412.217	-3.5
3415.168	-3.5
3418.118	-2.5
3421.065	1.5
3424.009	1.5
3426.951	0.5
3429.891	-0.5
3432.829	-3.5
3435.764	-2.5
3438.697	-7.5
3441.628	-1.5
3444.557	-7.5
3447.483	-0.5
3450.407	-0.5
3453.328	3.5
3456.247	-4.5
3459.164	-2.5
3462.079	-1.5
3464.991	-2.5
3467.902	-6.5
3470.809	-1.5
3473.715	-1.5
3476.618	1.5
3479.519	-5.5
3482.418	-2.5
3485.315	-2.5
3488.209	-0.5
3491.101	-3.5
3493.99	-7.5
3496.878	-3.5
3499.763	-1.5
3502.646	0.5
3505.527	-1.5
3508.405	1.5
3511.281	-2.5
3514.155	-3.5
3517.027	-1.5
3519.897	-0.5
3522.764	-5.5
3525.629	-6.5
3528.492	-0.5
3531.352	-1.5
3534.211	-1.5
3537.067	-7.5
3539.921	-3.5
3542.773	-2.5
3545.622	1.5
3548.469	-6.5
3551.315	-2.5
3554.157	-5.5
3556.998	0.5
3559.837	-5.5
3562.673	-6.5
3565.507	-4.5
3568.339	0.5
3571.169	-0.5
3573.996	-2.5
3576.822	-6.5
3579.645	-5.5
3582.466	-3.5
3585.285	-3.5
3588.101	-2.5
3590.916	-0.5
3593.728	-1.5
3596.538	-2.5
3599.346	-3.5
3602.152	-2.5
3604.956	-8.5
3607.757	-3.5
3610.556	-1.5
3613.354	1.5
3616.149	-1.5
3618.942	-0.5
3621.732	-1.5
3624.521	-1.5
3627.307	-7.5
3630.092	-7.5
3632.874	-4.5
3635.654	-1.5
3638.432	-3.5
3641.208	-3.5
3643.982	2.5
3646.753	1.5
3649.523	-6.5
3652.29	-1.5
3655.055	-8.5
3657.818	-7.5
3660.579	-1.5
3663.338	-5.5
3666.095	0.5
3668.849	-0.5
3671.602	-2.5
3674.352	1.5
3677.101	-4.5
3679.847	-7.5
3682.591	-2.5
3685.333	-4.5
3688.073	-2.5
3690.811	1.5
3693.547	1.5
3696.281	-0.5
3699.013	-4.5
3701.742	-5.5
3704.47	-6.5
3707.195	-4.5
3709.919	-6.5
3712.64	-2.5
3715.359	0.5
3718.076	-1.5
3720.792	0.5
3723.505	-1.5
3726.216	-3.5
3728.925	-4.5
3731.632	-5.5
3734.336	-5.5
3737.039	-2.5
3739.74	-1.5
3742.439	-1.5
3745.136	-1.5
3747.83	-1.5
3750.523	-2.5
3753.213	-5.5
3755.902	-1.5
3758.589	-3.5
3761.273	-4.5
3763.956	-3.5
3766.636	-5.5
3769.315	-3.5
3771.991	-4.5
3774.665	-1.5
3777.338	-1.5
3780.008	-2.5
3782.677	-1.5
3785.343	-4.5
3788.007	-4.5
3790.67	-3.5
3793.33	-0.5
3795.989	-3.5
3798.645	-3.5
3801.299	-4.5
3803.952	-3.5
3806.602	-2.5
3809.251	-3.5
3811.897	-6.5
3814.542	-5.5
3817.184	-3.5
3819.825	-3.5
3822.463	-3.5
3825.1	-2.5
3827.735	-1.5
3830.367	-0.5
3832.998	-1.5
3835.627	0.5
3838.253	-1.5
3840.878	-4.5
3843.501	-4.5
3846.122	-4.5
3848.741	-3.5
3851.358	-1.5
3853.973	-0.5
3856.586	-3.5
3859.197	-2.5
3861.806	-3.5
3864.414	-5.5
3867.019	-7.5
3869.622	-5.5
3872.224	-4.5
3874.823	0.5
3877.421	1.5
3880.016	1.5
3882.61	-0.5
3885.202	4.5
3887.792	-2.5
3890.38	-3.5
3892.966	-5.5
3895.55	-4.5
3898.132	-3.5
3900.713	-1.5
3903.291	-1.5
3905.868	-1.5
3908.442	-3.5
3911.015	-4.5
3913.586	-2.5
3916.155	0.5
3918.722	-5.5
3921.287	-5.5
3923.85	0.5
3926.411	-1.5
3928.971	-4.5
3931.528	-1.5
3934.084	-2.5
3936.638	-4.5
3939.19	-1.5
3941.74	-0.5
3944.288	-6.5
3946.834	-3.5
3949.378	-0.5
3951.921	-0.5
3954.462	-2.5
3957	-3.5
3959.537	0.5
3962.072	-0.5
3964.606	-2.5
3967.137	-4.5
3969.667	-1.5
3972.194	-4.5
3974.72	-1.5
3977.244	-4.5
3979.766	0.5
3982.286	-6.5
3984.805	-2.5
3987.321	-0.5
3989.836	-4.5
3992.349	-2.5
3994.86	0.5
3997.369	-7.5
3999.877	-1.5
4002.382	-4.5
4004.886	-4.5
4007.388	-0.5
4009.888	-2.5
4012.386	-4.5
4014.883	-8.5
4017.377	-1.5
4019.87	-6.5
4022.361	-0.5
4024.85	-3.5
4027.338	-4.5
4029.823	-2.5
4032.307	2.5
4034.789	-3.5
4037.269	-2.5
4039.747	-0.5
4042.224	-1.5
4044.699	-8.5
4047.172	-2.5
4049.643	-3.5
4052.112	-5.5
4054.58	-1.5
4057.046	-2.5
4059.51	0.5
4061.972	-1.5
4064.432	-1.5
4066.891	-4.5
4069.348	-1.5
4071.803	-6.5
4074.256	-7.5
4076.708	-0.5
4079.158	1.5
4081.606	-4.5
4084.052	1.5
4086.497	-0.5
4088.939	1.5
4091.38	-3.5
4093.819	-4.5
4096.257	-6.5
4098.693	-4.5
4101.127	-2.5
4103.559	-1.5
4105.989	2.5
4108.418	2.5
4110.845	1.5
4113.27	-1.5
4115.694	-2.5
4118.115	1.5
4120.535	-6.5
4122.954	-2.5
4125.37	-6.5
4127.785	-2.5
4130.198	-0.5
4132.609	-0.5
4135.019	-1.5
4137.427	-4.5
4139.833	-2.5
4142.237	-8.5
