Data from 1_n=3_RamanShift_02.txt Node
Date: Mon Mar 19 12:26:13 IST 2018
User: aro
Spectrometer: QEPB0276
Trigger mode: 0
Integration Time (sec): 5.000000E0
Scans to average: 1
Electric dark correction enabled: true
Nonlinearity correction enabled: false
Boxcar width: 0
XAxis mode: Raman Shifts
Number of Pixels in Spectrum: 1044
>>>>>Begin Spectral Data<<<<<
160.701	-2.4
166.742	-0.4
172.777	4.6
178.805	11.6
184.826	18.6
190.841	35.6
196.849	57.6
202.85	73.6
208.845	78.6
214.833	76.6
220.815	82.6
226.789	81.6
232.758	80.6
238.719	79.6
244.674	81.6
250.623	83.6
256.565	83.6
262.5	76.6
268.429	75.6
274.351	84.6
280.267	87.6
286.176	81.6
292.079	89.6
297.975	85.6
303.865	83.6
309.748	87.6
315.625	83.6
321.495	88.6
327.359	88.6
333.217	88.6
339.068	90.6
344.912	94.6
350.751	86.6
356.583	86.6
362.408	90.6
368.227	86.6
374.04	91.6
379.847	96.6
385.647	104.6
391.44	106.6
397.228	102.6
403.009	102.6
408.784	110.6
414.553	116.6
420.315	128.6
426.071	137.6
431.821	112.6
437.565	99.6
443.302	97.6
449.033	99.6
454.758	99.6
460.477	93.6
466.189	94.6
471.896	87.6
477.596	85.6
483.29	82.6
488.978	86.6
494.66	84.6
500.335	85.6
506.005	72.6
511.668	74.6
517.325	60.6
522.977	57.6
528.622	52.6
534.261	51.6
539.894	48.6
545.521	49.6
551.141	47.6
556.756	49.6
562.365	43.6
567.968	46.6
573.565	43.6
579.155	40.6
584.74	37.6
590.319	37.6
595.892	41.6
601.459	46.6
607.02	42.6
612.575	40.6
618.124	43.6
623.667	39.6
629.204	39.6
634.735	36.6
640.261	37.6
645.781	42.6
651.294	46.6
656.802	51.6
662.304	41.6
667.8	42.6
673.29	33.6
678.775	34.6
684.254	27.6
689.726	30.6
695.193	33.6
700.655	33.6
706.11	35.6
711.56	36.6
717.004	33.6
722.442	33.6
727.874	31.6
733.301	29.6
738.722	33.6
744.137	31.6
749.547	34.6
754.951	37.6
760.349	34.6
765.741	36.6
771.128	37.6
776.509	36.6
781.885	39.6
787.254	38.6
792.618	33.6
797.977	35.6
803.33	40.6
808.677	43.6
814.019	46.6
819.355	45.6
824.686	42.6
830.011	35.6
835.33	37.6
840.644	39.6
845.952	36.6
851.255	36.6
856.552	32.6
861.844	33.6
867.13	34.6
872.41	32.6
877.686	28.6
882.955	24.6
888.219	27.6
893.478	24.6
898.731	25.6
903.979	26.6
909.221	28.6
914.458	25.6
919.69	28.6
924.916	28.6
930.136	25.6
935.351	28.6
940.561	26.6
945.766	29.6
950.965	25.6
956.158	25.6
961.347	27.6
966.529	28.6
971.707	22.6
976.879	29.6
982.046	29.6
987.208	27.6
992.364	24.6
997.515	22.6
1002.66	27.6
1007.801	27.6
1012.936	19.6
1018.066	22.6
1023.19	20.6
1028.309	25.6
1033.423	23.6
1038.532	29.6
1043.636	29.6
1048.734	33.6
1053.827	29.6
1058.915	25.6
1063.998	23.6
1069.075	21.6
1074.147	17.6
1079.214	21.6
1084.276	25.6
1089.333	26.6
1094.385	27.6
1099.431	29.6
1104.472	23.6
1109.509	24.6
1114.54	21.6
1119.565	22.6
1124.586	22.6
1129.602	17.6
1134.613	20.6
1139.618	21.6
1144.619	28.6
1149.614	31.6
1154.604	28.6
1159.589	28.6
1164.57	28.6
1169.545	25.6
1174.515	27.6
1179.48	21.6
1184.44	24.6
1189.395	21.6
1194.345	24.6
1199.29	26.6
1204.23	22.6
1209.165	21.6
1214.095	21.6
1219.021	23.6
1223.941	24.6
1228.856	22.6
1233.766	25.6
1238.672	25.6
1243.572	23.6
1248.467	21.6
1253.358	20.6
1258.244	21.6
1263.124	15.6
1268	14.6
1272.871	18.6
1277.737	18.6
1282.599	23.6
1287.455	19.6
1292.306	19.6
1297.153	19.6
1301.995	16.6
1306.832	17.6
1311.664	18.6
1316.491	20.6
1321.314	23.6
1326.132	28.6
1330.945	26.6
1335.753	25.6
1340.556	25.6
1345.354	22.6
1350.148	22.6
1354.937	19.6
1359.722	20.6
1364.501	16.6
1369.276	20.6
1374.046	18.6
1378.811	16.6
1383.572	17.6
1388.327	19.6
1393.079	14.6
1397.825	14.6
1402.567	16.6
1407.304	14.6
1412.036	13.6
1416.764	9.6
1421.487	16.6
1426.205	15.6
1430.919	19.6
1435.628	18.6
1440.333	23.6
1445.032	26.6
1449.727	20.6
1454.418	24.6
1459.104	29.6
1463.785	25.6
1468.462	23.6
1473.134	24.6
1477.802	22.6
1482.465	16.6
1487.123	19.6
1491.777	19.6
1496.426	20.6
1501.071	15.6
1505.711	17.6
1510.347	11.6
1514.978	16.6
1519.604	14.6
1524.226	11.6
1528.844	16.6
1533.457	18.6
1538.065	20.6
1542.669	15.6
1547.269	13.6
1551.864	13.6
1556.454	10.6
1561.041	9.6
1565.622	11.6
1570.199	11.6
1574.772	13.6
1579.34	14.6
1583.904	19.6
1588.464	15.6
1593.019	12.6
1597.569	12.6
1602.115	12.6
1606.657	9.6
1611.195	15.6
1615.728	15.6
1620.256	14.6
1624.78	14.6
1629.3	13.6
1633.816	11.6
1638.327	14.6
1642.834	11.6
1647.336	10.6
1651.834	6.6
1656.328	12.6
1660.817	14.6
1665.302	16.6
1669.783	13.6
1674.259	11.6
1678.732	11.6
1683.199	11.6
1687.663	10.6
1692.122	6.6
1696.577	9.6
1701.028	14.6
1705.474	13.6
1709.917	15.6
1714.355	12.6
1718.788	9.6
1723.218	8.6
1727.643	6.6
1732.064	7.6
1736.481	9.6
1740.893	10.6
1745.301	14.6
1749.705	10.6
1754.105	13.6
1758.501	10.6
1762.893	8.6
1767.28	6.6
1771.663	8.6
1776.042	4.6
1780.417	8.6
1784.787	11.6
1789.154	11.6
1793.516	10.6
1797.874	11.6
1802.228	7.6
1806.578	4.6
1810.924	12.6
1815.266	6.6
1819.603	6.6
1823.937	8.6
1828.266	9.6
1832.591	9.6
1836.913	7.6
1841.23	7.6
1845.543	6.6
1849.852	5.6
1854.156	3.6
1858.457	5.6
1862.754	9.6
1867.047	7.6
1871.335	10.6
1875.62	8.6
1879.9	10.6
1884.177	11.6
1888.449	7.6
1892.718	5.6
1896.982	7.6
1901.243	4.6
1905.499	5.6
1909.752	5.6
1914	8.6
1918.245	6.6
1922.485	5.6
1926.722	7.6
1930.954	3.6
1935.183	7.6
1939.408	6.6
1943.628	8.6
1947.845	8.6
1952.058	8.6
1956.267	6.6
1960.472	4.6
1964.673	5.6
1968.87	3.6
1973.063	6.6
1977.252	3.6
1981.438	5.6
1985.619	6.6
1989.797	3.6
1993.971	3.6
1998.14	4.6
2002.306	4.6
2006.469	7.6
2010.627	7.6
2014.781	6.6
2018.932	4.6
2023.078	5.6
2027.221	6.6
2031.36	2.6
2035.495	3.6
2039.627	6.6
2043.754	5.6
2047.878	9.6
2051.998	7.6
2056.114	6.6
2060.226	8.6
2064.334	0.6
2068.439	2.6
2072.54	0.6
2076.637	5.6
2080.73	4.6
2084.82	7.6
2088.906	9.6
2092.988	5.6
2097.066	2.6
2101.14	5.6
2105.211	3.6
2109.278	4.6
2113.342	3.6
2117.401	6.6
2121.457	8.6
2125.509	6.6
2129.558	5.6
2133.602	4.6
2137.643	0.6
2141.681	5.6
2145.714	2.6
2149.744	4.6
2153.77	4.6
2157.793	10.6
2161.812	8.6
2165.827	7.6
2169.838	1.6
2173.846	3.6
2177.851	0.6
2181.851	2.6
2185.848	4.6
2189.841	6.6
2193.831	2.6
2197.817	3.6
2201.799	6.6
2205.778	2.6
2209.753	-0.4
2213.725	1.6
2217.693	-0.4
2221.657	-0.4
2225.618	3.6
2229.575	4.6
2233.529	4.6
2237.479	1.6
2241.425	0.6
2245.368	1.6
2249.307	-0.4
2253.243	-0.4
2257.175	0.6
2261.104	5.6
2265.029	4.6
2268.95	3.6
2272.868	3.6
2276.783	0.6
2280.694	0.6
2284.601	-0.4
2288.505	3.6
2292.405	1.6
2296.302	4.6
2300.195	2.6
2304.085	1.6
2307.971	2.6
2311.854	2.6
2315.734	0.6
2319.609	1.6
2323.482	0.6
2327.351	-3.4
2331.216	2.6
2335.078	4.6
2338.937	6.6
2342.792	1.6
2346.643	-2.4
2350.492	3.6
2354.336	-0.4
2358.178	2.6
2362.015	0.6
2365.85	2.6
2369.681	3.6
2373.508	-1.4
2377.333	0.6
2381.153	0.6
2384.971	2.6
2388.785	2.6
2392.595	1.6
2396.402	2.6
2400.206	-1.4
2404.007	-2.4
2407.804	0.6
2411.597	1.6
2415.388	1.6
2419.174	1.6
2422.958	4.6
2426.738	-0.4
2430.515	3.6
2434.289	-0.4
2438.059	-0.4
2441.825	-2.4
2445.589	-0.4
2449.349	-1.4
2453.106	2.6
2456.859	2.6
2460.61	3.6
2464.356	4.6
2468.1	1.6
2471.84	-0.4
2475.577	-1.4
2479.311	-4.4
2483.041	2.6
2486.768	3.6
2490.492	1.6
2494.213	0.6
2497.93	-2.4
2501.644	0.6
2505.355	-1.4
2509.062	-4.4
2512.766	-2.4
2516.467	-3.4
2520.165	-0.4
2523.859	-1.4
2527.551	1.6
2531.239	2.6
2534.923	0.6
2538.605	-1.4
2542.283	-6.4
2545.958	0.6
2549.63	-2.4
2553.299	2.6
2556.964	2.6
2560.626	2.6
2564.285	-4.4
2567.941	0.6
2571.594	-3.4
2575.243	-3.4
2578.89	0.6
2582.533	-1.4
2586.173	0.6
2589.809	-0.4
2593.443	-0.4
2597.073	1.6
2600.701	3.6
2604.325	-1.4
2607.946	-0.4
2611.564	2.6
2615.178	-1.4
2618.79	-0.4
2622.398	2.6
2626.004	2.6
2629.606	-0.4
2633.205	0.6
2636.801	0.6
2640.394	-0.4
2643.983	-1.4
2647.57	1.6
2651.153	-0.4
2654.734	-2.4
2658.311	-1.4
2661.885	-1.4
2665.456	-1.4
2669.025	0.6
2672.589	2.6
2676.151	0.6
2679.71	4.6
2683.266	1.6
2686.819	6.6
2690.368	0.6
2693.915	-1.4
2697.458	-3.4
2700.999	3.6
2704.536	2.6
2708.071	3.6
2711.602	3.6
2715.13	3.6
2718.656	1.6
2722.178	2.6
2725.697	-2.4
2729.214	-2.4
2732.727	-0.4
2736.237	0.6
2739.744	2.6
2743.249	5.6
2746.75	0.6
2750.248	0.6
2753.743	0.6
2757.236	-0.4
2760.725	-3.4
2764.211	-2.4
2767.695	-0.4
2771.175	-0.4
2774.652	3.6
2778.127	1.6
2781.598	3.6
2785.067	-2.4
2788.532	-1.4
2791.995	-2.4
2795.455	-2.4
2798.911	-2.4
2802.365	-0.4
2805.816	0.6
2809.264	2.6
2812.709	2.6
2816.151	1.6
2819.59	-3.4
2823.026	-0.4
2826.46	-4.4
2829.89	-0.4
2833.318	-4.4
2836.742	1.6
2840.164	5.6
2843.583	5.6
2846.999	5.6
2850.412	8.6
2853.822	2.6
2857.229	3.6
2860.634	-0.4
2864.035	2.6
2867.434	4.6
2870.83	11.6
2874.223	10.6
2877.613	8.6
2881	6.6
2884.385	7.6
2887.766	11.6
2891.145	12.6
2894.521	10.6
2897.894	8.6
2901.264	11.6
2904.631	6.6
2907.996	11.6
2911.358	8.6
2914.717	7.6
2918.073	3.6
2921.426	7.6
2924.777	4.6
2928.124	7.6
2931.469	3.6
2934.811	3.6
2938.15	4.6
2941.487	2.6
2944.821	4.6
2948.152	3.6
2951.48	3.6
2954.805	8.6
2958.128	7.6
2961.447	3.6
2964.765	2.6
2968.079	8.6
2971.39	2.6
2974.699	1.6
2978.005	-3.4
2981.308	2.6
2984.609	1.6
2987.907	2.6
2991.202	2.6
2994.494	-2.4
2997.784	1.6
3001.07	-1.4
3004.355	-3.4
3007.636	-0.4
3010.915	0.6
3014.191	-1.4
3017.464	-1.4
3020.734	2.6
3024.002	1.6
3027.267	0.6
3030.53	1.6
3033.789	-1.4
3037.046	-4.4
3040.301	-3.4
3043.552	-2.4
3046.801	-1.4
3050.048	4.6
3053.291	-1.4
3056.532	0.6
3059.771	2.6
3063.006	-0.4
3066.239	-4.4
3069.469	-2.4
3072.697	-4.4
3075.922	-2.4
3079.144	1.6
3082.364	2.6
3085.581	-0.4
3088.795	4.6
3092.007	0.6
3095.216	-4.4
3098.423	-6.4
3101.627	-5.4
3104.828	-0.4
3108.026	-1.4
3111.222	0.6
3114.416	2.6
3117.607	4.6
3120.795	1.6
3123.98	0.6
3127.163	0.6
3130.344	0.6
3133.521	0.6
3136.696	-1.4
3139.869	4.6
3143.039	3.6
3146.206	3.6
3149.371	2.6
3152.533	4.6
3155.693	4.6
3158.85	-1.4
3162.005	0.6
3165.157	-3.4
3168.306	-2.4
3171.453	2.6
3174.597	4.6
3177.739	2.6
3180.878	3.6
3184.014	-0.4
3187.149	-3.4
3190.28	-3.4
3193.409	-1.4
3196.536	-2.4
3199.659	2.6
3202.781	2.6
3205.9	5.6
3209.016	5.6
3212.13	3.6
3215.241	2.6
3218.35	2.6
3221.456	-1.4
3224.56	-2.4
3227.661	-2.4
3230.76	1.6
3233.856	3.6
3236.95	5.6
3240.041	1.6
3243.13	-1.4
3246.216	-2.4
3249.3	-1.4
3252.382	-0.4
3255.46	0.6
3258.537	-2.4
3261.611	2.6
3264.682	1.6
3267.751	2.6
3270.818	-1.4
3273.882	-0.4
3276.943	1.6
3280.002	-4.4
3283.059	-0.4
3286.113	-0.4
3289.165	-2.4
3292.214	0.6
3295.261	0.6
3298.306	2.6
3301.348	-0.4
3304.387	-1.4
3307.425	0.6
3310.459	-1.4
3313.492	-1.4
3316.521	-2.4
3319.549	-0.4
3322.574	-1.4
3325.597	-3.4
3328.617	-2.4
3331.635	-1.4
3334.65	-2.4
3337.663	1.6
3340.674	1.6
3343.682	-0.4
3346.688	-1.4
3349.691	1.6
3352.692	-1.4
3355.691	-0.4
3358.687	-4.4
3361.681	2.6
3364.673	3.6
3367.662	-2.4
3370.649	1.6
3373.633	-1.4
3376.615	1.6
3379.595	-5.4
3382.572	0.6
3385.547	-0.4
3388.52	-1.4
3391.49	1.6
3394.458	-1.4
3397.424	-1.4
3400.387	-3.4
3403.348	-6.4
3406.307	-4.4
3409.263	0.6
3412.217	1.6
3415.168	0.6
3418.118	-1.4
3421.065	4.6
3424.009	-2.4
3426.951	0.6
3429.891	-1.4
3432.829	-2.4
3435.764	-0.4
3438.697	-2.4
3441.628	-0.4
3444.557	-1.4
3447.483	-0.4
3450.407	1.6
3453.328	0.6
3456.247	-6.4
3459.164	-3.4
3462.079	-2.4
3464.991	-3.4
3467.902	-1.4
3470.809	0.6
3473.715	-1.4
3476.618	0.6
3479.519	-7.4
3482.418	-4.4
3485.315	-3.4
3488.209	-2.4
3491.101	-1.4
3493.99	-6.4
3496.878	-0.4
3499.763	0.6
3502.646	-0.4
3505.527	-2.4
3508.405	-3.4
3511.281	-3.4
3514.155	-4.4
3517.027	0.6
3519.897	0.6
3522.764	-0.4
3525.629	-0.4
3528.492	-1.4
3531.352	-1.4
3534.211	-3.4
3537.067	-8.4
3539.921	-6.4
3542.773	-3.4
3545.622	2.6
3548.469	-3.4
3551.315	0.6
3554.157	-3.4
3556.998	-1.4
3559.837	-5.4
3562.673	-9.4
3565.507	-5.4
3568.339	-2.4
3571.169	-0.4
3573.996	-0.4
3576.822	-0.4
3579.645	-4.4
3582.466	-1.4
3585.285	-4.4
3588.101	-6.4
3590.916	-2.4
3593.728	-2.4
3596.538	-1.4
3599.346	-3.4
3602.152	0.6
3604.956	-2.4
3607.757	-1.4
3610.556	-2.4
3613.354	-1.4
3616.149	-5.4
3618.942	-6.4
3621.732	-1.4
3624.521	-2.4
3627.307	-3.4
3630.092	-1.4
3632.874	-0.4
3635.654	-1.4
3638.432	-5.4
3641.208	-5.4
3643.982	-2.4
3646.753	-0.4
3649.523	-4.4
3652.29	-0.4
3655.055	-4.4
3657.818	-2.4
3660.579	-1.4
3663.338	-6.4
3666.095	-3.4
3668.849	-2.4
3671.602	-1.4
3674.352	2.6
3677.101	-2.4
3679.847	-4.4
3682.591	1.6
3685.333	0.6
3688.073	-3.4
3690.811	0.6
3693.547	-1.4
3696.281	-4.4
3699.013	-2.4
3701.742	-1.4
3704.47	-5.4
3707.195	-0.4
3709.919	-4.4
3712.64	-3.4
3715.359	-0.4
3718.076	-3.4
3720.792	-2.4
3723.505	-4.4
3726.216	-6.4
3728.925	-2.4
3731.632	-1.4
3734.336	-4.4
3737.039	-1.4
3739.74	-2.4
3742.439	-4.4
3745.136	-2.4
3747.83	-5.4
3750.523	-3.4
3753.213	-5.4
3755.902	1.6
3758.589	-2.4
3761.273	-0.4
3763.956	0.6
3766.636	-4.4
3769.315	-5.4
3771.991	-9.4
3774.665	-3.4
3777.338	-3.4
3780.008	-2.4
3782.677	-1.4
3785.343	0.6
3788.007	-3.4
3790.67	-0.4
3793.33	-3.4
3795.989	-2.4
3798.645	-6.4
3801.299	-3.4
3803.952	-4.4
3806.602	1.6
3809.251	2.6
3811.897	-2.4
3814.542	-0.4
3817.184	-0.4
3819.825	-5.4
3822.463	-8.4
3825.1	-4.4
3827.735	-6.4
3830.367	0.6
3832.998	-2.4
3835.627	0.6
3838.253	1.6
3840.878	-6.4
3843.501	-2.4
3846.122	-6.4
3848.741	-3.4
3851.358	-3.4
3853.973	-3.4
3856.586	-5.4
3859.197	0.6
3861.806	-3.4
3864.414	-3.4
3867.019	-1.4
3869.622	-3.4
3872.224	-2.4
3874.823	-2.4
3877.421	-3.4
3880.016	-6.4
3882.61	0.6
3885.202	3.6
3887.792	1.6
3890.38	-1.4
3892.966	-3.4
3895.55	-0.4
3898.132	-1.4
3900.713	-2.4
3903.291	-5.4
3905.868	-3.4
3908.442	-5.4
3911.015	-4.4
3913.586	-3.4
3916.155	1.6
3918.722	-1.4
3921.287	-2.4
3923.85	-0.4
3926.411	-1.4
3928.971	-5.4
3931.528	-3.4
3934.084	-5.4
3936.638	-5.4
3939.19	-5.4
3941.74	-0.4
3944.288	-5.4
3946.834	0.6
3949.378	0.6
3951.921	-0.4
3954.462	-3.4
3957	-4.4
3959.537	-3.4
3962.072	-3.4
3964.606	-3.4
3967.137	-3.4
3969.667	2.6
3972.194	-2.4
3974.72	-2.4
3977.244	-3.4
3979.766	-1.4
3982.286	-8.4
3984.805	-5.4
3987.321	-2.4
3989.836	-5.4
3992.349	-1.4
3994.86	-0.4
3997.369	-4.4
3999.877	-0.4
4002.382	-4.4
4004.886	-5.4
4007.388	-2.4
4009.888	-8.4
4012.386	-4.4
4014.883	-5.4
4017.377	-0.4
4019.87	0.6
4022.361	-2.4
4024.85	-3.4
4027.338	-4.4
4029.823	-3.4
4032.307	-4.4
4034.789	-3.4
4037.269	-2.4
4039.747	-1.4
4042.224	2.6
4044.699	-2.4
4047.172	-1.4
4049.643	-2.4
4052.112	-5.4
4054.58	-5.4
4057.046	-3.4
4059.51	-3.4
4061.972	-0.4
4064.432	-2.4
4066.891	0.6
4069.348	3.6
4071.803	-2.4
4074.256	-6.4
4076.708	-1.4
4079.158	-0.4
4081.606	-4.4
4084.052	-2.4
4086.497	-2.4
4088.939	-0.4
4091.38	0.6
4093.819	1.6
4096.257	-5.4
4098.693	-3.4
4101.127	-1.4
4103.559	0.6
4105.989	5.6
4108.418	1.6
4110.845	-0.4
4113.27	0.6
4115.694	-0.4
4118.115	2.6
4120.535	-2.4
4122.954	-4.4
4125.37	-8.4
4127.785	-5.4
4130.198	-5.4
4132.609	-4.4
4135.019	-4.4
4137.427	-2.4
4139.833	-2.4
4142.237	-4.4
