Data from 1_n=4_RamanShift_01.txt Node
Date: Mon Mar 19 12:26:53 IST 2018
User: aro
Spectrometer: QEPB0276
Trigger mode: 0
Integration Time (sec): 5.000000E0
Scans to average: 1
Electric dark correction enabled: true
Nonlinearity correction enabled: false
Boxcar width: 0
XAxis mode: Raman Shifts
Number of Pixels in Spectrum: 1044
>>>>>Begin Spectral Data<<<<<
160.701	-2.6
166.742	-1.6
172.777	1.4
178.805	11.4
184.826	20.4
190.841	38.4
196.849	63.4
202.85	73.4
208.845	75.4
214.833	79.4
220.815	76.4
226.789	81.4
232.758	81.4
238.719	88.4
244.674	81.4
250.623	84.4
256.565	85.4
262.5	81.4
268.429	77.4
274.351	83.4
280.267	86.4
286.176	81.4
292.079	81.4
297.975	89.4
303.865	85.4
309.748	86.4
315.625	89.4
321.495	88.4
327.359	87.4
333.217	93.4
339.068	90.4
344.912	93.4
350.751	93.4
356.583	93.4
362.408	94.4
368.227	88.4
374.04	94.4
379.847	100.4
385.647	104.4
391.44	101.4
397.228	108.4
403.009	102.4
408.784	106.4
414.553	112.4
420.315	128.4
426.071	141.4
431.821	119.4
437.565	102.4
443.302	92.4
449.033	97.4
454.758	96.4
460.477	92.4
466.189	95.4
471.896	88.4
477.596	89.4
483.29	83.4
488.978	80.4
494.66	83.4
500.335	83.4
506.005	77.4
511.668	67.4
517.325	63.4
522.977	54.4
528.622	57.4
534.261	54.4
539.894	43.4
545.521	48.4
551.141	48.4
556.756	42.4
562.365	44.4
567.968	47.4
573.565	45.4
579.155	42.4
584.74	44.4
590.319	46.4
595.892	43.4
601.459	40.4
607.02	41.4
612.575	40.4
618.124	41.4
623.667	41.4
629.204	36.4
634.735	40.4
640.261	39.4
645.781	41.4
651.294	54.4
656.802	43.4
662.304	37.4
667.8	36.4
673.29	32.4
678.775	36.4
684.254	34.4
689.726	29.4
695.193	34.4
700.655	33.4
706.11	38.4
711.56	35.4
717.004	37.4
722.442	34.4
727.874	33.4
733.301	23.4
738.722	32.4
744.137	31.4
749.547	31.4
754.951	37.4
760.349	32.4
765.741	38.4
771.128	32.4
776.509	32.4
781.885	35.4
787.254	38.4
792.618	35.4
797.977	39.4
803.33	46.4
808.677	48.4
814.019	46.4
819.355	47.4
824.686	39.4
830.011	34.4
835.33	39.4
840.644	38.4
845.952	43.4
851.255	37.4
856.552	38.4
861.844	36.4
867.13	37.4
872.41	31.4
877.686	26.4
882.955	23.4
888.219	25.4
893.478	28.4
898.731	30.4
903.979	27.4
909.221	33.4
914.458	32.4
919.69	27.4
924.916	29.4
930.136	24.4
935.351	26.4
940.561	24.4
945.766	27.4
950.965	27.4
956.158	30.4
961.347	27.4
966.529	34.4
971.707	26.4
976.879	28.4
982.046	28.4
987.208	23.4
992.364	24.4
997.515	26.4
1002.66	28.4
1007.801	31.4
1012.936	26.4
1018.066	27.4
1023.19	29.4
1028.309	25.4
1033.423	27.4
1038.532	33.4
1043.636	30.4
1048.734	29.4
1053.827	27.4
1058.915	25.4
1063.998	27.4
1069.075	23.4
1074.147	23.4
1079.214	23.4
1084.276	23.4
1089.333	29.4
1094.385	23.4
1099.431	27.4
1104.472	24.4
1109.509	23.4
1114.54	24.4
1119.565	27.4
1124.586	23.4
1129.602	19.4
1134.613	22.4
1139.618	24.4
1144.619	29.4
1149.614	27.4
1154.604	25.4
1159.589	32.4
1164.57	32.4
1169.545	29.4
1174.515	27.4
1179.48	27.4
1184.44	25.4
1189.395	20.4
1194.345	24.4
1199.29	24.4
1204.23	25.4
1209.165	22.4
1214.095	22.4
1219.021	24.4
1223.941	27.4
1228.856	23.4
1233.766	23.4
1238.672	24.4
1243.572	22.4
1248.467	23.4
1253.358	24.4
1258.244	27.4
1263.124	19.4
1268	20.4
1272.871	19.4
1277.737	23.4
1282.599	16.4
1287.455	18.4
1292.306	22.4
1297.153	20.4
1301.995	20.4
1306.832	23.4
1311.664	20.4
1316.491	22.4
1321.314	23.4
1326.132	25.4
1330.945	26.4
1335.753	28.4
1340.556	24.4
1345.354	23.4
1350.148	22.4
1354.937	18.4
1359.722	21.4
1364.501	23.4
1369.276	22.4
1374.046	22.4
1378.811	20.4
1383.572	13.4
1388.327	14.4
1393.079	19.4
1397.825	16.4
1402.567	16.4
1407.304	19.4
1412.036	17.4
1416.764	13.4
1421.487	15.4
1426.205	16.4
1430.919	16.4
1435.628	16.4
1440.333	23.4
1445.032	27.4
1449.727	26.4
1454.418	32.4
1459.104	30.4
1463.785	29.4
1468.462	28.4
1473.134	26.4
1477.802	21.4
1482.465	16.4
1487.123	21.4
1491.777	18.4
1496.426	20.4
1501.071	17.4
1505.711	16.4
1510.347	14.4
1514.978	14.4
1519.604	15.4
1524.226	10.4
1528.844	18.4
1533.457	15.4
1538.065	15.4
1542.669	15.4
1547.269	12.4
1551.864	9.4
1556.454	14.4
1561.041	11.4
1565.622	13.4
1570.199	13.4
1574.772	14.4
1579.34	16.4
1583.904	15.4
1588.464	14.4
1593.019	7.4
1597.569	13.4
1602.115	14.4
1606.657	12.4
1611.195	17.4
1615.728	19.4
1620.256	15.4
1624.78	16.4
1629.3	16.4
1633.816	11.4
1638.327	15.4
1642.834	11.4
1647.336	10.4
1651.834	11.4
1656.328	16.4
1660.817	18.4
1665.302	15.4
1669.783	15.4
1674.259	15.4
1678.732	11.4
1683.199	12.4
1687.663	13.4
1692.122	9.4
1696.577	13.4
1701.028	16.4
1705.474	15.4
1709.917	14.4
1714.355	10.4
1718.788	9.4
1723.218	13.4
1727.643	8.4
1732.064	9.4
1736.481	16.4
1740.893	10.4
1745.301	16.4
1749.705	13.4
1754.105	12.4
1758.501	6.4
1762.893	8.4
1767.28	5.4
1771.663	4.4
1776.042	6.4
1780.417	12.4
1784.787	12.4
1789.154	8.4
1793.516	11.4
1797.874	11.4
1802.228	9.4
1806.578	7.4
1810.924	11.4
1815.266	11.4
1819.603	8.4
1823.937	11.4
1828.266	12.4
1832.591	8.4
1836.913	5.4
1841.23	4.4
1845.543	4.4
1849.852	6.4
1854.156	6.4
1858.457	8.4
1862.754	11.4
1867.047	8.4
1871.335	11.4
1875.62	10.4
1879.9	7.4
1884.177	7.4
1888.449	6.4
1892.718	7.4
1896.982	8.4
1901.243	11.4
1905.499	9.4
1909.752	6.4
1914	11.4
1918.245	4.4
1922.485	3.4
1926.722	7.4
1930.954	7.4
1935.183	7.4
1939.408	10.4
1943.628	13.4
1947.845	11.4
1952.058	10.4
1956.267	5.4
1960.472	4.4
1964.673	2.4
1968.87	0.4
1973.063	4.4
1977.252	7.4
1981.438	9.4
1985.619	9.4
1989.797	7.4
1993.971	6.4
1998.14	3.4
2002.306	2.4
2006.469	6.4
2010.627	7.4
2014.781	8.4
2018.932	9.4
2023.078	8.4
2027.221	6.4
2031.36	5.4
2035.495	5.4
2039.627	3.4
2043.754	2.4
2047.878	7.4
2051.998	6.4
2056.114	8.4
2060.226	9.4
2064.334	7.4
2068.439	6.4
2072.54	4.4
2076.637	4.4
2080.73	5.4
2084.82	4.4
2088.906	9.4
2092.988	6.4
2097.066	4.4
2101.14	8.4
2105.211	7.4
2109.278	6.4
2113.342	6.4
2117.401	2.4
2121.457	3.4
2125.509	7.4
2129.558	4.4
2133.602	6.4
2137.643	0.4
2141.681	6.4
2145.714	4.4
2149.744	5.4
2153.77	4.4
2157.793	9.4
2161.812	6.4
2165.827	4.4
2169.838	3.4
2173.846	-1.6
2177.851	3.4
2181.851	2.4
2185.848	8.4
2189.841	6.4
2193.831	2.4
2197.817	8.4
2201.799	5.4
2205.778	1.4
2209.753	-1.6
2213.725	0.4
2217.693	1.4
2221.657	2.4
2225.618	4.4
2229.575	9.4
2233.529	6.4
2237.479	3.4
2241.425	5.4
2245.368	2.4
2249.307	-0.6
2253.243	2.4
2257.175	-0.6
2261.104	4.4
2265.029	4.4
2268.95	1.4
2272.868	4.4
2276.783	1.4
2280.694	3.4
2284.601	2.4
2288.505	2.4
2292.405	3.4
2296.302	3.4
2300.195	4.4
2304.085	0.4
2307.971	3.4
2311.854	1.4
2315.734	6.4
2319.609	2.4
2323.482	3.4
2327.351	1.4
2331.216	4.4
2335.078	1.4
2338.937	3.4
2342.792	0.4
2346.643	-1.6
2350.492	3.4
2354.336	1.4
2358.178	3.4
2362.015	4.4
2365.85	2.4
2369.681	1.4
2373.508	-0.6
2377.333	-1.6
2381.153	0.4
2384.971	4.4
2388.785	4.4
2392.595	5.4
2396.402	7.4
2400.206	4.4
2404.007	2.4
2407.804	-0.6
2411.597	1.4
2415.388	-0.6
2419.174	2.4
2422.958	5.4
2426.738	0.4
2430.515	5.4
2434.289	5.4
2438.059	0.4
2441.825	-3.6
2445.589	-0.6
2449.349	-0.6
2453.106	2.4
2456.859	4.4
2460.61	5.4
2464.356	5.4
2468.1	1.4
2471.84	-0.6
2475.577	-0.6
2479.311	-1.6
2483.041	0.4
2486.768	-0.6
2490.492	0.4
2494.213	3.4
2497.93	2.4
2501.644	1.4
2505.355	0.4
2509.062	-0.6
2512.766	1.4
2516.467	-0.6
2520.165	-1.6
2523.859	-0.6
2527.551	0.4
2531.239	2.4
2534.923	1.4
2538.605	1.4
2542.283	-3.6
2545.958	1.4
2549.63	1.4
2553.299	0.4
2556.964	1.4
2560.626	-0.6
2564.285	-1.6
2567.941	-1.6
2571.594	-1.6
2575.243	-2.6
2578.89	3.4
2582.533	4.4
2586.173	-0.6
2589.809	0.4
2593.443	0.4
2597.073	1.4
2600.701	-3.6
2604.325	0.4
2607.946	1.4
2611.564	3.4
2615.178	2.4
2618.79	3.4
2622.398	-0.6
2626.004	-0.6
2629.606	-0.6
2633.205	-1.6
2636.801	-2.6
2640.394	-1.6
2643.983	4.4
2647.57	5.4
2651.153	4.4
2654.734	2.4
2658.311	2.4
2661.885	-1.6
2665.456	-0.6
2669.025	-2.6
2672.589	0.4
2676.151	0.4
2679.71	5.4
2683.266	2.4
2686.819	8.4
2690.368	4.4
2693.915	-2.6
2697.458	-2.6
2700.999	1.4
2704.536	-1.6
2708.071	3.4
2711.602	2.4
2715.13	6.4
2718.656	3.4
2722.178	-1.6
2725.697	1.4
2729.214	0.4
2732.727	0.4
2736.237	2.4
2739.744	2.4
2743.249	6.4
2746.75	1.4
2750.248	0.4
2753.743	3.4
2757.236	2.4
2760.725	-2.6
2764.211	-1.6
2767.695	0.4
2771.175	-1.6
2774.652	3.4
2778.127	0.4
2781.598	2.4
2785.067	-1.6
2788.532	-1.6
2791.995	-1.6
2795.455	0.4
2798.911	-0.6
2802.365	-0.6
2805.816	-1.6
2809.264	0.4
2812.709	0.4
2816.151	3.4
2819.59	-0.6
2823.026	2.4
2826.46	-1.6
2829.89	3.4
2833.318	-1.6
2836.742	3.4
2840.164	6.4
2843.583	6.4
2846.999	7.4
2850.412	8.4
2853.822	6.4
2857.229	7.4
2860.634	4.4
2864.035	7.4
2867.434	9.4
2870.83	10.4
2874.223	11.4
2877.613	13.4
2881	12.4
2884.385	15.4
2887.766	18.4
2891.145	16.4
2894.521	14.4
2897.894	13.4
2901.264	11.4
2904.631	12.4
2907.996	13.4
2911.358	12.4
2914.717	14.4
2918.073	7.4
2921.426	7.4
2924.777	8.4
2928.124	9.4
2931.469	7.4
2934.811	6.4
2938.15	7.4
2941.487	5.4
2944.821	5.4
2948.152	5.4
2951.48	5.4
2954.805	10.4
2958.128	7.4
2961.447	2.4
2964.765	4.4
2968.079	12.4
2971.39	3.4
2974.699	4.4
2978.005	2.4
2981.308	2.4
2984.609	0.4
2987.907	2.4
2991.202	2.4
2994.494	0.4
2997.784	3.4
3001.07	-0.6
3004.355	0.4
3007.636	2.4
3010.915	3.4
3014.191	1.4
3017.464	0.4
3020.734	3.4
3024.002	-1.6
3027.267	0.4
3030.53	0.4
3033.789	0.4
3037.046	-0.6
3040.301	1.4
3043.552	1.4
3046.801	2.4
3050.048	-0.6
3053.291	-0.6
3056.532	-2.6
3059.771	1.4
3063.006	-1.6
3066.239	-2.6
3069.469	0.4
3072.697	0.4
3075.922	-1.6
3079.144	-0.6
3082.364	0.4
3085.581	-0.6
3088.795	3.4
3092.007	-3.6
3095.216	-2.6
3098.423	-3.6
3101.627	1.4
3104.828	5.4
3108.026	0.4
3111.222	-0.6
3114.416	1.4
3117.607	3.4
3120.795	2.4
3123.98	0.4
3127.163	0.4
3130.344	0.4
3133.521	3.4
3136.696	1.4
3139.869	4.4
3143.039	3.4
3146.206	2.4
3149.371	1.4
3152.533	-0.6
3155.693	-2.6
3158.85	0.4
3162.005	0.4
3165.157	-2.6
3168.306	-1.6
3171.453	0.4
3174.597	2.4
3177.739	0.4
3180.878	1.4
3184.014	0.4
3187.149	-2.6
3190.28	-0.6
3193.409	-1.6
3196.536	0.4
3199.659	4.4
3202.781	2.4
3205.9	2.4
3209.016	1.4
3212.13	-0.6
3215.241	-1.6
3218.35	4.4
3221.456	1.4
3224.56	3.4
3227.661	3.4
3230.76	4.4
3233.856	2.4
3236.95	4.4
3240.041	-2.6
3243.13	-0.6
3246.216	2.4
3249.3	0.4
3252.382	1.4
3255.46	3.4
3258.537	4.4
3261.611	3.4
3264.682	3.4
3267.751	-0.6
3270.818	-0.6
3273.882	-0.6
3276.943	-0.6
3280.002	0.4
3283.059	1.4
3286.113	3.4
3289.165	0.4
3292.214	-1.6
3295.261	-2.6
3298.306	-0.6
3301.348	-1.6
3304.387	-0.6
3307.425	3.4
3310.459	2.4
3313.492	-0.6
3316.521	2.4
3319.549	0.4
3322.574	0.4
3325.597	-3.6
3328.617	-5.6
3331.635	0.4
3334.65	1.4
3337.663	1.4
3340.674	5.4
3343.682	3.4
3346.688	2.4
3349.691	-1.6
3352.692	-2.6
3355.691	-7.6
3358.687	-4.6
3361.681	-0.6
3364.673	2.4
3367.662	-1.6
3370.649	5.4
3373.633	0.4
3376.615	1.4
3379.595	-5.6
3382.572	-0.6
3385.547	-3.6
3388.52	-0.6
3391.49	1.4
3394.458	3.4
3397.424	0.4
3400.387	2.4
3403.348	-2.6
3406.307	-5.6
3409.263	-2.6
3412.217	-1.6
3415.168	-2.6
3418.118	-1.6
3421.065	4.4
3424.009	2.4
3426.951	3.4
3429.891	-1.6
3432.829	-2.6
3435.764	-0.6
3438.697	-7.6
3441.628	-2.6
3444.557	-1.6
3447.483	2.4
3450.407	2.4
3453.328	5.4
3456.247	-5.6
3459.164	0.4
3462.079	0.4
3464.991	0.4
3467.902	-6.6
3470.809	-2.6
3473.715	1.4
3476.618	0.4
3479.519	-0.6
3482.418	0.4
3485.315	-0.6
3488.209	-1.6
3491.101	-2.6
3493.99	-4.6
3496.878	-1.6
3499.763	-2.6
3502.646	1.4
3505.527	0.4
3508.405	2.4
3511.281	-1.6
3514.155	-1.6
3517.027	-1.6
3519.897	0.4
3522.764	-0.6
3525.629	-3.6
3528.492	-1.6
3531.352	-4.6
3534.211	-1.6
3537.067	-4.6
3539.921	-3.6
3542.773	-1.6
3545.622	3.4
3548.469	-3.6
3551.315	0.4
3554.157	-3.6
3556.998	-3.6
3559.837	-5.6
3562.673	-2.6
3565.507	-4.6
3568.339	1.4
3571.169	1.4
3573.996	-1.6
3576.822	-0.6
3579.645	-0.6
3582.466	-1.6
3585.285	-1.6
3588.101	-6.6
3590.916	-1.6
3593.728	-0.6
3596.538	-2.6
3599.346	-1.6
3602.152	-1.6
3604.956	-2.6
3607.757	-3.6
3610.556	-0.6
3613.354	-0.6
3616.149	-5.6
3618.942	-3.6
3621.732	-1.6
3624.521	0.4
3627.307	-0.6
3630.092	-2.6
3632.874	-2.6
3635.654	-0.6
3638.432	-5.6
3641.208	-3.6
3643.982	-0.6
3646.753	-0.6
3649.523	-4.6
3652.29	1.4
3655.055	-4.6
3657.818	-3.6
3660.579	1.4
3663.338	-3.6
3666.095	-1.6
3668.849	-0.6
3671.602	-0.6
3674.352	1.4
3677.101	-2.6
3679.847	-3.6
3682.591	-0.6
3685.333	-3.6
3688.073	-1.6
3690.811	-1.6
3693.547	-1.6
3696.281	-5.6
3699.013	-1.6
3701.742	-1.6
3704.47	-2.6
3707.195	-2.6
3709.919	-5.6
3712.64	-0.6
3715.359	-0.6
3718.076	-0.6
3720.792	-1.6
3723.505	-3.6
3726.216	-2.6
3728.925	-2.6
3731.632	-3.6
3734.336	-4.6
3737.039	-0.6
3739.74	0.4
3742.439	-2.6
3745.136	-1.6
3747.83	-4.6
3750.523	-2.6
3753.213	-8.6
3755.902	-0.6
3758.589	-2.6
3761.273	0.4
3763.956	0.4
3766.636	-3.6
3769.315	-2.6
3771.991	-4.6
3774.665	-5.6
3777.338	-0.6
3780.008	-2.6
3782.677	-3.6
3785.343	-1.6
3788.007	-0.6
3790.67	1.4
3793.33	0.4
3795.989	0.4
3798.645	-3.6
3801.299	-3.6
3803.952	-2.6
3806.602	0.4
3809.251	-1.6
3811.897	-2.6
3814.542	-1.6
3817.184	-4.6
3819.825	-5.6
3822.463	-5.6
3825.1	-4.6
3827.735	-4.6
3830.367	-0.6
3832.998	-2.6
3835.627	1.4
3838.253	0.4
3840.878	-3.6
3843.501	-0.6
3846.122	-2.6
3848.741	-0.6
3851.358	-1.6
3853.973	-1.6
3856.586	-5.6
3859.197	-0.6
3861.806	-6.6
3864.414	-4.6
3867.019	-1.6
3869.622	-1.6
3872.224	-0.6
3874.823	0.4
3877.421	0.4
3880.016	-2.6
3882.61	-0.6
3885.202	4.4
3887.792	0.4
3890.38	-2.6
3892.966	-1.6
3895.55	-1.6
3898.132	1.4
3900.713	0.4
3903.291	0.4
3905.868	-0.6
3908.442	-1.6
3911.015	-8.6
3913.586	-2.6
3916.155	-1.6
3918.722	0.4
3921.287	0.4
3923.85	1.4
3926.411	-0.6
3928.971	-1.6
3931.528	-0.6
3934.084	-4.6
3936.638	-3.6
3939.19	-5.6
3941.74	1.4
3944.288	-0.6
3946.834	-0.6
3949.378	-0.6
3951.921	-0.6
3954.462	-4.6
3957	-2.6
3959.537	-3.6
3962.072	-2.6
3964.606	-3.6
3967.137	-0.6
3969.667	0.4
3972.194	-2.6
3974.72	-4.6
3977.244	-4.6
3979.766	-0.6
3982.286	-7.6
3984.805	-2.6
3987.321	-3.6
3989.836	-3.6
3992.349	0.4
3994.86	2.4
3997.369	-3.6
3999.877	-2.6
4002.382	-1.6
4004.886	-6.6
4007.388	-3.6
4009.888	-5.6
4012.386	-1.6
4014.883	-3.6
4017.377	2.4
4019.87	-1.6
4022.361	-1.6
4024.85	-3.6
4027.338	-3.6
4029.823	-2.6
4032.307	-3.6
4034.789	-3.6
4037.269	-3.6
4039.747	0.4
4042.224	-2.6
4044.699	-2.6
4047.172	-2.6
4049.643	-3.6
4052.112	-6.6
4054.58	-5.6
4057.046	-2.6
4059.51	-1.6
4061.972	-1.6
4064.432	-1.6
4066.891	-1.6
4069.348	2.4
4071.803	-3.6
4074.256	-8.6
4076.708	-1.6
4079.158	-3.6
4081.606	-7.6
4084.052	-1.6
4086.497	0.4
4088.939	1.4
4091.38	1.4
4093.819	-2.6
4096.257	-4.6
4098.693	-5.6
4101.127	-5.6
4103.559	-0.6
4105.989	5.4
4108.418	4.4
4110.845	3.4
4113.27	3.4
4115.694	1.4
4118.115	1.4
4120.535	-1.6
4122.954	-6.6
4125.37	-5.6
4127.785	-4.6
4130.198	-2.6
4132.609	-3.6
4135.019	0.4
4137.427	-1.6
4139.833	-2.6
4142.237	-4.6
