Data from 1_n=2_RamanShift_03.txt Node
Date: Mon Mar 19 12:25:33 IST 2018
User: aro
Spectrometer: QEPB0276
Trigger mode: 0
Integration Time (sec): 5.000000E0
Scans to average: 1
Electric dark correction enabled: true
Nonlinearity correction enabled: false
Boxcar width: 0
XAxis mode: Raman Shifts
Number of Pixels in Spectrum: 1044
>>>>>Begin Spectral Data<<<<<
160.701	-2.9
166.742	0.1
172.777	4.1
178.805	7.1
184.826	20.1
190.841	35.1
196.849	57.1
202.85	77.1
208.845	74.1
214.833	82.1
220.815	80.1
226.789	84.1
232.758	77.1
238.719	79.1
244.674	78.1
250.623	78.1
256.565	84.1
262.5	81.1
268.429	84.1
274.351	83.1
280.267	84.1
286.176	82.1
292.079	84.1
297.975	83.1
303.865	84.1
309.748	84.1
315.625	86.1
321.495	87.1
327.359	89.1
333.217	92.1
339.068	93.1
344.912	93.1
350.751	89.1
356.583	93.1
362.408	89.1
368.227	90.1
374.04	87.1
379.847	101.1
385.647	110.1
391.44	102.1
397.228	103.1
403.009	107.1
408.784	110.1
414.553	112.1
420.315	130.1
426.071	135.1
431.821	122.1
437.565	103.1
443.302	93.1
449.033	99.1
454.758	93.1
460.477	91.1
466.189	94.1
471.896	89.1
477.596	91.1
483.29	84.1
488.978	90.1
494.66	85.1
500.335	85.1
506.005	77.1
511.668	68.1
517.325	59.1
522.977	59.1
528.622	54.1
534.261	53.1
539.894	52.1
545.521	50.1
551.141	48.1
556.756	45.1
562.365	39.1
567.968	40.1
573.565	43.1
579.155	40.1
584.74	43.1
590.319	41.1
595.892	46.1
601.459	42.1
607.02	41.1
612.575	38.1
618.124	43.1
623.667	39.1
629.204	39.1
634.735	41.1
640.261	42.1
645.781	46.1
651.294	49.1
656.802	50.1
662.304	43.1
667.8	40.1
673.29	31.1
678.775	40.1
684.254	36.1
689.726	32.1
695.193	39.1
700.655	36.1
706.11	34.1
711.56	33.1
717.004	34.1
722.442	28.1
727.874	33.1
733.301	28.1
738.722	31.1
744.137	34.1
749.547	32.1
754.951	37.1
760.349	36.1
765.741	36.1
771.128	37.1
776.509	37.1
781.885	38.1
787.254	41.1
792.618	39.1
797.977	41.1
803.33	43.1
808.677	49.1
814.019	51.1
819.355	50.1
824.686	39.1
830.011	41.1
835.33	40.1
840.644	45.1
845.952	46.1
851.255	44.1
856.552	37.1
861.844	35.1
867.13	32.1
872.41	33.1
877.686	27.1
882.955	28.1
888.219	31.1
893.478	27.1
898.731	29.1
903.979	26.1
909.221	33.1
914.458	29.1
919.69	25.1
924.916	25.1
930.136	24.1
935.351	27.1
940.561	28.1
945.766	33.1
950.965	25.1
956.158	28.1
961.347	27.1
966.529	30.1
971.707	22.1
976.879	30.1
982.046	29.1
987.208	27.1
992.364	27.1
997.515	25.1
1002.66	32.1
1007.801	32.1
1012.936	26.1
1018.066	27.1
1023.19	25.1
1028.309	28.1
1033.423	27.1
1038.532	36.1
1043.636	36.1
1048.734	37.1
1053.827	31.1
1058.915	27.1
1063.998	23.1
1069.075	23.1
1074.147	23.1
1079.214	24.1
1084.276	28.1
1089.333	32.1
1094.385	23.1
1099.431	28.1
1104.472	25.1
1109.509	23.1
1114.54	19.1
1119.565	22.1
1124.586	23.1
1129.602	26.1
1134.613	27.1
1139.618	28.1
1144.619	27.1
1149.614	31.1
1154.604	33.1
1159.589	30.1
1164.57	33.1
1169.545	31.1
1174.515	32.1
1179.48	34.1
1184.44	29.1
1189.395	22.1
1194.345	27.1
1199.29	20.1
1204.23	22.1
1209.165	19.1
1214.095	23.1
1219.021	25.1
1223.941	30.1
1228.856	30.1
1233.766	25.1
1238.672	28.1
1243.572	25.1
1248.467	22.1
1253.358	19.1
1258.244	24.1
1263.124	20.1
1268	18.1
1272.871	21.1
1277.737	20.1
1282.599	20.1
1287.455	19.1
1292.306	21.1
1297.153	16.1
1301.995	19.1
1306.832	20.1
1311.664	20.1
1316.491	22.1
1321.314	28.1
1326.132	28.1
1330.945	30.1
1335.753	34.1
1340.556	29.1
1345.354	23.1
1350.148	22.1
1354.937	20.1
1359.722	24.1
1364.501	27.1
1369.276	31.1
1374.046	27.1
1378.811	22.1
1383.572	19.1
1388.327	15.1
1393.079	17.1
1397.825	18.1
1402.567	16.1
1407.304	17.1
1412.036	21.1
1416.764	15.1
1421.487	17.1
1426.205	16.1
1430.919	19.1
1435.628	17.1
1440.333	20.1
1445.032	27.1
1449.727	27.1
1454.418	35.1
1459.104	36.1
1463.785	36.1
1468.462	36.1
1473.134	29.1
1477.802	23.1
1482.465	13.1
1487.123	20.1
1491.777	18.1
1496.426	18.1
1501.071	20.1
1505.711	20.1
1510.347	15.1
1514.978	16.1
1519.604	19.1
1524.226	12.1
1528.844	16.1
1533.457	16.1
1538.065	12.1
1542.669	16.1
1547.269	15.1
1551.864	16.1
1556.454	17.1
1561.041	13.1
1565.622	12.1
1570.199	14.1
1574.772	9.1
1579.34	13.1
1583.904	15.1
1588.464	13.1
1593.019	11.1
1597.569	13.1
1602.115	14.1
1606.657	12.1
1611.195	15.1
1615.728	15.1
1620.256	15.1
1624.78	13.1
1629.3	9.1
1633.816	8.1
1638.327	13.1
1642.834	11.1
1647.336	10.1
1651.834	10.1
1656.328	15.1
1660.817	14.1
1665.302	15.1
1669.783	11.1
1674.259	9.1
1678.732	12.1
1683.199	9.1
1687.663	10.1
1692.122	14.1
1696.577	13.1
1701.028	14.1
1705.474	13.1
1709.917	11.1
1714.355	11.1
1718.788	12.1
1723.218	10.1
1727.643	5.1
1732.064	9.1
1736.481	8.1
1740.893	10.1
1745.301	14.1
1749.705	13.1
1754.105	11.1
1758.501	9.1
1762.893	6.1
1767.28	3.1
1771.663	9.1
1776.042	9.1
1780.417	8.1
1784.787	14.1
1789.154	9.1
1793.516	12.1
1797.874	12.1
1802.228	7.1
1806.578	3.1
1810.924	11.1
1815.266	8.1
1819.603	4.1
1823.937	11.1
1828.266	11.1
1832.591	10.1
1836.913	6.1
1841.23	7.1
1845.543	5.1
1849.852	0.1
1854.156	6.1
1858.457	7.1
1862.754	11.1
1867.047	10.1
1871.335	12.1
1875.62	7.1
1879.9	9.1
1884.177	6.1
1888.449	3.1
1892.718	3.1
1896.982	7.1
1901.243	10.1
1905.499	11.1
1909.752	6.1
1914	8.1
1918.245	5.1
1922.485	6.1
1926.722	7.1
1930.954	3.1
1935.183	1.1
1939.408	8.1
1943.628	8.1
1947.845	10.1
1952.058	10.1
1956.267	4.1
1960.472	6.1
1964.673	4.1
1968.87	3.1
1973.063	3.1
1977.252	5.1
1981.438	4.1
1985.619	5.1
1989.797	2.1
1993.971	4.1
1998.14	4.1
2002.306	4.1
2006.469	5.1
2010.627	5.1
2014.781	7.1
2018.932	7.1
2023.078	5.1
2027.221	6.1
2031.36	2.1
2035.495	6.1
2039.627	5.1
2043.754	5.1
2047.878	8.1
2051.998	7.1
2056.114	5.1
2060.226	9.1
2064.334	0.1
2068.439	2.1
2072.54	4.1
2076.637	6.1
2080.73	5.1
2084.82	5.1
2088.906	6.1
2092.988	8.1
2097.066	3.1
2101.14	5.1
2105.211	6.1
2109.278	2.1
2113.342	5.1
2117.401	4.1
2121.457	6.1
2125.509	8.1
2129.558	5.1
2133.602	5.1
2137.643	2.1
2141.681	3.1
2145.714	1.1
2149.744	3.1
2153.77	3.1
2157.793	10.1
2161.812	5.1
2165.827	6.1
2169.838	3.1
2173.846	3.1
2177.851	1.1
2181.851	2.1
2185.848	1.1
2189.841	6.1
2193.831	1.1
2197.817	7.1
2201.799	5.1
2205.778	2.1
2209.753	3.1
2213.725	-0.9
2217.693	2.1
2221.657	-2.9
2225.618	3.1
2229.575	6.1
2233.529	6.1
2237.479	1.1
2241.425	2.1
2245.368	5.1
2249.307	1.1
2253.243	2.1
2257.175	0.1
2261.104	8.1
2265.029	1.1
2268.95	0.1
2272.868	1.1
2276.783	2.1
2280.694	4.1
2284.601	3.1
2288.505	3.1
2292.405	4.1
2296.302	0.1
2300.195	2.1
2304.085	2.1
2307.971	2.1
2311.854	-0.9
2315.734	3.1
2319.609	0.1
2323.482	4.1
2327.351	1.1
2331.216	3.1
2335.078	4.1
2338.937	0.1
2342.792	-1.9
2346.643	-2.9
2350.492	3.1
2354.336	3.1
2358.178	2.1
2362.015	-0.9
2365.85	2.1
2369.681	-2.9
2373.508	-2.9
2377.333	-3.9
2381.153	-0.9
2384.971	2.1
2388.785	5.1
2392.595	4.1
2396.402	5.1
2400.206	2.1
2404.007	-0.9
2407.804	-1.9
2411.597	-0.9
2415.388	-3.9
2419.174	2.1
2422.958	6.1
2426.738	1.1
2430.515	5.1
2434.289	2.1
2438.059	-2.9
2441.825	-7.9
2445.589	-2.9
2449.349	-1.9
2453.106	0.1
2456.859	2.1
2460.61	1.1
2464.356	7.1
2468.1	2.1
2471.84	-1.9
2475.577	-4.9
2479.311	-2.9
2483.041	-2.9
2486.768	-0.9
2490.492	-2.9
2494.213	4.1
2497.93	0.1
2501.644	3.1
2505.355	-3.9
2509.062	-1.9
2512.766	-0.9
2516.467	-1.9
2520.165	0.1
2523.859	0.1
2527.551	1.1
2531.239	5.1
2534.923	0.1
2538.605	-0.9
2542.283	-3.9
2545.958	0.1
2549.63	-0.9
2553.299	1.1
2556.964	2.1
2560.626	1.1
2564.285	-2.9
2567.941	0.1
2571.594	-1.9
2575.243	-4.9
2578.89	0.1
2582.533	-1.9
2586.173	-0.9
2589.809	1.1
2593.443	2.1
2597.073	4.1
2600.701	-1.9
2604.325	0.1
2607.946	1.1
2611.564	3.1
2615.178	3.1
2618.79	1.1
2622.398	-0.9
2626.004	4.1
2629.606	2.1
2633.205	0.1
2636.801	2.1
2640.394	-1.9
2643.983	-2.9
2647.57	0.1
2651.153	2.1
2654.734	-0.9
2658.311	-2.9
2661.885	0.1
2665.456	4.1
2669.025	2.1
2672.589	3.1
2676.151	0.1
2679.71	0.1
2683.266	-1.9
2686.819	1.1
2690.368	-0.9
2693.915	1.1
2697.458	-0.9
2700.999	2.1
2704.536	0.1
2708.071	1.1
2711.602	3.1
2715.13	1.1
2718.656	0.1
2722.178	-3.9
2725.697	1.1
2729.214	1.1
2732.727	-0.9
2736.237	4.1
2739.744	3.1
2743.249	6.1
2746.75	4.1
2750.248	-3.9
2753.743	-2.9
2757.236	-0.9
2760.725	-0.9
2764.211	1.1
2767.695	1.1
2771.175	0.1
2774.652	2.1
2778.127	-1.9
2781.598	5.1
2785.067	-2.9
2788.532	-2.9
2791.995	-1.9
2795.455	-1.9
2798.911	2.1
2802.365	3.1
2805.816	3.1
2809.264	0.1
2812.709	-0.9
2816.151	0.1
2819.59	-6.9
2823.026	-2.9
2826.46	-0.9
2829.89	5.1
2833.318	6.1
2836.742	3.1
2840.164	11.1
2843.583	6.1
2846.999	4.1
2850.412	7.1
2853.822	4.1
2857.229	7.1
2860.634	6.1
2864.035	8.1
2867.434	11.1
2870.83	13.1
2874.223	15.1
2877.613	12.1
2881	10.1
2884.385	14.1
2887.766	16.1
2891.145	21.1
2894.521	19.1
2897.894	19.1
2901.264	18.1
2904.631	16.1
2907.996	15.1
2911.358	11.1
2914.717	7.1
2918.073	9.1
2921.426	11.1
2924.777	9.1
2928.124	9.1
2931.469	10.1
2934.811	9.1
2938.15	10.1
2941.487	5.1
2944.821	5.1
2948.152	3.1
2951.48	5.1
2954.805	7.1
2958.128	9.1
2961.447	5.1
2964.765	8.1
2968.079	12.1
2971.39	5.1
2974.699	4.1
2978.005	-1.9
2981.308	0.1
2984.609	-1.9
2987.907	4.1
2991.202	4.1
2994.494	3.1
2997.784	2.1
3001.07	2.1
3004.355	-1.9
3007.636	1.1
3010.915	-0.9
3014.191	-0.9
3017.464	-1.9
3020.734	1.1
3024.002	1.1
3027.267	4.1
3030.53	0.1
3033.789	0.1
3037.046	-6.9
3040.301	-1.9
3043.552	-2.9
3046.801	-2.9
3050.048	0.1
3053.291	0.1
3056.532	3.1
3059.771	4.1
3063.006	-0.9
3066.239	-2.9
3069.469	0.1
3072.697	-2.9
3075.922	-4.9
3079.144	-2.9
3082.364	-0.9
3085.581	-3.9
3088.795	2.1
3092.007	-2.9
3095.216	-0.9
3098.423	-3.9
3101.627	-3.9
3104.828	-1.9
3108.026	-1.9
3111.222	-2.9
3114.416	-0.9
3117.607	0.1
3120.795	3.1
3123.98	0.1
3127.163	2.1
3130.344	0.1
3133.521	0.1
3136.696	1.1
3139.869	-0.9
3143.039	0.1
3146.206	-0.9
3149.371	-0.9
3152.533	1.1
3155.693	-2.9
3158.85	0.1
3162.005	-0.9
3165.157	0.1
3168.306	-4.9
3171.453	-2.9
3174.597	-1.9
3177.739	1.1
3180.878	-1.9
3184.014	-1.9
3187.149	-3.9
3190.28	-1.9
3193.409	-3.9
3196.536	-4.9
3199.659	-1.9
3202.781	-1.9
3205.9	2.1
3209.016	-2.9
3212.13	-3.9
3215.241	-0.9
3218.35	2.1
3221.456	-1.9
3224.56	2.1
3227.661	0.1
3230.76	1.1
3233.856	1.1
3236.95	0.1
3240.041	-0.9
3243.13	-3.9
3246.216	0.1
3249.3	-2.9
3252.382	1.1
3255.46	3.1
3258.537	-0.9
3261.611	-0.9
3264.682	-2.9
3267.751	-1.9
3270.818	-0.9
3273.882	-0.9
3276.943	0.1
3280.002	0.1
3283.059	-0.9
3286.113	0.1
3289.165	-3.9
3292.214	-3.9
3295.261	-1.9
3298.306	-4.9
3301.348	-0.9
3304.387	-2.9
3307.425	3.1
3310.459	2.1
3313.492	-1.9
3316.521	1.1
3319.549	-1.9
3322.574	-1.9
3325.597	-4.9
3328.617	-4.9
3331.635	-0.9
3334.65	-2.9
3337.663	1.1
3340.674	4.1
3343.682	1.1
3346.688	1.1
3349.691	-1.9
3352.692	-4.9
3355.691	-4.9
3358.687	-6.9
3361.681	-1.9
3364.673	0.1
3367.662	-0.9
3370.649	5.1
3373.633	0.1
3376.615	3.1
3379.595	-5.9
3382.572	-1.9
3385.547	-2.9
3388.52	-2.9
3391.49	-3.9
3394.458	1.1
3397.424	-0.9
3400.387	1.1
3403.348	-2.9
3406.307	-0.9
3409.263	0.1
3412.217	-2.9
3415.168	-2.9
3418.118	-1.9
3421.065	0.1
3424.009	-1.9
3426.951	1.1
3429.891	-0.9
3432.829	-0.9
3435.764	-0.9
3438.697	-5.9
3441.628	-3.9
3444.557	-2.9
3447.483	-1.9
3450.407	-1.9
3453.328	-1.9
3456.247	-4.9
3459.164	-0.9
3462.079	-1.9
3464.991	-0.9
3467.902	-2.9
3470.809	-1.9
3473.715	-2.9
3476.618	-1.9
3479.519	-3.9
3482.418	-3.9
3485.315	-2.9
3488.209	0.1
3491.101	-0.9
3493.99	-1.9
3496.878	-0.9
3499.763	0.1
3502.646	-0.9
3505.527	-2.9
3508.405	-3.9
3511.281	-4.9
3514.155	-2.9
3517.027	1.1
3519.897	1.1
3522.764	-2.9
3525.629	-4.9
3528.492	-3.9
3531.352	-3.9
3534.211	-6.9
3537.067	-8.9
3539.921	-1.9
3542.773	-2.9
3545.622	3.1
3548.469	-3.9
3551.315	0.1
3554.157	-4.9
3556.998	-0.9
3559.837	-6.9
3562.673	-7.9
3565.507	-7.9
3568.339	-1.9
3571.169	-0.9
3573.996	1.1
3576.822	-1.9
3579.645	-2.9
3582.466	-6.9
3585.285	-6.9
3588.101	-6.9
3590.916	-2.9
3593.728	-0.9
3596.538	-1.9
3599.346	-1.9
3602.152	1.1
3604.956	-4.9
3607.757	-5.9
3610.556	-3.9
3613.354	-2.9
3616.149	-5.9
3618.942	-3.9
3621.732	2.1
3624.521	0.1
3627.307	-1.9
3630.092	-4.9
3632.874	-0.9
3635.654	-1.9
3638.432	-5.9
3641.208	-5.9
3643.982	-1.9
3646.753	0.1
3649.523	-4.9
3652.29	-0.9
3655.055	-3.9
3657.818	-5.9
3660.579	0.1
3663.338	-3.9
3666.095	-3.9
3668.849	-1.9
3671.602	-3.9
3674.352	-0.9
3677.101	-1.9
3679.847	-3.9
3682.591	-1.9
3685.333	-4.9
3688.073	-2.9
3690.811	-2.9
3693.547	-2.9
3696.281	-5.9
3699.013	-1.9
3701.742	-0.9
3704.47	-2.9
3707.195	-2.9
3709.919	-4.9
3712.64	-2.9
3715.359	-3.9
3718.076	-1.9
3720.792	-2.9
3723.505	-3.9
3726.216	-4.9
3728.925	-4.9
3731.632	-3.9
3734.336	-2.9
3737.039	-0.9
3739.74	-1.9
3742.439	-3.9
3745.136	-2.9
3747.83	-7.9
3750.523	-3.9
3753.213	-3.9
3755.902	-1.9
3758.589	-0.9
3761.273	-2.9
3763.956	-1.9
3766.636	-4.9
3769.315	-6.9
3771.991	-6.9
3774.665	-2.9
3777.338	-2.9
3780.008	0.1
3782.677	-0.9
3785.343	-1.9
3788.007	-0.9
3790.67	-3.9
3793.33	-4.9
3795.989	-5.9
3798.645	-4.9
3801.299	-1.9
3803.952	-2.9
3806.602	-0.9
3809.251	-3.9
3811.897	-2.9
3814.542	-1.9
3817.184	-5.9
3819.825	-6.9
3822.463	-10.9
3825.1	-5.9
3827.735	-2.9
3830.367	2.1
3832.998	0.1
3835.627	0.1
3838.253	-0.9
3840.878	-5.9
3843.501	-5.9
3846.122	-5.9
3848.741	-5.9
3851.358	-2.9
3853.973	1.1
3856.586	-2.9
3859.197	-0.9
3861.806	-4.9
3864.414	-4.9
3867.019	-5.9
3869.622	-9.9
3872.224	-3.9
3874.823	-1.9
3877.421	2.1
3880.016	-1.9
3882.61	1.1
3885.202	3.1
3887.792	-0.9
3890.38	-3.9
3892.966	-5.9
3895.55	-1.9
3898.132	-0.9
3900.713	-1.9
3903.291	-0.9
3905.868	-0.9
3908.442	-2.9
3911.015	-6.9
3913.586	-5.9
3916.155	-1.9
3918.722	-3.9
3921.287	-1.9
3923.85	3.1
3926.411	-4.9
3928.971	-3.9
3931.528	-1.9
3934.084	-2.9
3936.638	-6.9
3939.19	-5.9
3941.74	-2.9
3944.288	-6.9
3946.834	-0.9
3949.378	-0.9
3951.921	1.1
3954.462	-2.9
3957	-6.9
3959.537	-0.9
3962.072	-2.9
3964.606	-4.9
3967.137	-4.9
3969.667	-2.9
3972.194	-1.9
3974.72	-1.9
3977.244	-2.9
3979.766	-0.9
3982.286	-6.9
3984.805	-0.9
3987.321	-3.9
3989.836	-4.9
3992.349	-1.9
3994.86	0.1
3997.369	-5.9
3999.877	-2.9
4002.382	-4.9
4004.886	-3.9
4007.388	-3.9
4009.888	-6.9
4012.386	-3.9
4014.883	-5.9
4017.377	-3.9
4019.87	-1.9
4022.361	-1.9
4024.85	-2.9
4027.338	-5.9
4029.823	-6.9
4032.307	-2.9
4034.789	-5.9
4037.269	-2.9
4039.747	-0.9
4042.224	-2.9
4044.699	-4.9
4047.172	-2.9
4049.643	-4.9
4052.112	-7.9
4054.58	-5.9
4057.046	-3.9
4059.51	-3.9
4061.972	-0.9
4064.432	-3.9
4066.891	-3.9
4069.348	-1.9
4071.803	-3.9
4074.256	-8.9
4076.708	-2.9
4079.158	0.1
4081.606	-7.9
4084.052	-1.9
4086.497	-3.9
4088.939	-2.9
4091.38	-1.9
4093.819	-3.9
4096.257	-4.9
4098.693	-4.9
4101.127	-2.9
4103.559	-0.9
4105.989	8.1
4108.418	3.1
4110.845	-0.9
4113.27	-1.9
4115.694	-1.9
4118.115	-1.9
4120.535	-1.9
4122.954	-5.9
4125.37	-9.9
4127.785	-8.9
4130.198	-3.9
4132.609	-3.9
4135.019	0.1
4137.427	-0.9
4139.833	-2.9
4142.237	-4.9
