Data from 1_n=3_RamanShift_01.txt Node
Date: Mon Mar 19 12:26:08 IST 2018
User: aro
Spectrometer: QEPB0276
Trigger mode: 0
Integration Time (sec): 5.000000E0
Scans to average: 1
Electric dark correction enabled: true
Nonlinearity correction enabled: false
Boxcar width: 0
XAxis mode: Raman Shifts
Number of Pixels in Spectrum: 1044
>>>>>Begin Spectral Data<<<<<
160.701	-2.4
166.742	-0.4
172.777	3.6
178.805	8.6
184.826	18.6
190.841	37.6
196.849	62.6
202.85	77.6
208.845	77.6
214.833	83.6
220.815	76.6
226.789	82.6
232.758	77.6
238.719	82.6
244.674	81.6
250.623	84.6
256.565	83.6
262.5	80.6
268.429	84.6
274.351	81.6
280.267	82.6
286.176	87.6
292.079	85.6
297.975	85.6
303.865	85.6
309.748	89.6
315.625	93.6
321.495	88.6
327.359	83.6
333.217	91.6
339.068	90.6
344.912	95.6
350.751	89.6
356.583	95.6
362.408	88.6
368.227	95.6
374.04	95.6
379.847	102.6
385.647	110.6
391.44	109.6
397.228	104.6
403.009	105.6
408.784	108.6
414.553	115.6
420.315	127.6
426.071	139.6
431.821	124.6
437.565	104.6
443.302	102.6
449.033	98.6
454.758	98.6
460.477	92.6
466.189	91.6
471.896	88.6
477.596	88.6
483.29	88.6
488.978	88.6
494.66	86.6
500.335	83.6
506.005	74.6
511.668	73.6
517.325	61.6
522.977	54.6
528.622	58.6
534.261	53.6
539.894	52.6
545.521	50.6
551.141	51.6
556.756	45.6
562.365	43.6
567.968	42.6
573.565	43.6
579.155	42.6
584.74	41.6
590.319	44.6
595.892	51.6
601.459	45.6
607.02	41.6
612.575	40.6
618.124	43.6
623.667	43.6
629.204	37.6
634.735	38.6
640.261	45.6
645.781	45.6
651.294	53.6
656.802	50.6
662.304	41.6
667.8	36.6
673.29	33.6
678.775	36.6
684.254	34.6
689.726	33.6
695.193	36.6
700.655	35.6
706.11	33.6
711.56	38.6
717.004	33.6
722.442	30.6
727.874	31.6
733.301	29.6
738.722	32.6
744.137	36.6
749.547	35.6
754.951	37.6
760.349	35.6
765.741	35.6
771.128	40.6
776.509	33.6
781.885	36.6
787.254	37.6
792.618	39.6
797.977	40.6
803.33	43.6
808.677	45.6
814.019	48.6
819.355	44.6
824.686	43.6
830.011	32.6
835.33	36.6
840.644	40.6
845.952	41.6
851.255	40.6
856.552	39.6
861.844	34.6
867.13	33.6
872.41	30.6
877.686	30.6
882.955	26.6
888.219	27.6
893.478	29.6
898.731	31.6
903.979	24.6
909.221	37.6
914.458	28.6
919.69	30.6
924.916	26.6
930.136	22.6
935.351	27.6
940.561	27.6
945.766	31.6
950.965	27.6
956.158	32.6
961.347	25.6
966.529	28.6
971.707	26.6
976.879	26.6
982.046	26.6
987.208	20.6
992.364	27.6
997.515	27.6
1002.66	30.6
1007.801	33.6
1012.936	25.6
1018.066	27.6
1023.19	28.6
1028.309	24.6
1033.423	27.6
1038.532	30.6
1043.636	33.6
1048.734	31.6
1053.827	30.6
1058.915	25.6
1063.998	25.6
1069.075	25.6
1074.147	19.6
1079.214	23.6
1084.276	23.6
1089.333	28.6
1094.385	25.6
1099.431	27.6
1104.472	28.6
1109.509	26.6
1114.54	20.6
1119.565	22.6
1124.586	28.6
1129.602	23.6
1134.613	24.6
1139.618	21.6
1144.619	28.6
1149.614	25.6
1154.604	27.6
1159.589	31.6
1164.57	30.6
1169.545	30.6
1174.515	31.6
1179.48	28.6
1184.44	28.6
1189.395	22.6
1194.345	21.6
1199.29	23.6
1204.23	20.6
1209.165	20.6
1214.095	20.6
1219.021	25.6
1223.941	29.6
1228.856	22.6
1233.766	27.6
1238.672	25.6
1243.572	23.6
1248.467	20.6
1253.358	17.6
1258.244	21.6
1263.124	20.6
1268	17.6
1272.871	21.6
1277.737	24.6
1282.599	21.6
1287.455	22.6
1292.306	17.6
1297.153	19.6
1301.995	20.6
1306.832	18.6
1311.664	21.6
1316.491	23.6
1321.314	27.6
1326.132	29.6
1330.945	25.6
1335.753	25.6
1340.556	23.6
1345.354	22.6
1350.148	23.6
1354.937	20.6
1359.722	24.6
1364.501	20.6
1369.276	24.6
1374.046	22.6
1378.811	17.6
1383.572	13.6
1388.327	15.6
1393.079	17.6
1397.825	18.6
1402.567	23.6
1407.304	21.6
1412.036	21.6
1416.764	17.6
1421.487	16.6
1426.205	15.6
1430.919	18.6
1435.628	19.6
1440.333	24.6
1445.032	25.6
1449.727	22.6
1454.418	31.6
1459.104	31.6
1463.785	30.6
1468.462	24.6
1473.134	25.6
1477.802	19.6
1482.465	14.6
1487.123	17.6
1491.777	17.6
1496.426	16.6
1501.071	18.6
1505.711	18.6
1510.347	12.6
1514.978	13.6
1519.604	16.6
1524.226	10.6
1528.844	12.6
1533.457	15.6
1538.065	21.6
1542.669	15.6
1547.269	17.6
1551.864	16.6
1556.454	14.6
1561.041	13.6
1565.622	12.6
1570.199	11.6
1574.772	14.6
1579.34	14.6
1583.904	15.6
1588.464	17.6
1593.019	13.6
1597.569	14.6
1602.115	16.6
1606.657	10.6
1611.195	16.6
1615.728	12.6
1620.256	13.6
1624.78	13.6
1629.3	14.6
1633.816	15.6
1638.327	18.6
1642.834	13.6
1647.336	13.6
1651.834	12.6
1656.328	12.6
1660.817	12.6
1665.302	15.6
1669.783	11.6
1674.259	14.6
1678.732	14.6
1683.199	14.6
1687.663	12.6
1692.122	14.6
1696.577	11.6
1701.028	13.6
1705.474	11.6
1709.917	13.6
1714.355	9.6
1718.788	13.6
1723.218	11.6
1727.643	9.6
1732.064	9.6
1736.481	11.6
1740.893	10.6
1745.301	16.6
1749.705	10.6
1754.105	11.6
1758.501	8.6
1762.893	10.6
1767.28	7.6
1771.663	12.6
1776.042	8.6
1780.417	12.6
1784.787	12.6
1789.154	11.6
1793.516	10.6
1797.874	10.6
1802.228	10.6
1806.578	6.6
1810.924	10.6
1815.266	14.6
1819.603	8.6
1823.937	15.6
1828.266	9.6
1832.591	6.6
1836.913	5.6
1841.23	9.6
1845.543	8.6
1849.852	8.6
1854.156	9.6
1858.457	8.6
1862.754	13.6
1867.047	13.6
1871.335	14.6
1875.62	5.6
1879.9	8.6
1884.177	9.6
1888.449	4.6
1892.718	10.6
1896.982	8.6
1901.243	12.6
1905.499	9.6
1909.752	8.6
1914	5.6
1918.245	4.6
1922.485	2.6
1926.722	7.6
1930.954	5.6
1935.183	7.6
1939.408	10.6
1943.628	13.6
1947.845	9.6
1952.058	10.6
1956.267	4.6
1960.472	1.6
1964.673	2.6
1968.87	5.6
1973.063	8.6
1977.252	9.6
1981.438	8.6
1985.619	10.6
1989.797	6.6
1993.971	3.6
1998.14	2.6
2002.306	2.6
2006.469	6.6
2010.627	6.6
2014.781	9.6
2018.932	11.6
2023.078	6.6
2027.221	8.6
2031.36	2.6
2035.495	5.6
2039.627	2.6
2043.754	3.6
2047.878	8.6
2051.998	10.6
2056.114	7.6
2060.226	13.6
2064.334	5.6
2068.439	2.6
2072.54	2.6
2076.637	3.6
2080.73	5.6
2084.82	4.6
2088.906	8.6
2092.988	8.6
2097.066	5.6
2101.14	11.6
2105.211	7.6
2109.278	6.6
2113.342	4.6
2117.401	6.6
2121.457	3.6
2125.509	8.6
2129.558	3.6
2133.602	10.6
2137.643	5.6
2141.681	6.6
2145.714	4.6
2149.744	6.6
2153.77	2.6
2157.793	6.6
2161.812	5.6
2165.827	6.6
2169.838	5.6
2173.846	4.6
2177.851	6.6
2181.851	1.6
2185.848	3.6
2189.841	9.6
2193.831	-0.4
2197.817	7.6
2201.799	4.6
2205.778	2.6
2209.753	3.6
2213.725	2.6
2217.693	4.6
2221.657	2.6
2225.618	2.6
2229.575	4.6
2233.529	1.6
2237.479	0.6
2241.425	3.6
2245.368	8.6
2249.307	3.6
2253.243	5.6
2257.175	0.6
2261.104	9.6
2265.029	1.6
2268.95	-3.4
2272.868	1.6
2276.783	2.6
2280.694	3.6
2284.601	2.6
2288.505	2.6
2292.405	3.6
2296.302	4.6
2300.195	5.6
2304.085	2.6
2307.971	1.6
2311.854	-1.4
2315.734	3.6
2319.609	2.6
2323.482	2.6
2327.351	2.6
2331.216	7.6
2335.078	4.6
2338.937	3.6
2342.792	-2.4
2346.643	-0.4
2350.492	3.6
2354.336	3.6
2358.178	5.6
2362.015	5.6
2365.85	3.6
2369.681	0.6
2373.508	0.6
2377.333	-4.4
2381.153	-1.4
2384.971	0.6
2388.785	4.6
2392.595	6.6
2396.402	3.6
2400.206	6.6
2404.007	0.6
2407.804	-0.4
2411.597	0.6
2415.388	-3.4
2419.174	2.6
2422.958	3.6
2426.738	-0.4
2430.515	7.6
2434.289	3.6
2438.059	1.6
2441.825	-2.4
2445.589	0.6
2449.349	-4.4
2453.106	1.6
2456.859	2.6
2460.61	4.6
2464.356	6.6
2468.1	5.6
2471.84	2.6
2475.577	-0.4
2479.311	-5.4
2483.041	0.6
2486.768	1.6
2490.492	-3.4
2494.213	2.6
2497.93	2.6
2501.644	3.6
2505.355	0.6
2509.062	-3.4
2512.766	1.6
2516.467	-2.4
2520.165	0.6
2523.859	-0.4
2527.551	-0.4
2531.239	2.6
2534.923	2.6
2538.605	0.6
2542.283	-3.4
2545.958	-0.4
2549.63	0.6
2553.299	-0.4
2556.964	2.6
2560.626	-0.4
2564.285	-4.4
2567.941	-0.4
2571.594	-0.4
2575.243	0.6
2578.89	4.6
2582.533	1.6
2586.173	1.6
2589.809	0.6
2593.443	1.6
2597.073	0.6
2600.701	-1.4
2604.325	0.6
2607.946	1.6
2611.564	6.6
2615.178	5.6
2618.79	3.6
2622.398	-1.4
2626.004	2.6
2629.606	-0.4
2633.205	1.6
2636.801	0.6
2640.394	0.6
2643.983	2.6
2647.57	4.6
2651.153	2.6
2654.734	1.6
2658.311	-1.4
2661.885	-2.4
2665.456	-1.4
2669.025	-0.4
2672.589	5.6
2676.151	5.6
2679.71	7.6
2683.266	-0.4
2686.819	5.6
2690.368	-0.4
2693.915	0.6
2697.458	-4.4
2700.999	3.6
2704.536	0.6
2708.071	3.6
2711.602	4.6
2715.13	4.6
2718.656	4.6
2722.178	1.6
2725.697	-2.4
2729.214	1.6
2732.727	-1.4
2736.237	1.6
2739.744	1.6
2743.249	6.6
2746.75	6.6
2750.248	1.6
2753.743	1.6
2757.236	0.6
2760.725	-0.4
2764.211	0.6
2767.695	-1.4
2771.175	-2.4
2774.652	3.6
2778.127	2.6
2781.598	1.6
2785.067	-0.4
2788.532	-0.4
2791.995	-0.4
2795.455	0.6
2798.911	0.6
2802.365	0.6
2805.816	-0.4
2809.264	-1.4
2812.709	1.6
2816.151	1.6
2819.59	0.6
2823.026	1.6
2826.46	1.6
2829.89	4.6
2833.318	1.6
2836.742	1.6
2840.164	5.6
2843.583	3.6
2846.999	2.6
2850.412	6.6
2853.822	5.6
2857.229	3.6
2860.634	4.6
2864.035	6.6
2867.434	8.6
2870.83	5.6
2874.223	7.6
2877.613	9.6
2881	9.6
2884.385	13.6
2887.766	16.6
2891.145	13.6
2894.521	13.6
2897.894	10.6
2901.264	9.6
2904.631	6.6
2907.996	10.6
2911.358	11.6
2914.717	8.6
2918.073	7.6
2921.426	11.6
2924.777	7.6
2928.124	5.6
2931.469	4.6
2934.811	3.6
2938.15	4.6
2941.487	2.6
2944.821	6.6
2948.152	6.6
2951.48	0.6
2954.805	5.6
2958.128	7.6
2961.447	2.6
2964.765	4.6
2968.079	7.6
2971.39	3.6
2974.699	3.6
2978.005	-1.4
2981.308	2.6
2984.609	2.6
2987.907	5.6
2991.202	3.6
2994.494	4.6
2997.784	3.6
3001.07	0.6
3004.355	-3.4
3007.636	-0.4
3010.915	1.6
3014.191	0.6
3017.464	-1.4
3020.734	4.6
3024.002	1.6
3027.267	4.6
3030.53	2.6
3033.789	1.6
3037.046	-5.4
3040.301	-1.4
3043.552	-2.4
3046.801	2.6
3050.048	-0.4
3053.291	3.6
3056.532	2.6
3059.771	6.6
3063.006	-1.4
3066.239	2.6
3069.469	0.6
3072.697	-3.4
3075.922	-1.4
3079.144	-0.4
3082.364	0.6
3085.581	2.6
3088.795	5.6
3092.007	1.6
3095.216	-0.4
3098.423	-2.4
3101.627	-4.4
3104.828	0.6
3108.026	-0.4
3111.222	2.6
3114.416	4.6
3117.607	4.6
3120.795	4.6
3123.98	1.6
3127.163	2.6
3130.344	-0.4
3133.521	0.6
3136.696	0.6
3139.869	2.6
3143.039	3.6
3146.206	3.6
3149.371	4.6
3152.533	4.6
3155.693	1.6
3158.85	2.6
3162.005	0.6
3165.157	0.6
3168.306	0.6
3171.453	-0.4
3174.597	4.6
3177.739	3.6
3180.878	1.6
3184.014	0.6
3187.149	-0.4
3190.28	-1.4
3193.409	2.6
3196.536	-2.4
3199.659	1.6
3202.781	0.6
3205.9	6.6
3209.016	2.6
3212.13	3.6
3215.241	2.6
3218.35	3.6
3221.456	-1.4
3224.56	-0.4
3227.661	0.6
3230.76	2.6
3233.856	1.6
3236.95	5.6
3240.041	1.6
3243.13	2.6
3246.216	2.6
3249.3	1.6
3252.382	1.6
3255.46	3.6
3258.537	-2.4
3261.611	6.6
3264.682	1.6
3267.751	0.6
3270.818	1.6
3273.882	-0.4
3276.943	3.6
3280.002	0.6
3283.059	-0.4
3286.113	0.6
3289.165	-2.4
3292.214	0.6
3295.261	1.6
3298.306	-0.4
3301.348	1.6
3304.387	-0.4
3307.425	2.6
3310.459	3.6
3313.492	-1.4
3316.521	0.6
3319.549	-2.4
3322.574	1.6
3325.597	-1.4
3328.617	-1.4
3331.635	0.6
3334.65	1.6
3337.663	1.6
3340.674	2.6
3343.682	-1.4
3346.688	0.6
3349.691	0.6
3352.692	0.6
3355.691	-1.4
3358.687	-2.4
3361.681	2.6
3364.673	4.6
3367.662	-0.4
3370.649	4.6
3373.633	-0.4
3376.615	1.6
3379.595	-4.4
3382.572	-0.4
3385.547	-1.4
3388.52	1.6
3391.49	1.6
3394.458	2.6
3397.424	-1.4
3400.387	0.6
3403.348	-2.4
3406.307	-4.4
3409.263	1.6
3412.217	-0.4
3415.168	-0.4
3418.118	1.6
3421.065	2.6
3424.009	1.6
3426.951	2.6
3429.891	-1.4
3432.829	-3.4
3435.764	-0.4
3438.697	-3.4
3441.628	-0.4
3444.557	0.6
3447.483	1.6
3450.407	1.6
3453.328	1.6
3456.247	-3.4
3459.164	-1.4
3462.079	-1.4
3464.991	-2.4
3467.902	0.6
3470.809	1.6
3473.715	0.6
3476.618	0.6
3479.519	-4.4
3482.418	-1.4
3485.315	-3.4
3488.209	-1.4
3491.101	-1.4
3493.99	-2.4
3496.878	0.6
3499.763	1.6
3502.646	2.6
3505.527	-0.4
3508.405	0.6
3511.281	-1.4
3514.155	-3.4
3517.027	-1.4
3519.897	-0.4
3522.764	0.6
3525.629	1.6
3528.492	0.6
3531.352	-0.4
3534.211	-2.4
3537.067	-7.4
3539.921	-4.4
3542.773	-5.4
3545.622	0.6
3548.469	-4.4
3551.315	1.6
3554.157	-0.4
3556.998	0.6
3559.837	-5.4
3562.673	-3.4
3565.507	-3.4
3568.339	-2.4
3571.169	-3.4
3573.996	0.6
3576.822	1.6
3579.645	-2.4
3582.466	-1.4
3585.285	-2.4
3588.101	-6.4
3590.916	-1.4
3593.728	-4.4
3596.538	-4.4
3599.346	-1.4
3602.152	-1.4
3604.956	-2.4
3607.757	-2.4
3610.556	-4.4
3613.354	0.6
3616.149	-3.4
3618.942	0.6
3621.732	-1.4
3624.521	2.6
3627.307	-2.4
3630.092	2.6
3632.874	-1.4
3635.654	0.6
3638.432	-5.4
3641.208	-2.4
3643.982	0.6
3646.753	-3.4
3649.523	-9.4
3652.29	-0.4
3655.055	-4.4
3657.818	-0.4
3660.579	0.6
3663.338	-2.4
3666.095	-2.4
3668.849	-0.4
3671.602	-0.4
3674.352	-0.4
3677.101	-2.4
3679.847	-4.4
3682.591	-2.4
3685.333	-1.4
3688.073	-1.4
3690.811	3.6
3693.547	0.6
3696.281	-8.4
3699.013	-3.4
3701.742	-1.4
3704.47	-2.4
3707.195	-1.4
3709.919	0.6
3712.64	-2.4
3715.359	-0.4
3718.076	-1.4
3720.792	-1.4
3723.505	-1.4
3726.216	-5.4
3728.925	-2.4
3731.632	-0.4
3734.336	-1.4
3737.039	-0.4
3739.74	-0.4
3742.439	-0.4
3745.136	-2.4
3747.83	-4.4
3750.523	-3.4
3753.213	-1.4
3755.902	1.6
3758.589	-1.4
3761.273	2.6
3763.956	-1.4
3766.636	-2.4
3769.315	-5.4
3771.991	-5.4
3774.665	-1.4
3777.338	-0.4
3780.008	0.6
3782.677	-1.4
3785.343	-0.4
3788.007	1.6
3790.67	-2.4
3793.33	-3.4
3795.989	-4.4
3798.645	-6.4
3801.299	-2.4
3803.952	-1.4
3806.602	0.6
3809.251	2.6
3811.897	-1.4
3814.542	-1.4
3817.184	-3.4
3819.825	-2.4
3822.463	-5.4
3825.1	-4.4
3827.735	-4.4
3830.367	0.6
3832.998	0.6
3835.627	4.6
3838.253	1.6
3840.878	-4.4
3843.501	-4.4
3846.122	-5.4
3848.741	-3.4
3851.358	-4.4
3853.973	-1.4
3856.586	-1.4
3859.197	1.6
3861.806	-3.4
3864.414	-2.4
3867.019	-1.4
3869.622	-8.4
3872.224	-4.4
3874.823	-1.4
3877.421	1.6
3880.016	-1.4
3882.61	1.6
3885.202	2.6
3887.792	2.6
3890.38	-1.4
3892.966	-2.4
3895.55	-3.4
3898.132	-1.4
3900.713	-4.4
3903.291	-3.4
3905.868	0.6
3908.442	2.6
3911.015	-5.4
3913.586	-0.4
3916.155	-0.4
3918.722	-0.4
3921.287	-3.4
3923.85	-0.4
3926.411	-3.4
3928.971	-2.4
3931.528	-2.4
3934.084	-2.4
3936.638	-0.4
3939.19	-3.4
3941.74	-1.4
3944.288	-4.4
3946.834	-0.4
3949.378	-0.4
3951.921	-2.4
3954.462	-2.4
3957	-3.4
3959.537	-2.4
3962.072	-1.4
3964.606	2.6
3967.137	-1.4
3969.667	-0.4
3972.194	-2.4
3974.72	-4.4
3977.244	-3.4
3979.766	-4.4
3982.286	-4.4
3984.805	0.6
3987.321	-0.4
3989.836	-2.4
3992.349	1.6
3994.86	0.6
3997.369	-4.4
3999.877	-3.4
4002.382	-4.4
4004.886	-6.4
4007.388	-4.4
4009.888	-2.4
4012.386	-0.4
4014.883	-3.4
4017.377	-0.4
4019.87	-2.4
4022.361	-0.4
4024.85	-5.4
4027.338	-6.4
4029.823	-2.4
4032.307	-1.4
4034.789	-0.4
4037.269	-2.4
4039.747	2.6
4042.224	-0.4
4044.699	-2.4
4047.172	1.6
4049.643	-3.4
4052.112	-3.4
4054.58	-4.4
4057.046	-5.4
4059.51	-2.4
4061.972	0.6
4064.432	-0.4
4066.891	-3.4
4069.348	1.6
4071.803	-3.4
4074.256	-7.4
4076.708	-3.4
4079.158	-0.4
4081.606	-3.4
4084.052	3.6
4086.497	-2.4
4088.939	1.6
4091.38	0.6
4093.819	-2.4
4096.257	-1.4
4098.693	-2.4
4101.127	-6.4
4103.559	-0.4
4105.989	1.6
4108.418	4.6
4110.845	5.6
4113.27	3.6
4115.694	2.6
4118.115	3.6
4120.535	-3.4
4122.954	-3.4
4125.37	-7.4
4127.785	-2.4
4130.198	0.6
4132.609	0.6
4135.019	1.6
4137.427	-1.4
4139.833	-3.4
4142.237	-6.4
