Data from 1_n=1_RamanShift_03.txt Node
Date: Mon Mar 19 12:24:53 IST 2018
User: aro
Spectrometer: QEPB0276
Trigger mode: 0
Integration Time (sec): 5.000000E0
Scans to average: 1
Electric dark correction enabled: true
Nonlinearity correction enabled: false
Boxcar width: 0
XAxis mode: Raman Shifts
Number of Pixels in Spectrum: 1044
>>>>>Begin Spectral Data<<<<<
160.701	0.6
166.742	1.6
172.777	2.6
178.805	10.6
184.826	17.6
190.841	36.6
196.849	52.6
202.85	69.6
208.845	72.6
214.833	78.6
220.815	74.6
226.789	77.6
232.758	72.6
238.719	78.6
244.674	75.6
250.623	78.6
256.565	77.6
262.5	74.6
268.429	81.6
274.351	77.6
280.267	84.6
286.176	79.6
292.079	84.6
297.975	83.6
303.865	82.6
309.748	86.6
315.625	79.6
321.495	80.6
327.359	87.6
333.217	86.6
339.068	91.6
344.912	90.6
350.751	85.6
356.583	88.6
362.408	83.6
368.227	88.6
374.04	89.6
379.847	93.6
385.647	101.6
391.44	101.6
397.228	100.6
403.009	99.6
408.784	102.6
414.553	113.6
420.315	124.6
426.071	132.6
431.821	110.6
437.565	95.6
443.302	92.6
449.033	97.6
454.758	93.6
460.477	87.6
466.189	88.6
471.896	84.6
477.596	79.6
483.29	79.6
488.978	80.6
494.66	83.6
500.335	86.6
506.005	74.6
511.668	70.6
517.325	62.6
522.977	52.6
528.622	51.6
534.261	49.6
539.894	44.6
545.521	41.6
551.141	42.6
556.756	41.6
562.365	40.6
567.968	44.6
573.565	42.6
579.155	34.6
584.74	34.6
590.319	36.6
595.892	37.6
601.459	42.6
607.02	37.6
612.575	42.6
618.124	42.6
623.667	40.6
629.204	34.6
634.735	33.6
640.261	40.6
645.781	38.6
651.294	44.6
656.802	46.6
662.304	40.6
667.8	34.6
673.29	29.6
678.775	32.6
684.254	32.6
689.726	27.6
695.193	30.6
700.655	34.6
706.11	36.6
711.56	34.6
717.004	34.6
722.442	35.6
727.874	28.6
733.301	30.6
738.722	27.6
744.137	29.6
749.547	28.6
754.951	35.6
760.349	33.6
765.741	35.6
771.128	36.6
776.509	32.6
781.885	38.6
787.254	35.6
792.618	28.6
797.977	35.6
803.33	37.6
808.677	44.6
814.019	44.6
819.355	48.6
824.686	39.6
830.011	32.6
835.33	33.6
840.644	36.6
845.952	34.6
851.255	35.6
856.552	33.6
861.844	32.6
867.13	32.6
872.41	30.6
877.686	26.6
882.955	26.6
888.219	24.6
893.478	24.6
898.731	25.6
903.979	23.6
909.221	29.6
914.458	28.6
919.69	28.6
924.916	25.6
930.136	23.6
935.351	23.6
940.561	19.6
945.766	22.6
950.965	20.6
956.158	22.6
961.347	23.6
966.529	30.6
971.707	24.6
976.879	28.6
982.046	27.6
987.208	22.6
992.364	24.6
997.515	23.6
1002.66	23.6
1007.801	28.6
1012.936	18.6
1018.066	28.6
1023.19	25.6
1028.309	23.6
1033.423	25.6
1038.532	31.6
1043.636	28.6
1048.734	28.6
1053.827	22.6
1058.915	23.6
1063.998	23.6
1069.075	22.6
1074.147	23.6
1079.214	24.6
1084.276	22.6
1089.333	23.6
1094.385	26.6
1099.431	25.6
1104.472	19.6
1109.509	22.6
1114.54	18.6
1119.565	20.6
1124.586	24.6
1129.602	23.6
1134.613	22.6
1139.618	21.6
1144.619	26.6
1149.614	24.6
1154.604	22.6
1159.589	23.6
1164.57	25.6
1169.545	23.6
1174.515	27.6
1179.48	25.6
1184.44	26.6
1189.395	23.6
1194.345	26.6
1199.29	22.6
1204.23	22.6
1209.165	20.6
1214.095	15.6
1219.021	22.6
1223.941	22.6
1228.856	24.6
1233.766	25.6
1238.672	25.6
1243.572	19.6
1248.467	20.6
1253.358	18.6
1258.244	18.6
1263.124	18.6
1268	14.6
1272.871	18.6
1277.737	18.6
1282.599	19.6
1287.455	23.6
1292.306	19.6
1297.153	15.6
1301.995	16.6
1306.832	16.6
1311.664	13.6
1316.491	19.6
1321.314	22.6
1326.132	22.6
1330.945	23.6
1335.753	27.6
1340.556	20.6
1345.354	17.6
1350.148	21.6
1354.937	19.6
1359.722	20.6
1364.501	21.6
1369.276	25.6
1374.046	22.6
1378.811	18.6
1383.572	14.6
1388.327	11.6
1393.079	17.6
1397.825	12.6
1402.567	13.6
1407.304	17.6
1412.036	17.6
1416.764	14.6
1421.487	19.6
1426.205	14.6
1430.919	18.6
1435.628	17.6
1440.333	20.6
1445.032	21.6
1449.727	19.6
1454.418	24.6
1459.104	26.6
1463.785	26.6
1468.462	25.6
1473.134	24.6
1477.802	19.6
1482.465	13.6
1487.123	17.6
1491.777	16.6
1496.426	16.6
1501.071	16.6
1505.711	16.6
1510.347	15.6
1514.978	15.6
1519.604	19.6
1524.226	14.6
1528.844	18.6
1533.457	14.6
1538.065	19.6
1542.669	12.6
1547.269	11.6
1551.864	12.6
1556.454	15.6
1561.041	15.6
1565.622	12.6
1570.199	15.6
1574.772	12.6
1579.34	12.6
1583.904	17.6
1588.464	16.6
1593.019	9.6
1597.569	10.6
1602.115	14.6
1606.657	10.6
1611.195	13.6
1615.728	16.6
1620.256	15.6
1624.78	13.6
1629.3	9.6
1633.816	10.6
1638.327	12.6
1642.834	11.6
1647.336	13.6
1651.834	11.6
1656.328	12.6
1660.817	14.6
1665.302	14.6
1669.783	14.6
1674.259	12.6
1678.732	7.6
1683.199	12.6
1687.663	9.6
1692.122	13.6
1696.577	15.6
1701.028	15.6
1705.474	10.6
1709.917	13.6
1714.355	9.6
1718.788	11.6
1723.218	8.6
1727.643	4.6
1732.064	9.6
1736.481	10.6
1740.893	13.6
1745.301	13.6
1749.705	12.6
1754.105	12.6
1758.501	11.6
1762.893	8.6
1767.28	6.6
1771.663	6.6
1776.042	5.6
1780.417	10.6
1784.787	12.6
1789.154	11.6
1793.516	14.6
1797.874	14.6
1802.228	9.6
1806.578	4.6
1810.924	7.6
1815.266	7.6
1819.603	5.6
1823.937	12.6
1828.266	8.6
1832.591	12.6
1836.913	6.6
1841.23	3.6
1845.543	7.6
1849.852	6.6
1854.156	6.6
1858.457	2.6
1862.754	11.6
1867.047	7.6
1871.335	14.6
1875.62	8.6
1879.9	9.6
1884.177	8.6
1888.449	3.6
1892.718	9.6
1896.982	5.6
1901.243	7.6
1905.499	7.6
1909.752	7.6
1914	8.6
1918.245	5.6
1922.485	7.6
1926.722	8.6
1930.954	4.6
1935.183	6.6
1939.408	5.6
1943.628	8.6
1947.845	7.6
1952.058	9.6
1956.267	9.6
1960.472	5.6
1964.673	5.6
1968.87	5.6
1973.063	8.6
1977.252	8.6
1981.438	7.6
1985.619	6.6
1989.797	7.6
1993.971	2.6
1998.14	8.6
2002.306	6.6
2006.469	7.6
2010.627	8.6
2014.781	9.6
2018.932	5.6
2023.078	4.6
2027.221	4.6
2031.36	5.6
2035.495	8.6
2039.627	8.6
2043.754	6.6
2047.878	7.6
2051.998	8.6
2056.114	8.6
2060.226	12.6
2064.334	4.6
2068.439	3.6
2072.54	2.6
2076.637	9.6
2080.73	8.6
2084.82	7.6
2088.906	10.6
2092.988	5.6
2097.066	3.6
2101.14	6.6
2105.211	7.6
2109.278	6.6
2113.342	7.6
2117.401	8.6
2121.457	7.6
2125.509	9.6
2129.558	5.6
2133.602	8.6
2137.643	0.6
2141.681	1.6
2145.714	3.6
2149.744	5.6
2153.77	3.6
2157.793	10.6
2161.812	7.6
2165.827	7.6
2169.838	2.6
2173.846	3.6
2177.851	2.6
2181.851	4.6
2185.848	4.6
2189.841	6.6
2193.831	3.6
2197.817	7.6
2201.799	5.6
2205.778	5.6
2209.753	4.6
2213.725	1.6
2217.693	1.6
2221.657	1.6
2225.618	5.6
2229.575	7.6
2233.529	6.6
2237.479	3.6
2241.425	-1.4
2245.368	2.6
2249.307	-3.4
2253.243	3.6
2257.175	0.6
2261.104	10.6
2265.029	5.6
2268.95	3.6
2272.868	5.6
2276.783	0.6
2280.694	2.6
2284.601	0.6
2288.505	2.6
2292.405	3.6
2296.302	5.6
2300.195	6.6
2304.085	4.6
2307.971	4.6
2311.854	0.6
2315.734	1.6
2319.609	1.6
2323.482	2.6
2327.351	-0.4
2331.216	7.6
2335.078	8.6
2338.937	6.6
2342.792	-0.4
2346.643	0.6
2350.492	4.6
2354.336	2.6
2358.178	2.6
2362.015	1.6
2365.85	3.6
2369.681	3.6
2373.508	2.6
2377.333	0.6
2381.153	2.6
2384.971	0.6
2388.785	3.6
2392.595	1.6
2396.402	3.6
2400.206	3.6
2404.007	-1.4
2407.804	1.6
2411.597	3.6
2415.388	-2.4
2419.174	2.6
2422.958	5.6
2426.738	-0.4
2430.515	6.6
2434.289	-1.4
2438.059	0.6
2441.825	-3.4
2445.589	3.6
2449.349	-0.4
2453.106	3.6
2456.859	1.6
2460.61	2.6
2464.356	3.6
2468.1	1.6
2471.84	-0.4
2475.577	0.6
2479.311	1.6
2483.041	3.6
2486.768	3.6
2490.492	1.6
2494.213	1.6
2497.93	-0.4
2501.644	-0.4
2505.355	2.6
2509.062	-3.4
2512.766	3.6
2516.467	2.6
2520.165	0.6
2523.859	2.6
2527.551	1.6
2531.239	2.6
2534.923	-1.4
2538.605	-2.4
2542.283	-2.4
2545.958	1.6
2549.63	4.6
2553.299	4.6
2556.964	3.6
2560.626	2.6
2564.285	-6.4
2567.941	-1.4
2571.594	-4.4
2575.243	-2.4
2578.89	5.6
2582.533	1.6
2586.173	5.6
2589.809	3.6
2593.443	3.6
2597.073	3.6
2600.701	-0.4
2604.325	-0.4
2607.946	-2.4
2611.564	4.6
2615.178	5.6
2618.79	2.6
2622.398	2.6
2626.004	2.6
2629.606	2.6
2633.205	0.6
2636.801	-1.4
2640.394	0.6
2643.983	-0.4
2647.57	3.6
2651.153	7.6
2654.734	4.6
2658.311	0.6
2661.885	4.6
2665.456	3.6
2669.025	0.6
2672.589	-0.4
2676.151	2.6
2679.71	2.6
2683.266	2.6
2686.819	6.6
2690.368	3.6
2693.915	1.6
2697.458	0.6
2700.999	4.6
2704.536	0.6
2708.071	1.6
2711.602	2.6
2715.13	6.6
2718.656	0.6
2722.178	3.6
2725.697	0.6
2729.214	3.6
2732.727	1.6
2736.237	2.6
2739.744	2.6
2743.249	4.6
2746.75	1.6
2750.248	0.6
2753.743	1.6
2757.236	2.6
2760.725	-1.4
2764.211	2.6
2767.695	2.6
2771.175	2.6
2774.652	6.6
2778.127	0.6
2781.598	2.6
2785.067	-1.4
2788.532	-2.4
2791.995	1.6
2795.455	2.6
2798.911	3.6
2802.365	3.6
2805.816	1.6
2809.264	4.6
2812.709	0.6
2816.151	0.6
2819.59	-1.4
2823.026	-1.4
2826.46	-1.4
2829.89	3.6
2833.318	4.6
2836.742	5.6
2840.164	8.6
2843.583	7.6
2846.999	5.6
2850.412	5.6
2853.822	1.6
2857.229	1.6
2860.634	1.6
2864.035	6.6
2867.434	7.6
2870.83	10.6
2874.223	12.6
2877.613	13.6
2881	8.6
2884.385	5.6
2887.766	8.6
2891.145	8.6
2894.521	12.6
2897.894	10.6
2901.264	9.6
2904.631	7.6
2907.996	12.6
2911.358	13.6
2914.717	9.6
2918.073	5.6
2921.426	4.6
2924.777	4.6
2928.124	4.6
2931.469	4.6
2934.811	6.6
2938.15	7.6
2941.487	4.6
2944.821	6.6
2948.152	0.6
2951.48	3.6
2954.805	5.6
2958.128	2.6
2961.447	3.6
2964.765	4.6
2968.079	11.6
2971.39	7.6
2974.699	4.6
2978.005	-0.4
2981.308	2.6
2984.609	-0.4
2987.907	1.6
2991.202	2.6
2994.494	2.6
2997.784	6.6
3001.07	5.6
3004.355	0.6
3007.636	2.6
3010.915	2.6
3014.191	0.6
3017.464	-2.4
3020.734	1.6
3024.002	0.6
3027.267	3.6
3030.53	2.6
3033.789	3.6
3037.046	-0.4
3040.301	1.6
3043.552	-1.4
3046.801	0.6
3050.048	-0.4
3053.291	-1.4
3056.532	0.6
3059.771	4.6
3063.006	1.6
3066.239	-1.4
3069.469	0.6
3072.697	-1.4
3075.922	-0.4
3079.144	1.6
3082.364	2.6
3085.581	-3.4
3088.795	2.6
3092.007	1.6
3095.216	2.6
3098.423	2.6
3101.627	-2.4
3104.828	3.6
3108.026	3.6
3111.222	1.6
3114.416	2.6
3117.607	3.6
3120.795	0.6
3123.98	4.6
3127.163	1.6
3130.344	3.6
3133.521	4.6
3136.696	2.6
3139.869	1.6
3143.039	4.6
3146.206	2.6
3149.371	1.6
3152.533	2.6
3155.693	-0.4
3158.85	-0.4
3162.005	1.6
3165.157	2.6
3168.306	1.6
3171.453	1.6
3174.597	5.6
3177.739	2.6
3180.878	0.6
3184.014	-1.4
3187.149	-4.4
3190.28	-2.4
3193.409	-0.4
3196.536	1.6
3199.659	4.6
3202.781	0.6
3205.9	5.6
3209.016	2.6
3212.13	0.6
3215.241	1.6
3218.35	3.6
3221.456	0.6
3224.56	4.6
3227.661	3.6
3230.76	6.6
3233.856	6.6
3236.95	6.6
3240.041	-0.4
3243.13	-2.4
3246.216	-0.4
3249.3	3.6
3252.382	6.6
3255.46	5.6
3258.537	5.6
3261.611	7.6
3264.682	3.6
3267.751	0.6
3270.818	-1.4
3273.882	0.6
3276.943	1.6
3280.002	1.6
3283.059	1.6
3286.113	6.6
3289.165	-0.4
3292.214	3.6
3295.261	2.6
3298.306	-0.4
3301.348	-0.4
3304.387	0.6
3307.425	-0.4
3310.459	1.6
3313.492	1.6
3316.521	5.6
3319.549	4.6
3322.574	2.6
3325.597	-0.4
3328.617	-0.4
3331.635	-1.4
3334.65	-2.4
3337.663	-0.4
3340.674	3.6
3343.682	3.6
3346.688	4.6
3349.691	2.6
3352.692	0.6
3355.691	-1.4
3358.687	-4.4
3361.681	-0.4
3364.673	1.6
3367.662	1.6
3370.649	5.6
3373.633	4.6
3376.615	4.6
3379.595	-2.4
3382.572	2.6
3385.547	-3.4
3388.52	-0.4
3391.49	-0.4
3394.458	0.6
3397.424	1.6
3400.387	2.6
3403.348	0.6
3406.307	-0.4
3409.263	1.6
3412.217	1.6
3415.168	-0.4
3418.118	-0.4
3421.065	2.6
3424.009	1.6
3426.951	2.6
3429.891	1.6
3432.829	-0.4
3435.764	1.6
3438.697	-2.4
3441.628	0.6
3444.557	0.6
3447.483	-1.4
3450.407	-0.4
3453.328	4.6
3456.247	-2.4
3459.164	1.6
3462.079	1.6
3464.991	-0.4
3467.902	-0.4
3470.809	1.6
3473.715	2.6
3476.618	-0.4
3479.519	-4.4
3482.418	0.6
3485.315	0.6
3488.209	-1.4
3491.101	-0.4
3493.99	-4.4
3496.878	-0.4
3499.763	0.6
3502.646	0.6
3505.527	-3.4
3508.405	0.6
3511.281	1.6
3514.155	-1.4
3517.027	3.6
3519.897	2.6
3522.764	-0.4
3525.629	-0.4
3528.492	-4.4
3531.352	-2.4
3534.211	-0.4
3537.067	-4.4
3539.921	-2.4
3542.773	0.6
3545.622	6.6
3548.469	-3.4
3551.315	1.6
3554.157	-0.4
3556.998	-1.4
3559.837	-5.4
3562.673	-1.4
3565.507	0.6
3568.339	0.6
3571.169	1.6
3573.996	1.6
3576.822	-0.4
3579.645	-3.4
3582.466	-2.4
3585.285	0.6
3588.101	-3.4
3590.916	1.6
3593.728	2.6
3596.538	2.6
3599.346	-0.4
3602.152	-2.4
3604.956	-1.4
3607.757	-4.4
3610.556	-2.4
3613.354	0.6
3616.149	-2.4
3618.942	3.6
3621.732	3.6
3624.521	3.6
3627.307	-1.4
3630.092	-2.4
3632.874	-3.4
3635.654	-3.4
3638.432	-3.4
3641.208	-3.4
3643.982	-0.4
3646.753	1.6
3649.523	-5.4
3652.29	-1.4
3655.055	-3.4
3657.818	-5.4
3660.579	-2.4
3663.338	-3.4
3666.095	-2.4
3668.849	2.6
3671.602	1.6
3674.352	5.6
3677.101	-0.4
3679.847	-1.4
3682.591	-3.4
3685.333	-2.4
3688.073	-1.4
3690.811	1.6
3693.547	1.6
3696.281	-1.4
3699.013	0.6
3701.742	-0.4
3704.47	-1.4
3707.195	-3.4
3709.919	-4.4
3712.64	-2.4
3715.359	-1.4
3718.076	-1.4
3720.792	1.6
3723.505	-0.4
3726.216	-0.4
3728.925	-0.4
3731.632	1.6
3734.336	-4.4
3737.039	2.6
3739.74	-1.4
3742.439	-1.4
3745.136	-1.4
3747.83	-1.4
3750.523	-3.4
3753.213	0.6
3755.902	-1.4
3758.589	-2.4
3761.273	-0.4
3763.956	-4.4
3766.636	-6.4
3769.315	-4.4
3771.991	-0.4
3774.665	3.6
3777.338	2.6
3780.008	-0.4
3782.677	-3.4
3785.343	-1.4
3788.007	-3.4
3790.67	-1.4
3793.33	-2.4
3795.989	-2.4
3798.645	-0.4
3801.299	0.6
3803.952	0.6
3806.602	3.6
3809.251	1.6
3811.897	-1.4
3814.542	-5.4
3817.184	-5.4
3819.825	-4.4
3822.463	-2.4
3825.1	-0.4
3827.735	-1.4
3830.367	0.6
3832.998	0.6
3835.627	1.6
3838.253	0.6
3840.878	-3.4
3843.501	-3.4
3846.122	-3.4
3848.741	0.6
3851.358	1.6
3853.973	1.6
3856.586	-2.4
3859.197	-0.4
3861.806	-4.4
3864.414	-4.4
3867.019	-2.4
3869.622	-4.4
3872.224	-1.4
3874.823	-1.4
3877.421	3.6
3880.016	1.6
3882.61	0.6
3885.202	4.6
3887.792	1.6
3890.38	-0.4
3892.966	-4.4
3895.55	1.6
3898.132	-0.4
3900.713	0.6
3903.291	0.6
3905.868	2.6
3908.442	0.6
3911.015	-3.4
3913.586	-3.4
3916.155	-2.4
3918.722	-2.4
3921.287	-1.4
3923.85	0.6
3926.411	2.6
3928.971	-2.4
3931.528	-1.4
3934.084	-1.4
3936.638	-2.4
3939.19	-4.4
3941.74	-2.4
3944.288	-5.4
3946.834	3.6
3949.378	2.6
3951.921	2.6
3954.462	-3.4
3957	-2.4
3959.537	0.6
3962.072	-0.4
3964.606	-0.4
3967.137	0.6
3969.667	-1.4
3972.194	-0.4
3974.72	-0.4
3977.244	-0.4
3979.766	0.6
3982.286	-0.4
3984.805	0.6
3987.321	-1.4
3989.836	-1.4
3992.349	-0.4
3994.86	-0.4
3997.369	-5.4
3999.877	-2.4
4002.382	-1.4
4004.886	-3.4
4007.388	0.6
4009.888	-4.4
4012.386	2.6
4014.883	-1.4
4017.377	3.6
4019.87	-2.4
4022.361	-2.4
4024.85	-4.4
4027.338	-3.4
4029.823	1.6
4032.307	2.6
4034.789	0.6
4037.269	1.6
4039.747	-0.4
4042.224	0.6
4044.699	-6.4
4047.172	-1.4
4049.643	-7.4
4052.112	-4.4
4054.58	-0.4
4057.046	2.6
4059.51	2.6
4061.972	1.6
4064.432	0.6
4066.891	-1.4
4069.348	-1.4
4071.803	-4.4
4074.256	-7.4
4076.708	1.6
4079.158	3.6
4081.606	-3.4
4084.052	-0.4
4086.497	-0.4
4088.939	-0.4
4091.38	-2.4
4093.819	-4.4
4096.257	-1.4
4098.693	-2.4
4101.127	-0.4
4103.559	1.6
4105.989	6.6
4108.418	5.6
4110.845	1.6
4113.27	-0.4
4115.694	-1.4
4118.115	2.6
4120.535	-1.4
4122.954	-2.4
4125.37	-2.4
4127.785	-0.4
4130.198	-0.4
4132.609	-1.4
4135.019	-1.4
4137.427	-4.4
4139.833	-3.4
4142.237	-6.4
