Data from 2_n=5_RamanShift_01.txt Node
Date: Mon Mar 19 12:32:48 IST 2018
User: aro
Spectrometer: QEPB0276
Trigger mode: 0
Integration Time (sec): 5.000000E0
Scans to average: 1
Electric dark correction enabled: true
Nonlinearity correction enabled: false
Boxcar width: 0
XAxis mode: Raman Shifts
Number of Pixels in Spectrum: 1044
>>>>>Begin Spectral Data<<<<<
160.701	-1.5
166.742	2.5
172.777	3.5
178.805	13.5
184.826	23.5
190.841	45.5
196.849	76.5
202.85	95.5
208.845	97.5
214.833	100.5
220.815	103.5
226.789	115.5
232.758	109.5
238.719	117.5
244.674	105.5
250.623	113.5
256.565	113.5
262.5	107.5
268.429	113.5
274.351	114.5
280.267	116.5
286.176	118.5
292.079	115.5
297.975	117.5
303.865	117.5
309.748	115.5
315.625	118.5
321.495	115.5
327.359	119.5
333.217	124.5
339.068	123.5
344.912	127.5
350.751	125.5
356.583	128.5
362.408	119.5
368.227	122.5
374.04	127.5
379.847	130.5
385.647	141.5
391.44	140.5
397.228	136.5
403.009	135.5
408.784	132.5
414.553	141.5
420.315	158.5
426.071	166.5
431.821	148.5
437.565	136.5
443.302	126.5
449.033	133.5
454.758	123.5
460.477	123.5
466.189	123.5
471.896	114.5
477.596	113.5
483.29	114.5
488.978	111.5
494.66	120.5
500.335	117.5
506.005	109.5
511.668	97.5
517.325	91.5
522.977	85.5
528.622	80.5
534.261	81.5
539.894	76.5
545.521	76.5
551.141	77.5
556.756	76.5
562.365	76.5
567.968	74.5
573.565	73.5
579.155	67.5
584.74	70.5
590.319	71.5
595.892	69.5
601.459	69.5
607.02	73.5
612.575	68.5
618.124	67.5
623.667	67.5
629.204	60.5
634.735	62.5
640.261	65.5
645.781	68.5
651.294	73.5
656.802	75.5
662.304	69.5
667.8	67.5
673.29	58.5
678.775	62.5
684.254	55.5
689.726	53.5
695.193	56.5
700.655	59.5
706.11	63.5
711.56	63.5
717.004	57.5
722.442	54.5
727.874	55.5
733.301	53.5
738.722	57.5
744.137	53.5
749.547	53.5
754.951	61.5
760.349	58.5
765.741	60.5
771.128	57.5
776.509	55.5
781.885	59.5
787.254	56.5
792.618	56.5
797.977	62.5
803.33	63.5
808.677	67.5
814.019	66.5
819.355	68.5
824.686	67.5
830.011	56.5
835.33	58.5
840.644	59.5
845.952	61.5
851.255	59.5
856.552	61.5
861.844	57.5
867.13	53.5
872.41	55.5
877.686	49.5
882.955	43.5
888.219	46.5
893.478	47.5
898.731	47.5
903.979	49.5
909.221	60.5
914.458	52.5
919.69	48.5
924.916	45.5
930.136	41.5
935.351	43.5
940.561	43.5
945.766	48.5
950.965	44.5
956.158	49.5
961.347	49.5
966.529	49.5
971.707	44.5
976.879	45.5
982.046	47.5
987.208	44.5
992.364	38.5
997.515	41.5
1002.66	45.5
1007.801	50.5
1012.936	43.5
1018.066	46.5
1023.19	40.5
1028.309	43.5
1033.423	40.5
1038.532	47.5
1043.636	49.5
1048.734	49.5
1053.827	49.5
1058.915	42.5
1063.998	44.5
1069.075	43.5
1074.147	39.5
1079.214	35.5
1084.276	41.5
1089.333	41.5
1094.385	40.5
1099.431	46.5
1104.472	45.5
1109.509	38.5
1114.54	37.5
1119.565	36.5
1124.586	37.5
1129.602	30.5
1134.613	35.5
1139.618	39.5
1144.619	45.5
1149.614	43.5
1154.604	45.5
1159.589	47.5
1164.57	45.5
1169.545	40.5
1174.515	43.5
1179.48	40.5
1184.44	39.5
1189.395	39.5
1194.345	42.5
1199.29	43.5
1204.23	41.5
1209.165	33.5
1214.095	37.5
1219.021	38.5
1223.941	38.5
1228.856	36.5
1233.766	41.5
1238.672	41.5
1243.572	39.5
1248.467	33.5
1253.358	37.5
1258.244	36.5
1263.124	30.5
1268	32.5
1272.871	31.5
1277.737	33.5
1282.599	37.5
1287.455	36.5
1292.306	36.5
1297.153	33.5
1301.995	35.5
1306.832	34.5
1311.664	33.5
1316.491	36.5
1321.314	35.5
1326.132	38.5
1330.945	38.5
1335.753	42.5
1340.556	37.5
1345.354	37.5
1350.148	34.5
1354.937	32.5
1359.722	32.5
1364.501	27.5
1369.276	38.5
1374.046	34.5
1378.811	28.5
1383.572	25.5
1388.327	30.5
1393.079	31.5
1397.825	28.5
1402.567	27.5
1407.304	30.5
1412.036	29.5
1416.764	26.5
1421.487	33.5
1426.205	31.5
1430.919	31.5
1435.628	29.5
1440.333	31.5
1445.032	33.5
1449.727	34.5
1454.418	41.5
1459.104	44.5
1463.785	41.5
1468.462	39.5
1473.134	37.5
1477.802	31.5
1482.465	27.5
1487.123	28.5
1491.777	26.5
1496.426	28.5
1501.071	28.5
1505.711	27.5
1510.347	27.5
1514.978	27.5
1519.604	25.5
1524.226	21.5
1528.844	26.5
1533.457	23.5
1538.065	26.5
1542.669	25.5
1547.269	23.5
1551.864	24.5
1556.454	26.5
1561.041	24.5
1565.622	22.5
1570.199	23.5
1574.772	23.5
1579.34	23.5
1583.904	26.5
1588.464	22.5
1593.019	22.5
1597.569	23.5
1602.115	29.5
1606.657	23.5
1611.195	28.5
1615.728	23.5
1620.256	23.5
1624.78	21.5
1629.3	23.5
1633.816	17.5
1638.327	21.5
1642.834	24.5
1647.336	20.5
1651.834	20.5
1656.328	22.5
1660.817	21.5
1665.302	23.5
1669.783	23.5
1674.259	20.5
1678.732	18.5
1683.199	23.5
1687.663	22.5
1692.122	18.5
1696.577	20.5
1701.028	23.5
1705.474	20.5
1709.917	21.5
1714.355	16.5
1718.788	18.5
1723.218	18.5
1727.643	12.5
1732.064	17.5
1736.481	21.5
1740.893	15.5
1745.301	25.5
1749.705	20.5
1754.105	21.5
1758.501	13.5
1762.893	17.5
1767.28	14.5
1771.663	19.5
1776.042	11.5
1780.417	16.5
1784.787	16.5
1789.154	19.5
1793.516	20.5
1797.874	17.5
1802.228	16.5
1806.578	11.5
1810.924	13.5
1815.266	13.5
1819.603	11.5
1823.937	17.5
1828.266	11.5
1832.591	15.5
1836.913	13.5
1841.23	13.5
1845.543	14.5
1849.852	11.5
1854.156	11.5
1858.457	14.5
1862.754	14.5
1867.047	9.5
1871.335	15.5
1875.62	14.5
1879.9	11.5
1884.177	20.5
1888.449	13.5
1892.718	14.5
1896.982	13.5
1901.243	17.5
1905.499	14.5
1909.752	11.5
1914	12.5
1918.245	6.5
1922.485	11.5
1926.722	15.5
1930.954	12.5
1935.183	14.5
1939.408	13.5
1943.628	15.5
1947.845	13.5
1952.058	18.5
1956.267	10.5
1960.472	10.5
1964.673	9.5
1968.87	12.5
1973.063	11.5
1977.252	9.5
1981.438	10.5
1985.619	12.5
1989.797	9.5
1993.971	6.5
1998.14	8.5
2002.306	9.5
2006.469	8.5
2010.627	11.5
2014.781	13.5
2018.932	13.5
2023.078	9.5
2027.221	9.5
2031.36	8.5
2035.495	10.5
2039.627	9.5
2043.754	10.5
2047.878	11.5
2051.998	8.5
2056.114	9.5
2060.226	10.5
2064.334	7.5
2068.439	9.5
2072.54	5.5
2076.637	9.5
2080.73	11.5
2084.82	11.5
2088.906	11.5
2092.988	12.5
2097.066	9.5
2101.14	11.5
2105.211	8.5
2109.278	6.5
2113.342	4.5
2117.401	9.5
2121.457	9.5
2125.509	15.5
2129.558	7.5
2133.602	11.5
2137.643	7.5
2141.681	10.5
2145.714	6.5
2149.744	5.5
2153.77	6.5
2157.793	12.5
2161.812	10.5
2165.827	9.5
2169.838	9.5
2173.846	8.5
2177.851	7.5
2181.851	8.5
2185.848	2.5
2189.841	7.5
2193.831	3.5
2197.817	10.5
2201.799	6.5
2205.778	7.5
2209.753	6.5
2213.725	3.5
2217.693	3.5
2221.657	6.5
2225.618	4.5
2229.575	8.5
2233.529	5.5
2237.479	5.5
2241.425	6.5
2245.368	5.5
2249.307	4.5
2253.243	5.5
2257.175	2.5
2261.104	6.5
2265.029	5.5
2268.95	2.5
2272.868	3.5
2276.783	1.5
2280.694	7.5
2284.601	7.5
2288.505	7.5
2292.405	6.5
2296.302	5.5
2300.195	4.5
2304.085	1.5
2307.971	0.5
2311.854	1.5
2315.734	1.5
2319.609	4.5
2323.482	5.5
2327.351	6.5
2331.216	7.5
2335.078	9.5
2338.937	4.5
2342.792	0.5
2346.643	-1.5
2350.492	1.5
2354.336	3.5
2358.178	4.5
2362.015	5.5
2365.85	1.5
2369.681	2.5
2373.508	5.5
2377.333	0.5
2381.153	2.5
2384.971	1.5
2388.785	3.5
2392.595	7.5
2396.402	7.5
2400.206	6.5
2404.007	2.5
2407.804	3.5
2411.597	1.5
2415.388	-2.5
2419.174	1.5
2422.958	4.5
2426.738	-0.5
2430.515	9.5
2434.289	2.5
2438.059	2.5
2441.825	-1.5
2445.589	0.5
2449.349	-1.5
2453.106	3.5
2456.859	5.5
2460.61	4.5
2464.356	5.5
2468.1	3.5
2471.84	4.5
2475.577	2.5
2479.311	-1.5
2483.041	2.5
2486.768	0.5
2490.492	1.5
2494.213	2.5
2497.93	1.5
2501.644	4.5
2505.355	3.5
2509.062	3.5
2512.766	3.5
2516.467	0.5
2520.165	-0.5
2523.859	-2.5
2527.551	0.5
2531.239	0.5
2534.923	2.5
2538.605	-0.5
2542.283	2.5
2545.958	3.5
2549.63	3.5
2553.299	1.5
2556.964	2.5
2560.626	0.5
2564.285	-3.5
2567.941	0.5
2571.594	1.5
2575.243	-1.5
2578.89	2.5
2582.533	4.5
2586.173	3.5
2589.809	-0.5
2593.443	1.5
2597.073	1.5
2600.701	-2.5
2604.325	-1.5
2607.946	4.5
2611.564	5.5
2615.178	4.5
2618.79	3.5
2622.398	1.5
2626.004	0.5
2629.606	1.5
2633.205	0.5
2636.801	1.5
2640.394	-0.5
2643.983	2.5
2647.57	4.5
2651.153	5.5
2654.734	2.5
2658.311	-0.5
2661.885	-1.5
2665.456	-1.5
2669.025	-0.5
2672.589	2.5
2676.151	1.5
2679.71	8.5
2683.266	-0.5
2686.819	3.5
2690.368	2.5
2693.915	-1.5
2697.458	-3.5
2700.999	0.5
2704.536	0.5
2708.071	5.5
2711.602	1.5
2715.13	5.5
2718.656	2.5
2722.178	-0.5
2725.697	-3.5
2729.214	-3.5
2732.727	0.5
2736.237	3.5
2739.744	1.5
2743.249	9.5
2746.75	1.5
2750.248	2.5
2753.743	2.5
2757.236	0.5
2760.725	-5.5
2764.211	-1.5
2767.695	0.5
2771.175	-1.5
2774.652	5.5
2778.127	4.5
2781.598	4.5
2785.067	-1.5
2788.532	-3.5
2791.995	-2.5
2795.455	0.5
2798.911	0.5
2802.365	-1.5
2805.816	1.5
2809.264	1.5
2812.709	4.5
2816.151	2.5
2819.59	-0.5
2823.026	-1.5
2826.46	-3.5
2829.89	2.5
2833.318	1.5
2836.742	5.5
2840.164	10.5
2843.583	9.5
2846.999	6.5
2850.412	3.5
2853.822	2.5
2857.229	2.5
2860.634	4.5
2864.035	3.5
2867.434	9.5
2870.83	9.5
2874.223	13.5
2877.613	14.5
2881	11.5
2884.385	8.5
2887.766	13.5
2891.145	12.5
2894.521	9.5
2897.894	13.5
2901.264	10.5
2904.631	15.5
2907.996	16.5
2911.358	12.5
2914.717	9.5
2918.073	5.5
2921.426	7.5
2924.777	4.5
2928.124	7.5
2931.469	6.5
2934.811	8.5
2938.15	9.5
2941.487	5.5
2944.821	6.5
2948.152	2.5
2951.48	1.5
2954.805	5.5
2958.128	7.5
2961.447	2.5
2964.765	8.5
2968.079	11.5
2971.39	8.5
2974.699	8.5
2978.005	1.5
2981.308	-0.5
2984.609	-2.5
2987.907	-1.5
2991.202	-0.5
2994.494	4.5
2997.784	3.5
3001.07	3.5
3004.355	-0.5
3007.636	2.5
3010.915	-0.5
3014.191	0.5
3017.464	-4.5
3020.734	1.5
3024.002	-0.5
3027.267	4.5
3030.53	-1.5
3033.789	2.5
3037.046	-4.5
3040.301	-0.5
3043.552	-4.5
3046.801	-0.5
3050.048	-3.5
3053.291	-1.5
3056.532	-0.5
3059.771	2.5
3063.006	-0.5
3066.239	0.5
3069.469	-0.5
3072.697	1.5
3075.922	-3.5
3079.144	-1.5
3082.364	-1.5
3085.581	-0.5
3088.795	1.5
3092.007	0.5
3095.216	-1.5
3098.423	-1.5
3101.627	-4.5
3104.828	1.5
3108.026	-1.5
3111.222	-2.5
3114.416	0.5
3117.607	2.5
3120.795	2.5
3123.98	2.5
3127.163	2.5
3130.344	2.5
3133.521	0.5
3136.696	-0.5
3139.869	1.5
3143.039	3.5
3146.206	0.5
3149.371	0.5
3152.533	0.5
3155.693	3.5
3158.85	-0.5
3162.005	1.5
3165.157	-2.5
3168.306	-0.5
3171.453	-1.5
3174.597	-1.5
3177.739	-1.5
3180.878	-1.5
3184.014	-0.5
3187.149	2.5
3190.28	-0.5
3193.409	-1.5
3196.536	-0.5
3199.659	0.5
3202.781	2.5
3205.9	3.5
3209.016	-0.5
3212.13	-0.5
3215.241	0.5
3218.35	2.5
3221.456	-1.5
3224.56	1.5
3227.661	2.5
3230.76	3.5
3233.856	3.5
3236.95	4.5
3240.041	-2.5
3243.13	-6.5
3246.216	-1.5
3249.3	1.5
3252.382	1.5
3255.46	3.5
3258.537	1.5
3261.611	3.5
3264.682	-0.5
3267.751	-0.5
3270.818	-5.5
3273.882	-2.5
3276.943	2.5
3280.002	-1.5
3283.059	-0.5
3286.113	3.5
3289.165	-1.5
3292.214	0.5
3295.261	-1.5
3298.306	-1.5
3301.348	-3.5
3304.387	-0.5
3307.425	-1.5
3310.459	1.5
3313.492	-2.5
3316.521	0.5
3319.549	0.5
3322.574	-3.5
3325.597	-3.5
3328.617	-2.5
3331.635	-2.5
3334.65	-2.5
3337.663	-0.5
3340.674	1.5
3343.682	0.5
3346.688	0.5
3349.691	-0.5
3352.692	-2.5
3355.691	-3.5
3358.687	-4.5
3361.681	0.5
3364.673	2.5
3367.662	0.5
3370.649	3.5
3373.633	0.5
3376.615	-0.5
3379.595	-4.5
3382.572	-2.5
3385.547	-4.5
3388.52	-4.5
3391.49	-2.5
3394.458	1.5
3397.424	-1.5
3400.387	1.5
3403.348	-2.5
3406.307	-3.5
3409.263	-0.5
3412.217	-2.5
3415.168	-4.5
3418.118	-2.5
3421.065	0.5
3424.009	0.5
3426.951	0.5
3429.891	-0.5
3432.829	-0.5
3435.764	4.5
3438.697	-5.5
3441.628	-1.5
3444.557	-1.5
3447.483	-3.5
3450.407	-1.5
3453.328	1.5
3456.247	-5.5
3459.164	-0.5
3462.079	-1.5
3464.991	-0.5
3467.902	-3.5
3470.809	0.5
3473.715	-2.5
3476.618	-0.5
3479.519	-6.5
3482.418	-1.5
3485.315	-5.5
3488.209	2.5
3491.101	0.5
3493.99	-5.5
3496.878	0.5
3499.763	-0.5
3502.646	1.5
3505.527	-3.5
3508.405	-3.5
3511.281	-2.5
3514.155	-3.5
3517.027	0.5
3519.897	0.5
3522.764	-0.5
3525.629	-3.5
3528.492	-2.5
3531.352	-5.5
3534.211	-3.5
3537.067	-10.5
3539.921	-7.5
3542.773	-4.5
3545.622	4.5
3548.469	-3.5
3551.315	0.5
3554.157	-0.5
3556.998	-0.5
3559.837	-5.5
3562.673	-7.5
3565.507	-5.5
3568.339	-2.5
3571.169	-1.5
3573.996	-1.5
3576.822	-1.5
3579.645	-0.5
3582.466	-4.5
3585.285	-0.5
3588.101	-4.5
3590.916	-3.5
3593.728	-3.5
3596.538	-2.5
3599.346	-5.5
3602.152	-3.5
3604.956	-1.5
3607.757	-0.5
3610.556	-2.5
3613.354	0.5
3616.149	-5.5
3618.942	-5.5
3621.732	-2.5
3624.521	-0.5
3627.307	-2.5
3630.092	-2.5
3632.874	-2.5
3635.654	0.5
3638.432	-5.5
3641.208	-5.5
3643.982	-1.5
3646.753	-1.5
3649.523	-8.5
3652.29	-1.5
3655.055	-7.5
3657.818	-2.5
3660.579	0.5
3663.338	0.5
3666.095	-2.5
3668.849	1.5
3671.602	-5.5
3674.352	-6.5
3677.101	-3.5
3679.847	-4.5
3682.591	-0.5
3685.333	-0.5
3688.073	-0.5
3690.811	0.5
3693.547	-1.5
3696.281	-1.5
3699.013	-7.5
3701.742	-6.5
3704.47	-6.5
3707.195	-4.5
3709.919	-2.5
3712.64	-4.5
3715.359	0.5
3718.076	-1.5
3720.792	-0.5
3723.505	-3.5
3726.216	-4.5
3728.925	-3.5
3731.632	-3.5
3734.336	-3.5
3737.039	-0.5
3739.74	-1.5
3742.439	-2.5
3745.136	-3.5
3747.83	-2.5
3750.523	-4.5
3753.213	-5.5
3755.902	-0.5
3758.589	-5.5
3761.273	0.5
3763.956	-0.5
3766.636	-5.5
3769.315	-2.5
3771.991	-5.5
3774.665	-2.5
3777.338	-2.5
3780.008	-2.5
3782.677	-3.5
3785.343	-4.5
3788.007	-0.5
3790.67	-1.5
3793.33	-3.5
3795.989	-1.5
3798.645	-6.5
3801.299	-3.5
3803.952	-7.5
3806.602	-2.5
3809.251	-2.5
3811.897	-0.5
3814.542	-0.5
3817.184	-1.5
3819.825	-4.5
3822.463	-4.5
3825.1	-4.5
3827.735	-6.5
3830.367	-3.5
3832.998	-4.5
3835.627	-0.5
3838.253	2.5
3840.878	-5.5
3843.501	-2.5
3846.122	-4.5
3848.741	-5.5
3851.358	-3.5
3853.973	0.5
3856.586	-3.5
3859.197	-1.5
3861.806	-3.5
3864.414	-3.5
3867.019	-0.5
3869.622	-5.5
3872.224	-2.5
3874.823	-3.5
3877.421	-0.5
3880.016	-3.5
3882.61	-1.5
3885.202	3.5
3887.792	0.5
3890.38	-2.5
3892.966	-4.5
3895.55	-2.5
3898.132	-1.5
3900.713	-4.5
3903.291	-3.5
3905.868	-1.5
3908.442	-1.5
3911.015	-6.5
3913.586	-4.5
3916.155	-1.5
3918.722	-5.5
3921.287	-3.5
3923.85	0.5
3926.411	-2.5
3928.971	-9.5
3931.528	-2.5
3934.084	-2.5
3936.638	-0.5
3939.19	-3.5
3941.74	-2.5
3944.288	-3.5
3946.834	-0.5
3949.378	-2.5
3951.921	-0.5
3954.462	-2.5
3957	-6.5
3959.537	-1.5
3962.072	-0.5
3964.606	0.5
3967.137	-2.5
3969.667	-0.5
3972.194	-5.5
3974.72	-5.5
3977.244	-5.5
3979.766	-2.5
3982.286	-2.5
3984.805	-1.5
3987.321	-2.5
3989.836	-4.5
3992.349	-0.5
3994.86	1.5
3997.369	-6.5
3999.877	-1.5
4002.382	-3.5
4004.886	-4.5
4007.388	-2.5
4009.888	-5.5
4012.386	-3.5
4014.883	-7.5
4017.377	-2.5
4019.87	-3.5
4022.361	-3.5
4024.85	-5.5
4027.338	-2.5
4029.823	-2.5
4032.307	-2.5
4034.789	-3.5
4037.269	-2.5
4039.747	-1.5
4042.224	-3.5
4044.699	-7.5
4047.172	-3.5
4049.643	-4.5
4052.112	-4.5
4054.58	-2.5
4057.046	-2.5
4059.51	-3.5
4061.972	0.5
4064.432	-1.5
4066.891	-5.5
4069.348	-1.5
4071.803	-3.5
4074.256	-3.5
4076.708	-3.5
4079.158	1.5
4081.606	-5.5
4084.052	1.5
4086.497	-2.5
4088.939	0.5
4091.38	-2.5
4093.819	-3.5
4096.257	-8.5
4098.693	-5.5
4101.127	-3.5
4103.559	1.5
4105.989	5.5
4108.418	2.5
4110.845	0.5
4113.27	0.5
4115.694	-2.5
4118.115	1.5
4120.535	-3.5
4122.954	-5.5
4125.37	-8.5
4127.785	-4.5
4130.198	-1.5
4132.609	-2.5
4135.019	-3.5
4137.427	-2.5
4139.833	-5.5
4142.237	-6.5
