Data from 2_n=1_RamanShift_02.txt Node
Date: Mon Mar 19 12:28:33 IST 2018
User: aro
Spectrometer: QEPB0276
Trigger mode: 0
Integration Time (sec): 5.000000E0
Scans to average: 1
Electric dark correction enabled: true
Nonlinearity correction enabled: false
Boxcar width: 0
XAxis mode: Raman Shifts
Number of Pixels in Spectrum: 1044
>>>>>Begin Spectral Data<<<<<
160.701	0.8
166.742	-0.2
172.777	2.8
178.805	9.8
184.826	19.8
190.841	42.8
196.849	69.8
202.85	86.8
208.845	91.8
214.833	95.8
220.815	95.8
226.789	100.8
232.758	98.8
238.719	100.8
244.674	100.8
250.623	98.8
256.565	100.8
262.5	103.8
268.429	104.8
274.351	105.8
280.267	110.8
286.176	107.8
292.079	107.8
297.975	104.8
303.865	108.8
309.748	109.8
315.625	111.8
321.495	107.8
327.359	107.8
333.217	114.8
339.068	111.8
344.912	111.8
350.751	110.8
356.583	113.8
362.408	111.8
368.227	110.8
374.04	111.8
379.847	120.8
385.647	131.8
391.44	129.8
397.228	124.8
403.009	124.8
408.784	127.8
414.553	134.8
420.315	146.8
426.071	146.8
431.821	137.8
437.565	124.8
443.302	119.8
449.033	117.8
454.758	118.8
460.477	117.8
466.189	116.8
471.896	100.8
477.596	108.8
483.29	106.8
488.978	102.8
494.66	103.8
500.335	108.8
506.005	97.8
511.668	92.8
517.325	85.8
522.977	76.8
528.622	73.8
534.261	69.8
539.894	67.8
545.521	70.8
551.141	68.8
556.756	66.8
562.365	62.8
567.968	60.8
573.565	62.8
579.155	59.8
584.74	55.8
590.319	59.8
595.892	63.8
601.459	65.8
607.02	62.8
612.575	62.8
618.124	63.8
623.667	60.8
629.204	55.8
634.735	53.8
640.261	58.8
645.781	58.8
651.294	67.8
656.802	68.8
662.304	59.8
667.8	55.8
673.29	53.8
678.775	49.8
684.254	47.8
689.726	42.8
695.193	49.8
700.655	53.8
706.11	55.8
711.56	54.8
717.004	49.8
722.442	49.8
727.874	48.8
733.301	48.8
738.722	45.8
744.137	50.8
749.547	53.8
754.951	51.8
760.349	49.8
765.741	55.8
771.128	52.8
776.509	49.8
781.885	56.8
787.254	50.8
792.618	49.8
797.977	54.8
803.33	58.8
808.677	63.8
814.019	58.8
819.355	60.8
824.686	51.8
830.011	48.8
835.33	48.8
840.644	49.8
845.952	51.8
851.255	52.8
856.552	49.8
861.844	51.8
867.13	46.8
872.41	45.8
877.686	44.8
882.955	40.8
888.219	36.8
893.478	40.8
898.731	41.8
903.979	39.8
909.221	46.8
914.458	44.8
919.69	44.8
924.916	42.8
930.136	35.8
935.351	38.8
940.561	34.8
945.766	36.8
950.965	37.8
956.158	39.8
961.347	42.8
966.529	45.8
971.707	37.8
976.879	36.8
982.046	39.8
987.208	34.8
992.364	33.8
997.515	36.8
1002.66	43.8
1007.801	43.8
1012.936	38.8
1018.066	40.8
1023.19	37.8
1028.309	34.8
1033.423	37.8
1038.532	40.8
1043.636	42.8
1048.734	42.8
1053.827	38.8
1058.915	38.8
1063.998	39.8
1069.075	35.8
1074.147	33.8
1079.214	38.8
1084.276	37.8
1089.333	38.8
1094.385	36.8
1099.431	38.8
1104.472	33.8
1109.509	38.8
1114.54	33.8
1119.565	32.8
1124.586	35.8
1129.602	35.8
1134.613	31.8
1139.618	33.8
1144.619	34.8
1149.614	36.8
1154.604	35.8
1159.589	38.8
1164.57	36.8
1169.545	38.8
1174.515	37.8
1179.48	38.8
1184.44	33.8
1189.395	32.8
1194.345	32.8
1199.29	31.8
1204.23	32.8
1209.165	33.8
1214.095	33.8
1219.021	33.8
1223.941	36.8
1228.856	34.8
1233.766	34.8
1238.672	35.8
1243.572	30.8
1248.467	29.8
1253.358	26.8
1258.244	29.8
1263.124	31.8
1268	31.8
1272.871	31.8
1277.737	35.8
1282.599	28.8
1287.455	27.8
1292.306	28.8
1297.153	29.8
1301.995	30.8
1306.832	28.8
1311.664	28.8
1316.491	32.8
1321.314	33.8
1326.132	33.8
1330.945	30.8
1335.753	32.8
1340.556	24.8
1345.354	26.8
1350.148	26.8
1354.937	28.8
1359.722	30.8
1364.501	28.8
1369.276	34.8
1374.046	27.8
1378.811	28.8
1383.572	19.8
1388.327	23.8
1393.079	20.8
1397.825	23.8
1402.567	24.8
1407.304	26.8
1412.036	25.8
1416.764	23.8
1421.487	27.8
1426.205	19.8
1430.919	25.8
1435.628	26.8
1440.333	29.8
1445.032	28.8
1449.727	29.8
1454.418	34.8
1459.104	35.8
1463.785	31.8
1468.462	31.8
1473.134	26.8
1477.802	24.8
1482.465	18.8
1487.123	22.8
1491.777	24.8
1496.426	23.8
1501.071	25.8
1505.711	26.8
1510.347	24.8
1514.978	21.8
1519.604	23.8
1524.226	20.8
1528.844	23.8
1533.457	24.8
1538.065	26.8
1542.669	22.8
1547.269	19.8
1551.864	21.8
1556.454	25.8
1561.041	19.8
1565.622	18.8
1570.199	19.8
1574.772	16.8
1579.34	19.8
1583.904	19.8
1588.464	24.8
1593.019	16.8
1597.569	22.8
1602.115	21.8
1606.657	21.8
1611.195	20.8
1615.728	20.8
1620.256	16.8
1624.78	18.8
1629.3	16.8
1633.816	21.8
1638.327	19.8
1642.834	19.8
1647.336	19.8
1651.834	19.8
1656.328	19.8
1660.817	20.8
1665.302	19.8
1669.783	16.8
1674.259	16.8
1678.732	14.8
1683.199	17.8
1687.663	16.8
1692.122	15.8
1696.577	17.8
1701.028	19.8
1705.474	15.8
1709.917	17.8
1714.355	14.8
1718.788	16.8
1723.218	12.8
1727.643	14.8
1732.064	15.8
1736.481	14.8
1740.893	15.8
1745.301	19.8
1749.705	19.8
1754.105	13.8
1758.501	12.8
1762.893	11.8
1767.28	14.8
1771.663	12.8
1776.042	12.8
1780.417	14.8
1784.787	16.8
1789.154	11.8
1793.516	14.8
1797.874	10.8
1802.228	9.8
1806.578	11.8
1810.924	14.8
1815.266	15.8
1819.603	10.8
1823.937	16.8
1828.266	9.8
1832.591	13.8
1836.913	8.8
1841.23	12.8
1845.543	8.8
1849.852	7.8
1854.156	6.8
1858.457	11.8
1862.754	19.8
1867.047	12.8
1871.335	14.8
1875.62	10.8
1879.9	11.8
1884.177	12.8
1888.449	9.8
1892.718	9.8
1896.982	9.8
1901.243	13.8
1905.499	13.8
1909.752	11.8
1914	13.8
1918.245	8.8
1922.485	9.8
1926.722	7.8
1930.954	6.8
1935.183	11.8
1939.408	14.8
1943.628	13.8
1947.845	13.8
1952.058	12.8
1956.267	8.8
1960.472	5.8
1964.673	7.8
1968.87	7.8
1973.063	9.8
1977.252	9.8
1981.438	8.8
1985.619	12.8
1989.797	8.8
1993.971	6.8
1998.14	6.8
2002.306	5.8
2006.469	4.8
2010.627	7.8
2014.781	9.8
2018.932	10.8
2023.078	11.8
2027.221	9.8
2031.36	7.8
2035.495	8.8
2039.627	3.8
2043.754	5.8
2047.878	10.8
2051.998	8.8
2056.114	6.8
2060.226	14.8
2064.334	7.8
2068.439	4.8
2072.54	5.8
2076.637	8.8
2080.73	7.8
2084.82	6.8
2088.906	8.8
2092.988	8.8
2097.066	8.8
2101.14	12.8
2105.211	9.8
2109.278	9.8
2113.342	7.8
2117.401	9.8
2121.457	6.8
2125.509	9.8
2129.558	6.8
2133.602	9.8
2137.643	7.8
2141.681	9.8
2145.714	7.8
2149.744	6.8
2153.77	4.8
2157.793	7.8
2161.812	5.8
2165.827	4.8
2169.838	0.8
2173.846	4.8
2177.851	7.8
2181.851	7.8
2185.848	9.8
2189.841	6.8
2193.831	2.8
2197.817	4.8
2201.799	4.8
2205.778	3.8
2209.753	3.8
2213.725	0.8
2217.693	6.8
2221.657	2.8
2225.618	4.8
2229.575	8.8
2233.529	6.8
2237.479	2.8
2241.425	-0.2
2245.368	1.8
2249.307	3.8
2253.243	8.8
2257.175	3.8
2261.104	11.8
2265.029	6.8
2268.95	3.8
2272.868	-1.2
2276.783	1.8
2280.694	2.8
2284.601	3.8
2288.505	4.8
2292.405	5.8
2296.302	7.8
2300.195	6.8
2304.085	4.8
2307.971	1.8
2311.854	2.8
2315.734	1.8
2319.609	3.8
2323.482	4.8
2327.351	5.8
2331.216	6.8
2335.078	3.8
2338.937	4.8
2342.792	0.8
2346.643	-2.2
2350.492	0.8
2354.336	0.8
2358.178	2.8
2362.015	2.8
2365.85	4.8
2369.681	2.8
2373.508	1.8
2377.333	-0.2
2381.153	2.8
2384.971	-2.2
2388.785	1.8
2392.595	6.8
2396.402	8.8
2400.206	5.8
2404.007	2.8
2407.804	2.8
2411.597	3.8
2415.388	-1.2
2419.174	2.8
2422.958	5.8
2426.738	-0.2
2430.515	7.8
2434.289	3.8
2438.059	4.8
2441.825	0.8
2445.589	1.8
2449.349	-2.2
2453.106	2.8
2456.859	0.8
2460.61	2.8
2464.356	5.8
2468.1	5.8
2471.84	3.8
2475.577	4.8
2479.311	-1.2
2483.041	2.8
2486.768	0.8
2490.492	-3.2
2494.213	1.8
2497.93	1.8
2501.644	5.8
2505.355	2.8
2509.062	0.8
2512.766	4.8
2516.467	-1.2
2520.165	2.8
2523.859	-1.2
2527.551	-2.2
2531.239	2.8
2534.923	-0.2
2538.605	-0.2
2542.283	-3.2
2545.958	2.8
2549.63	0.8
2553.299	2.8
2556.964	3.8
2560.626	3.8
2564.285	-5.2
2567.941	0.8
2571.594	-0.2
2575.243	-0.2
2578.89	1.8
2582.533	2.8
2586.173	-0.2
2589.809	3.8
2593.443	-0.2
2597.073	0.8
2600.701	-0.2
2604.325	-0.2
2607.946	0.8
2611.564	6.8
2615.178	3.8
2618.79	2.8
2622.398	0.8
2626.004	1.8
2629.606	1.8
2633.205	-2.2
2636.801	2.8
2640.394	-0.2
2643.983	1.8
2647.57	0.8
2651.153	1.8
2654.734	1.8
2658.311	-4.2
2661.885	-2.2
2665.456	-2.2
2669.025	-1.2
2672.589	4.8
2676.151	3.8
2679.71	5.8
2683.266	2.8
2686.819	5.8
2690.368	-0.2
2693.915	-2.2
2697.458	-4.2
2700.999	1.8
2704.536	2.8
2708.071	4.8
2711.602	2.8
2715.13	1.8
2718.656	2.8
2722.178	-1.2
2725.697	-1.2
2729.214	-3.2
2732.727	-1.2
2736.237	3.8
2739.744	4.8
2743.249	4.8
2746.75	2.8
2750.248	1.8
2753.743	-1.2
2757.236	-1.2
2760.725	-4.2
2764.211	-1.2
2767.695	-2.2
2771.175	-1.2
2774.652	3.8
2778.127	-0.2
2781.598	2.8
2785.067	-0.2
2788.532	-2.2
2791.995	-2.2
2795.455	-0.2
2798.911	0.8
2802.365	-2.2
2805.816	-0.2
2809.264	-0.2
2812.709	0.8
2816.151	2.8
2819.59	-0.2
2823.026	0.8
2826.46	-1.2
2829.89	1.8
2833.318	-1.2
2836.742	-0.2
2840.164	5.8
2843.583	2.8
2846.999	4.8
2850.412	4.8
2853.822	3.8
2857.229	4.8
2860.634	0.8
2864.035	2.8
2867.434	5.8
2870.83	5.8
2874.223	9.8
2877.613	6.8
2881	4.8
2884.385	3.8
2887.766	10.8
2891.145	10.8
2894.521	10.8
2897.894	8.8
2901.264	6.8
2904.631	3.8
2907.996	3.8
2911.358	3.8
2914.717	3.8
2918.073	2.8
2921.426	5.8
2924.777	8.8
2928.124	6.8
2931.469	4.8
2934.811	4.8
2938.15	4.8
2941.487	2.8
2944.821	1.8
2948.152	-2.2
2951.48	-1.2
2954.805	2.8
2958.128	5.8
2961.447	4.8
2964.765	3.8
2968.079	8.8
2971.39	0.8
2974.699	-0.2
2978.005	-6.2
2981.308	-1.2
2984.609	-2.2
2987.907	2.8
2991.202	2.8
2994.494	1.8
2997.784	2.8
3001.07	1.8
3004.355	-1.2
3007.636	-2.2
3010.915	-1.2
3014.191	-1.2
3017.464	-2.2
3020.734	3.8
3024.002	0.8
3027.267	3.8
3030.53	0.8
3033.789	-0.2
3037.046	-4.2
3040.301	-3.2
3043.552	-1.2
3046.801	-0.2
3050.048	-0.2
3053.291	-2.2
3056.532	-0.2
3059.771	1.8
3063.006	0.8
3066.239	-2.2
3069.469	-2.2
3072.697	-3.2
3075.922	-5.2
3079.144	2.8
3082.364	0.8
3085.581	-0.2
3088.795	3.8
3092.007	-0.2
3095.216	-1.2
3098.423	-4.2
3101.627	-4.2
3104.828	-1.2
3108.026	-0.2
3111.222	2.8
3114.416	4.8
3117.607	2.8
3120.795	-0.2
3123.98	-2.2
3127.163	-0.2
3130.344	-2.2
3133.521	-3.2
3136.696	-0.2
3139.869	0.8
3143.039	1.8
3146.206	4.8
3149.371	2.8
3152.533	2.8
3155.693	-1.2
3158.85	-0.2
3162.005	-1.2
3165.157	-3.2
3168.306	-3.2
3171.453	-2.2
3174.597	2.8
3177.739	-0.2
3180.878	1.8
3184.014	3.8
3187.149	-2.2
3190.28	-4.2
3193.409	-2.2
3196.536	-4.2
3199.659	0.8
3202.781	-0.2
3205.9	3.8
3209.016	0.8
3212.13	1.8
3215.241	0.8
3218.35	-0.2
3221.456	-1.2
3224.56	-0.2
3227.661	-1.2
3230.76	2.8
3233.856	1.8
3236.95	2.8
3240.041	0.8
3243.13	-2.2
3246.216	-1.2
3249.3	0.8
3252.382	1.8
3255.46	3.8
3258.537	-0.2
3261.611	0.8
3264.682	0.8
3267.751	0.8
3270.818	-2.2
3273.882	-3.2
3276.943	-1.2
3280.002	-0.2
3283.059	-2.2
3286.113	0.8
3289.165	-5.2
3292.214	-1.2
3295.261	-0.2
3298.306	0.8
3301.348	0.8
3304.387	1.8
3307.425	0.8
3310.459	1.8
3313.492	-2.2
3316.521	1.8
3319.549	-3.2
3322.574	-1.2
3325.597	-0.2
3328.617	-4.2
3331.635	0.8
3334.65	0.8
3337.663	0.8
3340.674	1.8
3343.682	-1.2
3346.688	-0.2
3349.691	-4.2
3352.692	-3.2
3355.691	-4.2
3358.687	-6.2
3361.681	-1.2
3364.673	3.8
3367.662	-1.2
3370.649	1.8
3373.633	-2.2
3376.615	-0.2
3379.595	-5.2
3382.572	-3.2
3385.547	-3.2
3388.52	-0.2
3391.49	4.8
3394.458	-0.2
3397.424	-2.2
3400.387	0.8
3403.348	-3.2
3406.307	-6.2
3409.263	-0.2
3412.217	0.8
3415.168	-2.2
3418.118	-0.2
3421.065	4.8
3424.009	0.8
3426.951	0.8
3429.891	-5.2
3432.829	-5.2
3435.764	-2.2
3438.697	-6.2
3441.628	-4.2
3444.557	0.8
3447.483	3.8
3450.407	0.8
3453.328	2.8
3456.247	-5.2
3459.164	-5.2
3462.079	-3.2
3464.991	-5.2
3467.902	-1.2
3470.809	0.8
3473.715	3.8
3476.618	1.8
3479.519	-3.2
3482.418	-1.2
3485.315	-3.2
3488.209	-4.2
3491.101	-4.2
3493.99	-6.2
3496.878	-2.2
3499.763	3.8
3502.646	-0.2
3505.527	-2.2
3508.405	0.8
3511.281	-3.2
3514.155	-7.2
3517.027	-0.2
3519.897	-2.2
3522.764	-2.2
3525.629	-3.2
3528.492	-1.2
3531.352	-2.2
3534.211	-1.2
3537.067	-5.2
3539.921	-6.2
3542.773	-5.2
3545.622	-1.2
3548.469	-0.2
3551.315	-0.2
3554.157	-0.2
3556.998	-0.2
3559.837	-3.2
3562.673	-5.2
3565.507	-4.2
3568.339	-3.2
3571.169	-6.2
3573.996	-0.2
3576.822	-5.2
3579.645	-4.2
3582.466	-0.2
3585.285	1.8
3588.101	-4.2
3590.916	-0.2
3593.728	-0.2
3596.538	-4.2
3599.346	-1.2
3602.152	-2.2
3604.956	-2.2
3607.757	-1.2
3610.556	-4.2
3613.354	-2.2
3616.149	-6.2
3618.942	-2.2
3621.732	-0.2
3624.521	-3.2
3627.307	-5.2
3630.092	-6.2
3632.874	-3.2
3635.654	-1.2
3638.432	-6.2
3641.208	-3.2
3643.982	-3.2
3646.753	-1.2
3649.523	-6.2
3652.29	-3.2
3655.055	-7.2
3657.818	-2.2
3660.579	-0.2
3663.338	-2.2
3666.095	-2.2
3668.849	-3.2
3671.602	-3.2
3674.352	1.8
3677.101	-4.2
3679.847	-6.2
3682.591	-1.2
3685.333	-0.2
3688.073	-0.2
3690.811	-0.2
3693.547	-0.2
3696.281	-3.2
3699.013	-5.2
3701.742	-4.2
3704.47	-5.2
3707.195	-3.2
3709.919	-3.2
3712.64	-3.2
3715.359	1.8
3718.076	-2.2
3720.792	-2.2
3723.505	-6.2
3726.216	-5.2
3728.925	-5.2
3731.632	-4.2
3734.336	-3.2
3737.039	0.8
3739.74	-2.2
3742.439	-1.2
3745.136	-1.2
3747.83	-2.2
3750.523	-4.2
3753.213	-6.2
3755.902	-2.2
3758.589	-0.2
3761.273	-1.2
3763.956	2.8
3766.636	-4.2
3769.315	-7.2
3771.991	-5.2
3774.665	-4.2
3777.338	-4.2
3780.008	-3.2
3782.677	-4.2
3785.343	-3.2
3788.007	-2.2
3790.67	0.8
3793.33	-4.2
3795.989	-3.2
3798.645	-5.2
3801.299	-6.2
3803.952	-5.2
3806.602	-1.2
3809.251	0.8
3811.897	-0.2
3814.542	-0.2
3817.184	-5.2
3819.825	-7.2
3822.463	-6.2
3825.1	-6.2
3827.735	-4.2
3830.367	-0.2
3832.998	0.8
3835.627	3.8
3838.253	-2.2
3840.878	-3.2
3843.501	-3.2
3846.122	-5.2
3848.741	-4.2
3851.358	-5.2
3853.973	-1.2
3856.586	-3.2
3859.197	-1.2
3861.806	-4.2
3864.414	-2.2
3867.019	-3.2
3869.622	-6.2
3872.224	-4.2
3874.823	-2.2
3877.421	-1.2
3880.016	-3.2
3882.61	1.8
3885.202	5.8
3887.792	1.8
3890.38	0.8
3892.966	-3.2
3895.55	-1.2
3898.132	-3.2
3900.713	-0.2
3903.291	-5.2
3905.868	-2.2
3908.442	-1.2
3911.015	-4.2
3913.586	-3.2
3916.155	-2.2
3918.722	-1.2
3921.287	-1.2
3923.85	-2.2
3926.411	-2.2
3928.971	-6.2
3931.528	-4.2
3934.084	-4.2
3936.638	-2.2
3939.19	-4.2
3941.74	-2.2
3944.288	-7.2
3946.834	-3.2
3949.378	-2.2
3951.921	-3.2
3954.462	-6.2
3957	-5.2
3959.537	-3.2
3962.072	2.8
3964.606	-0.2
3967.137	-2.2
3969.667	0.8
3972.194	-4.2
3974.72	-5.2
3977.244	-6.2
3979.766	-3.2
3982.286	-3.2
3984.805	-5.2
3987.321	-0.2
3989.836	-4.2
3992.349	-0.2
3994.86	-1.2
3997.369	-3.2
3999.877	-4.2
4002.382	-6.2
4004.886	-3.2
4007.388	-1.2
4009.888	-6.2
4012.386	-0.2
4014.883	-0.2
4017.377	0.8
4019.87	-1.2
4022.361	-0.2
4024.85	-7.2
4027.338	-7.2
4029.823	-6.2
4032.307	-2.2
4034.789	-5.2
4037.269	0.8
4039.747	-0.2
4042.224	-1.2
4044.699	-4.2
4047.172	-1.2
4049.643	-4.2
4052.112	-6.2
4054.58	-5.2
4057.046	-5.2
4059.51	-2.2
4061.972	0.8
4064.432	-1.2
4066.891	-3.2
4069.348	0.8
4071.803	-6.2
4074.256	-4.2
4076.708	-3.2
4079.158	-0.2
4081.606	-7.2
4084.052	-1.2
4086.497	-0.2
4088.939	-0.2
4091.38	0.8
4093.819	-0.2
4096.257	-4.2
4098.693	-3.2
4101.127	-2.2
4103.559	-0.2
4105.989	4.8
4108.418	-1.2
4110.845	0.8
4113.27	-2.2
4115.694	-2.2
4118.115	2.8
4120.535	-5.2
4122.954	-5.2
4125.37	-10.2
4127.785	-7.2
4130.198	-2.2
4132.609	-4.2
4135.019	-0.2
4137.427	-3.2
4139.833	-1.2
4142.237	-8.2
