Data from 2_n=3_RamanShift_01.txt Node
Date: Mon Mar 19 12:31:23 IST 2018
User: aro
Spectrometer: QEPB0276
Trigger mode: 0
Integration Time (sec): 5.000000E0
Scans to average: 1
Electric dark correction enabled: true
Nonlinearity correction enabled: false
Boxcar width: 0
XAxis mode: Raman Shifts
Number of Pixels in Spectrum: 1044
>>>>>Begin Spectral Data<<<<<
160.701	0.8
166.742	3.8
172.777	2.8
178.805	12.8
184.826	25.8
190.841	42.8
196.849	73.8
202.85	94.8
208.845	99.8
214.833	103.8
220.815	104.8
226.789	112.8
232.758	105.8
238.719	110.8
244.674	106.8
250.623	106.8
256.565	110.8
262.5	106.8
268.429	111.8
274.351	112.8
280.267	119.8
286.176	119.8
292.079	119.8
297.975	117.8
303.865	118.8
309.748	121.8
315.625	124.8
321.495	116.8
327.359	120.8
333.217	121.8
339.068	126.8
344.912	126.8
350.751	122.8
356.583	127.8
362.408	119.8
368.227	120.8
374.04	121.8
379.847	127.8
385.647	138.8
391.44	136.8
397.228	134.8
403.009	135.8
408.784	136.8
414.553	143.8
420.315	155.8
426.071	164.8
431.821	150.8
437.565	132.8
443.302	124.8
449.033	127.8
454.758	125.8
460.477	123.8
466.189	125.8
471.896	115.8
477.596	116.8
483.29	113.8
488.978	111.8
494.66	114.8
500.335	115.8
506.005	104.8
511.668	99.8
517.325	92.8
522.977	88.8
528.622	84.8
534.261	79.8
539.894	75.8
545.521	75.8
551.141	76.8
556.756	76.8
562.365	69.8
567.968	71.8
573.565	72.8
579.155	67.8
584.74	65.8
590.319	65.8
595.892	70.8
601.459	76.8
607.02	73.8
612.575	68.8
618.124	67.8
623.667	67.8
629.204	66.8
634.735	62.8
640.261	65.8
645.781	67.8
651.294	73.8
656.802	74.8
662.304	65.8
667.8	63.8
673.29	61.8
678.775	59.8
684.254	55.8
689.726	54.8
695.193	55.8
700.655	57.8
706.11	56.8
711.56	60.8
717.004	59.8
722.442	55.8
727.874	59.8
733.301	51.8
738.722	50.8
744.137	53.8
749.547	53.8
754.951	58.8
760.349	64.8
765.741	60.8
771.128	65.8
776.509	58.8
781.885	58.8
787.254	56.8
792.618	56.8
797.977	62.8
803.33	63.8
808.677	66.8
814.019	69.8
819.355	69.8
824.686	64.8
830.011	60.8
835.33	59.8
840.644	57.8
845.952	61.8
851.255	60.8
856.552	60.8
861.844	57.8
867.13	56.8
872.41	55.8
877.686	51.8
882.955	49.8
888.219	49.8
893.478	41.8
898.731	48.8
903.979	46.8
909.221	55.8
914.458	49.8
919.69	47.8
924.916	46.8
930.136	46.8
935.351	46.8
940.561	47.8
945.766	45.8
950.965	42.8
956.158	47.8
961.347	47.8
966.529	53.8
971.707	45.8
976.879	50.8
982.046	44.8
987.208	43.8
992.364	43.8
997.515	43.8
1002.66	43.8
1007.801	48.8
1012.936	42.8
1018.066	44.8
1023.19	44.8
1028.309	42.8
1033.423	43.8
1038.532	46.8
1043.636	49.8
1048.734	47.8
1053.827	43.8
1058.915	39.8
1063.998	44.8
1069.075	45.8
1074.147	38.8
1079.214	41.8
1084.276	40.8
1089.333	44.8
1094.385	40.8
1099.431	42.8
1104.472	40.8
1109.509	36.8
1114.54	39.8
1119.565	38.8
1124.586	39.8
1129.602	39.8
1134.613	38.8
1139.618	40.8
1144.619	39.8
1149.614	39.8
1154.604	41.8
1159.589	46.8
1164.57	45.8
1169.545	42.8
1174.515	44.8
1179.48	41.8
1184.44	40.8
1189.395	38.8
1194.345	39.8
1199.29	35.8
1204.23	36.8
1209.165	32.8
1214.095	34.8
1219.021	42.8
1223.941	43.8
1228.856	43.8
1233.766	38.8
1238.672	37.8
1243.572	38.8
1248.467	36.8
1253.358	32.8
1258.244	36.8
1263.124	32.8
1268	32.8
1272.871	33.8
1277.737	37.8
1282.599	32.8
1287.455	33.8
1292.306	34.8
1297.153	31.8
1301.995	32.8
1306.832	35.8
1311.664	34.8
1316.491	37.8
1321.314	39.8
1326.132	40.8
1330.945	40.8
1335.753	41.8
1340.556	38.8
1345.354	30.8
1350.148	33.8
1354.937	32.8
1359.722	34.8
1364.501	34.8
1369.276	39.8
1374.046	32.8
1378.811	30.8
1383.572	24.8
1388.327	24.8
1393.079	28.8
1397.825	30.8
1402.567	28.8
1407.304	29.8
1412.036	28.8
1416.764	26.8
1421.487	29.8
1426.205	25.8
1430.919	32.8
1435.628	29.8
1440.333	34.8
1445.032	37.8
1449.727	35.8
1454.418	43.8
1459.104	45.8
1463.785	43.8
1468.462	42.8
1473.134	40.8
1477.802	30.8
1482.465	28.8
1487.123	31.8
1491.777	24.8
1496.426	28.8
1501.071	29.8
1505.711	28.8
1510.347	24.8
1514.978	27.8
1519.604	26.8
1524.226	22.8
1528.844	26.8
1533.457	25.8
1538.065	27.8
1542.669	24.8
1547.269	23.8
1551.864	21.8
1556.454	25.8
1561.041	22.8
1565.622	21.8
1570.199	19.8
1574.772	23.8
1579.34	22.8
1583.904	25.8
1588.464	18.8
1593.019	18.8
1597.569	23.8
1602.115	25.8
1606.657	24.8
1611.195	26.8
1615.728	23.8
1620.256	24.8
1624.78	21.8
1629.3	21.8
1633.816	20.8
1638.327	19.8
1642.834	22.8
1647.336	19.8
1651.834	19.8
1656.328	23.8
1660.817	18.8
1665.302	22.8
1669.783	19.8
1674.259	20.8
1678.732	19.8
1683.199	20.8
1687.663	22.8
1692.122	21.8
1696.577	20.8
1701.028	23.8
1705.474	16.8
1709.917	21.8
1714.355	15.8
1718.788	15.8
1723.218	17.8
1727.643	14.8
1732.064	19.8
1736.481	18.8
1740.893	15.8
1745.301	24.8
1749.705	15.8
1754.105	18.8
1758.501	14.8
1762.893	15.8
1767.28	10.8
1771.663	11.8
1776.042	13.8
1780.417	15.8
1784.787	20.8
1789.154	18.8
1793.516	18.8
1797.874	17.8
1802.228	13.8
1806.578	7.8
1810.924	14.8
1815.266	12.8
1819.603	14.8
1823.937	19.8
1828.266	17.8
1832.591	14.8
1836.913	9.8
1841.23	12.8
1845.543	8.8
1849.852	11.8
1854.156	9.8
1858.457	11.8
1862.754	18.8
1867.047	15.8
1871.335	17.8
1875.62	14.8
1879.9	13.8
1884.177	13.8
1888.449	7.8
1892.718	10.8
1896.982	12.8
1901.243	19.8
1905.499	15.8
1909.752	14.8
1914	17.8
1918.245	7.8
1922.485	10.8
1926.722	12.8
1930.954	10.8
1935.183	11.8
1939.408	15.8
1943.628	14.8
1947.845	16.8
1952.058	16.8
1956.267	10.8
1960.472	8.8
1964.673	12.8
1968.87	7.8
1973.063	10.8
1977.252	9.8
1981.438	11.8
1985.619	10.8
1989.797	11.8
1993.971	9.8
1998.14	15.8
2002.306	8.8
2006.469	10.8
2010.627	9.8
2014.781	13.8
2018.932	11.8
2023.078	7.8
2027.221	10.8
2031.36	5.8
2035.495	8.8
2039.627	8.8
2043.754	6.8
2047.878	11.8
2051.998	9.8
2056.114	10.8
2060.226	12.8
2064.334	7.8
2068.439	3.8
2072.54	6.8
2076.637	10.8
2080.73	7.8
2084.82	7.8
2088.906	10.8
2092.988	8.8
2097.066	5.8
2101.14	10.8
2105.211	10.8
2109.278	8.8
2113.342	8.8
2117.401	7.8
2121.457	8.8
2125.509	8.8
2129.558	8.8
2133.602	8.8
2137.643	7.8
2141.681	6.8
2145.714	10.8
2149.744	7.8
2153.77	7.8
2157.793	11.8
2161.812	5.8
2165.827	6.8
2169.838	1.8
2173.846	5.8
2177.851	8.8
2181.851	6.8
2185.848	7.8
2189.841	6.8
2193.831	4.8
2197.817	7.8
2201.799	5.8
2205.778	3.8
2209.753	5.8
2213.725	3.8
2217.693	4.8
2221.657	3.8
2225.618	7.8
2229.575	7.8
2233.529	8.8
2237.479	4.8
2241.425	4.8
2245.368	3.8
2249.307	2.8
2253.243	6.8
2257.175	5.8
2261.104	8.8
2265.029	5.8
2268.95	1.8
2272.868	0.8
2276.783	0.8
2280.694	3.8
2284.601	3.8
2288.505	4.8
2292.405	6.8
2296.302	6.8
2300.195	3.8
2304.085	4.8
2307.971	3.8
2311.854	-2.2
2315.734	2.8
2319.609	2.8
2323.482	3.8
2327.351	4.8
2331.216	10.8
2335.078	7.8
2338.937	5.8
2342.792	-0.2
2346.643	-1.2
2350.492	1.8
2354.336	-1.2
2358.178	4.8
2362.015	4.8
2365.85	6.8
2369.681	3.8
2373.508	0.8
2377.333	-0.2
2381.153	-0.2
2384.971	-0.2
2388.785	3.8
2392.595	2.8
2396.402	4.8
2400.206	3.8
2404.007	2.8
2407.804	1.8
2411.597	1.8
2415.388	-2.2
2419.174	0.8
2422.958	2.8
2426.738	-4.2
2430.515	6.8
2434.289	1.8
2438.059	4.8
2441.825	-2.2
2445.589	2.8
2449.349	-0.2
2453.106	1.8
2456.859	0.8
2460.61	2.8
2464.356	5.8
2468.1	1.8
2471.84	-1.2
2475.577	3.8
2479.311	-1.2
2483.041	1.8
2486.768	-0.2
2490.492	-1.2
2494.213	2.8
2497.93	-1.2
2501.644	2.8
2505.355	1.8
2509.062	0.8
2512.766	2.8
2516.467	-1.2
2520.165	0.8
2523.859	0.8
2527.551	-0.2
2531.239	2.8
2534.923	0.8
2538.605	0.8
2542.283	-3.2
2545.958	3.8
2549.63	5.8
2553.299	2.8
2556.964	-0.2
2560.626	1.8
2564.285	-5.2
2567.941	-1.2
2571.594	-4.2
2575.243	-0.2
2578.89	-1.2
2582.533	0.8
2586.173	1.8
2589.809	-0.2
2593.443	-0.2
2597.073	-0.2
2600.701	0.8
2604.325	0.8
2607.946	-0.2
2611.564	6.8
2615.178	2.8
2618.79	1.8
2622.398	-1.2
2626.004	0.8
2629.606	-2.2
2633.205	-0.2
2636.801	0.8
2640.394	-0.2
2643.983	1.8
2647.57	2.8
2651.153	7.8
2654.734	-0.2
2658.311	0.8
2661.885	-2.2
2665.456	-3.2
2669.025	-0.2
2672.589	-0.2
2676.151	1.8
2679.71	1.8
2683.266	1.8
2686.819	2.8
2690.368	-0.2
2693.915	-1.2
2697.458	-2.2
2700.999	2.8
2704.536	2.8
2708.071	2.8
2711.602	4.8
2715.13	5.8
2718.656	0.8
2722.178	-1.2
2725.697	-4.2
2729.214	-1.2
2732.727	1.8
2736.237	1.8
2739.744	3.8
2743.249	4.8
2746.75	3.8
2750.248	-0.2
2753.743	4.8
2757.236	-0.2
2760.725	-1.2
2764.211	-2.2
2767.695	-0.2
2771.175	1.8
2774.652	2.8
2778.127	-0.2
2781.598	4.8
2785.067	0.8
2788.532	-1.2
2791.995	-2.2
2795.455	-1.2
2798.911	-3.2
2802.365	0.8
2805.816	-1.2
2809.264	2.8
2812.709	0.8
2816.151	1.8
2819.59	-0.2
2823.026	-0.2
2826.46	-3.2
2829.89	1.8
2833.318	-0.2
2836.742	2.8
2840.164	7.8
2843.583	5.8
2846.999	6.8
2850.412	7.8
2853.822	5.8
2857.229	5.8
2860.634	4.8
2864.035	4.8
2867.434	9.8
2870.83	8.8
2874.223	12.8
2877.613	11.8
2881	9.8
2884.385	12.8
2887.766	13.8
2891.145	15.8
2894.521	19.8
2897.894	17.8
2901.264	13.8
2904.631	14.8
2907.996	11.8
2911.358	12.8
2914.717	5.8
2918.073	8.8
2921.426	9.8
2924.777	7.8
2928.124	9.8
2931.469	8.8
2934.811	11.8
2938.15	8.8
2941.487	3.8
2944.821	4.8
2948.152	-3.2
2951.48	3.8
2954.805	6.8
2958.128	5.8
2961.447	2.8
2964.765	9.8
2968.079	15.8
2971.39	5.8
2974.699	4.8
2978.005	-4.2
2981.308	2.8
2984.609	-4.2
2987.907	-0.2
2991.202	3.8
2994.494	0.8
2997.784	2.8
3001.07	2.8
3004.355	-4.2
3007.636	-0.2
3010.915	-1.2
3014.191	-2.2
3017.464	-2.2
3020.734	0.8
3024.002	-2.2
3027.267	0.8
3030.53	-1.2
3033.789	0.8
3037.046	-7.2
3040.301	-3.2
3043.552	-5.2
3046.801	-1.2
3050.048	-0.2
3053.291	-0.2
3056.532	1.8
3059.771	2.8
3063.006	-3.2
3066.239	-4.2
3069.469	-0.2
3072.697	-3.2
3075.922	-4.2
3079.144	1.8
3082.364	0.8
3085.581	-1.2
3088.795	0.8
3092.007	-2.2
3095.216	-3.2
3098.423	-4.2
3101.627	-4.2
3104.828	-5.2
3108.026	-1.2
3111.222	0.8
3114.416	0.8
3117.607	2.8
3120.795	0.8
3123.98	-0.2
3127.163	1.8
3130.344	-3.2
3133.521	-3.2
3136.696	-2.2
3139.869	1.8
3143.039	1.8
3146.206	3.8
3149.371	1.8
3152.533	2.8
3155.693	-1.2
3158.85	1.8
3162.005	-2.2
3165.157	-0.2
3168.306	-6.2
3171.453	-2.2
3174.597	2.8
3177.739	0.8
3180.878	0.8
3184.014	0.8
3187.149	-2.2
3190.28	-2.2
3193.409	-5.2
3196.536	-4.2
3199.659	-0.2
3202.781	1.8
3205.9	1.8
3209.016	3.8
3212.13	-0.2
3215.241	-0.2
3218.35	0.8
3221.456	-3.2
3224.56	-0.2
3227.661	0.8
3230.76	0.8
3233.856	1.8
3236.95	4.8
3240.041	1.8
3243.13	-1.2
3246.216	-0.2
3249.3	-3.2
3252.382	0.8
3255.46	-1.2
3258.537	-4.2
3261.611	1.8
3264.682	1.8
3267.751	-3.2
3270.818	-1.2
3273.882	-0.2
3276.943	1.8
3280.002	-4.2
3283.059	-1.2
3286.113	1.8
3289.165	-6.2
3292.214	-5.2
3295.261	-1.2
3298.306	-1.2
3301.348	-3.2
3304.387	-0.2
3307.425	-2.2
3310.459	-1.2
3313.492	-3.2
3316.521	-1.2
3319.549	-2.2
3322.574	-1.2
3325.597	-3.2
3328.617	-3.2
3331.635	0.8
3334.65	-3.2
3337.663	-0.2
3340.674	2.8
3343.682	-3.2
3346.688	-0.2
3349.691	-3.2
3352.692	-1.2
3355.691	-5.2
3358.687	-6.2
3361.681	-1.2
3364.673	2.8
3367.662	-1.2
3370.649	2.8
3373.633	-1.2
3376.615	-2.2
3379.595	-6.2
3382.572	-3.2
3385.547	-4.2
3388.52	-1.2
3391.49	2.8
3394.458	-2.2
3397.424	-4.2
3400.387	-0.2
3403.348	-5.2
3406.307	-6.2
3409.263	-3.2
3412.217	-5.2
3415.168	-2.2
3418.118	0.8
3421.065	2.8
3424.009	-2.2
3426.951	-1.2
3429.891	-5.2
3432.829	-4.2
3435.764	-4.2
3438.697	-6.2
3441.628	-2.2
3444.557	2.8
3447.483	0.8
3450.407	1.8
3453.328	1.8
3456.247	-5.2
3459.164	-4.2
3462.079	-5.2
3464.991	-4.2
3467.902	-5.2
3470.809	-2.2
3473.715	1.8
3476.618	0.8
3479.519	-1.2
3482.418	-3.2
3485.315	-4.2
3488.209	-4.2
3491.101	-6.2
3493.99	-8.2
3496.878	-1.2
3499.763	-2.2
3502.646	2.8
3505.527	-3.2
3508.405	-2.2
3511.281	-5.2
3514.155	-5.2
3517.027	-4.2
3519.897	-3.2
3522.764	-2.2
3525.629	-3.2
3528.492	-2.2
3531.352	-3.2
3534.211	-3.2
3537.067	-8.2
3539.921	-5.2
3542.773	-4.2
3545.622	-0.2
3548.469	-6.2
3551.315	0.8
3554.157	-1.2
3556.998	-0.2
3559.837	-4.2
3562.673	-8.2
3565.507	-5.2
3568.339	-4.2
3571.169	-5.2
3573.996	-1.2
3576.822	-3.2
3579.645	-3.2
3582.466	-0.2
3585.285	-4.2
3588.101	-8.2
3590.916	-3.2
3593.728	-2.2
3596.538	-3.2
3599.346	-6.2
3602.152	-5.2
3604.956	-4.2
3607.757	-3.2
3610.556	-2.2
3613.354	-1.2
3616.149	-3.2
3618.942	-5.2
3621.732	-2.2
3624.521	-4.2
3627.307	-4.2
3630.092	-2.2
3632.874	-4.2
3635.654	-3.2
3638.432	-3.2
3641.208	-3.2
3643.982	-2.2
3646.753	-3.2
3649.523	-9.2
3652.29	-2.2
3655.055	-5.2
3657.818	-5.2
3660.579	0.8
3663.338	-3.2
3666.095	-1.2
3668.849	-3.2
3671.602	-3.2
3674.352	-2.2
3677.101	-5.2
3679.847	-5.2
3682.591	-5.2
3685.333	-5.2
3688.073	-4.2
3690.811	-1.2
3693.547	-1.2
3696.281	-3.2
3699.013	-4.2
3701.742	-8.2
3704.47	-9.2
3707.195	-4.2
3709.919	-6.2
3712.64	-4.2
3715.359	-2.2
3718.076	-1.2
3720.792	-1.2
3723.505	-4.2
3726.216	-6.2
3728.925	-5.2
3731.632	-3.2
3734.336	-5.2
3737.039	-1.2
3739.74	-2.2
3742.439	-4.2
3745.136	-3.2
3747.83	-7.2
3750.523	-6.2
3753.213	-5.2
3755.902	-4.2
3758.589	-6.2
3761.273	-2.2
3763.956	-4.2
3766.636	-2.2
3769.315	-6.2
3771.991	-6.2
3774.665	-5.2
3777.338	-4.2
3780.008	-3.2
3782.677	-5.2
3785.343	-3.2
3788.007	-1.2
3790.67	-1.2
3793.33	-2.2
3795.989	-2.2
3798.645	-6.2
3801.299	-3.2
3803.952	-2.2
3806.602	-4.2
3809.251	-0.2
3811.897	-2.2
3814.542	-2.2
3817.184	-4.2
3819.825	-4.2
3822.463	-5.2
3825.1	-6.2
3827.735	-7.2
3830.367	-2.2
3832.998	-0.2
3835.627	-0.2
3838.253	-0.2
3840.878	-5.2
3843.501	-3.2
3846.122	-7.2
3848.741	-5.2
3851.358	-5.2
3853.973	-2.2
3856.586	-7.2
3859.197	-3.2
3861.806	-2.2
3864.414	-6.2
3867.019	-1.2
3869.622	-7.2
3872.224	-4.2
3874.823	-5.2
3877.421	-3.2
3880.016	-3.2
3882.61	-1.2
3885.202	3.8
3887.792	0.8
3890.38	-1.2
3892.966	-1.2
3895.55	-1.2
3898.132	-4.2
3900.713	-3.2
3903.291	-8.2
3905.868	-5.2
3908.442	-4.2
3911.015	-6.2
3913.586	-2.2
3916.155	0.8
3918.722	-1.2
3921.287	-2.2
3923.85	-4.2
3926.411	-6.2
3928.971	-7.2
3931.528	-3.2
3934.084	-4.2
3936.638	-2.2
3939.19	-2.2
3941.74	-0.2
3944.288	-3.2
3946.834	-3.2
3949.378	-3.2
3951.921	-5.2
3954.462	-8.2
3957	-4.2
3959.537	-3.2
3962.072	-1.2
3964.606	-2.2
3967.137	-4.2
3969.667	-0.2
3972.194	-2.2
3974.72	-6.2
3977.244	-7.2
3979.766	-6.2
3982.286	-7.2
3984.805	-2.2
3987.321	-3.2
3989.836	-4.2
3992.349	1.8
3994.86	-1.2
3997.369	-6.2
3999.877	-5.2
4002.382	-8.2
4004.886	-7.2
4007.388	-4.2
4009.888	-8.2
4012.386	-1.2
4014.883	-3.2
4017.377	0.8
4019.87	-3.2
4022.361	-4.2
4024.85	-8.2
4027.338	-7.2
4029.823	-5.2
4032.307	-2.2
4034.789	-3.2
4037.269	-2.2
4039.747	-2.2
4042.224	-2.2
4044.699	-3.2
4047.172	-1.2
4049.643	-7.2
4052.112	-7.2
4054.58	-7.2
4057.046	-5.2
4059.51	-3.2
4061.972	-2.2
4064.432	-3.2
4066.891	-4.2
4069.348	-1.2
4071.803	-3.2
4074.256	-6.2
4076.708	-2.2
4079.158	-2.2
4081.606	-5.2
4084.052	-2.2
4086.497	-1.2
4088.939	4.8
4091.38	0.8
4093.819	-3.2
4096.257	-6.2
4098.693	-4.2
4101.127	-3.2
4103.559	0.8
4105.989	2.8
4108.418	0.8
4110.845	1.8
4113.27	-3.2
4115.694	-1.2
4118.115	2.8
4120.535	-6.2
4122.954	-5.2
4125.37	-8.2
4127.785	-9.2
4130.198	-2.2
4132.609	-0.2
4135.019	-3.2
4137.427	-3.2
4139.833	-5.2
4142.237	-8.2
