Data from 2_n=4_RamanShift_03.txt Node
Date: Mon Mar 19 12:32:18 IST 2018
User: aro
Spectrometer: QEPB0276
Trigger mode: 0
Integration Time (sec): 5.000000E0
Scans to average: 1
Electric dark correction enabled: true
Nonlinearity correction enabled: false
Boxcar width: 0
XAxis mode: Raman Shifts
Number of Pixels in Spectrum: 1044
>>>>>Begin Spectral Data<<<<<
160.701	-0.2
166.742	-0.2
172.777	2.8
178.805	12.8
184.826	22.8
190.841	45.8
196.849	76.8
202.85	95.8
208.845	95.8
214.833	105.8
220.815	98.8
226.789	106.8
232.758	100.8
238.719	103.8
244.674	107.8
250.623	107.8
256.565	106.8
262.5	105.8
268.429	106.8
274.351	106.8
280.267	108.8
286.176	107.8
292.079	110.8
297.975	115.8
303.865	112.8
309.748	117.8
315.625	117.8
321.495	112.8
327.359	117.8
333.217	112.8
339.068	115.8
344.912	119.8
350.751	115.8
356.583	117.8
362.408	119.8
368.227	116.8
374.04	122.8
379.847	127.8
385.647	133.8
391.44	128.8
397.228	125.8
403.009	131.8
408.784	135.8
414.553	143.8
420.315	152.8
426.071	162.8
431.821	151.8
437.565	125.8
443.302	124.8
449.033	123.8
454.758	119.8
460.477	115.8
466.189	116.8
471.896	111.8
477.596	112.8
483.29	110.8
488.978	113.8
494.66	110.8
500.335	107.8
506.005	99.8
511.668	93.8
517.325	90.8
522.977	85.8
528.622	79.8
534.261	76.8
539.894	72.8
545.521	75.8
551.141	67.8
556.756	69.8
562.365	64.8
567.968	65.8
573.565	66.8
579.155	62.8
584.74	67.8
590.319	66.8
595.892	67.8
601.459	66.8
607.02	66.8
612.575	65.8
618.124	62.8
623.667	59.8
629.204	60.8
634.735	62.8
640.261	62.8
645.781	64.8
651.294	71.8
656.802	69.8
662.304	61.8
667.8	57.8
673.29	55.8
678.775	57.8
684.254	56.8
689.726	50.8
695.193	55.8
700.655	58.8
706.11	56.8
711.56	54.8
717.004	52.8
722.442	50.8
727.874	54.8
733.301	49.8
738.722	53.8
744.137	55.8
749.547	54.8
754.951	57.8
760.349	56.8
765.741	52.8
771.128	54.8
776.509	53.8
781.885	57.8
787.254	56.8
792.618	58.8
797.977	61.8
803.33	61.8
808.677	62.8
814.019	71.8
819.355	65.8
824.686	58.8
830.011	53.8
835.33	60.8
840.644	58.8
845.952	63.8
851.255	59.8
856.552	56.8
861.844	51.8
867.13	50.8
872.41	48.8
877.686	48.8
882.955	44.8
888.219	46.8
893.478	47.8
898.731	47.8
903.979	49.8
909.221	52.8
914.458	44.8
919.69	41.8
924.916	43.8
930.136	37.8
935.351	45.8
940.561	45.8
945.766	46.8
950.965	44.8
956.158	43.8
961.347	45.8
966.529	47.8
971.707	40.8
976.879	41.8
982.046	42.8
987.208	42.8
992.364	41.8
997.515	42.8
1002.66	45.8
1007.801	48.8
1012.936	44.8
1018.066	42.8
1023.19	37.8
1028.309	33.8
1033.423	40.8
1038.532	43.8
1043.636	46.8
1048.734	47.8
1053.827	46.8
1058.915	43.8
1063.998	41.8
1069.075	43.8
1074.147	39.8
1079.214	40.8
1084.276	39.8
1089.333	42.8
1094.385	39.8
1099.431	39.8
1104.472	40.8
1109.509	38.8
1114.54	34.8
1119.565	38.8
1124.586	42.8
1129.602	34.8
1134.613	34.8
1139.618	38.8
1144.619	40.8
1149.614	38.8
1154.604	42.8
1159.589	42.8
1164.57	44.8
1169.545	42.8
1174.515	44.8
1179.48	41.8
1184.44	40.8
1189.395	33.8
1194.345	40.8
1199.29	35.8
1204.23	37.8
1209.165	34.8
1214.095	38.8
1219.021	41.8
1223.941	40.8
1228.856	39.8
1233.766	38.8
1238.672	33.8
1243.572	39.8
1248.467	32.8
1253.358	36.8
1258.244	37.8
1263.124	36.8
1268	29.8
1272.871	31.8
1277.737	32.8
1282.599	30.8
1287.455	33.8
1292.306	33.8
1297.153	32.8
1301.995	34.8
1306.832	32.8
1311.664	33.8
1316.491	32.8
1321.314	38.8
1326.132	38.8
1330.945	40.8
1335.753	40.8
1340.556	39.8
1345.354	32.8
1350.148	37.8
1354.937	33.8
1359.722	35.8
1364.501	34.8
1369.276	33.8
1374.046	30.8
1378.811	28.8
1383.572	23.8
1388.327	26.8
1393.079	28.8
1397.825	30.8
1402.567	32.8
1407.304	29.8
1412.036	29.8
1416.764	21.8
1421.487	26.8
1426.205	25.8
1430.919	24.8
1435.628	28.8
1440.333	36.8
1445.032	38.8
1449.727	31.8
1454.418	40.8
1459.104	43.8
1463.785	39.8
1468.462	40.8
1473.134	38.8
1477.802	28.8
1482.465	25.8
1487.123	27.8
1491.777	25.8
1496.426	30.8
1501.071	30.8
1505.711	30.8
1510.347	27.8
1514.978	25.8
1519.604	24.8
1524.226	20.8
1528.844	22.8
1533.457	24.8
1538.065	28.8
1542.669	27.8
1547.269	25.8
1551.864	22.8
1556.454	26.8
1561.041	19.8
1565.622	19.8
1570.199	19.8
1574.772	18.8
1579.34	21.8
1583.904	27.8
1588.464	24.8
1593.019	21.8
1597.569	22.8
1602.115	22.8
1606.657	17.8
1611.195	25.8
1615.728	21.8
1620.256	23.8
1624.78	28.8
1629.3	23.8
1633.816	21.8
1638.327	27.8
1642.834	21.8
1647.336	22.8
1651.834	16.8
1656.328	22.8
1660.817	19.8
1665.302	23.8
1669.783	19.8
1674.259	23.8
1678.732	22.8
1683.199	22.8
1687.663	18.8
1692.122	17.8
1696.577	16.8
1701.028	20.8
1705.474	16.8
1709.917	15.8
1714.355	17.8
1718.788	23.8
1723.218	18.8
1727.643	16.8
1732.064	15.8
1736.481	19.8
1740.893	11.8
1745.301	18.8
1749.705	17.8
1754.105	22.8
1758.501	19.8
1762.893	15.8
1767.28	16.8
1771.663	17.8
1776.042	12.8
1780.417	13.8
1784.787	18.8
1789.154	12.8
1793.516	16.8
1797.874	19.8
1802.228	16.8
1806.578	14.8
1810.924	17.8
1815.266	13.8
1819.603	13.8
1823.937	17.8
1828.266	15.8
1832.591	15.8
1836.913	12.8
1841.23	14.8
1845.543	15.8
1849.852	16.8
1854.156	8.8
1858.457	10.8
1862.754	17.8
1867.047	10.8
1871.335	17.8
1875.62	13.8
1879.9	14.8
1884.177	15.8
1888.449	13.8
1892.718	12.8
1896.982	12.8
1901.243	15.8
1905.499	13.8
1909.752	8.8
1914	12.8
1918.245	13.8
1922.485	12.8
1926.722	17.8
1930.954	11.8
1935.183	14.8
1939.408	17.8
1943.628	17.8
1947.845	13.8
1952.058	15.8
1956.267	10.8
1960.472	8.8
1964.673	10.8
1968.87	11.8
1973.063	15.8
1977.252	14.8
1981.438	10.8
1985.619	13.8
1989.797	9.8
1993.971	7.8
1998.14	10.8
2002.306	11.8
2006.469	11.8
2010.627	12.8
2014.781	14.8
2018.932	13.8
2023.078	12.8
2027.221	9.8
2031.36	5.8
2035.495	11.8
2039.627	10.8
2043.754	10.8
2047.878	14.8
2051.998	13.8
2056.114	13.8
2060.226	13.8
2064.334	6.8
2068.439	6.8
2072.54	3.8
2076.637	10.8
2080.73	9.8
2084.82	11.8
2088.906	14.8
2092.988	10.8
2097.066	9.8
2101.14	11.8
2105.211	7.8
2109.278	8.8
2113.342	9.8
2117.401	9.8
2121.457	12.8
2125.509	12.8
2129.558	7.8
2133.602	12.8
2137.643	4.8
2141.681	4.8
2145.714	4.8
2149.744	7.8
2153.77	8.8
2157.793	17.8
2161.812	13.8
2165.827	13.8
2169.838	6.8
2173.846	4.8
2177.851	4.8
2181.851	4.8
2185.848	6.8
2189.841	8.8
2193.831	4.8
2197.817	13.8
2201.799	9.8
2205.778	9.8
2209.753	4.8
2213.725	6.8
2217.693	6.8
2221.657	-0.2
2225.618	8.8
2229.575	13.8
2233.529	10.8
2237.479	6.8
2241.425	4.8
2245.368	6.8
2249.307	3.8
2253.243	5.8
2257.175	2.8
2261.104	8.8
2265.029	5.8
2268.95	5.8
2272.868	6.8
2276.783	7.8
2280.694	6.8
2284.601	4.8
2288.505	5.8
2292.405	4.8
2296.302	2.8
2300.195	7.8
2304.085	3.8
2307.971	4.8
2311.854	2.8
2315.734	8.8
2319.609	2.8
2323.482	3.8
2327.351	-0.2
2331.216	7.8
2335.078	7.8
2338.937	6.8
2342.792	3.8
2346.643	0.8
2350.492	6.8
2354.336	4.8
2358.178	6.8
2362.015	1.8
2365.85	4.8
2369.681	3.8
2373.508	0.8
2377.333	2.8
2381.153	3.8
2384.971	7.8
2388.785	3.8
2392.595	4.8
2396.402	5.8
2400.206	6.8
2404.007	0.8
2407.804	0.8
2411.597	4.8
2415.388	-0.2
2419.174	5.8
2422.958	4.8
2426.738	0.8
2430.515	7.8
2434.289	4.8
2438.059	3.8
2441.825	-2.2
2445.589	5.8
2449.349	2.8
2453.106	7.8
2456.859	5.8
2460.61	5.8
2464.356	8.8
2468.1	-0.2
2471.84	0.8
2475.577	1.8
2479.311	-1.2
2483.041	2.8
2486.768	3.8
2490.492	4.8
2494.213	4.8
2497.93	2.8
2501.644	2.8
2505.355	0.8
2509.062	-2.2
2512.766	3.8
2516.467	1.8
2520.165	5.8
2523.859	5.8
2527.551	5.8
2531.239	3.8
2534.923	2.8
2538.605	-0.2
2542.283	-2.2
2545.958	2.8
2549.63	3.8
2553.299	4.8
2556.964	6.8
2560.626	5.8
2564.285	0.8
2567.941	2.8
2571.594	-1.2
2575.243	-2.2
2578.89	1.8
2582.533	2.8
2586.173	2.8
2589.809	2.8
2593.443	5.8
2597.073	4.8
2600.701	1.8
2604.325	-0.2
2607.946	-0.2
2611.564	3.8
2615.178	0.8
2618.79	2.8
2622.398	2.8
2626.004	3.8
2629.606	3.8
2633.205	1.8
2636.801	4.8
2640.394	-0.2
2643.983	3.8
2647.57	1.8
2651.153	0.8
2654.734	0.8
2658.311	1.8
2661.885	1.8
2665.456	2.8
2669.025	-1.2
2672.589	5.8
2676.151	0.8
2679.71	7.8
2683.266	1.8
2686.819	3.8
2690.368	0.8
2693.915	-0.2
2697.458	0.8
2700.999	4.8
2704.536	4.8
2708.071	6.8
2711.602	4.8
2715.13	4.8
2718.656	0.8
2722.178	-0.2
2725.697	-2.2
2729.214	-1.2
2732.727	-0.2
2736.237	3.8
2739.744	4.8
2743.249	9.8
2746.75	5.8
2750.248	2.8
2753.743	1.8
2757.236	0.8
2760.725	-2.2
2764.211	-1.2
2767.695	-1.2
2771.175	2.8
2774.652	4.8
2778.127	3.8
2781.598	5.8
2785.067	-0.2
2788.532	-2.2
2791.995	0.8
2795.455	1.8
2798.911	1.8
2802.365	0.8
2805.816	1.8
2809.264	2.8
2812.709	1.8
2816.151	2.8
2819.59	-1.2
2823.026	0.8
2826.46	-0.2
2829.89	3.8
2833.318	2.8
2836.742	5.8
2840.164	9.8
2843.583	9.8
2846.999	8.8
2850.412	6.8
2853.822	4.8
2857.229	5.8
2860.634	4.8
2864.035	4.8
2867.434	11.8
2870.83	10.8
2874.223	15.8
2877.613	14.8
2881	13.8
2884.385	12.8
2887.766	13.8
2891.145	15.8
2894.521	12.8
2897.894	12.8
2901.264	14.8
2904.631	13.8
2907.996	17.8
2911.358	11.8
2914.717	9.8
2918.073	7.8
2921.426	8.8
2924.777	7.8
2928.124	6.8
2931.469	6.8
2934.811	7.8
2938.15	8.8
2941.487	8.8
2944.821	6.8
2948.152	2.8
2951.48	5.8
2954.805	8.8
2958.128	9.8
2961.447	2.8
2964.765	5.8
2968.079	12.8
2971.39	9.8
2974.699	6.8
2978.005	2.8
2981.308	4.8
2984.609	1.8
2987.907	4.8
2991.202	1.8
2994.494	2.8
2997.784	5.8
3001.07	4.8
3004.355	0.8
3007.636	3.8
3010.915	2.8
3014.191	3.8
3017.464	-0.2
3020.734	3.8
3024.002	-0.2
3027.267	-0.2
3030.53	1.8
3033.789	1.8
3037.046	-3.2
3040.301	1.8
3043.552	-1.2
3046.801	1.8
3050.048	1.8
3053.291	1.8
3056.532	0.8
3059.771	4.8
3063.006	-2.2
3066.239	-1.2
3069.469	1.8
3072.697	0.8
3075.922	-0.2
3079.144	4.8
3082.364	2.8
3085.581	0.8
3088.795	3.8
3092.007	0.8
3095.216	1.8
3098.423	-1.2
3101.627	-4.2
3104.828	2.8
3108.026	2.8
3111.222	3.8
3114.416	2.8
3117.607	4.8
3120.795	-1.2
3123.98	-0.2
3127.163	-0.2
3130.344	-2.2
3133.521	-1.2
3136.696	3.8
3139.869	5.8
3143.039	5.8
3146.206	5.8
3149.371	3.8
3152.533	0.8
3155.693	-1.2
3158.85	-4.2
3162.005	-1.2
3165.157	0.8
3168.306	0.8
3171.453	2.8
3174.597	6.8
3177.739	0.8
3180.878	1.8
3184.014	0.8
3187.149	-3.2
3190.28	-3.2
3193.409	-1.2
3196.536	1.8
3199.659	4.8
3202.781	5.8
3205.9	7.8
3209.016	2.8
3212.13	2.8
3215.241	0.8
3218.35	-0.2
3221.456	-0.2
3224.56	-0.2
3227.661	1.8
3230.76	7.8
3233.856	2.8
3236.95	5.8
3240.041	-0.2
3243.13	-0.2
3246.216	-0.2
3249.3	-2.2
3252.382	0.8
3255.46	3.8
3258.537	-0.2
3261.611	5.8
3264.682	3.8
3267.751	3.8
3270.818	0.8
3273.882	-1.2
3276.943	1.8
3280.002	-1.2
3283.059	-4.2
3286.113	0.8
3289.165	-1.2
3292.214	0.8
3295.261	-0.2
3298.306	-2.2
3301.348	1.8
3304.387	-1.2
3307.425	-2.2
3310.459	-0.2
3313.492	-2.2
3316.521	2.8
3319.549	-0.2
3322.574	3.8
3325.597	1.8
3328.617	-0.2
3331.635	0.8
3334.65	-2.2
3337.663	-1.2
3340.674	-0.2
3343.682	1.8
3346.688	3.8
3349.691	0.8
3352.692	0.8
3355.691	-3.2
3358.687	-3.2
3361.681	-2.2
3364.673	-1.2
3367.662	-2.2
3370.649	4.8
3373.633	1.8
3376.615	3.8
3379.595	-3.2
3382.572	2.8
3385.547	-1.2
3388.52	-0.2
3391.49	-2.2
3394.458	0.8
3397.424	-2.2
3400.387	1.8
3403.348	-0.2
3406.307	-2.2
3409.263	1.8
3412.217	-0.2
3415.168	-1.2
3418.118	-2.2
3421.065	2.8
3424.009	-0.2
3426.951	1.8
3429.891	-0.2
3432.829	1.8
3435.764	0.8
3438.697	-2.2
3441.628	0.8
3444.557	-1.2
3447.483	-1.2
3450.407	-0.2
3453.328	0.8
3456.247	-4.2
3459.164	2.8
3462.079	-0.2
3464.991	0.8
3467.902	-3.2
3470.809	-1.2
3473.715	-0.2
3476.618	-1.2
3479.519	-4.2
3482.418	0.8
3485.315	-1.2
3488.209	2.8
3491.101	0.8
3493.99	-2.2
3496.878	-1.2
3499.763	-1.2
3502.646	-1.2
3505.527	-3.2
3508.405	0.8
3511.281	-1.2
3514.155	-0.2
3517.027	-0.2
3519.897	-1.2
3522.764	-0.2
3525.629	-3.2
3528.492	-3.2
3531.352	-5.2
3534.211	-0.2
3537.067	-7.2
3539.921	-3.2
3542.773	-2.2
3545.622	2.8
3548.469	-2.2
3551.315	2.8
3554.157	-2.2
3556.998	0.8
3559.837	-6.2
3562.673	-3.2
3565.507	-2.2
3568.339	1.8
3571.169	1.8
3573.996	1.8
3576.822	-1.2
3579.645	-3.2
3582.466	-4.2
3585.285	-1.2
3588.101	-6.2
3590.916	-2.2
3593.728	1.8
3596.538	0.8
3599.346	-1.2
3602.152	-0.2
3604.956	-4.2
3607.757	-4.2
3610.556	-2.2
3613.354	-0.2
3616.149	-4.2
3618.942	-0.2
3621.732	1.8
3624.521	0.8
3627.307	-2.2
3630.092	-2.2
3632.874	-5.2
3635.654	-3.2
3638.432	-6.2
3641.208	-1.2
3643.982	1.8
3646.753	1.8
3649.523	-2.2
3652.29	-0.2
3655.055	-6.2
3657.818	-3.2
3660.579	-0.2
3663.338	-4.2
3666.095	-2.2
3668.849	2.8
3671.602	2.8
3674.352	2.8
3677.101	-0.2
3679.847	-5.2
3682.591	-4.2
3685.333	-4.2
3688.073	-4.2
3690.811	1.8
3693.547	1.8
3696.281	0.8
3699.013	-3.2
3701.742	0.8
3704.47	-5.2
3707.195	-4.2
3709.919	-7.2
3712.64	-2.2
3715.359	-1.2
3718.076	2.8
3720.792	-1.2
3723.505	1.8
3726.216	-1.2
3728.925	-1.2
3731.632	-4.2
3734.336	-3.2
3737.039	-0.2
3739.74	-4.2
3742.439	-2.2
3745.136	-0.2
3747.83	-2.2
3750.523	-1.2
3753.213	-2.2
3755.902	1.8
3758.589	-1.2
3761.273	-2.2
3763.956	-6.2
3766.636	-3.2
3769.315	-1.2
3771.991	-1.2
3774.665	-0.2
3777.338	0.8
3780.008	1.8
3782.677	-4.2
3785.343	-4.2
3788.007	-0.2
3790.67	-3.2
3793.33	-4.2
3795.989	-1.2
3798.645	-1.2
3801.299	-1.2
3803.952	0.8
3806.602	-2.2
3809.251	-1.2
3811.897	-4.2
3814.542	-3.2
3817.184	-5.2
3819.825	-2.2
3822.463	-4.2
3825.1	-2.2
3827.735	-4.2
3830.367	2.8
3832.998	-2.2
3835.627	0.8
3838.253	-2.2
3840.878	-3.2
3843.501	-4.2
3846.122	-4.2
3848.741	-3.2
3851.358	3.8
3853.973	0.8
3856.586	-4.2
3859.197	-0.2
3861.806	-7.2
3864.414	-5.2
3867.019	-3.2
3869.622	-5.2
3872.224	-3.2
3874.823	0.8
3877.421	3.8
3880.016	-2.2
3882.61	1.8
3885.202	4.8
3887.792	-0.2
3890.38	-1.2
3892.966	-2.2
3895.55	-3.2
3898.132	-0.2
3900.713	2.8
3903.291	0.8
3905.868	0.8
3908.442	-2.2
3911.015	-7.2
3913.586	-1.2
3916.155	-2.2
3918.722	-1.2
3921.287	-1.2
3923.85	1.8
3926.411	1.8
3928.971	0.8
3931.528	-0.2
3934.084	-1.2
3936.638	-2.2
3939.19	-4.2
3941.74	-2.2
3944.288	-4.2
3946.834	-1.2
3949.378	-0.2
3951.921	1.8
3954.462	-1.2
3957	-1.2
3959.537	0.8
3962.072	-3.2
3964.606	-2.2
3967.137	-3.2
3969.667	-0.2
3972.194	-4.2
3974.72	-2.2
3977.244	-6.2
3979.766	1.8
3982.286	-4.2
3984.805	0.8
3987.321	1.8
3989.836	-2.2
3992.349	-0.2
3994.86	1.8
3997.369	-4.2
3999.877	-0.2
4002.382	-3.2
4004.886	-3.2
4007.388	-0.2
4009.888	-3.2
4012.386	1.8
4014.883	-0.2
4017.377	-1.2
4019.87	-4.2
4022.361	-2.2
4024.85	-2.2
4027.338	-3.2
4029.823	-0.2
4032.307	-0.2
4034.789	-2.2
4037.269	-1.2
4039.747	0.8
4042.224	-3.2
4044.699	-5.2
4047.172	-2.2
4049.643	-7.2
4052.112	-6.2
4054.58	-2.2
4057.046	-3.2
4059.51	-0.2
4061.972	-0.2
4064.432	-3.2
4066.891	-3.2
4069.348	0.8
4071.803	-5.2
4074.256	-2.2
4076.708	1.8
4079.158	1.8
4081.606	-3.2
4084.052	0.8
4086.497	-1.2
4088.939	1.8
4091.38	-1.2
4093.819	-3.2
4096.257	-3.2
4098.693	-5.2
4101.127	-5.2
4103.559	-2.2
4105.989	4.8
4108.418	4.8
4110.845	2.8
4113.27	3.8
4115.694	-0.2
4118.115	2.8
4120.535	-3.2
4122.954	-6.2
4125.37	-4.2
4127.785	-4.2
4130.198	0.8
4132.609	-2.2
4135.019	-1.2
4137.427	-3.2
4139.833	-4.2
4142.237	-6.2
