Data from 2_n=2_RamanShift_02.txt Node
Date: Mon Mar 19 12:29:23 IST 2018
User: aro
Spectrometer: QEPB0276
Trigger mode: 0
Integration Time (sec): 5.000000E0
Scans to average: 1
Electric dark correction enabled: true
Nonlinearity correction enabled: false
Boxcar width: 0
XAxis mode: Raman Shifts
Number of Pixels in Spectrum: 1044
>>>>>Begin Spectral Data<<<<<
160.701	-5.5
166.742	1.5
172.777	5.5
178.805	14.5
184.826	24.5
190.841	41.5
196.849	73.5
202.85	91.5
208.845	96.5
214.833	101.5
220.815	104.5
226.789	106.5
232.758	106.5
238.719	106.5
244.674	102.5
250.623	109.5
256.565	108.5
262.5	106.5
268.429	108.5
274.351	106.5
280.267	112.5
286.176	117.5
292.079	117.5
297.975	114.5
303.865	114.5
309.748	113.5
315.625	112.5
321.495	118.5
327.359	115.5
333.217	118.5
339.068	118.5
344.912	124.5
350.751	117.5
356.583	121.5
362.408	121.5
368.227	115.5
374.04	120.5
379.847	125.5
385.647	134.5
391.44	138.5
397.228	129.5
403.009	134.5
408.784	132.5
414.553	143.5
420.315	155.5
426.071	162.5
431.821	146.5
437.565	129.5
443.302	127.5
449.033	125.5
454.758	121.5
460.477	119.5
466.189	117.5
471.896	107.5
477.596	115.5
483.29	108.5
488.978	113.5
494.66	109.5
500.335	112.5
506.005	105.5
511.668	94.5
517.325	86.5
522.977	79.5
528.622	76.5
534.261	74.5
539.894	76.5
545.521	71.5
551.141	72.5
556.756	77.5
562.365	73.5
567.968	67.5
573.565	67.5
579.155	63.5
584.74	66.5
590.319	62.5
595.892	70.5
601.459	67.5
607.02	67.5
612.575	65.5
618.124	66.5
623.667	64.5
629.204	60.5
634.735	56.5
640.261	63.5
645.781	63.5
651.294	74.5
656.802	73.5
662.304	66.5
667.8	60.5
673.29	59.5
678.775	58.5
684.254	54.5
689.726	49.5
695.193	57.5
700.655	57.5
706.11	58.5
711.56	55.5
717.004	52.5
722.442	53.5
727.874	55.5
733.301	49.5
738.722	50.5
744.137	51.5
749.547	55.5
754.951	56.5
760.349	59.5
765.741	53.5
771.128	58.5
776.509	55.5
781.885	57.5
787.254	58.5
792.618	50.5
797.977	55.5
803.33	62.5
808.677	66.5
814.019	63.5
819.355	69.5
824.686	53.5
830.011	51.5
835.33	56.5
840.644	52.5
845.952	55.5
851.255	60.5
856.552	57.5
861.844	52.5
867.13	51.5
872.41	54.5
877.686	43.5
882.955	44.5
888.219	43.5
893.478	44.5
898.731	43.5
903.979	45.5
909.221	47.5
914.458	48.5
919.69	44.5
924.916	44.5
930.136	40.5
935.351	39.5
940.561	35.5
945.766	43.5
950.965	42.5
956.158	45.5
961.347	46.5
966.529	49.5
971.707	41.5
976.879	42.5
982.046	45.5
987.208	37.5
992.364	39.5
997.515	43.5
1002.66	42.5
1007.801	46.5
1012.936	42.5
1018.066	40.5
1023.19	39.5
1028.309	38.5
1033.423	42.5
1038.532	42.5
1043.636	45.5
1048.734	46.5
1053.827	44.5
1058.915	39.5
1063.998	37.5
1069.075	36.5
1074.147	37.5
1079.214	39.5
1084.276	42.5
1089.333	42.5
1094.385	42.5
1099.431	42.5
1104.472	36.5
1109.509	36.5
1114.54	37.5
1119.565	34.5
1124.586	38.5
1129.602	32.5
1134.613	34.5
1139.618	40.5
1144.619	41.5
1149.614	41.5
1154.604	39.5
1159.589	45.5
1164.57	40.5
1169.545	40.5
1174.515	38.5
1179.48	41.5
1184.44	37.5
1189.395	37.5
1194.345	41.5
1199.29	39.5
1204.23	35.5
1209.165	37.5
1214.095	32.5
1219.021	34.5
1223.941	39.5
1228.856	34.5
1233.766	37.5
1238.672	40.5
1243.572	41.5
1248.467	35.5
1253.358	32.5
1258.244	34.5
1263.124	35.5
1268	30.5
1272.871	32.5
1277.737	32.5
1282.599	35.5
1287.455	34.5
1292.306	35.5
1297.153	31.5
1301.995	32.5
1306.832	31.5
1311.664	32.5
1316.491	32.5
1321.314	35.5
1326.132	35.5
1330.945	38.5
1335.753	36.5
1340.556	36.5
1345.354	30.5
1350.148	30.5
1354.937	30.5
1359.722	29.5
1364.501	31.5
1369.276	32.5
1374.046	34.5
1378.811	30.5
1383.572	22.5
1388.327	28.5
1393.079	28.5
1397.825	24.5
1402.567	23.5
1407.304	27.5
1412.036	24.5
1416.764	22.5
1421.487	30.5
1426.205	26.5
1430.919	29.5
1435.628	28.5
1440.333	30.5
1445.032	30.5
1449.727	30.5
1454.418	32.5
1459.104	35.5
1463.785	36.5
1468.462	40.5
1473.134	36.5
1477.802	32.5
1482.465	27.5
1487.123	30.5
1491.777	23.5
1496.426	24.5
1501.071	24.5
1505.711	21.5
1510.347	25.5
1514.978	26.5
1519.604	26.5
1524.226	22.5
1528.844	27.5
1533.457	27.5
1538.065	24.5
1542.669	22.5
1547.269	21.5
1551.864	17.5
1556.454	20.5
1561.041	20.5
1565.622	20.5
1570.199	23.5
1574.772	24.5
1579.34	26.5
1583.904	27.5
1588.464	24.5
1593.019	18.5
1597.569	22.5
1602.115	21.5
1606.657	18.5
1611.195	20.5
1615.728	23.5
1620.256	26.5
1624.78	24.5
1629.3	22.5
1633.816	23.5
1638.327	23.5
1642.834	19.5
1647.336	19.5
1651.834	16.5
1656.328	19.5
1660.817	22.5
1665.302	24.5
1669.783	22.5
1674.259	22.5
1678.732	19.5
1683.199	18.5
1687.663	17.5
1692.122	16.5
1696.577	14.5
1701.028	20.5
1705.474	20.5
1709.917	23.5
1714.355	17.5
1718.788	16.5
1723.218	16.5
1727.643	13.5
1732.064	13.5
1736.481	16.5
1740.893	15.5
1745.301	20.5
1749.705	20.5
1754.105	20.5
1758.501	14.5
1762.893	17.5
1767.28	13.5
1771.663	13.5
1776.042	9.5
1780.417	13.5
1784.787	16.5
1789.154	16.5
1793.516	18.5
1797.874	16.5
1802.228	14.5
1806.578	9.5
1810.924	13.5
1815.266	8.5
1819.603	11.5
1823.937	18.5
1828.266	13.5
1832.591	17.5
1836.913	11.5
1841.23	14.5
1845.543	13.5
1849.852	12.5
1854.156	10.5
1858.457	9.5
1862.754	14.5
1867.047	14.5
1871.335	14.5
1875.62	15.5
1879.9	16.5
1884.177	14.5
1888.449	8.5
1892.718	13.5
1896.982	11.5
1901.243	13.5
1905.499	10.5
1909.752	11.5
1914	13.5
1918.245	12.5
1922.485	14.5
1926.722	15.5
1930.954	12.5
1935.183	14.5
1939.408	16.5
1943.628	13.5
1947.845	11.5
1952.058	13.5
1956.267	7.5
1960.472	5.5
1964.673	12.5
1968.87	12.5
1973.063	14.5
1977.252	12.5
1981.438	10.5
1985.619	13.5
1989.797	8.5
1993.971	4.5
1998.14	10.5
2002.306	6.5
2006.469	9.5
2010.627	12.5
2014.781	14.5
2018.932	14.5
2023.078	8.5
2027.221	9.5
2031.36	5.5
2035.495	7.5
2039.627	7.5
2043.754	7.5
2047.878	11.5
2051.998	10.5
2056.114	12.5
2060.226	15.5
2064.334	6.5
2068.439	7.5
2072.54	5.5
2076.637	8.5
2080.73	5.5
2084.82	6.5
2088.906	11.5
2092.988	11.5
2097.066	8.5
2101.14	9.5
2105.211	9.5
2109.278	7.5
2113.342	6.5
2117.401	6.5
2121.457	6.5
2125.509	10.5
2129.558	7.5
2133.602	11.5
2137.643	8.5
2141.681	7.5
2145.714	7.5
2149.744	4.5
2153.77	4.5
2157.793	11.5
2161.812	8.5
2165.827	9.5
2169.838	6.5
2173.846	6.5
2177.851	4.5
2181.851	5.5
2185.848	5.5
2189.841	8.5
2193.831	3.5
2197.817	7.5
2201.799	5.5
2205.778	5.5
2209.753	9.5
2213.725	3.5
2217.693	5.5
2221.657	2.5
2225.618	6.5
2229.575	9.5
2233.529	4.5
2237.479	3.5
2241.425	1.5
2245.368	3.5
2249.307	4.5
2253.243	5.5
2257.175	5.5
2261.104	10.5
2265.029	4.5
2268.95	0.5
2272.868	4.5
2276.783	2.5
2280.694	5.5
2284.601	3.5
2288.505	4.5
2292.405	4.5
2296.302	5.5
2300.195	7.5
2304.085	0.5
2307.971	3.5
2311.854	3.5
2315.734	-0.5
2319.609	0.5
2323.482	6.5
2327.351	4.5
2331.216	7.5
2335.078	5.5
2338.937	6.5
2342.792	1.5
2346.643	-0.5
2350.492	2.5
2354.336	3.5
2358.178	2.5
2362.015	5.5
2365.85	3.5
2369.681	3.5
2373.508	1.5
2377.333	1.5
2381.153	1.5
2384.971	0.5
2388.785	3.5
2392.595	4.5
2396.402	4.5
2400.206	6.5
2404.007	2.5
2407.804	1.5
2411.597	0.5
2415.388	-2.5
2419.174	0.5
2422.958	2.5
2426.738	0.5
2430.515	3.5
2434.289	4.5
2438.059	3.5
2441.825	0.5
2445.589	-0.5
2449.349	-0.5
2453.106	-0.5
2456.859	0.5
2460.61	1.5
2464.356	7.5
2468.1	3.5
2471.84	-0.5
2475.577	2.5
2479.311	0.5
2483.041	1.5
2486.768	-1.5
2490.492	-1.5
2494.213	1.5
2497.93	-1.5
2501.644	4.5
2505.355	4.5
2509.062	1.5
2512.766	0.5
2516.467	-2.5
2520.165	2.5
2523.859	0.5
2527.551	0.5
2531.239	2.5
2534.923	-0.5
2538.605	1.5
2542.283	-1.5
2545.958	7.5
2549.63	1.5
2553.299	3.5
2556.964	-0.5
2560.626	2.5
2564.285	-3.5
2567.941	1.5
2571.594	-0.5
2575.243	-1.5
2578.89	2.5
2582.533	1.5
2586.173	0.5
2589.809	0.5
2593.443	1.5
2597.073	-0.5
2600.701	0.5
2604.325	-1.5
2607.946	0.5
2611.564	4.5
2615.178	6.5
2618.79	3.5
2622.398	1.5
2626.004	1.5
2629.606	1.5
2633.205	0.5
2636.801	2.5
2640.394	-1.5
2643.983	2.5
2647.57	1.5
2651.153	3.5
2654.734	0.5
2658.311	-2.5
2661.885	-3.5
2665.456	-1.5
2669.025	2.5
2672.589	3.5
2676.151	-0.5
2679.71	5.5
2683.266	0.5
2686.819	5.5
2690.368	-0.5
2693.915	-0.5
2697.458	-1.5
2700.999	2.5
2704.536	0.5
2708.071	2.5
2711.602	2.5
2715.13	4.5
2718.656	-0.5
2722.178	0.5
2725.697	-2.5
2729.214	-2.5
2732.727	-2.5
2736.237	3.5
2739.744	1.5
2743.249	7.5
2746.75	1.5
2750.248	-1.5
2753.743	0.5
2757.236	-1.5
2760.725	-4.5
2764.211	-0.5
2767.695	0.5
2771.175	-0.5
2774.652	5.5
2778.127	1.5
2781.598	1.5
2785.067	-1.5
2788.532	-2.5
2791.995	-4.5
2795.455	-2.5
2798.911	1.5
2802.365	1.5
2805.816	1.5
2809.264	-0.5
2812.709	3.5
2816.151	1.5
2819.59	-4.5
2823.026	-3.5
2826.46	-3.5
2829.89	2.5
2833.318	3.5
2836.742	4.5
2840.164	7.5
2843.583	6.5
2846.999	1.5
2850.412	4.5
2853.822	-0.5
2857.229	3.5
2860.634	1.5
2864.035	3.5
2867.434	8.5
2870.83	8.5
2874.223	12.5
2877.613	10.5
2881	7.5
2884.385	8.5
2887.766	8.5
2891.145	11.5
2894.521	8.5
2897.894	11.5
2901.264	8.5
2904.631	8.5
2907.996	11.5
2911.358	10.5
2914.717	2.5
2918.073	4.5
2921.426	3.5
2924.777	4.5
2928.124	5.5
2931.469	3.5
2934.811	7.5
2938.15	7.5
2941.487	3.5
2944.821	6.5
2948.152	1.5
2951.48	1.5
2954.805	3.5
2958.128	3.5
2961.447	5.5
2964.765	6.5
2968.079	9.5
2971.39	5.5
2974.699	1.5
2978.005	-2.5
2981.308	-0.5
2984.609	-3.5
2987.907	-2.5
2991.202	-0.5
2994.494	3.5
2997.784	4.5
3001.07	1.5
3004.355	2.5
3007.636	3.5
3010.915	-0.5
3014.191	-3.5
3017.464	-2.5
3020.734	1.5
3024.002	-0.5
3027.267	1.5
3030.53	3.5
3033.789	0.5
3037.046	-3.5
3040.301	-2.5
3043.552	-0.5
3046.801	-0.5
3050.048	-2.5
3053.291	-2.5
3056.532	-0.5
3059.771	4.5
3063.006	-2.5
3066.239	-2.5
3069.469	-0.5
3072.697	-2.5
3075.922	-2.5
3079.144	-1.5
3082.364	-1.5
3085.581	-1.5
3088.795	-0.5
3092.007	1.5
3095.216	0.5
3098.423	0.5
3101.627	-2.5
3104.828	1.5
3108.026	-2.5
3111.222	-1.5
3114.416	-0.5
3117.607	0.5
3120.795	1.5
3123.98	0.5
3127.163	2.5
3130.344	-1.5
3133.521	2.5
3136.696	-0.5
3139.869	2.5
3143.039	2.5
3146.206	-3.5
3149.371	-0.5
3152.533	1.5
3155.693	-2.5
3158.85	-0.5
3162.005	0.5
3165.157	-1.5
3168.306	-1.5
3171.453	-1.5
3174.597	-0.5
3177.739	1.5
3180.878	-1.5
3184.014	-1.5
3187.149	-5.5
3190.28	-4.5
3193.409	-2.5
3196.536	0.5
3199.659	2.5
3202.781	5.5
3205.9	7.5
3209.016	2.5
3212.13	0.5
3215.241	0.5
3218.35	-0.5
3221.456	-2.5
3224.56	0.5
3227.661	1.5
3230.76	1.5
3233.856	2.5
3236.95	4.5
3240.041	-2.5
3243.13	-6.5
3246.216	-2.5
3249.3	0.5
3252.382	2.5
3255.46	4.5
3258.537	0.5
3261.611	3.5
3264.682	2.5
3267.751	-0.5
3270.818	-4.5
3273.882	-1.5
3276.943	-0.5
3280.002	-3.5
3283.059	-1.5
3286.113	1.5
3289.165	-1.5
3292.214	-1.5
3295.261	0.5
3298.306	-2.5
3301.348	-1.5
3304.387	-1.5
3307.425	-0.5
3310.459	2.5
3313.492	-1.5
3316.521	-0.5
3319.549	-1.5
3322.574	-1.5
3325.597	-3.5
3328.617	-5.5
3331.635	-3.5
3334.65	-3.5
3337.663	0.5
3340.674	1.5
3343.682	-1.5
3346.688	1.5
3349.691	1.5
3352.692	-1.5
3355.691	-3.5
3358.687	-5.5
3361.681	-1.5
3364.673	2.5
3367.662	-3.5
3370.649	3.5
3373.633	2.5
3376.615	0.5
3379.595	-2.5
3382.572	-1.5
3385.547	-2.5
3388.52	-4.5
3391.49	-1.5
3394.458	-3.5
3397.424	-0.5
3400.387	0.5
3403.348	-2.5
3406.307	-3.5
3409.263	0.5
3412.217	0.5
3415.168	-3.5
3418.118	-1.5
3421.065	-2.5
3424.009	-2.5
3426.951	0.5
3429.891	-1.5
3432.829	-0.5
3435.764	1.5
3438.697	-5.5
3441.628	-2.5
3444.557	0.5
3447.483	-1.5
3450.407	-1.5
3453.328	1.5
3456.247	-5.5
3459.164	-2.5
3462.079	-1.5
3464.991	0.5
3467.902	-2.5
3470.809	-0.5
3473.715	-0.5
3476.618	2.5
3479.519	-6.5
3482.418	-5.5
3485.315	-7.5
3488.209	-3.5
3491.101	0.5
3493.99	-1.5
3496.878	-0.5
3499.763	-0.5
3502.646	-2.5
3505.527	-5.5
3508.405	-3.5
3511.281	-6.5
3514.155	-4.5
3517.027	-1.5
3519.897	-1.5
3522.764	0.5
3525.629	-0.5
3528.492	-2.5
3531.352	-1.5
3534.211	-3.5
3537.067	-8.5
3539.921	-6.5
3542.773	-3.5
3545.622	0.5
3548.469	-1.5
3551.315	2.5
3554.157	-2.5
3556.998	-0.5
3559.837	-5.5
3562.673	-6.5
3565.507	-3.5
3568.339	-2.5
3571.169	-2.5
3573.996	-1.5
3576.822	-3.5
3579.645	-4.5
3582.466	-1.5
3585.285	-1.5
3588.101	-3.5
3590.916	-4.5
3593.728	-3.5
3596.538	-4.5
3599.346	-1.5
3602.152	-1.5
3604.956	-3.5
3607.757	1.5
3610.556	-2.5
3613.354	-1.5
3616.149	-6.5
3618.942	-4.5
3621.732	-1.5
3624.521	-0.5
3627.307	-4.5
3630.092	-2.5
3632.874	-2.5
3635.654	-2.5
3638.432	-4.5
3641.208	-4.5
3643.982	-1.5
3646.753	-2.5
3649.523	-7.5
3652.29	-3.5
3655.055	-7.5
3657.818	-3.5
3660.579	0.5
3663.338	-1.5
3666.095	-2.5
3668.849	-1.5
3671.602	-3.5
3674.352	-1.5
3677.101	-4.5
3679.847	-4.5
3682.591	-0.5
3685.333	-2.5
3688.073	-3.5
3690.811	0.5
3693.547	0.5
3696.281	-4.5
3699.013	-4.5
3701.742	-4.5
3704.47	-6.5
3707.195	-6.5
3709.919	-4.5
3712.64	-2.5
3715.359	-0.5
3718.076	0.5
3720.792	-2.5
3723.505	-3.5
3726.216	-5.5
3728.925	-4.5
3731.632	-4.5
3734.336	-5.5
3737.039	0.5
3739.74	-1.5
3742.439	-0.5
3745.136	0.5
3747.83	-3.5
3750.523	-2.5
3753.213	-5.5
3755.902	-3.5
3758.589	-2.5
3761.273	-0.5
3763.956	-2.5
3766.636	-4.5
3769.315	-5.5
3771.991	-6.5
3774.665	-3.5
3777.338	-5.5
3780.008	-3.5
3782.677	-4.5
3785.343	-1.5
3788.007	-2.5
3790.67	-0.5
3793.33	-3.5
3795.989	-2.5
3798.645	-6.5
3801.299	-4.5
3803.952	-2.5
3806.602	-2.5
3809.251	0.5
3811.897	-1.5
3814.542	-2.5
3817.184	-3.5
3819.825	-4.5
3822.463	-7.5
3825.1	-4.5
3827.735	-5.5
3830.367	-1.5
3832.998	-0.5
3835.627	2.5
3838.253	-1.5
3840.878	-5.5
3843.501	-3.5
3846.122	-5.5
3848.741	-2.5
3851.358	-3.5
3853.973	-1.5
3856.586	-3.5
3859.197	-2.5
3861.806	-5.5
3864.414	-4.5
3867.019	-3.5
3869.622	-5.5
3872.224	-4.5
3874.823	-2.5
3877.421	-2.5
3880.016	-2.5
3882.61	-2.5
3885.202	6.5
3887.792	2.5
3890.38	-1.5
3892.966	-3.5
3895.55	-1.5
3898.132	-2.5
3900.713	-1.5
3903.291	-1.5
3905.868	-0.5
3908.442	-1.5
3911.015	-2.5
3913.586	-4.5
3916.155	1.5
3918.722	-2.5
3921.287	-2.5
3923.85	-2.5
3926.411	-2.5
3928.971	-5.5
3931.528	-3.5
3934.084	-5.5
3936.638	0.5
3939.19	-2.5
3941.74	-3.5
3944.288	-5.5
3946.834	-2.5
3949.378	-2.5
3951.921	-3.5
3954.462	-4.5
3957	-4.5
3959.537	-1.5
3962.072	-0.5
3964.606	-2.5
3967.137	-3.5
3969.667	-0.5
3972.194	-6.5
3974.72	-6.5
3977.244	-4.5
3979.766	-2.5
3982.286	-4.5
3984.805	0.5
3987.321	-0.5
3989.836	-2.5
3992.349	0.5
3994.86	0.5
3997.369	-7.5
3999.877	-2.5
4002.382	-2.5
4004.886	-4.5
4007.388	-2.5
4009.888	-3.5
4012.386	-1.5
4014.883	-4.5
4017.377	-0.5
4019.87	-3.5
4022.361	-4.5
4024.85	-5.5
4027.338	-2.5
4029.823	-2.5
4032.307	-2.5
4034.789	-1.5
4037.269	-2.5
4039.747	-5.5
4042.224	-1.5
4044.699	-8.5
4047.172	-3.5
4049.643	-5.5
4052.112	-3.5
4054.58	-3.5
4057.046	-1.5
4059.51	0.5
4061.972	1.5
4064.432	-4.5
4066.891	-4.5
4069.348	-1.5
4071.803	-2.5
4074.256	-5.5
4076.708	0.5
4079.158	1.5
4081.606	-4.5
4084.052	0.5
4086.497	-2.5
4088.939	-2.5
4091.38	-2.5
4093.819	-5.5
4096.257	-7.5
4098.693	-5.5
4101.127	-2.5
4103.559	-0.5
4105.989	6.5
4108.418	4.5
4110.845	2.5
4113.27	1.5
4115.694	1.5
4118.115	-1.5
4120.535	-3.5
4122.954	-4.5
4125.37	-5.5
4127.785	-4.5
4130.198	-1.5
4132.609	-3.5
4135.019	-1.5
4137.427	-4.5
4139.833	-4.5
4142.237	-5.5
