Data from 2_n=3_RamanShift_03.txt Node
Date: Mon Mar 19 12:31:33 IST 2018
User: aro
Spectrometer: QEPB0276
Trigger mode: 0
Integration Time (sec): 5.000000E0
Scans to average: 1
Electric dark correction enabled: true
Nonlinearity correction enabled: false
Boxcar width: 0
XAxis mode: Raman Shifts
Number of Pixels in Spectrum: 1044
>>>>>Begin Spectral Data<<<<<
160.701	0.9
166.742	-0.1
172.777	0.9
178.805	11.9
184.826	21.9
190.841	43.9
196.849	70.9
202.85	91.9
208.845	96.9
214.833	101.9
220.815	98.9
226.789	103.9
232.758	107.9
238.719	104.9
244.674	103.9
250.623	101.9
256.565	103.9
262.5	103.9
268.429	107.9
274.351	108.9
280.267	108.9
286.176	109.9
292.079	110.9
297.975	110.9
303.865	114.9
309.748	112.9
315.625	113.9
321.495	110.9
327.359	116.9
333.217	118.9
339.068	119.9
344.912	122.9
350.751	114.9
356.583	115.9
362.408	113.9
368.227	116.9
374.04	116.9
379.847	125.9
385.647	132.9
391.44	134.9
397.228	127.9
403.009	126.9
408.784	130.9
414.553	141.9
420.315	147.9
426.071	155.9
431.821	144.9
437.565	128.9
443.302	121.9
449.033	126.9
454.758	122.9
460.477	116.9
466.189	119.9
471.896	112.9
477.596	113.9
483.29	116.9
488.978	112.9
494.66	108.9
500.335	109.9
506.005	94.9
511.668	88.9
517.325	88.9
522.977	77.9
528.622	77.9
534.261	76.9
539.894	73.9
545.521	74.9
551.141	73.9
556.756	71.9
562.365	65.9
567.968	68.9
573.565	64.9
579.155	61.9
584.74	62.9
590.319	65.9
595.892	66.9
601.459	66.9
607.02	70.9
612.575	64.9
618.124	64.9
623.667	62.9
629.204	60.9
634.735	57.9
640.261	61.9
645.781	56.9
651.294	70.9
656.802	73.9
662.304	60.9
667.8	59.9
673.29	56.9
678.775	57.9
684.254	55.9
689.726	51.9
695.193	52.9
700.655	52.9
706.11	55.9
711.56	54.9
717.004	54.9
722.442	53.9
727.874	54.9
733.301	49.9
738.722	54.9
744.137	51.9
749.547	49.9
754.951	52.9
760.349	53.9
765.741	57.9
771.128	55.9
776.509	55.9
781.885	57.9
787.254	60.9
792.618	54.9
797.977	58.9
803.33	59.9
808.677	64.9
814.019	66.9
819.355	67.9
824.686	59.9
830.011	54.9
835.33	56.9
840.644	58.9
845.952	59.9
851.255	57.9
856.552	52.9
861.844	56.9
867.13	52.9
872.41	51.9
877.686	46.9
882.955	47.9
888.219	45.9
893.478	42.9
898.731	44.9
903.979	41.9
909.221	51.9
914.458	46.9
919.69	46.9
924.916	44.9
930.136	43.9
935.351	45.9
940.561	41.9
945.766	47.9
950.965	44.9
956.158	42.9
961.347	43.9
966.529	47.9
971.707	40.9
976.879	42.9
982.046	44.9
987.208	44.9
992.364	40.9
997.515	38.9
1002.66	47.9
1007.801	47.9
1012.936	41.9
1018.066	40.9
1023.19	40.9
1028.309	39.9
1033.423	41.9
1038.532	46.9
1043.636	46.9
1048.734	49.9
1053.827	41.9
1058.915	37.9
1063.998	38.9
1069.075	37.9
1074.147	34.9
1079.214	38.9
1084.276	39.9
1089.333	46.9
1094.385	43.9
1099.431	42.9
1104.472	39.9
1109.509	40.9
1114.54	32.9
1119.565	34.9
1124.586	38.9
1129.602	36.9
1134.613	38.9
1139.618	39.9
1144.619	39.9
1149.614	42.9
1154.604	40.9
1159.589	45.9
1164.57	42.9
1169.545	38.9
1174.515	42.9
1179.48	43.9
1184.44	42.9
1189.395	37.9
1194.345	41.9
1199.29	35.9
1204.23	36.9
1209.165	34.9
1214.095	34.9
1219.021	36.9
1223.941	39.9
1228.856	36.9
1233.766	38.9
1238.672	37.9
1243.572	40.9
1248.467	37.9
1253.358	32.9
1258.244	35.9
1263.124	29.9
1268	26.9
1272.871	31.9
1277.737	34.9
1282.599	33.9
1287.455	35.9
1292.306	36.9
1297.153	33.9
1301.995	32.9
1306.832	33.9
1311.664	26.9
1316.491	34.9
1321.314	32.9
1326.132	40.9
1330.945	38.9
1335.753	44.9
1340.556	36.9
1345.354	32.9
1350.148	32.9
1354.937	28.9
1359.722	30.9
1364.501	34.9
1369.276	37.9
1374.046	35.9
1378.811	29.9
1383.572	22.9
1388.327	27.9
1393.079	28.9
1397.825	24.9
1402.567	25.9
1407.304	23.9
1412.036	23.9
1416.764	22.9
1421.487	33.9
1426.205	26.9
1430.919	28.9
1435.628	31.9
1440.333	36.9
1445.032	35.9
1449.727	33.9
1454.418	37.9
1459.104	42.9
1463.785	43.9
1468.462	46.9
1473.134	40.9
1477.802	32.9
1482.465	28.9
1487.123	27.9
1491.777	27.9
1496.426	24.9
1501.071	23.9
1505.711	26.9
1510.347	26.9
1514.978	27.9
1519.604	25.9
1524.226	19.9
1528.844	28.9
1533.457	27.9
1538.065	27.9
1542.669	25.9
1547.269	21.9
1551.864	20.9
1556.454	22.9
1561.041	25.9
1565.622	20.9
1570.199	23.9
1574.772	19.9
1579.34	19.9
1583.904	23.9
1588.464	22.9
1593.019	21.9
1597.569	21.9
1602.115	23.9
1606.657	20.9
1611.195	24.9
1615.728	23.9
1620.256	20.9
1624.78	20.9
1629.3	19.9
1633.816	19.9
1638.327	20.9
1642.834	21.9
1647.336	21.9
1651.834	23.9
1656.328	22.9
1660.817	20.9
1665.302	23.9
1669.783	18.9
1674.259	17.9
1678.732	20.9
1683.199	21.9
1687.663	19.9
1692.122	19.9
1696.577	20.9
1701.028	24.9
1705.474	18.9
1709.917	20.9
1714.355	14.9
1718.788	19.9
1723.218	17.9
1727.643	16.9
1732.064	17.9
1736.481	19.9
1740.893	18.9
1745.301	20.9
1749.705	17.9
1754.105	16.9
1758.501	15.9
1762.893	11.9
1767.28	14.9
1771.663	15.9
1776.042	11.9
1780.417	17.9
1784.787	18.9
1789.154	15.9
1793.516	16.9
1797.874	14.9
1802.228	10.9
1806.578	11.9
1810.924	15.9
1815.266	13.9
1819.603	12.9
1823.937	19.9
1828.266	13.9
1832.591	14.9
1836.913	12.9
1841.23	13.9
1845.543	10.9
1849.852	12.9
1854.156	11.9
1858.457	11.9
1862.754	18.9
1867.047	14.9
1871.335	15.9
1875.62	11.9
1879.9	13.9
1884.177	14.9
1888.449	10.9
1892.718	12.9
1896.982	13.9
1901.243	15.9
1905.499	14.9
1909.752	13.9
1914	11.9
1918.245	8.9
1922.485	6.9
1926.722	15.9
1930.954	13.9
1935.183	13.9
1939.408	16.9
1943.628	17.9
1947.845	12.9
1952.058	12.9
1956.267	7.9
1960.472	6.9
1964.673	12.9
1968.87	7.9
1973.063	9.9
1977.252	12.9
1981.438	12.9
1985.619	11.9
1989.797	10.9
1993.971	8.9
1998.14	9.9
2002.306	5.9
2006.469	9.9
2010.627	8.9
2014.781	14.9
2018.932	14.9
2023.078	11.9
2027.221	12.9
2031.36	6.9
2035.495	6.9
2039.627	6.9
2043.754	5.9
2047.878	12.9
2051.998	14.9
2056.114	8.9
2060.226	17.9
2064.334	6.9
2068.439	6.9
2072.54	5.9
2076.637	4.9
2080.73	8.9
2084.82	8.9
2088.906	10.9
2092.988	11.9
2097.066	9.9
2101.14	12.9
2105.211	9.9
2109.278	8.9
2113.342	7.9
2117.401	5.9
2121.457	9.9
2125.509	11.9
2129.558	10.9
2133.602	10.9
2137.643	7.9
2141.681	7.9
2145.714	4.9
2149.744	8.9
2153.77	5.9
2157.793	9.9
2161.812	11.9
2165.827	9.9
2169.838	6.9
2173.846	6.9
2177.851	7.9
2181.851	5.9
2185.848	9.9
2189.841	5.9
2193.831	0.9
2197.817	8.9
2201.799	6.9
2205.778	7.9
2209.753	8.9
2213.725	4.9
2217.693	7.9
2221.657	4.9
2225.618	1.9
2229.575	10.9
2233.529	6.9
2237.479	4.9
2241.425	2.9
2245.368	7.9
2249.307	2.9
2253.243	5.9
2257.175	1.9
2261.104	7.9
2265.029	3.9
2268.95	0.9
2272.868	2.9
2276.783	2.9
2280.694	6.9
2284.601	5.9
2288.505	6.9
2292.405	4.9
2296.302	6.9
2300.195	5.9
2304.085	4.9
2307.971	3.9
2311.854	1.9
2315.734	3.9
2319.609	3.9
2323.482	5.9
2327.351	3.9
2331.216	7.9
2335.078	5.9
2338.937	5.9
2342.792	0.9
2346.643	-1.1
2350.492	3.9
2354.336	1.9
2358.178	6.9
2362.015	6.9
2365.85	3.9
2369.681	4.9
2373.508	2.9
2377.333	0.9
2381.153	2.9
2384.971	1.9
2388.785	2.9
2392.595	5.9
2396.402	4.9
2400.206	4.9
2404.007	2.9
2407.804	1.9
2411.597	1.9
2415.388	0.9
2419.174	3.9
2422.958	4.9
2426.738	-0.1
2430.515	3.9
2434.289	4.9
2438.059	2.9
2441.825	-0.1
2445.589	2.9
2449.349	2.9
2453.106	2.9
2456.859	1.9
2460.61	3.9
2464.356	5.9
2468.1	1.9
2471.84	1.9
2475.577	3.9
2479.311	1.9
2483.041	3.9
2486.768	2.9
2490.492	1.9
2494.213	1.9
2497.93	1.9
2501.644	1.9
2505.355	-0.1
2509.062	1.9
2512.766	2.9
2516.467	2.9
2520.165	3.9
2523.859	2.9
2527.551	-1.1
2531.239	-0.1
2534.923	1.9
2538.605	-2.1
2542.283	-3.1
2545.958	3.9
2549.63	2.9
2553.299	3.9
2556.964	5.9
2560.626	3.9
2564.285	-3.1
2567.941	-1.1
2571.594	-2.1
2575.243	-4.1
2578.89	0.9
2582.533	2.9
2586.173	4.9
2589.809	2.9
2593.443	4.9
2597.073	3.9
2600.701	-0.1
2604.325	-1.1
2607.946	-2.1
2611.564	3.9
2615.178	3.9
2618.79	3.9
2622.398	5.9
2626.004	5.9
2629.606	2.9
2633.205	0.9
2636.801	2.9
2640.394	-3.1
2643.983	-1.1
2647.57	0.9
2651.153	1.9
2654.734	2.9
2658.311	0.9
2661.885	1.9
2665.456	1.9
2669.025	0.9
2672.589	3.9
2676.151	1.9
2679.71	0.9
2683.266	-0.1
2686.819	5.9
2690.368	1.9
2693.915	-0.1
2697.458	-0.1
2700.999	2.9
2704.536	2.9
2708.071	3.9
2711.602	-0.1
2715.13	0.9
2718.656	0.9
2722.178	-0.1
2725.697	1.9
2729.214	1.9
2732.727	4.9
2736.237	3.9
2739.744	7.9
2743.249	6.9
2746.75	-1.1
2750.248	-0.1
2753.743	-0.1
2757.236	-1.1
2760.725	-3.1
2764.211	1.9
2767.695	3.9
2771.175	1.9
2774.652	5.9
2778.127	0.9
2781.598	2.9
2785.067	-1.1
2788.532	-1.1
2791.995	-0.1
2795.455	-1.1
2798.911	0.9
2802.365	2.9
2805.816	5.9
2809.264	4.9
2812.709	-0.1
2816.151	0.9
2819.59	-4.1
2823.026	-2.1
2826.46	-3.1
2829.89	1.9
2833.318	1.9
2836.742	3.9
2840.164	10.9
2843.583	11.9
2846.999	8.9
2850.412	7.9
2853.822	3.9
2857.229	5.9
2860.634	2.9
2864.035	7.9
2867.434	10.9
2870.83	15.9
2874.223	14.9
2877.613	16.9
2881	9.9
2884.385	16.9
2887.766	13.9
2891.145	17.9
2894.521	14.9
2897.894	15.9
2901.264	15.9
2904.631	15.9
2907.996	13.9
2911.358	12.9
2914.717	9.9
2918.073	5.9
2921.426	7.9
2924.777	3.9
2928.124	5.9
2931.469	8.9
2934.811	8.9
2938.15	10.9
2941.487	6.9
2944.821	4.9
2948.152	4.9
2951.48	4.9
2954.805	9.9
2958.128	7.9
2961.447	5.9
2964.765	5.9
2968.079	14.9
2971.39	10.9
2974.699	5.9
2978.005	1.9
2981.308	1.9
2984.609	-2.1
2987.907	-2.1
2991.202	-0.1
2994.494	5.9
2997.784	2.9
3001.07	5.9
3004.355	-0.1
3007.636	3.9
3010.915	1.9
3014.191	0.9
3017.464	-3.1
3020.734	-0.1
3024.002	-0.1
3027.267	0.9
3030.53	2.9
3033.789	2.9
3037.046	-3.1
3040.301	-0.1
3043.552	-3.1
3046.801	0.9
3050.048	-2.1
3053.291	-4.1
3056.532	-1.1
3059.771	1.9
3063.006	-0.1
3066.239	1.9
3069.469	1.9
3072.697	-1.1
3075.922	-2.1
3079.144	-2.1
3082.364	-2.1
3085.581	-3.1
3088.795	0.9
3092.007	0.9
3095.216	-2.1
3098.423	0.9
3101.627	-1.1
3104.828	-0.1
3108.026	-0.1
3111.222	-2.1
3114.416	1.9
3117.607	2.9
3120.795	1.9
3123.98	1.9
3127.163	2.9
3130.344	-0.1
3133.521	-0.1
3136.696	-0.1
3139.869	2.9
3143.039	2.9
3146.206	1.9
3149.371	0.9
3152.533	1.9
3155.693	0.9
3158.85	-0.1
3162.005	0.9
3165.157	-2.1
3168.306	-4.1
3171.453	-4.1
3174.597	1.9
3177.739	1.9
3180.878	1.9
3184.014	1.9
3187.149	-3.1
3190.28	-3.1
3193.409	-3.1
3196.536	-1.1
3199.659	0.9
3202.781	2.9
3205.9	2.9
3209.016	-0.1
3212.13	-0.1
3215.241	-0.1
3218.35	3.9
3221.456	-0.1
3224.56	-1.1
3227.661	-0.1
3230.76	4.9
3233.856	-0.1
3236.95	5.9
3240.041	3.9
3243.13	-3.1
3246.216	-0.1
3249.3	2.9
3252.382	-1.1
3255.46	1.9
3258.537	-2.1
3261.611	0.9
3264.682	1.9
3267.751	0.9
3270.818	-0.1
3273.882	-0.1
3276.943	-3.1
3280.002	1.9
3283.059	1.9
3286.113	-1.1
3289.165	-2.1
3292.214	-2.1
3295.261	-4.1
3298.306	0.9
3301.348	-0.1
3304.387	-2.1
3307.425	0.9
3310.459	-1.1
3313.492	-3.1
3316.521	-1.1
3319.549	-2.1
3322.574	-0.1
3325.597	-0.1
3328.617	-3.1
3331.635	1.9
3334.65	-2.1
3337.663	0.9
3340.674	0.9
3343.682	0.9
3346.688	-0.1
3349.691	-3.1
3352.692	-4.1
3355.691	-1.1
3358.687	-5.1
3361.681	0.9
3364.673	2.9
3367.662	-2.1
3370.649	2.9
3373.633	-1.1
3376.615	-0.1
3379.595	-5.1
3382.572	-0.1
3385.547	-3.1
3388.52	-1.1
3391.49	-0.1
3394.458	-0.1
3397.424	0.9
3400.387	-2.1
3403.348	-3.1
3406.307	-4.1
3409.263	-1.1
3412.217	-3.1
3415.168	-3.1
3418.118	-0.1
3421.065	3.9
3424.009	-0.1
3426.951	-3.1
3429.891	-3.1
3432.829	-3.1
3435.764	-1.1
3438.697	-3.1
3441.628	0.9
3444.557	-0.1
3447.483	1.9
3450.407	-0.1
3453.328	1.9
3456.247	-5.1
3459.164	-2.1
3462.079	-3.1
3464.991	-0.1
3467.902	-2.1
3470.809	0.9
3473.715	0.9
3476.618	-1.1
3479.519	-5.1
3482.418	-2.1
3485.315	-4.1
3488.209	-4.1
3491.101	-1.1
3493.99	-4.1
3496.878	-0.1
3499.763	-1.1
3502.646	-1.1
3505.527	-2.1
3508.405	-2.1
3511.281	-3.1
3514.155	-3.1
3517.027	0.9
3519.897	-0.1
3522.764	-2.1
3525.629	-0.1
3528.492	-2.1
3531.352	-4.1
3534.211	-2.1
3537.067	-7.1
3539.921	-5.1
3542.773	-3.1
3545.622	0.9
3548.469	-2.1
3551.315	1.9
3554.157	-0.1
3556.998	0.9
3559.837	-4.1
3562.673	-5.1
3565.507	-3.1
3568.339	-3.1
3571.169	-1.1
3573.996	1.9
3576.822	0.9
3579.645	0.9
3582.466	-3.1
3585.285	-0.1
3588.101	-4.1
3590.916	0.9
3593.728	-3.1
3596.538	-3.1
3599.346	-3.1
3602.152	-0.1
3604.956	-2.1
3607.757	-2.1
3610.556	-3.1
3613.354	-2.1
3616.149	-6.1
3618.942	-4.1
3621.732	-0.1
3624.521	-3.1
3627.307	1.9
3630.092	-3.1
3632.874	-1.1
3635.654	-4.1
3638.432	-4.1
3641.208	-4.1
3643.982	-0.1
3646.753	-2.1
3649.523	-5.1
3652.29	-1.1
3655.055	-6.1
3657.818	-6.1
3660.579	0.9
3663.338	-3.1
3666.095	1.9
3668.849	-2.1
3671.602	-3.1
3674.352	-2.1
3677.101	-5.1
3679.847	-4.1
3682.591	-0.1
3685.333	-4.1
3688.073	-2.1
3690.811	2.9
3693.547	1.9
3696.281	-4.1
3699.013	-4.1
3701.742	-2.1
3704.47	-6.1
3707.195	-1.1
3709.919	-4.1
3712.64	-2.1
3715.359	-2.1
3718.076	-1.1
3720.792	-1.1
3723.505	-4.1
3726.216	-4.1
3728.925	-6.1
3731.632	-5.1
3734.336	-5.1
3737.039	0.9
3739.74	1.9
3742.439	2.9
3745.136	-1.1
3747.83	-4.1
3750.523	-1.1
3753.213	-1.1
3755.902	-4.1
3758.589	-6.1
3761.273	0.9
3763.956	0.9
3766.636	-3.1
3769.315	-4.1
3771.991	-4.1
3774.665	1.9
3777.338	-2.1
3780.008	-0.1
3782.677	-3.1
3785.343	-1.1
3788.007	-4.1
3790.67	-3.1
3793.33	-3.1
3795.989	-4.1
3798.645	-4.1
3801.299	-3.1
3803.952	-2.1
3806.602	-1.1
3809.251	-1.1
3811.897	-2.1
3814.542	-3.1
3817.184	-7.1
3819.825	-5.1
3822.463	-3.1
3825.1	-4.1
3827.735	-2.1
3830.367	-0.1
3832.998	-3.1
3835.627	0.9
3838.253	-1.1
3840.878	-3.1
3843.501	-5.1
3846.122	-5.1
3848.741	-2.1
3851.358	-0.1
3853.973	-1.1
3856.586	-3.1
3859.197	0.9
3861.806	-5.1
3864.414	-6.1
3867.019	-4.1
3869.622	-6.1
3872.224	-4.1
3874.823	0.9
3877.421	1.9
3880.016	-2.1
3882.61	-0.1
3885.202	1.9
3887.792	-2.1
3890.38	-4.1
3892.966	-1.1
3895.55	-1.1
3898.132	-0.1
3900.713	-0.1
3903.291	-2.1
3905.868	-3.1
3908.442	-3.1
3911.015	-9.1
3913.586	-4.1
3916.155	0.9
3918.722	-1.1
3921.287	0.9
3923.85	-0.1
3926.411	-2.1
3928.971	-4.1
3931.528	-1.1
3934.084	-4.1
3936.638	-4.1
3939.19	-7.1
3941.74	-2.1
3944.288	-1.1
3946.834	-0.1
3949.378	1.9
3951.921	-1.1
3954.462	-5.1
3957	-4.1
3959.537	-4.1
3962.072	-3.1
3964.606	-2.1
3967.137	-6.1
3969.667	-1.1
3972.194	-4.1
3974.72	-3.1
3977.244	-1.1
3979.766	-0.1
3982.286	-7.1
3984.805	-2.1
3987.321	-4.1
3989.836	-4.1
3992.349	-0.1
3994.86	-0.1
3997.369	-4.1
3999.877	-3.1
4002.382	-2.1
4004.886	-2.1
4007.388	-0.1
4009.888	-3.1
4012.386	-3.1
4014.883	-5.1
4017.377	-3.1
4019.87	-1.1
4022.361	-1.1
4024.85	-4.1
4027.338	-3.1
4029.823	-3.1
4032.307	-4.1
4034.789	-2.1
4037.269	-1.1
4039.747	-1.1
4042.224	-0.1
4044.699	-5.1
4047.172	-2.1
4049.643	-3.1
4052.112	-4.1
4054.58	-2.1
4057.046	-0.1
4059.51	-1.1
4061.972	-1.1
4064.432	-5.1
4066.891	-2.1
4069.348	-0.1
4071.803	-4.1
4074.256	-3.1
4076.708	-0.1
4079.158	0.9
4081.606	-4.1
4084.052	-1.1
4086.497	-2.1
4088.939	-1.1
4091.38	-3.1
4093.819	-6.1
4096.257	-3.1
4098.693	-3.1
4101.127	-1.1
4103.559	0.9
4105.989	1.9
4108.418	1.9
4110.845	-0.1
4113.27	-1.1
4115.694	-1.1
4118.115	2.9
4120.535	-4.1
4122.954	-1.1
4125.37	-5.1
4127.785	-3.1
4130.198	-1.1
4132.609	-3.1
4135.019	-2.1
4137.427	-4.1
4139.833	-2.1
4142.237	-5.1
