Data from 2_n=2_RamanShift_03.txt Node
Date: Mon Mar 19 12:29:28 IST 2018
User: aro
Spectrometer: QEPB0276
Trigger mode: 0
Integration Time (sec): 5.000000E0
Scans to average: 1
Electric dark correction enabled: true
Nonlinearity correction enabled: false
Boxcar width: 0
XAxis mode: Raman Shifts
Number of Pixels in Spectrum: 1044
>>>>>Begin Spectral Data<<<<<
160.701	0.5
166.742	3.5
172.777	1.5
178.805	9.5
184.826	20.5
190.841	44.5
196.849	73.5
202.85	86.5
208.845	98.5
214.833	102.5
220.815	94.5
226.789	101.5
232.758	101.5
238.719	107.5
244.674	104.5
250.623	105.5
256.565	104.5
262.5	104.5
268.429	109.5
274.351	109.5
280.267	111.5
286.176	111.5
292.079	112.5
297.975	110.5
303.865	107.5
309.748	114.5
315.625	112.5
321.495	114.5
327.359	116.5
333.217	120.5
339.068	116.5
344.912	116.5
350.751	112.5
356.583	115.5
362.408	115.5
368.227	120.5
374.04	119.5
379.847	126.5
385.647	134.5
391.44	129.5
397.228	128.5
403.009	129.5
408.784	128.5
414.553	138.5
420.315	155.5
426.071	167.5
431.821	146.5
437.565	129.5
443.302	125.5
449.033	130.5
454.758	126.5
460.477	113.5
466.189	114.5
471.896	110.5
477.596	112.5
483.29	108.5
488.978	114.5
494.66	109.5
500.335	113.5
506.005	100.5
511.668	92.5
517.325	87.5
522.977	77.5
528.622	76.5
534.261	79.5
539.894	76.5
545.521	72.5
551.141	72.5
556.756	69.5
562.365	67.5
567.968	66.5
573.565	64.5
579.155	61.5
584.74	59.5
590.319	63.5
595.892	62.5
601.459	67.5
607.02	68.5
612.575	65.5
618.124	65.5
623.667	60.5
629.204	58.5
634.735	57.5
640.261	63.5
645.781	65.5
651.294	76.5
656.802	72.5
662.304	62.5
667.8	59.5
673.29	55.5
678.775	55.5
684.254	54.5
689.726	50.5
695.193	55.5
700.655	55.5
706.11	56.5
711.56	54.5
717.004	52.5
722.442	50.5
727.874	48.5
733.301	48.5
738.722	49.5
744.137	51.5
749.547	52.5
754.951	53.5
760.349	57.5
765.741	56.5
771.128	55.5
776.509	51.5
781.885	57.5
787.254	55.5
792.618	54.5
797.977	56.5
803.33	58.5
808.677	63.5
814.019	67.5
819.355	63.5
824.686	54.5
830.011	51.5
835.33	54.5
840.644	53.5
845.952	53.5
851.255	55.5
856.552	56.5
861.844	53.5
867.13	50.5
872.41	50.5
877.686	46.5
882.955	44.5
888.219	48.5
893.478	40.5
898.731	47.5
903.979	41.5
909.221	44.5
914.458	47.5
919.69	46.5
924.916	45.5
930.136	43.5
935.351	45.5
940.561	41.5
945.766	43.5
950.965	40.5
956.158	39.5
961.347	45.5
966.529	44.5
971.707	46.5
976.879	44.5
982.046	43.5
987.208	44.5
992.364	37.5
997.515	41.5
1002.66	44.5
1007.801	42.5
1012.936	37.5
1018.066	41.5
1023.19	40.5
1028.309	41.5
1033.423	45.5
1038.532	44.5
1043.636	45.5
1048.734	44.5
1053.827	42.5
1058.915	36.5
1063.998	39.5
1069.075	36.5
1074.147	39.5
1079.214	38.5
1084.276	43.5
1089.333	44.5
1094.385	42.5
1099.431	44.5
1104.472	39.5
1109.509	35.5
1114.54	31.5
1119.565	37.5
1124.586	38.5
1129.602	36.5
1134.613	38.5
1139.618	37.5
1144.619	40.5
1149.614	38.5
1154.604	40.5
1159.589	39.5
1164.57	41.5
1169.545	42.5
1174.515	40.5
1179.48	39.5
1184.44	38.5
1189.395	38.5
1194.345	37.5
1199.29	32.5
1204.23	36.5
1209.165	32.5
1214.095	31.5
1219.021	38.5
1223.941	41.5
1228.856	37.5
1233.766	36.5
1238.672	35.5
1243.572	36.5
1248.467	33.5
1253.358	32.5
1258.244	34.5
1263.124	31.5
1268	30.5
1272.871	31.5
1277.737	32.5
1282.599	35.5
1287.455	33.5
1292.306	35.5
1297.153	31.5
1301.995	29.5
1306.832	30.5
1311.664	31.5
1316.491	34.5
1321.314	33.5
1326.132	37.5
1330.945	34.5
1335.753	34.5
1340.556	34.5
1345.354	33.5
1350.148	30.5
1354.937	29.5
1359.722	31.5
1364.501	32.5
1369.276	37.5
1374.046	37.5
1378.811	27.5
1383.572	22.5
1388.327	28.5
1393.079	26.5
1397.825	26.5
1402.567	27.5
1407.304	30.5
1412.036	27.5
1416.764	27.5
1421.487	30.5
1426.205	24.5
1430.919	27.5
1435.628	23.5
1440.333	33.5
1445.032	33.5
1449.727	33.5
1454.418	35.5
1459.104	41.5
1463.785	41.5
1468.462	34.5
1473.134	34.5
1477.802	27.5
1482.465	25.5
1487.123	25.5
1491.777	25.5
1496.426	26.5
1501.071	27.5
1505.711	26.5
1510.347	26.5
1514.978	22.5
1519.604	24.5
1524.226	20.5
1528.844	22.5
1533.457	26.5
1538.065	28.5
1542.669	24.5
1547.269	26.5
1551.864	24.5
1556.454	24.5
1561.041	20.5
1565.622	20.5
1570.199	22.5
1574.772	26.5
1579.34	20.5
1583.904	21.5
1588.464	27.5
1593.019	19.5
1597.569	21.5
1602.115	23.5
1606.657	18.5
1611.195	20.5
1615.728	19.5
1620.256	18.5
1624.78	24.5
1629.3	23.5
1633.816	21.5
1638.327	27.5
1642.834	20.5
1647.336	17.5
1651.834	17.5
1656.328	22.5
1660.817	19.5
1665.302	22.5
1669.783	20.5
1674.259	22.5
1678.732	25.5
1683.199	19.5
1687.663	22.5
1692.122	17.5
1696.577	18.5
1701.028	20.5
1705.474	19.5
1709.917	22.5
1714.355	19.5
1718.788	21.5
1723.218	17.5
1727.643	16.5
1732.064	16.5
1736.481	15.5
1740.893	13.5
1745.301	21.5
1749.705	18.5
1754.105	19.5
1758.501	20.5
1762.893	15.5
1767.28	15.5
1771.663	15.5
1776.042	10.5
1780.417	14.5
1784.787	17.5
1789.154	15.5
1793.516	19.5
1797.874	20.5
1802.228	19.5
1806.578	11.5
1810.924	15.5
1815.266	14.5
1819.603	10.5
1823.937	18.5
1828.266	12.5
1832.591	15.5
1836.913	10.5
1841.23	17.5
1845.543	16.5
1849.852	11.5
1854.156	11.5
1858.457	12.5
1862.754	18.5
1867.047	11.5
1871.335	17.5
1875.62	14.5
1879.9	15.5
1884.177	13.5
1888.449	11.5
1892.718	14.5
1896.982	12.5
1901.243	15.5
1905.499	12.5
1909.752	10.5
1914	12.5
1918.245	11.5
1922.485	13.5
1926.722	12.5
1930.954	12.5
1935.183	13.5
1939.408	8.5
1943.628	14.5
1947.845	12.5
1952.058	16.5
1956.267	11.5
1960.472	14.5
1964.673	12.5
1968.87	9.5
1973.063	12.5
1977.252	8.5
1981.438	6.5
1985.619	14.5
1989.797	11.5
1993.971	9.5
1998.14	13.5
2002.306	15.5
2006.469	12.5
2010.627	13.5
2014.781	10.5
2018.932	11.5
2023.078	5.5
2027.221	10.5
2031.36	7.5
2035.495	16.5
2039.627	10.5
2043.754	9.5
2047.878	11.5
2051.998	14.5
2056.114	10.5
2060.226	11.5
2064.334	5.5
2068.439	9.5
2072.54	7.5
2076.637	13.5
2080.73	11.5
2084.82	10.5
2088.906	11.5
2092.988	9.5
2097.066	8.5
2101.14	11.5
2105.211	10.5
2109.278	10.5
2113.342	9.5
2117.401	8.5
2121.457	11.5
2125.509	14.5
2129.558	8.5
2133.602	10.5
2137.643	2.5
2141.681	6.5
2145.714	5.5
2149.744	7.5
2153.77	10.5
2157.793	12.5
2161.812	10.5
2165.827	10.5
2169.838	5.5
2173.846	5.5
2177.851	5.5
2181.851	5.5
2185.848	6.5
2189.841	9.5
2193.831	7.5
2197.817	12.5
2201.799	8.5
2205.778	4.5
2209.753	6.5
2213.725	4.5
2217.693	4.5
2221.657	-0.5
2225.618	6.5
2229.575	12.5
2233.529	6.5
2237.479	7.5
2241.425	4.5
2245.368	6.5
2249.307	2.5
2253.243	6.5
2257.175	3.5
2261.104	9.5
2265.029	4.5
2268.95	3.5
2272.868	5.5
2276.783	5.5
2280.694	7.5
2284.601	6.5
2288.505	2.5
2292.405	6.5
2296.302	4.5
2300.195	7.5
2304.085	2.5
2307.971	6.5
2311.854	5.5
2315.734	6.5
2319.609	5.5
2323.482	2.5
2327.351	2.5
2331.216	5.5
2335.078	3.5
2338.937	3.5
2342.792	-1.5
2346.643	0.5
2350.492	4.5
2354.336	8.5
2358.178	5.5
2362.015	9.5
2365.85	3.5
2369.681	7.5
2373.508	-1.5
2377.333	1.5
2381.153	1.5
2384.971	3.5
2388.785	4.5
2392.595	6.5
2396.402	6.5
2400.206	7.5
2404.007	3.5
2407.804	3.5
2411.597	2.5
2415.388	0.5
2419.174	3.5
2422.958	2.5
2426.738	-2.5
2430.515	4.5
2434.289	3.5
2438.059	6.5
2441.825	-1.5
2445.589	4.5
2449.349	0.5
2453.106	2.5
2456.859	3.5
2460.61	4.5
2464.356	5.5
2468.1	-0.5
2471.84	1.5
2475.577	5.5
2479.311	2.5
2483.041	1.5
2486.768	3.5
2490.492	2.5
2494.213	1.5
2497.93	0.5
2501.644	4.5
2505.355	2.5
2509.062	2.5
2512.766	5.5
2516.467	1.5
2520.165	3.5
2523.859	2.5
2527.551	1.5
2531.239	2.5
2534.923	2.5
2538.605	2.5
2542.283	-0.5
2545.958	4.5
2549.63	2.5
2553.299	4.5
2556.964	2.5
2560.626	0.5
2564.285	-4.5
2567.941	-1.5
2571.594	-1.5
2575.243	1.5
2578.89	4.5
2582.533	4.5
2586.173	3.5
2589.809	0.5
2593.443	3.5
2597.073	0.5
2600.701	-2.5
2604.325	-1.5
2607.946	0.5
2611.564	5.5
2615.178	5.5
2618.79	3.5
2622.398	3.5
2626.004	2.5
2629.606	0.5
2633.205	-2.5
2636.801	3.5
2640.394	-1.5
2643.983	2.5
2647.57	4.5
2651.153	3.5
2654.734	4.5
2658.311	4.5
2661.885	4.5
2665.456	-0.5
2669.025	-0.5
2672.589	0.5
2676.151	-0.5
2679.71	6.5
2683.266	1.5
2686.819	8.5
2690.368	2.5
2693.915	0.5
2697.458	-2.5
2700.999	3.5
2704.536	3.5
2708.071	2.5
2711.602	1.5
2715.13	2.5
2718.656	0.5
2722.178	0.5
2725.697	2.5
2729.214	2.5
2732.727	1.5
2736.237	4.5
2739.744	0.5
2743.249	5.5
2746.75	-0.5
2750.248	-1.5
2753.743	2.5
2757.236	0.5
2760.725	0.5
2764.211	3.5
2767.695	1.5
2771.175	1.5
2774.652	2.5
2778.127	0.5
2781.598	-0.5
2785.067	-1.5
2788.532	0.5
2791.995	-0.5
2795.455	2.5
2798.911	4.5
2802.365	1.5
2805.816	3.5
2809.264	1.5
2812.709	0.5
2816.151	-0.5
2819.59	-2.5
2823.026	-0.5
2826.46	0.5
2829.89	4.5
2833.318	6.5
2836.742	6.5
2840.164	5.5
2843.583	4.5
2846.999	3.5
2850.412	-0.5
2853.822	3.5
2857.229	5.5
2860.634	3.5
2864.035	3.5
2867.434	8.5
2870.83	9.5
2874.223	11.5
2877.613	12.5
2881	4.5
2884.385	6.5
2887.766	8.5
2891.145	12.5
2894.521	9.5
2897.894	13.5
2901.264	14.5
2904.631	9.5
2907.996	11.5
2911.358	10.5
2914.717	5.5
2918.073	4.5
2921.426	5.5
2924.777	5.5
2928.124	8.5
2931.469	5.5
2934.811	5.5
2938.15	7.5
2941.487	3.5
2944.821	3.5
2948.152	-1.5
2951.48	1.5
2954.805	7.5
2958.128	8.5
2961.447	3.5
2964.765	4.5
2968.079	11.5
2971.39	1.5
2974.699	3.5
2978.005	-3.5
2981.308	-0.5
2984.609	-2.5
2987.907	4.5
2991.202	4.5
2994.494	1.5
2997.784	6.5
3001.07	3.5
3004.355	-1.5
3007.636	0.5
3010.915	1.5
3014.191	-2.5
3017.464	-2.5
3020.734	5.5
3024.002	2.5
3027.267	5.5
3030.53	3.5
3033.789	-0.5
3037.046	-3.5
3040.301	-0.5
3043.552	-3.5
3046.801	0.5
3050.048	-0.5
3053.291	-1.5
3056.532	0.5
3059.771	4.5
3063.006	0.5
3066.239	-1.5
3069.469	0.5
3072.697	-0.5
3075.922	-5.5
3079.144	0.5
3082.364	4.5
3085.581	1.5
3088.795	4.5
3092.007	2.5
3095.216	-1.5
3098.423	-2.5
3101.627	-6.5
3104.828	0.5
3108.026	-1.5
3111.222	-1.5
3114.416	2.5
3117.607	4.5
3120.795	2.5
3123.98	2.5
3127.163	0.5
3130.344	-3.5
3133.521	-2.5
3136.696	1.5
3139.869	3.5
3143.039	4.5
3146.206	3.5
3149.371	5.5
3152.533	1.5
3155.693	1.5
3158.85	-1.5
3162.005	-0.5
3165.157	-4.5
3168.306	-3.5
3171.453	2.5
3174.597	4.5
3177.739	4.5
3180.878	1.5
3184.014	-0.5
3187.149	-1.5
3190.28	-2.5
3193.409	-2.5
3196.536	-2.5
3199.659	3.5
3202.781	3.5
3205.9	5.5
3209.016	2.5
3212.13	0.5
3215.241	2.5
3218.35	2.5
3221.456	-1.5
3224.56	-4.5
3227.661	2.5
3230.76	5.5
3233.856	4.5
3236.95	7.5
3240.041	0.5
3243.13	-2.5
3246.216	-2.5
3249.3	0.5
3252.382	-2.5
3255.46	1.5
3258.537	1.5
3261.611	6.5
3264.682	2.5
3267.751	4.5
3270.818	-0.5
3273.882	-1.5
3276.943	-0.5
3280.002	1.5
3283.059	-4.5
3286.113	2.5
3289.165	-3.5
3292.214	2.5
3295.261	-1.5
3298.306	-0.5
3301.348	-2.5
3304.387	-0.5
3307.425	-1.5
3310.459	-0.5
3313.492	-3.5
3316.521	4.5
3319.549	1.5
3322.574	-0.5
3325.597	-1.5
3328.617	-0.5
3331.635	0.5
3334.65	-4.5
3337.663	-3.5
3340.674	-0.5
3343.682	-0.5
3346.688	2.5
3349.691	1.5
3352.692	2.5
3355.691	-3.5
3358.687	-5.5
3361.681	-0.5
3364.673	1.5
3367.662	-1.5
3370.649	4.5
3373.633	-0.5
3376.615	3.5
3379.595	-3.5
3382.572	3.5
3385.547	-1.5
3388.52	0.5
3391.49	1.5
3394.458	-1.5
3397.424	-1.5
3400.387	2.5
3403.348	-3.5
3406.307	-2.5
3409.263	1.5
3412.217	-0.5
3415.168	-2.5
3418.118	-0.5
3421.065	4.5
3424.009	-4.5
3426.951	1.5
3429.891	-0.5
3432.829	0.5
3435.764	3.5
3438.697	-5.5
3441.628	-0.5
3444.557	0.5
3447.483	-2.5
3450.407	-0.5
3453.328	0.5
3456.247	-6.5
3459.164	-2.5
3462.079	-1.5
3464.991	-0.5
3467.902	-3.5
3470.809	3.5
3473.715	-0.5
3476.618	1.5
3479.519	-4.5
3482.418	-2.5
3485.315	-4.5
3488.209	-0.5
3491.101	1.5
3493.99	-3.5
3496.878	-0.5
3499.763	1.5
3502.646	-2.5
3505.527	-2.5
3508.405	-4.5
3511.281	-2.5
3514.155	-3.5
3517.027	1.5
3519.897	1.5
3522.764	-0.5
3525.629	-1.5
3528.492	-2.5
3531.352	-2.5
3534.211	-4.5
3537.067	-5.5
3539.921	-3.5
3542.773	-2.5
3545.622	4.5
3548.469	-1.5
3551.315	3.5
3554.157	-1.5
3556.998	0.5
3559.837	-7.5
3562.673	-5.5
3565.507	-5.5
3568.339	1.5
3571.169	0.5
3573.996	4.5
3576.822	1.5
3579.645	0.5
3582.466	-3.5
3585.285	-2.5
3588.101	-2.5
3590.916	-1.5
3593.728	-1.5
3596.538	-0.5
3599.346	-1.5
3602.152	1.5
3604.956	-1.5
3607.757	0.5
3610.556	-3.5
3613.354	0.5
3616.149	-4.5
3618.942	-1.5
3621.732	-0.5
3624.521	0.5
3627.307	-2.5
3630.092	0.5
3632.874	-1.5
3635.654	-0.5
3638.432	-5.5
3641.208	-1.5
3643.982	-0.5
3646.753	-2.5
3649.523	-5.5
3652.29	-1.5
3655.055	-5.5
3657.818	-2.5
3660.579	-0.5
3663.338	0.5
3666.095	1.5
3668.849	-0.5
3671.602	-3.5
3674.352	1.5
3677.101	-5.5
3679.847	-4.5
3682.591	-1.5
3685.333	-2.5
3688.073	-2.5
3690.811	2.5
3693.547	1.5
3696.281	-0.5
3699.013	-2.5
3701.742	-3.5
3704.47	-7.5
3707.195	-4.5
3709.919	-7.5
3712.64	-2.5
3715.359	-0.5
3718.076	2.5
3720.792	-1.5
3723.505	-1.5
3726.216	-2.5
3728.925	-2.5
3731.632	-5.5
3734.336	-2.5
3737.039	1.5
3739.74	-2.5
3742.439	-1.5
3745.136	-2.5
3747.83	-0.5
3750.523	-1.5
3753.213	-6.5
3755.902	-2.5
3758.589	-3.5
3761.273	0.5
3763.956	0.5
3766.636	-3.5
3769.315	-1.5
3771.991	-2.5
3774.665	0.5
3777.338	-1.5
3780.008	-2.5
3782.677	-3.5
3785.343	-1.5
3788.007	-0.5
3790.67	-2.5
3793.33	-1.5
3795.989	-2.5
3798.645	-1.5
3801.299	-3.5
3803.952	-5.5
3806.602	-1.5
3809.251	-0.5
3811.897	-2.5
3814.542	-2.5
3817.184	-3.5
3819.825	-2.5
3822.463	-1.5
3825.1	-2.5
3827.735	-2.5
3830.367	-1.5
3832.998	-3.5
3835.627	1.5
3838.253	-0.5
3840.878	-4.5
3843.501	-3.5
3846.122	-1.5
3848.741	-3.5
3851.358	-0.5
3853.973	1.5
3856.586	-0.5
3859.197	-1.5
3861.806	-6.5
3864.414	-6.5
3867.019	-4.5
3869.622	-4.5
3872.224	-1.5
3874.823	2.5
3877.421	-0.5
3880.016	-1.5
3882.61	-0.5
3885.202	0.5
3887.792	-0.5
3890.38	-4.5
3892.966	-4.5
3895.55	-3.5
3898.132	1.5
3900.713	1.5
3903.291	0.5
3905.868	0.5
3908.442	-0.5
3911.015	-5.5
3913.586	-4.5
3916.155	-3.5
3918.722	-3.5
3921.287	-4.5
3923.85	3.5
3926.411	0.5
3928.971	-3.5
3931.528	-0.5
3934.084	-3.5
3936.638	-4.5
3939.19	-7.5
3941.74	-1.5
3944.288	-3.5
3946.834	-0.5
3949.378	-0.5
3951.921	1.5
3954.462	-3.5
3957	-3.5
3959.537	2.5
3962.072	-0.5
3964.606	-1.5
3967.137	-2.5
3969.667	-1.5
3972.194	-2.5
3974.72	0.5
3977.244	-1.5
3979.766	0.5
3982.286	-3.5
3984.805	-2.5
3987.321	-2.5
3989.836	-4.5
3992.349	-2.5
3994.86	0.5
3997.369	-6.5
3999.877	-2.5
4002.382	-2.5
4004.886	-3.5
4007.388	0.5
4009.888	-3.5
4012.386	-3.5
4014.883	-4.5
4017.377	-0.5
4019.87	-2.5
4022.361	0.5
4024.85	-3.5
4027.338	-2.5
4029.823	-0.5
4032.307	0.5
4034.789	-1.5
4037.269	-0.5
4039.747	-1.5
4042.224	-2.5
4044.699	-4.5
4047.172	-0.5
4049.643	-6.5
4052.112	-5.5
4054.58	-3.5
4057.046	-0.5
4059.51	-1.5
4061.972	-3.5
4064.432	-0.5
4066.891	-4.5
4069.348	-0.5
4071.803	-2.5
4074.256	-4.5
4076.708	0.5
4079.158	0.5
4081.606	-2.5
4084.052	-0.5
4086.497	-2.5
4088.939	-2.5
4091.38	-2.5
4093.819	0.5
4096.257	-1.5
4098.693	-4.5
4101.127	-5.5
4103.559	-0.5
4105.989	4.5
4108.418	5.5
4110.845	4.5
4113.27	2.5
4115.694	2.5
4118.115	5.5
4120.535	-2.5
4122.954	-2.5
4125.37	-3.5
4127.785	-2.5
4130.198	-2.5
4132.609	-2.5
4135.019	-2.5
4137.427	-3.5
4139.833	-4.5
4142.237	-4.5
