Data from I0.2_T15s_Bsub_water_1-1_2_RamanShift_1.txt Node
Date: Mon Mar 13 12:47:10 IST 2017
User: aro
Spectrometer: QEPB0276
Trigger mode: 0
Integration Time (sec): 1.500000E1
Scans to average: 1
Electric dark correction enabled: true
Nonlinearity correction enabled: false
Boxcar width: 0
XAxis mode: Raman Shifts
Number of Pixels in Spectrum: 1044
>>>>>Begin Spectral Data<<<<<
160.701	4.38
166.742	-2.62
172.777	-4.62
178.805	5.38
184.826	-2.62
190.841	3.38
196.849	1.38
202.85	1.38
208.845	1.38
214.833	7.38
220.815	0.38
226.789	3.38
232.758	3.38
238.719	1.38
244.674	-3.62
250.623	4.38
256.565	2.38
262.5	3.38
268.429	4.38
274.351	3.38
280.267	5.38
286.176	7.38
292.079	8.38
297.975	3.38
303.865	0.38
309.748	0.38
315.625	0.38
321.495	7.38
327.359	2.38
333.217	6.38
339.068	3.38
344.912	1.38
350.751	-1.62
356.583	-0.62
362.408	-2.62
368.227	-1.62
374.04	0.38
379.847	1.38
385.647	3.38
391.44	4.38
397.228	1.38
403.009	1.38
408.784	-0.62
414.553	5.38
420.315	-6.62
426.071	0.38
431.821	0.38
437.565	6.38
443.302	3.38
449.033	3.38
454.758	2.38
460.477	1.38
466.189	2.38
471.896	5.38
477.596	0.38
483.29	5.38
488.978	-1.62
494.66	4.38
500.335	5.38
506.005	1.38
511.668	1.38
517.325	-1.62
522.977	3.38
528.622	2.38
534.261	-0.62
539.894	3.38
545.521	3.38
551.141	-2.62
556.756	2.38
562.365	5.38
567.968	3.38
573.565	-3.62
579.155	-1.62
584.74	1.38
590.319	-0.62
595.892	1.38
601.459	2.38
607.02	-0.62
612.575	1.38
618.124	-1.62
623.667	0.38
629.204	3.38
634.735	-0.62
640.261	2.38
645.781	2.38
651.294	5.38
656.802	3.38
662.304	4.38
667.8	4.38
673.29	5.38
678.775	3.38
684.254	2.38
689.726	2.38
695.193	2.38
700.655	-1.62
706.11	2.38
711.56	4.38
717.004	5.38
722.442	1.38
727.874	-0.62
733.301	3.38
738.722	0.38
744.137	-2.62
749.547	1.38
754.951	1.38
760.349	2.38
765.741	-1.62
771.128	-0.62
776.509	-1.62
781.885	1.38
787.254	3.38
792.618	2.38
797.977	0.38
803.33	1.38
808.677	5.38
814.019	5.38
819.355	7.38
824.686	2.38
830.011	2.38
835.33	3.38
840.644	-0.62
845.952	2.38
851.255	0.38
856.552	0.38
861.844	-2.62
867.13	-0.62
872.41	-0.62
877.686	1.38
882.955	-0.62
888.219	-3.62
893.478	0.38
898.731	-0.62
903.979	1.38
909.221	6.38
914.458	-1.62
919.69	0.38
924.916	2.38
930.136	5.38
935.351	-2.62
940.561	5.38
945.766	4.38
950.965	3.38
956.158	1.38
961.347	3.38
966.529	4.38
971.707	5.38
976.879	0.38
982.046	2.38
987.208	3.38
992.364	2.38
997.515	-0.62
1002.66	-1.62
1007.801	-3.62
1012.936	0.38
1018.066	-0.62
1023.19	-2.62
1028.309	-1.62
1033.423	2.38
1038.532	-2.62
1043.636	-3.62
1048.734	-0.62
1053.827	-2.62
1058.915	3.38
1063.998	2.38
1069.075	0.38
1074.147	2.38
1079.214	1.38
1084.276	3.38
1089.333	3.38
1094.385	5.38
1099.431	8.38
1104.472	4.38
1109.509	3.38
1114.54	1.38
1119.565	1.38
1124.586	-0.62
1129.602	-1.62
1134.613	0.38
1139.618	-6.62
1144.619	-0.62
1149.614	2.38
1154.604	-4.62
1159.589	0.38
1164.57	-0.62
1169.545	0.38
1174.515	2.38
1179.48	0.38
1184.44	-2.62
1189.395	1.38
1194.345	2.38
1199.29	4.38
1204.23	-0.62
1209.165	3.38
1214.095	5.38
1219.021	8.38
1223.941	0.38
1228.856	5.38
1233.766	2.38
1238.672	2.38
1243.572	5.38
1248.467	-1.62
1253.358	0.38
1258.244	1.38
1263.124	-1.62
1268	0.38
1272.871	-0.62
1277.737	1.38
1282.599	-5.62
1287.455	1.38
1292.306	1.38
1297.153	-1.62
1301.995	-0.62
1306.832	3.38
1311.664	3.38
1316.491	3.38
1321.314	1.38
1326.132	1.38
1330.945	1.38
1335.753	4.38
1340.556	2.38
1345.354	2.38
1350.148	0.38
1354.937	2.38
1359.722	0.38
1364.501	0.38
1369.276	0.38
1374.046	-0.62
1378.811	5.38
1383.572	4.38
1388.327	3.38
1393.079	-1.62
1397.825	1.38
1402.567	3.38
1407.304	-3.62
1412.036	0.38
1416.764	4.38
1421.487	2.38
1426.205	5.38
1430.919	-2.62
1435.628	1.38
1440.333	3.38
1445.032	1.38
1449.727	0.38
1454.418	-0.62
1459.104	1.38
1463.785	8.38
1468.462	-0.62
1473.134	-0.62
1477.802	4.38
1482.465	0.38
1487.123	2.38
1491.777	-1.62
1496.426	0.38
1501.071	1.38
1505.711	4.38
1510.347	4.38
1514.978	3.38
1519.604	5.38
1524.226	3.38
1528.844	-1.62
1533.457	3.38
1538.065	3.38
1542.669	0.38
1547.269	0.38
1551.864	1.38
1556.454	4.38
1561.041	4.38
1565.622	-1.62
1570.199	-1.62
1574.772	-0.62
1579.34	3.38
1583.904	-1.62
1588.464	2.38
1593.019	-2.62
1597.569	2.38
1602.115	0.38
1606.657	2.38
1611.195	1.38
1615.728	2.38
1620.256	2.38
1624.78	-1.62
1629.3	3.38
1633.816	1.38
1638.327	1.38
1642.834	-0.62
1647.336	1.38
1651.834	-0.62
1656.328	3.38
1660.817	0.38
1665.302	0.38
1669.783	-3.62
1674.259	-2.62
1678.732	2.38
1683.199	0.38
1687.663	0.38
1692.122	-1.62
1696.577	0.38
1701.028	-2.62
1705.474	-1.62
1709.917	1.38
1714.355	-2.62
1718.788	2.38
1723.218	2.38
1727.643	6.38
1732.064	-0.62
1736.481	3.38
1740.893	6.38
1745.301	-2.62
1749.705	1.38
1754.105	3.38
1758.501	-1.62
1762.893	1.38
1767.28	2.38
1771.663	-2.62
1776.042	-2.62
1780.417	0.38
1784.787	-2.62
1789.154	-0.62
1793.516	-0.62
1797.874	-0.62
1802.228	-1.62
1806.578	4.38
1810.924	0.38
1815.266	-6.62
1819.603	4.38
1823.937	3.38
1828.266	2.38
1832.591	4.38
1836.913	2.38
1841.23	3.38
1845.543	2.38
1849.852	6.38
1854.156	1.38
1858.457	2.38
1862.754	-3.62
1867.047	1.38
1871.335	1.38
1875.62	-1.62
1879.9	-0.62
1884.177	-4.62
1888.449	-1.62
1892.718	-3.62
1896.982	-0.62
1901.243	0.38
1905.499	-5.62
1909.752	-5.62
1914	-4.62
1918.245	0.38
1922.485	-0.62
1926.722	1.38
1930.954	5.38
1935.183	7.38
1939.408	3.38
1943.628	1.38
1947.845	5.38
1952.058	4.38
1956.267	0.38
1960.472	0.38
1964.673	3.38
1968.87	1.38
1973.063	-0.62
1977.252	-1.62
1981.438	-4.62
1985.619	-3.62
1989.797	-1.62
1993.971	-2.62
1998.14	-3.62
2002.306	1.38
2006.469	-4.62
2010.627	1.38
2014.781	5.38
2018.932	-1.62
2023.078	3.38
2027.221	4.38
2031.36	-1.62
2035.495	5.38
2039.627	0.38
2043.754	1.38
2047.878	0.38
2051.998	0.38
2056.114	4.38
2060.226	0.38
2064.334	-1.62
2068.439	3.38
2072.54	-3.62
2076.637	-6.62
2080.73	0.38
2084.82	-3.62
2088.906	-4.62
2092.988	-0.62
2097.066	-4.62
2101.14	-1.62
2105.211	-0.62
2109.278	1.38
2113.342	4.38
2117.401	0.38
2121.457	4.38
2125.509	0.38
2129.558	-2.62
2133.602	6.38
2137.643	1.38
2141.681	2.38
2145.714	4.38
2149.744	1.38
2153.77	-1.62
2157.793	1.38
2161.812	2.38
2165.827	1.38
2169.838	0.38
2173.846	1.38
2177.851	2.38
2181.851	2.38
2185.848	-6.62
2189.841	4.38
2193.831	-3.62
2197.817	2.38
2201.799	-8.62
2205.778	-1.62
2209.753	4.38
2213.725	-1.62
2217.693	1.38
2221.657	-0.62
2225.618	-1.62
2229.575	2.38
2233.529	2.38
2237.479	3.38
2241.425	2.38
2245.368	-2.62
2249.307	2.38
2253.243	3.38
2257.175	1.38
2261.104	4.38
2265.029	1.38
2268.95	1.38
2272.868	-0.62
2276.783	1.38
2280.694	2.38
2284.601	2.38
2288.505	3.38
2292.405	-3.62
2296.302	2.38
2300.195	-1.62
2304.085	-5.62
2307.971	1.38
2311.854	-1.62
2315.734	-5.62
2319.609	0.38
2323.482	-0.62
2327.351	-0.62
2331.216	-1.62
2335.078	-0.62
2338.937	-1.62
2342.792	-2.62
2346.643	-2.62
2350.492	5.38
2354.336	1.38
2358.178	0.38
2362.015	3.38
2365.85	1.38
2369.681	0.38
2373.508	2.38
2377.333	0.38
2381.153	-0.62
2384.971	0.38
2388.785	2.38
2392.595	-4.62
2396.402	2.38
2400.206	2.38
2404.007	1.38
2407.804	0.38
2411.597	1.38
2415.388	0.38
2419.174	5.38
2422.958	0.38
2426.738	0.38
2430.515	3.38
2434.289	3.38
2438.059	0.38
2441.825	1.38
2445.589	-1.62
2449.349	2.38
2453.106	1.38
2456.859	-0.62
2460.61	3.38
2464.356	2.38
2468.1	-0.62
2471.84	-2.62
2475.577	2.38
2479.311	0.38
2483.041	6.38
2486.768	-1.62
2490.492	-3.62
2494.213	-0.62
2497.93	5.38
2501.644	-0.62
2505.355	7.38
2509.062	5.38
2512.766	0.38
2516.467	4.38
2520.165	4.38
2523.859	2.38
2527.551	1.38
2531.239	0.38
2534.923	0.38
2538.605	3.38
2542.283	2.38
2545.958	2.38
2549.63	0.38
2553.299	-1.62
2556.964	-2.62
2560.626	-0.62
2564.285	-1.62
2567.941	-2.62
2571.594	-0.62
2575.243	-1.62
2578.89	-0.62
2582.533	-3.62
2586.173	-2.62
2589.809	-1.62
2593.443	2.38
2597.073	1.38
2600.701	0.38
2604.325	2.38
2607.946	-1.62
2611.564	5.38
2615.178	1.38
2618.79	1.38
2622.398	2.38
2626.004	5.38
2629.606	3.38
2633.205	0.38
2636.801	6.38
2640.394	-0.62
2643.983	2.38
2647.57	0.38
2651.153	-1.62
2654.734	-5.62
2658.311	0.38
2661.885	0.38
2665.456	0.38
2669.025	-5.62
2672.589	-3.62
2676.151	-2.62
2679.71	-1.62
2683.266	-0.62
2686.819	2.38
2690.368	4.38
2693.915	1.38
2697.458	1.38
2700.999	4.38
2704.536	2.38
2708.071	0.38
2711.602	-0.62
2715.13	3.38
2718.656	2.38
2722.178	1.38
2725.697	4.38
2729.214	-0.62
2732.727	1.38
2736.237	3.38
2739.744	0.38
2743.249	-0.62
2746.75	2.38
2750.248	-4.62
2753.743	-2.62
2757.236	-1.62
2760.725	-0.62
2764.211	-0.62
2767.695	-2.62
2771.175	-2.62
2774.652	-1.62
2778.127	-1.62
2781.598	-1.62
2785.067	-0.62
2788.532	-0.62
2791.995	-2.62
2795.455	0.38
2798.911	2.38
2802.365	3.38
2805.816	4.38
2809.264	3.38
2812.709	3.38
2816.151	5.38
2819.59	3.38
2823.026	6.38
2826.46	2.38
2829.89	-3.62
2833.318	4.38
2836.742	1.38
2840.164	2.38
2843.583	0.38
2846.999	0.38
2850.412	-0.62
2853.822	3.38
2857.229	0.38
2860.634	0.38
2864.035	-3.62
2867.434	1.38
2870.83	2.38
2874.223	1.38
2877.613	2.38
2881	3.38
2884.385	2.38
2887.766	2.38
2891.145	-1.62
2894.521	0.38
2897.894	1.38
2901.264	-3.62
2904.631	-0.62
2907.996	1.38
2911.358	-2.62
2914.717	0.38
2918.073	0.38
2921.426	-4.62
2924.777	4.38
2928.124	5.38
2931.469	3.38
2934.811	3.38
2938.15	8.38
2941.487	1.38
2944.821	0.38
2948.152	-0.62
2951.48	-0.62
2954.805	-3.62
2958.128	-2.62
2961.447	1.38
2964.765	-0.62
2968.079	-1.62
2971.39	0.38
2974.699	0.38
2978.005	0.38
2981.308	0.38
2984.609	-3.62
2987.907	2.38
2991.202	-5.62
2994.494	1.38
2997.784	-2.62
3001.07	2.38
3004.355	1.38
3007.636	5.38
3010.915	0.38
3014.191	3.38
3017.464	2.38
3020.734	4.38
3024.002	1.38
3027.267	8.38
3030.53	-0.62
3033.789	1.38
3037.046	-1.62
3040.301	-1.62
3043.552	8.38
3046.801	0.38
3050.048	-5.62
3053.291	1.38
3056.532	-0.62
3059.771	1.38
3063.006	-1.62
3066.239	-1.62
3069.469	-3.62
3072.697	-2.62
3075.922	-3.62
3079.144	-0.62
3082.364	6.38
3085.581	9.38
3088.795	8.38
3092.007	2.38
3095.216	2.38
3098.423	6.38
3101.627	5.38
3104.828	-1.62
3108.026	3.38
3111.222	2.38
3114.416	0.38
3117.607	3.38
3120.795	-0.62
3123.98	-1.62
3127.163	-4.62
3130.344	0.38
3133.521	-0.62
3136.696	0.38
3139.869	-2.62
3143.039	2.38
3146.206	2.38
3149.371	-4.62
3152.533	2.38
3155.693	-2.62
3158.85	0.38
3162.005	5.38
3165.157	6.38
3168.306	3.38
3171.453	4.38
3174.597	8.38
3177.739	5.38
3180.878	4.38
3184.014	1.38
3187.149	7.38
3190.28	3.38
3193.409	1.38
3196.536	-0.62
3199.659	0.38
3202.781	-0.62
3205.9	-0.62
3209.016	-4.62
3212.13	-3.62
3215.241	3.38
3218.35	-0.62
3221.456	-0.62
3224.56	-1.62
3227.661	-0.62
3230.76	3.38
3233.856	0.38
3236.95	7.38
3240.041	1.38
3243.13	6.38
3246.216	5.38
3249.3	7.38
3252.382	2.38
3255.46	7.38
3258.537	-1.62
3261.611	6.38
3264.682	-0.62
3267.751	1.38
3270.818	-0.62
3273.882	-1.62
3276.943	-5.62
3280.002	-1.62
3283.059	-3.62
3286.113	-1.62
3289.165	-4.62
3292.214	-0.62
3295.261	-1.62
3298.306	-4.62
3301.348	4.38
3304.387	3.38
3307.425	3.38
3310.459	1.38
3313.492	-1.62
3316.521	5.38
3319.549	3.38
3322.574	1.38
3325.597	2.38
3328.617	1.38
3331.635	0.38
3334.65	-1.62
3337.663	1.38
3340.674	-2.62
3343.682	1.38
3346.688	-1.62
3349.691	-5.62
3352.692	0.38
3355.691	-5.62
3358.687	-2.62
3361.681	0.38
3364.673	-0.62
3367.662	0.38
3370.649	-1.62
3373.633	0.38
3376.615	0.38
3379.595	1.38
3382.572	2.38
3385.547	1.38
3388.52	-0.62
3391.49	0.38
3394.458	0.38
3397.424	2.38
3400.387	-2.62
3403.348	-1.62
3406.307	5.38
3409.263	0.38
3412.217	-1.62
3415.168	3.38
3418.118	-0.62
3421.065	-4.62
3424.009	-1.62
3426.951	4.38
3429.891	-1.62
3432.829	0.38
3435.764	-1.62
3438.697	0.38
3441.628	1.38
3444.557	0.38
3447.483	3.38
3450.407	2.38
3453.328	-0.62
3456.247	0.38
3459.164	-0.62
3462.079	-1.62
3464.991	3.38
3467.902	0.38
3470.809	2.38
3473.715	-1.62
3476.618	0.38
3479.519	1.38
3482.418	0.38
3485.315	0.38
3488.209	2.38
3491.101	-2.62
3493.99	-0.62
3496.878	1.38
3499.763	0.38
3502.646	1.38
3505.527	-0.62
3508.405	-3.62
3511.281	0.38
3514.155	1.38
3517.027	0.38
3519.897	4.38
3522.764	-0.62
3525.629	-5.62
3528.492	-0.62
3531.352	-2.62
3534.211	-1.62
3537.067	-3.62
3539.921	0.38
3542.773	0.38
3545.622	1.38
3548.469	2.38
3551.315	-1.62
3554.157	-1.62
3556.998	4.38
3559.837	2.38
3562.673	1.38
3565.507	-0.62
3568.339	2.38
3571.169	6.38
3573.996	0.38
3576.822	2.38
3579.645	3.38
3582.466	-0.62
3585.285	0.38
3588.101	-2.62
3590.916	2.38
3593.728	-1.62
3596.538	2.38
3599.346	3.38
3602.152	-8.62
3604.956	-0.62
3607.757	-1.62
3610.556	-1.62
3613.354	-3.62
3616.149	0.38
3618.942	1.38
3621.732	-0.62
3624.521	0.38
3627.307	-4.62
3630.092	1.38
3632.874	0.38
3635.654	0.38
3638.432	1.38
3641.208	3.38
3643.982	-1.62
3646.753	1.38
3649.523	0.38
3652.29	3.38
3655.055	5.38
3657.818	-0.62
3660.579	0.38
3663.338	5.38
3666.095	4.38
3668.849	7.38
3671.602	1.38
3674.352	4.38
3677.101	3.38
3679.847	1.38
3682.591	-0.62
3685.333	2.38
3688.073	-0.62
3690.811	1.38
3693.547	-6.62
3696.281	-2.62
3699.013	-1.62
3701.742	-2.62
3704.47	2.38
3707.195	-1.62
3709.919	-1.62
3712.64	-4.62
3715.359	-4.62
3718.076	4.38
3720.792	-4.62
3723.505	-0.62
3726.216	1.38
3728.925	2.38
3731.632	1.38
3734.336	3.38
3737.039	5.38
3739.74	-0.62
3742.439	-1.62
3745.136	4.38
3747.83	-1.62
3750.523	1.38
3753.213	-0.62
3755.902	0.38
3758.589	-4.62
3761.273	-5.62
3763.956	-1.62
3766.636	-3.62
3769.315	-4.62
3771.991	-2.62
3774.665	-0.62
3777.338	1.38
3780.008	-4.62
3782.677	-0.62
3785.343	-2.62
3788.007	-2.62
3790.67	-2.62
3793.33	2.38
3795.989	-1.62
3798.645	2.38
3801.299	6.38
3803.952	1.38
3806.602	-5.62
3809.251	3.38
3811.897	2.38
3814.542	-2.62
3817.184	-2.62
3819.825	-3.62
3822.463	-3.62
3825.1	-2.62
3827.735	-0.62
3830.367	-3.62
3832.998	3.38
3835.627	-4.62
3838.253	-2.62
3840.878	-1.62
3843.501	-3.62
3846.122	-0.62
3848.741	-2.62
3851.358	1.38
3853.973	1.38
3856.586	-0.62
3859.197	5.38
3861.806	5.38
3864.414	0.38
3867.019	5.38
3869.622	3.38
3872.224	3.38
3874.823	0.38
3877.421	0.38
3880.016	2.38
3882.61	7.38
3885.202	4.38
3887.792	2.38
3890.38	0.38
3892.966	-2.62
3895.55	-0.62
3898.132	-2.62
3900.713	-0.62
3903.291	-1.62
3905.868	-3.62
3908.442	-1.62
3911.015	-4.62
3913.586	3.38
3916.155	-1.62
3918.722	0.38
3921.287	3.38
3923.85	3.38
3926.411	0.38
3928.971	2.38
3931.528	-1.62
3934.084	2.38
3936.638	3.38
3939.19	1.38
3941.74	-3.62
3944.288	0.38
3946.834	-0.62
3949.378	3.38
3951.921	-2.62
3954.462	0.38
3957	-0.62
3959.537	3.38
3962.072	1.38
3964.606	-0.62
3967.137	-2.62
3969.667	3.38
3972.194	2.38
3974.72	0.38
3977.244	-5.62
3979.766	-2.62
3982.286	1.38
3984.805	-2.62
3987.321	-0.62
3989.836	1.38
3992.349	-0.62
3994.86	-0.62
3997.369	2.38
3999.877	0.38
4002.382	1.38
4004.886	-0.62
4007.388	1.38
4009.888	-1.62
4012.386	1.38
4014.883	2.38
4017.377	-3.62
4019.87	3.38
4022.361	-3.62
4024.85	2.38
4027.338	-1.62
4029.823	2.38
4032.307	6.38
4034.789	3.38
4037.269	1.38
4039.747	0.38
4042.224	5.38
4044.699	2.38
4047.172	3.38
4049.643	4.38
4052.112	-2.62
4054.58	-2.62
4057.046	-1.62
4059.51	-0.62
4061.972	-3.62
4064.432	0.38
4066.891	-4.62
4069.348	-0.62
4071.803	-5.62
4074.256	1.38
4076.708	-1.62
4079.158	-1.62
4081.606	-0.62
4084.052	-1.62
4086.497	2.38
4088.939	1.38
4091.38	6.38
4093.819	2.38
4096.257	-3.62
4098.693	-1.62
4101.127	0.38
4103.559	-1.62
4105.989	-0.62
4108.418	3.38
4110.845	-0.62
4113.27	0.38
4115.694	6.38
4118.115	0.38
4120.535	6.38
4122.954	3.38
4125.37	2.38
4127.785	-1.62
4130.198	4.38
4132.609	-0.62
4135.019	-1.62
4137.427	-1.62
4139.833	-0.62
4142.237	1.38
