Data from I0.2_T10s_water_3_RamanShift_12-13-51-016.txt Node
Date: Mon Mar 13 12:13:51 IST 2017
User: aro
Spectrometer: QEPB0276
Trigger mode: 0
Integration Time (sec): 1.000000E1
Scans to average: 1
Electric dark correction enabled: true
Nonlinearity correction enabled: false
Boxcar width: 0
XAxis mode: Raman Shifts
Number of Pixels in Spectrum: 1044
>>>>>Begin Spectral Data<<<<<
160.701	2.25
166.742	-1.75
172.777	-0.75
178.805	-0.75
184.826	0.25
190.841	3.25
196.849	6.25
202.85	3.25
208.845	4.25
214.833	7.25
220.815	5.25
226.789	2.25
232.758	4.25
238.719	5.25
244.674	3.25
250.623	4.25
256.565	7.25
262.5	4.25
268.429	4.25
274.351	3.25
280.267	5.25
286.176	2.25
292.079	3.25
297.975	3.25
303.865	5.25
309.748	0.25
315.625	0.25
321.495	6.25
327.359	5.25
333.217	1.25
339.068	3.25
344.912	4.25
350.751	5.25
356.583	2.25
362.408	3.25
368.227	5.25
374.04	3.25
379.847	2.25
385.647	3.25
391.44	2.25
397.228	2.25
403.009	2.25
408.784	-2.75
414.553	5.25
420.315	-0.75
426.071	1.25
431.821	3.25
437.565	4.25
443.302	4.25
449.033	1.25
454.758	5.25
460.477	5.25
466.189	3.25
471.896	4.25
477.596	3.25
483.29	5.25
488.978	5.25
494.66	2.25
500.335	2.25
506.005	2.25
511.668	-0.75
517.325	1.25
522.977	2.25
528.622	-6.75
534.261	1.25
539.894	2.25
545.521	1.25
551.141	1.25
556.756	4.25
562.365	-0.75
567.968	1.25
573.565	1.25
579.155	4.25
584.74	1.25
590.319	3.25
595.892	2.25
601.459	5.25
607.02	4.25
612.575	5.25
618.124	4.25
623.667	3.25
629.204	5.25
634.735	5.25
640.261	2.25
645.781	-2.75
651.294	4.25
656.802	-0.75
662.304	-1.75
667.8	2.25
673.29	1.25
678.775	2.25
684.254	4.25
689.726	-0.75
695.193	4.25
700.655	7.25
706.11	1.25
711.56	7.25
717.004	5.25
722.442	3.25
727.874	7.25
733.301	2.25
738.722	2.25
744.137	5.25
749.547	3.25
754.951	0.25
760.349	-1.75
765.741	0.25
771.128	2.25
776.509	-0.75
781.885	-3.75
787.254	1.25
792.618	-2.75
797.977	2.25
803.33	-3.75
808.677	3.25
814.019	2.25
819.355	8.25
824.686	2.25
830.011	2.25
835.33	4.25
840.644	3.25
845.952	1.25
851.255	6.25
856.552	-0.75
861.844	4.25
867.13	4.25
872.41	1.25
877.686	0.25
882.955	-0.75
888.219	2.25
893.478	-1.75
898.731	-0.75
903.979	0.25
909.221	0.25
914.458	-1.75
919.69	1.25
924.916	2.25
930.136	1.25
935.351	0.25
940.561	3.25
945.766	4.25
950.965	-0.75
956.158	4.25
961.347	3.25
966.529	6.25
971.707	5.25
976.879	4.25
982.046	2.25
987.208	1.25
992.364	1.25
997.515	-3.75
1002.66	1.25
1007.801	-2.75
1012.936	-2.75
1018.066	0.25
1023.19	0.25
1028.309	0.25
1033.423	0.25
1038.532	-1.75
1043.636	6.25
1048.734	-1.75
1053.827	1.25
1058.915	1.25
1063.998	1.25
1069.075	-0.75
1074.147	-1.75
1079.214	3.25
1084.276	5.25
1089.333	1.25
1094.385	-1.75
1099.431	2.25
1104.472	0.25
1109.509	0.25
1114.54	2.25
1119.565	3.25
1124.586	0.25
1129.602	3.25
1134.613	2.25
1139.618	3.25
1144.619	2.25
1149.614	4.25
1154.604	7.25
1159.589	1.25
1164.57	0.25
1169.545	0.25
1174.515	0.25
1179.48	2.25
1184.44	1.25
1189.395	-1.75
1194.345	-0.75
1199.29	1.25
1204.23	-0.75
1209.165	1.25
1214.095	-1.75
1219.021	-3.75
1223.941	-2.75
1228.856	-2.75
1233.766	-3.75
1238.672	2.25
1243.572	3.25
1248.467	2.25
1253.358	6.25
1258.244	4.25
1263.124	4.25
1268	5.25
1272.871	2.25
1277.737	7.25
1282.599	-0.75
1287.455	2.25
1292.306	4.25
1297.153	-3.75
1301.995	2.25
1306.832	3.25
1311.664	0.25
1316.491	1.25
1321.314	-1.75
1326.132	-1.75
1330.945	2.25
1335.753	0.25
1340.556	-1.75
1345.354	4.25
1350.148	-0.75
1354.937	2.25
1359.722	7.25
1364.501	7.25
1369.276	5.25
1374.046	5.25
1378.811	6.25
1383.572	7.25
1388.327	1.25
1393.079	5.25
1397.825	8.25
1402.567	3.25
1407.304	4.25
1412.036	-0.75
1416.764	-0.75
1421.487	-2.75
1426.205	2.25
1430.919	0.25
1435.628	-0.75
1440.333	2.25
1445.032	0.25
1449.727	0.25
1454.418	2.25
1459.104	2.25
1463.785	4.25
1468.462	-1.75
1473.134	4.25
1477.802	1.25
1482.465	6.25
1487.123	4.25
1491.777	5.25
1496.426	5.25
1501.071	2.25
1505.711	-0.75
1510.347	8.25
1514.978	3.25
1519.604	3.25
1524.226	2.25
1528.844	2.25
1533.457	-1.75
1538.065	-0.75
1542.669	2.25
1547.269	-0.75
1551.864	-3.75
1556.454	-2.75
1561.041	1.25
1565.622	0.25
1570.199	4.25
1574.772	-0.75
1579.34	4.25
1583.904	-0.75
1588.464	-0.75
1593.019	3.25
1597.569	5.25
1602.115	2.25
1606.657	3.25
1611.195	3.25
1615.728	2.25
1620.256	0.25
1624.78	8.25
1629.3	3.25
1633.816	2.25
1638.327	0.25
1642.834	1.25
1647.336	2.25
1651.834	-0.75
1656.328	3.25
1660.817	0.25
1665.302	-0.75
1669.783	4.25
1674.259	-0.75
1678.732	-1.75
1683.199	0.25
1687.663	1.25
1692.122	3.25
1696.577	2.25
1701.028	-0.75
1705.474	0.25
1709.917	-0.75
1714.355	0.25
1718.788	2.25
1723.218	4.25
1727.643	1.25
1732.064	0.25
1736.481	0.25
1740.893	6.25
1745.301	1.25
1749.705	2.25
1754.105	1.25
1758.501	2.25
1762.893	0.25
1767.28	-1.75
1771.663	0.25
1776.042	-0.75
1780.417	3.25
1784.787	5.25
1789.154	1.25
1793.516	-1.75
1797.874	1.25
1802.228	0.25
1806.578	5.25
1810.924	-0.75
1815.266	2.25
1819.603	1.25
1823.937	0.25
1828.266	2.25
1832.591	0.25
1836.913	1.25
1841.23	2.25
1845.543	2.25
1849.852	3.25
1854.156	2.25
1858.457	-0.75
1862.754	-0.75
1867.047	0.25
1871.335	3.25
1875.62	0.25
1879.9	1.25
1884.177	-0.75
1888.449	0.25
1892.718	0.25
1896.982	-0.75
1901.243	1.25
1905.499	0.25
1909.752	1.25
1914	2.25
1918.245	-0.75
1922.485	3.25
1926.722	0.25
1930.954	0.25
1935.183	1.25
1939.408	4.25
1943.628	3.25
1947.845	2.25
1952.058	1.25
1956.267	-1.75
1960.472	3.25
1964.673	1.25
1968.87	2.25
1973.063	3.25
1977.252	-0.75
1981.438	2.25
1985.619	2.25
1989.797	0.25
1993.971	-1.75
1998.14	3.25
2002.306	3.25
2006.469	1.25
2010.627	-1.75
2014.781	0.25
2018.932	8.25
2023.078	1.25
2027.221	-0.75
2031.36	4.25
2035.495	1.25
2039.627	-3.75
2043.754	3.25
2047.878	1.25
2051.998	-0.75
2056.114	3.25
2060.226	5.25
2064.334	3.25
2068.439	-1.75
2072.54	-0.75
2076.637	-0.75
2080.73	2.25
2084.82	-2.75
2088.906	5.25
2092.988	1.25
2097.066	1.25
2101.14	1.25
2105.211	4.25
2109.278	1.25
2113.342	5.25
2117.401	-1.75
2121.457	1.25
2125.509	0.25
2129.558	-0.75
2133.602	2.25
2137.643	-0.75
2141.681	-6.75
2145.714	-0.75
2149.744	-1.75
2153.77	0.25
2157.793	6.25
2161.812	0.25
2165.827	-0.75
2169.838	5.25
2173.846	6.25
2177.851	2.25
2181.851	4.25
2185.848	2.25
2189.841	5.25
2193.831	1.25
2197.817	1.25
2201.799	1.25
2205.778	0.25
2209.753	1.25
2213.725	-2.75
2217.693	4.25
2221.657	-2.75
2225.618	1.25
2229.575	0.25
2233.529	-1.75
2237.479	1.25
2241.425	1.25
2245.368	-0.75
2249.307	1.25
2253.243	0.25
2257.175	3.25
2261.104	2.25
2265.029	5.25
2268.95	1.25
2272.868	-0.75
2276.783	0.25
2280.694	1.25
2284.601	4.25
2288.505	2.25
2292.405	1.25
2296.302	1.25
2300.195	1.25
2304.085	-2.75
2307.971	1.25
2311.854	-4.75
2315.734	0.25
2319.609	-2.75
2323.482	-2.75
2327.351	0.25
2331.216	0.25
2335.078	1.25
2338.937	0.25
2342.792	4.25
2346.643	2.25
2350.492	4.25
2354.336	0.25
2358.178	3.25
2362.015	3.25
2365.85	3.25
2369.681	5.25
2373.508	0.25
2377.333	3.25
2381.153	3.25
2384.971	1.25
2388.785	2.25
2392.595	0.25
2396.402	3.25
2400.206	-2.75
2404.007	-0.75
2407.804	-1.75
2411.597	-0.75
2415.388	-2.75
2419.174	2.25
2422.958	0.25
2426.738	2.25
2430.515	1.25
2434.289	0.25
2438.059	2.25
2441.825	3.25
2445.589	5.25
2449.349	4.25
2453.106	7.25
2456.859	6.25
2460.61	5.25
2464.356	3.25
2468.1	7.25
2471.84	3.25
2475.577	-0.75
2479.311	-1.75
2483.041	-0.75
2486.768	0.25
2490.492	-2.75
2494.213	-4.75
2497.93	-5.75
2501.644	1.25
2505.355	-0.75
2509.062	-0.75
2512.766	-0.75
2516.467	-1.75
2520.165	5.25
2523.859	5.25
2527.551	4.25
2531.239	5.25
2534.923	6.25
2538.605	4.25
2542.283	4.25
2545.958	3.25
2549.63	3.25
2553.299	-0.75
2556.964	-1.75
2560.626	2.25
2564.285	0.25
2567.941	4.25
2571.594	-3.75
2575.243	2.25
2578.89	2.25
2582.533	-1.75
2586.173	0.25
2589.809	-0.75
2593.443	2.25
2597.073	1.25
2600.701	4.25
2604.325	3.25
2607.946	5.25
2611.564	3.25
2615.178	3.25
2618.79	3.25
2622.398	3.25
2626.004	3.25
2629.606	0.25
2633.205	-1.75
2636.801	1.25
2640.394	-1.75
2643.983	-2.75
2647.57	2.25
2651.153	-1.75
2654.734	-0.75
2658.311	-0.75
2661.885	-1.75
2665.456	-1.75
2669.025	0.25
2672.589	3.25
2676.151	2.25
2679.71	0.25
2683.266	1.25
2686.819	4.25
2690.368	3.25
2693.915	1.25
2697.458	1.25
2700.999	10.25
2704.536	4.25
2708.071	3.25
2711.602	6.25
2715.13	3.25
2718.656	2.25
2722.178	5.25
2725.697	-0.75
2729.214	3.25
2732.727	1.25
2736.237	-1.75
2739.744	-0.75
2743.249	-2.75
2746.75	-1.75
2750.248	-2.75
2753.743	-0.75
2757.236	-4.75
2760.725	0.25
2764.211	1.25
2767.695	3.25
2771.175	3.25
2774.652	3.25
2778.127	1.25
2781.598	-0.75
2785.067	3.25
2788.532	1.25
2791.995	5.25
2795.455	3.25
2798.911	2.25
2802.365	7.25
2805.816	2.25
2809.264	3.25
2812.709	3.25
2816.151	-2.75
2819.59	-1.75
2823.026	-1.75
2826.46	-0.75
2829.89	-3.75
2833.318	2.25
2836.742	2.25
2840.164	1.25
2843.583	4.25
2846.999	-0.75
2850.412	1.25
2853.822	0.25
2857.229	1.25
2860.634	4.25
2864.035	3.25
2867.434	-4.75
2870.83	2.25
2874.223	5.25
2877.613	1.25
2881	-0.75
2884.385	1.25
2887.766	3.25
2891.145	1.25
2894.521	4.25
2897.894	0.25
2901.264	1.25
2904.631	2.25
2907.996	-2.75
2911.358	5.25
2914.717	0.25
2918.073	1.25
2921.426	2.25
2924.777	4.25
2928.124	3.25
2931.469	2.25
2934.811	2.25
2938.15	2.25
2941.487	3.25
2944.821	3.25
2948.152	2.25
2951.48	5.25
2954.805	-0.75
2958.128	2.25
2961.447	3.25
2964.765	-0.75
2968.079	2.25
2971.39	1.25
2974.699	2.25
2978.005	-0.75
2981.308	0.25
2984.609	-0.75
2987.907	2.25
2991.202	4.25
2994.494	-2.75
2997.784	1.25
3001.07	2.25
3004.355	2.25
3007.636	2.25
3010.915	0.25
3014.191	3.25
3017.464	7.25
3020.734	2.25
3024.002	-0.75
3027.267	-1.75
3030.53	0.25
3033.789	-0.75
3037.046	3.25
3040.301	2.25
3043.552	3.25
3046.801	4.25
3050.048	2.25
3053.291	-0.75
3056.532	4.25
3059.771	0.25
3063.006	4.25
3066.239	2.25
3069.469	-0.75
3072.697	5.25
3075.922	-1.75
3079.144	-0.75
3082.364	3.25
3085.581	2.25
3088.795	-0.75
3092.007	0.25
3095.216	-0.75
3098.423	-0.75
3101.627	3.25
3104.828	-1.75
3108.026	-5.75
3111.222	2.25
3114.416	0.25
3117.607	-1.75
3120.795	2.25
3123.98	-0.75
3127.163	1.25
3130.344	3.25
3133.521	3.25
3136.696	0.25
3139.869	-1.75
3143.039	0.25
3146.206	5.25
3149.371	5.25
3152.533	2.25
3155.693	0.25
3158.85	4.25
3162.005	1.25
3165.157	1.25
3168.306	-1.75
3171.453	3.25
3174.597	4.25
3177.739	0.25
3180.878	-1.75
3184.014	2.25
3187.149	0.25
3190.28	-0.75
3193.409	0.25
3196.536	3.25
3199.659	0.25
3202.781	-2.75
3205.9	1.25
3209.016	1.25
3212.13	-3.75
3215.241	2.25
3218.35	1.25
3221.456	-0.75
3224.56	0.25
3227.661	0.25
3230.76	-2.75
3233.856	1.25
3236.95	2.25
3240.041	3.25
3243.13	3.25
3246.216	0.25
3249.3	1.25
3252.382	-0.75
3255.46	2.25
3258.537	-0.75
3261.611	8.25
3264.682	0.25
3267.751	5.25
3270.818	4.25
3273.882	3.25
3276.943	0.25
3280.002	6.25
3283.059	1.25
3286.113	1.25
3289.165	0.25
3292.214	1.25
3295.261	5.25
3298.306	1.25
3301.348	4.25
3304.387	3.25
3307.425	3.25
3310.459	-0.75
3313.492	-1.75
3316.521	-0.75
3319.549	-0.75
3322.574	0.25
3325.597	4.25
3328.617	-0.75
3331.635	1.25
3334.65	-1.75
3337.663	3.25
3340.674	4.25
3343.682	4.25
3346.688	5.25
3349.691	7.25
3352.692	6.25
3355.691	1.25
3358.687	1.25
3361.681	1.25
3364.673	5.25
3367.662	2.25
3370.649	-0.75
3373.633	4.25
3376.615	-2.75
3379.595	4.25
3382.572	3.25
3385.547	-2.75
3388.52	-0.75
3391.49	-0.75
3394.458	-1.75
3397.424	-0.75
3400.387	4.25
3403.348	1.25
3406.307	4.25
3409.263	3.25
3412.217	-1.75
3415.168	5.25
3418.118	-0.75
3421.065	3.25
3424.009	2.25
3426.951	4.25
3429.891	2.25
3432.829	1.25
3435.764	-0.75
3438.697	1.25
3441.628	-0.75
3444.557	-0.75
3447.483	-0.75
3450.407	-2.75
3453.328	2.25
3456.247	1.25
3459.164	0.25
3462.079	3.25
3464.991	-1.75
3467.902	6.25
3470.809	5.25
3473.715	4.25
3476.618	3.25
3479.519	5.25
3482.418	5.25
3485.315	4.25
3488.209	3.25
3491.101	2.25
3493.99	3.25
3496.878	-0.75
3499.763	-0.75
3502.646	0.25
3505.527	2.25
3508.405	-1.75
3511.281	-0.75
3514.155	-2.75
3517.027	-4.75
3519.897	1.25
3522.764	-0.75
3525.629	2.25
3528.492	-0.75
3531.352	-0.75
3534.211	3.25
3537.067	-0.75
3539.921	1.25
3542.773	4.25
3545.622	3.25
3548.469	2.25
3551.315	2.25
3554.157	4.25
3556.998	2.25
3559.837	0.25
3562.673	0.25
3565.507	-0.75
3568.339	-3.75
3571.169	3.25
3573.996	-1.75
3576.822	-3.75
3579.645	0.25
3582.466	-0.75
3585.285	-1.75
3588.101	-0.75
3590.916	0.25
3593.728	2.25
3596.538	3.25
3599.346	2.25
3602.152	0.25
3604.956	3.25
3607.757	6.25
3610.556	4.25
3613.354	6.25
3616.149	6.25
3618.942	7.25
3621.732	2.25
3624.521	2.25
3627.307	2.25
3630.092	0.25
3632.874	4.25
3635.654	-2.75
3638.432	-0.75
3641.208	-2.75
3643.982	-0.75
3646.753	-0.75
3649.523	-7.75
3652.29	-1.75
3655.055	0.25
3657.818	-2.75
3660.579	-1.75
3663.338	-1.75
3666.095	-3.75
3668.849	5.25
3671.602	6.25
3674.352	5.25
3677.101	3.25
3679.847	3.25
3682.591	1.25
3685.333	3.25
3688.073	3.25
3690.811	0.25
3693.547	0.25
3696.281	3.25
3699.013	1.25
3701.742	0.25
3704.47	3.25
3707.195	1.25
3709.919	2.25
3712.64	-1.75
3715.359	0.25
3718.076	-1.75
3720.792	2.25
3723.505	2.25
3726.216	1.25
3728.925	7.25
3731.632	5.25
3734.336	2.25
3737.039	5.25
3739.74	4.25
3742.439	0.25
3745.136	3.25
3747.83	5.25
3750.523	1.25
3753.213	1.25
3755.902	1.25
3758.589	-0.75
3761.273	-0.75
3763.956	1.25
3766.636	1.25
3769.315	2.25
3771.991	-3.75
3774.665	-2.75
3777.338	1.25
3780.008	0.25
3782.677	2.25
3785.343	4.25
3788.007	3.25
3790.67	5.25
3793.33	7.25
3795.989	4.25
3798.645	-2.75
3801.299	5.25
3803.952	4.25
3806.602	1.25
3809.251	1.25
3811.897	-3.75
3814.542	-1.75
3817.184	-1.75
3819.825	1.25
3822.463	-1.75
3825.1	-0.75
3827.735	-1.75
3830.367	-4.75
3832.998	-2.75
3835.627	-3.75
3838.253	-3.75
3840.878	2.25
3843.501	3.25
3846.122	4.25
3848.741	3.25
3851.358	6.25
3853.973	-0.75
3856.586	-0.75
3859.197	2.25
3861.806	3.25
3864.414	6.25
3867.019	3.25
3869.622	0.25
3872.224	-1.75
3874.823	-2.75
3877.421	-4.75
3880.016	0.25
3882.61	-5.75
3885.202	-0.75
3887.792	-1.75
3890.38	-2.75
3892.966	-4.75
3895.55	-0.75
3898.132	-3.75
3900.713	3.25
3903.291	-1.75
3905.868	3.25
3908.442	4.25
3911.015	5.25
3913.586	4.25
3916.155	5.25
3918.722	4.25
3921.287	5.25
3923.85	2.25
3926.411	3.25
3928.971	0.25
3931.528	-0.75
3934.084	-0.75
3936.638	-0.75
3939.19	-2.75
3941.74	-0.75
3944.288	-0.75
3946.834	-4.75
3949.378	-2.75
3951.921	-4.75
3954.462	3.25
3957	3.25
3959.537	-0.75
3962.072	2.25
3964.606	3.25
3967.137	8.25
3969.667	4.25
3972.194	5.25
3974.72	4.25
3977.244	3.25
3979.766	3.25
3982.286	-2.75
3984.805	1.25
3987.321	0.25
3989.836	3.25
3992.349	2.25
3994.86	-0.75
3997.369	5.25
3999.877	-0.75
4002.382	-1.75
4004.886	3.25
4007.388	-1.75
4009.888	-0.75
4012.386	-1.75
4014.883	0.25
4017.377	3.25
4019.87	-1.75
4022.361	1.25
4024.85	6.25
4027.338	1.25
4029.823	0.25
4032.307	-0.75
4034.789	1.25
4037.269	-3.75
4039.747	3.25
4042.224	3.25
4044.699	1.25
4047.172	2.25
4049.643	1.25
4052.112	2.25
4054.58	2.25
4057.046	4.25
4059.51	0.25
4061.972	2.25
4064.432	0.25
4066.891	5.25
4069.348	3.25
4071.803	2.25
4074.256	2.25
4076.708	1.25
4079.158	-1.75
4081.606	0.25
4084.052	1.25
4086.497	-3.75
4088.939	2.25
4091.38	-1.75
4093.819	3.25
4096.257	1.25
4098.693	-0.75
4101.127	2.25
4103.559	2.25
4105.989	-0.75
4108.418	-2.75
4110.845	4.25
4113.27	1.25
4115.694	-0.75
4118.115	0.25
4120.535	2.25
4122.954	6.25
4125.37	1.25
4127.785	1.25
4130.198	-2.75
4132.609	-0.75
4135.019	0.25
4137.427	-0.75
4139.833	2.25
4142.237	-0.75
