Data from I0.2_T5s_Bsub_water_1-1_2_RamanShift_12-07-01-044.txt Node
Date: Mon Mar 13 12:07:01 IST 2017
User: aro
Spectrometer: QEPB0276
Trigger mode: 0
Integration Time (sec): 5.000000E0
Scans to average: 1
Electric dark correction enabled: true
Nonlinearity correction enabled: false
Boxcar width: 0
XAxis mode: Raman Shifts
Number of Pixels in Spectrum: 1044
>>>>>Begin Spectral Data<<<<<
160.701	-1.75
166.742	-3.75
172.777	-1.75
178.805	-1.75
184.826	3.25
190.841	1.25
196.849	4.25
202.85	2.25
208.845	3.25
214.833	6.25
220.815	5.25
226.789	3.25
232.758	-0.75
238.719	3.25
244.674	-0.75
250.623	-1.75
256.565	-3.75
262.5	0.25
268.429	-0.75
274.351	-0.75
280.267	0.25
286.176	1.25
292.079	-2.75
297.975	1.25
303.865	1.25
309.748	2.25
315.625	4.25
321.495	6.25
327.359	6.25
333.217	1.25
339.068	6.25
344.912	1.25
350.751	2.25
356.583	4.25
362.408	0.25
368.227	-3.75
374.04	-1.75
379.847	-1.75
385.647	-2.75
391.44	-0.75
397.228	-2.75
403.009	1.25
408.784	-3.75
414.553	0.25
420.315	0.25
426.071	0.25
431.821	3.25
437.565	4.25
443.302	-1.75
449.033	5.25
454.758	1.25
460.477	0.25
466.189	2.25
471.896	0.25
477.596	-1.75
483.29	-0.75
488.978	1.25
494.66	-2.75
500.335	0.25
506.005	-1.75
511.668	-2.75
517.325	-3.75
522.977	1.25
528.622	-2.75
534.261	-2.75
539.894	0.25
545.521	-0.75
551.141	-0.75
556.756	3.25
562.365	3.25
567.968	3.25
573.565	0.25
579.155	1.25
584.74	3.25
590.319	0.25
595.892	-2.75
601.459	2.25
607.02	-1.75
612.575	1.25
618.124	-0.75
623.667	-2.75
629.204	0.25
634.735	0.25
640.261	-0.75
645.781	-3.75
651.294	3.25
656.802	-0.75
662.304	-0.75
667.8	1.25
673.29	-2.75
678.775	1.25
684.254	2.25
689.726	3.25
695.193	0.25
700.655	0.25
706.11	4.25
711.56	-3.75
717.004	-0.75
722.442	0.25
727.874	-4.75
733.301	-1.75
738.722	3.25
744.137	3.25
749.547	-1.75
754.951	-2.75
760.349	1.25
765.741	0.25
771.128	2.25
776.509	-0.75
781.885	0.25
787.254	2.25
792.618	0.25
797.977	0.25
803.33	-0.75
808.677	-0.75
814.019	-2.75
819.355	1.25
824.686	2.25
830.011	0.25
835.33	2.25
840.644	-0.75
845.952	3.25
851.255	1.25
856.552	2.25
861.844	-1.75
867.13	-2.75
872.41	1.25
877.686	2.25
882.955	0.25
888.219	-0.75
893.478	-1.75
898.731	-0.75
903.979	1.25
909.221	-0.75
914.458	1.25
919.69	2.25
924.916	-3.75
930.136	0.25
935.351	-0.75
940.561	2.25
945.766	3.25
950.965	-2.75
956.158	1.25
961.347	-0.75
966.529	3.25
971.707	2.25
976.879	-2.75
982.046	2.25
987.208	-0.75
992.364	-2.75
997.515	3.25
1002.66	1.25
1007.801	1.25
1012.936	-2.75
1018.066	-2.75
1023.19	-0.75
1028.309	-1.75
1033.423	0.25
1038.532	-1.75
1043.636	-0.75
1048.734	2.25
1053.827	0.25
1058.915	-2.75
1063.998	1.25
1069.075	-0.75
1074.147	1.25
1079.214	1.25
1084.276	3.25
1089.333	-0.75
1094.385	4.25
1099.431	0.25
1104.472	2.25
1109.509	2.25
1114.54	0.25
1119.565	0.25
1124.586	1.25
1129.602	1.25
1134.613	-1.75
1139.618	-0.75
1144.619	-1.75
1149.614	-0.75
1154.604	-0.75
1159.589	1.25
1164.57	-0.75
1169.545	0.25
1174.515	6.25
1179.48	1.25
1184.44	2.25
1189.395	-1.75
1194.345	6.25
1199.29	3.25
1204.23	2.25
1209.165	2.25
1214.095	1.25
1219.021	2.25
1223.941	0.25
1228.856	-1.75
1233.766	0.25
1238.672	-0.75
1243.572	-4.75
1248.467	0.25
1253.358	-0.75
1258.244	-1.75
1263.124	-1.75
1268	-3.75
1272.871	1.25
1277.737	-0.75
1282.599	4.25
1287.455	0.25
1292.306	5.25
1297.153	2.25
1301.995	0.25
1306.832	6.25
1311.664	4.25
1316.491	-1.75
1321.314	4.25
1326.132	-0.75
1330.945	2.25
1335.753	-0.75
1340.556	-1.75
1345.354	-3.75
1350.148	-1.75
1354.937	-5.75
1359.722	-0.75
1364.501	0.25
1369.276	-2.75
1374.046	-1.75
1378.811	2.25
1383.572	3.25
1388.327	2.25
1393.079	3.25
1397.825	1.25
1402.567	3.25
1407.304	5.25
1412.036	4.25
1416.764	3.25
1421.487	0.25
1426.205	1.25
1430.919	-2.75
1435.628	-1.75
1440.333	-5.75
1445.032	-1.75
1449.727	-2.75
1454.418	-1.75
1459.104	-1.75
1463.785	-0.75
1468.462	-0.75
1473.134	-1.75
1477.802	-3.75
1482.465	0.25
1487.123	-2.75
1491.777	0.25
1496.426	5.25
1501.071	1.25
1505.711	0.25
1510.347	3.25
1514.978	4.25
1519.604	1.25
1524.226	4.25
1528.844	2.25
1533.457	0.25
1538.065	-0.75
1542.669	0.25
1547.269	4.25
1551.864	-2.75
1556.454	0.25
1561.041	-1.75
1565.622	-3.75
1570.199	-3.75
1574.772	-3.75
1579.34	-1.75
1583.904	0.25
1588.464	-0.75
1593.019	1.25
1597.569	-0.75
1602.115	1.25
1606.657	-0.75
1611.195	1.25
1615.728	1.25
1620.256	-1.75
1624.78	1.25
1629.3	1.25
1633.816	2.25
1638.327	3.25
1642.834	1.25
1647.336	0.25
1651.834	-1.75
1656.328	2.25
1660.817	0.25
1665.302	-0.75
1669.783	2.25
1674.259	-2.75
1678.732	-1.75
1683.199	-2.75
1687.663	-4.75
1692.122	-2.75
1696.577	0.25
1701.028	-1.75
1705.474	-3.75
1709.917	-2.75
1714.355	0.25
1718.788	2.25
1723.218	0.25
1727.643	1.25
1732.064	3.25
1736.481	4.25
1740.893	3.25
1745.301	0.25
1749.705	2.25
1754.105	4.25
1758.501	0.25
1762.893	2.25
1767.28	-0.75
1771.663	2.25
1776.042	-0.75
1780.417	1.25
1784.787	0.25
1789.154	-1.75
1793.516	-3.75
1797.874	-2.75
1802.228	0.25
1806.578	-2.75
1810.924	-2.75
1815.266	-0.75
1819.603	-0.75
1823.937	1.25
1828.266	2.25
1832.591	4.25
1836.913	3.25
1841.23	2.25
1845.543	4.25
1849.852	1.25
1854.156	-0.75
1858.457	1.25
1862.754	-3.75
1867.047	0.25
1871.335	-1.75
1875.62	-3.75
1879.9	-2.75
1884.177	-0.75
1888.449	-3.75
1892.718	-1.75
1896.982	-6.75
1901.243	-0.75
1905.499	-1.75
1909.752	2.25
1914	1.25
1918.245	3.25
1922.485	-3.75
1926.722	0.25
1930.954	-0.75
1935.183	1.25
1939.408	3.25
1943.628	1.25
1947.845	1.25
1952.058	-1.75
1956.267	1.25
1960.472	-0.75
1964.673	-1.75
1968.87	0.25
1973.063	-0.75
1977.252	-3.75
1981.438	-2.75
1985.619	-4.75
1989.797	-5.75
1993.971	0.25
1998.14	-2.75
2002.306	-3.75
2006.469	-4.75
2010.627	0.25
2014.781	-4.75
2018.932	-3.75
2023.078	0.25
2027.221	-0.75
2031.36	4.25
2035.495	-0.75
2039.627	1.25
2043.754	1.25
2047.878	2.25
2051.998	6.25
2056.114	4.25
2060.226	4.25
2064.334	0.25
2068.439	0.25
2072.54	-3.75
2076.637	2.25
2080.73	-1.75
2084.82	-2.75
2088.906	-1.75
2092.988	1.25
2097.066	-1.75
2101.14	-3.75
2105.211	-3.75
2109.278	-1.75
2113.342	-0.75
2117.401	-0.75
2121.457	-3.75
2125.509	2.25
2129.558	2.25
2133.602	3.25
2137.643	2.25
2141.681	2.25
2145.714	3.25
2149.744	2.25
2153.77	-1.75
2157.793	-0.75
2161.812	0.25
2165.827	2.25
2169.838	2.25
2173.846	-0.75
2177.851	-1.75
2181.851	-2.75
2185.848	-0.75
2189.841	0.25
2193.831	-0.75
2197.817	-3.75
2201.799	0.25
2205.778	1.25
2209.753	-1.75
2213.725	2.25
2217.693	-1.75
2221.657	-1.75
2225.618	2.25
2229.575	0.25
2233.529	-1.75
2237.479	-2.75
2241.425	-1.75
2245.368	2.25
2249.307	5.25
2253.243	-1.75
2257.175	-0.75
2261.104	0.25
2265.029	-1.75
2268.95	-2.75
2272.868	-1.75
2276.783	0.25
2280.694	-4.75
2284.601	-0.75
2288.505	-0.75
2292.405	1.25
2296.302	1.25
2300.195	1.25
2304.085	3.25
2307.971	-0.75
2311.854	0.25
2315.734	0.25
2319.609	-2.75
2323.482	1.25
2327.351	-3.75
2331.216	0.25
2335.078	-0.75
2338.937	0.25
2342.792	-3.75
2346.643	1.25
2350.492	1.25
2354.336	-3.75
2358.178	1.25
2362.015	-0.75
2365.85	1.25
2369.681	-0.75
2373.508	0.25
2377.333	1.25
2381.153	1.25
2384.971	-0.75
2388.785	1.25
2392.595	1.25
2396.402	0.25
2400.206	0.25
2404.007	1.25
2407.804	1.25
2411.597	-0.75
2415.388	-3.75
2419.174	0.25
2422.958	0.25
2426.738	-2.75
2430.515	2.25
2434.289	-3.75
2438.059	1.25
2441.825	0.25
2445.589	0.25
2449.349	-1.75
2453.106	1.25
2456.859	1.25
2460.61	1.25
2464.356	1.25
2468.1	2.25
2471.84	-0.75
2475.577	0.25
2479.311	-1.75
2483.041	-1.75
2486.768	-0.75
2490.492	-0.75
2494.213	1.25
2497.93	-3.75
2501.644	0.25
2505.355	0.25
2509.062	-1.75
2512.766	0.25
2516.467	1.25
2520.165	4.25
2523.859	1.25
2527.551	4.25
2531.239	1.25
2534.923	2.25
2538.605	-1.75
2542.283	2.25
2545.958	0.25
2549.63	0.25
2553.299	-1.75
2556.964	0.25
2560.626	0.25
2564.285	-2.75
2567.941	1.25
2571.594	-5.75
2575.243	-3.75
2578.89	-1.75
2582.533	-4.75
2586.173	-1.75
2589.809	0.25
2593.443	-3.75
2597.073	-0.75
2600.701	1.25
2604.325	-0.75
2607.946	-1.75
2611.564	3.25
2615.178	2.25
2618.79	2.25
2622.398	2.25
2626.004	-2.75
2629.606	1.25
2633.205	-1.75
2636.801	0.25
2640.394	-0.75
2643.983	-1.75
2647.57	-1.75
2651.153	-3.75
2654.734	-1.75
2658.311	-6.75
2661.885	-2.75
2665.456	-2.75
2669.025	-0.75
2672.589	-1.75
2676.151	2.25
2679.71	0.25
2683.266	0.25
2686.819	0.25
2690.368	4.25
2693.915	1.25
2697.458	3.25
2700.999	1.25
2704.536	-1.75
2708.071	0.25
2711.602	0.25
2715.13	-0.75
2718.656	-1.75
2722.178	-0.75
2725.697	-4.75
2729.214	0.25
2732.727	-2.75
2736.237	-1.75
2739.744	-3.75
2743.249	-0.75
2746.75	-4.75
2750.248	1.25
2753.743	2.25
2757.236	0.25
2760.725	1.25
2764.211	-0.75
2767.695	2.25
2771.175	3.25
2774.652	1.25
2778.127	4.25
2781.598	2.25
2785.067	0.25
2788.532	2.25
2791.995	-5.75
2795.455	-3.75
2798.911	-3.75
2802.365	-1.75
2805.816	-1.75
2809.264	-3.75
2812.709	-3.75
2816.151	-3.75
2819.59	-1.75
2823.026	-2.75
2826.46	2.25
2829.89	2.25
2833.318	1.25
2836.742	3.25
2840.164	3.25
2843.583	4.25
2846.999	2.25
2850.412	-1.75
2853.822	-2.75
2857.229	2.25
2860.634	0.25
2864.035	-0.75
2867.434	-1.75
2870.83	-1.75
2874.223	-0.75
2877.613	-4.75
2881	0.25
2884.385	-0.75
2887.766	-3.75
2891.145	0.25
2894.521	-2.75
2897.894	2.25
2901.264	-2.75
2904.631	0.25
2907.996	4.25
2911.358	3.25
2914.717	4.25
2918.073	1.25
2921.426	4.25
2924.777	-0.75
2928.124	-1.75
2931.469	0.25
2934.811	1.25
2938.15	0.25
2941.487	-1.75
2944.821	-3.75
2948.152	-3.75
2951.48	-2.75
2954.805	-4.75
2958.128	-1.75
2961.447	-1.75
2964.765	-4.75
2968.079	3.25
2971.39	-1.75
2974.699	4.25
2978.005	2.25
2981.308	2.25
2984.609	1.25
2987.907	3.25
2991.202	0.25
2994.494	2.25
2997.784	-0.75
3001.07	-0.75
3004.355	0.25
3007.636	-0.75
3010.915	0.25
3014.191	-0.75
3017.464	-0.75
3020.734	0.25
3024.002	-3.75
3027.267	-1.75
3030.53	-0.75
3033.789	-1.75
3037.046	-5.75
3040.301	-1.75
3043.552	-1.75
3046.801	1.25
3050.048	0.25
3053.291	1.25
3056.532	4.25
3059.771	2.25
3063.006	4.25
3066.239	4.25
3069.469	2.25
3072.697	4.25
3075.922	-1.75
3079.144	-0.75
3082.364	-0.75
3085.581	-2.75
3088.795	-4.75
3092.007	-3.75
3095.216	-4.75
3098.423	-4.75
3101.627	-2.75
3104.828	-2.75
3108.026	-3.75
3111.222	1.25
3114.416	1.25
3117.607	1.25
3120.795	-0.75
3123.98	-0.75
3127.163	2.25
3130.344	5.25
3133.521	2.25
3136.696	5.25
3139.869	2.25
3143.039	3.25
3146.206	0.25
3149.371	4.25
3152.533	0.25
3155.693	0.25
3158.85	1.25
3162.005	0.25
3165.157	-2.75
3168.306	-1.75
3171.453	-1.75
3174.597	-4.75
3177.739	-6.75
3180.878	-2.75
3184.014	-3.75
3187.149	0.25
3190.28	0.25
3193.409	1.25
3196.536	0.25
3199.659	0.25
3202.781	-0.75
3205.9	4.25
3209.016	2.25
3212.13	1.25
3215.241	1.25
3218.35	1.25
3221.456	0.25
3224.56	2.25
3227.661	3.25
3230.76	0.25
3233.856	-2.75
3236.95	-0.75
3240.041	-2.75
3243.13	-1.75
3246.216	1.25
3249.3	-0.75
3252.382	-3.75
3255.46	0.25
3258.537	-0.75
3261.611	-1.75
3264.682	-2.75
3267.751	1.25
3270.818	1.25
3273.882	2.25
3276.943	2.25
3280.002	2.25
3283.059	-1.75
3286.113	1.25
3289.165	-1.75
3292.214	-1.75
3295.261	2.25
3298.306	0.25
3301.348	0.25
3304.387	2.25
3307.425	-2.75
3310.459	-0.75
3313.492	-0.75
3316.521	2.25
3319.549	-2.75
3322.574	-0.75
3325.597	-1.75
3328.617	-3.75
3331.635	-4.75
3334.65	-0.75
3337.663	0.25
3340.674	-5.75
3343.682	-2.75
3346.688	1.25
3349.691	1.25
3352.692	-0.75
3355.691	-2.75
3358.687	0.25
3361.681	0.25
3364.673	3.25
3367.662	-0.75
3370.649	3.25
3373.633	3.25
3376.615	3.25
3379.595	-0.75
3382.572	1.25
3385.547	-1.75
3388.52	-0.75
3391.49	0.25
3394.458	1.25
3397.424	-1.75
3400.387	-3.75
3403.348	-0.75
3406.307	-1.75
3409.263	0.25
3412.217	-3.75
3415.168	2.25
3418.118	-1.75
3421.065	1.25
3424.009	-0.75
3426.951	1.25
3429.891	2.25
3432.829	0.25
3435.764	1.25
3438.697	1.25
3441.628	4.25
3444.557	1.25
3447.483	3.25
3450.407	-3.75
3453.328	-2.75
3456.247	0.25
3459.164	-0.75
3462.079	3.25
3464.991	1.25
3467.902	-3.75
3470.809	1.25
3473.715	0.25
3476.618	-4.75
3479.519	0.25
3482.418	-1.75
3485.315	-0.75
3488.209	0.25
3491.101	-1.75
3493.99	-0.75
3496.878	2.25
3499.763	2.25
3502.646	3.25
3505.527	1.25
3508.405	0.25
3511.281	1.25
3514.155	0.25
3517.027	2.25
3519.897	2.25
3522.764	3.25
3525.629	-0.75
3528.492	3.25
3531.352	-1.75
3534.211	-1.75
3537.067	0.25
3539.921	-0.75
3542.773	-0.75
3545.622	1.25
3548.469	-0.75
3551.315	2.25
3554.157	-2.75
3556.998	2.25
3559.837	3.25
3562.673	-1.75
3565.507	1.25
3568.339	-1.75
3571.169	1.25
3573.996	-2.75
3576.822	0.25
3579.645	1.25
3582.466	-2.75
3585.285	0.25
3588.101	0.25
3590.916	3.25
3593.728	-0.75
3596.538	-0.75
3599.346	-0.75
3602.152	-0.75
3604.956	-0.75
3607.757	2.25
3610.556	4.25
3613.354	4.25
3616.149	1.25
3618.942	1.25
3621.732	-2.75
3624.521	0.25
3627.307	-1.75
3630.092	1.25
3632.874	-2.75
3635.654	-0.75
3638.432	-0.75
3641.208	-1.75
3643.982	0.25
3646.753	2.25
3649.523	-2.75
3652.29	0.25
3655.055	1.25
3657.818	1.25
3660.579	-3.75
3663.338	2.25
3666.095	2.25
3668.849	1.25
3671.602	2.25
3674.352	4.25
3677.101	-0.75
3679.847	2.25
3682.591	-0.75
3685.333	0.25
3688.073	-1.75
3690.811	0.25
3693.547	-5.75
3696.281	-2.75
3699.013	-1.75
3701.742	-0.75
3704.47	-1.75
3707.195	-2.75
3709.919	0.25
3712.64	-0.75
3715.359	1.25
3718.076	0.25
3720.792	-1.75
3723.505	3.25
3726.216	-1.75
3728.925	3.25
3731.632	0.25
3734.336	4.25
3737.039	2.25
3739.74	2.25
3742.439	0.25
3745.136	-2.75
3747.83	-1.75
3750.523	-0.75
3753.213	-5.75
3755.902	-3.75
3758.589	-1.75
3761.273	-0.75
3763.956	-1.75
3766.636	-2.75
3769.315	-0.75
3771.991	-0.75
3774.665	-2.75
3777.338	3.25
3780.008	5.25
3782.677	3.25
3785.343	1.25
3788.007	3.25
3790.67	0.25
3793.33	-0.75
3795.989	-0.75
3798.645	1.25
3801.299	-3.75
3803.952	-2.75
3806.602	-0.75
3809.251	-6.75
3811.897	-4.75
3814.542	-3.75
3817.184	-4.75
3819.825	-2.75
3822.463	-2.75
3825.1	1.25
3827.735	-2.75
3830.367	2.25
3832.998	0.25
3835.627	2.25
3838.253	2.25
3840.878	-1.75
3843.501	-0.75
3846.122	1.25
3848.741	0.25
3851.358	1.25
3853.973	-1.75
3856.586	-0.75
3859.197	2.25
3861.806	-2.75
3864.414	-1.75
3867.019	-2.75
3869.622	-1.75
3872.224	-5.75
3874.823	-3.75
3877.421	0.25
3880.016	-0.75
3882.61	1.25
3885.202	0.25
3887.792	0.25
3890.38	0.25
3892.966	4.25
3895.55	2.25
3898.132	1.25
3900.713	-0.75
3903.291	2.25
3905.868	0.25
3908.442	2.25
3911.015	0.25
3913.586	-0.75
3916.155	-0.75
3918.722	-1.75
3921.287	-1.75
3923.85	-2.75
3926.411	-1.75
3928.971	-3.75
3931.528	-2.75
3934.084	-0.75
3936.638	-4.75
3939.19	3.25
3941.74	2.25
3944.288	3.25
3946.834	-0.75
3949.378	4.25
3951.921	4.25
3954.462	2.25
3957	0.25
3959.537	2.25
3962.072	0.25
3964.606	2.25
3967.137	0.25
3969.667	-3.75
3972.194	-1.75
3974.72	-2.75
3977.244	-1.75
3979.766	-0.75
3982.286	-1.75
3984.805	-1.75
3987.321	1.25
3989.836	0.25
3992.349	0.25
3994.86	1.25
3997.369	-0.75
3999.877	1.25
4002.382	0.25
4004.886	1.25
4007.388	1.25
4009.888	1.25
4012.386	1.25
4014.883	0.25
4017.377	-2.75
4019.87	2.25
4022.361	0.25
4024.85	-3.75
4027.338	0.25
4029.823	-1.75
4032.307	0.25
4034.789	0.25
4037.269	-2.75
4039.747	-2.75
4042.224	-0.75
4044.699	0.25
4047.172	0.25
4049.643	2.25
4052.112	0.25
4054.58	5.25
4057.046	-1.75
4059.51	-0.75
4061.972	-0.75
4064.432	1.25
4066.891	1.25
4069.348	-2.75
4071.803	1.25
4074.256	-1.75
4076.708	-1.75
4079.158	-0.75
4081.606	-1.75
4084.052	0.25
4086.497	-0.75
4088.939	-0.75
4091.38	-2.75
4093.819	-3.75
4096.257	0.25
4098.693	2.25
4101.127	-0.75
4103.559	-1.75
4105.989	1.25
4108.418	-2.75
4110.845	-1.75
4113.27	-3.75
4115.694	-4.75
4118.115	-2.75
4120.535	-0.75
4122.954	-1.75
4125.37	2.25
4127.785	-3.75
4130.198	4.25
4132.609	-0.75
4135.019	3.25
4137.427	3.25
4139.833	3.25
4142.237	-0.75
