Data from I0.2_T5s_Bsub_water_1-10^2_1_RamanShift_12-00-16-076.txt Node
Date: Mon Mar 13 12:00:16 IST 2017
User: aro
Spectrometer: QEPB0276
Trigger mode: 0
Integration Time (sec): 5.000000E0
Scans to average: 1
Electric dark correction enabled: true
Nonlinearity correction enabled: false
Boxcar width: 0
XAxis mode: Raman Shifts
Number of Pixels in Spectrum: 1044
>>>>>Begin Spectral Data<<<<<
160.701	-0.62
166.742	0.38
172.777	-0.62
178.805	-2.62
184.826	2.38
190.841	1.38
196.849	5.38
202.85	3.38
208.845	2.38
214.833	5.38
220.815	8.38
226.789	5.38
232.758	2.38
238.719	2.38
244.674	1.38
250.623	1.38
256.565	4.38
262.5	3.38
268.429	3.38
274.351	1.38
280.267	1.38
286.176	2.38
292.079	-3.62
297.975	0.38
303.865	-0.62
309.748	-0.62
315.625	3.38
321.495	3.38
327.359	3.38
333.217	5.38
339.068	7.38
344.912	1.38
350.751	5.38
356.583	7.38
362.408	1.38
368.227	1.38
374.04	0.38
379.847	-0.62
385.647	0.38
391.44	0.38
397.228	2.38
403.009	0.38
408.784	-2.62
414.553	0.38
420.315	0.38
426.071	0.38
431.821	4.38
437.565	8.38
443.302	0.38
449.033	7.38
454.758	2.38
460.477	-0.62
466.189	5.38
471.896	3.38
477.596	0.38
483.29	-2.62
488.978	2.38
494.66	1.38
500.335	2.38
506.005	1.38
511.668	-0.62
517.325	-2.62
522.977	3.38
528.622	0.38
534.261	-1.62
539.894	3.38
545.521	3.38
551.141	5.38
556.756	6.38
562.365	2.38
567.968	2.38
573.565	2.38
579.155	3.38
584.74	3.38
590.319	1.38
595.892	3.38
601.459	3.38
607.02	-1.62
612.575	1.38
618.124	2.38
623.667	-0.62
629.204	0.38
634.735	0.38
640.261	2.38
645.781	-2.62
651.294	1.38
656.802	-2.62
662.304	2.38
667.8	3.38
673.29	0.38
678.775	-0.62
684.254	1.38
689.726	5.38
695.193	3.38
700.655	1.38
706.11	3.38
711.56	-2.62
717.004	2.38
722.442	0.38
727.874	-3.62
733.301	1.38
738.722	4.38
744.137	-0.62
749.547	0.38
754.951	-0.62
760.349	3.38
765.741	1.38
771.128	2.38
776.509	-2.62
781.885	2.38
787.254	-0.62
792.618	4.38
797.977	0.38
803.33	2.38
808.677	3.38
814.019	-0.62
819.355	1.38
824.686	2.38
830.011	3.38
835.33	2.38
840.644	1.38
845.952	4.38
851.255	1.38
856.552	1.38
861.844	3.38
867.13	1.38
872.41	3.38
877.686	0.38
882.955	3.38
888.219	2.38
893.478	4.38
898.731	3.38
903.979	-1.62
909.221	2.38
914.458	2.38
919.69	2.38
924.916	-1.62
930.136	1.38
935.351	1.38
940.561	3.38
945.766	4.38
950.965	-3.62
956.158	-1.62
961.347	-0.62
966.529	0.38
971.707	3.38
976.879	-1.62
982.046	2.38
987.208	0.38
992.364	-0.62
997.515	4.38
1002.66	1.38
1007.801	0.38
1012.936	0.38
1018.066	-3.62
1023.19	2.38
1028.309	0.38
1033.423	-0.62
1038.532	1.38
1043.636	-0.62
1048.734	3.38
1053.827	1.38
1058.915	0.38
1063.998	1.38
1069.075	2.38
1074.147	2.38
1079.214	2.38
1084.276	5.38
1089.333	5.38
1094.385	2.38
1099.431	4.38
1104.472	3.38
1109.509	2.38
1114.54	-1.62
1119.565	2.38
1124.586	0.38
1129.602	3.38
1134.613	-0.62
1139.618	-2.62
1144.619	-0.62
1149.614	-1.62
1154.604	-4.62
1159.589	-1.62
1164.57	-3.62
1169.545	-2.62
1174.515	3.38
1179.48	4.38
1184.44	3.38
1189.395	-0.62
1194.345	4.38
1199.29	3.38
1204.23	3.38
1209.165	4.38
1214.095	2.38
1219.021	4.38
1223.941	2.38
1228.856	2.38
1233.766	2.38
1238.672	0.38
1243.572	-0.62
1248.467	0.38
1253.358	0.38
1258.244	2.38
1263.124	-1.62
1268	-3.62
1272.871	-0.62
1277.737	-3.62
1282.599	2.38
1287.455	6.38
1292.306	3.38
1297.153	4.38
1301.995	1.38
1306.832	6.38
1311.664	7.38
1316.491	2.38
1321.314	3.38
1326.132	4.38
1330.945	3.38
1335.753	-0.62
1340.556	1.38
1345.354	1.38
1350.148	1.38
1354.937	-0.62
1359.722	-1.62
1364.501	-1.62
1369.276	-4.62
1374.046	-1.62
1378.811	-0.62
1383.572	1.38
1388.327	3.38
1393.079	-0.62
1397.825	1.38
1402.567	3.38
1407.304	6.38
1412.036	6.38
1416.764	6.38
1421.487	3.38
1426.205	3.38
1430.919	0.38
1435.628	1.38
1440.333	1.38
1445.032	1.38
1449.727	1.38
1454.418	0.38
1459.104	1.38
1463.785	1.38
1468.462	-1.62
1473.134	1.38
1477.802	-2.62
1482.465	-1.62
1487.123	-0.62
1491.777	1.38
1496.426	0.38
1501.071	-0.62
1505.711	0.38
1510.347	2.38
1514.978	4.38
1519.604	2.38
1524.226	4.38
1528.844	4.38
1533.457	0.38
1538.065	3.38
1542.669	3.38
1547.269	5.38
1551.864	3.38
1556.454	4.38
1561.041	4.38
1565.622	1.38
1570.199	0.38
1574.772	1.38
1579.34	1.38
1583.904	0.38
1588.464	1.38
1593.019	1.38
1597.569	0.38
1602.115	-0.62
1606.657	-1.62
1611.195	-0.62
1615.728	0.38
1620.256	-2.62
1624.78	-2.62
1629.3	1.38
1633.816	0.38
1638.327	3.38
1642.834	3.38
1647.336	3.38
1651.834	3.38
1656.328	7.38
1660.817	3.38
1665.302	1.38
1669.783	3.38
1674.259	2.38
1678.732	3.38
1683.199	0.38
1687.663	-0.62
1692.122	-0.62
1696.577	0.38
1701.028	-1.62
1705.474	-0.62
1709.917	-1.62
1714.355	1.38
1718.788	0.38
1723.218	1.38
1727.643	1.38
1732.064	0.38
1736.481	3.38
1740.893	4.38
1745.301	-0.62
1749.705	2.38
1754.105	1.38
1758.501	1.38
1762.893	5.38
1767.28	0.38
1771.663	1.38
1776.042	2.38
1780.417	2.38
1784.787	-0.62
1789.154	1.38
1793.516	0.38
1797.874	0.38
1802.228	1.38
1806.578	0.38
1810.924	-2.62
1815.266	3.38
1819.603	0.38
1823.937	3.38
1828.266	3.38
1832.591	3.38
1836.913	1.38
1841.23	6.38
1845.543	2.38
1849.852	1.38
1854.156	2.38
1858.457	3.38
1862.754	-0.62
1867.047	1.38
1871.335	2.38
1875.62	-0.62
1879.9	1.38
1884.177	-1.62
1888.449	0.38
1892.718	2.38
1896.982	-3.62
1901.243	0.38
1905.499	-0.62
1909.752	-0.62
1914	-0.62
1918.245	3.38
1922.485	-0.62
1926.722	-3.62
1930.954	-0.62
1935.183	2.38
1939.408	2.38
1943.628	1.38
1947.845	3.38
1952.058	0.38
1956.267	2.38
1960.472	1.38
1964.673	0.38
1968.87	3.38
1973.063	4.38
1977.252	-0.62
1981.438	-0.62
1985.619	-2.62
1989.797	-1.62
1993.971	1.38
1998.14	0.38
2002.306	-1.62
2006.469	-2.62
2010.627	-0.62
2014.781	-1.62
2018.932	-0.62
2023.078	-0.62
2027.221	-1.62
2031.36	3.38
2035.495	3.38
2039.627	3.38
2043.754	3.38
2047.878	4.38
2051.998	5.38
2056.114	6.38
2060.226	6.38
2064.334	2.38
2068.439	1.38
2072.54	2.38
2076.637	1.38
2080.73	0.38
2084.82	-0.62
2088.906	-0.62
2092.988	0.38
2097.066	-0.62
2101.14	-3.62
2105.211	-2.62
2109.278	-4.62
2113.342	2.38
2117.401	0.38
2121.457	0.38
2125.509	4.38
2129.558	6.38
2133.602	7.38
2137.643	5.38
2141.681	4.38
2145.714	8.38
2149.744	2.38
2153.77	1.38
2157.793	-0.62
2161.812	1.38
2165.827	5.38
2169.838	4.38
2173.846	-3.62
2177.851	1.38
2181.851	-4.62
2185.848	-0.62
2189.841	-1.62
2193.831	-1.62
2197.817	-2.62
2201.799	1.38
2205.778	0.38
2209.753	3.38
2213.725	3.38
2217.693	2.38
2221.657	4.38
2225.618	3.38
2229.575	3.38
2233.529	2.38
2237.479	1.38
2241.425	3.38
2245.368	3.38
2249.307	4.38
2253.243	1.38
2257.175	-1.62
2261.104	-3.62
2265.029	-1.62
2268.95	-3.62
2272.868	0.38
2276.783	-1.62
2280.694	0.38
2284.601	2.38
2288.505	1.38
2292.405	2.38
2296.302	1.38
2300.195	4.38
2304.085	7.38
2307.971	4.38
2311.854	5.38
2315.734	1.38
2319.609	1.38
2323.482	2.38
2327.351	-0.62
2331.216	1.38
2335.078	-1.62
2338.937	-0.62
2342.792	-3.62
2346.643	0.38
2350.492	1.38
2354.336	-1.62
2358.178	-0.62
2362.015	-1.62
2365.85	-0.62
2369.681	-0.62
2373.508	0.38
2377.333	3.38
2381.153	6.38
2384.971	3.38
2388.785	6.38
2392.595	2.38
2396.402	2.38
2400.206	5.38
2404.007	6.38
2407.804	3.38
2411.597	1.38
2415.388	-2.62
2419.174	1.38
2422.958	1.38
2426.738	-2.62
2430.515	-2.62
2434.289	-3.62
2438.059	-1.62
2441.825	-0.62
2445.589	-0.62
2449.349	-3.62
2453.106	1.38
2456.859	2.38
2460.61	2.38
2464.356	1.38
2468.1	3.38
2471.84	2.38
2475.577	5.38
2479.311	4.38
2483.041	3.38
2486.768	3.38
2490.492	2.38
2494.213	2.38
2497.93	-0.62
2501.644	2.38
2505.355	-1.62
2509.062	-0.62
2512.766	-0.62
2516.467	-1.62
2520.165	3.38
2523.859	0.38
2527.551	2.38
2531.239	1.38
2534.923	-0.62
2538.605	0.38
2542.283	3.38
2545.958	4.38
2549.63	-0.62
2553.299	1.38
2556.964	2.38
2560.626	0.38
2564.285	6.38
2567.941	3.38
2571.594	1.38
2575.243	1.38
2578.89	1.38
2582.533	-2.62
2586.173	-0.62
2589.809	-0.62
2593.443	-2.62
2597.073	-2.62
2600.701	0.38
2604.325	-0.62
2607.946	-1.62
2611.564	0.38
2615.178	1.38
2618.79	-1.62
2622.398	2.38
2626.004	-0.62
2629.606	4.38
2633.205	5.38
2636.801	1.38
2640.394	2.38
2643.983	-0.62
2647.57	1.38
2651.153	-1.62
2654.734	-2.62
2658.311	-1.62
2661.885	-0.62
2665.456	-1.62
2669.025	-0.62
2672.589	-3.62
2676.151	-0.62
2679.71	-0.62
2683.266	-1.62
2686.819	1.38
2690.368	7.38
2693.915	1.38
2697.458	5.38
2700.999	2.38
2704.536	3.38
2708.071	3.38
2711.602	4.38
2715.13	0.38
2718.656	-0.62
2722.178	3.38
2725.697	2.38
2729.214	1.38
2732.727	3.38
2736.237	-1.62
2739.744	-1.62
2743.249	-0.62
2746.75	0.38
2750.248	0.38
2753.743	0.38
2757.236	-3.62
2760.725	1.38
2764.211	2.38
2767.695	2.38
2771.175	3.38
2774.652	-1.62
2778.127	3.38
2781.598	5.38
2785.067	2.38
2788.532	-1.62
2791.995	2.38
2795.455	-1.62
2798.911	-0.62
2802.365	2.38
2805.816	2.38
2809.264	0.38
2812.709	-1.62
2816.151	0.38
2819.59	0.38
2823.026	-0.62
2826.46	3.38
2829.89	3.38
2833.318	-0.62
2836.742	1.38
2840.164	3.38
2843.583	4.38
2846.999	2.38
2850.412	-0.62
2853.822	-0.62
2857.229	0.38
2860.634	-1.62
2864.035	1.38
2867.434	-2.62
2870.83	2.38
2874.223	3.38
2877.613	3.38
2881	5.38
2884.385	3.38
2887.766	1.38
2891.145	2.38
2894.521	2.38
2897.894	3.38
2901.264	-0.62
2904.631	4.38
2907.996	4.38
2911.358	3.38
2914.717	7.38
2918.073	4.38
2921.426	0.38
2924.777	0.38
2928.124	2.38
2931.469	-0.62
2934.811	-0.62
2938.15	0.38
2941.487	-4.62
2944.821	-2.62
2948.152	-3.62
2951.48	-1.62
2954.805	-0.62
2958.128	1.38
2961.447	-0.62
2964.765	-1.62
2968.079	4.38
2971.39	0.38
2974.699	5.38
2978.005	3.38
2981.308	4.38
2984.609	2.38
2987.907	4.38
2991.202	3.38
2994.494	0.38
2997.784	1.38
3001.07	0.38
3004.355	0.38
3007.636	1.38
3010.915	-0.62
3014.191	-2.62
3017.464	0.38
3020.734	-0.62
3024.002	-3.62
3027.267	-1.62
3030.53	1.38
3033.789	0.38
3037.046	-0.62
3040.301	0.38
3043.552	2.38
3046.801	1.38
3050.048	0.38
3053.291	4.38
3056.532	4.38
3059.771	1.38
3063.006	6.38
3066.239	1.38
3069.469	3.38
3072.697	3.38
3075.922	0.38
3079.144	0.38
3082.364	0.38
3085.581	-2.62
3088.795	-5.62
3092.007	-5.62
3095.216	-5.62
3098.423	0.38
3101.627	1.38
3104.828	1.38
3108.026	0.38
3111.222	2.38
3114.416	0.38
3117.607	1.38
3120.795	2.38
3123.98	2.38
3127.163	2.38
3130.344	6.38
3133.521	5.38
3136.696	8.38
3139.869	3.38
3143.039	1.38
3146.206	-0.62
3149.371	3.38
3152.533	4.38
3155.693	-0.62
3158.85	-1.62
3162.005	-1.62
3165.157	-3.62
3168.306	4.38
3171.453	0.38
3174.597	-3.62
3177.739	-2.62
3180.878	-1.62
3184.014	-0.62
3187.149	2.38
3190.28	1.38
3193.409	-1.62
3196.536	4.38
3199.659	3.38
3202.781	2.38
3205.9	5.38
3209.016	4.38
3212.13	3.38
3215.241	0.38
3218.35	2.38
3221.456	0.38
3224.56	1.38
3227.661	3.38
3230.76	-0.62
3233.856	-2.62
3236.95	2.38
3240.041	-2.62
3243.13	-0.62
3246.216	-0.62
3249.3	-0.62
3252.382	-2.62
3255.46	0.38
3258.537	-0.62
3261.611	-0.62
3264.682	-0.62
3267.751	3.38
3270.818	6.38
3273.882	5.38
3276.943	4.38
3280.002	1.38
3283.059	6.38
3286.113	1.38
3289.165	1.38
3292.214	3.38
3295.261	1.38
3298.306	2.38
3301.348	1.38
3304.387	-0.62
3307.425	-5.62
3310.459	-4.62
3313.492	-0.62
3316.521	0.38
3319.549	-4.62
3322.574	-1.62
3325.597	-0.62
3328.617	0.38
3331.635	0.38
3334.65	1.38
3337.663	0.38
3340.674	-1.62
3343.682	2.38
3346.688	3.38
3349.691	3.38
3352.692	4.38
3355.691	4.38
3358.687	7.38
3361.681	5.38
3364.673	4.38
3367.662	0.38
3370.649	5.38
3373.633	1.38
3376.615	-0.62
3379.595	1.38
3382.572	-2.62
3385.547	-1.62
3388.52	-1.62
3391.49	-0.62
3394.458	-0.62
3397.424	-2.62
3400.387	1.38
3403.348	2.38
3406.307	3.38
3409.263	2.38
3412.217	-1.62
3415.168	5.38
3418.118	1.38
3421.065	5.38
3424.009	1.38
3426.951	5.38
3429.891	2.38
3432.829	-0.62
3435.764	0.38
3438.697	2.38
3441.628	0.38
3444.557	-2.62
3447.483	0.38
3450.407	-3.62
3453.328	-4.62
3456.247	1.38
3459.164	1.38
3462.079	3.38
3464.991	1.38
3467.902	-1.62
3470.809	-0.62
3473.715	2.38
3476.618	0.38
3479.519	4.38
3482.418	0.38
3485.315	4.38
3488.209	5.38
3491.101	1.38
3493.99	0.38
3496.878	4.38
3499.763	5.38
3502.646	-0.62
3505.527	4.38
3508.405	-0.62
3511.281	-0.62
3514.155	0.38
3517.027	-2.62
3519.897	1.38
3522.764	-0.62
3525.629	2.38
3528.492	1.38
3531.352	1.38
3534.211	0.38
3537.067	2.38
3539.921	2.38
3542.773	1.38
3545.622	4.38
3548.469	3.38
3551.315	5.38
3554.157	2.38
3556.998	6.38
3559.837	6.38
3562.673	0.38
3565.507	0.38
3568.339	-2.62
3571.169	-0.62
3573.996	-2.62
3576.822	-0.62
3579.645	-1.62
3582.466	-2.62
3585.285	3.38
3588.101	1.38
3590.916	-0.62
3593.728	0.38
3596.538	2.38
3599.346	1.38
3602.152	3.38
3604.956	2.38
3607.757	4.38
3610.556	5.38
3613.354	9.38
3616.149	4.38
3618.942	1.38
3621.732	-1.62
3624.521	0.38
3627.307	-0.62
3630.092	2.38
3632.874	0.38
3635.654	1.38
3638.432	-2.62
3641.208	0.38
3643.982	-1.62
3646.753	2.38
3649.523	-2.62
3652.29	0.38
3655.055	2.38
3657.818	3.38
3660.579	-2.62
3663.338	2.38
3666.095	3.38
3668.849	2.38
3671.602	3.38
3674.352	4.38
3677.101	3.38
3679.847	4.38
3682.591	1.38
3685.333	1.38
3688.073	-0.62
3690.811	3.38
3693.547	-0.62
3696.281	-0.62
3699.013	-3.62
3701.742	-0.62
3704.47	0.38
3707.195	-2.62
3709.919	1.38
3712.64	0.38
3715.359	3.38
3718.076	0.38
3720.792	3.38
3723.505	3.38
3726.216	-0.62
3728.925	3.38
3731.632	3.38
3734.336	3.38
3737.039	6.38
3739.74	5.38
3742.439	1.38
3745.136	-3.62
3747.83	-0.62
3750.523	-1.62
3753.213	-2.62
3755.902	-2.62
3758.589	1.38
3761.273	-2.62
3763.956	-1.62
3766.636	-0.62
3769.315	1.38
3771.991	-1.62
3774.665	1.38
3777.338	0.38
3780.008	4.38
3782.677	1.38
3785.343	2.38
3788.007	6.38
3790.67	3.38
3793.33	0.38
3795.989	0.38
3798.645	0.38
3801.299	-2.62
3803.952	-1.62
3806.602	0.38
3809.251	-3.62
3811.897	-6.62
3814.542	0.38
3817.184	-2.62
3819.825	-2.62
3822.463	-1.62
3825.1	0.38
3827.735	-1.62
3830.367	2.38
3832.998	3.38
3835.627	3.38
3838.253	4.38
3840.878	2.38
3843.501	1.38
3846.122	4.38
3848.741	2.38
3851.358	-0.62
3853.973	3.38
3856.586	4.38
3859.197	-0.62
3861.806	-1.62
3864.414	-0.62
3867.019	-4.62
3869.622	1.38
3872.224	-3.62
3874.823	-1.62
3877.421	0.38
3880.016	-0.62
3882.61	-0.62
3885.202	3.38
3887.792	2.38
3890.38	3.38
3892.966	6.38
3895.55	5.38
3898.132	3.38
3900.713	4.38
3903.291	0.38
3905.868	3.38
3908.442	0.38
3911.015	1.38
3913.586	3.38
3916.155	0.38
3918.722	-3.62
3921.287	0.38
3923.85	-5.62
3926.411	-0.62
3928.971	-3.62
3931.528	1.38
3934.084	1.38
3936.638	-3.62
3939.19	3.38
3941.74	2.38
3944.288	3.38
3946.834	3.38
3949.378	5.38
3951.921	5.38
3954.462	5.38
3957	1.38
3959.537	-0.62
3962.072	3.38
3964.606	2.38
3967.137	-1.62
3969.667	-1.62
3972.194	1.38
3974.72	1.38
3977.244	-2.62
3979.766	0.38
3982.286	1.38
3984.805	-0.62
3987.321	1.38
3989.836	-0.62
3992.349	-0.62
3994.86	0.38
3997.369	-3.62
3999.877	1.38
4002.382	2.38
4004.886	-0.62
4007.388	0.38
4009.888	2.38
4012.386	4.38
4014.883	0.38
4017.377	-1.62
4019.87	3.38
4022.361	3.38
4024.85	-2.62
4027.338	2.38
4029.823	2.38
4032.307	0.38
4034.789	1.38
4037.269	1.38
4039.747	2.38
4042.224	1.38
4044.699	1.38
4047.172	2.38
4049.643	-0.62
4052.112	-0.62
4054.58	-0.62
4057.046	-0.62
4059.51	0.38
4061.972	-1.62
4064.432	-1.62
4066.891	-1.62
4069.348	-2.62
4071.803	1.38
4074.256	2.38
4076.708	3.38
4079.158	5.38
4081.606	1.38
4084.052	3.38
4086.497	3.38
4088.939	4.38
4091.38	1.38
4093.819	0.38
4096.257	0.38
4098.693	5.38
4101.127	2.38
4103.559	1.38
4105.989	0.38
4108.418	-2.62
4110.845	-0.62
4113.27	1.38
4115.694	-2.62
4118.115	-0.62
4120.535	2.38
4122.954	1.38
4125.37	3.38
4127.785	3.38
4130.198	1.38
4132.609	0.38
4135.019	1.38
4137.427	1.38
4139.833	1.38
4142.237	-0.62
