Data from I0.2_T15s_Bsub_water_1-10^2_2_RamanShift_1.txt Node
Date: Mon Mar 13 12:42:25 IST 2017
User: aro
Spectrometer: QEPB0276
Trigger mode: 0
Integration Time (sec): 1.500000E1
Scans to average: 1
Electric dark correction enabled: true
Nonlinearity correction enabled: false
Boxcar width: 0
XAxis mode: Raman Shifts
Number of Pixels in Spectrum: 1044
>>>>>Begin Spectral Data<<<<<
160.701	2.38
166.742	-2.62
172.777	0.38
178.805	1.38
184.826	0.38
190.841	4.38
196.849	6.38
202.85	5.38
208.845	3.38
214.833	5.38
220.815	5.38
226.789	5.38
232.758	5.38
238.719	4.38
244.674	0.38
250.623	4.38
256.565	2.38
262.5	4.38
268.429	-0.62
274.351	0.38
280.267	4.38
286.176	5.38
292.079	7.38
297.975	4.38
303.865	4.38
309.748	-0.62
315.625	6.38
321.495	3.38
327.359	5.38
333.217	10.38
339.068	8.38
344.912	3.38
350.751	3.38
356.583	3.38
362.408	-1.62
368.227	-1.62
374.04	-1.62
379.847	-3.62
385.647	-0.62
391.44	4.38
397.228	-1.62
403.009	1.38
408.784	3.38
414.553	6.38
420.315	0.38
426.071	4.38
431.821	4.38
437.565	1.38
443.302	2.38
449.033	6.38
454.758	3.38
460.477	5.38
466.189	3.38
471.896	5.38
477.596	2.38
483.29	3.38
488.978	-0.62
494.66	1.38
500.335	9.38
506.005	4.38
511.668	2.38
517.325	3.38
522.977	2.38
528.622	1.38
534.261	-1.62
539.894	-0.62
545.521	3.38
551.141	1.38
556.756	4.38
562.365	3.38
567.968	-0.62
573.565	0.38
579.155	-2.62
584.74	5.38
590.319	1.38
595.892	1.38
601.459	4.38
607.02	1.38
612.575	1.38
618.124	-3.62
623.667	1.38
629.204	1.38
634.735	0.38
640.261	-1.62
645.781	-0.62
651.294	7.38
656.802	1.38
662.304	0.38
667.8	0.38
673.29	5.38
678.775	5.38
684.254	3.38
689.726	1.38
695.193	3.38
700.655	-5.62
706.11	2.38
711.56	3.38
717.004	0.38
722.442	-2.62
727.874	-0.62
733.301	-0.62
738.722	1.38
744.137	-6.62
749.547	-3.62
754.951	-0.62
760.349	1.38
765.741	3.38
771.128	1.38
776.509	0.38
781.885	5.38
787.254	7.38
792.618	0.38
797.977	3.38
803.33	5.38
808.677	5.38
814.019	2.38
819.355	4.38
824.686	0.38
830.011	2.38
835.33	2.38
840.644	-0.62
845.952	3.38
851.255	-1.62
856.552	-4.62
861.844	-2.62
867.13	-2.62
872.41	-0.62
877.686	-0.62
882.955	1.38
888.219	-2.62
893.478	2.38
898.731	5.38
903.979	2.38
909.221	7.38
914.458	1.38
919.69	3.38
924.916	1.38
930.136	3.38
935.351	2.38
940.561	6.38
945.766	3.38
950.965	3.38
956.158	3.38
961.347	-3.62
966.529	3.38
971.707	-1.62
976.879	1.38
982.046	-2.62
987.208	3.38
992.364	-2.62
997.515	4.38
1002.66	-3.62
1007.801	-0.62
1012.936	3.38
1018.066	3.38
1023.19	-0.62
1028.309	-0.62
1033.423	4.38
1038.532	-1.62
1043.636	-0.62
1048.734	-1.62
1053.827	-1.62
1058.915	4.38
1063.998	2.38
1069.075	5.38
1074.147	4.38
1079.214	-0.62
1084.276	-0.62
1089.333	1.38
1094.385	1.38
1099.431	5.38
1104.472	2.38
1109.509	1.38
1114.54	4.38
1119.565	1.38
1124.586	-2.62
1129.602	-0.62
1134.613	-0.62
1139.618	-1.62
1144.619	3.38
1149.614	3.38
1154.604	2.38
1159.589	6.38
1164.57	1.38
1169.545	-1.62
1174.515	0.38
1179.48	1.38
1184.44	-1.62
1189.395	2.38
1194.345	2.38
1199.29	1.38
1204.23	-2.62
1209.165	-1.62
1214.095	3.38
1219.021	3.38
1223.941	2.38
1228.856	-0.62
1233.766	1.38
1238.672	1.38
1243.572	5.38
1248.467	1.38
1253.358	0.38
1258.244	5.38
1263.124	-2.62
1268	2.38
1272.871	-0.62
1277.737	1.38
1282.599	-1.62
1287.455	0.38
1292.306	2.38
1297.153	3.38
1301.995	-1.62
1306.832	0.38
1311.664	2.38
1316.491	5.38
1321.314	-1.62
1326.132	3.38
1330.945	1.38
1335.753	3.38
1340.556	3.38
1345.354	3.38
1350.148	-0.62
1354.937	1.38
1359.722	5.38
1364.501	-0.62
1369.276	-1.62
1374.046	1.38
1378.811	2.38
1383.572	2.38
1388.327	1.38
1393.079	-1.62
1397.825	2.38
1402.567	1.38
1407.304	-2.62
1412.036	-0.62
1416.764	-0.62
1421.487	4.38
1426.205	4.38
1430.919	0.38
1435.628	3.38
1440.333	2.38
1445.032	1.38
1449.727	2.38
1454.418	-0.62
1459.104	1.38
1463.785	8.38
1468.462	4.38
1473.134	0.38
1477.802	6.38
1482.465	3.38
1487.123	0.38
1491.777	0.38
1496.426	1.38
1501.071	3.38
1505.711	2.38
1510.347	4.38
1514.978	-1.62
1519.604	4.38
1524.226	3.38
1528.844	2.38
1533.457	1.38
1538.065	4.38
1542.669	2.38
1547.269	0.38
1551.864	3.38
1556.454	2.38
1561.041	2.38
1565.622	-4.62
1570.199	2.38
1574.772	-0.62
1579.34	1.38
1583.904	1.38
1588.464	-1.62
1593.019	-0.62
1597.569	6.38
1602.115	0.38
1606.657	0.38
1611.195	-0.62
1615.728	1.38
1620.256	2.38
1624.78	1.38
1629.3	1.38
1633.816	3.38
1638.327	5.38
1642.834	3.38
1647.336	1.38
1651.834	-0.62
1656.328	0.38
1660.817	-0.62
1665.302	2.38
1669.783	-2.62
1674.259	1.38
1678.732	4.38
1683.199	-0.62
1687.663	0.38
1692.122	0.38
1696.577	2.38
1701.028	-2.62
1705.474	-0.62
1709.917	6.38
1714.355	-2.62
1718.788	2.38
1723.218	0.38
1727.643	7.38
1732.064	-2.62
1736.481	2.38
1740.893	3.38
1745.301	-2.62
1749.705	0.38
1754.105	1.38
1758.501	2.38
1762.893	0.38
1767.28	-0.62
1771.663	-0.62
1776.042	-1.62
1780.417	4.38
1784.787	-0.62
1789.154	1.38
1793.516	-1.62
1797.874	-2.62
1802.228	0.38
1806.578	2.38
1810.924	3.38
1815.266	-2.62
1819.603	0.38
1823.937	3.38
1828.266	1.38
1832.591	0.38
1836.913	5.38
1841.23	0.38
1845.543	4.38
1849.852	7.38
1854.156	2.38
1858.457	1.38
1862.754	2.38
1867.047	5.38
1871.335	7.38
1875.62	1.38
1879.9	2.38
1884.177	-2.62
1888.449	-0.62
1892.718	-3.62
1896.982	-4.62
1901.243	-0.62
1905.499	-0.62
1909.752	-3.62
1914	-4.62
1918.245	0.38
1922.485	-6.62
1926.722	1.38
1930.954	5.38
1935.183	4.38
1939.408	5.38
1943.628	-3.62
1947.845	4.38
1952.058	6.38
1956.267	4.38
1960.472	3.38
1964.673	1.38
1968.87	3.38
1973.063	4.38
1977.252	-0.62
1981.438	-1.62
1985.619	3.38
1989.797	-0.62
1993.971	-1.62
1998.14	-0.62
2002.306	0.38
2006.469	-7.62
2010.627	-2.62
2014.781	0.38
2018.932	-4.62
2023.078	1.38
2027.221	8.38
2031.36	0.38
2035.495	1.38
2039.627	0.38
2043.754	0.38
2047.878	1.38
2051.998	1.38
2056.114	7.38
2060.226	6.38
2064.334	2.38
2068.439	3.38
2072.54	-2.62
2076.637	-1.62
2080.73	4.38
2084.82	-2.62
2088.906	-1.62
2092.988	-1.62
2097.066	-0.62
2101.14	-4.62
2105.211	-0.62
2109.278	-0.62
2113.342	0.38
2117.401	-2.62
2121.457	-0.62
2125.509	-0.62
2129.558	-5.62
2133.602	-1.62
2137.643	3.38
2141.681	2.38
2145.714	-0.62
2149.744	1.38
2153.77	-1.62
2157.793	2.38
2161.812	4.38
2165.827	7.38
2169.838	0.38
2173.846	1.38
2177.851	5.38
2181.851	-0.62
2185.848	-0.62
2189.841	5.38
2193.831	-2.62
2197.817	0.38
2201.799	-3.62
2205.778	-6.62
2209.753	0.38
2213.725	1.38
2217.693	3.38
2221.657	1.38
2225.618	-3.62
2229.575	-1.62
2233.529	3.38
2237.479	-1.62
2241.425	0.38
2245.368	-2.62
2249.307	6.38
2253.243	-4.62
2257.175	0.38
2261.104	6.38
2265.029	1.38
2268.95	0.38
2272.868	-0.62
2276.783	-1.62
2280.694	2.38
2284.601	2.38
2288.505	5.38
2292.405	-0.62
2296.302	3.38
2300.195	0.38
2304.085	-3.62
2307.971	2.38
2311.854	0.38
2315.734	-4.62
2319.609	0.38
2323.482	5.38
2327.351	0.38
2331.216	-0.62
2335.078	-5.62
2338.937	0.38
2342.792	-2.62
2346.643	-2.62
2350.492	3.38
2354.336	0.38
2358.178	1.38
2362.015	1.38
2365.85	1.38
2369.681	0.38
2373.508	-3.62
2377.333	1.38
2381.153	-3.62
2384.971	0.38
2388.785	0.38
2392.595	-0.62
2396.402	5.38
2400.206	-0.62
2404.007	1.38
2407.804	0.38
2411.597	5.38
2415.388	5.38
2419.174	4.38
2422.958	2.38
2426.738	0.38
2430.515	1.38
2434.289	2.38
2438.059	-0.62
2441.825	-4.62
2445.589	-0.62
2449.349	1.38
2453.106	1.38
2456.859	-1.62
2460.61	0.38
2464.356	2.38
2468.1	1.38
2471.84	-0.62
2475.577	2.38
2479.311	3.38
2483.041	7.38
2486.768	2.38
2490.492	1.38
2494.213	2.38
2497.93	5.38
2501.644	3.38
2505.355	6.38
2509.062	9.38
2512.766	1.38
2516.467	4.38
2520.165	2.38
2523.859	3.38
2527.551	1.38
2531.239	-2.62
2534.923	-1.62
2538.605	1.38
2542.283	-1.62
2545.958	-2.62
2549.63	-1.62
2553.299	1.38
2556.964	-0.62
2560.626	-2.62
2564.285	-4.62
2567.941	0.38
2571.594	3.38
2575.243	6.38
2578.89	-0.62
2582.533	4.38
2586.173	3.38
2589.809	1.38
2593.443	3.38
2597.073	3.38
2600.701	2.38
2604.325	2.38
2607.946	-1.62
2611.564	6.38
2615.178	1.38
2618.79	1.38
2622.398	0.38
2626.004	1.38
2629.606	1.38
2633.205	0.38
2636.801	6.38
2640.394	3.38
2643.983	0.38
2647.57	-0.62
2651.153	1.38
2654.734	-1.62
2658.311	-1.62
2661.885	0.38
2665.456	-2.62
2669.025	-2.62
2672.589	-5.62
2676.151	5.38
2679.71	1.38
2683.266	-0.62
2686.819	2.38
2690.368	1.38
2693.915	-2.62
2697.458	-0.62
2700.999	-0.62
2704.536	-0.62
2708.071	-3.62
2711.602	-0.62
2715.13	4.38
2718.656	-2.62
2722.178	-0.62
2725.697	4.38
2729.214	-0.62
2732.727	0.38
2736.237	5.38
2739.744	7.38
2743.249	0.38
2746.75	2.38
2750.248	-3.62
2753.743	-2.62
2757.236	2.38
2760.725	2.38
2764.211	-3.62
2767.695	-1.62
2771.175	-1.62
2774.652	-3.62
2778.127	1.38
2781.598	-3.62
2785.067	3.38
2788.532	-4.62
2791.995	-4.62
2795.455	-0.62
2798.911	-3.62
2802.365	-3.62
2805.816	4.38
2809.264	1.38
2812.709	0.38
2816.151	4.38
2819.59	4.38
2823.026	8.38
2826.46	2.38
2829.89	2.38
2833.318	3.38
2836.742	2.38
2840.164	1.38
2843.583	0.38
2846.999	1.38
2850.412	3.38
2853.822	-0.62
2857.229	0.38
2860.634	2.38
2864.035	-2.62
2867.434	-4.62
2870.83	-3.62
2874.223	-4.62
2877.613	-0.62
2881	0.38
2884.385	-2.62
2887.766	-4.62
2891.145	-4.62
2894.521	1.38
2897.894	2.38
2901.264	-0.62
2904.631	2.38
2907.996	6.38
2911.358	0.38
2914.717	0.38
2918.073	6.38
2921.426	-0.62
2924.777	6.38
2928.124	6.38
2931.469	4.38
2934.811	5.38
2938.15	4.38
2941.487	1.38
2944.821	-1.62
2948.152	1.38
2951.48	-5.62
2954.805	-3.62
2958.128	-1.62
2961.447	-7.62
2964.765	-3.62
2968.079	-0.62
2971.39	-0.62
2974.699	0.38
2978.005	-0.62
2981.308	1.38
2984.609	-2.62
2987.907	-0.62
2991.202	2.38
2994.494	7.38
2997.784	0.38
3001.07	-0.62
3004.355	2.38
3007.636	4.38
3010.915	3.38
3014.191	3.38
3017.464	-0.62
3020.734	4.38
3024.002	2.38
3027.267	4.38
3030.53	-0.62
3033.789	-4.62
3037.046	-1.62
3040.301	-2.62
3043.552	-0.62
3046.801	-1.62
3050.048	0.38
3053.291	1.38
3056.532	-2.62
3059.771	-1.62
3063.006	0.38
3066.239	-0.62
3069.469	2.38
3072.697	3.38
3075.922	2.38
3079.144	0.38
3082.364	6.38
3085.581	6.38
3088.795	8.38
3092.007	3.38
3095.216	0.38
3098.423	6.38
3101.627	3.38
3104.828	-1.62
3108.026	0.38
3111.222	-1.62
3114.416	2.38
3117.607	3.38
3120.795	-0.62
3123.98	-5.62
3127.163	-5.62
3130.344	1.38
3133.521	2.38
3136.696	2.38
3139.869	-3.62
3143.039	0.38
3146.206	-2.62
3149.371	-1.62
3152.533	1.38
3155.693	-0.62
3158.85	-0.62
3162.005	5.38
3165.157	5.38
3168.306	6.38
3171.453	2.38
3174.597	7.38
3177.739	3.38
3180.878	6.38
3184.014	0.38
3187.149	4.38
3190.28	4.38
3193.409	-3.62
3196.536	2.38
3199.659	-1.62
3202.781	-4.62
3205.9	-0.62
3209.016	-6.62
3212.13	-1.62
3215.241	0.38
3218.35	-0.62
3221.456	3.38
3224.56	-4.62
3227.661	-0.62
3230.76	2.38
3233.856	1.38
3236.95	4.38
3240.041	-1.62
3243.13	5.38
3246.216	3.38
3249.3	4.38
3252.382	0.38
3255.46	3.38
3258.537	3.38
3261.611	6.38
3264.682	4.38
3267.751	-0.62
3270.818	3.38
3273.882	-1.62
3276.943	-1.62
3280.002	-1.62
3283.059	0.38
3286.113	-3.62
3289.165	-5.62
3292.214	-1.62
3295.261	-1.62
3298.306	-6.62
3301.348	4.38
3304.387	1.38
3307.425	2.38
3310.459	1.38
3313.492	3.38
3316.521	2.38
3319.549	4.38
3322.574	1.38
3325.597	4.38
3328.617	3.38
3331.635	2.38
3334.65	-1.62
3337.663	1.38
3340.674	0.38
3343.682	1.38
3346.688	-2.62
3349.691	-5.62
3352.692	0.38
3355.691	-2.62
3358.687	-2.62
3361.681	-2.62
3364.673	-0.62
3367.662	-2.62
3370.649	-0.62
3373.633	1.38
3376.615	-0.62
3379.595	0.38
3382.572	2.38
3385.547	0.38
3388.52	5.38
3391.49	3.38
3394.458	1.38
3397.424	0.38
3400.387	0.38
3403.348	3.38
3406.307	5.38
3409.263	0.38
3412.217	-4.62
3415.168	5.38
3418.118	-0.62
3421.065	-1.62
3424.009	-3.62
3426.951	5.38
3429.891	-3.62
3432.829	1.38
3435.764	-1.62
3438.697	5.38
3441.628	-3.62
3444.557	1.38
3447.483	-1.62
3450.407	1.38
3453.328	3.38
3456.247	-2.62
3459.164	0.38
3462.079	-2.62
3464.991	3.38
3467.902	0.38
3470.809	1.38
3473.715	-1.62
3476.618	0.38
3479.519	0.38
3482.418	2.38
3485.315	4.38
3488.209	1.38
3491.101	0.38
3493.99	-1.62
3496.878	-3.62
3499.763	-0.62
3502.646	-2.62
3505.527	-2.62
3508.405	-0.62
3511.281	-5.62
3514.155	4.38
3517.027	3.38
3519.897	4.38
3522.764	-2.62
3525.629	-3.62
3528.492	0.38
3531.352	1.38
3534.211	-1.62
3537.067	-4.62
3539.921	-1.62
3542.773	0.38
3545.622	-0.62
3548.469	0.38
3551.315	-1.62
3554.157	1.38
3556.998	3.38
3559.837	8.38
3562.673	1.38
3565.507	-1.62
3568.339	0.38
3571.169	3.38
3573.996	-1.62
3576.822	5.38
3579.645	3.38
3582.466	-1.62
3585.285	4.38
3588.101	2.38
3590.916	0.38
3593.728	2.38
3596.538	-1.62
3599.346	3.38
3602.152	-5.62
3604.956	-0.62
3607.757	-0.62
3610.556	-2.62
3613.354	-4.62
3616.149	-1.62
3618.942	1.38
3621.732	-0.62
3624.521	-0.62
3627.307	-2.62
3630.092	4.38
3632.874	2.38
3635.654	-3.62
3638.432	4.38
3641.208	3.38
3643.982	3.38
3646.753	3.38
3649.523	-0.62
3652.29	3.38
3655.055	6.38
3657.818	-2.62
3660.579	-2.62
3663.338	0.38
3666.095	1.38
3668.849	1.38
3671.602	1.38
3674.352	-3.62
3677.101	-2.62
3679.847	-0.62
3682.591	-5.62
3685.333	-1.62
3688.073	-1.62
3690.811	0.38
3693.547	0.38
3696.281	2.38
3699.013	-2.62
3701.742	-0.62
3704.47	-0.62
3707.195	1.38
3709.919	0.38
3712.64	1.38
3715.359	-1.62
3718.076	1.38
3720.792	0.38
3723.505	2.38
3726.216	0.38
3728.925	4.38
3731.632	-4.62
3734.336	-0.62
3737.039	0.38
3739.74	-4.62
3742.439	-2.62
3745.136	0.38
3747.83	-2.62
3750.523	0.38
3753.213	1.38
3755.902	-1.62
3758.589	0.38
3761.273	-3.62
3763.956	0.38
3766.636	2.38
3769.315	-0.62
3771.991	1.38
3774.665	2.38
3777.338	-3.62
3780.008	-5.62
3782.677	-1.62
3785.343	-2.62
3788.007	-0.62
3790.67	-3.62
3793.33	0.38
3795.989	-0.62
3798.645	-4.62
3801.299	2.38
3803.952	-1.62
3806.602	-4.62
3809.251	0.38
3811.897	3.38
3814.542	0.38
3817.184	3.38
3819.825	-2.62
3822.463	-2.62
3825.1	3.38
3827.735	3.38
3830.367	-1.62
3832.998	5.38
3835.627	-3.62
3838.253	-3.62
3840.878	3.38
3843.501	-2.62
3846.122	-1.62
3848.741	-4.62
3851.358	-3.62
3853.973	2.38
3856.586	-7.62
3859.197	2.38
3861.806	2.38
3864.414	-5.62
3867.019	4.38
3869.622	2.38
3872.224	0.38
3874.823	1.38
3877.421	3.38
3880.016	3.38
3882.61	3.38
3885.202	3.38
3887.792	1.38
3890.38	-0.62
3892.966	1.38
3895.55	4.38
3898.132	2.38
3900.713	2.38
3903.291	-1.62
3905.868	-4.62
3908.442	-2.62
3911.015	-1.62
3913.586	-2.62
3916.155	-3.62
3918.722	-2.62
3921.287	1.38
3923.85	1.38
3926.411	-0.62
3928.971	2.38
3931.528	-5.62
3934.084	-0.62
3936.638	4.38
3939.19	5.38
3941.74	1.38
3944.288	2.38
3946.834	3.38
3949.378	0.38
3951.921	3.38
3954.462	2.38
3957	1.38
3959.537	3.38
3962.072	0.38
3964.606	-1.62
3967.137	-0.62
3969.667	0.38
3972.194	-2.62
3974.72	0.38
3977.244	-6.62
3979.766	1.38
3982.286	-1.62
3984.805	-4.62
3987.321	2.38
3989.836	1.38
3992.349	5.38
3994.86	-1.62
3997.369	3.38
3999.877	0.38
4002.382	1.38
4004.886	1.38
4007.388	1.38
4009.888	-2.62
4012.386	1.38
4014.883	-0.62
4017.377	1.38
4019.87	3.38
4022.361	0.38
4024.85	-1.62
4027.338	1.38
4029.823	1.38
4032.307	1.38
4034.789	0.38
4037.269	-0.62
4039.747	-2.62
4042.224	-2.62
4044.699	-1.62
4047.172	0.38
4049.643	2.38
4052.112	-1.62
4054.58	0.38
4057.046	4.38
4059.51	-0.62
4061.972	-1.62
4064.432	-1.62
4066.891	-0.62
4069.348	1.38
4071.803	-3.62
4074.256	5.38
4076.708	1.38
4079.158	-1.62
4081.606	2.38
4084.052	1.38
4086.497	1.38
4088.939	0.38
4091.38	3.38
4093.819	-0.62
4096.257	1.38
4098.693	1.38
4101.127	-0.62
4103.559	0.38
4105.989	2.38
4108.418	2.38
4110.845	0.38
4113.27	-4.62
4115.694	-0.62
4118.115	-1.62
4120.535	4.38
4122.954	2.38
4125.37	-2.62
4127.785	2.38
4130.198	-0.62
4132.609	-2.62
4135.019	-1.62
4137.427	-3.62
4139.833	1.38
4142.237	2.38
