Data from I0.5_T15s_Bsub_water_0_1_RamanShift_0.txt Node
Date: Mon Mar 13 14:14:47 IST 2017
User: aro
Spectrometer: QEPB0276
Trigger mode: 0
Integration Time (sec): 1.500000E1
Scans to average: 1
Electric dark correction enabled: true
Nonlinearity correction enabled: false
Boxcar width: 0
XAxis mode: Raman Shifts
Number of Pixels in Spectrum: 1044
>>>>>Begin Spectral Data<<<<<
160.701	-27.62
166.742	8.38
172.777	117.38
178.805	437.38
184.826	1257.38
190.841	2652.38
196.849	4260.38
202.85	5343.38
208.845	5595.38
214.833	5464.38
220.815	5321.38
226.789	5217.38
232.758	5162.38
238.719	5049.38
244.674	4943.38
250.623	4815.38
256.565	4646.38
262.5	4535.38
268.429	4416.38
274.351	4285.38
280.267	4201.38
286.176	4098.38
292.079	4013.38
297.975	3923.38
303.865	3825.38
309.748	3745.38
315.625	3673.38
321.495	3618.38
327.359	3556.38
333.217	3514.38
339.068	3463.38
344.912	3443.38
350.751	3413.38
356.583	3355.38
362.408	3335.38
368.227	3338.38
374.04	3307.38
379.847	3326.38
385.647	3326.38
391.44	3315.38
397.228	3319.38
403.009	3327.38
408.784	3322.38
414.553	3328.38
420.315	3349.38
426.071	3339.38
431.821	3331.38
437.565	3290.38
443.302	3304.38
449.033	3295.38
454.758	3291.38
460.477	3281.38
466.189	3259.38
471.896	3256.38
477.596	3235.38
483.29	3202.38
488.978	3214.38
494.66	3197.38
500.335	3188.38
506.005	3148.38
511.668	3079.38
517.325	3069.38
522.977	3027.38
528.622	2992.38
534.261	2999.38
539.894	2980.38
545.521	2961.38
551.141	2977.38
556.756	2963.38
562.365	2941.38
567.968	2933.38
573.565	2932.38
579.155	2889.38
584.74	2894.38
590.319	2880.38
595.892	2861.38
601.459	2856.38
607.02	2846.38
612.575	2835.38
618.124	2802.38
623.667	2775.38
629.204	2763.38
634.735	2742.38
640.261	2744.38
645.781	2732.38
651.294	2746.38
656.802	2703.38
662.304	2713.38
667.8	2703.38
673.29	2705.38
678.775	2705.38
684.254	2719.38
689.726	2705.38
695.193	2689.38
700.655	2683.38
706.11	2684.38
711.56	2685.38
717.004	2659.38
722.442	2634.38
727.874	2647.38
733.301	2633.38
738.722	2621.38
744.137	2608.38
749.547	2623.38
754.951	2607.38
760.349	2637.38
765.741	2633.38
771.128	2641.38
776.509	2652.38
781.885	2638.38
787.254	2640.38
792.618	2657.38
797.977	2623.38
803.33	2608.38
808.677	2617.38
814.019	2589.38
819.355	2610.38
824.686	2563.38
830.011	2552.38
835.33	2547.38
840.644	2553.38
845.952	2545.38
851.255	2520.38
856.552	2573.38
861.844	2573.38
867.13	2556.38
872.41	2559.38
877.686	2525.38
882.955	2532.38
888.219	2518.38
893.478	2488.38
898.731	2463.38
903.979	2426.38
909.221	2434.38
914.458	2431.38
919.69	2447.38
924.916	2429.38
930.136	2434.38
935.351	2457.38
940.561	2457.38
945.766	2443.38
950.965	2463.38
956.158	2429.38
961.347	2399.38
966.529	2379.38
971.707	2353.38
976.879	2365.38
982.046	2320.38
987.208	2324.38
992.364	2328.38
997.515	2358.38
1002.66	2365.38
1007.801	2410.38
1012.936	2409.38
1018.066	2422.38
1023.19	2453.38
1028.309	2450.38
1033.423	2459.38
1038.532	2446.38
1043.636	2411.38
1048.734	2420.38
1053.827	2397.38
1058.915	2379.38
1063.998	2358.38
1069.075	2380.38
1074.147	2388.38
1079.214	2394.38
1084.276	2405.38
1089.333	2439.38
1094.385	2451.38
1099.431	2461.38
1104.472	2455.38
1109.509	2459.38
1114.54	2456.38
1119.565	2414.38
1124.586	2374.38
1129.602	2400.38
1134.613	2355.38
1139.618	2379.38
1144.619	2366.38
1149.614	2372.38
1154.604	2397.38
1159.589	2385.38
1164.57	2415.38
1169.545	2409.38
1174.515	2425.38
1179.48	2427.38
1184.44	2394.38
1189.395	2396.38
1194.345	2386.38
1199.29	2362.38
1204.23	2398.38
1209.165	2406.38
1214.095	2405.38
1219.021	2449.38
1223.941	2469.38
1228.856	2476.38
1233.766	2502.38
1238.672	2497.38
1243.572	2477.38
1248.467	2470.38
1253.358	2451.38
1258.244	2439.38
1263.124	2390.38
1268	2364.38
1272.871	2325.38
1277.737	2320.38
1282.599	2321.38
1287.455	2337.38
1292.306	2368.38
1297.153	2385.38
1301.995	2400.38
1306.832	2409.38
1311.664	2418.38
1316.491	2406.38
1321.314	2406.38
1326.132	2391.38
1330.945	2377.38
1335.753	2335.38
1340.556	2283.38
1345.354	2254.38
1350.148	2224.38
1354.937	2234.38
1359.722	2228.38
1364.501	2253.38
1369.276	2277.38
1374.046	2311.38
1378.811	2328.38
1383.572	2349.38
1388.327	2337.38
1393.079	2298.38
1397.825	2260.38
1402.567	2241.38
1407.304	2220.38
1412.036	2204.38
1416.764	2188.38
1421.487	2184.38
1426.205	2206.38
1430.919	2212.38
1435.628	2248.38
1440.333	2267.38
1445.032	2270.38
1449.727	2281.38
1454.418	2288.38
1459.104	2289.38
1463.785	2286.38
1468.462	2263.38
1473.134	2217.38
1477.802	2235.38
1482.465	2208.38
1487.123	2223.38
1491.777	2223.38
1496.426	2255.38
1501.071	2260.38
1505.711	2291.38
1510.347	2317.38
1514.978	2343.38
1519.604	2374.38
1524.226	2365.38
1528.844	2389.38
1533.457	2368.38
1538.065	2376.38
1542.669	2361.38
1547.269	2361.38
1551.864	2358.38
1556.454	2342.38
1561.041	2360.38
1565.622	2358.38
1570.199	2372.38
1574.772	2390.38
1579.34	2418.38
1583.904	2424.38
1588.464	2475.38
1593.019	2443.38
1597.569	2475.38
1602.115	2465.38
1606.657	2451.38
1611.195	2429.38
1615.728	2436.38
1620.256	2440.38
1624.78	2455.38
1629.3	2467.38
1633.816	2512.38
1638.327	2536.38
1642.834	2555.38
1647.336	2582.38
1651.834	2590.38
1656.328	2594.38
1660.817	2592.38
1665.302	2600.38
1669.783	2546.38
1674.259	2522.38
1678.732	2455.38
1683.199	2390.38
1687.663	2327.38
1692.122	2266.38
1696.577	2223.38
1701.028	2220.38
1705.474	2197.38
1709.917	2196.38
1714.355	2192.38
1718.788	2166.38
1723.218	2126.38
1727.643	2106.38
1732.064	2085.38
1736.481	2046.38
1740.893	2025.38
1745.301	1959.38
1749.705	1964.38
1754.105	1908.38
1758.501	1884.38
1762.893	1868.38
1767.28	1825.38
1771.663	1813.38
1776.042	1838.38
1780.417	1838.38
1784.787	1843.38
1789.154	1879.38
1793.516	1894.38
1797.874	1897.38
1802.228	1931.38
1806.578	1908.38
1810.924	1903.38
1815.266	1914.38
1819.603	1872.38
1823.937	1849.38
1828.266	1825.38
1832.591	1819.38
1836.913	1786.38
1841.23	1759.38
1845.543	1781.38
1849.852	1785.38
1854.156	1784.38
1858.457	1795.38
1862.754	1791.38
1867.047	1788.38
1871.335	1808.38
1875.62	1811.38
1879.9	1809.38
1884.177	1804.38
1888.449	1794.38
1892.718	1768.38
1896.982	1794.38
1901.243	1778.38
1905.499	1773.38
1909.752	1762.38
1914	1779.38
1918.245	1773.38
1922.485	1781.38
1926.722	1798.38
1930.954	1814.38
1935.183	1814.38
1939.408	1825.38
1943.628	1815.38
1947.845	1825.38
1952.058	1840.38
1956.267	1828.38
1960.472	1821.38
1964.673	1797.38
1968.87	1789.38
1973.063	1762.38
1977.252	1754.38
1981.438	1730.38
1985.619	1738.38
1989.797	1730.38
1993.971	1737.38
1998.14	1736.38
2002.306	1728.38
2006.469	1725.38
2010.627	1739.38
2014.781	1726.38
2018.932	1737.38
2023.078	1704.38
2027.221	1721.38
2031.36	1687.38
2035.495	1670.38
2039.627	1675.38
2043.754	1636.38
2047.878	1639.38
2051.998	1635.38
2056.114	1643.38
2060.226	1649.38
2064.334	1673.38
2068.439	1666.38
2072.54	1679.38
2076.637	1666.38
2080.73	1682.38
2084.82	1699.38
2088.906	1687.38
2092.988	1688.38
2097.066	1672.38
2101.14	1668.38
2105.211	1661.38
2109.278	1651.38
2113.342	1631.38
2117.401	1650.38
2121.457	1633.38
2125.509	1651.38
2129.558	1614.38
2133.602	1624.38
2137.643	1618.38
2141.681	1625.38
2145.714	1624.38
2149.744	1613.38
2153.77	1604.38
2157.793	1583.38
2161.812	1558.38
2165.827	1545.38
2169.838	1523.38
2173.846	1516.38
2177.851	1489.38
2181.851	1499.38
2185.848	1477.38
2189.841	1466.38
2193.831	1457.38
2197.817	1456.38
2201.799	1440.38
2205.778	1450.38
2209.753	1452.38
2213.725	1457.38
2217.693	1436.38
2221.657	1451.38
2225.618	1448.38
2229.575	1432.38
2233.529	1462.38
2237.479	1434.38
2241.425	1425.38
2245.368	1388.38
2249.307	1392.38
2253.243	1381.38
2257.175	1369.38
2261.104	1351.38
2265.029	1333.38
2268.95	1324.38
2272.868	1325.38
2276.783	1309.38
2280.694	1309.38
2284.601	1288.38
2288.505	1285.38
2292.405	1284.38
2296.302	1268.38
2300.195	1251.38
2304.085	1235.38
2307.971	1226.38
2311.854	1194.38
2315.734	1206.38
2319.609	1163.38
2323.482	1155.38
2327.351	1152.38
2331.216	1134.38
2335.078	1130.38
2338.937	1139.38
2342.792	1138.38
2346.643	1127.38
2350.492	1110.38
2354.336	1128.38
2358.178	1128.38
2362.015	1114.38
2365.85	1138.38
2369.681	1133.38
2373.508	1110.38
2377.333	1146.38
2381.153	1128.38
2384.971	1138.38
2388.785	1111.38
2392.595	1125.38
2396.402	1103.38
2400.206	1106.38
2404.007	1089.38
2407.804	1094.38
2411.597	1093.38
2415.388	1101.38
2419.174	1089.38
2422.958	1094.38
2426.738	1081.38
2430.515	1062.38
2434.289	1073.38
2438.059	1078.38
2441.825	1077.38
2445.589	1046.38
2449.349	1050.38
2453.106	1057.38
2456.859	1031.38
2460.61	1033.38
2464.356	1031.38
2468.1	1018.38
2471.84	1005.38
2475.577	1025.38
2479.311	1001.38
2483.041	1011.38
2486.768	1008.38
2490.492	1004.38
2494.213	1013.38
2497.93	1027.38
2501.644	1017.38
2505.355	1013.38
2509.062	1004.38
2512.766	1010.38
2516.467	1009.38
2520.165	1006.38
2523.859	982.38
2527.551	993.38
2531.239	968.38
2534.923	983.38
2538.605	973.38
2542.283	975.38
2545.958	963.38
2549.63	959.38
2553.299	955.38
2556.964	946.38
2560.626	948.38
2564.285	947.38
2567.941	939.38
2571.594	933.38
2575.243	934.38
2578.89	926.38
2582.533	914.38
2586.173	918.38
2589.809	917.38
2593.443	906.38
2597.073	904.38
2600.701	914.38
2604.325	894.38
2607.946	904.38
2611.564	896.38
2615.178	895.38
2618.79	884.38
2622.398	874.38
2626.004	873.38
2629.606	885.38
2633.205	869.38
2636.801	864.38
2640.394	859.38
2643.983	855.38
2647.57	835.38
2651.153	830.38
2654.734	815.38
2658.311	812.38
2661.885	786.38
2665.456	802.38
2669.025	791.38
2672.589	796.38
2676.151	774.38
2679.71	787.38
2683.266	774.38
2686.819	756.38
2690.368	749.38
2693.915	741.38
2697.458	729.38
2700.999	720.38
2704.536	722.38
2708.071	709.38
2711.602	696.38
2715.13	695.38
2718.656	690.38
2722.178	694.38
2725.697	688.38
2729.214	700.38
2732.727	688.38
2736.237	692.38
2739.744	709.38
2743.249	709.38
2746.75	699.38
2750.248	702.38
2753.743	710.38
2757.236	694.38
2760.725	694.38
2764.211	711.38
2767.695	702.38
2771.175	689.38
2774.652	674.38
2778.127	677.38
2781.598	670.38
2785.067	678.38
2788.532	661.38
2791.995	666.38
2795.455	659.38
2798.911	664.38
2802.365	653.38
2805.816	661.38
2809.264	650.38
2812.709	648.38
2816.151	636.38
2819.59	642.38
2823.026	646.38
2826.46	635.38
2829.89	628.38
2833.318	636.38
2836.742	633.38
2840.164	631.38
2843.583	636.38
2846.999	628.38
2850.412	632.38
2853.822	635.38
2857.229	627.38
2860.634	627.38
2864.035	636.38
2867.434	633.38
2870.83	631.38
2874.223	645.38
2877.613	635.38
2881	642.38
2884.385	629.38
2887.766	618.38
2891.145	623.38
2894.521	617.38
2897.894	610.38
2901.264	603.38
2904.631	612.38
2907.996	619.38
2911.358	611.38
2914.717	598.38
2918.073	598.38
2921.426	607.38
2924.777	602.38
2928.124	612.38
2931.469	597.38
2934.811	613.38
2938.15	612.38
2941.487	616.38
2944.821	601.38
2948.152	605.38
2951.48	606.38
2954.805	617.38
2958.128	608.38
2961.447	625.38
2964.765	614.38
2968.079	626.38
2971.39	631.38
2974.699	629.38
2978.005	648.38
2981.308	647.38
2984.609	661.38
2987.907	667.38
2991.202	674.38
2994.494	687.38
2997.784	704.38
3001.07	716.38
3004.355	714.38
3007.636	733.38
3010.915	735.38
3014.191	737.38
3017.464	740.38
3020.734	744.38
3024.002	738.38
3027.267	737.38
3030.53	740.38
3033.789	759.38
3037.046	760.38
3040.301	755.38
3043.552	771.38
3046.801	793.38
3050.048	810.38
3053.291	809.38
3056.532	825.38
3059.771	847.38
3063.006	850.38
3066.239	866.38
3069.469	879.38
3072.697	906.38
3075.922	926.38
3079.144	938.38
3082.364	945.38
3085.581	957.38
3088.795	989.38
3092.007	995.38
3095.216	1012.38
3098.423	1033.38
3101.627	1048.38
3104.828	1058.38
3108.026	1087.38
3111.222	1078.38
3114.416	1101.38
3117.607	1131.38
3120.795	1146.38
3123.98	1164.38
3127.163	1197.38
3130.344	1216.38
3133.521	1224.38
3136.696	1256.38
3139.869	1281.38
3143.039	1294.38
3146.206	1305.38
3149.371	1292.38
3152.533	1306.38
3155.693	1320.38
3158.85	1314.38
3162.005	1341.38
3165.157	1321.38
3168.306	1317.38
3171.453	1352.38
3174.597	1337.38
3177.739	1336.38
3180.878	1328.38
3184.014	1334.38
3187.149	1335.38
3190.28	1338.38
3193.409	1338.38
3196.536	1346.38
3199.659	1350.38
3202.781	1352.38
3205.9	1366.38
3209.016	1355.38
3212.13	1346.38
3215.241	1360.38
3218.35	1338.38
3221.456	1321.38
3224.56	1326.38
3227.661	1301.38
3230.76	1298.38
3233.856	1298.38
3236.95	1272.38
3240.041	1271.38
3243.13	1247.38
3246.216	1247.38
3249.3	1235.38
3252.382	1235.38
3255.46	1232.38
3258.537	1214.38
3261.611	1202.38
3264.682	1211.38
3267.751	1210.38
3270.818	1203.38
3273.882	1203.38
3276.943	1191.38
3280.002	1186.38
3283.059	1169.38
3286.113	1168.38
3289.165	1156.38
3292.214	1118.38
3295.261	1110.38
3298.306	1098.38
3301.348	1076.38
3304.387	1043.38
3307.425	1034.38
3310.459	1029.38
3313.492	1010.38
3316.521	994.38
3319.549	982.38
3322.574	972.38
3325.597	968.38
3328.617	962.38
3331.635	945.38
3334.65	946.38
3337.663	935.38
3340.674	938.38
3343.682	935.38
3346.688	933.38
3349.691	918.38
3352.692	929.38
3355.691	921.38
3358.687	901.38
3361.681	901.38
3364.673	885.38
3367.662	881.38
3370.649	858.38
3373.633	843.38
3376.615	832.38
3379.595	831.38
3382.572	815.38
3385.547	808.38
3388.52	798.38
3391.49	783.38
3394.458	767.38
3397.424	770.38
3400.387	764.38
3403.348	754.38
3406.307	739.38
3409.263	736.38
3412.217	718.38
3415.168	709.38
3418.118	710.38
3421.065	703.38
3424.009	688.38
3426.951	678.38
3429.891	681.38
3432.829	664.38
3435.764	646.38
3438.697	630.38
3441.628	631.38
3444.557	607.38
3447.483	595.38
3450.407	582.38
3453.328	557.38
3456.247	541.38
3459.164	527.38
3462.079	507.38
3464.991	504.38
3467.902	486.38
3470.809	469.38
3473.715	458.38
3476.618	443.38
3479.519	435.38
3482.418	417.38
3485.315	408.38
3488.209	413.38
3491.101	390.38
3493.99	389.38
3496.878	365.38
3499.763	356.38
3502.646	347.38
3505.527	329.38
3508.405	327.38
3511.281	315.38
3514.155	309.38
3517.027	290.38
3519.897	278.38
3522.764	264.38
3525.629	253.38
3528.492	245.38
3531.352	224.38
3534.211	206.38
3537.067	210.38
3539.921	199.38
3542.773	186.38
3545.622	183.38
3548.469	179.38
3551.315	151.38
3554.157	143.38
3556.998	134.38
3559.837	123.38
3562.673	110.38
3565.507	109.38
3568.339	110.38
3571.169	100.38
3573.996	89.38
3576.822	92.38
3579.645	83.38
3582.466	74.38
3585.285	64.38
3588.101	61.38
3590.916	60.38
3593.728	56.38
3596.538	46.38
3599.346	37.38
3602.152	39.38
3604.956	34.38
3607.757	30.38
3610.556	26.38
3613.354	17.38
3616.149	13.38
3618.942	4.38
3621.732	2.38
3624.521	9.38
3627.307	-0.62
3630.092	-7.62
3632.874	-13.62
3635.654	-6.62
3638.432	-15.62
3641.208	-13.62
3643.982	-20.62
3646.753	-22.62
3649.523	-22.62
3652.29	-31.62
3655.055	-37.62
3657.818	-38.62
3660.579	-40.62
3663.338	-40.62
3666.095	-44.62
3668.849	-37.62
3671.602	-46.62
3674.352	-44.62
3677.101	-54.62
3679.847	-58.62
3682.591	-58.62
3685.333	-54.62
3688.073	-64.62
3690.811	-64.62
3693.547	-62.62
3696.281	-69.62
3699.013	-72.62
3701.742	-71.62
3704.47	-72.62
3707.195	-72.62
3709.919	-74.62
3712.64	-73.62
3715.359	-76.62
3718.076	-77.62
3720.792	-76.62
3723.505	-81.62
3726.216	-83.62
3728.925	-83.62
3731.632	-84.62
3734.336	-81.62
3737.039	-87.62
3739.74	-85.62
3742.439	-79.62
3745.136	-92.62
3747.83	-84.62
3750.523	-87.62
3753.213	-80.62
3755.902	-89.62
3758.589	-89.62
3761.273	-90.62
3763.956	-93.62
3766.636	-88.62
3769.315	-97.62
3771.991	-93.62
3774.665	-88.62
3777.338	-98.62
3780.008	-91.62
3782.677	-92.62
3785.343	-88.62
3788.007	-89.62
3790.67	-98.62
3793.33	-94.62
3795.989	-95.62
3798.645	-96.62
3801.299	-95.62
3803.952	-96.62
3806.602	-100.62
3809.251	-105.62
3811.897	-105.62
3814.542	-104.62
3817.184	-102.62
3819.825	-103.62
3822.463	-105.62
3825.1	-104.62
3827.735	-102.62
3830.367	-106.62
3832.998	-107.62
3835.627	-109.62
3838.253	-109.62
3840.878	-108.62
3843.501	-107.62
3846.122	-104.62
3848.741	-111.62
3851.358	-107.62
3853.973	-101.62
3856.586	-106.62
3859.197	-108.62
3861.806	-104.62
3864.414	-100.62
3867.019	-104.62
3869.622	-104.62
3872.224	-105.62
3874.823	-108.62
3877.421	-104.62
3880.016	-105.62
3882.61	-96.62
3885.202	-98.62
3887.792	-101.62
3890.38	-111.62
3892.966	-107.62
3895.55	-104.62
3898.132	-108.62
3900.713	-113.62
3903.291	-111.62
3905.868	-106.62
3908.442	-116.62
3911.015	-110.62
3913.586	-110.62
3916.155	-113.62
3918.722	-114.62
3921.287	-115.62
3923.85	-114.62
3926.411	-112.62
3928.971	-112.62
3931.528	-112.62
3934.084	-115.62
3936.638	-112.62
3939.19	-118.62
3941.74	-117.62
3944.288	-117.62
3946.834	-114.62
3949.378	-119.62
3951.921	-119.62
3954.462	-115.62
3957	-118.62
3959.537	-111.62
3962.072	-111.62
3964.606	-112.62
3967.137	-113.62
3969.667	-111.62
3972.194	-120.62
3974.72	-113.62
3977.244	-106.62
3979.766	-109.62
3982.286	-111.62
3984.805	-110.62
3987.321	-120.62
3989.836	-105.62
3992.349	-112.62
3994.86	-112.62
3997.369	-113.62
3999.877	-112.62
4002.382	-115.62
4004.886	-109.62
4007.388	-114.62
4009.888	-117.62
4012.386	-117.62
4014.883	-115.62
4017.377	-116.62
4019.87	-115.62
4022.361	-114.62
4024.85	-116.62
4027.338	-120.62
4029.823	-115.62
4032.307	-118.62
4034.789	-116.62
4037.269	-112.62
4039.747	-108.62
4042.224	-112.62
4044.699	-109.62
4047.172	-112.62
4049.643	-117.62
4052.112	-109.62
4054.58	-110.62
4057.046	-107.62
4059.51	-116.62
4061.972	-114.62
4064.432	-103.62
4066.891	-120.62
4069.348	-111.62
4071.803	-113.62
4074.256	-113.62
4076.708	-114.62
4079.158	-107.62
4081.606	-117.62
4084.052	-110.62
4086.497	-117.62
4088.939	-112.62
4091.38	-118.62
4093.819	-119.62
4096.257	-129.62
4098.693	-137.62
4101.127	-131.62
4103.559	-131.62
4105.989	-71.62
4108.418	-68.62
4110.845	-68.62
4113.27	-58.62
4115.694	-60.62
4118.115	-40.62
4120.535	-122.62
4122.954	-119.62
4125.37	-123.62
4127.785	-121.62
4130.198	-120.62
4132.609	-117.62
4135.019	-134.62
4137.427	-134.62
4139.833	-136.62
4142.237	-129.62
