Data from I0.5_T5s_Bsub_water_1-1_1_RamanShift_1.txt Node
Date: Mon Mar 13 13:47:20 IST 2017
User: aro
Spectrometer: QEPB0276
Trigger mode: 0
Integration Time (sec): 5.000000E0
Scans to average: 1
Electric dark correction enabled: true
Nonlinearity correction enabled: false
Boxcar width: 0
XAxis mode: Raman Shifts
Number of Pixels in Spectrum: 1044
>>>>>Begin Spectral Data<<<<<
160.701	-11.88
166.742	0.12
172.777	35.12
178.805	152.12
184.826	433.12
190.841	903.12
196.849	1459.12
202.85	1833.12
208.845	1901.12
214.833	1856.12
220.815	1816.12
226.789	1791.12
232.758	1754.12
238.719	1714.12
244.674	1683.12
250.623	1642.12
256.565	1587.12
262.5	1539.12
268.429	1500.12
274.351	1461.12
280.267	1416.12
286.176	1392.12
292.079	1363.12
297.975	1340.12
303.865	1293.12
309.748	1264.12
315.625	1242.12
321.495	1220.12
327.359	1203.12
333.217	1184.12
339.068	1170.12
344.912	1169.12
350.751	1157.12
356.583	1147.12
362.408	1133.12
368.227	1141.12
374.04	1128.12
379.847	1135.12
385.647	1129.12
391.44	1145.12
397.228	1123.12
403.009	1135.12
408.784	1130.12
414.553	1135.12
420.315	1142.12
426.071	1133.12
431.821	1132.12
437.565	1133.12
443.302	1124.12
449.033	1121.12
454.758	1124.12
460.477	1129.12
466.189	1122.12
471.896	1106.12
477.596	1120.12
483.29	1111.12
488.978	1110.12
494.66	1097.12
500.335	1099.12
506.005	1095.12
511.668	1082.12
517.325	1051.12
522.977	1039.12
528.622	1034.12
534.261	1025.12
539.894	1018.12
545.521	1007.12
551.141	1009.12
556.756	1014.12
562.365	1022.12
567.968	1013.12
573.565	1012.12
579.155	987.12
584.74	1002.12
590.319	990.12
595.892	989.12
601.459	981.12
607.02	970.12
612.575	959.12
618.124	973.12
623.667	961.12
629.204	963.12
634.735	958.12
640.261	939.12
645.781	930.12
651.294	936.12
656.802	947.12
662.304	939.12
667.8	938.12
673.29	943.12
678.775	931.12
684.254	932.12
689.726	930.12
695.193	933.12
700.655	930.12
706.11	917.12
711.56	925.12
717.004	903.12
722.442	916.12
727.874	909.12
733.301	907.12
738.722	903.12
744.137	903.12
749.547	904.12
754.951	906.12
760.349	916.12
765.741	911.12
771.128	901.12
776.509	899.12
781.885	916.12
787.254	906.12
792.618	920.12
797.977	908.12
803.33	894.12
808.677	900.12
814.019	901.12
819.355	879.12
824.686	886.12
830.011	879.12
835.33	872.12
840.644	882.12
845.952	882.12
851.255	878.12
856.552	891.12
861.844	892.12
867.13	896.12
872.41	886.12
877.686	874.12
882.955	861.12
888.219	859.12
893.478	853.12
898.731	842.12
903.979	839.12
909.221	828.12
914.458	841.12
919.69	842.12
924.916	841.12
930.136	844.12
935.351	836.12
940.561	847.12
945.766	831.12
950.965	836.12
956.158	839.12
961.347	833.12
966.529	817.12
971.707	816.12
976.879	798.12
982.046	801.12
987.208	800.12
992.364	809.12
997.515	802.12
1002.66	830.12
1007.801	834.12
1012.936	833.12
1018.066	840.12
1023.19	844.12
1028.309	860.12
1033.423	851.12
1038.532	844.12
1043.636	841.12
1048.734	837.12
1053.827	827.12
1058.915	822.12
1063.998	830.12
1069.075	811.12
1074.147	839.12
1079.214	814.12
1084.276	826.12
1089.333	833.12
1094.385	825.12
1099.431	853.12
1104.472	855.12
1109.509	845.12
1114.54	836.12
1119.565	835.12
1124.586	833.12
1129.602	821.12
1134.613	817.12
1139.618	823.12
1144.619	821.12
1149.614	815.12
1154.604	828.12
1159.589	821.12
1164.57	822.12
1169.545	821.12
1174.515	837.12
1179.48	827.12
1184.44	823.12
1189.395	814.12
1194.345	822.12
1199.29	814.12
1204.23	816.12
1209.165	820.12
1214.095	825.12
1219.021	836.12
1223.941	838.12
1228.856	848.12
1233.766	853.12
1238.672	860.12
1243.572	864.12
1248.467	840.12
1253.358	852.12
1258.244	828.12
1263.124	811.12
1268	814.12
1272.871	816.12
1277.737	799.12
1282.599	800.12
1287.455	807.12
1292.306	802.12
1297.153	815.12
1301.995	815.12
1306.832	821.12
1311.664	831.12
1316.491	828.12
1321.314	822.12
1326.132	814.12
1330.945	808.12
1335.753	794.12
1340.556	779.12
1345.354	769.12
1350.148	756.12
1354.937	748.12
1359.722	768.12
1364.501	770.12
1369.276	784.12
1374.046	798.12
1378.811	800.12
1383.572	802.12
1388.327	793.12
1393.079	793.12
1397.825	785.12
1402.567	758.12
1407.304	756.12
1412.036	755.12
1416.764	759.12
1421.487	758.12
1426.205	756.12
1430.919	758.12
1435.628	771.12
1440.333	769.12
1445.032	783.12
1449.727	782.12
1454.418	787.12
1459.104	776.12
1463.785	778.12
1468.462	780.12
1473.134	755.12
1477.802	755.12
1482.465	762.12
1487.123	771.12
1491.777	751.12
1496.426	748.12
1501.071	760.12
1505.711	781.12
1510.347	785.12
1514.978	798.12
1519.604	801.12
1524.226	813.12
1528.844	820.12
1533.457	813.12
1538.065	821.12
1542.669	806.12
1547.269	811.12
1551.864	802.12
1556.454	802.12
1561.041	816.12
1565.622	806.12
1570.199	816.12
1574.772	813.12
1579.34	819.12
1583.904	818.12
1588.464	825.12
1593.019	827.12
1597.569	839.12
1602.115	832.12
1606.657	829.12
1611.195	832.12
1615.728	834.12
1620.256	819.12
1624.78	838.12
1629.3	841.12
1633.816	851.12
1638.327	867.12
1642.834	878.12
1647.336	878.12
1651.834	879.12
1656.328	872.12
1660.817	886.12
1665.302	874.12
1669.783	863.12
1674.259	852.12
1678.732	841.12
1683.199	807.12
1687.663	780.12
1692.122	760.12
1696.577	745.12
1701.028	749.12
1705.474	743.12
1709.917	745.12
1714.355	736.12
1718.788	738.12
1723.218	725.12
1727.643	701.12
1732.064	694.12
1736.481	688.12
1740.893	673.12
1745.301	665.12
1749.705	668.12
1754.105	658.12
1758.501	638.12
1762.893	635.12
1767.28	620.12
1771.663	621.12
1776.042	620.12
1780.417	630.12
1784.787	625.12
1789.154	627.12
1793.516	639.12
1797.874	638.12
1802.228	641.12
1806.578	647.12
1810.924	647.12
1815.266	642.12
1819.603	642.12
1823.937	614.12
1828.266	619.12
1832.591	607.12
1836.913	606.12
1841.23	599.12
1845.543	590.12
1849.852	605.12
1854.156	597.12
1858.457	607.12
1862.754	603.12
1867.047	609.12
1871.335	617.12
1875.62	608.12
1879.9	614.12
1884.177	605.12
1888.449	618.12
1892.718	597.12
1896.982	599.12
1901.243	600.12
1905.499	590.12
1909.752	590.12
1914	600.12
1918.245	599.12
1922.485	594.12
1926.722	605.12
1930.954	609.12
1935.183	606.12
1939.408	614.12
1943.628	624.12
1947.845	605.12
1952.058	622.12
1956.267	612.12
1960.472	608.12
1964.673	603.12
1968.87	600.12
1973.063	583.12
1977.252	594.12
1981.438	587.12
1985.619	585.12
1989.797	574.12
1993.971	583.12
1998.14	581.12
2002.306	587.12
2006.469	586.12
2010.627	586.12
2014.781	586.12
2018.932	581.12
2023.078	582.12
2027.221	586.12
2031.36	572.12
2035.495	564.12
2039.627	575.12
2043.754	542.12
2047.878	557.12
2051.998	550.12
2056.114	548.12
2060.226	546.12
2064.334	537.12
2068.439	550.12
2072.54	562.12
2076.637	558.12
2080.73	558.12
2084.82	555.12
2088.906	565.12
2092.988	567.12
2097.066	564.12
2101.14	558.12
2105.211	559.12
2109.278	564.12
2113.342	555.12
2117.401	560.12
2121.457	556.12
2125.509	550.12
2129.558	551.12
2133.602	540.12
2137.643	541.12
2141.681	543.12
2145.714	548.12
2149.744	551.12
2153.77	536.12
2157.793	543.12
2161.812	532.12
2165.827	527.12
2169.838	513.12
2173.846	517.12
2177.851	501.12
2181.851	509.12
2185.848	492.12
2189.841	484.12
2193.831	487.12
2197.817	480.12
2201.799	487.12
2205.778	478.12
2209.753	472.12
2213.725	485.12
2217.693	483.12
2221.657	482.12
2225.618	486.12
2229.575	488.12
2233.529	482.12
2237.479	479.12
2241.425	474.12
2245.368	471.12
2249.307	477.12
2253.243	457.12
2257.175	461.12
2261.104	459.12
2265.029	454.12
2268.95	457.12
2272.868	435.12
2276.783	441.12
2280.694	432.12
2284.601	430.12
2288.505	438.12
2292.405	425.12
2296.302	425.12
2300.195	419.12
2304.085	409.12
2307.971	418.12
2311.854	403.12
2315.734	404.12
2319.609	387.12
2323.482	391.12
2327.351	394.12
2331.216	379.12
2335.078	378.12
2338.937	378.12
2342.792	380.12
2346.643	379.12
2350.492	370.12
2354.336	369.12
2358.178	381.12
2362.015	373.12
2365.85	372.12
2369.681	375.12
2373.508	371.12
2377.333	380.12
2381.153	371.12
2384.971	378.12
2388.785	371.12
2392.595	364.12
2396.402	367.12
2400.206	362.12
2404.007	370.12
2407.804	365.12
2411.597	365.12
2415.388	359.12
2419.174	359.12
2422.958	355.12
2426.738	353.12
2430.515	361.12
2434.289	355.12
2438.059	358.12
2441.825	362.12
2445.589	346.12
2449.349	350.12
2453.106	349.12
2456.859	344.12
2460.61	342.12
2464.356	342.12
2468.1	326.12
2471.84	330.12
2475.577	335.12
2479.311	327.12
2483.041	330.12
2486.768	335.12
2490.492	342.12
2494.213	337.12
2497.93	341.12
2501.644	338.12
2505.355	343.12
2509.062	346.12
2512.766	333.12
2516.467	340.12
2520.165	330.12
2523.859	331.12
2527.551	324.12
2531.239	326.12
2534.923	323.12
2538.605	316.12
2542.283	317.12
2545.958	313.12
2549.63	318.12
2553.299	311.12
2556.964	318.12
2560.626	295.12
2564.285	310.12
2567.941	308.12
2571.594	307.12
2575.243	307.12
2578.89	302.12
2582.533	300.12
2586.173	307.12
2589.809	305.12
2593.443	304.12
2597.073	304.12
2600.701	297.12
2604.325	295.12
2607.946	300.12
2611.564	295.12
2615.178	295.12
2618.79	284.12
2622.398	292.12
2626.004	286.12
2629.606	283.12
2633.205	283.12
2636.801	280.12
2640.394	272.12
2643.983	270.12
2647.57	269.12
2651.153	268.12
2654.734	269.12
2658.311	265.12
2661.885	264.12
2665.456	267.12
2669.025	259.12
2672.589	256.12
2676.151	257.12
2679.71	251.12
2683.266	251.12
2686.819	247.12
2690.368	244.12
2693.915	251.12
2697.458	245.12
2700.999	239.12
2704.536	233.12
2708.071	234.12
2711.602	229.12
2715.13	232.12
2718.656	230.12
2722.178	229.12
2725.697	231.12
2729.214	232.12
2732.727	225.12
2736.237	221.12
2739.744	226.12
2743.249	229.12
2746.75	223.12
2750.248	227.12
2753.743	232.12
2757.236	224.12
2760.725	228.12
2764.211	226.12
2767.695	230.12
2771.175	222.12
2774.652	217.12
2778.127	220.12
2781.598	215.12
2785.067	218.12
2788.532	218.12
2791.995	219.12
2795.455	219.12
2798.911	219.12
2802.365	218.12
2805.816	227.12
2809.264	216.12
2812.709	214.12
2816.151	213.12
2819.59	211.12
2823.026	213.12
2826.46	213.12
2829.89	205.12
2833.318	210.12
2836.742	211.12
2840.164	210.12
2843.583	203.12
2846.999	201.12
2850.412	202.12
2853.822	213.12
2857.229	204.12
2860.634	209.12
2864.035	208.12
2867.434	208.12
2870.83	210.12
2874.223	208.12
2877.613	206.12
2881	209.12
2884.385	203.12
2887.766	214.12
2891.145	201.12
2894.521	199.12
2897.894	201.12
2901.264	210.12
2904.631	201.12
2907.996	202.12
2911.358	204.12
2914.717	199.12
2918.073	205.12
2921.426	196.12
2924.777	197.12
2928.124	196.12
2931.469	195.12
2934.811	195.12
2938.15	196.12
2941.487	201.12
2944.821	204.12
2948.152	197.12
2951.48	203.12
2954.805	197.12
2958.128	202.12
2961.447	203.12
2964.765	202.12
2968.079	208.12
2971.39	215.12
2974.699	207.12
2978.005	210.12
2981.308	222.12
2984.609	214.12
2987.907	218.12
2991.202	224.12
2994.494	227.12
2997.784	227.12
3001.07	237.12
3004.355	236.12
3007.636	238.12
3010.915	242.12
3014.191	238.12
3017.464	248.12
3020.734	247.12
3024.002	245.12
3027.267	247.12
3030.53	244.12
3033.789	249.12
3037.046	250.12
3040.301	254.12
3043.552	262.12
3046.801	256.12
3050.048	269.12
3053.291	272.12
3056.532	288.12
3059.771	279.12
3063.006	285.12
3066.239	289.12
3069.469	299.12
3072.697	307.12
3075.922	305.12
3079.144	311.12
3082.364	316.12
3085.581	323.12
3088.795	329.12
3092.007	328.12
3095.216	346.12
3098.423	346.12
3101.627	350.12
3104.828	352.12
3108.026	359.12
3111.222	364.12
3114.416	370.12
3117.607	380.12
3120.795	383.12
3123.98	389.12
3127.163	394.12
3130.344	400.12
3133.521	416.12
3136.696	414.12
3139.869	429.12
3143.039	422.12
3146.206	431.12
3149.371	444.12
3152.533	443.12
3155.693	440.12
3158.85	447.12
3162.005	449.12
3165.157	439.12
3168.306	460.12
3171.453	445.12
3174.597	451.12
3177.739	449.12
3180.878	450.12
3184.014	445.12
3187.149	451.12
3190.28	445.12
3193.409	442.12
3196.536	452.12
3199.659	449.12
3202.781	455.12
3205.9	449.12
3209.016	450.12
3212.13	443.12
3215.241	446.12
3218.35	447.12
3221.456	436.12
3224.56	440.12
3227.661	442.12
3230.76	428.12
3233.856	428.12
3236.95	419.12
3240.041	420.12
3243.13	417.12
3246.216	402.12
3249.3	406.12
3252.382	410.12
3255.46	407.12
3258.537	403.12
3261.611	400.12
3264.682	404.12
3267.751	397.12
3270.818	389.12
3273.882	398.12
3276.943	388.12
3280.002	388.12
3283.059	393.12
3286.113	383.12
3289.165	387.12
3292.214	366.12
3295.261	365.12
3298.306	366.12
3301.348	359.12
3304.387	352.12
3307.425	344.12
3310.459	342.12
3313.492	337.12
3316.521	335.12
3319.549	321.12
3322.574	324.12
3325.597	323.12
3328.617	320.12
3331.635	321.12
3334.65	310.12
3337.663	309.12
3340.674	303.12
3343.682	311.12
3346.688	307.12
3349.691	301.12
3352.692	296.12
3355.691	299.12
3358.687	291.12
3361.681	294.12
3364.673	286.12
3367.662	284.12
3370.649	282.12
3373.633	280.12
3376.615	278.12
3379.595	271.12
3382.572	266.12
3385.547	270.12
3388.52	253.12
3391.49	257.12
3394.458	254.12
3397.424	247.12
3400.387	247.12
3403.348	241.12
3406.307	231.12
3409.263	240.12
3412.217	238.12
3415.168	235.12
3418.118	234.12
3421.065	229.12
3424.009	220.12
3426.951	229.12
3429.891	223.12
3432.829	212.12
3435.764	209.12
3438.697	203.12
3441.628	196.12
3444.557	198.12
3447.483	189.12
3450.407	185.12
3453.328	185.12
3456.247	174.12
3459.164	168.12
3462.079	164.12
3464.991	152.12
3467.902	154.12
3470.809	153.12
3473.715	149.12
3476.618	146.12
3479.519	133.12
3482.418	131.12
3485.315	133.12
3488.209	131.12
3491.101	127.12
3493.99	123.12
3496.878	117.12
3499.763	121.12
3502.646	119.12
3505.527	103.12
3508.405	104.12
3511.281	100.12
3514.155	99.12
3517.027	87.12
3519.897	84.12
3522.764	77.12
3525.629	72.12
3528.492	70.12
3531.352	69.12
3534.211	66.12
3537.067	61.12
3539.921	53.12
3542.773	50.12
3545.622	51.12
3548.469	46.12
3551.315	40.12
3554.157	38.12
3556.998	38.12
3559.837	39.12
3562.673	37.12
3565.507	33.12
3568.339	30.12
3571.169	29.12
3573.996	28.12
3576.822	22.12
3579.645	19.12
3582.466	19.12
3585.285	16.12
3588.101	17.12
3590.916	18.12
3593.728	16.12
3596.538	11.12
3599.346	6.12
3602.152	3.12
3604.956	5.12
3607.757	3.12
3610.556	-4.88
3613.354	1.12
3616.149	-5.88
3618.942	-3.88
3621.732	-9.88
3624.521	-1.88
3627.307	-4.88
3630.092	-7.88
3632.874	-6.88
3635.654	-6.88
3638.432	-11.88
3641.208	-10.88
3643.982	-9.88
3646.753	-10.88
3649.523	-16.88
3652.29	-11.88
3655.055	-13.88
3657.818	-17.88
3660.579	-15.88
3663.338	-19.88
3666.095	-18.88
3668.849	-15.88
3671.602	-21.88
3674.352	-20.88
3677.101	-26.88
3679.847	-21.88
3682.591	-22.88
3685.333	-22.88
3688.073	-24.88
3690.811	-23.88
3693.547	-27.88
3696.281	-24.88
3699.013	-29.88
3701.742	-30.88
3704.47	-32.88
3707.195	-29.88
3709.919	-31.88
3712.64	-29.88
3715.359	-32.88
3718.076	-32.88
3720.792	-32.88
3723.505	-32.88
3726.216	-31.88
3728.925	-33.88
3731.632	-34.88
3734.336	-31.88
3737.039	-31.88
3739.74	-35.88
3742.439	-35.88
3745.136	-35.88
3747.83	-32.88
3750.523	-31.88
3753.213	-30.88
3755.902	-33.88
3758.589	-30.88
3761.273	-33.88
3763.956	-31.88
3766.636	-34.88
3769.315	-36.88
3771.991	-32.88
3774.665	-36.88
3777.338	-37.88
3780.008	-37.88
3782.677	-39.88
3785.343	-37.88
3788.007	-41.88
3790.67	-43.88
3793.33	-40.88
3795.989	-39.88
3798.645	-39.88
3801.299	-40.88
3803.952	-39.88
3806.602	-41.88
3809.251	-34.88
3811.897	-39.88
3814.542	-34.88
3817.184	-38.88
3819.825	-36.88
3822.463	-39.88
3825.1	-35.88
3827.735	-37.88
3830.367	-37.88
3832.998	-37.88
3835.627	-34.88
3838.253	-37.88
3840.878	-37.88
3843.501	-40.88
3846.122	-36.88
3848.741	-41.88
3851.358	-39.88
3853.973	-38.88
3856.586	-41.88
3859.197	-39.88
3861.806	-42.88
3864.414	-39.88
3867.019	-38.88
3869.622	-38.88
3872.224	-39.88
3874.823	-43.88
3877.421	-36.88
3880.016	-39.88
3882.61	-39.88
3885.202	-38.88
3887.792	-39.88
3890.38	-41.88
3892.966	-41.88
3895.55	-41.88
3898.132	-41.88
3900.713	-43.88
3903.291	-33.88
3905.868	-42.88
3908.442	-43.88
3911.015	-45.88
3913.586	-42.88
3916.155	-43.88
3918.722	-42.88
3921.287	-41.88
3923.85	-38.88
3926.411	-41.88
3928.971	-36.88
3931.528	-42.88
3934.084	-43.88
3936.638	-40.88
3939.19	-40.88
3941.74	-43.88
3944.288	-43.88
3946.834	-43.88
3949.378	-41.88
3951.921	-43.88
3954.462	-43.88
3957	-43.88
3959.537	-41.88
3962.072	-42.88
3964.606	-42.88
3967.137	-43.88
3969.667	-43.88
3972.194	-43.88
3974.72	-41.88
3977.244	-41.88
3979.766	-43.88
3982.286	-39.88
3984.805	-40.88
3987.321	-40.88
3989.836	-34.88
3992.349	-41.88
3994.86	-39.88
3997.369	-39.88
3999.877	-38.88
4002.382	-39.88
4004.886	-41.88
4007.388	-44.88
4009.888	-39.88
4012.386	-41.88
4014.883	-46.88
4017.377	-43.88
4019.87	-41.88
4022.361	-42.88
4024.85	-44.88
4027.338	-44.88
4029.823	-40.88
4032.307	-43.88
4034.789	-42.88
4037.269	-45.88
4039.747	-43.88
4042.224	-40.88
4044.699	-41.88
4047.172	-40.88
4049.643	-39.88
4052.112	-40.88
4054.58	-40.88
4057.046	-39.88
4059.51	-39.88
4061.972	-42.88
4064.432	-40.88
4066.891	-42.88
4069.348	-39.88
4071.803	-45.88
4074.256	-45.88
4076.708	-44.88
4079.158	-46.88
4081.606	-45.88
4084.052	-46.88
4086.497	-43.88
4088.939	-42.88
4091.38	-44.88
4093.819	-41.88
4096.257	-43.88
4098.693	-43.88
4101.127	-44.88
4103.559	-44.88
4105.989	-30.88
4108.418	-26.88
4110.845	-22.88
4113.27	-22.88
4115.694	-20.88
4118.115	-16.88
4120.535	-42.88
4122.954	-41.88
4125.37	-40.88
4127.785	-40.88
4130.198	-39.88
4132.609	-43.88
4135.019	-44.88
4137.427	-42.88
4139.833	-42.88
4142.237	-44.88
