Data from I0.75_T10s_Bsub_water_0_3_RamanShift_1.txt Node
Date: Mon Mar 13 15:27:47 IST 2017
User: aro
Spectrometer: QEPB0276
Trigger mode: 0
Integration Time (sec): 1.000000E1
Scans to average: 1
Electric dark correction enabled: true
Nonlinearity correction enabled: false
Boxcar width: 0
XAxis mode: Raman Shifts
Number of Pixels in Spectrum: 1044
>>>>>Begin Spectral Data<<<<<
160.701	-53.62
166.742	2.38
172.777	181.38
178.805	732.38
184.826	2146.38
190.841	4545.38
196.849	7315.38
202.85	9087.38
208.845	9529.38
214.833	9350.38
220.815	9068.38
226.789	8822.38
232.758	8698.38
238.719	8493.38
244.674	8273.38
250.623	8056.38
256.565	7758.38
262.5	7465.38
268.429	7305.38
274.351	7050.38
280.267	6882.38
286.176	6699.38
292.079	6511.38
297.975	6391.38
303.865	6232.38
309.748	6088.38
315.625	5957.38
321.495	5854.38
327.359	5736.38
333.217	5658.38
339.068	5583.38
344.912	5556.38
350.751	5485.38
356.583	5469.38
362.408	5442.38
368.227	5419.38
374.04	5409.38
379.847	5424.38
385.647	5401.38
391.44	5404.38
397.228	5402.38
403.009	5423.38
408.784	5431.38
414.553	5443.38
420.315	5452.38
426.071	5469.38
431.821	5444.38
437.565	5420.38
443.302	5425.38
449.033	5385.38
454.758	5380.38
460.477	5369.38
466.189	5325.38
471.896	5334.38
477.596	5316.38
483.29	5287.38
488.978	5234.38
494.66	5253.38
500.335	5191.38
506.005	5136.38
511.668	5051.38
517.325	4986.38
522.977	4932.38
528.622	4860.38
534.261	4867.38
539.894	4823.38
545.521	4786.38
551.141	4815.38
556.756	4775.38
562.365	4802.38
567.968	4749.38
573.565	4749.38
579.155	4706.38
584.74	4660.38
590.319	4671.38
595.892	4644.38
601.459	4629.38
607.02	4598.38
612.575	4575.38
618.124	4506.38
623.667	4486.38
629.204	4467.38
634.735	4417.38
640.261	4418.38
645.781	4416.38
651.294	4394.38
656.802	4388.38
662.304	4357.38
667.8	4381.38
673.29	4363.38
678.775	4349.38
684.254	4344.38
689.726	4320.38
695.193	4290.38
700.655	4261.38
706.11	4276.38
711.56	4252.38
717.004	4253.38
722.442	4213.38
727.874	4192.38
733.301	4196.38
738.722	4186.38
744.137	4180.38
749.547	4170.38
754.951	4177.38
760.349	4186.38
765.741	4167.38
771.128	4191.38
776.509	4183.38
781.885	4202.38
787.254	4194.38
792.618	4207.38
797.977	4147.38
803.33	4144.38
808.677	4153.38
814.019	4105.38
819.355	4045.38
824.686	4062.38
830.011	4035.38
835.33	4043.38
840.644	4046.38
845.952	4031.38
851.255	4009.38
856.552	4028.38
861.844	4053.38
867.13	4031.38
872.41	4004.38
877.686	4014.38
882.955	3952.38
888.219	3930.38
893.478	3895.38
898.731	3820.38
903.979	3800.38
909.221	3756.38
914.458	3764.38
919.69	3757.38
924.916	3780.38
930.136	3777.38
935.351	3801.38
940.561	3802.38
945.766	3803.38
950.965	3787.38
956.158	3764.38
961.347	3756.38
966.529	3698.38
971.707	3658.38
976.879	3621.38
982.046	3595.38
987.208	3582.38
992.364	3591.38
997.515	3630.38
1002.66	3645.38
1007.801	3687.38
1012.936	3723.38
1018.066	3756.38
1023.19	3785.38
1028.309	3812.38
1033.423	3778.38
1038.532	3754.38
1043.636	3766.38
1048.734	3713.38
1053.827	3668.38
1058.915	3652.38
1063.998	3611.38
1069.075	3622.38
1074.147	3648.38
1079.214	3666.38
1084.276	3696.38
1089.333	3723.38
1094.385	3754.38
1099.431	3781.38
1104.472	3789.38
1109.509	3774.38
1114.54	3742.38
1119.565	3697.38
1124.586	3662.38
1129.602	3620.38
1134.613	3635.38
1139.618	3615.38
1144.619	3609.38
1149.614	3623.38
1154.604	3631.38
1159.589	3681.38
1164.57	3704.38
1169.545	3690.38
1174.515	3705.38
1179.48	3704.38
1184.44	3691.38
1189.395	3663.38
1194.345	3643.38
1199.29	3633.38
1204.23	3633.38
1209.165	3667.38
1214.095	3677.38
1219.021	3704.38
1223.941	3742.38
1228.856	3777.38
1233.766	3792.38
1238.672	3783.38
1243.572	3768.38
1248.467	3735.38
1253.358	3746.38
1258.244	3668.38
1263.124	3635.38
1268	3609.38
1272.871	3551.38
1277.737	3555.38
1282.599	3502.38
1287.455	3530.38
1292.306	3570.38
1297.153	3564.38
1301.995	3607.38
1306.832	3653.38
1311.664	3640.38
1316.491	3652.38
1321.314	3623.38
1326.132	3626.38
1330.945	3561.38
1335.753	3497.38
1340.556	3410.38
1345.354	3355.38
1350.148	3315.38
1354.937	3316.38
1359.722	3359.38
1364.501	3384.38
1369.276	3461.38
1374.046	3501.38
1378.811	3543.38
1383.572	3541.38
1388.327	3532.38
1393.079	3476.38
1397.825	3436.38
1402.567	3391.38
1407.304	3336.38
1412.036	3330.38
1416.764	3286.38
1421.487	3282.38
1426.205	3306.38
1430.919	3327.38
1435.628	3339.38
1440.333	3372.38
1445.032	3403.38
1449.727	3426.38
1454.418	3424.38
1459.104	3466.38
1463.785	3401.38
1468.462	3361.38
1473.134	3346.38
1477.802	3320.38
1482.465	3298.38
1487.123	3310.38
1491.777	3317.38
1496.426	3333.38
1501.071	3353.38
1505.711	3396.38
1510.347	3449.38
1514.978	3507.38
1519.604	3520.38
1524.226	3579.38
1528.844	3596.38
1533.457	3579.38
1538.065	3597.38
1542.669	3549.38
1547.269	3512.38
1551.864	3533.38
1556.454	3548.38
1561.041	3554.38
1565.622	3573.38
1570.199	3543.38
1574.772	3585.38
1579.34	3638.38
1583.904	3653.38
1588.464	3686.38
1593.019	3733.38
1597.569	3736.38
1602.115	3752.38
1606.657	3713.38
1611.195	3708.38
1615.728	3707.38
1620.256	3730.38
1624.78	3761.38
1629.3	3770.38
1633.816	3815.38
1638.327	3865.38
1642.834	3922.38
1647.336	3935.38
1651.834	3957.38
1656.328	3951.38
1660.817	3926.38
1665.302	3909.38
1669.783	3876.38
1674.259	3787.38
1678.732	3708.38
1683.199	3620.38
1687.663	3487.38
1692.122	3374.38
1696.577	3329.38
1701.028	3313.38
1705.474	3300.38
1709.917	3291.38
1714.355	3248.38
1718.788	3221.38
1723.218	3165.38
1727.643	3119.38
1732.064	3069.38
1736.481	3015.38
1740.893	2967.38
1745.301	2894.38
1749.705	2835.38
1754.105	2803.38
1758.501	2742.38
1762.893	2680.38
1767.28	2685.38
1771.663	2656.38
1776.042	2654.38
1780.417	2629.38
1784.787	2691.38
1789.154	2715.38
1793.516	2746.38
1797.874	2775.38
1802.228	2779.38
1806.578	2807.38
1810.924	2788.38
1815.266	2754.38
1819.603	2745.38
1823.937	2711.38
1828.266	2669.38
1832.591	2621.38
1836.913	2598.38
1841.23	2591.38
1845.543	2581.38
1849.852	2568.38
1854.156	2566.38
1858.457	2599.38
1862.754	2587.38
1867.047	2577.38
1871.335	2606.38
1875.62	2615.38
1879.9	2613.38
1884.177	2602.38
1888.449	2586.38
1892.718	2567.38
1896.982	2553.38
1901.243	2557.38
1905.499	2546.38
1909.752	2535.38
1914	2558.38
1918.245	2556.38
1922.485	2579.38
1926.722	2574.38
1930.954	2613.38
1935.183	2606.38
1939.408	2599.38
1943.628	2656.38
1947.845	2634.38
1952.058	2667.38
1956.267	2647.38
1960.472	2629.38
1964.673	2582.38
1968.87	2559.38
1973.063	2550.38
1977.252	2534.38
1981.438	2507.38
1985.619	2499.38
1989.797	2506.38
1993.971	2483.38
1998.14	2518.38
2002.306	2490.38
2006.469	2503.38
2010.627	2495.38
2014.781	2497.38
2018.932	2503.38
2023.078	2470.38
2027.221	2470.38
2031.36	2452.38
2035.495	2421.38
2039.627	2369.38
2043.754	2380.38
2047.878	2389.38
2051.998	2365.38
2056.114	2354.38
2060.226	2354.38
2064.334	2369.38
2068.439	2392.38
2072.54	2389.38
2076.637	2428.38
2080.73	2399.38
2084.82	2407.38
2088.906	2416.38
2092.988	2413.38
2097.066	2419.38
2101.14	2414.38
2105.211	2364.38
2109.278	2365.38
2113.342	2362.38
2117.401	2369.38
2121.457	2371.38
2125.509	2344.38
2129.558	2357.38
2133.602	2334.38
2137.643	2318.38
2141.681	2333.38
2145.714	2327.38
2149.744	2320.38
2153.77	2299.38
2157.793	2259.38
2161.812	2272.38
2165.827	2222.38
2169.838	2219.38
2173.846	2189.38
2177.851	2150.38
2181.851	2143.38
2185.848	2110.38
2189.841	2102.38
2193.831	2087.38
2197.817	2074.38
2201.799	2054.38
2205.778	2063.38
2209.753	2058.38
2213.725	2068.38
2217.693	2052.38
2221.657	2060.38
2225.618	2054.38
2229.575	2058.38
2233.529	2041.38
2237.479	2031.38
2241.425	1994.38
2245.368	1990.38
2249.307	1966.38
2253.243	1948.38
2257.175	1906.38
2261.104	1891.38
2265.029	1888.38
2268.95	1874.38
2272.868	1857.38
2276.783	1863.38
2280.694	1849.38
2284.601	1810.38
2288.505	1808.38
2292.405	1792.38
2296.302	1779.38
2300.195	1765.38
2304.085	1727.38
2307.971	1712.38
2311.854	1682.38
2315.734	1680.38
2319.609	1647.38
2323.482	1614.38
2327.351	1627.38
2331.216	1601.38
2335.078	1588.38
2338.937	1582.38
2342.792	1559.38
2346.643	1559.38
2350.492	1570.38
2354.336	1572.38
2358.178	1585.38
2362.015	1576.38
2365.85	1582.38
2369.681	1571.38
2373.508	1570.38
2377.333	1572.38
2381.153	1559.38
2384.971	1570.38
2388.785	1555.38
2392.595	1535.38
2396.402	1542.38
2400.206	1527.38
2404.007	1516.38
2407.804	1509.38
2411.597	1509.38
2415.388	1505.38
2419.174	1504.38
2422.958	1477.38
2426.738	1498.38
2430.515	1485.38
2434.289	1473.38
2438.059	1470.38
2441.825	1464.38
2445.589	1445.38
2449.349	1450.38
2453.106	1429.38
2456.859	1426.38
2460.61	1415.38
2464.356	1401.38
2468.1	1388.38
2471.84	1383.38
2475.577	1375.38
2479.311	1385.38
2483.041	1370.38
2486.768	1382.38
2490.492	1379.38
2494.213	1381.38
2497.93	1368.38
2501.644	1372.38
2505.355	1381.38
2509.062	1373.38
2512.766	1379.38
2516.467	1364.38
2520.165	1375.38
2523.859	1345.38
2527.551	1336.38
2531.239	1335.38
2534.923	1321.38
2538.605	1331.38
2542.283	1323.38
2545.958	1322.38
2549.63	1316.38
2553.299	1318.38
2556.964	1305.38
2560.626	1303.38
2564.285	1286.38
2567.941	1270.38
2571.594	1273.38
2575.243	1271.38
2578.89	1259.38
2582.533	1243.38
2586.173	1248.38
2589.809	1241.38
2593.443	1230.38
2597.073	1222.38
2600.701	1209.38
2604.325	1216.38
2607.946	1217.38
2611.564	1206.38
2615.178	1231.38
2618.79	1198.38
2622.398	1202.38
2626.004	1189.38
2629.606	1185.38
2633.205	1185.38
2636.801	1171.38
2640.394	1153.38
2643.983	1135.38
2647.57	1118.38
2651.153	1119.38
2654.734	1102.38
2658.311	1096.38
2661.885	1088.38
2665.456	1075.38
2669.025	1069.38
2672.589	1059.38
2676.151	1049.38
2679.71	1060.38
2683.266	1036.38
2686.819	1019.38
2690.368	1007.38
2693.915	1005.38
2697.458	990.38
2700.999	986.38
2704.536	956.38
2708.071	949.38
2711.602	945.38
2715.13	939.38
2718.656	930.38
2722.178	921.38
2725.697	908.38
2729.214	920.38
2732.727	915.38
2736.237	930.38
2739.744	932.38
2743.249	921.38
2746.75	929.38
2750.248	954.38
2753.743	933.38
2757.236	952.38
2760.725	941.38
2764.211	938.38
2767.695	942.38
2771.175	940.38
2774.652	929.38
2778.127	916.38
2781.598	922.38
2785.067	915.38
2788.532	923.38
2791.995	914.38
2795.455	901.38
2798.911	892.38
2802.365	905.38
2805.816	897.38
2809.264	884.38
2812.709	880.38
2816.151	878.38
2819.59	881.38
2823.026	881.38
2826.46	858.38
2829.89	861.38
2833.318	866.38
2836.742	861.38
2840.164	859.38
2843.583	860.38
2846.999	852.38
2850.412	865.38
2853.822	857.38
2857.229	867.38
2860.634	865.38
2864.035	872.38
2867.434	872.38
2870.83	881.38
2874.223	889.38
2877.613	891.38
2881	886.38
2884.385	881.38
2887.766	884.38
2891.145	871.38
2894.521	860.38
2897.894	868.38
2901.264	876.38
2904.631	863.38
2907.996	857.38
2911.358	851.38
2914.717	853.38
2918.073	851.38
2921.426	856.38
2924.777	870.38
2928.124	861.38
2931.469	878.38
2934.811	880.38
2938.15	884.38
2941.487	888.38
2944.821	881.38
2948.152	899.38
2951.48	904.38
2954.805	892.38
2958.128	892.38
2961.447	883.38
2964.765	904.38
2968.079	915.38
2971.39	915.38
2974.699	929.38
2978.005	939.38
2981.308	970.38
2984.609	985.38
2987.907	995.38
2991.202	1012.38
2994.494	1029.38
2997.784	1056.38
3001.07	1064.38
3004.355	1065.38
3007.636	1101.38
3010.915	1116.38
3014.191	1128.38
3017.464	1134.38
3020.734	1149.38
3024.002	1162.38
3027.267	1145.38
3030.53	1159.38
3033.789	1175.38
3037.046	1167.38
3040.301	1199.38
3043.552	1224.38
3046.801	1255.38
3050.048	1248.38
3053.291	1275.38
3056.532	1305.38
3059.771	1350.38
3063.006	1372.38
3066.239	1385.38
3069.469	1434.38
3072.697	1468.38
3075.922	1498.38
3079.144	1503.38
3082.364	1558.38
3085.581	1567.38
3088.795	1590.38
3092.007	1620.38
3095.216	1648.38
3098.423	1682.38
3101.627	1701.38
3104.828	1735.38
3108.026	1753.38
3111.222	1767.38
3114.416	1811.38
3117.607	1846.38
3120.795	1877.38
3123.98	1924.38
3127.163	1964.38
3130.344	2015.38
3133.521	2029.38
3136.696	2076.38
3139.869	2117.38
3143.039	2129.38
3146.206	2169.38
3149.371	2196.38
3152.533	2197.38
3155.693	2224.38
3158.85	2219.38
3162.005	2222.38
3165.157	2241.38
3168.306	2235.38
3171.453	2241.38
3174.597	2237.38
3177.739	2249.38
3180.878	2258.38
3184.014	2262.38
3187.149	2241.38
3190.28	2278.38
3193.409	2266.38
3196.536	2272.38
3199.659	2267.38
3202.781	2267.38
3205.9	2285.38
3209.016	2283.38
3212.13	2277.38
3215.241	2265.38
3218.35	2244.38
3221.456	2225.38
3224.56	2214.38
3227.661	2206.38
3230.76	2183.38
3233.856	2154.38
3236.95	2124.38
3240.041	2097.38
3243.13	2111.38
3246.216	2094.38
3249.3	2089.38
3252.382	2077.38
3255.46	2056.38
3258.537	2050.38
3261.611	2057.38
3264.682	2043.38
3267.751	2044.38
3270.818	2032.38
3273.882	2026.38
3276.943	1990.38
3280.002	1981.38
3283.059	1965.38
3286.113	1960.38
3289.165	1924.38
3292.214	1882.38
3295.261	1853.38
3298.306	1827.38
3301.348	1815.38
3304.387	1760.38
3307.425	1755.38
3310.459	1715.38
3313.492	1718.38
3316.521	1687.38
3319.549	1660.38
3322.574	1648.38
3325.597	1655.38
3328.617	1613.38
3331.635	1602.38
3334.65	1600.38
3337.663	1582.38
3340.674	1583.38
3343.682	1591.38
3346.688	1554.38
3349.691	1579.38
3352.692	1543.38
3355.691	1557.38
3358.687	1538.38
3361.681	1506.38
3364.673	1489.38
3367.662	1462.38
3370.649	1456.38
3373.633	1445.38
3376.615	1412.38
3379.595	1393.38
3382.572	1366.38
3385.547	1355.38
3388.52	1329.38
3391.49	1327.38
3394.458	1291.38
3397.424	1284.38
3400.387	1283.38
3403.348	1261.38
3406.307	1235.38
3409.263	1237.38
3412.217	1209.38
3415.168	1186.38
3418.118	1189.38
3421.065	1168.38
3424.009	1154.38
3426.951	1140.38
3429.891	1123.38
3432.829	1110.38
3435.764	1085.38
3438.697	1057.38
3441.628	1038.38
3444.557	1002.38
3447.483	990.38
3450.407	978.38
3453.328	941.38
3456.247	909.38
3459.164	865.38
3462.079	855.38
3464.991	824.38
3467.902	795.38
3470.809	783.38
3473.715	760.38
3476.618	734.38
3479.519	710.38
3482.418	698.38
3485.315	674.38
3488.209	661.38
3491.101	653.38
3493.99	634.38
3496.878	611.38
3499.763	597.38
3502.646	573.38
3505.527	551.38
3508.405	540.38
3511.281	511.38
3514.155	485.38
3517.027	464.38
3519.897	446.38
3522.764	432.38
3525.629	408.38
3528.492	387.38
3531.352	368.38
3534.211	352.38
3537.067	323.38
3539.921	309.38
3542.773	287.38
3545.622	267.38
3548.469	254.38
3551.315	244.38
3554.157	228.38
3556.998	210.38
3559.837	200.38
3562.673	193.38
3565.507	188.38
3568.339	177.38
3571.169	162.38
3573.996	157.38
3576.822	139.38
3579.645	132.38
3582.466	117.38
3585.285	107.38
3588.101	101.38
3590.916	79.38
3593.728	77.38
3596.538	67.38
3599.346	53.38
3602.152	43.38
3604.956	37.38
3607.757	29.38
3610.556	19.38
3613.354	9.38
3616.149	7.38
3618.942	-0.62
3621.732	-6.62
3624.521	-13.62
3627.307	-17.62
3630.092	-20.62
3632.874	-22.62
3635.654	-31.62
3638.432	-35.62
3641.208	-35.62
3643.982	-48.62
3646.753	-47.62
3649.523	-61.62
3652.29	-62.62
3655.055	-69.62
3657.818	-75.62
3660.579	-79.62
3663.338	-85.62
3666.095	-91.62
3668.849	-90.62
3671.602	-102.62
3674.352	-102.62
3677.101	-106.62
3679.847	-114.62
3682.591	-116.62
3685.333	-120.62
3688.073	-113.62
3690.811	-118.62
3693.547	-127.62
3696.281	-131.62
3699.013	-132.62
3701.742	-129.62
3704.47	-138.62
3707.195	-135.62
3709.919	-141.62
3712.64	-140.62
3715.359	-138.62
3718.076	-145.62
3720.792	-145.62
3723.505	-148.62
3726.216	-151.62
3728.925	-155.62
3731.632	-151.62
3734.336	-159.62
3737.039	-157.62
3739.74	-160.62
3742.439	-157.62
3745.136	-166.62
3747.83	-156.62
3750.523	-160.62
3753.213	-163.62
3755.902	-166.62
3758.589	-164.62
3761.273	-166.62
3763.956	-169.62
3766.636	-166.62
3769.315	-168.62
3771.991	-173.62
3774.665	-175.62
3777.338	-176.62
3780.008	-177.62
3782.677	-177.62
3785.343	-171.62
3788.007	-178.62
3790.67	-179.62
3793.33	-177.62
3795.989	-182.62
3798.645	-185.62
3801.299	-181.62
3803.952	-184.62
3806.602	-182.62
3809.251	-181.62
3811.897	-183.62
3814.542	-180.62
3817.184	-184.62
3819.825	-182.62
3822.463	-185.62
3825.1	-182.62
3827.735	-182.62
3830.367	-183.62
3832.998	-183.62
3835.627	-187.62
3838.253	-187.62
3840.878	-188.62
3843.501	-185.62
3846.122	-190.62
3848.741	-185.62
3851.358	-189.62
3853.973	-188.62
3856.586	-193.62
3859.197	-192.62
3861.806	-191.62
3864.414	-195.62
3867.019	-192.62
3869.622	-195.62
3872.224	-194.62
3874.823	-191.62
3877.421	-191.62
3880.016	-189.62
3882.61	-182.62
3885.202	-184.62
3887.792	-184.62
3890.38	-193.62
3892.966	-196.62
3895.55	-202.62
3898.132	-200.62
3900.713	-198.62
3903.291	-196.62
3905.868	-203.62
3908.442	-198.62
3911.015	-197.62
3913.586	-203.62
3916.155	-195.62
3918.722	-201.62
3921.287	-202.62
3923.85	-200.62
3926.411	-200.62
3928.971	-203.62
3931.528	-200.62
3934.084	-202.62
3936.638	-202.62
3939.19	-204.62
3941.74	-202.62
3944.288	-204.62
3946.834	-204.62
3949.378	-205.62
3951.921	-211.62
3954.462	-203.62
3957	-208.62
3959.537	-205.62
3962.072	-206.62
3964.606	-204.62
3967.137	-209.62
3969.667	-202.62
3972.194	-205.62
3974.72	-208.62
3977.244	-203.62
3979.766	-203.62
3982.286	-200.62
3984.805	-201.62
3987.321	-196.62
3989.836	-205.62
3992.349	-199.62
3994.86	-194.62
3997.369	-200.62
3999.877	-196.62
4002.382	-194.62
4004.886	-197.62
4007.388	-197.62
4009.888	-196.62
4012.386	-202.62
4014.883	-198.62
4017.377	-198.62
4019.87	-200.62
4022.361	-200.62
4024.85	-197.62
4027.338	-200.62
4029.823	-200.62
4032.307	-203.62
4034.789	-203.62
4037.269	-203.62
4039.747	-202.62
4042.224	-209.62
4044.699	-209.62
4047.172	-208.62
4049.643	-203.62
4052.112	-204.62
4054.58	-202.62
4057.046	-207.62
4059.51	-205.62
4061.972	-204.62
4064.432	-201.62
4066.891	-199.62
4069.348	-201.62
4071.803	-202.62
4074.256	-202.62
4076.708	-200.62
4079.158	-202.62
4081.606	-199.62
4084.052	-202.62
4086.497	-201.62
4088.939	-196.62
4091.38	-200.62
4093.819	-198.62
4096.257	-214.62
4098.693	-214.62
4101.127	-213.62
4103.559	-208.62
4105.989	-135.62
4108.418	-126.62
4110.845	-118.62
4113.27	-115.62
4115.694	-96.62
4118.115	-80.62
4120.535	-204.62
4122.954	-200.62
4125.37	-203.62
4127.785	-204.62
4130.198	-202.62
4132.609	-200.62
4135.019	-215.62
4137.427	-215.62
4139.833	-215.62
4142.237	-215.62
