Data from I0.75_T10s_Bsub_water_1-1_3_RamanShift_1.txt Node
Date: Mon Mar 13 15:37:27 IST 2017
User: aro
Spectrometer: QEPB0276
Trigger mode: 0
Integration Time (sec): 1.000000E1
Scans to average: 1
Electric dark correction enabled: true
Nonlinearity correction enabled: false
Boxcar width: 0
XAxis mode: Raman Shifts
Number of Pixels in Spectrum: 1044
>>>>>Begin Spectral Data<<<<<
160.701	-48
166.742	7
172.777	159
178.805	627
184.826	1819
190.841	3870
196.849	6252
202.85	7750
208.845	8205
214.833	7981
220.815	7783
226.789	7576
232.758	7484
238.719	7325
244.674	7162
250.623	6922
256.565	6732
262.5	6472
268.429	6319
274.351	6149
280.267	5981
286.176	5823
292.079	5709
297.975	5576
303.865	5484
309.748	5343
315.625	5226
321.495	5152
327.359	5021
333.217	5000
339.068	4953
344.912	4871
350.751	4842
356.583	4808
362.408	4805
368.227	4760
374.04	4768
379.847	4766
385.647	4768
391.44	4766
397.228	4759
403.009	4774
408.784	4772
414.553	4774
420.315	4788
426.071	4792
431.821	4798
437.565	4786
443.302	4786
449.033	4790
454.758	4732
460.477	4720
466.189	4735
471.896	4691
477.596	4666
483.29	4652
488.978	4668
494.66	4646
500.335	4590
506.005	4533
511.668	4464
517.325	4405
522.977	4363
528.622	4317
534.261	4279
539.894	4255
545.521	4254
551.141	4230
556.756	4199
562.365	4195
567.968	4204
573.565	4164
579.155	4183
584.74	4147
590.319	4144
595.892	4113
601.459	4083
607.02	4077
612.575	4032
618.124	4011
623.667	3988
629.204	3972
634.735	3993
640.261	3914
645.781	3912
651.294	3906
656.802	3901
662.304	3884
667.8	3866
673.29	3896
678.775	3863
684.254	3868
689.726	3849
695.193	3837
700.655	3851
706.11	3830
711.56	3829
717.004	3782
722.442	3783
727.874	3754
733.301	3762
738.722	3758
744.137	3751
749.547	3744
754.951	3769
760.349	3775
765.741	3755
771.128	3749
776.509	3769
781.885	3767
787.254	3776
792.618	3766
797.977	3755
803.33	3728
808.677	3722
814.019	3703
819.355	3704
824.686	3677
830.011	3650
835.33	3655
840.644	3658
845.952	3668
851.255	3653
856.552	3648
861.844	3663
867.13	3674
872.41	3653
877.686	3681
882.955	3623
888.219	3610
893.478	3551
898.731	3506
903.979	3472
909.221	3455
914.458	3432
919.69	3455
924.916	3484
930.136	3471
935.351	3447
940.561	3486
945.766	3487
950.965	3460
956.158	3443
961.347	3424
966.529	3373
971.707	3348
976.879	3300
982.046	3283
987.208	3306
992.364	3296
997.515	3326
1002.66	3343
1007.801	3385
1012.936	3428
1018.066	3456
1023.19	3458
1028.309	3498
1033.423	3452
1038.532	3457
1043.636	3462
1048.734	3410
1053.827	3396
1058.915	3358
1063.998	3366
1069.075	3341
1074.147	3357
1079.214	3370
1084.276	3411
1089.333	3436
1094.385	3451
1099.431	3467
1104.472	3489
1109.509	3481
1114.54	3467
1119.565	3415
1124.586	3390
1129.602	3347
1134.613	3340
1139.618	3324
1144.619	3335
1149.614	3348
1154.604	3386
1159.589	3390
1164.57	3410
1169.545	3432
1174.515	3424
1179.48	3404
1184.44	3386
1189.395	3369
1194.345	3366
1199.29	3361
1204.23	3359
1209.165	3393
1214.095	3398
1219.021	3449
1223.941	3469
1228.856	3476
1233.766	3508
1238.672	3507
1243.572	3505
1248.467	3482
1253.358	3467
1258.244	3420
1263.124	3373
1268	3346
1272.871	3283
1277.737	3279
1282.599	3282
1287.455	3309
1292.306	3309
1297.153	3343
1301.995	3368
1306.832	3391
1311.664	3411
1316.491	3395
1321.314	3391
1326.132	3366
1330.945	3332
1335.753	3274
1340.556	3204
1345.354	3154
1350.148	3154
1354.937	3128
1359.722	3148
1364.501	3174
1369.276	3214
1374.046	3249
1378.811	3274
1383.572	3298
1388.327	3288
1393.079	3252
1397.825	3194
1402.567	3154
1407.304	3131
1412.036	3087
1416.764	3080
1421.487	3078
1426.205	3086
1430.919	3119
1435.628	3137
1440.333	3187
1445.032	3214
1449.727	3201
1454.418	3238
1459.104	3240
1463.785	3209
1468.462	3186
1473.134	3135
1477.802	3121
1482.465	3115
1487.123	3104
1491.777	3100
1496.426	3135
1501.071	3166
1505.711	3202
1510.347	3253
1514.978	3254
1519.604	3282
1524.226	3322
1528.844	3338
1533.457	3343
1538.065	3321
1542.669	3309
1547.269	3294
1551.864	3290
1556.454	3282
1561.041	3299
1565.622	3308
1570.199	3315
1574.772	3339
1579.34	3346
1583.904	3411
1588.464	3442
1593.019	3462
1597.569	3461
1602.115	3451
1606.657	3455
1611.195	3446
1615.728	3442
1620.256	3469
1624.78	3498
1629.3	3491
1633.816	3550
1638.327	3566
1642.834	3615
1647.336	3617
1651.834	3648
1656.328	3652
1660.817	3654
1665.302	3614
1669.783	3578
1674.259	3531
1678.732	3429
1683.199	3382
1687.663	3261
1692.122	3173
1696.577	3104
1701.028	3113
1705.474	3084
1709.917	3085
1714.355	3051
1718.788	3015
1723.218	2949
1727.643	2915
1732.064	2895
1736.481	2850
1740.893	2776
1745.301	2746
1749.705	2677
1754.105	2627
1758.501	2583
1762.893	2569
1767.28	2523
1771.663	2501
1776.042	2504
1780.417	2509
1784.787	2533
1789.154	2550
1793.516	2607
1797.874	2630
1802.228	2627
1806.578	2643
1810.924	2632
1815.266	2612
1819.603	2567
1823.937	2532
1828.266	2493
1832.591	2500
1836.913	2466
1841.23	2447
1845.543	2422
1849.852	2438
1854.156	2437
1858.457	2448
1862.754	2451
1867.047	2455
1871.335	2456
1875.62	2479
1879.9	2477
1884.177	2460
1888.449	2458
1892.718	2450
1896.982	2456
1901.243	2433
1905.499	2423
1909.752	2427
1914	2425
1918.245	2441
1922.485	2432
1926.722	2437
1930.954	2467
1935.183	2493
1939.408	2496
1943.628	2505
1947.845	2490
1952.058	2506
1956.267	2512
1960.472	2471
1964.673	2458
1968.87	2451
1973.063	2392
1977.252	2403
1981.438	2374
1985.619	2338
1989.797	2356
1993.971	2353
1998.14	2370
2002.306	2363
2006.469	2365
2010.627	2358
2014.781	2348
2018.932	2331
2023.078	2337
2027.221	2326
2031.36	2314
2035.495	2276
2039.627	2260
2043.754	2256
2047.878	2239
2051.998	2252
2056.114	2249
2060.226	2246
2064.334	2262
2068.439	2265
2072.54	2283
2076.637	2296
2080.73	2301
2084.82	2318
2088.906	2316
2092.988	2291
2097.066	2293
2101.14	2278
2105.211	2264
2109.278	2259
2113.342	2249
2117.401	2234
2121.457	2228
2125.509	2237
2129.558	2233
2133.602	2206
2137.643	2206
2141.681	2221
2145.714	2204
2149.744	2202
2153.77	2181
2157.793	2162
2161.812	2154
2165.827	2121
2169.838	2080
2173.846	2072
2177.851	2064
2181.851	2017
2185.848	2009
2189.841	1998
2193.831	1981
2197.817	1970
2201.799	1957
2205.778	1975
2209.753	1961
2213.725	1952
2217.693	1960
2221.657	1954
2225.618	1971
2229.575	1957
2233.529	1934
2237.479	1946
2241.425	1927
2245.368	1899
2249.307	1872
2253.243	1858
2257.175	1837
2261.104	1837
2265.029	1829
2268.95	1814
2272.868	1797
2276.783	1783
2280.694	1765
2284.601	1752
2288.505	1740
2292.405	1705
2296.302	1710
2300.195	1688
2304.085	1667
2307.971	1667
2311.854	1632
2315.734	1611
2319.609	1588
2323.482	1567
2327.351	1551
2331.216	1537
2335.078	1534
2338.937	1520
2342.792	1530
2346.643	1505
2350.492	1497
2354.336	1507
2358.178	1503
2362.015	1505
2365.85	1523
2369.681	1514
2373.508	1524
2377.333	1530
2381.153	1524
2384.971	1523
2388.785	1512
2392.595	1498
2396.402	1497
2400.206	1477
2404.007	1475
2407.804	1488
2411.597	1458
2415.388	1467
2419.174	1463
2422.958	1463
2426.738	1462
2430.515	1448
2434.289	1456
2438.059	1416
2441.825	1427
2445.589	1437
2449.349	1422
2453.106	1420
2456.859	1400
2460.61	1389
2464.356	1375
2468.1	1372
2471.84	1359
2475.577	1353
2479.311	1353
2483.041	1352
2486.768	1352
2490.492	1355
2494.213	1361
2497.93	1357
2501.644	1350
2505.355	1363
2509.062	1344
2512.766	1335
2516.467	1346
2520.165	1342
2523.859	1323
2527.551	1335
2531.239	1335
2534.923	1295
2538.605	1304
2542.283	1288
2545.958	1293
2549.63	1285
2553.299	1298
2556.964	1289
2560.626	1268
2564.285	1263
2567.941	1255
2571.594	1249
2575.243	1247
2578.89	1248
2582.533	1230
2586.173	1222
2589.809	1209
2593.443	1214
2597.073	1204
2600.701	1202
2604.325	1197
2607.946	1186
2611.564	1185
2615.178	1180
2618.79	1188
2622.398	1174
2626.004	1184
2629.606	1154
2633.205	1169
2636.801	1139
2640.394	1128
2643.983	1113
2647.57	1096
2651.153	1106
2654.734	1092
2658.311	1083
2661.885	1070
2665.456	1071
2669.025	1041
2672.589	1051
2676.151	1036
2679.71	1040
2683.266	1021
2686.819	998
2690.368	997
2693.915	991
2697.458	963
2700.999	976
2704.536	940
2708.071	948
2711.602	949
2715.13	924
2718.656	919
2722.178	919
2725.697	906
2729.214	912
2732.727	914
2736.237	924
2739.744	926
2743.249	937
2746.75	943
2750.248	936
2753.743	938
2757.236	943
2760.725	932
2764.211	918
2767.695	915
2771.175	915
2774.652	909
2778.127	908
2781.598	900
2785.067	884
2788.532	893
2791.995	884
2795.455	877
2798.911	886
2802.365	882
2805.816	868
2809.264	868
2812.709	867
2816.151	859
2819.59	850
2823.026	849
2826.46	852
2829.89	850
2833.318	848
2836.742	850
2840.164	845
2843.583	838
2846.999	849
2850.412	846
2853.822	848
2857.229	838
2860.634	844
2864.035	853
2867.434	854
2870.83	858
2874.223	870
2877.613	868
2881	860
2884.385	866
2887.766	850
2891.145	852
2894.521	854
2897.894	839
2901.264	840
2904.631	833
2907.996	834
2911.358	828
2914.717	833
2918.073	840
2921.426	837
2924.777	848
2928.124	844
2931.469	846
2934.811	848
2938.15	858
2941.487	857
2944.821	869
2948.152	853
2951.48	861
2954.805	874
2958.128	860
2961.447	858
2964.765	868
2968.079	867
2971.39	869
2974.699	885
2978.005	887
2981.308	923
2984.609	918
2987.907	957
2991.202	953
2994.494	973
2997.784	978
3001.07	999
3004.355	1016
3007.636	1034
3010.915	1035
3014.191	1045
3017.464	1054
3020.734	1050
3024.002	1057
3027.267	1074
3030.53	1080
3033.789	1080
3037.046	1083
3040.301	1109
3043.552	1121
3046.801	1130
3050.048	1161
3053.291	1166
3056.532	1195
3059.771	1227
3063.006	1254
3066.239	1276
3069.469	1303
3072.697	1322
3075.922	1337
3079.144	1370
3082.364	1404
3085.581	1420
3088.795	1434
3092.007	1458
3095.216	1482
3098.423	1516
3101.627	1541
3104.828	1569
3108.026	1584
3111.222	1621
3114.416	1645
3117.607	1666
3120.795	1702
3123.98	1752
3127.163	1757
3130.344	1797
3133.521	1816
3136.696	1873
3139.869	1885
3143.039	1927
3146.206	1953
3149.371	1933
3152.533	1968
3155.693	1993
3158.85	1987
3162.005	2002
3165.157	1998
3168.306	1999
3171.453	2003
3174.597	2003
3177.739	2006
3180.878	2006
3184.014	1997
3187.149	2017
3190.28	2024
3193.409	2015
3196.536	2011
3199.659	2033
3202.781	2027
3205.9	2029
3209.016	2042
3212.13	2010
3215.241	1998
3218.35	2012
3221.456	1997
3224.56	1962
3227.661	1950
3230.76	1948
3233.856	1926
3236.95	1897
3240.041	1877
3243.13	1874
3246.216	1859
3249.3	1843
3252.382	1832
3255.46	1819
3258.537	1825
3261.611	1828
3264.682	1823
3267.751	1804
3270.818	1797
3273.882	1784
3276.943	1793
3280.002	1765
3283.059	1744
3286.113	1737
3289.165	1706
3292.214	1677
3295.261	1648
3298.306	1623
3301.348	1604
3304.387	1607
3307.425	1547
3310.459	1525
3313.492	1528
3316.521	1488
3319.549	1478
3322.574	1456
3325.597	1448
3328.617	1435
3331.635	1434
3334.65	1412
3337.663	1410
3340.674	1395
3343.682	1415
3346.688	1402
3349.691	1378
3352.692	1389
3355.691	1373
3358.687	1351
3361.681	1351
3364.673	1331
3367.662	1297
3370.649	1306
3373.633	1271
3376.615	1249
3379.595	1252
3382.572	1212
3385.547	1219
3388.52	1188
3391.49	1167
3394.458	1164
3397.424	1148
3400.387	1139
3403.348	1118
3406.307	1119
3409.263	1084
3412.217	1076
3415.168	1067
3418.118	1053
3421.065	1035
3424.009	1042
3426.951	1004
3429.891	1006
3432.829	983
3435.764	955
3438.697	949
3441.628	925
3444.557	897
3447.483	885
3450.407	841
3453.328	832
3456.247	807
3459.164	794
3462.079	777
3464.991	733
3467.902	710
3470.809	700
3473.715	675
3476.618	653
3479.519	644
3482.418	628
3485.315	608
3488.209	589
3491.101	584
3493.99	563
3496.878	553
3499.763	524
3502.646	497
3505.527	489
3508.405	480
3511.281	468
3514.155	457
3517.027	428
3519.897	407
3522.764	396
3525.629	372
3528.492	356
3531.352	332
3534.211	313
3537.067	299
3539.921	281
3542.773	269
3545.622	245
3548.469	244
3551.315	223
3554.157	217
3556.998	205
3559.837	189
3562.673	175
3565.507	167
3568.339	162
3571.169	154
3573.996	146
3576.822	132
3579.645	121
3582.466	113
3585.285	105
3588.101	83
3590.916	89
3593.728	75
3596.538	72
3599.346	56
3602.152	51
3604.956	45
3607.757	35
3610.556	26
3613.354	25
3616.149	14
3618.942	2
3621.732	0
3624.521	-9
3627.307	-9
3630.092	-11
3632.874	-19
3635.654	-19
3638.432	-20
3641.208	-35
3643.982	-43
3646.753	-37
3649.523	-47
3652.29	-44
3655.055	-56
3657.818	-56
3660.579	-59
3663.338	-72
3666.095	-70
3668.849	-72
3671.602	-76
3674.352	-80
3677.101	-84
3679.847	-88
3682.591	-95
3685.333	-97
3688.073	-98
3690.811	-100
3693.547	-107
3696.281	-107
3699.013	-106
3701.742	-110
3704.47	-112
3707.195	-115
3709.919	-117
3712.64	-116
3715.359	-117
3718.076	-121
3720.792	-120
3723.505	-128
3726.216	-124
3728.925	-132
3731.632	-130
3734.336	-133
3737.039	-133
3739.74	-134
3742.439	-132
3745.136	-135
3747.83	-137
3750.523	-137
3753.213	-141
3755.902	-140
3758.589	-133
3761.273	-141
3763.956	-141
3766.636	-142
3769.315	-141
3771.991	-149
3774.665	-148
3777.338	-151
3780.008	-150
3782.677	-151
3785.343	-146
3788.007	-146
3790.67	-149
3793.33	-149
3795.989	-152
3798.645	-153
3801.299	-150
3803.952	-152
3806.602	-156
3809.251	-154
3811.897	-153
3814.542	-154
3817.184	-154
3819.825	-156
3822.463	-162
3825.1	-159
3827.735	-154
3830.367	-159
3832.998	-159
3835.627	-159
3838.253	-158
3840.878	-162
3843.501	-160
3846.122	-161
3848.741	-160
3851.358	-162
3853.973	-166
3856.586	-166
3859.197	-168
3861.806	-164
3864.414	-169
3867.019	-168
3869.622	-168
3872.224	-167
3874.823	-166
3877.421	-162
3880.016	-160
3882.61	-154
3885.202	-154
3887.792	-156
3890.38	-166
3892.966	-167
3895.55	-166
3898.132	-168
3900.713	-169
3903.291	-169
3905.868	-170
3908.442	-170
3911.015	-171
3913.586	-171
3916.155	-169
3918.722	-170
3921.287	-176
3923.85	-173
3926.411	-172
3928.971	-168
3931.528	-175
3934.084	-173
3936.638	-171
3939.19	-180
3941.74	-178
3944.288	-175
3946.834	-175
3949.378	-178
3951.921	-177
3954.462	-175
3957	-179
3959.537	-176
3962.072	-178
3964.606	-175
3967.137	-177
3969.667	-174
3972.194	-174
3974.72	-180
3977.244	-176
3979.766	-175
3982.286	-175
3984.805	-176
3987.321	-173
3989.836	-175
3992.349	-169
3994.86	-168
3997.369	-170
3999.877	-169
4002.382	-168
4004.886	-170
4007.388	-168
4009.888	-172
4012.386	-171
4014.883	-172
4017.377	-174
4019.87	-173
4022.361	-171
4024.85	-171
4027.338	-173
4029.823	-169
4032.307	-175
4034.789	-175
4037.269	-174
4039.747	-174
4042.224	-177
4044.699	-176
4047.172	-178
4049.643	-175
4052.112	-172
4054.58	-175
4057.046	-175
4059.51	-176
4061.972	-174
4064.432	-173
4066.891	-171
4069.348	-173
4071.803	-174
4074.256	-173
4076.708	-174
4079.158	-178
4081.606	-174
4084.052	-173
4086.497	-177
4088.939	-179
4091.38	-176
4093.819	-172
4096.257	-186
4098.693	-183
4101.127	-184
4103.559	-180
4105.989	-117
4108.418	-109
4110.845	-99
4113.27	-97
4115.694	-81
4118.115	-66
4120.535	-175
4122.954	-172
4125.37	-174
4127.785	-178
4130.198	-174
4132.609	-177
4135.019	-188
4137.427	-185
4139.833	-186
4142.237	-186
