Data from 1000000CFU2_B_RamanShift_1.txt Node
Date: Thu Feb 02 14:40:25 IST 2017
User: aro
Spectrometer: QEPB0276
Trigger mode: 0
Integration Time (sec): 5.000000E0
Scans to average: 1
Electric dark correction enabled: true
Nonlinearity correction enabled: false
Boxcar width: 0
XAxis mode: Raman Shifts
Number of Pixels in Spectrum: 1044
>>>>>Begin Spectral Data<<<<<
160.701	-4
166.742	4
172.777	20
178.805	86
184.826	213
190.841	420
196.849	648
202.85	809
208.845	840
214.833	829
220.815	816
226.789	803
232.758	793
238.719	788
244.674	784
250.623	768
256.565	744
262.5	716
268.429	710
274.351	691
280.267	685
286.176	677
292.079	687
297.975	667
303.865	656
309.748	660
315.625	652
321.495	636
327.359	643
333.217	646
339.068	653
344.912	653
350.751	669
356.583	674
362.408	664
368.227	674
374.04	663
379.847	643
385.647	657
391.44	652
397.228	658
403.009	667
408.784	674
414.553	674
420.315	672
426.071	678
431.821	679
437.565	674
443.302	680
449.033	680
454.758	679
460.477	670
466.189	663
471.896	653
477.596	644
483.29	637
488.978	623
494.66	615
500.335	605
506.005	586
511.668	568
517.325	544
522.977	530
528.622	514
534.261	500
539.894	488
545.521	488
551.141	472
556.756	469
562.365	460
567.968	457
573.565	460
579.155	455
584.74	459
590.319	457
595.892	458
601.459	456
607.02	450
612.575	451
618.124	436
623.667	436
629.204	417
634.735	423
640.261	419
645.781	415
651.294	417
656.802	408
662.304	396
667.8	402
673.29	398
678.775	404
684.254	394
689.726	386
695.193	391
700.655	383
706.11	390
711.56	394
717.004	389
722.442	381
727.874	380
733.301	375
738.722	364
744.137	374
749.547	369
754.951	370
760.349	370
765.741	374
771.128	383
776.509	382
781.885	378
787.254	382
792.618	384
797.977	380
803.33	377
808.677	379
814.019	377
819.355	371
824.686	370
830.011	383
835.33	382
840.644	378
845.952	381
851.255	391
856.552	394
861.844	388
867.13	393
872.41	397
877.686	387
882.955	396
888.219	379
893.478	379
898.731	369
903.979	368
909.221	354
914.458	343
919.69	346
924.916	344
930.136	330
935.351	333
940.561	344
945.766	335
950.965	340
956.158	337
961.347	331
966.529	321
971.707	317
976.879	314
982.046	313
987.208	317
992.364	307
997.515	309
1002.66	325
1007.801	330
1012.936	328
1018.066	339
1023.19	339
1028.309	341
1033.423	341
1038.532	336
1043.636	344
1048.734	334
1053.827	342
1058.915	344
1063.998	351
1069.075	361
1074.147	373
1079.214	369
1084.276	375
1089.333	381
1094.385	374
1099.431	364
1104.472	367
1109.509	350
1114.54	339
1119.565	338
1124.586	341
1129.602	340
1134.613	335
1139.618	317
1144.619	305
1149.614	293
1154.604	290
1159.589	292
1164.57	294
1169.545	289
1174.515	279
1179.48	280
1184.44	266
1189.395	265
1194.345	255
1199.29	257
1204.23	263
1209.165	258
1214.095	266
1219.021	267
1223.941	259
1228.856	274
1233.766	270
1238.672	282
1243.572	292
1248.467	294
1253.358	288
1258.244	299
1263.124	295
1268	304
1272.871	286
1277.737	287
1282.599	286
1287.455	273
1292.306	291
1297.153	308
1301.995	310
1306.832	326
1311.664	313
1316.491	305
1321.314	293
1326.132	275
1330.945	266
1335.753	258
1340.556	259
1345.354	257
1350.148	248
1354.937	241
1359.722	245
1364.501	239
1369.276	241
1374.046	241
1378.811	243
1383.572	237
1388.327	238
1393.079	217
1397.825	222
1402.567	217
1407.304	216
1412.036	224
1416.764	223
1421.487	229
1426.205	233
1430.919	241
1435.628	262
1440.333	291
1445.032	310
1449.727	319
1454.418	311
1459.104	298
1463.785	296
1468.462	279
1473.134	261
1477.802	238
1482.465	211
1487.123	204
1491.777	189
1496.426	187
1501.071	176
1505.711	177
1510.347	178
1514.978	183
1519.604	180
1524.226	176
1528.844	172
1533.457	176
1538.065	174
1542.669	176
1547.269	179
1551.864	170
1556.454	168
1561.041	170
1565.622	169
1570.199	167
1574.772	175
1579.34	170
1583.904	168
1588.464	177
1593.019	167
1597.569	176
1602.115	169
1606.657	182
1611.195	176
1615.728	180
1620.256	186
1624.78	181
1629.3	183
1633.816	185
1638.327	185
1642.834	193
1647.336	195
1651.834	201
1656.328	212
1660.817	214
1665.302	205
1669.783	204
1674.259	196
1678.732	188
1683.199	185
1687.663	171
1692.122	158
1696.577	155
1701.028	156
1705.474	142
1709.917	140
1714.355	145
1718.788	133
1723.218	129
1727.643	124
1732.064	123
1736.481	120
1740.893	124
1745.301	119
1749.705	116
1754.105	116
1758.501	107
1762.893	93
1767.28	95
1771.663	103
1776.042	96
1780.417	94
1784.787	89
1789.154	94
1793.516	95
1797.874	93
1802.228	93
1806.578	98
1810.924	93
1815.266	90
1819.603	87
1823.937	87
1828.266	86
1832.591	82
1836.913	85
1841.23	81
1845.543	75
1849.852	73
1854.156	76
1858.457	86
1862.754	80
1867.047	75
1871.335	74
1875.62	82
1879.9	73
1884.177	75
1888.449	81
1892.718	81
1896.982	80
1901.243	78
1905.499	82
1909.752	75
1914	79
1918.245	75
1922.485	74
1926.722	76
1930.954	82
1935.183	77
1939.408	79
1943.628	76
1947.845	74
1952.058	74
1956.267	79
1960.472	74
1964.673	72
1968.87	68
1973.063	73
1977.252	67
1981.438	65
1985.619	68
1989.797	59
1993.971	63
1998.14	64
2002.306	69
2006.469	63
2010.627	63
2014.781	65
2018.932	64
2023.078	65
2027.221	64
2031.36	64
2035.495	57
2039.627	62
2043.754	62
2047.878	61
2051.998	59
2056.114	65
2060.226	56
2064.334	58
2068.439	57
2072.54	59
2076.637	63
2080.73	61
2084.82	70
2088.906	72
2092.988	58
2097.066	60
2101.14	63
2105.211	59
2109.278	58
2113.342	62
2117.401	63
2121.457	56
2125.509	59
2129.558	60
2133.602	59
2137.643	57
2141.681	53
2145.714	52
2149.744	54
2153.77	57
2157.793	61
2161.812	57
2165.827	50
2169.838	51
2173.846	49
2177.851	47
2181.851	48
2185.848	51
2189.841	50
2193.831	46
2197.817	40
2201.799	42
2205.778	40
2209.753	44
2213.725	43
2217.693	49
2221.657	43
2225.618	43
2229.575	37
2233.529	40
2237.479	40
2241.425	38
2245.368	37
2249.307	38
2253.243	33
2257.175	37
2261.104	35
2265.029	34
2268.95	36
2272.868	30
2276.783	30
2280.694	29
2284.601	32
2288.505	30
2292.405	28
2296.302	27
2300.195	28
2304.085	32
2307.971	25
2311.854	26
2315.734	23
2319.609	24
2323.482	26
2327.351	28
2331.216	27
2335.078	29
2338.937	26
2342.792	21
2346.643	20
2350.492	20
2354.336	19
2358.178	22
2362.015	20
2365.85	21
2369.681	15
2373.508	17
2377.333	17
2381.153	22
2384.971	20
2388.785	18
2392.595	19
2396.402	14
2400.206	21
2404.007	14
2407.804	19
2411.597	15
2415.388	13
2419.174	19
2422.958	13
2426.738	16
2430.515	14
2434.289	13
2438.059	18
2441.825	14
2445.589	13
2449.349	18
2453.106	13
2456.859	13
2460.61	15
2464.356	12
2468.1	12
2471.84	13
2475.577	12
2479.311	10
2483.041	10
2486.768	16
2490.492	14
2494.213	14
2497.93	12
2501.644	8
2505.355	8
2509.062	9
2512.766	7
2516.467	16
2520.165	9
2523.859	15
2527.551	12
2531.239	11
2534.923	4
2538.605	8
2542.283	10
2545.958	12
2549.63	10
2553.299	12
2556.964	7
2560.626	12
2564.285	4
2567.941	6
2571.594	11
2575.243	12
2578.89	13
2582.533	10
2586.173	10
2589.809	8
2593.443	11
2597.073	5
2600.701	7
2604.325	10
2607.946	10
2611.564	8
2615.178	13
2618.79	11
2622.398	7
2626.004	9
2629.606	6
2633.205	9
2636.801	7
2640.394	10
2643.983	10
2647.57	9
2651.153	6
2654.734	7
2658.311	9
2661.885	6
2665.456	7
2669.025	6
2672.589	4
2676.151	6
2679.71	8
2683.266	7
2686.819	5
2690.368	5
2693.915	4
2697.458	4
2700.999	2
2704.536	9
2708.071	7
2711.602	9
2715.13	7
2718.656	6
2722.178	5
2725.697	3
2729.214	10
2732.727	15
2736.237	9
2739.744	15
2743.249	9
2746.75	10
2750.248	3
2753.743	9
2757.236	6
2760.725	10
2764.211	13
2767.695	9
2771.175	12
2774.652	9
2778.127	6
2781.598	7
2785.067	4
2788.532	7
2791.995	13
2795.455	12
2798.911	8
2802.365	7
2805.816	13
2809.264	13
2812.709	13
2816.151	13
2819.59	15
2823.026	17
2826.46	24
2829.89	27
2833.318	28
2836.742	31
2840.164	41
2843.583	48
2846.999	58
2850.412	72
2853.822	80
2857.229	88
2860.634	88
2864.035	90
2867.434	92
2870.83	96
2874.223	96
2877.613	98
2881	109
2884.385	114
2887.766	116
2891.145	119
2894.521	116
2897.894	112
2901.264	110
2904.631	106
2907.996	104
2911.358	108
2914.717	107
2918.073	110
2921.426	102
2924.777	101
2928.124	96
2931.469	94
2934.811	92
2938.15	98
2941.487	93
2944.821	92
2948.152	85
2951.48	83
2954.805	75
2958.128	70
2961.447	69
2964.765	59
2968.079	62
2971.39	56
2974.699	54
2978.005	53
2981.308	52
2984.609	51
2987.907	46
2991.202	48
2994.494	40
2997.784	38
3001.07	37
3004.355	47
3007.636	39
3010.915	47
3014.191	38
3017.464	37
3020.734	35
3024.002	38
3027.267	31
3030.53	33
3033.789	34
3037.046	33
3040.301	35
3043.552	35
3046.801	37
3050.048	38
3053.291	36
3056.532	38
3059.771	37
3063.006	40
3066.239	45
3069.469	48
3072.697	47
3075.922	54
3079.144	51
3082.364	53
3085.581	49
3088.795	49
3092.007	48
3095.216	59
3098.423	56
3101.627	60
3104.828	58
3108.026	59
3111.222	59
3114.416	60
3117.607	66
3120.795	69
3123.98	70
3127.163	76
3130.344	75
3133.521	74
3136.696	68
3139.869	77
3143.039	78
3146.206	83
3149.371	83
3152.533	89
3155.693	82
3158.85	81
3162.005	85
3165.157	83
3168.306	88
3171.453	88
3174.597	83
3177.739	83
3180.878	87
3184.014	84
3187.149	90
3190.28	89
3193.409	89
3196.536	91
3199.659	84
3202.781	85
3205.9	82
3209.016	90
3212.13	96
3215.241	85
3218.35	86
3221.456	82
3224.56	85
3227.661	84
3230.76	82
3233.856	83
3236.95	73
3240.041	79
3243.13	81
3246.216	82
3249.3	80
3252.382	79
3255.46	76
3258.537	77
3261.611	77
3264.682	74
3267.751	79
3270.818	73
3273.882	75
3276.943	73
3280.002	71
3283.059	76
3286.113	74
3289.165	73
3292.214	67
3295.261	68
3298.306	66
3301.348	70
3304.387	64
3307.425	63
3310.459	61
3313.492	58
3316.521	54
3319.549	59
3322.574	62
3325.597	63
3328.617	60
3331.635	57
3334.65	58
3337.663	52
3340.674	59
3343.682	58
3346.688	58
3349.691	60
3352.692	59
3355.691	54
3358.687	58
3361.681	53
3364.673	56
3367.662	55
3370.649	54
3373.633	55
3376.615	47
3379.595	48
3382.572	43
3385.547	49
3388.52	46
3391.49	46
3394.458	45
3397.424	42
3400.387	45
3403.348	48
3406.307	43
3409.263	46
3412.217	42
3415.168	40
3418.118	37
3421.065	38
3424.009	33
3426.951	39
3429.891	38
3432.829	39
3435.764	35
3438.697	37
3441.628	28
3444.557	30
3447.483	28
3450.407	29
3453.328	27
3456.247	30
3459.164	28
3462.079	26
3464.991	23
3467.902	18
3470.809	22
3473.715	22
3476.618	15
3479.519	16
3482.418	14
3485.315	15
3488.209	12
3491.101	8
3493.99	12
3496.878	15
3499.763	10
3502.646	8
3505.527	7
3508.405	7
3511.281	6
3514.155	10
3517.027	9
3519.897	5
3522.764	2
3525.629	1
3528.492	1
3531.352	5
3534.211	2
3537.067	-3
3539.921	-1
3542.773	-1
3545.622	-4
3548.469	-6
3551.315	-8
3554.157	-7
3556.998	-4
3559.837	-3
3562.673	-2
3565.507	-9
3568.339	-9
3571.169	-11
3573.996	-12
3576.822	-11
3579.645	-12
3582.466	-2
3585.285	-7
3588.101	-4
3590.916	-14
3593.728	-16
3596.538	-18
3599.346	-18
3602.152	-17
3604.956	-11
3607.757	-13
3610.556	-12
3613.354	-16
3616.149	-20
3618.942	-14
3621.732	-20
3624.521	-19
3627.307	-14
3630.092	-19
3632.874	-15
3635.654	-19
3638.432	-22
3641.208	-16
3643.982	-21
3646.753	-18
3649.523	-18
3652.29	-17
3655.055	-19
3657.818	-21
3660.579	-19
3663.338	-20
3666.095	-18
3668.849	-19
3671.602	-21
3674.352	-21
3677.101	-21
3679.847	-20
3682.591	-21
3685.333	-17
3688.073	-21
3690.811	-24
3693.547	-29
3696.281	-25
3699.013	-21
3701.742	-24
3704.47	-20
3707.195	-20
3709.919	-23
3712.64	-26
3715.359	-22
3718.076	-23
3720.792	-29
3723.505	-20
3726.216	-18
3728.925	-23
3731.632	-20
3734.336	-23
3737.039	-21
3739.74	-29
3742.439	-25
3745.136	-25
3747.83	-20
3750.523	-19
3753.213	-24
3755.902	-24
3758.589	-26
3761.273	-26
3763.956	-22
3766.636	-21
3769.315	-21
3771.991	-24
3774.665	-26
3777.338	-21
3780.008	-24
3782.677	-23
3785.343	-24
3788.007	-22
3790.67	-22
3793.33	-26
3795.989	-25
3798.645	-23
3801.299	-23
3803.952	-25
3806.602	-28
3809.251	-27
3811.897	-23
3814.542	-27
3817.184	-22
3819.825	-24
3822.463	-17
3825.1	-23
3827.735	-21
3830.367	-24
3832.998	-26
3835.627	-25
3838.253	-20
3840.878	-23
3843.501	-21
3846.122	-25
3848.741	-24
3851.358	-23
3853.973	-25
3856.586	-25
3859.197	-27
3861.806	-22
3864.414	-23
3867.019	-20
3869.622	-25
3872.224	-26
3874.823	-29
3877.421	-24
3880.016	-19
3882.61	-18
3885.202	-11
3887.792	-14
3890.38	-20
3892.966	-26
3895.55	-25
3898.132	-27
3900.713	-21
3903.291	-24
3905.868	-23
3908.442	-25
3911.015	-24
3913.586	-26
3916.155	-24
3918.722	-28
3921.287	-23
3923.85	-27
3926.411	-26
3928.971	-20
3931.528	-25
3934.084	-27
3936.638	-26
3939.19	-27
3941.74	-24
3944.288	-27
3946.834	-25
3949.378	-28
3951.921	-23
3954.462	-22
3957	-23
3959.537	-23
3962.072	-26
3964.606	-26
3967.137	-21
3969.667	-27
3972.194	-24
3974.72	-29
3977.244	-25
3979.766	-21
3982.286	-20
3984.805	-24
3987.321	-28
3989.836	-28
3992.349	-23
3994.86	-21
3997.369	-22
3999.877	-24
4002.382	-22
4004.886	-23
4007.388	-27
4009.888	-26
4012.386	-24
4014.883	-22
4017.377	-22
4019.87	-23
4022.361	-19
4024.85	-28
4027.338	-28
4029.823	-27
4032.307	-28
4034.789	-23
4037.269	-24
4039.747	-22
4042.224	-23
4044.699	-24
4047.172	-25
4049.643	-26
4052.112	-24
4054.58	-24
4057.046	-21
4059.51	-25
4061.972	-23
4064.432	-20
4066.891	-22
4069.348	-24
4071.803	-25
4074.256	-24
4076.708	-24
4079.158	-24
4081.606	-20
4084.052	-22
4086.497	-20
4088.939	-23
4091.38	-26
4093.819	-26
4096.257	-23
4098.693	-28
4101.127	-25
4103.559	-28
4105.989	-12
4108.418	-11
4110.845	-8
4113.27	-8
4115.694	-6
4118.115	-11
4120.535	-27
4122.954	-26
4125.37	-23
4127.785	-22
4130.198	-21
4132.609	-25
4135.019	-24
4137.427	-28
4139.833	-25
4142.237	-29
