Data from 10000CFU1_C_RamanShift_1.txt Node
Date: Thu Feb 02 15:08:45 IST 2017
User: aro
Spectrometer: QEPB0276
Trigger mode: 0
Integration Time (sec): 5.000000E0
Scans to average: 1
Electric dark correction enabled: true
Nonlinearity correction enabled: false
Boxcar width: 0
XAxis mode: Raman Shifts
Number of Pixels in Spectrum: 1044
>>>>>Begin Spectral Data<<<<<
160.701	-4.75
166.742	-0.75
172.777	24.25
178.805	85.25
184.826	220.25
190.841	438.25
196.849	675.25
202.85	847.25
208.845	889.25
214.833	886.25
220.815	864.25
226.789	844.25
232.758	837.25
238.719	815.25
244.674	815.25
250.623	799.25
256.565	777.25
262.5	758.25
268.429	749.25
274.351	730.25
280.267	710.25
286.176	712.25
292.079	707.25
297.975	699.25
303.865	687.25
309.748	696.25
315.625	680.25
321.495	676.25
327.359	686.25
333.217	674.25
339.068	671.25
344.912	681.25
350.751	694.25
356.583	694.25
362.408	696.25
368.227	691.25
374.04	684.25
379.847	675.25
385.647	675.25
391.44	680.25
397.228	687.25
403.009	684.25
408.784	701.25
414.553	705.25
420.315	704.25
426.071	703.25
431.821	720.25
437.565	715.25
443.302	709.25
449.033	700.25
454.758	696.25
460.477	696.25
466.189	692.25
471.896	679.25
477.596	676.25
483.29	666.25
488.978	659.25
494.66	645.25
500.335	628.25
506.005	611.25
511.668	582.25
517.325	568.25
522.977	556.25
528.622	541.25
534.261	517.25
539.894	517.25
545.521	507.25
551.141	500.25
556.756	495.25
562.365	478.25
567.968	479.25
573.565	487.25
579.155	475.25
584.74	477.25
590.319	477.25
595.892	468.25
601.459	470.25
607.02	460.25
612.575	458.25
618.124	463.25
623.667	447.25
629.204	453.25
634.735	433.25
640.261	442.25
645.781	433.25
651.294	437.25
656.802	430.25
662.304	417.25
667.8	417.25
673.29	423.25
678.775	415.25
684.254	421.25
689.726	418.25
695.193	404.25
700.655	406.25
706.11	401.25
711.56	406.25
717.004	404.25
722.442	408.25
727.874	388.25
733.301	394.25
738.722	399.25
744.137	398.25
749.547	395.25
754.951	382.25
760.349	393.25
765.741	397.25
771.128	395.25
776.509	400.25
781.885	398.25
787.254	399.25
792.618	402.25
797.977	390.25
803.33	393.25
808.677	392.25
814.019	394.25
819.355	387.25
824.686	394.25
830.011	396.25
835.33	396.25
840.644	408.25
845.952	399.25
851.255	410.25
856.552	408.25
861.844	413.25
867.13	412.25
872.41	414.25
877.686	407.25
882.955	413.25
888.219	409.25
893.478	397.25
898.731	386.25
903.979	385.25
909.221	371.25
914.458	368.25
919.69	369.25
924.916	359.25
930.136	361.25
935.351	365.25
940.561	366.25
945.766	358.25
950.965	355.25
956.158	355.25
961.347	347.25
966.529	335.25
971.707	332.25
976.879	324.25
982.046	333.25
987.208	325.25
992.364	325.25
997.515	328.25
1002.66	326.25
1007.801	342.25
1012.936	343.25
1018.066	351.25
1023.19	353.25
1028.309	358.25
1033.423	365.25
1038.532	359.25
1043.636	356.25
1048.734	354.25
1053.827	350.25
1058.915	363.25
1063.998	368.25
1069.075	380.25
1074.147	392.25
1079.214	381.25
1084.276	395.25
1089.333	392.25
1094.385	387.25
1099.431	391.25
1104.472	374.25
1109.509	366.25
1114.54	350.25
1119.565	361.25
1124.586	357.25
1129.602	362.25
1134.613	354.25
1139.618	343.25
1144.619	311.25
1149.614	312.25
1154.604	301.25
1159.589	300.25
1164.57	303.25
1169.545	304.25
1174.515	289.25
1179.48	295.25
1184.44	280.25
1189.395	271.25
1194.345	272.25
1199.29	269.25
1204.23	273.25
1209.165	286.25
1214.095	278.25
1219.021	278.25
1223.941	284.25
1228.856	283.25
1233.766	292.25
1238.672	297.25
1243.572	309.25
1248.467	307.25
1253.358	305.25
1258.244	305.25
1263.124	316.25
1268	310.25
1272.871	303.25
1277.737	302.25
1282.599	295.25
1287.455	289.25
1292.306	305.25
1297.153	307.25
1301.995	339.25
1306.832	344.25
1311.664	331.25
1316.491	316.25
1321.314	316.25
1326.132	292.25
1330.945	283.25
1335.753	272.25
1340.556	269.25
1345.354	265.25
1350.148	259.25
1354.937	263.25
1359.722	253.25
1364.501	252.25
1369.276	249.25
1374.046	252.25
1378.811	254.25
1383.572	257.25
1388.327	249.25
1393.079	240.25
1397.825	235.25
1402.567	238.25
1407.304	228.25
1412.036	234.25
1416.764	237.25
1421.487	241.25
1426.205	242.25
1430.919	253.25
1435.628	274.25
1440.333	309.25
1445.032	323.25
1449.727	342.25
1454.418	335.25
1459.104	326.25
1463.785	312.25
1468.462	291.25
1473.134	273.25
1477.802	243.25
1482.465	222.25
1487.123	211.25
1491.777	189.25
1496.426	189.25
1501.071	184.25
1505.711	181.25
1510.347	179.25
1514.978	183.25
1519.604	185.25
1524.226	187.25
1528.844	178.25
1533.457	187.25
1538.065	180.25
1542.669	179.25
1547.269	185.25
1551.864	181.25
1556.454	177.25
1561.041	182.25
1565.622	179.25
1570.199	175.25
1574.772	173.25
1579.34	185.25
1583.904	179.25
1588.464	184.25
1593.019	187.25
1597.569	184.25
1602.115	183.25
1606.657	185.25
1611.195	185.25
1615.728	198.25
1620.256	189.25
1624.78	196.25
1629.3	190.25
1633.816	193.25
1638.327	194.25
1642.834	200.25
1647.336	210.25
1651.834	213.25
1656.328	223.25
1660.817	216.25
1665.302	216.25
1669.783	211.25
1674.259	198.25
1678.732	199.25
1683.199	184.25
1687.663	175.25
1692.122	161.25
1696.577	166.25
1701.028	152.25
1705.474	149.25
1709.917	153.25
1714.355	143.25
1718.788	129.25
1723.218	133.25
1727.643	136.25
1732.064	124.25
1736.481	128.25
1740.893	126.25
1745.301	127.25
1749.705	123.25
1754.105	116.25
1758.501	112.25
1762.893	106.25
1767.28	100.25
1771.663	104.25
1776.042	100.25
1780.417	94.25
1784.787	94.25
1789.154	92.25
1793.516	97.25
1797.874	96.25
1802.228	95.25
1806.578	97.25
1810.924	99.25
1815.266	94.25
1819.603	88.25
1823.937	89.25
1828.266	83.25
1832.591	84.25
1836.913	87.25
1841.23	81.25
1845.543	79.25
1849.852	79.25
1854.156	81.25
1858.457	83.25
1862.754	83.25
1867.047	83.25
1871.335	79.25
1875.62	76.25
1879.9	77.25
1884.177	84.25
1888.449	79.25
1892.718	82.25
1896.982	79.25
1901.243	79.25
1905.499	78.25
1909.752	76.25
1914	75.25
1918.245	71.25
1922.485	77.25
1926.722	78.25
1930.954	82.25
1935.183	77.25
1939.408	78.25
1943.628	76.25
1947.845	81.25
1952.058	77.25
1956.267	80.25
1960.472	75.25
1964.673	77.25
1968.87	74.25
1973.063	75.25
1977.252	71.25
1981.438	71.25
1985.619	66.25
1989.797	64.25
1993.971	68.25
1998.14	71.25
2002.306	67.25
2006.469	65.25
2010.627	60.25
2014.781	71.25
2018.932	68.25
2023.078	66.25
2027.221	65.25
2031.36	63.25
2035.495	60.25
2039.627	68.25
2043.754	61.25
2047.878	64.25
2051.998	64.25
2056.114	61.25
2060.226	60.25
2064.334	63.25
2068.439	59.25
2072.54	61.25
2076.637	66.25
2080.73	64.25
2084.82	61.25
2088.906	72.25
2092.988	67.25
2097.066	59.25
2101.14	63.25
2105.211	59.25
2109.278	61.25
2113.342	67.25
2117.401	64.25
2121.457	64.25
2125.509	56.25
2129.558	60.25
2133.602	60.25
2137.643	62.25
2141.681	55.25
2145.714	59.25
2149.744	60.25
2153.77	57.25
2157.793	55.25
2161.812	57.25
2165.827	50.25
2169.838	46.25
2173.846	48.25
2177.851	49.25
2181.851	50.25
2185.848	50.25
2189.841	47.25
2193.831	42.25
2197.817	46.25
2201.799	46.25
2205.778	41.25
2209.753	45.25
2213.725	45.25
2217.693	50.25
2221.657	46.25
2225.618	47.25
2229.575	42.25
2233.529	43.25
2237.479	40.25
2241.425	40.25
2245.368	40.25
2249.307	39.25
2253.243	38.25
2257.175	39.25
2261.104	39.25
2265.029	38.25
2268.95	37.25
2272.868	36.25
2276.783	27.25
2280.694	30.25
2284.601	31.25
2288.505	32.25
2292.405	30.25
2296.302	34.25
2300.195	35.25
2304.085	29.25
2307.971	30.25
2311.854	24.25
2315.734	28.25
2319.609	22.25
2323.482	25.25
2327.351	35.25
2331.216	25.25
2335.078	34.25
2338.937	31.25
2342.792	26.25
2346.643	16.25
2350.492	19.25
2354.336	19.25
2358.178	21.25
2362.015	24.25
2365.85	22.25
2369.681	19.25
2373.508	18.25
2377.333	21.25
2381.153	22.25
2384.971	20.25
2388.785	20.25
2392.595	17.25
2396.402	20.25
2400.206	18.25
2404.007	19.25
2407.804	18.25
2411.597	19.25
2415.388	15.25
2419.174	17.25
2422.958	13.25
2426.738	14.25
2430.515	15.25
2434.289	20.25
2438.059	21.25
2441.825	18.25
2445.589	15.25
2449.349	15.25
2453.106	15.25
2456.859	12.25
2460.61	13.25
2464.356	15.25
2468.1	14.25
2471.84	17.25
2475.577	11.25
2479.311	7.25
2483.041	8.25
2486.768	9.25
2490.492	10.25
2494.213	11.25
2497.93	9.25
2501.644	11.25
2505.355	9.25
2509.062	11.25
2512.766	12.25
2516.467	13.25
2520.165	9.25
2523.859	6.25
2527.551	8.25
2531.239	11.25
2534.923	7.25
2538.605	9.25
2542.283	5.25
2545.958	14.25
2549.63	11.25
2553.299	13.25
2556.964	7.25
2560.626	12.25
2564.285	1.25
2567.941	10.25
2571.594	12.25
2575.243	12.25
2578.89	14.25
2582.533	8.25
2586.173	15.25
2589.809	6.25
2593.443	10.25
2597.073	3.25
2600.701	9.25
2604.325	9.25
2607.946	13.25
2611.564	11.25
2615.178	10.25
2618.79	11.25
2622.398	5.25
2626.004	9.25
2629.606	10.25
2633.205	8.25
2636.801	8.25
2640.394	10.25
2643.983	8.25
2647.57	11.25
2651.153	6.25
2654.734	7.25
2658.311	12.25
2661.885	8.25
2665.456	4.25
2669.025	3.25
2672.589	4.25
2676.151	7.25
2679.71	9.25
2683.266	10.25
2686.819	5.25
2690.368	9.25
2693.915	4.25
2697.458	4.25
2700.999	3.25
2704.536	7.25
2708.071	9.25
2711.602	7.25
2715.13	9.25
2718.656	7.25
2722.178	7.25
2725.697	6.25
2729.214	9.25
2732.727	10.25
2736.237	13.25
2739.744	13.25
2743.249	12.25
2746.75	8.25
2750.248	12.25
2753.743	11.25
2757.236	5.25
2760.725	7.25
2764.211	7.25
2767.695	10.25
2771.175	13.25
2774.652	11.25
2778.127	8.25
2781.598	8.25
2785.067	7.25
2788.532	5.25
2791.995	9.25
2795.455	7.25
2798.911	8.25
2802.365	7.25
2805.816	9.25
2809.264	17.25
2812.709	14.25
2816.151	20.25
2819.59	16.25
2823.026	20.25
2826.46	21.25
2829.89	24.25
2833.318	24.25
2836.742	35.25
2840.164	46.25
2843.583	55.25
2846.999	68.25
2850.412	75.25
2853.822	85.25
2857.229	96.25
2860.634	97.25
2864.035	93.25
2867.434	97.25
2870.83	102.25
2874.223	108.25
2877.613	109.25
2881	120.25
2884.385	125.25
2887.766	129.25
2891.145	124.25
2894.521	115.25
2897.894	118.25
2901.264	118.25
2904.631	115.25
2907.996	120.25
2911.358	111.25
2914.717	115.25
2918.073	110.25
2921.426	109.25
2924.777	110.25
2928.124	107.25
2931.469	111.25
2934.811	106.25
2938.15	108.25
2941.487	101.25
2944.821	94.25
2948.152	93.25
2951.48	87.25
2954.805	78.25
2958.128	75.25
2961.447	77.25
2964.765	70.25
2968.079	65.25
2971.39	67.25
2974.699	60.25
2978.005	58.25
2981.308	53.25
2984.609	54.25
2987.907	48.25
2991.202	48.25
2994.494	47.25
2997.784	42.25
3001.07	45.25
3004.355	49.25
3007.636	43.25
3010.915	44.25
3014.191	42.25
3017.464	39.25
3020.734	34.25
3024.002	36.25
3027.267	36.25
3030.53	36.25
3033.789	36.25
3037.046	36.25
3040.301	35.25
3043.552	41.25
3046.801	33.25
3050.048	40.25
3053.291	39.25
3056.532	42.25
3059.771	45.25
3063.006	49.25
3066.239	50.25
3069.469	52.25
3072.697	47.25
3075.922	55.25
3079.144	49.25
3082.364	55.25
3085.581	50.25
3088.795	62.25
3092.007	54.25
3095.216	66.25
3098.423	64.25
3101.627	60.25
3104.828	64.25
3108.026	64.25
3111.222	63.25
3114.416	71.25
3117.607	73.25
3120.795	76.25
3123.98	74.25
3127.163	78.25
3130.344	80.25
3133.521	82.25
3136.696	74.25
3139.869	81.25
3143.039	85.25
3146.206	95.25
3149.371	94.25
3152.533	93.25
3155.693	92.25
3158.85	94.25
3162.005	95.25
3165.157	91.25
3168.306	94.25
3171.453	96.25
3174.597	90.25
3177.739	94.25
3180.878	97.25
3184.014	99.25
3187.149	95.25
3190.28	94.25
3193.409	101.25
3196.536	96.25
3199.659	97.25
3202.781	95.25
3205.9	94.25
3209.016	98.25
3212.13	97.25
3215.241	96.25
3218.35	95.25
3221.456	91.25
3224.56	91.25
3227.661	88.25
3230.76	90.25
3233.856	93.25
3236.95	79.25
3240.041	86.25
3243.13	85.25
3246.216	86.25
3249.3	87.25
3252.382	81.25
3255.46	84.25
3258.537	84.25
3261.611	84.25
3264.682	80.25
3267.751	86.25
3270.818	86.25
3273.882	80.25
3276.943	84.25
3280.002	77.25
3283.059	79.25
3286.113	80.25
3289.165	79.25
3292.214	74.25
3295.261	77.25
3298.306	74.25
3301.348	75.25
3304.387	70.25
3307.425	66.25
3310.459	65.25
3313.492	66.25
3316.521	65.25
3319.549	67.25
3322.574	67.25
3325.597	68.25
3328.617	68.25
3331.635	63.25
3334.65	64.25
3337.663	56.25
3340.674	63.25
3343.682	62.25
3346.688	63.25
3349.691	67.25
3352.692	54.25
3355.691	60.25
3358.687	53.25
3361.681	59.25
3364.673	57.25
3367.662	61.25
3370.649	55.25
3373.633	62.25
3376.615	53.25
3379.595	53.25
3382.572	51.25
3385.547	52.25
3388.52	49.25
3391.49	50.25
3394.458	49.25
3397.424	45.25
3400.387	46.25
3403.348	50.25
3406.307	46.25
3409.263	46.25
3412.217	46.25
3415.168	44.25
3418.118	40.25
3421.065	43.25
3424.009	40.25
3426.951	41.25
3429.891	43.25
3432.829	42.25
3435.764	38.25
3438.697	39.25
3441.628	29.25
3444.557	30.25
3447.483	32.25
3450.407	36.25
3453.328	30.25
3456.247	32.25
3459.164	30.25
3462.079	27.25
3464.991	21.25
3467.902	18.25
3470.809	23.25
3473.715	26.25
3476.618	20.25
3479.519	20.25
3482.418	18.25
3485.315	21.25
3488.209	13.25
3491.101	12.25
3493.99	15.25
3496.878	11.25
3499.763	13.25
3502.646	10.25
3505.527	10.25
3508.405	11.25
3511.281	5.25
3514.155	10.25
3517.027	5.25
3519.897	7.25
3522.764	1.25
3525.629	3.25
3528.492	0.25
3531.352	1.25
3534.211	1.25
3537.067	2.25
3539.921	0.25
3542.773	-2.75
3545.622	-5.75
3548.469	-7.75
3551.315	-5.75
3554.157	-3.75
3556.998	-2.75
3559.837	-1.75
3562.673	-1.75
3565.507	-9.75
3568.339	-9.75
3571.169	-11.75
3573.996	-10.75
3576.822	-9.75
3579.645	-10.75
3582.466	-6.75
3585.285	-9.75
3588.101	-10.75
3590.916	-16.75
3593.728	-18.75
3596.538	-20.75
3599.346	-18.75
3602.152	-15.75
3604.956	-13.75
3607.757	-11.75
3610.556	-15.75
3613.354	-19.75
3616.149	-19.75
3618.942	-16.75
3621.732	-22.75
3624.521	-16.75
3627.307	-13.75
3630.092	-18.75
3632.874	-16.75
3635.654	-18.75
3638.432	-20.75
3641.208	-19.75
3643.982	-18.75
3646.753	-19.75
3649.523	-17.75
3652.29	-20.75
3655.055	-19.75
3657.818	-25.75
3660.579	-18.75
3663.338	-20.75
3666.095	-19.75
3668.849	-21.75
3671.602	-21.75
3674.352	-24.75
3677.101	-20.75
3679.847	-22.75
3682.591	-21.75
3685.333	-19.75
3688.073	-23.75
3690.811	-22.75
3693.547	-26.75
3696.281	-24.75
3699.013	-23.75
3701.742	-27.75
3704.47	-21.75
3707.195	-21.75
3709.919	-22.75
3712.64	-28.75
3715.359	-22.75
3718.076	-24.75
3720.792	-29.75
3723.505	-19.75
3726.216	-22.75
3728.925	-25.75
3731.632	-21.75
3734.336	-23.75
3737.039	-24.75
3739.74	-26.75
3742.439	-26.75
3745.136	-28.75
3747.83	-23.75
3750.523	-22.75
3753.213	-27.75
3755.902	-25.75
3758.589	-27.75
3761.273	-28.75
3763.956	-22.75
3766.636	-25.75
3769.315	-23.75
3771.991	-28.75
3774.665	-27.75
3777.338	-24.75
3780.008	-22.75
3782.677	-25.75
3785.343	-26.75
3788.007	-23.75
3790.67	-26.75
3793.33	-28.75
3795.989	-26.75
3798.645	-29.75
3801.299	-23.75
3803.952	-26.75
3806.602	-24.75
3809.251	-23.75
3811.897	-24.75
3814.542	-28.75
3817.184	-28.75
3819.825	-27.75
3822.463	-20.75
3825.1	-26.75
3827.735	-21.75
3830.367	-24.75
3832.998	-24.75
3835.627	-27.75
3838.253	-26.75
3840.878	-30.75
3843.501	-24.75
3846.122	-27.75
3848.741	-22.75
3851.358	-25.75
3853.973	-25.75
3856.586	-26.75
3859.197	-28.75
3861.806	-26.75
3864.414	-27.75
3867.019	-27.75
3869.622	-25.75
3872.224	-31.75
3874.823	-24.75
3877.421	-19.75
3880.016	-18.75
3882.61	-18.75
3885.202	-8.75
3887.792	-14.75
3890.38	-22.75
3892.966	-29.75
3895.55	-23.75
3898.132	-25.75
3900.713	-21.75
3903.291	-22.75
3905.868	-22.75
3908.442	-27.75
3911.015	-23.75
3913.586	-31.75
3916.155	-26.75
3918.722	-29.75
3921.287	-24.75
3923.85	-26.75
3926.411	-26.75
3928.971	-20.75
3931.528	-25.75
3934.084	-30.75
3936.638	-26.75
3939.19	-26.75
3941.74	-23.75
3944.288	-26.75
3946.834	-24.75
3949.378	-26.75
3951.921	-20.75
3954.462	-25.75
3957	-24.75
3959.537	-25.75
3962.072	-26.75
3964.606	-29.75
3967.137	-24.75
3969.667	-27.75
3972.194	-26.75
3974.72	-25.75
3977.244	-19.75
3979.766	-25.75
3982.286	-21.75
3984.805	-24.75
3987.321	-26.75
3989.836	-32.75
3992.349	-28.75
3994.86	-25.75
3997.369	-27.75
3999.877	-23.75
4002.382	-22.75
4004.886	-25.75
4007.388	-25.75
4009.888	-26.75
4012.386	-26.75
4014.883	-27.75
4017.377	-24.75
4019.87	-26.75
4022.361	-21.75
4024.85	-26.75
4027.338	-27.75
4029.823	-27.75
4032.307	-28.75
4034.789	-26.75
4037.269	-24.75
4039.747	-23.75
4042.224	-23.75
4044.699	-31.75
4047.172	-28.75
4049.643	-27.75
4052.112	-22.75
4054.58	-23.75
4057.046	-24.75
4059.51	-30.75
4061.972	-27.75
4064.432	-26.75
4066.891	-26.75
4069.348	-22.75
4071.803	-24.75
4074.256	-26.75
4076.708	-27.75
4079.158	-28.75
4081.606	-28.75
4084.052	-26.75
4086.497	-22.75
4088.939	-22.75
4091.38	-22.75
4093.819	-26.75
4096.257	-26.75
4098.693	-29.75
4101.127	-27.75
4103.559	-30.75
4105.989	-14.75
4108.418	-16.75
4110.845	-8.75
4113.27	-11.75
4115.694	-5.75
4118.115	-12.75
4120.535	-25.75
4122.954	-28.75
4125.37	-26.75
4127.785	-24.75
4130.198	-24.75
4132.609	-27.75
4135.019	-24.75
4137.427	-29.75
4139.833	-23.75
4142.237	-25.75
