Data from 100000CFU1_C_RamanShift_1.txt Node
Date: Thu Feb 02 15:12:20 IST 2017
User: aro
Spectrometer: QEPB0276
Trigger mode: 0
Integration Time (sec): 5.000000E0
Scans to average: 1
Electric dark correction enabled: true
Nonlinearity correction enabled: false
Boxcar width: 0
XAxis mode: Raman Shifts
Number of Pixels in Spectrum: 1044
>>>>>Begin Spectral Data<<<<<
160.701	-7.75
166.742	2.25
172.777	27.25
178.805	88.25
184.826	213.25
190.841	425.25
196.849	651.25
202.85	823.25
208.845	866.25
214.833	845.25
220.815	837.25
226.789	822.25
232.758	808.25
238.719	803.25
244.674	784.25
250.623	773.25
256.565	738.25
262.5	728.25
268.429	714.25
274.351	722.25
280.267	698.25
286.176	691.25
292.079	689.25
297.975	683.25
303.865	668.25
309.748	666.25
315.625	655.25
321.495	657.25
327.359	658.25
333.217	659.25
339.068	667.25
344.912	675.25
350.751	681.25
356.583	681.25
362.408	682.25
368.227	668.25
374.04	669.25
379.847	661.25
385.647	662.25
391.44	672.25
397.228	666.25
403.009	677.25
408.784	668.25
414.553	692.25
420.315	688.25
426.071	694.25
431.821	688.25
437.565	695.25
443.302	694.25
449.033	692.25
454.758	683.25
460.477	666.25
466.189	667.25
471.896	665.25
477.596	654.25
483.29	652.25
488.978	639.25
494.66	634.25
500.335	618.25
506.005	591.25
511.668	582.25
517.325	553.25
522.977	531.25
528.622	522.25
534.261	504.25
539.894	492.25
545.521	493.25
551.141	492.25
556.756	473.25
562.365	471.25
567.968	466.25
573.565	458.25
579.155	458.25
584.74	452.25
590.319	454.25
595.892	452.25
601.459	461.25
607.02	444.25
612.575	449.25
618.124	445.25
623.667	437.25
629.204	431.25
634.735	420.25
640.261	422.25
645.781	421.25
651.294	430.25
656.802	419.25
662.304	412.25
667.8	412.25
673.29	408.25
678.775	402.25
684.254	395.25
689.726	396.25
695.193	382.25
700.655	395.25
706.11	388.25
711.56	386.25
717.004	397.25
722.442	389.25
727.874	385.25
733.301	384.25
738.722	383.25
744.137	374.25
749.547	379.25
754.951	381.25
760.349	380.25
765.741	377.25
771.128	381.25
776.509	382.25
781.885	378.25
787.254	377.25
792.618	386.25
797.977	389.25
803.33	384.25
808.677	383.25
814.019	380.25
819.355	369.25
824.686	371.25
830.011	384.25
835.33	382.25
840.644	386.25
845.952	391.25
851.255	393.25
856.552	398.25
861.844	395.25
867.13	396.25
872.41	396.25
877.686	396.25
882.955	389.25
888.219	393.25
893.478	387.25
898.731	368.25
903.979	370.25
909.221	359.25
914.458	356.25
919.69	352.25
924.916	352.25
930.136	344.25
935.351	336.25
940.561	347.25
945.766	340.25
950.965	352.25
956.158	349.25
961.347	334.25
966.529	326.25
971.707	325.25
976.879	318.25
982.046	316.25
987.208	308.25
992.364	324.25
997.515	325.25
1002.66	328.25
1007.801	333.25
1012.936	332.25
1018.066	332.25
1023.19	345.25
1028.309	344.25
1033.423	354.25
1038.532	346.25
1043.636	346.25
1048.734	340.25
1053.827	350.25
1058.915	362.25
1063.998	355.25
1069.075	367.25
1074.147	369.25
1079.214	365.25
1084.276	374.25
1089.333	382.25
1094.385	386.25
1099.431	379.25
1104.472	366.25
1109.509	349.25
1114.54	348.25
1119.565	352.25
1124.586	342.25
1129.602	350.25
1134.613	339.25
1139.618	333.25
1144.619	309.25
1149.614	295.25
1154.604	295.25
1159.589	296.25
1164.57	288.25
1169.545	286.25
1174.515	284.25
1179.48	278.25
1184.44	268.25
1189.395	270.25
1194.345	264.25
1199.29	257.25
1204.23	262.25
1209.165	265.25
1214.095	271.25
1219.021	275.25
1223.941	272.25
1228.856	279.25
1233.766	279.25
1238.672	283.25
1243.572	290.25
1248.467	296.25
1253.358	290.25
1258.244	291.25
1263.124	291.25
1268	305.25
1272.871	293.25
1277.737	289.25
1282.599	282.25
1287.455	282.25
1292.306	287.25
1297.153	302.25
1301.995	318.25
1306.832	330.25
1311.664	317.25
1316.491	308.25
1321.314	301.25
1326.132	280.25
1330.945	271.25
1335.753	260.25
1340.556	257.25
1345.354	253.25
1350.148	248.25
1354.937	250.25
1359.722	246.25
1364.501	247.25
1369.276	242.25
1374.046	241.25
1378.811	245.25
1383.572	237.25
1388.327	234.25
1393.079	232.25
1397.825	228.25
1402.567	219.25
1407.304	222.25
1412.036	228.25
1416.764	217.25
1421.487	231.25
1426.205	244.25
1430.919	244.25
1435.628	264.25
1440.333	291.25
1445.032	314.25
1449.727	327.25
1454.418	317.25
1459.104	311.25
1463.785	296.25
1468.462	278.25
1473.134	264.25
1477.802	237.25
1482.465	217.25
1487.123	205.25
1491.777	192.25
1496.426	188.25
1501.071	182.25
1505.711	178.25
1510.347	178.25
1514.978	180.25
1519.604	181.25
1524.226	180.25
1528.844	174.25
1533.457	173.25
1538.065	173.25
1542.669	178.25
1547.269	175.25
1551.864	179.25
1556.454	170.25
1561.041	174.25
1565.622	168.25
1570.199	167.25
1574.772	168.25
1579.34	173.25
1583.904	176.25
1588.464	179.25
1593.019	175.25
1597.569	174.25
1602.115	183.25
1606.657	183.25
1611.195	182.25
1615.728	183.25
1620.256	186.25
1624.78	186.25
1629.3	181.25
1633.816	188.25
1638.327	187.25
1642.834	190.25
1647.336	207.25
1651.834	203.25
1656.328	213.25
1660.817	214.25
1665.302	213.25
1669.783	212.25
1674.259	198.25
1678.732	186.25
1683.199	184.25
1687.663	174.25
1692.122	168.25
1696.577	159.25
1701.028	149.25
1705.474	146.25
1709.917	136.25
1714.355	140.25
1718.788	136.25
1723.218	126.25
1727.643	119.25
1732.064	120.25
1736.481	123.25
1740.893	127.25
1745.301	124.25
1749.705	115.25
1754.105	115.25
1758.501	107.25
1762.893	98.25
1767.28	97.25
1771.663	103.25
1776.042	101.25
1780.417	103.25
1784.787	93.25
1789.154	95.25
1793.516	91.25
1797.874	93.25
1802.228	88.25
1806.578	96.25
1810.924	92.25
1815.266	90.25
1819.603	90.25
1823.937	90.25
1828.266	84.25
1832.591	83.25
1836.913	83.25
1841.23	79.25
1845.543	81.25
1849.852	79.25
1854.156	77.25
1858.457	83.25
1862.754	82.25
1867.047	77.25
1871.335	76.25
1875.62	78.25
1879.9	75.25
1884.177	81.25
1888.449	78.25
1892.718	80.25
1896.982	78.25
1901.243	78.25
1905.499	77.25
1909.752	76.25
1914	75.25
1918.245	69.25
1922.485	69.25
1926.722	75.25
1930.954	76.25
1935.183	76.25
1939.408	80.25
1943.628	78.25
1947.845	75.25
1952.058	80.25
1956.267	78.25
1960.472	78.25
1964.673	73.25
1968.87	72.25
1973.063	69.25
1977.252	65.25
1981.438	69.25
1985.619	68.25
1989.797	65.25
1993.971	69.25
1998.14	64.25
2002.306	67.25
2006.469	62.25
2010.627	63.25
2014.781	69.25
2018.932	70.25
2023.078	65.25
2027.221	68.25
2031.36	63.25
2035.495	57.25
2039.627	56.25
2043.754	59.25
2047.878	63.25
2051.998	61.25
2056.114	59.25
2060.226	59.25
2064.334	61.25
2068.439	66.25
2072.54	59.25
2076.637	61.25
2080.73	59.25
2084.82	58.25
2088.906	65.25
2092.988	63.25
2097.066	60.25
2101.14	63.25
2105.211	62.25
2109.278	56.25
2113.342	60.25
2117.401	58.25
2121.457	59.25
2125.509	52.25
2129.558	57.25
2133.602	54.25
2137.643	56.25
2141.681	58.25
2145.714	59.25
2149.744	54.25
2153.77	56.25
2157.793	55.25
2161.812	49.25
2165.827	45.25
2169.838	49.25
2173.846	48.25
2177.851	46.25
2181.851	48.25
2185.848	47.25
2189.841	48.25
2193.831	44.25
2197.817	41.25
2201.799	45.25
2205.778	44.25
2209.753	39.25
2213.725	47.25
2217.693	46.25
2221.657	41.25
2225.618	36.25
2229.575	39.25
2233.529	38.25
2237.479	39.25
2241.425	39.25
2245.368	43.25
2249.307	42.25
2253.243	38.25
2257.175	39.25
2261.104	34.25
2265.029	36.25
2268.95	32.25
2272.868	33.25
2276.783	31.25
2280.694	32.25
2284.601	27.25
2288.505	32.25
2292.405	28.25
2296.302	28.25
2300.195	29.25
2304.085	25.25
2307.971	25.25
2311.854	22.25
2315.734	21.25
2319.609	23.25
2323.482	26.25
2327.351	34.25
2331.216	31.25
2335.078	26.25
2338.937	25.25
2342.792	20.25
2346.643	19.25
2350.492	16.25
2354.336	17.25
2358.178	24.25
2362.015	21.25
2365.85	20.25
2369.681	16.25
2373.508	18.25
2377.333	21.25
2381.153	23.25
2384.971	16.25
2388.785	19.25
2392.595	18.25
2396.402	15.25
2400.206	19.25
2404.007	20.25
2407.804	18.25
2411.597	17.25
2415.388	16.25
2419.174	12.25
2422.958	13.25
2426.738	14.25
2430.515	17.25
2434.289	13.25
2438.059	19.25
2441.825	18.25
2445.589	14.25
2449.349	11.25
2453.106	9.25
2456.859	7.25
2460.61	10.25
2464.356	15.25
2468.1	12.25
2471.84	16.25
2475.577	11.25
2479.311	7.25
2483.041	9.25
2486.768	11.25
2490.492	7.25
2494.213	6.25
2497.93	11.25
2501.644	9.25
2505.355	11.25
2509.062	8.25
2512.766	12.25
2516.467	13.25
2520.165	7.25
2523.859	8.25
2527.551	9.25
2531.239	11.25
2534.923	8.25
2538.605	6.25
2542.283	6.25
2545.958	9.25
2549.63	10.25
2553.299	12.25
2556.964	10.25
2560.626	7.25
2564.285	6.25
2567.941	5.25
2571.594	9.25
2575.243	11.25
2578.89	14.25
2582.533	10.25
2586.173	13.25
2589.809	7.25
2593.443	9.25
2597.073	3.25
2600.701	7.25
2604.325	9.25
2607.946	11.25
2611.564	11.25
2615.178	9.25
2618.79	7.25
2622.398	5.25
2626.004	7.25
2629.606	7.25
2633.205	7.25
2636.801	6.25
2640.394	8.25
2643.983	7.25
2647.57	6.25
2651.153	8.25
2654.734	3.25
2658.311	6.25
2661.885	7.25
2665.456	1.25
2669.025	9.25
2672.589	3.25
2676.151	7.25
2679.71	8.25
2683.266	9.25
2686.819	6.25
2690.368	7.25
2693.915	2.25
2697.458	5.25
2700.999	3.25
2704.536	9.25
2708.071	7.25
2711.602	5.25
2715.13	8.25
2718.656	10.25
2722.178	4.25
2725.697	5.25
2729.214	11.25
2732.727	11.25
2736.237	11.25
2739.744	13.25
2743.249	8.25
2746.75	8.25
2750.248	10.25
2753.743	7.25
2757.236	3.25
2760.725	7.25
2764.211	7.25
2767.695	5.25
2771.175	11.25
2774.652	8.25
2778.127	6.25
2781.598	5.25
2785.067	7.25
2788.532	6.25
2791.995	7.25
2795.455	5.25
2798.911	9.25
2802.365	11.25
2805.816	9.25
2809.264	15.25
2812.709	16.25
2816.151	17.25
2819.59	17.25
2823.026	19.25
2826.46	24.25
2829.89	27.25
2833.318	24.25
2836.742	32.25
2840.164	48.25
2843.583	46.25
2846.999	60.25
2850.412	70.25
2853.822	81.25
2857.229	85.25
2860.634	92.25
2864.035	92.25
2867.434	90.25
2870.83	94.25
2874.223	101.25
2877.613	98.25
2881	107.25
2884.385	117.25
2887.766	124.25
2891.145	116.25
2894.521	117.25
2897.894	112.25
2901.264	114.25
2904.631	108.25
2907.996	109.25
2911.358	109.25
2914.717	102.25
2918.073	103.25
2921.426	100.25
2924.777	106.25
2928.124	101.25
2931.469	102.25
2934.811	105.25
2938.15	96.25
2941.487	102.25
2944.821	89.25
2948.152	79.25
2951.48	81.25
2954.805	79.25
2958.128	72.25
2961.447	71.25
2964.765	70.25
2968.079	62.25
2971.39	54.25
2974.699	59.25
2978.005	56.25
2981.308	51.25
2984.609	47.25
2987.907	52.25
2991.202	47.25
2994.494	43.25
2997.784	38.25
3001.07	40.25
3004.355	45.25
3007.636	42.25
3010.915	43.25
3014.191	37.25
3017.464	37.25
3020.734	32.25
3024.002	37.25
3027.267	26.25
3030.53	32.25
3033.789	31.25
3037.046	30.25
3040.301	36.25
3043.552	31.25
3046.801	34.25
3050.048	38.25
3053.291	41.25
3056.532	43.25
3059.771	39.25
3063.006	34.25
3066.239	40.25
3069.469	43.25
3072.697	42.25
3075.922	54.25
3079.144	50.25
3082.364	53.25
3085.581	49.25
3088.795	54.25
3092.007	50.25
3095.216	55.25
3098.423	55.25
3101.627	60.25
3104.828	66.25
3108.026	67.25
3111.222	64.25
3114.416	61.25
3117.607	66.25
3120.795	66.25
3123.98	65.25
3127.163	74.25
3130.344	70.25
3133.521	76.25
3136.696	74.25
3139.869	76.25
3143.039	82.25
3146.206	84.25
3149.371	90.25
3152.533	83.25
3155.693	84.25
3158.85	84.25
3162.005	87.25
3165.157	89.25
3168.306	87.25
3171.453	91.25
3174.597	84.25
3177.739	85.25
3180.878	88.25
3184.014	88.25
3187.149	88.25
3190.28	91.25
3193.409	95.25
3196.536	96.25
3199.659	90.25
3202.781	82.25
3205.9	88.25
3209.016	87.25
3212.13	96.25
3215.241	89.25
3218.35	90.25
3221.456	91.25
3224.56	86.25
3227.661	84.25
3230.76	84.25
3233.856	83.25
3236.95	79.25
3240.041	82.25
3243.13	80.25
3246.216	80.25
3249.3	86.25
3252.382	82.25
3255.46	80.25
3258.537	75.25
3261.611	76.25
3264.682	82.25
3267.751	79.25
3270.818	78.25
3273.882	73.25
3276.943	76.25
3280.002	70.25
3283.059	80.25
3286.113	77.25
3289.165	75.25
3292.214	67.25
3295.261	59.25
3298.306	77.25
3301.348	72.25
3304.387	67.25
3307.425	66.25
3310.459	59.25
3313.492	63.25
3316.521	62.25
3319.549	57.25
3322.574	58.25
3325.597	61.25
3328.617	62.25
3331.635	54.25
3334.65	60.25
3337.663	55.25
3340.674	58.25
3343.682	62.25
3346.688	57.25
3349.691	57.25
3352.692	59.25
3355.691	54.25
3358.687	56.25
3361.681	53.25
3364.673	57.25
3367.662	54.25
3370.649	53.25
3373.633	54.25
3376.615	51.25
3379.595	44.25
3382.572	52.25
3385.547	51.25
3388.52	50.25
3391.49	44.25
3394.458	47.25
3397.424	41.25
3400.387	41.25
3403.348	42.25
3406.307	39.25
3409.263	44.25
3412.217	45.25
3415.168	41.25
3418.118	44.25
3421.065	40.25
3424.009	38.25
3426.951	34.25
3429.891	43.25
3432.829	38.25
3435.764	36.25
3438.697	37.25
3441.628	35.25
3444.557	33.25
3447.483	26.25
3450.407	31.25
3453.328	27.25
3456.247	28.25
3459.164	26.25
3462.079	25.25
3464.991	26.25
3467.902	20.25
3470.809	23.25
3473.715	20.25
3476.618	23.25
3479.519	15.25
3482.418	12.25
3485.315	15.25
3488.209	8.25
3491.101	12.25
3493.99	14.25
3496.878	15.25
3499.763	11.25
3502.646	10.25
3505.527	6.25
3508.405	7.25
3511.281	5.25
3514.155	8.25
3517.027	6.25
3519.897	6.25
3522.764	6.25
3525.629	5.25
3528.492	1.25
3531.352	-3.75
3534.211	-2.75
3537.067	-3.75
3539.921	-0.75
3542.773	-2.75
3545.622	-3.75
3548.469	-5.75
3551.315	-6.75
3554.157	-8.75
3556.998	-5.75
3559.837	-3.75
3562.673	-5.75
3565.507	-12.75
3568.339	-8.75
3571.169	-12.75
3573.996	-8.75
3576.822	-11.75
3579.645	-12.75
3582.466	-5.75
3585.285	-7.75
3588.101	-11.75
3590.916	-15.75
3593.728	-17.75
3596.538	-20.75
3599.346	-20.75
3602.152	-15.75
3604.956	-11.75
3607.757	-9.75
3610.556	-16.75
3613.354	-17.75
3616.149	-23.75
3618.942	-14.75
3621.732	-20.75
3624.521	-20.75
3627.307	-16.75
3630.092	-18.75
3632.874	-18.75
3635.654	-20.75
3638.432	-21.75
3641.208	-21.75
3643.982	-20.75
3646.753	-19.75
3649.523	-23.75
3652.29	-20.75
3655.055	-19.75
3657.818	-26.75
3660.579	-20.75
3663.338	-18.75
3666.095	-20.75
3668.849	-19.75
3671.602	-22.75
3674.352	-25.75
3677.101	-21.75
3679.847	-25.75
3682.591	-20.75
3685.333	-21.75
3688.073	-19.75
3690.811	-25.75
3693.547	-29.75
3696.281	-25.75
3699.013	-25.75
3701.742	-27.75
3704.47	-22.75
3707.195	-22.75
3709.919	-25.75
3712.64	-27.75
3715.359	-24.75
3718.076	-25.75
3720.792	-29.75
3723.505	-22.75
3726.216	-23.75
3728.925	-26.75
3731.632	-25.75
3734.336	-26.75
3737.039	-24.75
3739.74	-26.75
3742.439	-23.75
3745.136	-22.75
3747.83	-23.75
3750.523	-23.75
3753.213	-35.75
3755.902	-27.75
3758.589	-28.75
3761.273	-26.75
3763.956	-23.75
3766.636	-22.75
3769.315	-22.75
3771.991	-27.75
3774.665	-30.75
3777.338	-24.75
3780.008	-24.75
3782.677	-23.75
3785.343	-25.75
3788.007	-24.75
3790.67	-24.75
3793.33	-25.75
3795.989	-28.75
3798.645	-26.75
3801.299	-27.75
3803.952	-26.75
3806.602	-26.75
3809.251	-24.75
3811.897	-25.75
3814.542	-26.75
3817.184	-25.75
3819.825	-27.75
3822.463	-23.75
3825.1	-26.75
3827.735	-24.75
3830.367	-26.75
3832.998	-26.75
3835.627	-24.75
3838.253	-23.75
3840.878	-25.75
3843.501	-21.75
3846.122	-27.75
3848.741	-24.75
3851.358	-30.75
3853.973	-30.75
3856.586	-24.75
3859.197	-24.75
3861.806	-25.75
3864.414	-22.75
3867.019	-24.75
3869.622	-25.75
3872.224	-27.75
3874.823	-29.75
3877.421	-25.75
3880.016	-24.75
3882.61	-18.75
3885.202	-12.75
3887.792	-14.75
3890.38	-21.75
3892.966	-25.75
3895.55	-24.75
3898.132	-26.75
3900.713	-25.75
3903.291	-26.75
3905.868	-23.75
3908.442	-25.75
3911.015	-23.75
3913.586	-28.75
3916.155	-27.75
3918.722	-27.75
3921.287	-22.75
3923.85	-26.75
3926.411	-26.75
3928.971	-26.75
3931.528	-28.75
3934.084	-28.75
3936.638	-25.75
3939.19	-27.75
3941.74	-23.75
3944.288	-25.75
3946.834	-26.75
3949.378	-30.75
3951.921	-25.75
3954.462	-23.75
3957	-24.75
3959.537	-21.75
3962.072	-24.75
3964.606	-26.75
3967.137	-23.75
3969.667	-28.75
3972.194	-27.75
3974.72	-26.75
3977.244	-25.75
3979.766	-23.75
3982.286	-22.75
3984.805	-23.75
3987.321	-27.75
3989.836	-28.75
3992.349	-28.75
3994.86	-25.75
3997.369	-27.75
3999.877	-25.75
4002.382	-23.75
4004.886	-23.75
4007.388	-24.75
4009.888	-23.75
4012.386	-25.75
4014.883	-26.75
4017.377	-25.75
4019.87	-27.75
4022.361	-23.75
4024.85	-26.75
4027.338	-24.75
4029.823	-23.75
4032.307	-26.75
4034.789	-21.75
4037.269	-26.75
4039.747	-26.75
4042.224	-27.75
4044.699	-29.75
4047.172	-30.75
4049.643	-26.75
4052.112	-20.75
4054.58	-21.75
4057.046	-22.75
4059.51	-30.75
4061.972	-30.75
4064.432	-24.75
4066.891	-26.75
4069.348	-23.75
4071.803	-24.75
4074.256	-23.75
4076.708	-23.75
4079.158	-26.75
4081.606	-25.75
4084.052	-23.75
4086.497	-22.75
4088.939	-22.75
4091.38	-21.75
4093.819	-23.75
4096.257	-27.75
4098.693	-30.75
4101.127	-29.75
4103.559	-27.75
4105.989	-10.75
4108.418	-10.75
4110.845	-7.75
4113.27	-9.75
4115.694	-11.75
4118.115	-12.75
4120.535	-26.75
4122.954	-27.75
4125.37	-26.75
4127.785	-23.75
4130.198	-25.75
4132.609	-26.75
4135.019	-26.75
4137.427	-29.75
4139.833	-26.75
4142.237	-26.75
