Data from 1000000CFU2_D_RamanShift_1.txt Node
Date: Thu Feb 02 12:22:38 IST 2017
User: aro
Spectrometer: QEPB0276
Trigger mode: 0
Integration Time (sec): 5.000000E0
Scans to average: 1
Electric dark correction enabled: true
Nonlinearity correction enabled: false
Boxcar width: 0
XAxis mode: Raman Shifts
Number of Pixels in Spectrum: 1044
>>>>>Begin Spectral Data<<<<<
160.701	-3
166.742	0
172.777	27
178.805	85
184.826	218
190.841	425
196.849	677
202.85	821
208.845	890
214.833	872
220.815	863
226.789	843
232.758	827
238.719	817
244.674	809
250.623	794
256.565	776
262.5	751
268.429	748
274.351	722
280.267	710
286.176	708
292.079	700
297.975	695
303.865	690
309.748	684
315.625	679
321.495	673
327.359	668
333.217	679
339.068	683
344.912	686
350.751	690
356.583	701
362.408	689
368.227	698
374.04	679
379.847	682
385.647	685
391.44	688
397.228	692
403.009	684
408.784	699
414.553	700
420.315	707
426.071	712
431.821	711
437.565	711
443.302	706
449.033	701
454.758	691
460.477	699
466.189	678
471.896	680
477.596	676
483.29	663
488.978	662
494.66	654
500.335	625
506.005	613
511.668	587
517.325	568
522.977	548
528.622	533
534.261	515
539.894	507
545.521	501
551.141	499
556.756	499
562.365	486
567.968	484
573.565	477
579.155	472
584.74	475
590.319	463
595.892	474
601.459	467
607.02	469
612.575	465
618.124	455
623.667	442
629.204	440
634.735	438
640.261	431
645.781	442
651.294	446
656.802	427
662.304	413
667.8	417
673.29	413
678.775	417
684.254	411
689.726	412
695.193	405
700.655	397
706.11	406
711.56	411
717.004	401
722.442	406
727.874	404
733.301	392
738.722	391
744.137	394
749.547	388
754.951	390
760.349	387
765.741	392
771.128	381
776.509	389
781.885	406
787.254	392
792.618	392
797.977	386
803.33	390
808.677	385
814.019	394
819.355	387
824.686	392
830.011	391
835.33	398
840.644	403
845.952	395
851.255	411
856.552	414
861.844	415
867.13	413
872.41	410
877.686	409
882.955	413
888.219	403
893.478	401
898.731	395
903.979	388
909.221	372
914.458	362
919.69	364
924.916	363
930.136	364
935.351	366
940.561	364
945.766	359
950.965	362
956.158	355
961.347	341
966.529	329
971.707	335
976.879	327
982.046	329
987.208	327
992.364	325
997.515	340
1002.66	333
1007.801	339
1012.936	349
1018.066	352
1023.19	351
1028.309	361
1033.423	357
1038.532	353
1043.636	364
1048.734	353
1053.827	357
1058.915	365
1063.998	381
1069.075	385
1074.147	390
1079.214	391
1084.276	387
1089.333	400
1094.385	391
1099.431	383
1104.472	375
1109.509	368
1114.54	355
1119.565	363
1124.586	359
1129.602	358
1134.613	355
1139.618	340
1144.619	318
1149.614	306
1154.604	309
1159.589	312
1164.57	300
1169.545	299
1174.515	297
1179.48	295
1184.44	287
1189.395	279
1194.345	274
1199.29	275
1204.23	271
1209.165	272
1214.095	272
1219.021	276
1223.941	281
1228.856	288
1233.766	285
1238.672	294
1243.572	302
1248.467	303
1253.358	307
1258.244	312
1263.124	313
1268	314
1272.871	307
1277.737	304
1282.599	289
1287.455	299
1292.306	299
1297.153	319
1301.995	331
1306.832	341
1311.664	333
1316.491	318
1321.314	314
1326.132	288
1330.945	282
1335.753	268
1340.556	267
1345.354	272
1350.148	263
1354.937	255
1359.722	252
1364.501	250
1369.276	255
1374.046	253
1378.811	252
1383.572	261
1388.327	250
1393.079	243
1397.825	238
1402.567	235
1407.304	225
1412.036	232
1416.764	237
1421.487	245
1426.205	254
1430.919	257
1435.628	272
1440.333	302
1445.032	326
1449.727	338
1454.418	332
1459.104	327
1463.785	305
1468.462	296
1473.134	267
1477.802	243
1482.465	222
1487.123	208
1491.777	193
1496.426	191
1501.071	189
1505.711	184
1510.347	180
1514.978	181
1519.604	185
1524.226	184
1528.844	181
1533.457	183
1538.065	180
1542.669	175
1547.269	182
1551.864	182
1556.454	183
1561.041	179
1565.622	181
1570.199	180
1574.772	171
1579.34	184
1583.904	185
1588.464	179
1593.019	181
1597.569	182
1602.115	183
1606.657	186
1611.195	190
1615.728	191
1620.256	187
1624.78	186
1629.3	188
1633.816	195
1638.327	200
1642.834	207
1647.336	206
1651.834	214
1656.328	215
1660.817	219
1665.302	217
1669.783	205
1674.259	205
1678.732	200
1683.199	189
1687.663	179
1692.122	168
1696.577	160
1701.028	152
1705.474	151
1709.917	147
1714.355	145
1718.788	137
1723.218	130
1727.643	128
1732.064	121
1736.481	126
1740.893	125
1745.301	128
1749.705	126
1754.105	118
1758.501	110
1762.893	103
1767.28	98
1771.663	102
1776.042	101
1780.417	96
1784.787	90
1789.154	90
1793.516	99
1797.874	99
1802.228	95
1806.578	99
1810.924	100
1815.266	96
1819.603	91
1823.937	92
1828.266	88
1832.591	87
1836.913	82
1841.23	85
1845.543	81
1849.852	81
1854.156	84
1858.457	86
1862.754	85
1867.047	77
1871.335	79
1875.62	80
1879.9	74
1884.177	74
1888.449	77
1892.718	82
1896.982	78
1901.243	76
1905.499	79
1909.752	75
1914	73
1918.245	73
1922.485	71
1926.722	78
1930.954	76
1935.183	77
1939.408	75
1943.628	74
1947.845	76
1952.058	79
1956.267	79
1960.472	79
1964.673	74
1968.87	74
1973.063	67
1977.252	66
1981.438	70
1985.619	73
1989.797	63
1993.971	66
1998.14	66
2002.306	67
2006.469	66
2010.627	64
2014.781	71
2018.932	67
2023.078	64
2027.221	64
2031.36	62
2035.495	54
2039.627	59
2043.754	62
2047.878	64
2051.998	58
2056.114	61
2060.226	60
2064.334	60
2068.439	63
2072.54	64
2076.637	62
2080.73	63
2084.82	67
2088.906	68
2092.988	60
2097.066	65
2101.14	63
2105.211	63
2109.278	64
2113.342	66
2117.401	63
2121.457	60
2125.509	58
2129.558	61
2133.602	62
2137.643	57
2141.681	56
2145.714	57
2149.744	54
2153.77	56
2157.793	47
2161.812	54
2165.827	49
2169.838	52
2173.846	54
2177.851	48
2181.851	49
2185.848	47
2189.841	45
2193.831	47
2197.817	48
2201.799	47
2205.778	47
2209.753	45
2213.725	42
2217.693	41
2221.657	42
2225.618	41
2229.575	43
2233.529	39
2237.479	38
2241.425	40
2245.368	41
2249.307	38
2253.243	36
2257.175	36
2261.104	36
2265.029	33
2268.95	37
2272.868	33
2276.783	33
2280.694	30
2284.601	25
2288.505	32
2292.405	31
2296.302	29
2300.195	29
2304.085	28
2307.971	26
2311.854	26
2315.734	24
2319.609	25
2323.482	25
2327.351	29
2331.216	27
2335.078	26
2338.937	24
2342.792	27
2346.643	22
2350.492	20
2354.336	17
2358.178	19
2362.015	17
2365.85	15
2369.681	20
2373.508	20
2377.333	23
2381.153	25
2384.971	18
2388.785	19
2392.595	18
2396.402	14
2400.206	14
2404.007	22
2407.804	23
2411.597	20
2415.388	14
2419.174	18
2422.958	13
2426.738	13
2430.515	15
2434.289	11
2438.059	15
2441.825	14
2445.589	9
2449.349	11
2453.106	7
2456.859	12
2460.61	10
2464.356	16
2468.1	12
2471.84	16
2475.577	10
2479.311	4
2483.041	9
2486.768	10
2490.492	11
2494.213	13
2497.93	12
2501.644	9
2505.355	8
2509.062	8
2512.766	10
2516.467	15
2520.165	10
2523.859	10
2527.551	9
2531.239	10
2534.923	8
2538.605	7
2542.283	6
2545.958	11
2549.63	10
2553.299	11
2556.964	10
2560.626	12
2564.285	9
2567.941	6
2571.594	8
2575.243	9
2578.89	12
2582.533	8
2586.173	5
2589.809	8
2593.443	7
2597.073	6
2600.701	10
2604.325	10
2607.946	9
2611.564	9
2615.178	6
2618.79	6
2622.398	7
2626.004	9
2629.606	11
2633.205	10
2636.801	7
2640.394	9
2643.983	5
2647.57	5
2651.153	6
2654.734	6
2658.311	10
2661.885	8
2665.456	2
2669.025	1
2672.589	-2
2676.151	4
2679.71	3
2683.266	7
2686.819	7
2690.368	9
2693.915	3
2697.458	5
2700.999	1
2704.536	4
2708.071	5
2711.602	7
2715.13	7
2718.656	4
2722.178	9
2725.697	5
2729.214	7
2732.727	9
2736.237	11
2739.744	10
2743.249	11
2746.75	10
2750.248	5
2753.743	5
2757.236	5
2760.725	8
2764.211	11
2767.695	6
2771.175	12
2774.652	6
2778.127	7
2781.598	6
2785.067	6
2788.532	4
2791.995	10
2795.455	9
2798.911	10
2802.365	11
2805.816	9
2809.264	14
2812.709	13
2816.151	16
2819.59	16
2823.026	19
2826.46	25
2829.89	26
2833.318	30
2836.742	32
2840.164	44
2843.583	52
2846.999	62
2850.412	76
2853.822	87
2857.229	96
2860.634	102
2864.035	97
2867.434	98
2870.83	101
2874.223	103
2877.613	105
2881	118
2884.385	125
2887.766	126
2891.145	129
2894.521	123
2897.894	117
2901.264	116
2904.631	113
2907.996	119
2911.358	113
2914.717	115
2918.073	113
2921.426	109
2924.777	108
2928.124	109
2931.469	109
2934.811	110
2938.15	104
2941.487	107
2944.821	101
2948.152	92
2951.48	86
2954.805	78
2958.128	77
2961.447	74
2964.765	71
2968.079	67
2971.39	62
2974.699	58
2978.005	56
2981.308	50
2984.609	56
2987.907	52
2991.202	49
2994.494	44
2997.784	44
3001.07	43
3004.355	44
3007.636	40
3010.915	42
3014.191	42
3017.464	39
3020.734	38
3024.002	30
3027.267	30
3030.53	36
3033.789	38
3037.046	33
3040.301	39
3043.552	35
3046.801	32
3050.048	38
3053.291	39
3056.532	36
3059.771	40
3063.006	45
3066.239	47
3069.469	45
3072.697	51
3075.922	51
3079.144	52
3082.364	49
3085.581	51
3088.795	56
3092.007	51
3095.216	63
3098.423	60
3101.627	64
3104.828	65
3108.026	60
3111.222	61
3114.416	68
3117.607	68
3120.795	72
3123.98	71
3127.163	80
3130.344	76
3133.521	76
3136.696	75
3139.869	81
3143.039	82
3146.206	90
3149.371	94
3152.533	85
3155.693	87
3158.85	88
3162.005	81
3165.157	90
3168.306	93
3171.453	96
3174.597	93
3177.739	87
3180.878	92
3184.014	93
3187.149	87
3190.28	95
3193.409	95
3196.536	97
3199.659	96
3202.781	90
3205.9	90
3209.016	95
3212.13	96
3215.241	98
3218.35	97
3221.456	89
3224.56	86
3227.661	87
3230.76	90
3233.856	87
3236.95	85
3240.041	85
3243.13	92
3246.216	88
3249.3	81
3252.382	80
3255.46	75
3258.537	89
3261.611	80
3264.682	83
3267.751	82
3270.818	73
3273.882	78
3276.943	81
3280.002	79
3283.059	81
3286.113	75
3289.165	80
3292.214	72
3295.261	72
3298.306	70
3301.348	70
3304.387	67
3307.425	71
3310.459	66
3313.492	68
3316.521	62
3319.549	62
3322.574	57
3325.597	64
3328.617	60
3331.635	57
3334.65	63
3337.663	61
3340.674	59
3343.682	64
3346.688	54
3349.691	55
3352.692	56
3355.691	57
3358.687	60
3361.681	58
3364.673	61
3367.662	57
3370.649	57
3373.633	58
3376.615	51
3379.595	43
3382.572	52
3385.547	51
3388.52	49
3391.49	50
3394.458	44
3397.424	41
3400.387	44
3403.348	40
3406.307	39
3409.263	49
3412.217	48
3415.168	42
3418.118	38
3421.065	40
3424.009	40
3426.951	43
3429.891	39
3432.829	37
3435.764	40
3438.697	39
3441.628	28
3444.557	31
3447.483	27
3450.407	34
3453.328	30
3456.247	28
3459.164	28
3462.079	24
3464.991	21
3467.902	18
3470.809	19
3473.715	20
3476.618	19
3479.519	16
3482.418	14
3485.315	16
3488.209	10
3491.101	11
3493.99	12
3496.878	15
3499.763	10
3502.646	12
3505.527	6
3508.405	7
3511.281	4
3514.155	5
3517.027	6
3519.897	7
3522.764	7
3525.629	4
3528.492	-1
3531.352	-1
3534.211	-4
3537.067	-3
3539.921	0
3542.773	-3
3545.622	-2
3548.469	-6
3551.315	-10
3554.157	-11
3556.998	-9
3559.837	-7
3562.673	-7
3565.507	-11
3568.339	-10
3571.169	-11
3573.996	-12
3576.822	-14
3579.645	-17
3582.466	-10
3585.285	-11
3588.101	-10
3590.916	-15
3593.728	-16
3596.538	-19
3599.346	-20
3602.152	-18
3604.956	-15
3607.757	-17
3610.556	-15
3613.354	-19
3616.149	-23
3618.942	-20
3621.732	-24
3624.521	-23
3627.307	-18
3630.092	-21
3632.874	-21
3635.654	-22
3638.432	-21
3641.208	-22
3643.982	-21
3646.753	-20
3649.523	-18
3652.29	-18
3655.055	-23
3657.818	-26
3660.579	-22
3663.338	-25
3666.095	-20
3668.849	-21
3671.602	-22
3674.352	-20
3677.101	-21
3679.847	-27
3682.591	-25
3685.333	-25
3688.073	-23
3690.811	-24
3693.547	-28
3696.281	-25
3699.013	-24
3701.742	-27
3704.47	-25
3707.195	-24
3709.919	-25
3712.64	-27
3715.359	-26
3718.076	-25
3720.792	-29
3723.505	-24
3726.216	-26
3728.925	-29
3731.632	-28
3734.336	-29
3737.039	-25
3739.74	-28
3742.439	-27
3745.136	-27
3747.83	-25
3750.523	-25
3753.213	-26
3755.902	-27
3758.589	-31
3761.273	-28
3763.956	-28
3766.636	-26
3769.315	-26
3771.991	-27
3774.665	-27
3777.338	-24
3780.008	-25
3782.677	-25
3785.343	-28
3788.007	-28
3790.67	-27
3793.33	-26
3795.989	-28
3798.645	-26
3801.299	-28
3803.952	-27
3806.602	-31
3809.251	-29
3811.897	-26
3814.542	-31
3817.184	-27
3819.825	-26
3822.463	-24
3825.1	-29
3827.735	-28
3830.367	-27
3832.998	-25
3835.627	-27
3838.253	-24
3840.878	-29
3843.501	-25
3846.122	-32
3848.741	-29
3851.358	-31
3853.973	-26
3856.586	-24
3859.197	-28
3861.806	-23
3864.414	-27
3867.019	-26
3869.622	-30
3872.224	-32
3874.823	-30
3877.421	-26
3880.016	-24
3882.61	-23
3885.202	-16
3887.792	-21
3890.38	-25
3892.966	-29
3895.55	-24
3898.132	-27
3900.713	-25
3903.291	-24
3905.868	-26
3908.442	-29
3911.015	-28
3913.586	-29
3916.155	-29
3918.722	-29
3921.287	-25
3923.85	-29
3926.411	-29
3928.971	-26
3931.528	-31
3934.084	-28
3936.638	-25
3939.19	-29
3941.74	-26
3944.288	-29
3946.834	-29
3949.378	-30
3951.921	-28
3954.462	-25
3957	-26
3959.537	-24
3962.072	-25
3964.606	-30
3967.137	-27
3969.667	-30
3972.194	-27
3974.72	-28
3977.244	-24
3979.766	-26
3982.286	-23
3984.805	-28
3987.321	-31
3989.836	-31
3992.349	-26
3994.86	-25
3997.369	-26
3999.877	-29
4002.382	-28
4004.886	-26
4007.388	-30
4009.888	-26
4012.386	-25
4014.883	-24
4017.377	-25
4019.87	-27
4022.361	-27
4024.85	-29
4027.338	-32
4029.823	-28
4032.307	-28
4034.789	-24
4037.269	-26
4039.747	-30
4042.224	-24
4044.699	-32
4047.172	-31
4049.643	-29
4052.112	-23
4054.58	-23
4057.046	-25
4059.51	-31
4061.972	-30
4064.432	-31
4066.891	-26
4069.348	-26
4071.803	-26
4074.256	-28
4076.708	-25
4079.158	-28
4081.606	-30
4084.052	-27
4086.497	-28
4088.939	-27
4091.38	-27
4093.819	-24
4096.257	-27
4098.693	-31
4101.127	-31
4103.559	-32
4105.989	-12
4108.418	-12
4110.845	-10
4113.27	-14
4115.694	-11
4118.115	-11
4120.535	-27
4122.954	-30
4125.37	-27
4127.785	-25
4130.198	-29
4132.609	-28
4135.019	-27
4137.427	-29
4139.833	-25
4142.237	-28
