Data from 1000000CFU3_A_RamanShift_1.txt Node
Date: Thu Feb 02 14:01:00 IST 2017
User: aro
Spectrometer: QEPB0276
Trigger mode: 0
Integration Time (sec): 5.000000E0
Scans to average: 1
Electric dark correction enabled: true
Nonlinearity correction enabled: false
Boxcar width: 0
XAxis mode: Raman Shifts
Number of Pixels in Spectrum: 1044
>>>>>Begin Spectral Data<<<<<
160.701	-4.75
166.742	1.25
172.777	21.25
178.805	82.25
184.826	209.25
190.841	406.25
196.849	632.25
202.85	770.25
208.845	822.25
214.833	810.25
220.815	803.25
226.789	773.25
232.758	776.25
238.719	770.25
244.674	770.25
250.623	740.25
256.565	737.25
262.5	714.25
268.429	693.25
274.351	687.25
280.267	686.25
286.176	662.25
292.079	678.25
297.975	657.25
303.865	646.25
309.748	642.25
315.625	652.25
321.495	657.25
327.359	661.25
333.217	653.25
339.068	655.25
344.912	671.25
350.751	671.25
356.583	668.25
362.408	672.25
368.227	678.25
374.04	659.25
379.847	658.25
385.647	659.25
391.44	655.25
397.228	673.25
403.009	665.25
408.784	675.25
414.553	679.25
420.315	681.25
426.071	678.25
431.821	683.25
437.565	680.25
443.302	689.25
449.033	676.25
454.758	667.25
460.477	665.25
466.189	657.25
471.896	648.25
477.596	640.25
483.29	632.25
488.978	633.25
494.66	630.25
500.335	609.25
506.005	589.25
511.668	564.25
517.325	548.25
522.977	526.25
528.622	512.25
534.261	487.25
539.894	496.25
545.521	484.25
551.141	477.25
556.756	469.25
562.365	465.25
567.968	461.25
573.565	456.25
579.155	445.25
584.74	456.25
590.319	449.25
595.892	453.25
601.459	446.25
607.02	444.25
612.575	440.25
618.124	442.25
623.667	430.25
629.204	424.25
634.735	421.25
640.261	423.25
645.781	422.25
651.294	427.25
656.802	420.25
662.304	404.25
667.8	397.25
673.29	395.25
678.775	395.25
684.254	391.25
689.726	401.25
695.193	384.25
700.655	384.25
706.11	385.25
711.56	388.25
717.004	388.25
722.442	391.25
727.874	385.25
733.301	376.25
738.722	378.25
744.137	368.25
749.547	374.25
754.951	369.25
760.349	382.25
765.741	377.25
771.128	381.25
776.509	378.25
781.885	393.25
787.254	383.25
792.618	384.25
797.977	384.25
803.33	379.25
808.677	380.25
814.019	376.25
819.355	376.25
824.686	370.25
830.011	372.25
835.33	377.25
840.644	384.25
845.952	385.25
851.255	393.25
856.552	393.25
861.844	388.25
867.13	397.25
872.41	389.25
877.686	393.25
882.955	395.25
888.219	403.25
893.478	384.25
898.731	375.25
903.979	368.25
909.221	355.25
914.458	355.25
919.69	353.25
924.916	345.25
930.136	347.25
935.351	351.25
940.561	345.25
945.766	337.25
950.965	355.25
956.158	346.25
961.347	336.25
966.529	326.25
971.707	320.25
976.879	312.25
982.046	310.25
987.208	322.25
992.364	313.25
997.515	314.25
1002.66	326.25
1007.801	334.25
1012.936	332.25
1018.066	338.25
1023.19	342.25
1028.309	344.25
1033.423	349.25
1038.532	347.25
1043.636	344.25
1048.734	342.25
1053.827	347.25
1058.915	344.25
1063.998	362.25
1069.075	370.25
1074.147	369.25
1079.214	381.25
1084.276	377.25
1089.333	381.25
1094.385	383.25
1099.431	368.25
1104.472	366.25
1109.509	355.25
1114.54	340.25
1119.565	347.25
1124.586	340.25
1129.602	344.25
1134.613	347.25
1139.618	326.25
1144.619	306.25
1149.614	298.25
1154.604	288.25
1159.589	296.25
1164.57	294.25
1169.545	285.25
1174.515	285.25
1179.48	284.25
1184.44	272.25
1189.395	267.25
1194.345	260.25
1199.29	264.25
1204.23	259.25
1209.165	275.25
1214.095	274.25
1219.021	265.25
1223.941	269.25
1228.856	283.25
1233.766	276.25
1238.672	285.25
1243.572	291.25
1248.467	294.25
1253.358	294.25
1258.244	305.25
1263.124	298.25
1268	292.25
1272.871	291.25
1277.737	291.25
1282.599	285.25
1287.455	277.25
1292.306	290.25
1297.153	304.25
1301.995	322.25
1306.832	330.25
1311.664	316.25
1316.491	312.25
1321.314	299.25
1326.132	277.25
1330.945	271.25
1335.753	262.25
1340.556	257.25
1345.354	259.25
1350.148	257.25
1354.937	248.25
1359.722	245.25
1364.501	244.25
1369.276	235.25
1374.046	242.25
1378.811	245.25
1383.572	239.25
1388.327	239.25
1393.079	223.25
1397.825	222.25
1402.567	219.25
1407.304	218.25
1412.036	226.25
1416.764	217.25
1421.487	229.25
1426.205	238.25
1430.919	240.25
1435.628	263.25
1440.333	293.25
1445.032	313.25
1449.727	326.25
1454.418	321.25
1459.104	305.25
1463.785	295.25
1468.462	287.25
1473.134	266.25
1477.802	235.25
1482.465	215.25
1487.123	201.25
1491.777	180.25
1496.426	177.25
1501.071	184.25
1505.711	177.25
1510.347	181.25
1514.978	178.25
1519.604	178.25
1524.226	170.25
1528.844	174.25
1533.457	170.25
1538.065	166.25
1542.669	173.25
1547.269	175.25
1551.864	176.25
1556.454	174.25
1561.041	166.25
1565.622	168.25
1570.199	165.25
1574.772	160.25
1579.34	171.25
1583.904	166.25
1588.464	170.25
1593.019	172.25
1597.569	168.25
1602.115	177.25
1606.657	176.25
1611.195	181.25
1615.728	180.25
1620.256	178.25
1624.78	183.25
1629.3	180.25
1633.816	183.25
1638.327	185.25
1642.834	187.25
1647.336	198.25
1651.834	197.25
1656.328	212.25
1660.817	210.25
1665.302	210.25
1669.783	197.25
1674.259	194.25
1678.732	185.25
1683.199	175.25
1687.663	164.25
1692.122	153.25
1696.577	152.25
1701.028	146.25
1705.474	139.25
1709.917	140.25
1714.355	133.25
1718.788	128.25
1723.218	127.25
1727.643	124.25
1732.064	124.25
1736.481	126.25
1740.893	125.25
1745.301	120.25
1749.705	116.25
1754.105	113.25
1758.501	101.25
1762.893	103.25
1767.28	101.25
1771.663	97.25
1776.042	101.25
1780.417	93.25
1784.787	87.25
1789.154	86.25
1793.516	94.25
1797.874	93.25
1802.228	98.25
1806.578	92.25
1810.924	96.25
1815.266	91.25
1819.603	89.25
1823.937	84.25
1828.266	78.25
1832.591	83.25
1836.913	83.25
1841.23	81.25
1845.543	81.25
1849.852	77.25
1854.156	77.25
1858.457	83.25
1862.754	78.25
1867.047	80.25
1871.335	79.25
1875.62	81.25
1879.9	76.25
1884.177	81.25
1888.449	77.25
1892.718	76.25
1896.982	72.25
1901.243	76.25
1905.499	75.25
1909.752	73.25
1914	77.25
1918.245	72.25
1922.485	70.25
1926.722	76.25
1930.954	74.25
1935.183	73.25
1939.408	72.25
1943.628	76.25
1947.845	74.25
1952.058	79.25
1956.267	76.25
1960.472	77.25
1964.673	73.25
1968.87	70.25
1973.063	63.25
1977.252	64.25
1981.438	63.25
1985.619	65.25
1989.797	64.25
1993.971	66.25
1998.14	68.25
2002.306	69.25
2006.469	65.25
2010.627	58.25
2014.781	63.25
2018.932	67.25
2023.078	67.25
2027.221	67.25
2031.36	62.25
2035.495	55.25
2039.627	62.25
2043.754	61.25
2047.878	59.25
2051.998	59.25
2056.114	62.25
2060.226	60.25
2064.334	60.25
2068.439	61.25
2072.54	57.25
2076.637	62.25
2080.73	61.25
2084.82	64.25
2088.906	66.25
2092.988	63.25
2097.066	64.25
2101.14	65.25
2105.211	57.25
2109.278	56.25
2113.342	55.25
2117.401	59.25
2121.457	61.25
2125.509	52.25
2129.558	60.25
2133.602	56.25
2137.643	57.25
2141.681	54.25
2145.714	50.25
2149.744	54.25
2153.77	53.25
2157.793	52.25
2161.812	54.25
2165.827	47.25
2169.838	50.25
2173.846	47.25
2177.851	48.25
2181.851	47.25
2185.848	46.25
2189.841	46.25
2193.831	48.25
2197.817	41.25
2201.799	45.25
2205.778	42.25
2209.753	43.25
2213.725	42.25
2217.693	47.25
2221.657	46.25
2225.618	40.25
2229.575	39.25
2233.529	37.25
2237.479	38.25
2241.425	39.25
2245.368	44.25
2249.307	43.25
2253.243	35.25
2257.175	39.25
2261.104	34.25
2265.029	32.25
2268.95	36.25
2272.868	33.25
2276.783	33.25
2280.694	30.25
2284.601	29.25
2288.505	30.25
2292.405	30.25
2296.302	28.25
2300.195	28.25
2304.085	29.25
2307.971	27.25
2311.854	27.25
2315.734	27.25
2319.609	23.25
2323.482	23.25
2327.351	30.25
2331.216	30.25
2335.078	24.25
2338.937	26.25
2342.792	22.25
2346.643	22.25
2350.492	22.25
2354.336	18.25
2358.178	22.25
2362.015	19.25
2365.85	18.25
2369.681	16.25
2373.508	19.25
2377.333	18.25
2381.153	23.25
2384.971	22.25
2388.785	15.25
2392.595	17.25
2396.402	16.25
2400.206	18.25
2404.007	13.25
2407.804	20.25
2411.597	21.25
2415.388	17.25
2419.174	13.25
2422.958	16.25
2426.738	13.25
2430.515	15.25
2434.289	14.25
2438.059	19.25
2441.825	14.25
2445.589	18.25
2449.349	17.25
2453.106	11.25
2456.859	13.25
2460.61	9.25
2464.356	14.25
2468.1	16.25
2471.84	14.25
2475.577	13.25
2479.311	5.25
2483.041	7.25
2486.768	10.25
2490.492	12.25
2494.213	12.25
2497.93	14.25
2501.644	8.25
2505.355	10.25
2509.062	9.25
2512.766	8.25
2516.467	13.25
2520.165	8.25
2523.859	12.25
2527.551	10.25
2531.239	14.25
2534.923	6.25
2538.605	8.25
2542.283	4.25
2545.958	12.25
2549.63	9.25
2553.299	14.25
2556.964	9.25
2560.626	10.25
2564.285	7.25
2567.941	8.25
2571.594	9.25
2575.243	9.25
2578.89	11.25
2582.533	11.25
2586.173	10.25
2589.809	12.25
2593.443	12.25
2597.073	7.25
2600.701	11.25
2604.325	7.25
2607.946	9.25
2611.564	8.25
2615.178	10.25
2618.79	10.25
2622.398	14.25
2626.004	7.25
2629.606	10.25
2633.205	8.25
2636.801	7.25
2640.394	8.25
2643.983	6.25
2647.57	5.25
2651.153	10.25
2654.734	5.25
2658.311	7.25
2661.885	7.25
2665.456	8.25
2669.025	5.25
2672.589	3.25
2676.151	6.25
2679.71	6.25
2683.266	7.25
2686.819	8.25
2690.368	6.25
2693.915	5.25
2697.458	10.25
2700.999	4.25
2704.536	10.25
2708.071	8.25
2711.602	7.25
2715.13	6.25
2718.656	6.25
2722.178	7.25
2725.697	6.25
2729.214	10.25
2732.727	16.25
2736.237	13.25
2739.744	11.25
2743.249	10.25
2746.75	7.25
2750.248	9.25
2753.743	7.25
2757.236	6.25
2760.725	10.25
2764.211	14.25
2767.695	7.25
2771.175	10.25
2774.652	4.25
2778.127	7.25
2781.598	9.25
2785.067	10.25
2788.532	8.25
2791.995	10.25
2795.455	8.25
2798.911	10.25
2802.365	5.25
2805.816	11.25
2809.264	16.25
2812.709	13.25
2816.151	12.25
2819.59	15.25
2823.026	16.25
2826.46	25.25
2829.89	27.25
2833.318	25.25
2836.742	31.25
2840.164	42.25
2843.583	50.25
2846.999	66.25
2850.412	73.25
2853.822	82.25
2857.229	86.25
2860.634	93.25
2864.035	95.25
2867.434	90.25
2870.83	94.25
2874.223	99.25
2877.613	99.25
2881	105.25
2884.385	115.25
2887.766	115.25
2891.145	117.25
2894.521	120.25
2897.894	112.25
2901.264	112.25
2904.631	107.25
2907.996	105.25
2911.358	104.25
2914.717	102.25
2918.073	106.25
2921.426	102.25
2924.777	106.25
2928.124	100.25
2931.469	101.25
2934.811	100.25
2938.15	96.25
2941.487	94.25
2944.821	88.25
2948.152	84.25
2951.48	80.25
2954.805	71.25
2958.128	73.25
2961.447	69.25
2964.765	58.25
2968.079	65.25
2971.39	56.25
2974.699	55.25
2978.005	53.25
2981.308	50.25
2984.609	52.25
2987.907	46.25
2991.202	40.25
2994.494	41.25
2997.784	37.25
3001.07	39.25
3004.355	39.25
3007.636	37.25
3010.915	39.25
3014.191	36.25
3017.464	31.25
3020.734	27.25
3024.002	29.25
3027.267	26.25
3030.53	31.25
3033.789	35.25
3037.046	31.25
3040.301	36.25
3043.552	29.25
3046.801	27.25
3050.048	34.25
3053.291	34.25
3056.532	37.25
3059.771	41.25
3063.006	39.25
3066.239	42.25
3069.469	43.25
3072.697	40.25
3075.922	48.25
3079.144	44.25
3082.364	46.25
3085.581	45.25
3088.795	48.25
3092.007	42.25
3095.216	51.25
3098.423	52.25
3101.627	51.25
3104.828	53.25
3108.026	56.25
3111.222	57.25
3114.416	58.25
3117.607	64.25
3120.795	64.25
3123.98	59.25
3127.163	69.25
3130.344	65.25
3133.521	66.25
3136.696	66.25
3139.869	71.25
3143.039	72.25
3146.206	83.25
3149.371	82.25
3152.533	77.25
3155.693	75.25
3158.85	76.25
3162.005	76.25
3165.157	76.25
3168.306	83.25
3171.453	83.25
3174.597	77.25
3177.739	80.25
3180.878	76.25
3184.014	76.25
3187.149	71.25
3190.28	81.25
3193.409	82.25
3196.536	84.25
3199.659	82.25
3202.781	80.25
3205.9	80.25
3209.016	76.25
3212.13	81.25
3215.241	78.25
3218.35	81.25
3221.456	79.25
3224.56	77.25
3227.661	72.25
3230.76	76.25
3233.856	73.25
3236.95	67.25
3240.041	75.25
3243.13	74.25
3246.216	71.25
3249.3	74.25
3252.382	65.25
3255.46	66.25
3258.537	69.25
3261.611	70.25
3264.682	70.25
3267.751	70.25
3270.818	72.25
3273.882	65.25
3276.943	70.25
3280.002	67.25
3283.059	66.25
3286.113	69.25
3289.165	61.25
3292.214	63.25
3295.261	59.25
3298.306	62.25
3301.348	63.25
3304.387	58.25
3307.425	59.25
3310.459	53.25
3313.492	57.25
3316.521	53.25
3319.549	57.25
3322.574	53.25
3325.597	55.25
3328.617	54.25
3331.635	48.25
3334.65	55.25
3337.663	46.25
3340.674	50.25
3343.682	52.25
3346.688	53.25
3349.691	54.25
3352.692	53.25
3355.691	49.25
3358.687	49.25
3361.681	47.25
3364.673	51.25
3367.662	49.25
3370.649	51.25
3373.633	50.25
3376.615	47.25
3379.595	44.25
3382.572	38.25
3385.547	38.25
3388.52	43.25
3391.49	39.25
3394.458	42.25
3397.424	36.25
3400.387	44.25
3403.348	43.25
3406.307	36.25
3409.263	41.25
3412.217	38.25
3415.168	37.25
3418.118	37.25
3421.065	35.25
3424.009	34.25
3426.951	29.25
3429.891	34.25
3432.829	35.25
3435.764	27.25
3438.697	32.25
3441.628	20.25
3444.557	27.25
3447.483	27.25
3450.407	30.25
3453.328	27.25
3456.247	25.25
3459.164	22.25
3462.079	18.25
3464.991	19.25
3467.902	17.25
3470.809	21.25
3473.715	18.25
3476.618	17.25
3479.519	13.25
3482.418	10.25
3485.315	7.25
3488.209	4.25
3491.101	5.25
3493.99	10.25
3496.878	14.25
3499.763	10.25
3502.646	7.25
3505.527	6.25
3508.405	6.25
3511.281	0.25
3514.155	4.25
3517.027	8.25
3519.897	8.25
3522.764	3.25
3525.629	3.25
3528.492	1.25
3531.352	-3.75
3534.211	-2.75
3537.067	-7.75
3539.921	0.25
3542.773	-4.75
3545.622	-2.75
3548.469	-5.75
3551.315	-2.75
3554.157	-9.75
3556.998	-6.75
3559.837	-8.75
3562.673	-2.75
3565.507	-8.75
3568.339	-6.75
3571.169	-6.75
3573.996	-8.75
3576.822	-11.75
3579.645	-10.75
3582.466	-8.75
3585.285	-11.75
3588.101	-10.75
3590.916	-14.75
3593.728	-13.75
3596.538	-15.75
3599.346	-16.75
3602.152	-14.75
3604.956	-15.75
3607.757	-13.75
3610.556	-14.75
3613.354	-17.75
3616.149	-17.75
3618.942	-14.75
3621.732	-16.75
3624.521	-16.75
3627.307	-19.75
3630.092	-17.75
3632.874	-16.75
3635.654	-18.75
3638.432	-19.75
3641.208	-17.75
3643.982	-16.75
3646.753	-17.75
3649.523	-20.75
3652.29	-17.75
3655.055	-23.75
3657.818	-20.75
3660.579	-18.75
3663.338	-18.75
3666.095	-16.75
3668.849	-17.75
3671.602	-20.75
3674.352	-20.75
3677.101	-19.75
3679.847	-20.75
3682.591	-20.75
3685.333	-19.75
3688.073	-21.75
3690.811	-19.75
3693.547	-27.75
3696.281	-23.75
3699.013	-20.75
3701.742	-23.75
3704.47	-17.75
3707.195	-19.75
3709.919	-19.75
3712.64	-27.75
3715.359	-25.75
3718.076	-19.75
3720.792	-26.75
3723.505	-16.75
3726.216	-17.75
3728.925	-20.75
3731.632	-25.75
3734.336	-25.75
3737.039	-25.75
3739.74	-25.75
3742.439	-22.75
3745.136	-22.75
3747.83	-19.75
3750.523	-20.75
3753.213	-27.75
3755.902	-24.75
3758.589	-25.75
3761.273	-25.75
3763.956	-21.75
3766.636	-19.75
3769.315	-20.75
3771.991	-24.75
3774.665	-28.75
3777.338	-23.75
3780.008	-20.75
3782.677	-22.75
3785.343	-22.75
3788.007	-22.75
3790.67	-19.75
3793.33	-22.75
3795.989	-23.75
3798.645	-22.75
3801.299	-22.75
3803.952	-26.75
3806.602	-23.75
3809.251	-23.75
3811.897	-23.75
3814.542	-24.75
3817.184	-22.75
3819.825	-27.75
3822.463	-21.75
3825.1	-24.75
3827.735	-20.75
3830.367	-21.75
3832.998	-23.75
3835.627	-22.75
3838.253	-22.75
3840.878	-24.75
3843.501	-22.75
3846.122	-23.75
3848.741	-20.75
3851.358	-21.75
3853.973	-23.75
3856.586	-20.75
3859.197	-26.75
3861.806	-24.75
3864.414	-22.75
3867.019	-25.75
3869.622	-24.75
3872.224	-24.75
3874.823	-23.75
3877.421	-20.75
3880.016	-20.75
3882.61	-16.75
3885.202	-10.75
3887.792	-11.75
3890.38	-18.75
3892.966	-22.75
3895.55	-20.75
3898.132	-23.75
3900.713	-20.75
3903.291	-22.75
3905.868	-21.75
3908.442	-22.75
3911.015	-21.75
3913.586	-24.75
3916.155	-21.75
3918.722	-24.75
3921.287	-22.75
3923.85	-24.75
3926.411	-26.75
3928.971	-23.75
3931.528	-24.75
3934.084	-25.75
3936.638	-20.75
3939.19	-22.75
3941.74	-21.75
3944.288	-25.75
3946.834	-24.75
3949.378	-24.75
3951.921	-23.75
3954.462	-22.75
3957	-23.75
3959.537	-22.75
3962.072	-20.75
3964.606	-23.75
3967.137	-22.75
3969.667	-25.75
3972.194	-23.75
3974.72	-23.75
3977.244	-22.75
3979.766	-21.75
3982.286	-20.75
3984.805	-23.75
3987.321	-28.75
3989.836	-25.75
3992.349	-23.75
3994.86	-20.75
3997.369	-23.75
3999.877	-25.75
4002.382	-25.75
4004.886	-22.75
4007.388	-26.75
4009.888	-22.75
4012.386	-20.75
4014.883	-21.75
4017.377	-22.75
4019.87	-19.75
4022.361	-20.75
4024.85	-24.75
4027.338	-27.75
4029.823	-24.75
4032.307	-21.75
4034.789	-21.75
4037.269	-18.75
4039.747	-23.75
4042.224	-23.75
4044.699	-31.75
4047.172	-26.75
4049.643	-23.75
4052.112	-21.75
4054.58	-19.75
4057.046	-20.75
4059.51	-26.75
4061.972	-26.75
4064.432	-22.75
4066.891	-25.75
4069.348	-22.75
4071.803	-22.75
4074.256	-21.75
4076.708	-23.75
4079.158	-23.75
4081.606	-26.75
4084.052	-20.75
4086.497	-21.75
4088.939	-22.75
4091.38	-22.75
4093.819	-21.75
4096.257	-24.75
4098.693	-23.75
4101.127	-23.75
4103.559	-24.75
4105.989	-11.75
4108.418	-9.75
4110.845	-7.75
4113.27	-6.75
4115.694	-9.75
4118.115	-8.75
4120.535	-24.75
4122.954	-25.75
4125.37	-24.75
4127.785	-21.75
4130.198	-23.75
4132.609	-24.75
4135.019	-24.75
4137.427	-26.75
4139.833	-22.75
4142.237	-25.75
