Data from 10000000CFU2_A_RamanShift_1.txt Node
Date: Tue Jan 24 17:41:11 IST 2017
User: aro
Spectrometer: QEPB0276
Trigger mode: 0
Integration Time (sec): 5.000000E0
Scans to average: 1
Electric dark correction enabled: true
Nonlinearity correction enabled: false
Boxcar width: 0
XAxis mode: Raman Shifts
Number of Pixels in Spectrum: 1044
>>>>>Begin Spectral Data<<<<<
160.701	-35.62
166.742	0.38
172.777	94.38
178.805	383.38
184.826	1060.38
190.841	2185.38
196.849	3412.38
202.85	4235.38
208.845	4394.38
214.833	4239.38
220.815	4106.38
226.789	3995.38
232.758	3883.38
238.719	3783.38
244.674	3620.38
250.623	3471.38
256.565	3301.38
262.5	3151.38
268.429	3025.38
274.351	2910.38
280.267	2795.38
286.176	2718.38
292.079	2622.38
297.975	2505.38
303.865	2465.38
309.748	2393.38
315.625	2332.38
321.495	2274.38
327.359	2241.38
333.217	2209.38
339.068	2197.38
344.912	2213.38
350.751	2185.38
356.583	2193.38
362.408	2170.38
368.227	2180.38
374.04	2185.38
379.847	2192.38
385.647	2215.38
391.44	2207.38
397.228	2230.38
403.009	2245.38
408.784	2247.38
414.553	2247.38
420.315	2280.38
426.071	2257.38
431.821	2265.38
437.565	2264.38
443.302	2256.38
449.033	2241.38
454.758	2237.38
460.477	2213.38
466.189	2227.38
471.896	2220.38
477.596	2195.38
483.29	2174.38
488.978	2168.38
494.66	2149.38
500.335	2136.38
506.005	2104.38
511.668	2048.38
517.325	2023.38
522.977	1993.38
528.622	1977.38
534.261	1941.38
539.894	1932.38
545.521	1915.38
551.141	1897.38
556.756	1895.38
562.365	1879.38
567.968	1881.38
573.565	1857.38
579.155	1847.38
584.74	1817.38
590.319	1828.38
595.892	1809.38
601.459	1796.38
607.02	1800.38
612.575	1767.38
618.124	1751.38
623.667	1728.38
629.204	1732.38
634.735	1714.38
640.261	1689.38
645.781	1686.38
651.294	1665.38
656.802	1676.38
662.304	1644.38
667.8	1675.38
673.29	1652.38
678.775	1650.38
684.254	1655.38
689.726	1629.38
695.193	1617.38
700.655	1618.38
706.11	1595.38
711.56	1586.38
717.004	1578.38
722.442	1577.38
727.874	1555.38
733.301	1550.38
738.722	1565.38
744.137	1528.38
749.547	1548.38
754.951	1536.38
760.349	1540.38
765.741	1542.38
771.128	1516.38
776.509	1523.38
781.885	1532.38
787.254	1535.38
792.618	1526.38
797.977	1507.38
803.33	1507.38
808.677	1494.38
814.019	1485.38
819.355	1459.38
824.686	1448.38
830.011	1443.38
835.33	1407.38
840.644	1411.38
845.952	1431.38
851.255	1412.38
856.552	1398.38
861.844	1396.38
867.13	1392.38
872.41	1382.38
877.686	1372.38
882.955	1348.38
888.219	1338.38
893.478	1311.38
898.731	1311.38
903.979	1283.38
909.221	1262.38
914.458	1256.38
919.69	1239.38
924.916	1237.38
930.136	1254.38
935.351	1257.38
940.561	1244.38
945.766	1251.38
950.965	1225.38
956.158	1211.38
961.347	1217.38
966.529	1196.38
971.707	1163.38
976.879	1162.38
982.046	1168.38
987.208	1148.38
992.364	1150.38
997.515	1161.38
1002.66	1172.38
1007.801	1169.38
1012.936	1174.38
1018.066	1188.38
1023.19	1201.38
1028.309	1190.38
1033.423	1181.38
1038.532	1191.38
1043.636	1176.38
1048.734	1163.38
1053.827	1161.38
1058.915	1148.38
1063.998	1153.38
1069.075	1133.38
1074.147	1125.38
1079.214	1134.38
1084.276	1156.38
1089.333	1155.38
1094.385	1178.38
1099.431	1176.38
1104.472	1177.38
1109.509	1173.38
1114.54	1144.38
1119.565	1154.38
1124.586	1128.38
1129.602	1121.38
1134.613	1116.38
1139.618	1095.38
1144.619	1107.38
1149.614	1097.38
1154.604	1118.38
1159.589	1130.38
1164.57	1127.38
1169.545	1136.38
1174.515	1125.38
1179.48	1135.38
1184.44	1116.38
1189.395	1112.38
1194.345	1113.38
1199.29	1096.38
1204.23	1098.38
1209.165	1111.38
1214.095	1129.38
1219.021	1119.38
1223.941	1138.38
1228.856	1144.38
1233.766	1140.38
1238.672	1150.38
1243.572	1157.38
1248.467	1130.38
1253.358	1130.38
1258.244	1098.38
1263.124	1104.38
1268	1077.38
1272.871	1074.38
1277.737	1073.38
1282.599	1065.38
1287.455	1062.38
1292.306	1068.38
1297.153	1071.38
1301.995	1074.38
1306.832	1076.38
1311.664	1098.38
1316.491	1089.38
1321.314	1076.38
1326.132	1082.38
1330.945	1063.38
1335.753	1070.38
1340.556	1051.38
1345.354	1042.38
1350.148	1033.38
1354.937	1030.38
1359.722	1024.38
1364.501	1006.38
1369.276	995.38
1374.046	984.38
1378.811	980.38
1383.572	986.38
1388.327	982.38
1393.079	990.38
1397.825	978.38
1402.567	969.38
1407.304	956.38
1412.036	965.38
1416.764	942.38
1421.487	959.38
1426.205	947.38
1430.919	968.38
1435.628	984.38
1440.333	992.38
1445.032	994.38
1449.727	1003.38
1454.418	1007.38
1459.104	1001.38
1463.785	989.38
1468.462	983.38
1473.134	980.38
1477.802	971.38
1482.465	973.38
1487.123	970.38
1491.777	967.38
1496.426	961.38
1501.071	960.38
1505.711	996.38
1510.347	988.38
1514.978	1011.38
1519.604	1008.38
1524.226	1022.38
1528.844	1014.38
1533.457	1022.38
1538.065	1033.38
1542.669	1020.38
1547.269	1010.38
1551.864	1018.38
1556.454	1021.38
1561.041	1031.38
1565.622	1034.38
1570.199	1046.38
1574.772	1078.38
1579.34	1091.38
1583.904	1105.38
1588.464	1129.38
1593.019	1137.38
1597.569	1167.38
1602.115	1152.38
1606.657	1181.38
1611.195	1172.38
1615.728	1207.38
1620.256	1197.38
1624.78	1226.38
1629.3	1237.38
1633.816	1259.38
1638.327	1272.38
1642.834	1296.38
1647.336	1315.38
1651.834	1312.38
1656.328	1310.38
1660.817	1288.38
1665.302	1292.38
1669.783	1247.38
1674.259	1225.38
1678.732	1192.38
1683.199	1158.38
1687.663	1111.38
1692.122	1082.38
1696.577	1037.38
1701.028	984.38
1705.474	941.38
1709.917	919.38
1714.355	908.38
1718.788	888.38
1723.218	869.38
1727.643	856.38
1732.064	851.38
1736.481	813.38
1740.893	791.38
1745.301	786.38
1749.705	762.38
1754.105	742.38
1758.501	727.38
1762.893	710.38
1767.28	696.38
1771.663	685.38
1776.042	696.38
1780.417	692.38
1784.787	696.38
1789.154	696.38
1793.516	681.38
1797.874	684.38
1802.228	685.38
1806.578	674.38
1810.924	677.38
1815.266	660.38
1819.603	644.38
1823.937	639.38
1828.266	637.38
1832.591	632.38
1836.913	625.38
1841.23	618.38
1845.543	610.38
1849.852	627.38
1854.156	623.38
1858.457	619.38
1862.754	634.38
1867.047	640.38
1871.335	640.38
1875.62	637.38
1879.9	641.38
1884.177	641.38
1888.449	641.38
1892.718	631.38
1896.982	637.38
1901.243	633.38
1905.499	624.38
1909.752	621.38
1914	628.38
1918.245	638.38
1922.485	636.38
1926.722	629.38
1930.954	636.38
1935.183	634.38
1939.408	631.38
1943.628	635.38
1947.845	629.38
1952.058	633.38
1956.267	628.38
1960.472	627.38
1964.673	617.38
1968.87	605.38
1973.063	602.38
1977.252	609.38
1981.438	594.38
1985.619	605.38
1989.797	596.38
1993.971	601.38
1998.14	596.38
2002.306	595.38
2006.469	608.38
2010.627	608.38
2014.781	610.38
2018.932	611.38
2023.078	608.38
2027.221	608.38
2031.36	603.38
2035.495	591.38
2039.627	590.38
2043.754	596.38
2047.878	597.38
2051.998	581.38
2056.114	589.38
2060.226	590.38
2064.334	596.38
2068.439	582.38
2072.54	607.38
2076.637	618.38
2080.73	618.38
2084.82	608.38
2088.906	607.38
2092.988	605.38
2097.066	595.38
2101.14	595.38
2105.211	602.38
2109.278	589.38
2113.342	596.38
2117.401	577.38
2121.457	580.38
2125.509	582.38
2129.558	589.38
2133.602	581.38
2137.643	579.38
2141.681	572.38
2145.714	567.38
2149.744	572.38
2153.77	564.38
2157.793	561.38
2161.812	558.38
2165.827	548.38
2169.838	539.38
2173.846	535.38
2177.851	527.38
2181.851	520.38
2185.848	506.38
2189.841	497.38
2193.831	503.38
2197.817	490.38
2201.799	501.38
2205.778	485.38
2209.753	491.38
2213.725	496.38
2217.693	505.38
2221.657	493.38
2225.618	484.38
2229.575	491.38
2233.529	488.38
2237.479	480.38
2241.425	472.38
2245.368	468.38
2249.307	456.38
2253.243	448.38
2257.175	436.38
2261.104	449.38
2265.029	436.38
2268.95	417.38
2272.868	429.38
2276.783	406.38
2280.694	413.38
2284.601	399.38
2288.505	406.38
2292.405	401.38
2296.302	394.38
2300.195	380.38
2304.085	383.38
2307.971	380.38
2311.854	377.38
2315.734	370.38
2319.609	365.38
2323.482	360.38
2327.351	343.38
2331.216	342.38
2335.078	347.38
2338.937	334.38
2342.792	328.38
2346.643	330.38
2350.492	331.38
2354.336	339.38
2358.178	335.38
2362.015	337.38
2365.85	335.38
2369.681	342.38
2373.508	334.38
2377.333	343.38
2381.153	334.38
2384.971	332.38
2388.785	331.38
2392.595	331.38
2396.402	331.38
2400.206	328.38
2404.007	330.38
2407.804	330.38
2411.597	320.38
2415.388	322.38
2419.174	319.38
2422.958	320.38
2426.738	327.38
2430.515	322.38
2434.289	318.38
2438.059	323.38
2441.825	316.38
2445.589	320.38
2449.349	309.38
2453.106	305.38
2456.859	303.38
2460.61	298.38
2464.356	298.38
2468.1	301.38
2471.84	294.38
2475.577	281.38
2479.311	297.38
2483.041	291.38
2486.768	293.38
2490.492	302.38
2494.213	299.38
2497.93	291.38
2501.644	286.38
2505.355	290.38
2509.062	299.38
2512.766	292.38
2516.467	284.38
2520.165	298.38
2523.859	282.38
2527.551	284.38
2531.239	282.38
2534.923	276.38
2538.605	273.38
2542.283	274.38
2545.958	271.38
2549.63	262.38
2553.299	267.38
2556.964	259.38
2560.626	256.38
2564.285	252.38
2567.941	266.38
2571.594	259.38
2575.243	257.38
2578.89	252.38
2582.533	244.38
2586.173	245.38
2589.809	245.38
2593.443	249.38
2597.073	246.38
2600.701	237.38
2604.325	242.38
2607.946	242.38
2611.564	238.38
2615.178	235.38
2618.79	241.38
2622.398	237.38
2626.004	240.38
2629.606	228.38
2633.205	229.38
2636.801	228.38
2640.394	229.38
2643.983	225.38
2647.57	224.38
2651.153	220.38
2654.734	222.38
2658.311	211.38
2661.885	215.38
2665.456	217.38
2669.025	212.38
2672.589	204.38
2676.151	206.38
2679.71	209.38
2683.266	208.38
2686.819	206.38
2690.368	197.38
2693.915	208.38
2697.458	193.38
2700.999	197.38
2704.536	196.38
2708.071	186.38
2711.602	194.38
2715.13	185.38
2718.656	182.38
2722.178	190.38
2725.697	190.38
2729.214	180.38
2732.727	190.38
2736.237	196.38
2739.744	196.38
2743.249	193.38
2746.75	186.38
2750.248	195.38
2753.743	185.38
2757.236	189.38
2760.725	185.38
2764.211	183.38
2767.695	179.38
2771.175	181.38
2774.652	181.38
2778.127	176.38
2781.598	184.38
2785.067	180.38
2788.532	183.38
2791.995	179.38
2795.455	177.38
2798.911	182.38
2802.365	182.38
2805.816	178.38
2809.264	181.38
2812.709	185.38
2816.151	184.38
2819.59	186.38
2823.026	189.38
2826.46	186.38
2829.89	186.38
2833.318	180.38
2836.742	183.38
2840.164	191.38
2843.583	191.38
2846.999	188.38
2850.412	192.38
2853.822	201.38
2857.229	203.38
2860.634	208.38
2864.035	205.38
2867.434	215.38
2870.83	217.38
2874.223	213.38
2877.613	216.38
2881	214.38
2884.385	218.38
2887.766	211.38
2891.145	219.38
2894.521	214.38
2897.894	230.38
2901.264	226.38
2904.631	229.38
2907.996	235.38
2911.358	229.38
2914.717	234.38
2918.073	234.38
2921.426	238.38
2924.777	244.38
2928.124	247.38
2931.469	243.38
2934.811	260.38
2938.15	260.38
2941.487	263.38
2944.821	266.38
2948.152	266.38
2951.48	273.38
2954.805	281.38
2958.128	282.38
2961.447	293.38
2964.765	298.38
2968.079	295.38
2971.39	301.38
2974.699	322.38
2978.005	324.38
2981.308	331.38
2984.609	336.38
2987.907	335.38
2991.202	353.38
2994.494	368.38
2997.784	375.38
3001.07	389.38
3004.355	392.38
3007.636	409.38
3010.915	414.38
3014.191	425.38
3017.464	424.38
3020.734	439.38
3024.002	452.38
3027.267	452.38
3030.53	463.38
3033.789	473.38
3037.046	482.38
3040.301	503.38
3043.552	501.38
3046.801	512.38
3050.048	530.38
3053.291	554.38
3056.532	565.38
3059.771	577.38
3063.006	596.38
3066.239	625.38
3069.469	633.38
3072.697	656.38
3075.922	665.38
3079.144	690.38
3082.364	697.38
3085.581	718.38
3088.795	737.38
3092.007	735.38
3095.216	765.38
3098.423	784.38
3101.627	803.38
3104.828	814.38
3108.026	845.38
3111.222	850.38
3114.416	875.38
3117.607	892.38
3120.795	913.38
3123.98	930.38
3127.163	958.38
3130.344	979.38
3133.521	1009.38
3136.696	1014.38
3139.869	1037.38
3143.039	1072.38
3146.206	1079.38
3149.371	1090.38
3152.533	1106.38
3155.693	1100.38
3158.85	1121.38
3162.005	1127.38
3165.157	1126.38
3168.306	1129.38
3171.453	1134.38
3174.597	1132.38
3177.739	1141.38
3180.878	1147.38
3184.014	1151.38
3187.149	1165.38
3190.28	1159.38
3193.409	1147.38
3196.536	1167.38
3199.659	1168.38
3202.781	1163.38
3205.9	1176.38
3209.016	1150.38
3212.13	1159.38
3215.241	1159.38
3218.35	1156.38
3221.456	1139.38
3224.56	1134.38
3227.661	1122.38
3230.76	1102.38
3233.856	1112.38
3236.95	1094.38
3240.041	1078.38
3243.13	1088.38
3246.216	1063.38
3249.3	1059.38
3252.382	1045.38
3255.46	1045.38
3258.537	1037.38
3261.611	1043.38
3264.682	1038.38
3267.751	1043.38
3270.818	1021.38
3273.882	1020.38
3276.943	999.38
3280.002	1036.38
3283.059	1002.38
3286.113	983.38
3289.165	961.38
3292.214	962.38
3295.261	936.38
3298.306	937.38
3301.348	902.38
3304.387	913.38
3307.425	895.38
3310.459	880.38
3313.492	878.38
3316.521	852.38
3319.549	849.38
3322.574	842.38
3325.597	844.38
3328.617	833.38
3331.635	831.38
3334.65	819.38
3337.663	813.38
3340.674	823.38
3343.682	805.38
3346.688	810.38
3349.691	801.38
3352.692	796.38
3355.691	794.38
3358.687	801.38
3361.681	776.38
3364.673	770.38
3367.662	760.38
3370.649	751.38
3373.633	742.38
3376.615	736.38
3379.595	719.38
3382.572	708.38
3385.547	706.38
3388.52	689.38
3391.49	685.38
3394.458	672.38
3397.424	660.38
3400.387	656.38
3403.348	650.38
3406.307	642.38
3409.263	629.38
3412.217	621.38
3415.168	623.38
3418.118	612.38
3421.065	609.38
3424.009	588.38
3426.951	594.38
3429.891	562.38
3432.829	554.38
3435.764	553.38
3438.697	540.38
3441.628	525.38
3444.557	521.38
3447.483	498.38
3450.407	494.38
3453.328	479.38
3456.247	463.38
3459.164	449.38
3462.079	433.38
3464.991	419.38
3467.902	404.38
3470.809	395.38
3473.715	391.38
3476.618	370.38
3479.519	359.38
3482.418	344.38
3485.315	338.38
3488.209	329.38
3491.101	323.38
3493.99	311.38
3496.878	300.38
3499.763	286.38
3502.646	282.38
3505.527	263.38
3508.405	262.38
3511.281	242.38
3514.155	240.38
3517.027	221.38
3519.897	214.38
3522.764	200.38
3525.629	193.38
3528.492	184.38
3531.352	170.38
3534.211	164.38
3537.067	147.38
3539.921	136.38
3542.773	130.38
3545.622	119.38
3548.469	116.38
3551.315	102.38
3554.157	94.38
3556.998	92.38
3559.837	84.38
3562.673	82.38
3565.507	81.38
3568.339	76.38
3571.169	64.38
3573.996	59.38
3576.822	55.38
3579.645	46.38
3582.466	43.38
3585.285	36.38
3588.101	37.38
3590.916	33.38
3593.728	25.38
3596.538	25.38
3599.346	13.38
3602.152	9.38
3604.956	4.38
3607.757	-4.62
3610.556	-8.62
3613.354	-7.62
3616.149	-16.62
3618.942	-14.62
3621.732	-14.62
3624.521	-16.62
3627.307	-19.62
3630.092	-23.62
3632.874	-25.62
3635.654	-23.62
3638.432	-30.62
3641.208	-29.62
3643.982	-34.62
3646.753	-36.62
3649.523	-41.62
3652.29	-45.62
3655.055	-46.62
3657.818	-49.62
3660.579	-51.62
3663.338	-53.62
3666.095	-58.62
3668.849	-59.62
3671.602	-59.62
3674.352	-64.62
3677.101	-63.62
3679.847	-64.62
3682.591	-65.62
3685.333	-68.62
3688.073	-72.62
3690.811	-72.62
3693.547	-69.62
3696.281	-74.62
3699.013	-76.62
3701.742	-80.62
3704.47	-83.62
3707.195	-83.62
3709.919	-80.62
3712.64	-80.62
3715.359	-81.62
3718.076	-85.62
3720.792	-84.62
3723.505	-84.62
3726.216	-85.62
3728.925	-85.62
3731.632	-86.62
3734.336	-90.62
3737.039	-90.62
3739.74	-89.62
3742.439	-92.62
3745.136	-90.62
3747.83	-91.62
3750.523	-86.62
3753.213	-94.62
3755.902	-94.62
3758.589	-93.62
3761.273	-95.62
3763.956	-93.62
3766.636	-98.62
3769.315	-98.62
3771.991	-98.62
3774.665	-95.62
3777.338	-94.62
3780.008	-94.62
3782.677	-94.62
3785.343	-95.62
3788.007	-99.62
3790.67	-97.62
3793.33	-99.62
3795.989	-97.62
3798.645	-98.62
3801.299	-99.62
3803.952	-99.62
3806.602	-101.62
3809.251	-101.62
3811.897	-100.62
3814.542	-102.62
3817.184	-98.62
3819.825	-102.62
3822.463	-100.62
3825.1	-102.62
3827.735	-104.62
3830.367	-105.62
3832.998	-101.62
3835.627	-99.62
3838.253	-102.62
3840.878	-99.62
3843.501	-100.62
3846.122	-100.62
3848.741	-106.62
3851.358	-106.62
3853.973	-104.62
3856.586	-105.62
3859.197	-107.62
3861.806	-107.62
3864.414	-109.62
3867.019	-104.62
3869.622	-102.62
3872.224	-101.62
3874.823	-100.62
3877.421	-97.62
3880.016	-94.62
3882.61	-99.62
3885.202	-96.62
3887.792	-94.62
3890.38	-101.62
3892.966	-106.62
3895.55	-103.62
3898.132	-105.62
3900.713	-107.62
3903.291	-103.62
3905.868	-106.62
3908.442	-105.62
3911.015	-110.62
3913.586	-107.62
3916.155	-107.62
3918.722	-107.62
3921.287	-106.62
3923.85	-107.62
3926.411	-108.62
3928.971	-103.62
3931.528	-106.62
3934.084	-106.62
3936.638	-109.62
3939.19	-107.62
3941.74	-107.62
3944.288	-109.62
3946.834	-112.62
3949.378	-106.62
3951.921	-110.62
3954.462	-109.62
3957	-107.62
3959.537	-109.62
3962.072	-106.62
3964.606	-104.62
3967.137	-107.62
3969.667	-108.62
3972.194	-106.62
3974.72	-108.62
3977.244	-110.62
3979.766	-114.62
3982.286	-105.62
3984.805	-105.62
3987.321	-102.62
3989.836	-106.62
3992.349	-105.62
3994.86	-107.62
3997.369	-107.62
3999.877	-107.62
4002.382	-106.62
4004.886	-106.62
4007.388	-103.62
4009.888	-109.62
4012.386	-108.62
4014.883	-101.62
4017.377	-100.62
4019.87	-101.62
4022.361	-104.62
4024.85	-105.62
4027.338	-106.62
4029.823	-107.62
4032.307	-109.62
4034.789	-108.62
4037.269	-105.62
4039.747	-106.62
4042.224	-112.62
4044.699	-108.62
4047.172	-106.62
4049.643	-104.62
4052.112	-105.62
4054.58	-108.62
4057.046	-103.62
4059.51	-107.62
4061.972	-109.62
4064.432	-106.62
4066.891	-104.62
4069.348	-106.62
4071.803	-107.62
4074.256	-105.62
4076.708	-108.62
4079.158	-108.62
4081.606	-104.62
4084.052	-105.62
4086.497	-105.62
4088.939	-110.62
4091.38	-107.62
4093.819	-111.62
4096.257	-108.62
4098.693	-108.62
4101.127	-112.62
4103.559	-115.62
4105.989	-76.62
4108.418	-74.62
4110.845	-65.62
4113.27	-61.62
4115.694	-55.62
4118.115	-43.62
4120.535	-109.62
4122.954	-105.62
4125.37	-106.62
4127.785	-108.62
4130.198	-108.62
4132.609	-105.62
4135.019	-109.62
4137.427	-107.62
4139.833	-111.62
4142.237	-113.62
