Data from 100000CFU2_A_RamanShift_1.txt Node
Date: Tue Jan 24 17:31:11 IST 2017
User: aro
Spectrometer: QEPB0276
Trigger mode: 0
Integration Time (sec): 5.000000E0
Scans to average: 1
Electric dark correction enabled: true
Nonlinearity correction enabled: false
Boxcar width: 0
XAxis mode: Raman Shifts
Number of Pixels in Spectrum: 1044
>>>>>Begin Spectral Data<<<<<
160.701	-32
166.742	-2
172.777	90
178.805	396
184.826	1082
190.841	2207
196.849	3456
202.85	4300
208.845	4485
214.833	4352
220.815	4152
226.789	4007
232.758	3923
238.719	3814
244.674	3695
250.623	3511
256.565	3346
262.5	3206
268.429	3053
274.351	2925
280.267	2808
286.176	2711
292.079	2612
297.975	2524
303.865	2451
309.748	2403
315.625	2364
321.495	2300
327.359	2251
333.217	2238
339.068	2214
344.912	2204
350.751	2192
356.583	2170
362.408	2169
368.227	2176
374.04	2173
379.847	2190
385.647	2200
391.44	2221
397.228	2244
403.009	2215
408.784	2257
414.553	2257
420.315	2258
426.071	2255
431.821	2260
437.565	2265
443.302	2249
449.033	2252
454.758	2235
460.477	2232
466.189	2221
471.896	2216
477.596	2209
483.29	2181
488.978	2181
494.66	2138
500.335	2159
506.005	2106
511.668	2072
517.325	2039
522.977	2001
528.622	1964
534.261	1951
539.894	1934
545.521	1918
551.141	1900
556.756	1886
562.365	1871
567.968	1853
573.565	1856
579.155	1837
584.74	1821
590.319	1847
595.892	1816
601.459	1802
607.02	1786
612.575	1780
618.124	1751
623.667	1741
629.204	1717
634.735	1687
640.261	1687
645.781	1694
651.294	1669
656.802	1653
662.304	1649
667.8	1649
673.29	1650
678.775	1645
684.254	1649
689.726	1640
695.193	1623
700.655	1610
706.11	1603
711.56	1581
717.004	1556
722.442	1553
727.874	1547
733.301	1547
738.722	1540
744.137	1535
749.547	1544
754.951	1537
760.349	1519
765.741	1531
771.128	1523
776.509	1524
781.885	1533
787.254	1513
792.618	1493
797.977	1502
803.33	1494
808.677	1475
814.019	1468
819.355	1457
824.686	1441
830.011	1419
835.33	1411
840.644	1409
845.952	1409
851.255	1408
856.552	1395
861.844	1386
867.13	1369
872.41	1374
877.686	1360
882.955	1336
888.219	1313
893.478	1307
898.731	1286
903.979	1259
909.221	1244
914.458	1230
919.69	1235
924.916	1231
930.136	1237
935.351	1226
940.561	1217
945.766	1221
950.965	1211
956.158	1201
961.347	1199
966.529	1174
971.707	1167
976.879	1149
982.046	1127
987.208	1119
992.364	1116
997.515	1137
1002.66	1139
1007.801	1155
1012.936	1151
1018.066	1162
1023.19	1170
1028.309	1157
1033.423	1163
1038.532	1174
1043.636	1162
1048.734	1141
1053.827	1122
1058.915	1132
1063.998	1128
1069.075	1120
1074.147	1117
1079.214	1117
1084.276	1127
1089.333	1144
1094.385	1153
1099.431	1160
1104.472	1143
1109.509	1153
1114.54	1132
1119.565	1125
1124.586	1095
1129.602	1093
1134.613	1092
1139.618	1091
1144.619	1088
1149.614	1082
1154.604	1093
1159.589	1111
1164.57	1108
1169.545	1106
1174.515	1111
1179.48	1107
1184.44	1090
1189.395	1101
1194.345	1095
1199.29	1071
1204.23	1075
1209.165	1090
1214.095	1090
1219.021	1104
1223.941	1113
1228.856	1123
1233.766	1132
1238.672	1128
1243.572	1141
1248.467	1108
1253.358	1111
1258.244	1075
1263.124	1077
1268	1060
1272.871	1064
1277.737	1043
1282.599	1034
1287.455	1047
1292.306	1051
1297.153	1064
1301.995	1061
1306.832	1057
1311.664	1069
1316.491	1064
1321.314	1064
1326.132	1058
1330.945	1052
1335.753	1044
1340.556	1024
1345.354	1011
1350.148	1013
1354.937	1000
1359.722	998
1364.501	974
1369.276	969
1374.046	974
1378.811	970
1383.572	955
1388.327	957
1393.079	954
1397.825	948
1402.567	946
1407.304	924
1412.036	933
1416.764	920
1421.487	933
1426.205	939
1430.919	945
1435.628	948
1440.333	958
1445.032	973
1449.727	979
1454.418	975
1459.104	981
1463.785	975
1468.462	967
1473.134	950
1477.802	952
1482.465	935
1487.123	963
1491.777	945
1496.426	946
1501.071	960
1505.711	958
1510.347	966
1514.978	991
1519.604	986
1524.226	997
1528.844	1001
1533.457	1006
1538.065	997
1542.669	988
1547.269	985
1551.864	988
1556.454	1003
1561.041	1009
1565.622	1026
1570.199	1039
1574.772	1050
1579.34	1075
1583.904	1090
1588.464	1098
1593.019	1114
1597.569	1145
1602.115	1142
1606.657	1161
1611.195	1167
1615.728	1176
1620.256	1199
1624.78	1215
1629.3	1251
1633.816	1244
1638.327	1267
1642.834	1271
1647.336	1293
1651.834	1299
1656.328	1298
1660.817	1273
1665.302	1253
1669.783	1235
1674.259	1209
1678.732	1176
1683.199	1114
1687.663	1104
1692.122	1066
1696.577	1018
1701.028	975
1705.474	928
1709.917	912
1714.355	893
1718.788	871
1723.218	851
1727.643	823
1732.064	822
1736.481	796
1740.893	780
1745.301	765
1749.705	731
1754.105	724
1758.501	706
1762.893	693
1767.28	684
1771.663	688
1776.042	669
1780.417	672
1784.787	665
1789.154	664
1793.516	670
1797.874	669
1802.228	668
1806.578	649
1810.924	642
1815.266	632
1819.603	626
1823.937	623
1828.266	610
1832.591	619
1836.913	605
1841.23	591
1845.543	592
1849.852	595
1854.156	606
1858.457	609
1862.754	614
1867.047	591
1871.335	618
1875.62	618
1879.9	616
1884.177	614
1888.449	615
1892.718	614
1896.982	604
1901.243	613
1905.499	608
1909.752	597
1914	605
1918.245	610
1922.485	610
1926.722	615
1930.954	614
1935.183	609
1939.408	612
1943.628	619
1947.845	621
1952.058	608
1956.267	612
1960.472	598
1964.673	593
1968.87	591
1973.063	595
1977.252	577
1981.438	579
1985.619	569
1989.797	570
1993.971	569
1998.14	575
2002.306	583
2006.469	590
2010.627	586
2014.781	588
2018.932	587
2023.078	588
2027.221	578
2031.36	591
2035.495	580
2039.627	570
2043.754	572
2047.878	566
2051.998	563
2056.114	571
2060.226	569
2064.334	584
2068.439	580
2072.54	594
2076.637	590
2080.73	595
2084.82	592
2088.906	584
2092.988	586
2097.066	590
2101.14	585
2105.211	584
2109.278	572
2113.342	576
2117.401	560
2121.457	563
2125.509	562
2129.558	556
2133.602	560
2137.643	564
2141.681	552
2145.714	555
2149.744	560
2153.77	542
2157.793	542
2161.812	535
2165.827	533
2169.838	527
2173.846	520
2177.851	513
2181.851	501
2185.848	500
2189.841	490
2193.831	482
2197.817	484
2201.799	484
2205.778	486
2209.753	479
2213.725	482
2217.693	485
2221.657	477
2225.618	473
2229.575	466
2233.529	469
2237.479	456
2241.425	448
2245.368	437
2249.307	450
2253.243	437
2257.175	430
2261.104	427
2265.029	410
2268.95	420
2272.868	422
2276.783	392
2280.694	400
2284.601	395
2288.505	391
2292.405	379
2296.302	370
2300.195	370
2304.085	364
2307.971	357
2311.854	360
2315.734	352
2319.609	340
2323.482	348
2327.351	334
2331.216	333
2335.078	335
2338.937	329
2342.792	328
2346.643	324
2350.492	326
2354.336	330
2358.178	328
2362.015	330
2365.85	332
2369.681	326
2373.508	316
2377.333	323
2381.153	326
2384.971	319
2388.785	312
2392.595	309
2396.402	322
2400.206	316
2404.007	315
2407.804	321
2411.597	301
2415.388	305
2419.174	308
2422.958	313
2426.738	295
2430.515	302
2434.289	300
2438.059	300
2441.825	297
2445.589	298
2449.349	295
2453.106	291
2456.859	285
2460.61	291
2464.356	281
2468.1	270
2471.84	272
2475.577	284
2479.311	269
2483.041	284
2486.768	276
2490.492	282
2494.213	273
2497.93	272
2501.644	279
2505.355	267
2509.062	276
2512.766	274
2516.467	260
2520.165	269
2523.859	270
2527.551	267
2531.239	269
2534.923	252
2538.605	259
2542.283	250
2545.958	249
2549.63	246
2553.299	244
2556.964	250
2560.626	247
2564.285	256
2567.941	251
2571.594	237
2575.243	243
2578.89	241
2582.533	247
2586.173	230
2589.809	233
2593.443	231
2597.073	230
2600.701	226
2604.325	224
2607.946	227
2611.564	230
2615.178	219
2618.79	224
2622.398	228
2626.004	218
2629.606	221
2633.205	215
2636.801	213
2640.394	220
2643.983	216
2647.57	209
2651.153	203
2654.734	212
2658.311	207
2661.885	201
2665.456	205
2669.025	192
2672.589	197
2676.151	195
2679.71	190
2683.266	185
2686.819	190
2690.368	188
2693.915	194
2697.458	181
2700.999	184
2704.536	179
2708.071	178
2711.602	184
2715.13	174
2718.656	176
2722.178	178
2725.697	179
2729.214	174
2732.727	174
2736.237	173
2739.744	174
2743.249	169
2746.75	179
2750.248	177
2753.743	177
2757.236	177
2760.725	172
2764.211	173
2767.695	171
2771.175	164
2774.652	169
2778.127	169
2781.598	175
2785.067	166
2788.532	172
2791.995	167
2795.455	167
2798.911	174
2802.365	174
2805.816	173
2809.264	176
2812.709	179
2816.151	178
2819.59	171
2823.026	180
2826.46	179
2829.89	175
2833.318	184
2836.742	178
2840.164	181
2843.583	183
2846.999	183
2850.412	177
2853.822	188
2857.229	192
2860.634	195
2864.035	199
2867.434	194
2870.83	202
2874.223	210
2877.613	210
2881	210
2884.385	212
2887.766	211
2891.145	201
2894.521	212
2897.894	208
2901.264	216
2904.631	213
2907.996	220
2911.358	220
2914.717	226
2918.073	224
2921.426	230
2924.777	246
2928.124	233
2931.469	242
2934.811	244
2938.15	251
2941.487	263
2944.821	254
2948.152	270
2951.48	277
2954.805	266
2958.128	280
2961.447	284
2964.765	293
2968.079	290
2971.39	307
2974.699	318
2978.005	326
2981.308	322
2984.609	336
2987.907	349
2991.202	357
2994.494	368
2997.784	376
3001.07	385
3004.355	388
3007.636	407
3010.915	409
3014.191	423
3017.464	433
3020.734	439
3024.002	458
3027.267	457
3030.53	473
3033.789	485
3037.046	483
3040.301	497
3043.552	517
3046.801	522
3050.048	526
3053.291	550
3056.532	570
3059.771	569
3063.006	608
3066.239	623
3069.469	648
3072.697	662
3075.922	686
3079.144	698
3082.364	706
3085.581	734
3088.795	752
3092.007	763
3095.216	776
3098.423	794
3101.627	812
3104.828	835
3108.026	865
3111.222	869
3114.416	886
3117.607	912
3120.795	942
3123.98	957
3127.163	987
3130.344	994
3133.521	1027
3136.696	1054
3139.869	1074
3143.039	1088
3146.206	1107
3149.371	1118
3152.533	1123
3155.693	1134
3158.85	1143
3162.005	1147
3165.157	1168
3168.306	1166
3171.453	1159
3174.597	1166
3177.739	1170
3180.878	1188
3184.014	1189
3187.149	1181
3190.28	1180
3193.409	1192
3196.536	1198
3199.659	1209
3202.781	1209
3205.9	1207
3209.016	1195
3212.13	1203
3215.241	1199
3218.35	1177
3221.456	1182
3224.56	1170
3227.661	1172
3230.76	1155
3233.856	1137
3236.95	1112
3240.041	1105
3243.13	1097
3246.216	1104
3249.3	1093
3252.382	1077
3255.46	1074
3258.537	1065
3261.611	1076
3264.682	1063
3267.751	1070
3270.818	1055
3273.882	1055
3276.943	1056
3280.002	1051
3283.059	1021
3286.113	1018
3289.165	985
3292.214	992
3295.261	976
3298.306	979
3301.348	948
3304.387	941
3307.425	926
3310.459	910
3313.492	911
3316.521	885
3319.549	884
3322.574	871
3325.597	850
3328.617	863
3331.635	849
3334.65	833
3337.663	836
3340.674	833
3343.682	825
3346.688	828
3349.691	818
3352.692	819
3355.691	820
3358.687	793
3361.681	808
3364.673	781
3367.662	788
3370.649	774
3373.633	752
3376.615	742
3379.595	731
3382.572	731
3385.547	725
3388.52	716
3391.49	690
3394.458	690
3397.424	688
3400.387	658
3403.348	666
3406.307	655
3409.263	654
3412.217	644
3415.168	628
3418.118	630
3421.065	631
3424.009	608
3426.951	607
3429.891	588
3432.829	589
3435.764	575
3438.697	557
3441.628	548
3444.557	528
3447.483	516
3450.407	515
3453.328	490
3456.247	470
3459.164	469
3462.079	460
3464.991	429
3467.902	416
3470.809	406
3473.715	394
3476.618	393
3479.519	369
3482.418	361
3485.315	348
3488.209	337
3491.101	339
3493.99	328
3496.878	313
3499.763	304
3502.646	289
3505.527	279
3508.405	261
3511.281	248
3514.155	250
3517.027	234
3519.897	229
3522.764	210
3525.629	193
3528.492	187
3531.352	182
3534.211	165
3537.067	157
3539.921	152
3542.773	142
3545.622	123
3548.469	115
3551.315	109
3554.157	97
3556.998	104
3559.837	90
3562.673	85
3565.507	81
3568.339	77
3571.169	71
3573.996	66
3576.822	57
3579.645	51
3582.466	45
3585.285	42
3588.101	34
3590.916	29
3593.728	22
3596.538	21
3599.346	7
3602.152	8
3604.956	10
3607.757	0
3610.556	-8
3613.354	-4
3616.149	-9
3618.942	-14
3621.732	-14
3624.521	-18
3627.307	-13
3630.092	-27
3632.874	-27
3635.654	-29
3638.432	-35
3641.208	-38
3643.982	-35
3646.753	-40
3649.523	-46
3652.29	-44
3655.055	-46
3657.818	-46
3660.579	-48
3663.338	-56
3666.095	-55
3668.849	-58
3671.602	-58
3674.352	-69
3677.101	-65
3679.847	-73
3682.591	-73
3685.333	-71
3688.073	-75
3690.811	-75
3693.547	-70
3696.281	-75
3699.013	-81
3701.742	-80
3704.47	-83
3707.195	-87
3709.919	-86
3712.64	-84
3715.359	-83
3718.076	-85
3720.792	-85
3723.505	-84
3726.216	-87
3728.925	-87
3731.632	-88
3734.336	-96
3737.039	-96
3739.74	-94
3742.439	-94
3745.136	-95
3747.83	-97
3750.523	-91
3753.213	-93
3755.902	-94
3758.589	-93
3761.273	-93
3763.956	-96
3766.636	-97
3769.315	-100
3771.991	-101
3774.665	-98
3777.338	-99
3780.008	-100
3782.677	-101
3785.343	-101
3788.007	-103
3790.67	-99
3793.33	-100
3795.989	-100
3798.645	-103
3801.299	-100
3803.952	-101
3806.602	-101
3809.251	-105
3811.897	-102
3814.542	-102
3817.184	-105
3819.825	-103
3822.463	-105
3825.1	-106
3827.735	-104
3830.367	-108
3832.998	-106
3835.627	-105
3838.253	-102
3840.878	-103
3843.501	-102
3846.122	-106
3848.741	-105
3851.358	-107
3853.973	-109
3856.586	-105
3859.197	-107
3861.806	-108
3864.414	-108
3867.019	-106
3869.622	-106
3872.224	-104
3874.823	-103
3877.421	-99
3880.016	-98
3882.61	-98
3885.202	-96
3887.792	-96
3890.38	-102
3892.966	-108
3895.55	-107
3898.132	-105
3900.713	-108
3903.291	-107
3905.868	-109
3908.442	-110
3911.015	-113
3913.586	-110
3916.155	-109
3918.722	-110
3921.287	-111
3923.85	-110
3926.411	-109
3928.971	-109
3931.528	-109
3934.084	-108
3936.638	-111
3939.19	-110
3941.74	-112
3944.288	-109
3946.834	-113
3949.378	-113
3951.921	-116
3954.462	-112
3957	-109
3959.537	-111
3962.072	-108
3964.606	-107
3967.137	-107
3969.667	-109
3972.194	-110
3974.72	-110
3977.244	-112
3979.766	-113
3982.286	-107
3984.805	-109
3987.321	-107
3989.836	-107
3992.349	-109
3994.86	-110
3997.369	-109
3999.877	-112
4002.382	-108
4004.886	-110
4007.388	-107
4009.888	-111
4012.386	-111
4014.883	-103
4017.377	-109
4019.87	-107
4022.361	-109
4024.85	-109
4027.338	-111
4029.823	-113
4032.307	-114
4034.789	-115
4037.269	-110
4039.747	-111
4042.224	-110
4044.699	-106
4047.172	-109
4049.643	-108
4052.112	-104
4054.58	-107
4057.046	-106
4059.51	-110
4061.972	-112
4064.432	-112
4066.891	-111
4069.348	-114
4071.803	-113
4074.256	-111
4076.708	-111
4079.158	-109
4081.606	-106
4084.052	-106
4086.497	-106
4088.939	-112
4091.38	-110
4093.819	-113
4096.257	-114
4098.693	-112
4101.127	-112
4103.559	-115
4105.989	-77
4108.418	-70
4110.845	-64
4113.27	-60
4115.694	-52
4118.115	-48
4120.535	-113
4122.954	-108
4125.37	-108
4127.785	-114
4130.198	-112
4132.609	-110
4135.019	-114
4137.427	-111
4139.833	-113
4142.237	-114
