Data from 1000CFU3_A_RamanShift_1.txt Node
Date: Tue Jan 24 17:25:11 IST 2017
User: aro
Spectrometer: QEPB0276
Trigger mode: 0
Integration Time (sec): 5.000000E0
Scans to average: 1
Electric dark correction enabled: true
Nonlinearity correction enabled: false
Boxcar width: 0
XAxis mode: Raman Shifts
Number of Pixels in Spectrum: 1044
>>>>>Begin Spectral Data<<<<<
160.701	-30.75
166.742	-0.75
172.777	93.25
178.805	390.25
184.826	1106.25
190.841	2263.25
196.849	3568.25
202.85	4420.25
208.845	4598.25
214.833	4461.25
220.815	4347.25
226.789	4193.25
232.758	4121.25
238.719	3969.25
244.674	3818.25
250.623	3696.25
256.565	3525.25
262.5	3343.25
268.429	3250.25
274.351	3126.25
280.267	2994.25
286.176	2901.25
292.079	2811.25
297.975	2718.25
303.865	2662.25
309.748	2575.25
315.625	2517.25
321.495	2470.25
327.359	2426.25
333.217	2402.25
339.068	2389.25
344.912	2372.25
350.751	2332.25
356.583	2370.25
362.408	2380.25
368.227	2339.25
374.04	2355.25
379.847	2369.25
385.647	2380.25
391.44	2393.25
397.228	2402.25
403.009	2421.25
408.784	2425.25
414.553	2441.25
420.315	2452.25
426.071	2444.25
431.821	2461.25
437.565	2443.25
443.302	2456.25
449.033	2443.25
454.758	2443.25
460.477	2405.25
466.189	2424.25
471.896	2395.25
477.596	2394.25
483.29	2394.25
488.978	2382.25
494.66	2360.25
500.335	2320.25
506.005	2287.25
511.668	2253.25
517.325	2215.25
522.977	2196.25
528.622	2158.25
534.261	2137.25
539.894	2123.25
545.521	2103.25
551.141	2095.25
556.756	2097.25
562.365	2086.25
567.968	2089.25
573.565	2057.25
579.155	2047.25
584.74	2040.25
590.319	2027.25
595.892	1993.25
601.459	1994.25
607.02	1981.25
612.575	1947.25
618.124	1941.25
623.667	1930.25
629.204	1920.25
634.735	1911.25
640.261	1895.25
645.781	1862.25
651.294	1871.25
656.802	1864.25
662.304	1865.25
667.8	1854.25
673.29	1847.25
678.775	1845.25
684.254	1836.25
689.726	1839.25
695.193	1820.25
700.655	1805.25
706.11	1798.25
711.56	1792.25
717.004	1779.25
722.442	1763.25
727.874	1763.25
733.301	1752.25
738.722	1756.25
744.137	1737.25
749.547	1741.25
754.951	1738.25
760.349	1733.25
765.741	1711.25
771.128	1724.25
776.509	1739.25
781.885	1724.25
787.254	1739.25
792.618	1721.25
797.977	1709.25
803.33	1694.25
808.677	1694.25
814.019	1669.25
819.355	1675.25
824.686	1650.25
830.011	1629.25
835.33	1621.25
840.644	1610.25
845.952	1616.25
851.255	1601.25
856.552	1616.25
861.844	1605.25
867.13	1588.25
872.41	1593.25
877.686	1575.25
882.955	1547.25
888.219	1525.25
893.478	1514.25
898.731	1490.25
903.979	1482.25
909.221	1464.25
914.458	1439.25
919.69	1444.25
924.916	1449.25
930.136	1431.25
935.351	1457.25
940.561	1423.25
945.766	1429.25
950.965	1426.25
956.158	1415.25
961.347	1419.25
966.529	1389.25
971.707	1366.25
976.879	1356.25
982.046	1337.25
987.208	1332.25
992.364	1329.25
997.515	1354.25
1002.66	1354.25
1007.801	1376.25
1012.936	1352.25
1018.066	1387.25
1023.19	1395.25
1028.309	1395.25
1033.423	1391.25
1038.532	1401.25
1043.636	1371.25
1048.734	1351.25
1053.827	1355.25
1058.915	1333.25
1063.998	1323.25
1069.075	1319.25
1074.147	1317.25
1079.214	1333.25
1084.276	1339.25
1089.333	1348.25
1094.385	1364.25
1099.431	1378.25
1104.472	1374.25
1109.509	1376.25
1114.54	1366.25
1119.565	1337.25
1124.586	1323.25
1129.602	1301.25
1134.613	1295.25
1139.618	1296.25
1144.619	1299.25
1149.614	1317.25
1154.604	1301.25
1159.589	1325.25
1164.57	1336.25
1169.545	1334.25
1174.515	1338.25
1179.48	1331.25
1184.44	1318.25
1189.395	1313.25
1194.345	1303.25
1199.29	1293.25
1204.23	1312.25
1209.165	1303.25
1214.095	1319.25
1219.021	1326.25
1223.941	1331.25
1228.856	1357.25
1233.766	1364.25
1238.672	1347.25
1243.572	1338.25
1248.467	1357.25
1253.358	1328.25
1258.244	1322.25
1263.124	1283.25
1268	1275.25
1272.871	1261.25
1277.737	1252.25
1282.599	1254.25
1287.455	1256.25
1292.306	1259.25
1297.153	1289.25
1301.995	1291.25
1306.832	1278.25
1311.664	1296.25
1316.491	1289.25
1321.314	1284.25
1326.132	1282.25
1330.945	1263.25
1335.753	1272.25
1340.556	1249.25
1345.354	1229.25
1350.148	1216.25
1354.937	1206.25
1359.722	1191.25
1364.501	1193.25
1369.276	1186.25
1374.046	1147.25
1378.811	1165.25
1383.572	1164.25
1388.327	1161.25
1393.079	1167.25
1397.825	1151.25
1402.567	1136.25
1407.304	1138.25
1412.036	1130.25
1416.764	1127.25
1421.487	1126.25
1426.205	1136.25
1430.919	1149.25
1435.628	1160.25
1440.333	1173.25
1445.032	1166.25
1449.727	1185.25
1454.418	1177.25
1459.104	1196.25
1463.785	1202.25
1468.462	1177.25
1473.134	1161.25
1477.802	1145.25
1482.465	1156.25
1487.123	1155.25
1491.777	1153.25
1496.426	1151.25
1501.071	1143.25
1505.711	1169.25
1510.347	1176.25
1514.978	1189.25
1519.604	1173.25
1524.226	1203.25
1528.844	1203.25
1533.457	1214.25
1538.065	1206.25
1542.669	1196.25
1547.269	1187.25
1551.864	1183.25
1556.454	1206.25
1561.041	1215.25
1565.622	1221.25
1570.199	1236.25
1574.772	1245.25
1579.34	1278.25
1583.904	1298.25
1588.464	1307.25
1593.019	1326.25
1597.569	1342.25
1602.115	1336.25
1606.657	1344.25
1611.195	1353.25
1615.728	1371.25
1620.256	1382.25
1624.78	1399.25
1629.3	1424.25
1633.816	1452.25
1638.327	1464.25
1642.834	1474.25
1647.336	1481.25
1651.834	1495.25
1656.328	1494.25
1660.817	1478.25
1665.302	1459.25
1669.783	1433.25
1674.259	1389.25
1678.732	1354.25
1683.199	1319.25
1687.663	1278.25
1692.122	1243.25
1696.577	1194.25
1701.028	1159.25
1705.474	1116.25
1709.917	1088.25
1714.355	1065.25
1718.788	1046.25
1723.218	1046.25
1727.643	1014.25
1732.064	1005.25
1736.481	969.25
1740.893	963.25
1745.301	928.25
1749.705	911.25
1754.105	888.25
1758.501	885.25
1762.893	858.25
1767.28	862.25
1771.663	852.25
1776.042	824.25
1780.417	841.25
1784.787	844.25
1789.154	834.25
1793.516	844.25
1797.874	839.25
1802.228	835.25
1806.578	819.25
1810.924	816.25
1815.266	788.25
1819.603	796.25
1823.937	777.25
1828.266	780.25
1832.591	773.25
1836.913	775.25
1841.23	763.25
1845.543	762.25
1849.852	765.25
1854.156	763.25
1858.457	776.25
1862.754	778.25
1867.047	784.25
1871.335	785.25
1875.62	777.25
1879.9	785.25
1884.177	781.25
1888.449	790.25
1892.718	790.25
1896.982	779.25
1901.243	772.25
1905.499	769.25
1909.752	769.25
1914	768.25
1918.245	768.25
1922.485	757.25
1926.722	767.25
1930.954	775.25
1935.183	774.25
1939.408	773.25
1943.628	774.25
1947.845	770.25
1952.058	775.25
1956.267	777.25
1960.472	765.25
1964.673	759.25
1968.87	748.25
1973.063	740.25
1977.252	739.25
1981.438	730.25
1985.619	732.25
1989.797	736.25
1993.971	729.25
1998.14	719.25
2002.306	730.25
2006.469	738.25
2010.627	743.25
2014.781	731.25
2018.932	739.25
2023.078	740.25
2027.221	746.25
2031.36	728.25
2035.495	722.25
2039.627	706.25
2043.754	726.25
2047.878	715.25
2051.998	712.25
2056.114	708.25
2060.226	725.25
2064.334	728.25
2068.439	737.25
2072.54	735.25
2076.637	736.25
2080.73	733.25
2084.82	724.25
2088.906	732.25
2092.988	723.25
2097.066	721.25
2101.14	726.25
2105.211	725.25
2109.278	720.25
2113.342	716.25
2117.401	713.25
2121.457	703.25
2125.509	710.25
2129.558	699.25
2133.602	692.25
2137.643	696.25
2141.681	696.25
2145.714	679.25
2149.744	668.25
2153.77	678.25
2157.793	685.25
2161.812	655.25
2165.827	664.25
2169.838	657.25
2173.846	644.25
2177.851	632.25
2181.851	629.25
2185.848	618.25
2189.841	615.25
2193.831	613.25
2197.817	609.25
2201.799	613.25
2205.778	599.25
2209.753	601.25
2213.725	605.25
2217.693	607.25
2221.657	597.25
2225.618	598.25
2229.575	600.25
2233.529	601.25
2237.479	586.25
2241.425	580.25
2245.368	574.25
2249.307	561.25
2253.243	554.25
2257.175	552.25
2261.104	539.25
2265.029	540.25
2268.95	531.25
2272.868	529.25
2276.783	515.25
2280.694	502.25
2284.601	499.25
2288.505	507.25
2292.405	500.25
2296.302	483.25
2300.195	489.25
2304.085	481.25
2307.971	476.25
2311.854	469.25
2315.734	468.25
2319.609	459.25
2323.482	434.25
2327.351	429.25
2331.216	441.25
2335.078	427.25
2338.937	420.25
2342.792	421.25
2346.643	422.25
2350.492	421.25
2354.336	421.25
2358.178	422.25
2362.015	428.25
2365.85	424.25
2369.681	425.25
2373.508	428.25
2377.333	425.25
2381.153	426.25
2384.971	425.25
2388.785	414.25
2392.595	415.25
2396.402	411.25
2400.206	418.25
2404.007	405.25
2407.804	414.25
2411.597	410.25
2415.388	406.25
2419.174	404.25
2422.958	413.25
2426.738	406.25
2430.515	400.25
2434.289	405.25
2438.059	398.25
2441.825	399.25
2445.589	387.25
2449.349	393.25
2453.106	387.25
2456.859	382.25
2460.61	387.25
2464.356	373.25
2468.1	370.25
2471.84	370.25
2475.577	360.25
2479.311	367.25
2483.041	381.25
2486.768	377.25
2490.492	375.25
2494.213	374.25
2497.93	371.25
2501.644	362.25
2505.355	371.25
2509.062	372.25
2512.766	365.25
2516.467	368.25
2520.165	364.25
2523.859	355.25
2527.551	357.25
2531.239	353.25
2534.923	345.25
2538.605	356.25
2542.283	350.25
2545.958	349.25
2549.63	347.25
2553.299	343.25
2556.964	337.25
2560.626	343.25
2564.285	330.25
2567.941	340.25
2571.594	327.25
2575.243	326.25
2578.89	326.25
2582.533	319.25
2586.173	313.25
2589.809	319.25
2593.443	317.25
2597.073	313.25
2600.701	312.25
2604.325	313.25
2607.946	298.25
2611.564	315.25
2615.178	312.25
2618.79	307.25
2622.398	297.25
2626.004	296.25
2629.606	298.25
2633.205	290.25
2636.801	296.25
2640.394	286.25
2643.983	285.25
2647.57	277.25
2651.153	285.25
2654.734	283.25
2658.311	273.25
2661.885	276.25
2665.456	277.25
2669.025	265.25
2672.589	264.25
2676.151	269.25
2679.71	258.25
2683.266	262.25
2686.819	267.25
2690.368	251.25
2693.915	260.25
2697.458	250.25
2700.999	259.25
2704.536	245.25
2708.071	246.25
2711.602	253.25
2715.13	245.25
2718.656	239.25
2722.178	239.25
2725.697	243.25
2729.214	232.25
2732.727	249.25
2736.237	250.25
2739.744	246.25
2743.249	245.25
2746.75	247.25
2750.248	245.25
2753.743	247.25
2757.236	236.25
2760.725	228.25
2764.211	236.25
2767.695	236.25
2771.175	229.25
2774.652	231.25
2778.127	227.25
2781.598	231.25
2785.067	227.25
2788.532	221.25
2791.995	225.25
2795.455	231.25
2798.911	228.25
2802.365	238.25
2805.816	236.25
2809.264	233.25
2812.709	231.25
2816.151	240.25
2819.59	225.25
2823.026	238.25
2826.46	231.25
2829.89	239.25
2833.318	234.25
2836.742	233.25
2840.164	232.25
2843.583	231.25
2846.999	232.25
2850.412	239.25
2853.822	246.25
2857.229	253.25
2860.634	255.25
2864.035	254.25
2867.434	256.25
2870.83	264.25
2874.223	258.25
2877.613	254.25
2881	254.25
2884.385	264.25
2887.766	263.25
2891.145	261.25
2894.521	266.25
2897.894	259.25
2901.264	258.25
2904.631	260.25
2907.996	277.25
2911.358	261.25
2914.717	270.25
2918.073	274.25
2921.426	270.25
2924.777	292.25
2928.124	288.25
2931.469	283.25
2934.811	285.25
2938.15	303.25
2941.487	309.25
2944.821	307.25
2948.152	311.25
2951.48	306.25
2954.805	320.25
2958.128	315.25
2961.447	326.25
2964.765	329.25
2968.079	333.25
2971.39	334.25
2974.699	345.25
2978.005	356.25
2981.308	368.25
2984.609	378.25
2987.907	386.25
2991.202	393.25
2994.494	413.25
2997.784	407.25
3001.07	420.25
3004.355	440.25
3007.636	444.25
3010.915	452.25
3014.191	463.25
3017.464	461.25
3020.734	472.25
3024.002	481.25
3027.267	481.25
3030.53	493.25
3033.789	506.25
3037.046	521.25
3040.301	520.25
3043.552	547.25
3046.801	550.25
3050.048	567.25
3053.291	580.25
3056.532	596.25
3059.771	610.25
3063.006	623.25
3066.239	652.25
3069.469	672.25
3072.697	698.25
3075.922	705.25
3079.144	722.25
3082.364	745.25
3085.581	755.25
3088.795	775.25
3092.007	786.25
3095.216	811.25
3098.423	812.25
3101.627	853.25
3104.828	856.25
3108.026	875.25
3111.222	905.25
3114.416	921.25
3117.607	944.25
3120.795	948.25
3123.98	986.25
3127.163	988.25
3130.344	1008.25
3133.521	1048.25
3136.696	1064.25
3139.869	1086.25
3143.039	1101.25
3146.206	1130.25
3149.371	1129.25
3152.533	1153.25
3155.693	1153.25
3158.85	1171.25
3162.005	1173.25
3165.157	1173.25
3168.306	1181.25
3171.453	1180.25
3174.597	1182.25
3177.739	1195.25
3180.878	1193.25
3184.014	1184.25
3187.149	1190.25
3190.28	1198.25
3193.409	1201.25
3196.536	1208.25
3199.659	1210.25
3202.781	1224.25
3205.9	1224.25
3209.016	1210.25
3212.13	1224.25
3215.241	1194.25
3218.35	1192.25
3221.456	1195.25
3224.56	1180.25
3227.661	1158.25
3230.76	1149.25
3233.856	1146.25
3236.95	1137.25
3240.041	1121.25
3243.13	1101.25
3246.216	1101.25
3249.3	1100.25
3252.382	1078.25
3255.46	1068.25
3258.537	1084.25
3261.611	1065.25
3264.682	1078.25
3267.751	1074.25
3270.818	1056.25
3273.882	1069.25
3276.943	1050.25
3280.002	1030.25
3283.059	1025.25
3286.113	1014.25
3289.165	1000.25
3292.214	987.25
3295.261	978.25
3298.306	963.25
3301.348	950.25
3304.387	940.25
3307.425	928.25
3310.459	915.25
3313.492	900.25
3316.521	888.25
3319.549	879.25
3322.574	872.25
3325.597	864.25
3328.617	857.25
3331.635	843.25
3334.65	837.25
3337.663	831.25
3340.674	827.25
3343.682	825.25
3346.688	836.25
3349.691	826.25
3352.692	827.25
3355.691	805.25
3358.687	812.25
3361.681	809.25
3364.673	787.25
3367.662	773.25
3370.649	763.25
3373.633	766.25
3376.615	748.25
3379.595	740.25
3382.572	732.25
3385.547	723.25
3388.52	703.25
3391.49	692.25
3394.458	685.25
3397.424	675.25
3400.387	660.25
3403.348	661.25
3406.307	661.25
3409.263	644.25
3412.217	640.25
3415.168	632.25
3418.118	635.25
3421.065	617.25
3424.009	611.25
3426.951	609.25
3429.891	597.25
3432.829	589.25
3435.764	576.25
3438.697	558.25
3441.628	544.25
3444.557	532.25
3447.483	512.25
3450.407	503.25
3453.328	493.25
3456.247	482.25
3459.164	459.25
3462.079	451.25
3464.991	434.25
3467.902	424.25
3470.809	403.25
3473.715	397.25
3476.618	389.25
3479.519	370.25
3482.418	361.25
3485.315	355.25
3488.209	341.25
3491.101	333.25
3493.99	319.25
3496.878	314.25
3499.763	301.25
3502.646	294.25
3505.527	278.25
3508.405	275.25
3511.281	257.25
3514.155	247.25
3517.027	232.25
3519.897	216.25
3522.764	215.25
3525.629	197.25
3528.492	192.25
3531.352	185.25
3534.211	175.25
3537.067	155.25
3539.921	146.25
3542.773	137.25
3545.622	119.25
3548.469	122.25
3551.315	117.25
3554.157	105.25
3556.998	104.25
3559.837	95.25
3562.673	93.25
3565.507	88.25
3568.339	79.25
3571.169	70.25
3573.996	60.25
3576.822	54.25
3579.645	50.25
3582.466	44.25
3585.285	38.25
3588.101	40.25
3590.916	31.25
3593.728	31.25
3596.538	21.25
3599.346	19.25
3602.152	13.25
3604.956	9.25
3607.757	3.25
3610.556	-2.75
3613.354	-2.75
3616.149	-7.75
3618.942	-11.75
3621.732	-13.75
3624.521	-16.75
3627.307	-20.75
3630.092	-25.75
3632.874	-24.75
3635.654	-23.75
3638.432	-31.75
3641.208	-32.75
3643.982	-35.75
3646.753	-41.75
3649.523	-40.75
3652.29	-45.75
3655.055	-46.75
3657.818	-48.75
3660.579	-52.75
3663.338	-53.75
3666.095	-56.75
3668.849	-57.75
3671.602	-59.75
3674.352	-66.75
3677.101	-70.75
3679.847	-68.75
3682.591	-70.75
3685.333	-72.75
3688.073	-72.75
3690.811	-73.75
3693.547	-69.75
3696.281	-74.75
3699.013	-75.75
3701.742	-83.75
3704.47	-79.75
3707.195	-81.75
3709.919	-84.75
3712.64	-85.75
3715.359	-84.75
3718.076	-87.75
3720.792	-86.75
3723.505	-84.75
3726.216	-90.75
3728.925	-87.75
3731.632	-86.75
3734.336	-93.75
3737.039	-92.75
3739.74	-92.75
3742.439	-95.75
3745.136	-92.75
3747.83	-94.75
3750.523	-87.75
3753.213	-94.75
3755.902	-97.75
3758.589	-95.75
3761.273	-97.75
3763.956	-97.75
3766.636	-97.75
3769.315	-98.75
3771.991	-104.75
3774.665	-97.75
3777.338	-96.75
3780.008	-99.75
3782.677	-97.75
3785.343	-96.75
3788.007	-101.75
3790.67	-101.75
3793.33	-101.75
3795.989	-101.75
3798.645	-104.75
3801.299	-105.75
3803.952	-103.75
3806.602	-104.75
3809.251	-104.75
3811.897	-99.75
3814.542	-99.75
3817.184	-101.75
3819.825	-101.75
3822.463	-103.75
3825.1	-106.75
3827.735	-107.75
3830.367	-108.75
3832.998	-106.75
3835.627	-108.75
3838.253	-108.75
3840.878	-107.75
3843.501	-104.75
3846.122	-105.75
3848.741	-107.75
3851.358	-105.75
3853.973	-106.75
3856.586	-105.75
3859.197	-106.75
3861.806	-109.75
3864.414	-109.75
3867.019	-104.75
3869.622	-104.75
3872.224	-104.75
3874.823	-106.75
3877.421	-101.75
3880.016	-103.75
3882.61	-100.75
3885.202	-96.75
3887.792	-98.75
3890.38	-102.75
3892.966	-105.75
3895.55	-106.75
3898.132	-107.75
3900.713	-107.75
3903.291	-106.75
3905.868	-109.75
3908.442	-108.75
3911.015	-112.75
3913.586	-114.75
3916.155	-113.75
3918.722	-114.75
3921.287	-111.75
3923.85	-107.75
3926.411	-113.75
3928.971	-108.75
3931.528	-112.75
3934.084	-109.75
3936.638	-109.75
3939.19	-111.75
3941.74	-111.75
3944.288	-112.75
3946.834	-114.75
3949.378	-115.75
3951.921	-112.75
3954.462	-116.75
3957	-110.75
3959.537	-110.75
3962.072	-103.75
3964.606	-107.75
3967.137	-109.75
3969.667	-111.75
3972.194	-110.75
3974.72	-112.75
3977.244	-112.75
3979.766	-115.75
3982.286	-108.75
3984.805	-112.75
3987.321	-106.75
3989.836	-112.75
3992.349	-106.75
3994.86	-111.75
3997.369	-110.75
3999.877	-106.75
4002.382	-105.75
4004.886	-110.75
4007.388	-107.75
4009.888	-109.75
4012.386	-114.75
4014.883	-106.75
4017.377	-108.75
4019.87	-107.75
4022.361	-110.75
4024.85	-108.75
4027.338	-111.75
4029.823	-111.75
4032.307	-111.75
4034.789	-111.75
4037.269	-108.75
4039.747	-111.75
4042.224	-111.75
4044.699	-109.75
4047.172	-110.75
4049.643	-110.75
4052.112	-108.75
4054.58	-106.75
4057.046	-111.75
4059.51	-112.75
4061.972	-113.75
4064.432	-115.75
4066.891	-111.75
4069.348	-110.75
4071.803	-111.75
4074.256	-109.75
4076.708	-111.75
4079.158	-108.75
4081.606	-105.75
4084.052	-108.75
4086.497	-109.75
4088.939	-113.75
4091.38	-111.75
4093.819	-114.75
4096.257	-112.75
4098.693	-109.75
4101.127	-114.75
4103.559	-117.75
4105.989	-75.75
4108.418	-70.75
4110.845	-65.75
4113.27	-64.75
4115.694	-56.75
4118.115	-44.75
4120.535	-114.75
4122.954	-113.75
4125.37	-112.75
4127.785	-112.75
4130.198	-110.75
4132.609	-111.75
4135.019	-112.75
4137.427	-110.75
4139.833	-113.75
4142.237	-114.75
