Data from 10000-000CFU3_B_RamanShift_1.txt Node
Date: Tue Jan 24 18:17:21 IST 2017
User: aro
Spectrometer: QEPB0276
Trigger mode: 0
Integration Time (sec): 5.000000E0
Scans to average: 1
Electric dark correction enabled: true
Nonlinearity correction enabled: false
Boxcar width: 0
XAxis mode: Raman Shifts
Number of Pixels in Spectrum: 1044
>>>>>Begin Spectral Data<<<<<
160.701	-5.5
166.742	0.5
172.777	36.5
178.805	128.5
184.826	333.5
190.841	665.5
196.849	1030.5
202.85	1283.5
208.845	1326.5
214.833	1301.5
220.815	1275.5
226.789	1243.5
232.758	1237.5
238.719	1206.5
244.674	1163.5
250.623	1131.5
256.565	1097.5
262.5	1058.5
268.429	1018.5
274.351	1010.5
280.267	982.5
286.176	957.5
292.079	944.5
297.975	928.5
303.865	894.5
309.748	899.5
315.625	879.5
321.495	881.5
327.359	872.5
333.217	855.5
339.068	862.5
344.912	866.5
350.751	865.5
356.583	857.5
362.408	862.5
368.227	864.5
374.04	860.5
379.847	869.5
385.647	867.5
391.44	867.5
397.228	873.5
403.009	883.5
408.784	900.5
414.553	896.5
420.315	907.5
426.071	901.5
431.821	916.5
437.565	893.5
443.302	894.5
449.033	901.5
454.758	895.5
460.477	887.5
466.189	868.5
471.896	882.5
477.596	870.5
483.29	854.5
488.978	862.5
494.66	852.5
500.335	843.5
506.005	814.5
511.668	779.5
517.325	764.5
522.977	742.5
528.622	715.5
534.261	703.5
539.894	696.5
545.521	691.5
551.141	691.5
556.756	683.5
562.365	668.5
567.968	666.5
573.565	656.5
579.155	653.5
584.74	654.5
590.319	645.5
595.892	649.5
601.459	643.5
607.02	644.5
612.575	640.5
618.124	624.5
623.667	620.5
629.204	610.5
634.735	615.5
640.261	609.5
645.781	598.5
651.294	589.5
656.802	590.5
662.304	584.5
667.8	578.5
673.29	593.5
678.775	585.5
684.254	590.5
689.726	583.5
695.193	588.5
700.655	571.5
706.11	567.5
711.56	580.5
717.004	560.5
722.442	564.5
727.874	554.5
733.301	566.5
738.722	557.5
744.137	561.5
749.547	557.5
754.951	570.5
760.349	550.5
765.741	561.5
771.128	553.5
776.509	556.5
781.885	564.5
787.254	566.5
792.618	569.5
797.977	567.5
803.33	560.5
808.677	565.5
814.019	552.5
819.355	554.5
824.686	552.5
830.011	544.5
835.33	540.5
840.644	528.5
845.952	531.5
851.255	530.5
856.552	523.5
861.844	522.5
867.13	504.5
872.41	510.5
877.686	503.5
882.955	491.5
888.219	492.5
893.478	479.5
898.731	484.5
903.979	468.5
909.221	473.5
914.458	469.5
919.69	468.5
924.916	464.5
930.136	474.5
935.351	471.5
940.561	467.5
945.766	474.5
950.965	461.5
956.158	454.5
961.347	458.5
966.529	440.5
971.707	448.5
976.879	439.5
982.046	428.5
987.208	438.5
992.364	438.5
997.515	445.5
1002.66	445.5
1007.801	441.5
1012.936	445.5
1018.066	454.5
1023.19	450.5
1028.309	452.5
1033.423	462.5
1038.532	462.5
1043.636	462.5
1048.734	444.5
1053.827	448.5
1058.915	442.5
1063.998	439.5
1069.075	438.5
1074.147	442.5
1079.214	436.5
1084.276	445.5
1089.333	452.5
1094.385	440.5
1099.431	446.5
1104.472	451.5
1109.509	447.5
1114.54	442.5
1119.565	436.5
1124.586	434.5
1129.602	426.5
1134.613	421.5
1139.618	424.5
1144.619	417.5
1149.614	432.5
1154.604	421.5
1159.589	428.5
1164.57	430.5
1169.545	432.5
1174.515	431.5
1179.48	423.5
1184.44	419.5
1189.395	424.5
1194.345	415.5
1199.29	421.5
1204.23	418.5
1209.165	427.5
1214.095	425.5
1219.021	432.5
1223.941	432.5
1228.856	427.5
1233.766	434.5
1238.672	437.5
1243.572	439.5
1248.467	436.5
1253.358	429.5
1258.244	415.5
1263.124	415.5
1268	405.5
1272.871	396.5
1277.737	398.5
1282.599	398.5
1287.455	403.5
1292.306	405.5
1297.153	407.5
1301.995	403.5
1306.832	413.5
1311.664	403.5
1316.491	412.5
1321.314	397.5
1326.132	396.5
1330.945	405.5
1335.753	380.5
1340.556	383.5
1345.354	371.5
1350.148	370.5
1354.937	375.5
1359.722	362.5
1364.501	362.5
1369.276	366.5
1374.046	376.5
1378.811	377.5
1383.572	376.5
1388.327	378.5
1393.079	386.5
1397.825	369.5
1402.567	369.5
1407.304	369.5
1412.036	350.5
1416.764	354.5
1421.487	355.5
1426.205	359.5
1430.919	360.5
1435.628	368.5
1440.333	370.5
1445.032	358.5
1449.727	365.5
1454.418	359.5
1459.104	355.5
1463.785	354.5
1468.462	346.5
1473.134	352.5
1477.802	345.5
1482.465	345.5
1487.123	348.5
1491.777	343.5
1496.426	345.5
1501.071	353.5
1505.711	364.5
1510.347	362.5
1514.978	367.5
1519.604	372.5
1524.226	377.5
1528.844	379.5
1533.457	374.5
1538.065	379.5
1542.669	370.5
1547.269	369.5
1551.864	371.5
1556.454	374.5
1561.041	367.5
1565.622	370.5
1570.199	376.5
1574.772	375.5
1579.34	378.5
1583.904	392.5
1588.464	389.5
1593.019	394.5
1597.569	392.5
1602.115	399.5
1606.657	394.5
1611.195	393.5
1615.728	389.5
1620.256	391.5
1624.78	404.5
1629.3	405.5
1633.816	416.5
1638.327	419.5
1642.834	420.5
1647.336	426.5
1651.834	427.5
1656.328	422.5
1660.817	419.5
1665.302	406.5
1669.783	406.5
1674.259	395.5
1678.732	388.5
1683.199	373.5
1687.663	364.5
1692.122	345.5
1696.577	341.5
1701.028	342.5
1705.474	336.5
1709.917	329.5
1714.355	342.5
1718.788	324.5
1723.218	324.5
1727.643	318.5
1732.064	309.5
1736.481	292.5
1740.893	289.5
1745.301	277.5
1749.705	279.5
1754.105	263.5
1758.501	264.5
1762.893	255.5
1767.28	243.5
1771.663	235.5
1776.042	241.5
1780.417	238.5
1784.787	236.5
1789.154	235.5
1793.516	243.5
1797.874	242.5
1802.228	245.5
1806.578	253.5
1810.924	253.5
1815.266	244.5
1819.603	243.5
1823.937	244.5
1828.266	231.5
1832.591	237.5
1836.913	227.5
1841.23	232.5
1845.543	230.5
1849.852	222.5
1854.156	224.5
1858.457	221.5
1862.754	231.5
1867.047	228.5
1871.335	231.5
1875.62	225.5
1879.9	232.5
1884.177	225.5
1888.449	226.5
1892.718	225.5
1896.982	215.5
1901.243	232.5
1905.499	219.5
1909.752	212.5
1914	223.5
1918.245	221.5
1922.485	221.5
1926.722	230.5
1930.954	230.5
1935.183	229.5
1939.408	235.5
1943.628	239.5
1947.845	241.5
1952.058	234.5
1956.267	237.5
1960.472	228.5
1964.673	224.5
1968.87	230.5
1973.063	219.5
1977.252	218.5
1981.438	216.5
1985.619	214.5
1989.797	204.5
1993.971	202.5
1998.14	209.5
2002.306	209.5
2006.469	209.5
2010.627	203.5
2014.781	207.5
2018.932	206.5
2023.078	211.5
2027.221	205.5
2031.36	206.5
2035.495	199.5
2039.627	200.5
2043.754	192.5
2047.878	196.5
2051.998	190.5
2056.114	186.5
2060.226	198.5
2064.334	197.5
2068.439	200.5
2072.54	205.5
2076.637	207.5
2080.73	202.5
2084.82	213.5
2088.906	206.5
2092.988	200.5
2097.066	201.5
2101.14	200.5
2105.211	203.5
2109.278	199.5
2113.342	204.5
2117.401	200.5
2121.457	200.5
2125.509	197.5
2129.558	196.5
2133.602	197.5
2137.643	198.5
2141.681	190.5
2145.714	189.5
2149.744	190.5
2153.77	188.5
2157.793	187.5
2161.812	189.5
2165.827	188.5
2169.838	186.5
2173.846	173.5
2177.851	182.5
2181.851	173.5
2185.848	166.5
2189.841	168.5
2193.831	163.5
2197.817	167.5
2201.799	165.5
2205.778	161.5
2209.753	164.5
2213.725	165.5
2217.693	162.5
2221.657	165.5
2225.618	162.5
2229.575	160.5
2233.529	157.5
2237.479	159.5
2241.425	156.5
2245.368	151.5
2249.307	147.5
2253.243	146.5
2257.175	146.5
2261.104	142.5
2265.029	138.5
2268.95	144.5
2272.868	144.5
2276.783	137.5
2280.694	133.5
2284.601	134.5
2288.505	133.5
2292.405	131.5
2296.302	129.5
2300.195	128.5
2304.085	129.5
2307.971	129.5
2311.854	121.5
2315.734	125.5
2319.609	123.5
2323.482	116.5
2327.351	119.5
2331.216	113.5
2335.078	123.5
2338.937	112.5
2342.792	117.5
2346.643	117.5
2350.492	112.5
2354.336	119.5
2358.178	116.5
2362.015	117.5
2365.85	119.5
2369.681	118.5
2373.508	120.5
2377.333	115.5
2381.153	113.5
2384.971	117.5
2388.785	119.5
2392.595	106.5
2396.402	118.5
2400.206	114.5
2404.007	109.5
2407.804	112.5
2411.597	114.5
2415.388	115.5
2419.174	110.5
2422.958	111.5
2426.738	114.5
2430.515	114.5
2434.289	110.5
2438.059	107.5
2441.825	105.5
2445.589	106.5
2449.349	107.5
2453.106	105.5
2456.859	102.5
2460.61	100.5
2464.356	96.5
2468.1	101.5
2471.84	95.5
2475.577	100.5
2479.311	99.5
2483.041	94.5
2486.768	100.5
2490.492	104.5
2494.213	95.5
2497.93	100.5
2501.644	99.5
2505.355	95.5
2509.062	104.5
2512.766	101.5
2516.467	96.5
2520.165	97.5
2523.859	99.5
2527.551	94.5
2531.239	92.5
2534.923	93.5
2538.605	91.5
2542.283	96.5
2545.958	87.5
2549.63	92.5
2553.299	91.5
2556.964	91.5
2560.626	95.5
2564.285	92.5
2567.941	99.5
2571.594	97.5
2575.243	94.5
2578.89	95.5
2582.533	91.5
2586.173	89.5
2589.809	91.5
2593.443	91.5
2597.073	86.5
2600.701	88.5
2604.325	83.5
2607.946	85.5
2611.564	84.5
2615.178	85.5
2618.79	88.5
2622.398	75.5
2626.004	77.5
2629.606	80.5
2633.205	79.5
2636.801	79.5
2640.394	78.5
2643.983	82.5
2647.57	83.5
2651.153	76.5
2654.734	80.5
2658.311	73.5
2661.885	74.5
2665.456	71.5
2669.025	70.5
2672.589	69.5
2676.151	69.5
2679.71	70.5
2683.266	65.5
2686.819	64.5
2690.368	60.5
2693.915	62.5
2697.458	64.5
2700.999	63.5
2704.536	61.5
2708.071	59.5
2711.602	63.5
2715.13	64.5
2718.656	54.5
2722.178	53.5
2725.697	56.5
2729.214	50.5
2732.727	50.5
2736.237	52.5
2739.744	50.5
2743.249	49.5
2746.75	58.5
2750.248	53.5
2753.743	57.5
2757.236	54.5
2760.725	56.5
2764.211	54.5
2767.695	60.5
2771.175	55.5
2774.652	59.5
2778.127	55.5
2781.598	62.5
2785.067	48.5
2788.532	56.5
2791.995	54.5
2795.455	53.5
2798.911	54.5
2802.365	52.5
2805.816	57.5
2809.264	54.5
2812.709	57.5
2816.151	60.5
2819.59	56.5
2823.026	61.5
2826.46	59.5
2829.89	62.5
2833.318	61.5
2836.742	61.5
2840.164	64.5
2843.583	63.5
2846.999	61.5
2850.412	53.5
2853.822	60.5
2857.229	64.5
2860.634	66.5
2864.035	62.5
2867.434	63.5
2870.83	67.5
2874.223	63.5
2877.613	61.5
2881	63.5
2884.385	64.5
2887.766	59.5
2891.145	61.5
2894.521	61.5
2897.894	62.5
2901.264	65.5
2904.631	66.5
2907.996	62.5
2911.358	63.5
2914.717	62.5
2918.073	62.5
2921.426	66.5
2924.777	66.5
2928.124	57.5
2931.469	58.5
2934.811	71.5
2938.15	66.5
2941.487	67.5
2944.821	75.5
2948.152	70.5
2951.48	74.5
2954.805	71.5
2958.128	73.5
2961.447	72.5
2964.765	72.5
2968.079	77.5
2971.39	75.5
2974.699	80.5
2978.005	74.5
2981.308	81.5
2984.609	86.5
2987.907	91.5
2991.202	92.5
2994.494	91.5
2997.784	97.5
3001.07	97.5
3004.355	101.5
3007.636	99.5
3010.915	106.5
3014.191	110.5
3017.464	104.5
3020.734	110.5
3024.002	114.5
3027.267	117.5
3030.53	122.5
3033.789	120.5
3037.046	125.5
3040.301	122.5
3043.552	122.5
3046.801	132.5
3050.048	129.5
3053.291	134.5
3056.532	141.5
3059.771	141.5
3063.006	149.5
3066.239	160.5
3069.469	166.5
3072.697	166.5
3075.922	171.5
3079.144	175.5
3082.364	183.5
3085.581	183.5
3088.795	188.5
3092.007	189.5
3095.216	193.5
3098.423	198.5
3101.627	200.5
3104.828	208.5
3108.026	217.5
3111.222	226.5
3114.416	222.5
3117.607	232.5
3120.795	238.5
3123.98	236.5
3127.163	249.5
3130.344	252.5
3133.521	263.5
3136.696	261.5
3139.869	270.5
3143.039	278.5
3146.206	283.5
3149.371	289.5
3152.533	288.5
3155.693	283.5
3158.85	293.5
3162.005	288.5
3165.157	282.5
3168.306	288.5
3171.453	287.5
3174.597	291.5
3177.739	292.5
3180.878	292.5
3184.014	291.5
3187.149	300.5
3190.28	298.5
3193.409	290.5
3196.536	308.5
3199.659	296.5
3202.781	297.5
3205.9	296.5
3209.016	288.5
3212.13	285.5
3215.241	292.5
3218.35	290.5
3221.456	285.5
3224.56	283.5
3227.661	279.5
3230.76	284.5
3233.856	275.5
3236.95	278.5
3240.041	276.5
3243.13	265.5
3246.216	265.5
3249.3	274.5
3252.382	261.5
3255.46	262.5
3258.537	260.5
3261.611	256.5
3264.682	264.5
3267.751	258.5
3270.818	258.5
3273.882	251.5
3276.943	251.5
3280.002	250.5
3283.059	253.5
3286.113	250.5
3289.165	238.5
3292.214	235.5
3295.261	236.5
3298.306	233.5
3301.348	224.5
3304.387	227.5
3307.425	216.5
3310.459	215.5
3313.492	214.5
3316.521	208.5
3319.549	208.5
3322.574	203.5
3325.597	204.5
3328.617	206.5
3331.635	199.5
3334.65	198.5
3337.663	200.5
3340.674	198.5
3343.682	200.5
3346.688	202.5
3349.691	196.5
3352.692	202.5
3355.691	193.5
3358.687	191.5
3361.681	191.5
3364.673	189.5
3367.662	188.5
3370.649	184.5
3373.633	177.5
3376.615	173.5
3379.595	177.5
3382.572	168.5
3385.547	173.5
3388.52	170.5
3391.49	165.5
3394.458	167.5
3397.424	156.5
3400.387	153.5
3403.348	160.5
3406.307	153.5
3409.263	152.5
3412.217	148.5
3415.168	151.5
3418.118	151.5
3421.065	148.5
3424.009	142.5
3426.951	138.5
3429.891	137.5
3432.829	133.5
3435.764	125.5
3438.697	127.5
3441.628	129.5
3444.557	120.5
3447.483	119.5
3450.407	115.5
3453.328	117.5
3456.247	109.5
3459.164	108.5
3462.079	101.5
3464.991	98.5
3467.902	89.5
3470.809	90.5
3473.715	84.5
3476.618	79.5
3479.519	83.5
3482.418	79.5
3485.315	71.5
3488.209	75.5
3491.101	78.5
3493.99	75.5
3496.878	67.5
3499.763	63.5
3502.646	65.5
3505.527	56.5
3508.405	51.5
3511.281	56.5
3514.155	52.5
3517.027	44.5
3519.897	42.5
3522.764	44.5
3525.629	39.5
3528.492	34.5
3531.352	34.5
3534.211	31.5
3537.067	30.5
3539.921	22.5
3542.773	21.5
3545.622	27.5
3548.469	18.5
3551.315	17.5
3554.157	16.5
3556.998	16.5
3559.837	14.5
3562.673	4.5
3565.507	8.5
3568.339	1.5
3571.169	2.5
3573.996	3.5
3576.822	0.5
3579.645	-3.5
3582.466	0.5
3585.285	1.5
3588.101	1.5
3590.916	-1.5
3593.728	-1.5
3596.538	-4.5
3599.346	-5.5
3602.152	-7.5
3604.956	-9.5
3607.757	-11.5
3610.556	-17.5
3613.354	-17.5
3616.149	-18.5
3618.942	-19.5
3621.732	-16.5
3624.521	-14.5
3627.307	-13.5
3630.092	-17.5
3632.874	-17.5
3635.654	-15.5
3638.432	-19.5
3641.208	-20.5
3643.982	-18.5
3646.753	-16.5
3649.523	-20.5
3652.29	-23.5
3655.055	-21.5
3657.818	-23.5
3660.579	-23.5
3663.338	-26.5
3666.095	-28.5
3668.849	-28.5
3671.602	-30.5
3674.352	-31.5
3677.101	-31.5
3679.847	-30.5
3682.591	-30.5
3685.333	-29.5
3688.073	-30.5
3690.811	-31.5
3693.547	-25.5
3696.281	-29.5
3699.013	-32.5
3701.742	-35.5
3704.47	-35.5
3707.195	-38.5
3709.919	-39.5
3712.64	-36.5
3715.359	-36.5
3718.076	-37.5
3720.792	-31.5
3723.505	-33.5
3726.216	-35.5
3728.925	-35.5
3731.632	-31.5
3734.336	-33.5
3737.039	-38.5
3739.74	-38.5
3742.439	-35.5
3745.136	-33.5
3747.83	-35.5
3750.523	-30.5
3753.213	-35.5
3755.902	-36.5
3758.589	-38.5
3761.273	-37.5
3763.956	-38.5
3766.636	-39.5
3769.315	-40.5
3771.991	-41.5
3774.665	-37.5
3777.338	-40.5
3780.008	-36.5
3782.677	-35.5
3785.343	-34.5
3788.007	-37.5
3790.67	-38.5
3793.33	-38.5
3795.989	-37.5
3798.645	-36.5
3801.299	-40.5
3803.952	-37.5
3806.602	-39.5
3809.251	-43.5
3811.897	-37.5
3814.542	-38.5
3817.184	-37.5
3819.825	-38.5
3822.463	-40.5
3825.1	-41.5
3827.735	-39.5
3830.367	-42.5
3832.998	-38.5
3835.627	-35.5
3838.253	-34.5
3840.878	-35.5
3843.501	-38.5
3846.122	-39.5
3848.741	-43.5
3851.358	-40.5
3853.973	-39.5
3856.586	-38.5
3859.197	-40.5
3861.806	-42.5
3864.414	-40.5
3867.019	-40.5
3869.622	-40.5
3872.224	-36.5
3874.823	-34.5
3877.421	-31.5
3880.016	-30.5
3882.61	-28.5
3885.202	-28.5
3887.792	-27.5
3890.38	-32.5
3892.966	-37.5
3895.55	-36.5
3898.132	-39.5
3900.713	-39.5
3903.291	-39.5
3905.868	-41.5
3908.442	-37.5
3911.015	-42.5
3913.586	-43.5
3916.155	-42.5
3918.722	-43.5
3921.287	-42.5
3923.85	-41.5
3926.411	-43.5
3928.971	-35.5
3931.528	-37.5
3934.084	-38.5
3936.638	-41.5
3939.19	-40.5
3941.74	-40.5
3944.288	-42.5
3946.834	-44.5
3949.378	-41.5
3951.921	-44.5
3954.462	-47.5
3957	-40.5
3959.537	-40.5
3962.072	-38.5
3964.606	-37.5
3967.137	-39.5
3969.667	-41.5
3972.194	-38.5
3974.72	-39.5
3977.244	-41.5
3979.766	-42.5
3982.286	-38.5
3984.805	-41.5
3987.321	-35.5
3989.836	-38.5
3992.349	-38.5
3994.86	-39.5
3997.369	-37.5
3999.877	-42.5
4002.382	-41.5
4004.886	-42.5
4007.388	-41.5
4009.888	-39.5
4012.386	-43.5
4014.883	-38.5
4017.377	-38.5
4019.87	-38.5
4022.361	-36.5
4024.85	-39.5
4027.338	-37.5
4029.823	-39.5
4032.307	-42.5
4034.789	-39.5
4037.269	-38.5
4039.747	-40.5
4042.224	-43.5
4044.699	-38.5
4047.172	-41.5
4049.643	-39.5
4052.112	-40.5
4054.58	-40.5
4057.046	-38.5
4059.51	-41.5
4061.972	-43.5
4064.432	-41.5
4066.891	-41.5
4069.348	-41.5
4071.803	-38.5
4074.256	-39.5
4076.708	-39.5
4079.158	-37.5
4081.606	-37.5
4084.052	-37.5
4086.497	-39.5
4088.939	-43.5
4091.38	-37.5
4093.819	-43.5
4096.257	-41.5
4098.693	-40.5
4101.127	-45.5
4103.559	-44.5
4105.989	-19.5
4108.418	-17.5
4110.845	-17.5
4113.27	-17.5
4115.694	-14.5
4118.115	-10.5
4120.535	-44.5
4122.954	-43.5
4125.37	-43.5
4127.785	-41.5
4130.198	-42.5
4132.609	-40.5
4135.019	-39.5
4137.427	-37.5
4139.833	-42.5
4142.237	-40.5
