Data from 100CFU1_B_RamanShift_1.txt Node
Date: Tue Jan 24 17:56:56 IST 2017
User: aro
Spectrometer: QEPB0276
Trigger mode: 0
Integration Time (sec): 5.000000E0
Scans to average: 1
Electric dark correction enabled: true
Nonlinearity correction enabled: false
Boxcar width: 0
XAxis mode: Raman Shifts
Number of Pixels in Spectrum: 1044
>>>>>Begin Spectral Data<<<<<
160.701	-28.88
166.742	1.12
172.777	103.12
178.805	395.12
184.826	1120.12
190.841	2322.12
196.849	3664.12
202.85	4524.12
208.845	4699.12
214.833	4546.12
220.815	4385.12
226.789	4272.12
232.758	4163.12
238.719	4031.12
244.674	3875.12
250.623	3718.12
256.565	3559.12
262.5	3379.12
268.429	3214.12
274.351	3081.12
280.267	2990.12
286.176	2887.12
292.079	2778.12
297.975	2701.12
303.865	2614.12
309.748	2529.12
315.625	2485.12
321.495	2439.12
327.359	2380.12
333.217	2377.12
339.068	2364.12
344.912	2339.12
350.751	2329.12
356.583	2336.12
362.408	2330.12
368.227	2326.12
374.04	2330.12
379.847	2332.12
385.647	2367.12
391.44	2357.12
397.228	2382.12
403.009	2412.12
408.784	2403.12
414.553	2401.12
420.315	2421.12
426.071	2429.12
431.821	2400.12
437.565	2406.12
443.302	2400.12
449.033	2412.12
454.758	2398.12
460.477	2377.12
466.189	2367.12
471.896	2337.12
477.596	2347.12
483.29	2327.12
488.978	2349.12
494.66	2315.12
500.335	2286.12
506.005	2245.12
511.668	2204.12
517.325	2147.12
522.977	2119.12
528.622	2085.12
534.261	2072.12
539.894	2058.12
545.521	2034.12
551.141	2033.12
556.756	1997.12
562.365	1994.12
567.968	1984.12
573.565	1984.12
579.155	1960.12
584.74	1943.12
590.319	1939.12
595.892	1920.12
601.459	1912.12
607.02	1900.12
612.575	1876.12
618.124	1852.12
623.667	1857.12
629.204	1830.12
634.735	1828.12
640.261	1813.12
645.781	1802.12
651.294	1787.12
656.802	1767.12
662.304	1771.12
667.8	1769.12
673.29	1773.12
678.775	1745.12
684.254	1750.12
689.726	1752.12
695.193	1730.12
700.655	1710.12
706.11	1696.12
711.56	1689.12
717.004	1681.12
722.442	1687.12
727.874	1661.12
733.301	1650.12
738.722	1645.12
744.137	1630.12
749.547	1643.12
754.951	1651.12
760.349	1634.12
765.741	1627.12
771.128	1626.12
776.509	1630.12
781.885	1635.12
787.254	1634.12
792.618	1609.12
797.977	1616.12
803.33	1596.12
808.677	1594.12
814.019	1568.12
819.355	1561.12
824.686	1532.12
830.011	1540.12
835.33	1515.12
840.644	1506.12
845.952	1500.12
851.255	1508.12
856.552	1481.12
861.844	1477.12
867.13	1479.12
872.41	1476.12
877.686	1441.12
882.955	1443.12
888.219	1423.12
893.478	1399.12
898.731	1387.12
903.979	1358.12
909.221	1343.12
914.458	1338.12
919.69	1339.12
924.916	1326.12
930.136	1331.12
935.351	1323.12
940.561	1309.12
945.766	1313.12
950.965	1300.12
956.158	1278.12
961.347	1270.12
966.529	1271.12
971.707	1243.12
976.879	1224.12
982.046	1215.12
987.208	1221.12
992.364	1207.12
997.515	1216.12
1002.66	1220.12
1007.801	1252.12
1012.936	1242.12
1018.066	1249.12
1023.19	1269.12
1028.309	1254.12
1033.423	1275.12
1038.532	1263.12
1043.636	1232.12
1048.734	1254.12
1053.827	1239.12
1058.915	1236.12
1063.998	1219.12
1069.075	1217.12
1074.147	1199.12
1079.214	1219.12
1084.276	1214.12
1089.333	1224.12
1094.385	1248.12
1099.431	1255.12
1104.472	1253.12
1109.509	1255.12
1114.54	1233.12
1119.565	1219.12
1124.586	1205.12
1129.602	1184.12
1134.613	1182.12
1139.618	1167.12
1144.619	1189.12
1149.614	1180.12
1154.604	1185.12
1159.589	1197.12
1164.57	1183.12
1169.545	1204.12
1174.515	1206.12
1179.48	1199.12
1184.44	1193.12
1189.395	1187.12
1194.345	1178.12
1199.29	1187.12
1204.23	1186.12
1209.165	1184.12
1214.095	1186.12
1219.021	1213.12
1223.941	1221.12
1228.856	1214.12
1233.766	1236.12
1238.672	1225.12
1243.572	1210.12
1248.467	1219.12
1253.358	1190.12
1258.244	1184.12
1263.124	1174.12
1268	1159.12
1272.871	1144.12
1277.737	1134.12
1282.599	1124.12
1287.455	1145.12
1292.306	1160.12
1297.153	1146.12
1301.995	1144.12
1306.832	1166.12
1311.664	1165.12
1316.491	1159.12
1321.314	1170.12
1326.132	1168.12
1330.945	1150.12
1335.753	1135.12
1340.556	1123.12
1345.354	1112.12
1350.148	1102.12
1354.937	1095.12
1359.722	1110.12
1364.501	1080.12
1369.276	1070.12
1374.046	1062.12
1378.811	1065.12
1383.572	1051.12
1388.327	1043.12
1393.079	1037.12
1397.825	1045.12
1402.567	1033.12
1407.304	1029.12
1412.036	1026.12
1416.764	1024.12
1421.487	1030.12
1426.205	1028.12
1430.919	1023.12
1435.628	1051.12
1440.333	1058.12
1445.032	1074.12
1449.727	1082.12
1454.418	1083.12
1459.104	1075.12
1463.785	1087.12
1468.462	1071.12
1473.134	1067.12
1477.802	1075.12
1482.465	1046.12
1487.123	1037.12
1491.777	1039.12
1496.426	1044.12
1501.071	1045.12
1505.711	1068.12
1510.347	1077.12
1514.978	1087.12
1519.604	1108.12
1524.226	1104.12
1528.844	1102.12
1533.457	1093.12
1538.065	1106.12
1542.669	1093.12
1547.269	1095.12
1551.864	1095.12
1556.454	1100.12
1561.041	1119.12
1565.622	1133.12
1570.199	1140.12
1574.772	1168.12
1579.34	1173.12
1583.904	1198.12
1588.464	1222.12
1593.019	1238.12
1597.569	1241.12
1602.115	1255.12
1606.657	1268.12
1611.195	1284.12
1615.728	1282.12
1620.256	1308.12
1624.78	1337.12
1629.3	1339.12
1633.816	1376.12
1638.327	1377.12
1642.834	1396.12
1647.336	1420.12
1651.834	1419.12
1656.328	1416.12
1660.817	1400.12
1665.302	1387.12
1669.783	1353.12
1674.259	1304.12
1678.732	1286.12
1683.199	1256.12
1687.663	1218.12
1692.122	1168.12
1696.577	1138.12
1701.028	1083.12
1705.474	1041.12
1709.917	1004.12
1714.355	980.12
1718.788	984.12
1723.218	932.12
1727.643	928.12
1732.064	906.12
1736.481	886.12
1740.893	880.12
1745.301	844.12
1749.705	831.12
1754.105	801.12
1758.501	792.12
1762.893	770.12
1767.28	775.12
1771.663	762.12
1776.042	746.12
1780.417	756.12
1784.787	760.12
1789.154	756.12
1793.516	765.12
1797.874	760.12
1802.228	753.12
1806.578	746.12
1810.924	723.12
1815.266	725.12
1819.603	712.12
1823.937	709.12
1828.266	704.12
1832.591	682.12
1836.913	691.12
1841.23	689.12
1845.543	683.12
1849.852	685.12
1854.156	687.12
1858.457	681.12
1862.754	694.12
1867.047	704.12
1871.335	705.12
1875.62	705.12
1879.9	705.12
1884.177	686.12
1888.449	691.12
1892.718	699.12
1896.982	705.12
1901.243	695.12
1905.499	690.12
1909.752	684.12
1914	684.12
1918.245	699.12
1922.485	684.12
1926.722	699.12
1930.954	696.12
1935.183	709.12
1939.408	704.12
1943.628	702.12
1947.845	701.12
1952.058	693.12
1956.267	697.12
1960.472	691.12
1964.673	677.12
1968.87	672.12
1973.063	669.12
1977.252	669.12
1981.438	666.12
1985.619	661.12
1989.797	661.12
1993.971	659.12
1998.14	661.12
2002.306	661.12
2006.469	672.12
2010.627	670.12
2014.781	681.12
2018.932	676.12
2023.078	676.12
2027.221	671.12
2031.36	673.12
2035.495	667.12
2039.627	661.12
2043.754	665.12
2047.878	654.12
2051.998	644.12
2056.114	637.12
2060.226	662.12
2064.334	661.12
2068.439	676.12
2072.54	673.12
2076.637	677.12
2080.73	666.12
2084.82	674.12
2088.906	677.12
2092.988	680.12
2097.066	667.12
2101.14	675.12
2105.211	669.12
2109.278	662.12
2113.342	661.12
2117.401	651.12
2121.457	649.12
2125.509	645.12
2129.558	647.12
2133.602	648.12
2137.643	640.12
2141.681	647.12
2145.714	632.12
2149.744	630.12
2153.77	628.12
2157.793	619.12
2161.812	623.12
2165.827	619.12
2169.838	614.12
2173.846	592.12
2177.851	578.12
2181.851	570.12
2185.848	563.12
2189.841	565.12
2193.831	558.12
2197.817	561.12
2201.799	555.12
2205.778	554.12
2209.753	548.12
2213.725	550.12
2217.693	559.12
2221.657	556.12
2225.618	553.12
2229.575	538.12
2233.529	552.12
2237.479	539.12
2241.425	537.12
2245.368	531.12
2249.307	503.12
2253.243	507.12
2257.175	506.12
2261.104	499.12
2265.029	475.12
2268.95	483.12
2272.868	481.12
2276.783	476.12
2280.694	468.12
2284.601	462.12
2288.505	461.12
2292.405	446.12
2296.302	442.12
2300.195	441.12
2304.085	433.12
2307.971	423.12
2311.854	417.12
2315.734	412.12
2319.609	412.12
2323.482	400.12
2327.351	389.12
2331.216	387.12
2335.078	396.12
2338.937	382.12
2342.792	383.12
2346.643	384.12
2350.492	381.12
2354.336	392.12
2358.178	385.12
2362.015	393.12
2365.85	385.12
2369.681	387.12
2373.508	383.12
2377.333	380.12
2381.153	381.12
2384.971	381.12
2388.785	390.12
2392.595	379.12
2396.402	371.12
2400.206	371.12
2404.007	366.12
2407.804	376.12
2411.597	372.12
2415.388	361.12
2419.174	370.12
2422.958	365.12
2426.738	362.12
2430.515	369.12
2434.289	363.12
2438.059	357.12
2441.825	355.12
2445.589	353.12
2449.349	351.12
2453.106	340.12
2456.859	342.12
2460.61	345.12
2464.356	331.12
2468.1	335.12
2471.84	325.12
2475.577	332.12
2479.311	331.12
2483.041	331.12
2486.768	327.12
2490.492	333.12
2494.213	340.12
2497.93	338.12
2501.644	333.12
2505.355	339.12
2509.062	330.12
2512.766	329.12
2516.467	325.12
2520.165	320.12
2523.859	321.12
2527.551	320.12
2531.239	319.12
2534.923	319.12
2538.605	307.12
2542.283	304.12
2545.958	296.12
2549.63	307.12
2553.299	304.12
2556.964	299.12
2560.626	307.12
2564.285	297.12
2567.941	305.12
2571.594	296.12
2575.243	292.12
2578.89	292.12
2582.533	291.12
2586.173	282.12
2589.809	284.12
2593.443	278.12
2597.073	283.12
2600.701	272.12
2604.325	274.12
2607.946	273.12
2611.564	279.12
2615.178	271.12
2618.79	277.12
2622.398	270.12
2626.004	263.12
2629.606	264.12
2633.205	260.12
2636.801	262.12
2640.394	262.12
2643.983	263.12
2647.57	259.12
2651.153	265.12
2654.734	250.12
2658.311	244.12
2661.885	245.12
2665.456	244.12
2669.025	234.12
2672.589	237.12
2676.151	232.12
2679.71	237.12
2683.266	234.12
2686.819	228.12
2690.368	225.12
2693.915	225.12
2697.458	230.12
2700.999	226.12
2704.536	221.12
2708.071	217.12
2711.602	216.12
2715.13	212.12
2718.656	219.12
2722.178	217.12
2725.697	210.12
2729.214	213.12
2732.727	220.12
2736.237	221.12
2739.744	214.12
2743.249	213.12
2746.75	215.12
2750.248	214.12
2753.743	205.12
2757.236	217.12
2760.725	211.12
2764.211	209.12
2767.695	211.12
2771.175	209.12
2774.652	210.12
2778.127	202.12
2781.598	203.12
2785.067	205.12
2788.532	212.12
2791.995	213.12
2795.455	212.12
2798.911	210.12
2802.365	210.12
2805.816	211.12
2809.264	212.12
2812.709	210.12
2816.151	205.12
2819.59	214.12
2823.026	210.12
2826.46	211.12
2829.89	217.12
2833.318	218.12
2836.742	209.12
2840.164	220.12
2843.583	222.12
2846.999	215.12
2850.412	222.12
2853.822	227.12
2857.229	238.12
2860.634	233.12
2864.035	229.12
2867.434	244.12
2870.83	237.12
2874.223	234.12
2877.613	239.12
2881	242.12
2884.385	236.12
2887.766	249.12
2891.145	241.12
2894.521	237.12
2897.894	247.12
2901.264	258.12
2904.631	255.12
2907.996	255.12
2911.358	253.12
2914.717	256.12
2918.073	255.12
2921.426	272.12
2924.777	272.12
2928.124	271.12
2931.469	276.12
2934.811	291.12
2938.15	293.12
2941.487	294.12
2944.821	295.12
2948.152	305.12
2951.48	309.12
2954.805	313.12
2958.128	313.12
2961.447	327.12
2964.765	330.12
2968.079	338.12
2971.39	346.12
2974.699	352.12
2978.005	358.12
2981.308	365.12
2984.609	388.12
2987.907	384.12
2991.202	393.12
2994.494	415.12
2997.784	410.12
3001.07	424.12
3004.355	443.12
3007.636	449.12
3010.915	456.12
3014.191	469.12
3017.464	484.12
3020.734	493.12
3024.002	487.12
3027.267	507.12
3030.53	519.12
3033.789	529.12
3037.046	534.12
3040.301	536.12
3043.552	554.12
3046.801	570.12
3050.048	579.12
3053.291	611.12
3056.532	622.12
3059.771	627.12
3063.006	655.12
3066.239	682.12
3069.469	701.12
3072.697	720.12
3075.922	742.12
3079.144	760.12
3082.364	779.12
3085.581	792.12
3088.795	822.12
3092.007	825.12
3095.216	860.12
3098.423	855.12
3101.627	879.12
3104.828	914.12
3108.026	926.12
3111.222	957.12
3114.416	965.12
3117.607	994.12
3120.795	1000.12
3123.98	1030.12
3127.163	1055.12
3130.344	1072.12
3133.521	1108.12
3136.696	1127.12
3139.869	1137.12
3143.039	1178.12
3146.206	1187.12
3149.371	1206.12
3152.533	1210.12
3155.693	1223.12
3158.85	1221.12
3162.005	1230.12
3165.157	1239.12
3168.306	1249.12
3171.453	1231.12
3174.597	1247.12
3177.739	1278.12
3180.878	1256.12
3184.014	1281.12
3187.149	1273.12
3190.28	1273.12
3193.409	1276.12
3196.536	1291.12
3199.659	1307.12
3202.781	1296.12
3205.9	1294.12
3209.016	1287.12
3212.13	1288.12
3215.241	1290.12
3218.35	1265.12
3221.456	1273.12
3224.56	1250.12
3227.661	1230.12
3230.76	1243.12
3233.856	1227.12
3236.95	1212.12
3240.041	1213.12
3243.13	1194.12
3246.216	1173.12
3249.3	1179.12
3252.382	1169.12
3255.46	1158.12
3258.537	1163.12
3261.611	1156.12
3264.682	1152.12
3267.751	1147.12
3270.818	1135.12
3273.882	1118.12
3276.943	1126.12
3280.002	1117.12
3283.059	1111.12
3286.113	1102.12
3289.165	1075.12
3292.214	1055.12
3295.261	1044.12
3298.306	1030.12
3301.348	1019.12
3304.387	993.12
3307.425	989.12
3310.459	975.12
3313.492	949.12
3316.521	951.12
3319.549	933.12
3322.574	927.12
3325.597	923.12
3328.617	911.12
3331.635	909.12
3334.65	901.12
3337.663	898.12
3340.674	908.12
3343.682	885.12
3346.688	877.12
3349.691	890.12
3352.692	869.12
3355.691	888.12
3358.687	865.12
3361.681	858.12
3364.673	850.12
3367.662	831.12
3370.649	826.12
3373.633	805.12
3376.615	795.12
3379.595	779.12
3382.572	797.12
3385.547	770.12
3388.52	754.12
3391.49	756.12
3394.458	747.12
3397.424	721.12
3400.387	711.12
3403.348	716.12
3406.307	704.12
3409.263	707.12
3412.217	688.12
3415.168	684.12
3418.118	674.12
3421.065	669.12
3424.009	657.12
3426.951	645.12
3429.891	639.12
3432.829	626.12
3435.764	620.12
3438.697	592.12
3441.628	587.12
3444.557	571.12
3447.483	555.12
3450.407	546.12
3453.328	524.12
3456.247	506.12
3459.164	490.12
3462.079	481.12
3464.991	476.12
3467.902	448.12
3470.809	447.12
3473.715	418.12
3476.618	421.12
3479.519	392.12
3482.418	384.12
3485.315	370.12
3488.209	369.12
3491.101	362.12
3493.99	361.12
3496.878	342.12
3499.763	328.12
3502.646	324.12
3505.527	307.12
3508.405	283.12
3511.281	282.12
3514.155	272.12
3517.027	253.12
3519.897	240.12
3522.764	238.12
3525.629	212.12
3528.492	207.12
3531.352	190.12
3534.211	189.12
3537.067	167.12
3539.921	159.12
3542.773	150.12
3545.622	146.12
3548.469	138.12
3551.315	123.12
3554.157	112.12
3556.998	114.12
3559.837	99.12
3562.673	97.12
3565.507	89.12
3568.339	84.12
3571.169	73.12
3573.996	65.12
3576.822	65.12
3579.645	55.12
3582.466	55.12
3585.285	44.12
3588.101	47.12
3590.916	38.12
3593.728	35.12
3596.538	30.12
3599.346	22.12
3602.152	14.12
3604.956	11.12
3607.757	5.12
3610.556	0.12
3613.354	-4.88
3616.149	-17.88
3618.942	-8.88
3621.732	-13.88
3624.521	-16.88
3627.307	-18.88
3630.092	-20.88
3632.874	-26.88
3635.654	-28.88
3638.432	-30.88
3641.208	-30.88
3643.982	-35.88
3646.753	-35.88
3649.523	-40.88
3652.29	-45.88
3655.055	-47.88
3657.818	-45.88
3660.579	-48.88
3663.338	-55.88
3666.095	-59.88
3668.849	-59.88
3671.602	-59.88
3674.352	-69.88
3677.101	-71.88
3679.847	-70.88
3682.591	-73.88
3685.333	-74.88
3688.073	-76.88
3690.811	-73.88
3693.547	-72.88
3696.281	-76.88
3699.013	-80.88
3701.742	-80.88
3704.47	-82.88
3707.195	-83.88
3709.919	-86.88
3712.64	-82.88
3715.359	-85.88
3718.076	-86.88
3720.792	-90.88
3723.505	-86.88
3726.216	-88.88
3728.925	-89.88
3731.632	-91.88
3734.336	-100.88
3737.039	-95.88
3739.74	-98.88
3742.439	-94.88
3745.136	-93.88
3747.83	-93.88
3750.523	-92.88
3753.213	-96.88
3755.902	-96.88
3758.589	-95.88
3761.273	-96.88
3763.956	-97.88
3766.636	-97.88
3769.315	-100.88
3771.991	-104.88
3774.665	-103.88
3777.338	-102.88
3780.008	-103.88
3782.677	-103.88
3785.343	-104.88
3788.007	-105.88
3790.67	-100.88
3793.33	-101.88
3795.989	-103.88
3798.645	-101.88
3801.299	-101.88
3803.952	-101.88
3806.602	-102.88
3809.251	-107.88
3811.897	-104.88
3814.542	-102.88
3817.184	-105.88
3819.825	-105.88
3822.463	-108.88
3825.1	-107.88
3827.735	-108.88
3830.367	-110.88
3832.998	-108.88
3835.627	-110.88
3838.253	-111.88
3840.878	-109.88
3843.501	-108.88
3846.122	-105.88
3848.741	-110.88
3851.358	-108.88
3853.973	-109.88
3856.586	-106.88
3859.197	-111.88
3861.806	-109.88
3864.414	-109.88
3867.019	-107.88
3869.622	-109.88
3872.224	-104.88
3874.823	-106.88
3877.421	-101.88
3880.016	-101.88
3882.61	-102.88
3885.202	-101.88
3887.792	-102.88
3890.38	-108.88
3892.966	-112.88
3895.55	-112.88
3898.132	-111.88
3900.713	-110.88
3903.291	-107.88
3905.868	-111.88
3908.442	-111.88
3911.015	-111.88
3913.586	-112.88
3916.155	-114.88
3918.722	-113.88
3921.287	-115.88
3923.85	-112.88
3926.411	-115.88
3928.971	-111.88
3931.528	-112.88
3934.084	-112.88
3936.638	-118.88
3939.19	-115.88
3941.74	-115.88
3944.288	-115.88
3946.834	-115.88
3949.378	-114.88
3951.921	-113.88
3954.462	-113.88
3957	-108.88
3959.537	-110.88
3962.072	-110.88
3964.606	-110.88
3967.137	-114.88
3969.667	-111.88
3972.194	-114.88
3974.72	-114.88
3977.244	-116.88
3979.766	-118.88
3982.286	-113.88
3984.805	-112.88
3987.321	-111.88
3989.836	-112.88
3992.349	-111.88
3994.86	-115.88
3997.369	-111.88
3999.877	-111.88
4002.382	-110.88
4004.886	-111.88
4007.388	-112.88
4009.888	-114.88
4012.386	-112.88
4014.883	-109.88
4017.377	-109.88
4019.87	-108.88
4022.361	-110.88
4024.85	-110.88
4027.338	-113.88
4029.823	-115.88
4032.307	-115.88
4034.789	-116.88
4037.269	-112.88
4039.747	-114.88
4042.224	-114.88
4044.699	-112.88
4047.172	-112.88
4049.643	-108.88
4052.112	-107.88
4054.58	-111.88
4057.046	-111.88
4059.51	-113.88
4061.972	-114.88
4064.432	-112.88
4066.891	-113.88
4069.348	-115.88
4071.803	-113.88
4074.256	-114.88
4076.708	-114.88
4079.158	-113.88
4081.606	-114.88
4084.052	-110.88
4086.497	-113.88
4088.939	-113.88
4091.38	-109.88
4093.819	-114.88
4096.257	-114.88
4098.693	-113.88
4101.127	-120.88
4103.559	-120.88
4105.989	-79.88
4108.418	-76.88
4110.845	-66.88
4113.27	-61.88
4115.694	-57.88
4118.115	-47.88
4120.535	-114.88
4122.954	-111.88
4125.37	-113.88
4127.785	-114.88
4130.198	-111.88
4132.609	-112.88
4135.019	-118.88
4137.427	-114.88
4139.833	-118.88
4142.237	-117.88
