Data from 0.125 5sec_RamanShift_01.txt Node
Date: Wed Mar 21 14:37:57 IST 2018
User: aro
Spectrometer: QEPB0276
Trigger mode: 0
Integration Time (sec): 5.000000E0
Scans to average: 1
Electric dark correction enabled: true
Nonlinearity correction enabled: false
Boxcar width: 0
XAxis mode: Raman Shifts
Number of Pixels in Spectrum: 1044
>>>>>Begin Spectral Data<<<<<
160.701	-1.4
166.742	1.6
172.777	6.6
178.805	21.6
184.826	54.6
190.841	119.6
196.849	181.6
202.85	222.6
208.845	244.6
214.833	234.6
220.815	226.6
226.789	218.6
232.758	220.6
238.719	212.6
244.674	203.6
250.623	209.6
256.565	190.6
262.5	187.6
268.429	181.6
274.351	176.6
280.267	175.6
286.176	171.6
292.079	166.6
297.975	162.6
303.865	157.6
309.748	156.6
315.625	154.6
321.495	159.6
327.359	155.6
333.217	147.6
339.068	156.6
344.912	153.6
350.751	160.6
356.583	157.6
362.408	153.6
368.227	158.6
374.04	164.6
379.847	162.6
385.647	164.6
391.44	168.6
397.228	165.6
403.009	167.6
408.784	168.6
414.553	177.6
420.315	185.6
426.071	199.6
431.821	174.6
437.565	170.6
443.302	163.6
449.033	159.6
454.758	154.6
460.477	155.6
466.189	155.6
471.896	153.6
477.596	156.6
483.29	154.6
488.978	154.6
494.66	148.6
500.335	142.6
506.005	132.6
511.668	127.6
517.325	123.6
522.977	112.6
528.622	111.6
534.261	107.6
539.894	106.6
545.521	109.6
551.141	109.6
556.756	107.6
562.365	109.6
567.968	101.6
573.565	96.6
579.155	101.6
584.74	97.6
590.319	102.6
595.892	99.6
601.459	98.6
607.02	93.6
612.575	93.6
618.124	92.6
623.667	91.6
629.204	90.6
634.735	91.6
640.261	91.6
645.781	98.6
651.294	104.6
656.802	94.6
662.304	95.6
667.8	89.6
673.29	80.6
678.775	88.6
684.254	84.6
689.726	80.6
695.193	79.6
700.655	79.6
706.11	76.6
711.56	74.6
717.004	81.6
722.442	78.6
727.874	81.6
733.301	73.6
738.722	77.6
744.137	72.6
749.547	76.6
754.951	78.6
760.349	83.6
765.741	78.6
771.128	81.6
776.509	82.6
781.885	79.6
787.254	81.6
792.618	80.6
797.977	79.6
803.33	79.6
808.677	84.6
814.019	85.6
819.355	87.6
824.686	83.6
830.011	79.6
835.33	81.6
840.644	82.6
845.952	85.6
851.255	83.6
856.552	71.6
861.844	64.6
867.13	70.6
872.41	69.6
877.686	65.6
882.955	65.6
888.219	62.6
893.478	62.6
898.731	55.6
903.979	54.6
909.221	54.6
914.458	56.6
919.69	51.6
924.916	52.6
930.136	60.6
935.351	62.6
940.561	61.6
945.766	62.6
950.965	56.6
956.158	58.6
961.347	55.6
966.529	54.6
971.707	56.6
976.879	57.6
982.046	58.6
987.208	51.6
992.364	49.6
997.515	54.6
1002.66	52.6
1007.801	48.6
1012.936	51.6
1018.066	49.6
1023.19	49.6
1028.309	48.6
1033.423	53.6
1038.532	58.6
1043.636	64.6
1048.734	57.6
1053.827	54.6
1058.915	51.6
1063.998	51.6
1069.075	46.6
1074.147	49.6
1079.214	45.6
1084.276	47.6
1089.333	48.6
1094.385	49.6
1099.431	45.6
1104.472	46.6
1109.509	45.6
1114.54	43.6
1119.565	42.6
1124.586	45.6
1129.602	43.6
1134.613	44.6
1139.618	48.6
1144.619	52.6
1149.614	55.6
1154.604	62.6
1159.589	57.6
1164.57	56.6
1169.545	55.6
1174.515	53.6
1179.48	49.6
1184.44	46.6
1189.395	45.6
1194.345	41.6
1199.29	50.6
1204.23	40.6
1209.165	41.6
1214.095	43.6
1219.021	47.6
1223.941	48.6
1228.856	47.6
1233.766	48.6
1238.672	41.6
1243.572	48.6
1248.467	50.6
1253.358	45.6
1258.244	44.6
1263.124	40.6
1268	35.6
1272.871	39.6
1277.737	33.6
1282.599	39.6
1287.455	41.6
1292.306	38.6
1297.153	41.6
1301.995	43.6
1306.832	39.6
1311.664	41.6
1316.491	40.6
1321.314	41.6
1326.132	47.6
1330.945	51.6
1335.753	56.6
1340.556	51.6
1345.354	45.6
1350.148	42.6
1354.937	37.6
1359.722	43.6
1364.501	40.6
1369.276	43.6
1374.046	40.6
1378.811	35.6
1383.572	37.6
1388.327	33.6
1393.079	33.6
1397.825	29.6
1402.567	26.6
1407.304	29.6
1412.036	31.6
1416.764	34.6
1421.487	30.6
1426.205	28.6
1430.919	37.6
1435.628	36.6
1440.333	42.6
1445.032	46.6
1449.727	42.6
1454.418	44.6
1459.104	46.6
1463.785	58.6
1468.462	49.6
1473.134	48.6
1477.802	37.6
1482.465	32.6
1487.123	32.6
1491.777	30.6
1496.426	31.6
1501.071	31.6
1505.711	29.6
1510.347	31.6
1514.978	32.6
1519.604	34.6
1524.226	33.6
1528.844	32.6
1533.457	34.6
1538.065	29.6
1542.669	28.6
1547.269	25.6
1551.864	26.6
1556.454	30.6
1561.041	34.6
1565.622	37.6
1570.199	35.6
1574.772	35.6
1579.34	33.6
1583.904	36.6
1588.464	33.6
1593.019	31.6
1597.569	38.6
1602.115	39.6
1606.657	37.6
1611.195	42.6
1615.728	44.6
1620.256	39.6
1624.78	42.6
1629.3	41.6
1633.816	41.6
1638.327	42.6
1642.834	43.6
1647.336	42.6
1651.834	46.6
1656.328	42.6
1660.817	43.6
1665.302	42.6
1669.783	36.6
1674.259	39.6
1678.732	33.6
1683.199	28.6
1687.663	30.6
1692.122	32.6
1696.577	31.6
1701.028	30.6
1705.474	30.6
1709.917	28.6
1714.355	28.6
1718.788	26.6
1723.218	19.6
1727.643	21.6
1732.064	20.6
1736.481	21.6
1740.893	16.6
1745.301	18.6
1749.705	23.6
1754.105	15.6
1758.501	13.6
1762.893	11.6
1767.28	11.6
1771.663	10.6
1776.042	14.6
1780.417	14.6
1784.787	14.6
1789.154	19.6
1793.516	12.6
1797.874	16.6
1802.228	14.6
1806.578	16.6
1810.924	13.6
1815.266	4.6
1819.603	8.6
1823.937	13.6
1828.266	13.6
1832.591	13.6
1836.913	11.6
1841.23	11.6
1845.543	8.6
1849.852	11.6
1854.156	5.6
1858.457	10.6
1862.754	10.6
1867.047	7.6
1871.335	11.6
1875.62	9.6
1879.9	14.6
1884.177	11.6
1888.449	10.6
1892.718	8.6
1896.982	11.6
1901.243	9.6
1905.499	10.6
1909.752	8.6
1914	7.6
1918.245	9.6
1922.485	10.6
1926.722	9.6
1930.954	10.6
1935.183	14.6
1939.408	4.6
1943.628	6.6
1947.845	11.6
1952.058	8.6
1956.267	11.6
1960.472	12.6
1964.673	11.6
1968.87	14.6
1973.063	11.6
1977.252	10.6
1981.438	9.6
1985.619	10.6
1989.797	9.6
1993.971	5.6
1998.14	9.6
2002.306	6.6
2006.469	4.6
2010.627	10.6
2014.781	9.6
2018.932	11.6
2023.078	9.6
2027.221	6.6
2031.36	9.6
2035.495	9.6
2039.627	7.6
2043.754	9.6
2047.878	5.6
2051.998	6.6
2056.114	15.6
2060.226	5.6
2064.334	14.6
2068.439	11.6
2072.54	10.6
2076.637	5.6
2080.73	5.6
2084.82	9.6
2088.906	5.6
2092.988	6.6
2097.066	7.6
2101.14	10.6
2105.211	11.6
2109.278	13.6
2113.342	9.6
2117.401	10.6
2121.457	9.6
2125.509	7.6
2129.558	7.6
2133.602	8.6
2137.643	6.6
2141.681	9.6
2145.714	10.6
2149.744	7.6
2153.77	3.6
2157.793	6.6
2161.812	4.6
2165.827	4.6
2169.838	5.6
2173.846	6.6
2177.851	4.6
2181.851	6.6
2185.848	8.6
2189.841	11.6
2193.831	13.6
2197.817	9.6
2201.799	4.6
2205.778	4.6
2209.753	0.6
2213.725	3.6
2217.693	5.6
2221.657	5.6
2225.618	5.6
2229.575	3.6
2233.529	2.6
2237.479	2.6
2241.425	3.6
2245.368	4.6
2249.307	3.6
2253.243	3.6
2257.175	5.6
2261.104	5.6
2265.029	6.6
2268.95	3.6
2272.868	5.6
2276.783	6.6
2280.694	1.6
2284.601	1.6
2288.505	0.6
2292.405	0.6
2296.302	0.6
2300.195	-5.4
2304.085	-1.4
2307.971	-1.4
2311.854	1.6
2315.734	-0.4
2319.609	2.6
2323.482	0.6
2327.351	0.6
2331.216	5.6
2335.078	-2.4
2338.937	-0.4
2342.792	1.6
2346.643	-0.4
2350.492	2.6
2354.336	1.6
2358.178	3.6
2362.015	1.6
2365.85	-2.4
2369.681	1.6
2373.508	-6.4
2377.333	-2.4
2381.153	-5.4
2384.971	-2.4
2388.785	-0.4
2392.595	1.6
2396.402	3.6
2400.206	3.6
2404.007	-0.4
2407.804	1.6
2411.597	-0.4
2415.388	-2.4
2419.174	-0.4
2422.958	-0.4
2426.738	-0.4
2430.515	0.6
2434.289	0.6
2438.059	0.6
2441.825	1.6
2445.589	-1.4
2449.349	-3.4
2453.106	-3.4
2456.859	-1.4
2460.61	-0.4
2464.356	2.6
2468.1	1.6
2471.84	2.6
2475.577	2.6
2479.311	1.6
2483.041	-3.4
2486.768	1.6
2490.492	-6.4
2494.213	-5.4
2497.93	-6.4
2501.644	-2.4
2505.355	-2.4
2509.062	-3.4
2512.766	-1.4
2516.467	-1.4
2520.165	-3.4
2523.859	-5.4
2527.551	-4.4
2531.239	-1.4
2534.923	-2.4
2538.605	-1.4
2542.283	-2.4
2545.958	0.6
2549.63	0.6
2553.299	-4.4
2556.964	0.6
2560.626	-1.4
2564.285	-0.4
2567.941	-4.4
2571.594	-4.4
2575.243	-8.4
2578.89	2.6
2582.533	-3.4
2586.173	-3.4
2589.809	-2.4
2593.443	0.6
2597.073	-1.4
2600.701	-2.4
2604.325	-6.4
2607.946	0.6
2611.564	-3.4
2615.178	-1.4
2618.79	-3.4
2622.398	-2.4
2626.004	1.6
2629.606	-1.4
2633.205	-5.4
2636.801	-3.4
2640.394	-6.4
2643.983	-2.4
2647.57	-3.4
2651.153	-6.4
2654.734	-3.4
2658.311	0.6
2661.885	1.6
2665.456	0.6
2669.025	-1.4
2672.589	1.6
2676.151	-3.4
2679.71	-4.4
2683.266	-1.4
2686.819	-3.4
2690.368	-2.4
2693.915	-1.4
2697.458	-3.4
2700.999	0.6
2704.536	-5.4
2708.071	-8.4
2711.602	-3.4
2715.13	-1.4
2718.656	-3.4
2722.178	-0.4
2725.697	1.6
2729.214	2.6
2732.727	0.6
2736.237	2.6
2739.744	-2.4
2743.249	-1.4
2746.75	-5.4
2750.248	-2.4
2753.743	-0.4
2757.236	-3.4
2760.725	-4.4
2764.211	-5.4
2767.695	-4.4
2771.175	-1.4
2774.652	-1.4
2778.127	-3.4
2781.598	-1.4
2785.067	-4.4
2788.532	-3.4
2791.995	-4.4
2795.455	1.6
2798.911	3.6
2802.365	3.6
2805.816	3.6
2809.264	0.6
2812.709	0.6
2816.151	-2.4
2819.59	-0.4
2823.026	-4.4
2826.46	-2.4
2829.89	-2.4
2833.318	5.6
2836.742	4.6
2840.164	5.6
2843.583	6.6
2846.999	2.6
2850.412	4.6
2853.822	3.6
2857.229	6.6
2860.634	6.6
2864.035	9.6
2867.434	8.6
2870.83	12.6
2874.223	13.6
2877.613	17.6
2881	15.6
2884.385	14.6
2887.766	15.6
2891.145	12.6
2894.521	15.6
2897.894	13.6
2901.264	13.6
2904.631	11.6
2907.996	17.6
2911.358	13.6
2914.717	11.6
2918.073	10.6
2921.426	8.6
2924.777	13.6
2928.124	11.6
2931.469	11.6
2934.811	13.6
2938.15	15.6
2941.487	14.6
2944.821	12.6
2948.152	11.6
2951.48	9.6
2954.805	9.6
2958.128	11.6
2961.447	11.6
2964.765	10.6
2968.079	12.6
2971.39	9.6
2974.699	8.6
2978.005	8.6
2981.308	11.6
2984.609	4.6
2987.907	6.6
2991.202	8.6
2994.494	6.6
2997.784	5.6
3001.07	8.6
3004.355	12.6
3007.636	12.6
3010.915	9.6
3014.191	13.6
3017.464	14.6
3020.734	11.6
3024.002	11.6
3027.267	12.6
3030.53	16.6
3033.789	12.6
3037.046	15.6
3040.301	14.6
3043.552	10.6
3046.801	12.6
3050.048	12.6
3053.291	12.6
3056.532	17.6
3059.771	20.6
3063.006	19.6
3066.239	23.6
3069.469	24.6
3072.697	24.6
3075.922	22.6
3079.144	21.6
3082.364	24.6
3085.581	24.6
3088.795	26.6
3092.007	24.6
3095.216	22.6
3098.423	23.6
3101.627	27.6
3104.828	26.6
3108.026	24.6
3111.222	27.6
3114.416	29.6
3117.607	29.6
3120.795	34.6
3123.98	31.6
3127.163	35.6
3130.344	32.6
3133.521	36.6
3136.696	38.6
3139.869	37.6
3143.039	37.6
3146.206	36.6
3149.371	35.6
3152.533	40.6
3155.693	37.6
3158.85	40.6
3162.005	42.6
3165.157	40.6
3168.306	36.6
3171.453	42.6
3174.597	42.6
3177.739	40.6
3180.878	39.6
3184.014	43.6
3187.149	43.6
3190.28	42.6
3193.409	46.6
3196.536	44.6
3199.659	43.6
3202.781	41.6
3205.9	41.6
3209.016	38.6
3212.13	43.6
3215.241	39.6
3218.35	45.6
3221.456	44.6
3224.56	43.6
3227.661	40.6
3230.76	39.6
3233.856	39.6
3236.95	34.6
3240.041	38.6
3243.13	39.6
3246.216	43.6
3249.3	37.6
3252.382	36.6
3255.46	38.6
3258.537	39.6
3261.611	40.6
3264.682	37.6
3267.751	36.6
3270.818	31.6
3273.882	32.6
3276.943	34.6
3280.002	35.6
3283.059	29.6
3286.113	37.6
3289.165	34.6
3292.214	33.6
3295.261	30.6
3298.306	34.6
3301.348	34.6
3304.387	32.6
3307.425	33.6
3310.459	32.6
3313.492	34.6
3316.521	30.6
3319.549	34.6
3322.574	33.6
3325.597	27.6
3328.617	26.6
3331.635	31.6
3334.65	35.6
3337.663	33.6
3340.674	29.6
3343.682	29.6
3346.688	32.6
3349.691	31.6
3352.692	23.6
3355.691	28.6
3358.687	29.6
3361.681	28.6
3364.673	24.6
3367.662	27.6
3370.649	25.6
3373.633	31.6
3376.615	29.6
3379.595	25.6
3382.572	28.6
3385.547	27.6
3388.52	27.6
3391.49	25.6
3394.458	23.6
3397.424	23.6
3400.387	19.6
3403.348	21.6
3406.307	20.6
3409.263	19.6
3412.217	23.6
3415.168	22.6
3418.118	25.6
3421.065	26.6
3424.009	21.6
3426.951	21.6
3429.891	25.6
3432.829	21.6
3435.764	21.6
3438.697	19.6
3441.628	17.6
3444.557	18.6
3447.483	21.6
3450.407	19.6
3453.328	15.6
3456.247	15.6
3459.164	10.6
3462.079	12.6
3464.991	11.6
3467.902	11.6
3470.809	11.6
3473.715	15.6
3476.618	14.6
3479.519	14.6
3482.418	15.6
3485.315	12.6
3488.209	8.6
3491.101	6.6
3493.99	8.6
3496.878	9.6
3499.763	4.6
3502.646	7.6
3505.527	9.6
3508.405	8.6
3511.281	3.6
3514.155	6.6
3517.027	0.6
3519.897	4.6
3522.764	1.6
3525.629	3.6
3528.492	5.6
3531.352	5.6
3534.211	6.6
3537.067	2.6
3539.921	6.6
3542.773	4.6
3545.622	2.6
3548.469	0.6
3551.315	2.6
3554.157	0.6
3556.998	-1.4
3559.837	0.6
3562.673	-0.4
3565.507	2.6
3568.339	-2.4
3571.169	2.6
3573.996	3.6
3576.822	-1.4
3579.645	-0.4
3582.466	-3.4
3585.285	-2.4
3588.101	-0.4
3590.916	-2.4
3593.728	1.6
3596.538	0.6
3599.346	-1.4
3602.152	-1.4
3604.956	3.6
3607.757	-4.4
3610.556	-4.4
3613.354	-5.4
3616.149	-6.4
3618.942	-10.4
3621.732	-6.4
3624.521	-6.4
3627.307	-1.4
3630.092	-3.4
3632.874	1.6
3635.654	0.6
3638.432	-4.4
3641.208	-6.4
3643.982	-4.4
3646.753	-6.4
3649.523	-5.4
3652.29	-0.4
3655.055	1.6
3657.818	-3.4
3660.579	-3.4
3663.338	-9.4
3666.095	-7.4
3668.849	-7.4
3671.602	-5.4
3674.352	-5.4
3677.101	-9.4
3679.847	-3.4
3682.591	-1.4
3685.333	-1.4
3688.073	-4.4
3690.811	-1.4
3693.547	-8.4
3696.281	-4.4
3699.013	-5.4
3701.742	-7.4
3704.47	-5.4
3707.195	-8.4
3709.919	-6.4
3712.64	-5.4
3715.359	-9.4
3718.076	-9.4
3720.792	-12.4
3723.505	-9.4
3726.216	-7.4
3728.925	-7.4
3731.632	-7.4
3734.336	-5.4
3737.039	-7.4
3739.74	-3.4
3742.439	-0.4
3745.136	-4.4
3747.83	-6.4
3750.523	-8.4
3753.213	-9.4
3755.902	-9.4
3758.589	-6.4
3761.273	-13.4
3763.956	-9.4
3766.636	-9.4
3769.315	-6.4
3771.991	-5.4
3774.665	-4.4
3777.338	-3.4
3780.008	-8.4
3782.677	-7.4
3785.343	-3.4
3788.007	-5.4
3790.67	-8.4
3793.33	-4.4
3795.989	-4.4
3798.645	-4.4
3801.299	-6.4
3803.952	-7.4
3806.602	-9.4
3809.251	-7.4
3811.897	-9.4
3814.542	-9.4
3817.184	-9.4
3819.825	-5.4
3822.463	-6.4
3825.1	-4.4
3827.735	-10.4
3830.367	-7.4
3832.998	-7.4
3835.627	-7.4
3838.253	-4.4
3840.878	-5.4
3843.501	-7.4
3846.122	-7.4
3848.741	-4.4
3851.358	-8.4
3853.973	-10.4
3856.586	-8.4
3859.197	-9.4
3861.806	-4.4
3864.414	-11.4
3867.019	-11.4
3869.622	-8.4
3872.224	-1.4
3874.823	-3.4
3877.421	-2.4
3880.016	0.6
3882.61	-1.4
3885.202	-3.4
3887.792	-2.4
3890.38	-8.4
3892.966	-8.4
3895.55	-4.4
3898.132	-6.4
3900.713	-5.4
3903.291	-7.4
3905.868	-7.4
3908.442	-8.4
3911.015	-9.4
3913.586	-9.4
3916.155	-10.4
3918.722	-8.4
3921.287	-8.4
3923.85	-4.4
3926.411	-4.4
3928.971	-4.4
3931.528	-6.4
3934.084	-4.4
3936.638	-8.4
3939.19	-8.4
3941.74	-9.4
3944.288	-7.4
3946.834	-9.4
3949.378	-7.4
3951.921	-9.4
3954.462	-8.4
3957	-7.4
3959.537	-9.4
3962.072	-8.4
3964.606	-7.4
3967.137	-5.4
3969.667	-2.4
3972.194	-10.4
3974.72	-0.4
3977.244	-3.4
3979.766	-6.4
3982.286	0.6
3984.805	-5.4
3987.321	-8.4
3989.836	-9.4
3992.349	-9.4
3994.86	-8.4
3997.369	-11.4
3999.877	-11.4
4002.382	-5.4
4004.886	-7.4
4007.388	-8.4
4009.888	-4.4
4012.386	-10.4
4014.883	-8.4
4017.377	-9.4
4019.87	-5.4
4022.361	-2.4
4024.85	-5.4
4027.338	-2.4
4029.823	-6.4
4032.307	-5.4
4034.789	-4.4
4037.269	-7.4
4039.747	-8.4
4042.224	-8.4
4044.699	-8.4
4047.172	-8.4
4049.643	-9.4
4052.112	-11.4
4054.58	-9.4
4057.046	-10.4
4059.51	-7.4
4061.972	-10.4
4064.432	-8.4
4066.891	-5.4
4069.348	-9.4
4071.803	-9.4
4074.256	-7.4
4076.708	-2.4
4079.158	-3.4
4081.606	-3.4
4084.052	-7.4
4086.497	-6.4
4088.939	-7.4
4091.38	-9.4
4093.819	-6.4
4096.257	-9.4
4098.693	-9.4
4101.127	-9.4
4103.559	-11.4
4105.989	-2.4
4108.418	-2.4
4110.845	-4.4
4113.27	-1.4
4115.694	-3.4
4118.115	-1.4
4120.535	-4.4
4122.954	-6.4
4125.37	-5.4
4127.785	-10.4
4130.198	-10.4
4132.609	-6.4
4135.019	-9.4
4137.427	-8.4
4139.833	-5.4
4142.237	-5.4
