Data from 0.125 5sec_RamanShift_03.txt Node
Date: Wed Mar 21 14:38:07 IST 2018
User: aro
Spectrometer: QEPB0276
Trigger mode: 0
Integration Time (sec): 5.000000E0
Scans to average: 1
Electric dark correction enabled: true
Nonlinearity correction enabled: false
Boxcar width: 0
XAxis mode: Raman Shifts
Number of Pixels in Spectrum: 1044
>>>>>Begin Spectral Data<<<<<
160.701	-0.6
166.742	1.4
172.777	5.4
178.805	22.4
184.826	54.4
190.841	116.4
196.849	181.4
202.85	227.4
208.845	243.4
214.833	234.4
220.815	230.4
226.789	221.4
232.758	216.4
238.719	209.4
244.674	208.4
250.623	202.4
256.565	193.4
262.5	185.4
268.429	185.4
274.351	174.4
280.267	178.4
286.176	167.4
292.079	168.4
297.975	159.4
303.865	158.4
309.748	155.4
315.625	149.4
321.495	153.4
327.359	157.4
333.217	151.4
339.068	156.4
344.912	146.4
350.751	153.4
356.583	152.4
362.408	151.4
368.227	154.4
374.04	157.4
379.847	163.4
385.647	163.4
391.44	163.4
397.228	166.4
403.009	169.4
408.784	169.4
414.553	178.4
420.315	188.4
426.071	195.4
431.821	176.4
437.565	170.4
443.302	160.4
449.033	154.4
454.758	152.4
460.477	153.4
466.189	153.4
471.896	145.4
477.596	148.4
483.29	149.4
488.978	147.4
494.66	144.4
500.335	137.4
506.005	133.4
511.668	126.4
517.325	124.4
522.977	119.4
528.622	116.4
534.261	115.4
539.894	109.4
545.521	109.4
551.141	107.4
556.756	106.4
562.365	100.4
567.968	98.4
573.565	97.4
579.155	96.4
584.74	93.4
590.319	96.4
595.892	91.4
601.459	97.4
607.02	96.4
612.575	100.4
618.124	94.4
623.667	91.4
629.204	92.4
634.735	91.4
640.261	90.4
645.781	96.4
651.294	97.4
656.802	96.4
662.304	89.4
667.8	83.4
673.29	79.4
678.775	85.4
684.254	77.4
689.726	76.4
695.193	78.4
700.655	77.4
706.11	70.4
711.56	74.4
717.004	75.4
722.442	80.4
727.874	86.4
733.301	79.4
738.722	75.4
744.137	74.4
749.547	75.4
754.951	76.4
760.349	80.4
765.741	72.4
771.128	72.4
776.509	75.4
781.885	80.4
787.254	78.4
792.618	77.4
797.977	76.4
803.33	77.4
808.677	90.4
814.019	92.4
819.355	85.4
824.686	83.4
830.011	83.4
835.33	80.4
840.644	84.4
845.952	88.4
851.255	83.4
856.552	74.4
861.844	69.4
867.13	70.4
872.41	64.4
877.686	62.4
882.955	62.4
888.219	58.4
893.478	58.4
898.731	57.4
903.979	58.4
909.221	52.4
914.458	52.4
919.69	53.4
924.916	55.4
930.136	54.4
935.351	59.4
940.561	62.4
945.766	59.4
950.965	58.4
956.158	57.4
961.347	57.4
966.529	55.4
971.707	58.4
976.879	57.4
982.046	55.4
987.208	53.4
992.364	53.4
997.515	53.4
1002.66	54.4
1007.801	53.4
1012.936	49.4
1018.066	51.4
1023.19	51.4
1028.309	51.4
1033.423	56.4
1038.532	58.4
1043.636	59.4
1048.734	58.4
1053.827	51.4
1058.915	49.4
1063.998	50.4
1069.075	41.4
1074.147	43.4
1079.214	44.4
1084.276	52.4
1089.333	48.4
1094.385	45.4
1099.431	46.4
1104.472	48.4
1109.509	44.4
1114.54	41.4
1119.565	43.4
1124.586	44.4
1129.602	39.4
1134.613	46.4
1139.618	47.4
1144.619	51.4
1149.614	55.4
1154.604	59.4
1159.589	61.4
1164.57	55.4
1169.545	53.4
1174.515	55.4
1179.48	50.4
1184.44	48.4
1189.395	41.4
1194.345	41.4
1199.29	43.4
1204.23	42.4
1209.165	40.4
1214.095	43.4
1219.021	49.4
1223.941	50.4
1228.856	54.4
1233.766	45.4
1238.672	47.4
1243.572	45.4
1248.467	45.4
1253.358	44.4
1258.244	43.4
1263.124	42.4
1268	36.4
1272.871	41.4
1277.737	36.4
1282.599	37.4
1287.455	40.4
1292.306	38.4
1297.153	35.4
1301.995	42.4
1306.832	36.4
1311.664	43.4
1316.491	45.4
1321.314	43.4
1326.132	49.4
1330.945	55.4
1335.753	55.4
1340.556	55.4
1345.354	43.4
1350.148	40.4
1354.937	38.4
1359.722	40.4
1364.501	38.4
1369.276	39.4
1374.046	36.4
1378.811	35.4
1383.572	38.4
1388.327	34.4
1393.079	32.4
1397.825	32.4
1402.567	27.4
1407.304	33.4
1412.036	32.4
1416.764	32.4
1421.487	31.4
1426.205	34.4
1430.919	36.4
1435.628	35.4
1440.333	40.4
1445.032	42.4
1449.727	41.4
1454.418	45.4
1459.104	50.4
1463.785	61.4
1468.462	52.4
1473.134	46.4
1477.802	37.4
1482.465	29.4
1487.123	29.4
1491.777	30.4
1496.426	31.4
1501.071	34.4
1505.711	31.4
1510.347	30.4
1514.978	29.4
1519.604	31.4
1524.226	31.4
1528.844	32.4
1533.457	29.4
1538.065	30.4
1542.669	31.4
1547.269	21.4
1551.864	24.4
1556.454	28.4
1561.041	31.4
1565.622	34.4
1570.199	35.4
1574.772	34.4
1579.34	34.4
1583.904	35.4
1588.464	35.4
1593.019	32.4
1597.569	36.4
1602.115	40.4
1606.657	37.4
1611.195	38.4
1615.728	42.4
1620.256	41.4
1624.78	38.4
1629.3	46.4
1633.816	38.4
1638.327	38.4
1642.834	38.4
1647.336	42.4
1651.834	47.4
1656.328	45.4
1660.817	47.4
1665.302	41.4
1669.783	37.4
1674.259	40.4
1678.732	33.4
1683.199	35.4
1687.663	30.4
1692.122	29.4
1696.577	27.4
1701.028	28.4
1705.474	23.4
1709.917	22.4
1714.355	26.4
1718.788	21.4
1723.218	19.4
1727.643	21.4
1732.064	23.4
1736.481	22.4
1740.893	17.4
1745.301	20.4
1749.705	20.4
1754.105	19.4
1758.501	17.4
1762.893	10.4
1767.28	13.4
1771.663	11.4
1776.042	12.4
1780.417	16.4
1784.787	14.4
1789.154	14.4
1793.516	14.4
1797.874	11.4
1802.228	11.4
1806.578	10.4
1810.924	12.4
1815.266	10.4
1819.603	9.4
1823.937	15.4
1828.266	17.4
1832.591	12.4
1836.913	12.4
1841.23	15.4
1845.543	9.4
1849.852	11.4
1854.156	7.4
1858.457	7.4
1862.754	9.4
1867.047	7.4
1871.335	47.4
1875.62	117.4
1879.9	14.4
1884.177	10.4
1888.449	12.4
1892.718	12.4
1896.982	10.4
1901.243	14.4
1905.499	13.4
1909.752	11.4
1914	9.4
1918.245	8.4
1922.485	14.4
1926.722	11.4
1930.954	6.4
1935.183	11.4
1939.408	7.4
1943.628	6.4
1947.845	9.4
1952.058	4.4
1956.267	10.4
1960.472	8.4
1964.673	10.4
1968.87	11.4
1973.063	9.4
1977.252	15.4
1981.438	10.4
1985.619	11.4
1989.797	10.4
1993.971	6.4
1998.14	11.4
2002.306	10.4
2006.469	9.4
2010.627	11.4
2014.781	7.4
2018.932	11.4
2023.078	7.4
2027.221	7.4
2031.36	8.4
2035.495	7.4
2039.627	6.4
2043.754	4.4
2047.878	2.4
2051.998	7.4
2056.114	13.4
2060.226	8.4
2064.334	14.4
2068.439	14.4
2072.54	14.4
2076.637	12.4
2080.73	8.4
2084.82	7.4
2088.906	5.4
2092.988	4.4
2097.066	8.4
2101.14	8.4
2105.211	11.4
2109.278	7.4
2113.342	7.4
2117.401	8.4
2121.457	9.4
2125.509	6.4
2129.558	4.4
2133.602	6.4
2137.643	6.4
2141.681	12.4
2145.714	10.4
2149.744	9.4
2153.77	5.4
2157.793	5.4
2161.812	5.4
2165.827	2.4
2169.838	6.4
2173.846	3.4
2177.851	3.4
2181.851	2.4
2185.848	4.4
2189.841	4.4
2193.831	7.4
2197.817	9.4
2201.799	3.4
2205.778	2.4
2209.753	4.4
2213.725	4.4
2217.693	5.4
2221.657	7.4
2225.618	8.4
2229.575	8.4
2233.529	4.4
2237.479	4.4
2241.425	2.4
2245.368	2.4
2249.307	2.4
2253.243	3.4
2257.175	4.4
2261.104	2.4
2265.029	2.4
2268.95	-0.6
2272.868	-0.6
2276.783	3.4
2280.694	0.4
2284.601	1.4
2288.505	1.4
2292.405	3.4
2296.302	2.4
2300.195	-1.6
2304.085	4.4
2307.971	3.4
2311.854	2.4
2315.734	2.4
2319.609	1.4
2323.482	0.4
2327.351	-1.6
2331.216	0.4
2335.078	-6.6
2338.937	-1.6
2342.792	-2.6
2346.643	-0.6
2350.492	-0.6
2354.336	0.4
2358.178	1.4
2362.015	0.4
2365.85	-0.6
2369.681	-1.6
2373.508	-3.6
2377.333	-1.6
2381.153	-1.6
2384.971	-0.6
2388.785	-0.6
2392.595	1.4
2396.402	1.4
2400.206	2.4
2404.007	-1.6
2407.804	-4.6
2411.597	-1.6
2415.388	-6.6
2419.174	-3.6
2422.958	-3.6
2426.738	-1.6
2430.515	0.4
2434.289	2.4
2438.059	1.4
2441.825	3.4
2445.589	0.4
2449.349	-0.6
2453.106	-0.6
2456.859	-0.6
2460.61	-2.6
2464.356	-0.6
2468.1	-1.6
2471.84	-1.6
2475.577	-2.6
2479.311	-2.6
2483.041	-4.6
2486.768	-1.6
2490.492	-7.6
2494.213	-4.6
2497.93	-5.6
2501.644	-3.6
2505.355	0.4
2509.062	2.4
2512.766	-1.6
2516.467	0.4
2520.165	-0.6
2523.859	-4.6
2527.551	-2.6
2531.239	-1.6
2534.923	-2.6
2538.605	-1.6
2542.283	-4.6
2545.958	-1.6
2549.63	-3.6
2553.299	-3.6
2556.964	-4.6
2560.626	-2.6
2564.285	-2.6
2567.941	-5.6
2571.594	-5.6
2575.243	-4.6
2578.89	-0.6
2582.533	-1.6
2586.173	-2.6
2589.809	0.4
2593.443	-1.6
2597.073	-0.6
2600.701	-1.6
2604.325	-2.6
2607.946	-0.6
2611.564	-2.6
2615.178	-0.6
2618.79	-3.6
2622.398	-3.6
2626.004	0.4
2629.606	-0.6
2633.205	-2.6
2636.801	-5.6
2640.394	-4.6
2643.983	-1.6
2647.57	-4.6
2651.153	-6.6
2654.734	-2.6
2658.311	0.4
2661.885	-0.6
2665.456	0.4
2669.025	-0.6
2672.589	1.4
2676.151	-1.6
2679.71	-3.6
2683.266	-4.6
2686.819	-5.6
2690.368	-3.6
2693.915	-3.6
2697.458	-2.6
2700.999	1.4
2704.536	-5.6
2708.071	-6.6
2711.602	-5.6
2715.13	-4.6
2718.656	-4.6
2722.178	0.4
2725.697	-3.6
2729.214	2.4
2732.727	1.4
2736.237	3.4
2739.744	1.4
2743.249	-0.6
2746.75	-1.6
2750.248	-4.6
2753.743	-3.6
2757.236	-0.6
2760.725	-2.6
2764.211	-5.6
2767.695	-1.6
2771.175	-0.6
2774.652	-2.6
2778.127	-5.6
2781.598	-4.6
2785.067	-5.6
2788.532	-5.6
2791.995	-2.6
2795.455	3.4
2798.911	1.4
2802.365	3.4
2805.816	3.4
2809.264	1.4
2812.709	-0.6
2816.151	-2.6
2819.59	1.4
2823.026	-4.6
2826.46	-1.6
2829.89	0.4
2833.318	4.4
2836.742	4.4
2840.164	3.4
2843.583	6.4
2846.999	3.4
2850.412	3.4
2853.822	4.4
2857.229	2.4
2860.634	7.4
2864.035	9.4
2867.434	8.4
2870.83	10.4
2874.223	13.4
2877.613	13.4
2881	18.4
2884.385	14.4
2887.766	15.4
2891.145	14.4
2894.521	16.4
2897.894	14.4
2901.264	15.4
2904.631	12.4
2907.996	16.4
2911.358	12.4
2914.717	12.4
2918.073	11.4
2921.426	11.4
2924.777	11.4
2928.124	10.4
2931.469	11.4
2934.811	13.4
2938.15	13.4
2941.487	12.4
2944.821	7.4
2948.152	7.4
2951.48	10.4
2954.805	7.4
2958.128	12.4
2961.447	10.4
2964.765	12.4
2968.079	12.4
2971.39	8.4
2974.699	8.4
2978.005	8.4
2981.308	11.4
2984.609	5.4
2987.907	9.4
2991.202	7.4
2994.494	12.4
2997.784	6.4
3001.07	12.4
3004.355	11.4
3007.636	11.4
3010.915	8.4
3014.191	7.4
3017.464	10.4
3020.734	11.4
3024.002	8.4
3027.267	6.4
3030.53	12.4
3033.789	12.4
3037.046	16.4
3040.301	14.4
3043.552	12.4
3046.801	16.4
3050.048	16.4
3053.291	13.4
3056.532	17.4
3059.771	18.4
3063.006	21.4
3066.239	21.4
3069.469	20.4
3072.697	18.4
3075.922	19.4
3079.144	16.4
3082.364	19.4
3085.581	25.4
3088.795	20.4
3092.007	29.4
3095.216	23.4
3098.423	28.4
3101.627	31.4
3104.828	26.4
3108.026	27.4
3111.222	27.4
3114.416	30.4
3117.607	32.4
3120.795	31.4
3123.98	33.4
3127.163	35.4
3130.344	31.4
3133.521	33.4
3136.696	33.4
3139.869	34.4
3143.039	37.4
3146.206	31.4
3149.371	34.4
3152.533	35.4
3155.693	40.4
3158.85	35.4
3162.005	41.4
3165.157	47.4
3168.306	43.4
3171.453	44.4
3174.597	44.4
3177.739	43.4
3180.878	40.4
3184.014	39.4
3187.149	38.4
3190.28	38.4
3193.409	40.4
3196.536	46.4
3199.659	39.4
3202.781	38.4
3205.9	39.4
3209.016	37.4
3212.13	42.4
3215.241	41.4
3218.35	45.4
3221.456	43.4
3224.56	44.4
3227.661	43.4
3230.76	44.4
3233.856	38.4
3236.95	36.4
3240.041	38.4
3243.13	40.4
3246.216	35.4
3249.3	32.4
3252.382	33.4
3255.46	39.4
3258.537	39.4
3261.611	40.4
3264.682	36.4
3267.751	31.4
3270.818	32.4
3273.882	36.4
3276.943	38.4
3280.002	40.4
3283.059	36.4
3286.113	38.4
3289.165	34.4
3292.214	34.4
3295.261	31.4
3298.306	32.4
3301.348	33.4
3304.387	28.4
3307.425	27.4
3310.459	31.4
3313.492	28.4
3316.521	31.4
3319.549	31.4
3322.574	32.4
3325.597	30.4
3328.617	28.4
3331.635	31.4
3334.65	38.4
3337.663	31.4
3340.674	30.4
3343.682	31.4
3346.688	29.4
3349.691	31.4
3352.692	28.4
3355.691	29.4
3358.687	28.4
3361.681	29.4
3364.673	26.4
3367.662	28.4
3370.649	25.4
3373.633	28.4
3376.615	27.4
3379.595	28.4
3382.572	27.4
3385.547	29.4
3388.52	30.4
3391.49	28.4
3394.458	26.4
3397.424	24.4
3400.387	22.4
3403.348	22.4
3406.307	17.4
3409.263	18.4
3412.217	23.4
3415.168	20.4
3418.118	25.4
3421.065	25.4
3424.009	18.4
3426.951	19.4
3429.891	23.4
3432.829	18.4
3435.764	17.4
3438.697	15.4
3441.628	19.4
3444.557	19.4
3447.483	19.4
3450.407	17.4
3453.328	20.4
3456.247	17.4
3459.164	14.4
3462.079	14.4
3464.991	10.4
3467.902	15.4
3470.809	9.4
3473.715	11.4
3476.618	12.4
3479.519	13.4
3482.418	14.4
3485.315	9.4
3488.209	10.4
3491.101	9.4
3493.99	11.4
3496.878	11.4
3499.763	8.4
3502.646	6.4
3505.527	11.4
3508.405	8.4
3511.281	5.4
3514.155	7.4
3517.027	2.4
3519.897	1.4
3522.764	1.4
3525.629	4.4
3528.492	0.4
3531.352	-1.6
3534.211	7.4
3537.067	4.4
3539.921	4.4
3542.773	3.4
3545.622	2.4
3548.469	-1.6
3551.315	-0.6
3554.157	2.4
3556.998	1.4
3559.837	1.4
3562.673	0.4
3565.507	3.4
3568.339	-0.6
3571.169	2.4
3573.996	-0.6
3576.822	-1.6
3579.645	-0.6
3582.466	-4.6
3585.285	-9.6
3588.101	-3.6
3590.916	-0.6
3593.728	0.4
3596.538	-0.6
3599.346	1.4
3602.152	3.4
3604.956	3.4
3607.757	-1.6
3610.556	-4.6
3613.354	-3.6
3616.149	-5.6
3618.942	-4.6
3621.732	-2.6
3624.521	-3.6
3627.307	-1.6
3630.092	-4.6
3632.874	-5.6
3635.654	-3.6
3638.432	-5.6
3641.208	-9.6
3643.982	-5.6
3646.753	-10.6
3649.523	-3.6
3652.29	-2.6
3655.055	0.4
3657.818	-0.6
3660.579	-1.6
3663.338	-6.6
3666.095	-4.6
3668.849	-6.6
3671.602	-4.6
3674.352	-3.6
3677.101	-7.6
3679.847	-0.6
3682.591	-0.6
3685.333	-4.6
3688.073	-4.6
3690.811	-4.6
3693.547	-10.6
3696.281	-6.6
3699.013	-10.6
3701.742	-9.6
3704.47	-6.6
3707.195	-7.6
3709.919	-6.6
3712.64	-6.6
3715.359	-7.6
3718.076	-5.6
3720.792	-5.6
3723.505	-6.6
3726.216	-5.6
3728.925	-6.6
3731.632	-2.6
3734.336	-7.6
3737.039	-5.6
3739.74	-5.6
3742.439	-3.6
3745.136	-8.6
3747.83	-8.6
3750.523	-9.6
3753.213	-12.6
3755.902	-11.6
3758.589	-8.6
3761.273	-10.6
3763.956	-7.6
3766.636	-7.6
3769.315	-6.6
3771.991	-4.6
3774.665	-3.6
3777.338	-2.6
3780.008	-4.6
3782.677	-10.6
3785.343	-8.6
3788.007	-10.6
3790.67	-10.6
3793.33	-7.6
3795.989	-7.6
3798.645	-7.6
3801.299	-8.6
3803.952	-6.6
3806.602	-7.6
3809.251	-5.6
3811.897	-7.6
3814.542	-7.6
3817.184	-6.6
3819.825	-3.6
3822.463	-8.6
3825.1	-3.6
3827.735	-6.6
3830.367	-4.6
3832.998	-8.6
3835.627	-9.6
3838.253	-8.6
3840.878	-8.6
3843.501	-7.6
3846.122	-10.6
3848.741	-6.6
3851.358	-12.6
3853.973	-8.6
3856.586	-8.6
3859.197	-9.6
3861.806	-4.6
3864.414	-6.6
3867.019	-9.6
3869.622	-5.6
3872.224	-1.6
3874.823	-2.6
3877.421	-2.6
3880.016	1.4
3882.61	-0.6
3885.202	-5.6
3887.792	-5.6
3890.38	-9.6
3892.966	-9.6
3895.55	-9.6
3898.132	-9.6
3900.713	-5.6
3903.291	-8.6
3905.868	-9.6
3908.442	-10.6
3911.015	-8.6
3913.586	-7.6
3916.155	-12.6
3918.722	-9.6
3921.287	-5.6
3923.85	-4.6
3926.411	-5.6
3928.971	-4.6
3931.528	-9.6
3934.084	-6.6
3936.638	-6.6
3939.19	-9.6
3941.74	-11.6
3944.288	-7.6
3946.834	-9.6
3949.378	-7.6
3951.921	-6.6
3954.462	-3.6
3957	-7.6
3959.537	-11.6
3962.072	-7.6
3964.606	-5.6
3967.137	-6.6
3969.667	-4.6
3972.194	-9.6
3974.72	-2.6
3977.244	-3.6
3979.766	-1.6
3982.286	-2.6
3984.805	-4.6
3987.321	-8.6
3989.836	-10.6
3992.349	-9.6
3994.86	-11.6
3997.369	-10.6
3999.877	-9.6
4002.382	-9.6
4004.886	-10.6
4007.388	-7.6
4009.888	-5.6
4012.386	-8.6
4014.883	-8.6
4017.377	-9.6
4019.87	-6.6
4022.361	-4.6
4024.85	-5.6
4027.338	-3.6
4029.823	-3.6
4032.307	-8.6
4034.789	-6.6
4037.269	-10.6
4039.747	-8.6
4042.224	-9.6
4044.699	-6.6
4047.172	-7.6
4049.643	-12.6
4052.112	-6.6
4054.58	-8.6
4057.046	-7.6
4059.51	-7.6
4061.972	-7.6
4064.432	-7.6
4066.891	-6.6
4069.348	-10.6
4071.803	-6.6
4074.256	-4.6
4076.708	-5.6
4079.158	-9.6
4081.606	-3.6
4084.052	-6.6
4086.497	-7.6
4088.939	-9.6
4091.38	-10.6
4093.819	-10.6
4096.257	-7.6
4098.693	-10.6
4101.127	-8.6
4103.559	-5.6
4105.989	-2.6
4108.418	1.4
4110.845	-3.6
4113.27	-4.6
4115.694	-3.6
4118.115	-4.6
4120.535	-3.6
4122.954	-5.6
4125.37	-5.6
4127.785	-11.6
4130.198	-5.6
4132.609	-6.6
4135.019	-8.6
4137.427	-7.6
4139.833	-5.6
4142.237	-6.6
