Data from 0.25 5sec_RamanShift_02.txt Node
Date: Wed Mar 21 14:39:37 IST 2018
User: aro
Spectrometer: QEPB0276
Trigger mode: 0
Integration Time (sec): 5.000000E0
Scans to average: 1
Electric dark correction enabled: true
Nonlinearity correction enabled: false
Boxcar width: 0
XAxis mode: Raman Shifts
Number of Pixels in Spectrum: 1044
>>>>>Begin Spectral Data<<<<<
160.701	-2.6
166.742	0.4
172.777	5.4
178.805	19.4
184.826	43.4
190.841	91.4
196.849	139.4
202.85	177.4
208.845	189.4
214.833	182.4
220.815	174.4
226.789	172.4
232.758	163.4
238.719	167.4
244.674	164.4
250.623	164.4
256.565	150.4
262.5	149.4
268.429	149.4
274.351	148.4
280.267	144.4
286.176	138.4
292.079	143.4
297.975	130.4
303.865	137.4
309.748	135.4
315.625	134.4
321.495	135.4
327.359	138.4
333.217	131.4
339.068	133.4
344.912	128.4
350.751	131.4
356.583	133.4
362.408	133.4
368.227	133.4
374.04	142.4
379.847	142.4
385.647	151.4
391.44	142.4
397.228	141.4
403.009	146.4
408.784	149.4
414.553	160.4
420.315	166.4
426.071	170.4
431.821	157.4
437.565	148.4
443.302	145.4
449.033	139.4
454.758	137.4
460.477	132.4
466.189	131.4
471.896	127.4
477.596	128.4
483.29	133.4
488.978	129.4
494.66	129.4
500.335	125.4
506.005	111.4
511.668	110.4
517.325	110.4
522.977	100.4
528.622	96.4
534.261	94.4
539.894	94.4
545.521	90.4
551.141	91.4
556.756	85.4
562.365	84.4
567.968	87.4
573.565	81.4
579.155	85.4
584.74	84.4
590.319	84.4
595.892	80.4
601.459	86.4
607.02	84.4
612.575	81.4
618.124	80.4
623.667	78.4
629.204	85.4
634.735	82.4
640.261	79.4
645.781	89.4
651.294	85.4
656.802	82.4
662.304	79.4
667.8	73.4
673.29	71.4
678.775	73.4
684.254	68.4
689.726	70.4
695.193	67.4
700.655	68.4
706.11	62.4
711.56	67.4
717.004	67.4
722.442	66.4
727.874	72.4
733.301	65.4
738.722	65.4
744.137	67.4
749.547	63.4
754.951	69.4
760.349	73.4
765.741	71.4
771.128	71.4
776.509	71.4
781.885	68.4
787.254	71.4
792.618	73.4
797.977	69.4
803.33	65.4
808.677	70.4
814.019	67.4
819.355	67.4
824.686	67.4
830.011	68.4
835.33	66.4
840.644	65.4
845.952	64.4
851.255	68.4
856.552	62.4
861.844	56.4
867.13	55.4
872.41	58.4
877.686	54.4
882.955	59.4
888.219	56.4
893.478	55.4
898.731	49.4
903.979	47.4
909.221	46.4
914.458	50.4
919.69	43.4
924.916	48.4
930.136	50.4
935.351	54.4
940.561	53.4
945.766	49.4
950.965	49.4
956.158	51.4
961.347	53.4
966.529	47.4
971.707	49.4
976.879	44.4
982.046	46.4
987.208	46.4
992.364	47.4
997.515	46.4
1002.66	43.4
1007.801	41.4
1012.936	43.4
1018.066	43.4
1023.19	43.4
1028.309	44.4
1033.423	49.4
1038.532	49.4
1043.636	48.4
1048.734	42.4
1053.827	48.4
1058.915	43.4
1063.998	42.4
1069.075	44.4
1074.147	43.4
1079.214	44.4
1084.276	48.4
1089.333	44.4
1094.385	45.4
1099.431	47.4
1104.472	41.4
1109.509	41.4
1114.54	40.4
1119.565	37.4
1124.586	38.4
1129.602	35.4
1134.613	39.4
1139.618	38.4
1144.619	42.4
1149.614	45.4
1154.604	46.4
1159.589	40.4
1164.57	40.4
1169.545	41.4
1174.515	42.4
1179.48	46.4
1184.44	45.4
1189.395	43.4
1194.345	43.4
1199.29	41.4
1204.23	39.4
1209.165	37.4
1214.095	40.4
1219.021	40.4
1223.941	35.4
1228.856	44.4
1233.766	40.4
1238.672	40.4
1243.572	42.4
1248.467	39.4
1253.358	41.4
1258.244	39.4
1263.124	35.4
1268	35.4
1272.871	37.4
1277.737	33.4
1282.599	38.4
1287.455	39.4
1292.306	40.4
1297.153	38.4
1301.995	38.4
1306.832	33.4
1311.664	37.4
1316.491	32.4
1321.314	37.4
1326.132	39.4
1330.945	36.4
1335.753	38.4
1340.556	36.4
1345.354	35.4
1350.148	33.4
1354.937	34.4
1359.722	30.4
1364.501	32.4
1369.276	35.4
1374.046	32.4
1378.811	35.4
1383.572	33.4
1388.327	33.4
1393.079	33.4
1397.825	27.4
1402.567	25.4
1407.304	28.4
1412.036	31.4
1416.764	24.4
1421.487	27.4
1426.205	27.4
1430.919	31.4
1435.628	27.4
1440.333	33.4
1445.032	32.4
1449.727	32.4
1454.418	34.4
1459.104	41.4
1463.785	38.4
1468.462	39.4
1473.134	37.4
1477.802	35.4
1482.465	27.4
1487.123	31.4
1491.777	28.4
1496.426	26.4
1501.071	26.4
1505.711	26.4
1510.347	27.4
1514.978	23.4
1519.604	30.4
1524.226	29.4
1528.844	29.4
1533.457	30.4
1538.065	28.4
1542.669	26.4
1547.269	25.4
1551.864	25.4
1556.454	30.4
1561.041	31.4
1565.622	34.4
1570.199	34.4
1574.772	31.4
1579.34	34.4
1583.904	31.4
1588.464	28.4
1593.019	28.4
1597.569	32.4
1602.115	34.4
1606.657	30.4
1611.195	33.4
1615.728	31.4
1620.256	33.4
1624.78	32.4
1629.3	36.4
1633.816	35.4
1638.327	34.4
1642.834	36.4
1647.336	38.4
1651.834	43.4
1656.328	36.4
1660.817	39.4
1665.302	41.4
1669.783	33.4
1674.259	35.4
1678.732	27.4
1683.199	28.4
1687.663	23.4
1692.122	24.4
1696.577	22.4
1701.028	26.4
1705.474	28.4
1709.917	22.4
1714.355	26.4
1718.788	23.4
1723.218	18.4
1727.643	20.4
1732.064	17.4
1736.481	22.4
1740.893	21.4
1745.301	21.4
1749.705	21.4
1754.105	19.4
1758.501	17.4
1762.893	13.4
1767.28	12.4
1771.663	14.4
1776.042	13.4
1780.417	13.4
1784.787	12.4
1789.154	14.4
1793.516	13.4
1797.874	18.4
1802.228	18.4
1806.578	13.4
1810.924	15.4
1815.266	9.4
1819.603	11.4
1823.937	13.4
1828.266	16.4
1832.591	16.4
1836.913	11.4
1841.23	13.4
1845.543	9.4
1849.852	11.4
1854.156	8.4
1858.457	12.4
1862.754	10.4
1867.047	10.4
1871.335	11.4
1875.62	12.4
1879.9	12.4
1884.177	12.4
1888.449	13.4
1892.718	13.4
1896.982	14.4
1901.243	12.4
1905.499	15.4
1909.752	11.4
1914	9.4
1918.245	9.4
1922.485	13.4
1926.722	11.4
1930.954	10.4
1935.183	11.4
1939.408	8.4
1943.628	9.4
1947.845	11.4
1952.058	5.4
1956.267	10.4
1960.472	13.4
1964.673	11.4
1968.87	11.4
1973.063	16.4
1977.252	15.4
1981.438	13.4
1985.619	12.4
1989.797	13.4
1993.971	8.4
1998.14	11.4
2002.306	9.4
2006.469	9.4
2010.627	9.4
2014.781	9.4
2018.932	11.4
2023.078	9.4
2027.221	6.4
2031.36	9.4
2035.495	11.4
2039.627	7.4
2043.754	7.4
2047.878	7.4
2051.998	8.4
2056.114	15.4
2060.226	11.4
2064.334	11.4
2068.439	15.4
2072.54	14.4
2076.637	11.4
2080.73	9.4
2084.82	10.4
2088.906	7.4
2092.988	6.4
2097.066	10.4
2101.14	10.4
2105.211	9.4
2109.278	11.4
2113.342	11.4
2117.401	10.4
2121.457	10.4
2125.509	9.4
2129.558	11.4
2133.602	9.4
2137.643	9.4
2141.681	13.4
2145.714	12.4
2149.744	12.4
2153.77	12.4
2157.793	10.4
2161.812	7.4
2165.827	6.4
2169.838	6.4
2173.846	6.4
2177.851	3.4
2181.851	8.4
2185.848	8.4
2189.841	9.4
2193.831	13.4
2197.817	8.4
2201.799	8.4
2205.778	3.4
2209.753	7.4
2213.725	7.4
2217.693	9.4
2221.657	10.4
2225.618	7.4
2229.575	10.4
2233.529	7.4
2237.479	7.4
2241.425	6.4
2245.368	6.4
2249.307	3.4
2253.243	5.4
2257.175	7.4
2261.104	4.4
2265.029	5.4
2268.95	5.4
2272.868	6.4
2276.783	6.4
2280.694	5.4
2284.601	3.4
2288.505	3.4
2292.405	5.4
2296.302	6.4
2300.195	2.4
2304.085	6.4
2307.971	6.4
2311.854	7.4
2315.734	6.4
2319.609	0.4
2323.482	1.4
2327.351	0.4
2331.216	6.4
2335.078	-3.6
2338.937	3.4
2342.792	4.4
2346.643	3.4
2350.492	5.4
2354.336	4.4
2358.178	6.4
2362.015	7.4
2365.85	4.4
2369.681	8.4
2373.508	1.4
2377.333	2.4
2381.153	3.4
2384.971	3.4
2388.785	4.4
2392.595	3.4
2396.402	3.4
2400.206	2.4
2404.007	0.4
2407.804	-2.6
2411.597	1.4
2415.388	0.4
2419.174	4.4
2422.958	1.4
2426.738	0.4
2430.515	2.4
2434.289	7.4
2438.059	7.4
2441.825	7.4
2445.589	2.4
2449.349	0.4
2453.106	3.4
2456.859	-0.6
2460.61	3.4
2464.356	2.4
2468.1	1.4
2471.84	5.4
2475.577	3.4
2479.311	0.4
2483.041	-1.6
2486.768	3.4
2490.492	-3.6
2494.213	-1.6
2497.93	-4.6
2501.644	2.4
2505.355	3.4
2509.062	-0.6
2512.766	2.4
2516.467	5.4
2520.165	4.4
2523.859	2.4
2527.551	1.4
2531.239	2.4
2534.923	1.4
2538.605	3.4
2542.283	2.4
2545.958	1.4
2549.63	0.4
2553.299	3.4
2556.964	1.4
2560.626	0.4
2564.285	1.4
2567.941	-1.6
2571.594	-2.6
2575.243	-6.6
2578.89	5.4
2582.533	-0.6
2586.173	1.4
2589.809	4.4
2593.443	4.4
2597.073	1.4
2600.701	1.4
2604.325	1.4
2607.946	2.4
2611.564	-0.6
2615.178	1.4
2618.79	-0.6
2622.398	-1.6
2626.004	2.4
2629.606	3.4
2633.205	-0.6
2636.801	-2.6
2640.394	-2.6
2643.983	0.4
2647.57	-0.6
2651.153	-1.6
2654.734	0.4
2658.311	4.4
2661.885	4.4
2665.456	4.4
2669.025	4.4
2672.589	5.4
2676.151	-1.6
2679.71	0.4
2683.266	-1.6
2686.819	-1.6
2690.368	0.4
2693.915	0.4
2697.458	4.4
2700.999	1.4
2704.536	-0.6
2708.071	-2.6
2711.602	-2.6
2715.13	-2.6
2718.656	-3.6
2722.178	1.4
2725.697	-0.6
2729.214	1.4
2732.727	4.4
2736.237	3.4
2739.744	2.4
2743.249	3.4
2746.75	-0.6
2750.248	-0.6
2753.743	2.4
2757.236	1.4
2760.725	-1.6
2764.211	-1.6
2767.695	-0.6
2771.175	1.4
2774.652	-0.6
2778.127	0.4
2781.598	-0.6
2785.067	-0.6
2788.532	-1.6
2791.995	-2.6
2795.455	-0.6
2798.911	2.4
2802.365	4.4
2805.816	4.4
2809.264	5.4
2812.709	-1.6
2816.151	0.4
2819.59	6.4
2823.026	2.4
2826.46	2.4
2829.89	5.4
2833.318	6.4
2836.742	6.4
2840.164	6.4
2843.583	5.4
2846.999	-2.6
2850.412	2.4
2853.822	4.4
2857.229	-0.6
2860.634	2.4
2864.035	3.4
2867.434	3.4
2870.83	4.4
2874.223	5.4
2877.613	5.4
2881	10.4
2884.385	8.4
2887.766	6.4
2891.145	7.4
2894.521	10.4
2897.894	8.4
2901.264	8.4
2904.631	10.4
2907.996	10.4
2911.358	8.4
2914.717	4.4
2918.073	2.4
2921.426	5.4
2924.777	7.4
2928.124	3.4
2931.469	6.4
2934.811	7.4
2938.15	7.4
2941.487	10.4
2944.821	8.4
2948.152	10.4
2951.48	8.4
2954.805	7.4
2958.128	12.4
2961.447	9.4
2964.765	11.4
2968.079	10.4
2971.39	11.4
2974.699	9.4
2978.005	7.4
2981.308	6.4
2984.609	5.4
2987.907	6.4
2991.202	4.4
2994.494	4.4
2997.784	1.4
3001.07	8.4
3004.355	8.4
3007.636	9.4
3010.915	9.4
3014.191	9.4
3017.464	10.4
3020.734	10.4
3024.002	13.4
3027.267	11.4
3030.53	15.4
3033.789	12.4
3037.046	16.4
3040.301	13.4
3043.552	10.4
3046.801	14.4
3050.048	10.4
3053.291	5.4
3056.532	14.4
3059.771	13.4
3063.006	16.4
3066.239	17.4
3069.469	22.4
3072.697	17.4
3075.922	15.4
3079.144	15.4
3082.364	17.4
3085.581	22.4
3088.795	21.4
3092.007	21.4
3095.216	22.4
3098.423	22.4
3101.627	23.4
3104.828	23.4
3108.026	20.4
3111.222	19.4
3114.416	22.4
3117.607	20.4
3120.795	21.4
3123.98	23.4
3127.163	26.4
3130.344	23.4
3133.521	27.4
3136.696	26.4
3139.869	29.4
3143.039	25.4
3146.206	28.4
3149.371	26.4
3152.533	33.4
3155.693	34.4
3158.85	31.4
3162.005	33.4
3165.157	33.4
3168.306	30.4
3171.453	31.4
3174.597	30.4
3177.739	32.4
3180.878	23.4
3184.014	32.4
3187.149	28.4
3190.28	31.4
3193.409	35.4
3196.536	35.4
3199.659	33.4
3202.781	31.4
3205.9	31.4
3209.016	32.4
3212.13	32.4
3215.241	32.4
3218.35	30.4
3221.456	33.4
3224.56	35.4
3227.661	31.4
3230.76	29.4
3233.856	31.4
3236.95	23.4
3240.041	22.4
3243.13	28.4
3246.216	26.4
3249.3	25.4
3252.382	26.4
3255.46	33.4
3258.537	31.4
3261.611	30.4
3264.682	27.4
3267.751	27.4
3270.818	23.4
3273.882	25.4
3276.943	25.4
3280.002	25.4
3283.059	27.4
3286.113	27.4
3289.165	25.4
3292.214	31.4
3295.261	26.4
3298.306	20.4
3301.348	21.4
3304.387	27.4
3307.425	22.4
3310.459	23.4
3313.492	23.4
3316.521	25.4
3319.549	26.4
3322.574	27.4
3325.597	23.4
3328.617	23.4
3331.635	23.4
3334.65	24.4
3337.663	25.4
3340.674	22.4
3343.682	24.4
3346.688	23.4
3349.691	23.4
3352.692	17.4
3355.691	22.4
3358.687	21.4
3361.681	20.4
3364.673	21.4
3367.662	21.4
3370.649	17.4
3373.633	22.4
3376.615	27.4
3379.595	24.4
3382.572	24.4
3385.547	24.4
3388.52	22.4
3391.49	25.4
3394.458	18.4
3397.424	15.4
3400.387	17.4
3403.348	18.4
3406.307	14.4
3409.263	15.4
3412.217	19.4
3415.168	16.4
3418.118	19.4
3421.065	18.4
3424.009	15.4
3426.951	18.4
3429.891	18.4
3432.829	17.4
3435.764	16.4
3438.697	16.4
3441.628	11.4
3444.557	16.4
3447.483	15.4
3450.407	14.4
3453.328	16.4
3456.247	14.4
3459.164	8.4
3462.079	12.4
3464.991	10.4
3467.902	12.4
3470.809	8.4
3473.715	14.4
3476.618	12.4
3479.519	11.4
3482.418	13.4
3485.315	11.4
3488.209	8.4
3491.101	7.4
3493.99	8.4
3496.878	8.4
3499.763	7.4
3502.646	7.4
3505.527	9.4
3508.405	8.4
3511.281	2.4
3514.155	7.4
3517.027	1.4
3519.897	2.4
3522.764	3.4
3525.629	5.4
3528.492	5.4
3531.352	2.4
3534.211	7.4
3537.067	4.4
3539.921	5.4
3542.773	8.4
3545.622	3.4
3548.469	1.4
3551.315	2.4
3554.157	2.4
3556.998	1.4
3559.837	3.4
3562.673	0.4
3565.507	3.4
3568.339	-0.6
3571.169	4.4
3573.996	3.4
3576.822	0.4
3579.645	0.4
3582.466	-2.6
3585.285	-0.6
3588.101	-0.6
3590.916	2.4
3593.728	3.4
3596.538	6.4
3599.346	4.4
3602.152	4.4
3604.956	4.4
3607.757	0.4
3610.556	-3.6
3613.354	-2.6
3616.149	-2.6
3618.942	-5.6
3621.732	-2.6
3624.521	-1.6
3627.307	2.4
3630.092	-0.6
3632.874	-0.6
3635.654	0.4
3638.432	-0.6
3641.208	-4.6
3643.982	3.4
3646.753	-0.6
3649.523	0.4
3652.29	1.4
3655.055	2.4
3657.818	0.4
3660.579	1.4
3663.338	-1.6
3666.095	-1.6
3668.849	-5.6
3671.602	-1.6
3674.352	-3.6
3677.101	-2.6
3679.847	-1.6
3682.591	-0.6
3685.333	-2.6
3688.073	-3.6
3690.811	-4.6
3693.547	-7.6
3696.281	-1.6
3699.013	-3.6
3701.742	-2.6
3704.47	-0.6
3707.195	-2.6
3709.919	-0.6
3712.64	-1.6
3715.359	-2.6
3718.076	-2.6
3720.792	-3.6
3723.505	-1.6
3726.216	-3.6
3728.925	-3.6
3731.632	-2.6
3734.336	-3.6
3737.039	-5.6
3739.74	-2.6
3742.439	-2.6
3745.136	-2.6
3747.83	-3.6
3750.523	-3.6
3753.213	-1.6
3755.902	-8.6
3758.589	-3.6
3761.273	-3.6
3763.956	-0.6
3766.636	-3.6
3769.315	-0.6
3771.991	-1.6
3774.665	-1.6
3777.338	-0.6
3780.008	-3.6
3782.677	-3.6
3785.343	-4.6
3788.007	-6.6
3790.67	-4.6
3793.33	0.4
3795.989	-4.6
3798.645	-1.6
3801.299	-6.6
3803.952	-5.6
3806.602	-4.6
3809.251	-5.6
3811.897	-4.6
3814.542	-3.6
3817.184	-4.6
3819.825	-3.6
3822.463	-1.6
3825.1	1.4
3827.735	-4.6
3830.367	-1.6
3832.998	-3.6
3835.627	-4.6
3838.253	-3.6
3840.878	-3.6
3843.501	-4.6
3846.122	-3.6
3848.741	-2.6
3851.358	-4.6
3853.973	-4.6
3856.586	-4.6
3859.197	-7.6
3861.806	-1.6
3864.414	-3.6
3867.019	-9.6
3869.622	-2.6
3872.224	3.4
3874.823	0.4
3877.421	-0.6
3880.016	2.4
3882.61	2.4
3885.202	-0.6
3887.792	-0.6
3890.38	-5.6
3892.966	-5.6
3895.55	-2.6
3898.132	-3.6
3900.713	-5.6
3903.291	-3.6
3905.868	-3.6
3908.442	-4.6
3911.015	-2.6
3913.586	-5.6
3916.155	-6.6
3918.722	-1.6
3921.287	-0.6
3923.85	-0.6
3926.411	-2.6
3928.971	-2.6
3931.528	-1.6
3934.084	-2.6
3936.638	-5.6
3939.19	-2.6
3941.74	-8.6
3944.288	-1.6
3946.834	-9.6
3949.378	-3.6
3951.921	-3.6
3954.462	-2.6
3957	-4.6
3959.537	-3.6
3962.072	-6.6
3964.606	-4.6
3967.137	-3.6
3969.667	-4.6
3972.194	-6.6
3974.72	0.4
3977.244	-0.6
3979.766	1.4
3982.286	1.4
3984.805	-4.6
3987.321	-4.6
3989.836	-3.6
3992.349	-5.6
3994.86	-3.6
3997.369	-5.6
3999.877	-4.6
4002.382	-0.6
4004.886	-3.6
4007.388	-4.6
4009.888	-1.6
4012.386	-2.6
4014.883	-3.6
4017.377	-6.6
4019.87	-6.6
4022.361	-0.6
4024.85	-1.6
4027.338	2.4
4029.823	-0.6
4032.307	1.4
4034.789	-3.6
4037.269	-5.6
4039.747	-2.6
4042.224	-6.6
4044.699	-2.6
4047.172	-4.6
4049.643	-4.6
4052.112	-2.6
4054.58	-4.6
4057.046	-5.6
4059.51	-2.6
4061.972	-7.6
4064.432	-3.6
4066.891	-5.6
4069.348	-8.6
4071.803	-5.6
4074.256	-1.6
4076.708	0.4
4079.158	-0.6
4081.606	-1.6
4084.052	-0.6
4086.497	-3.6
4088.939	-3.6
4091.38	-6.6
4093.819	-4.6
4096.257	-4.6
4098.693	-5.6
4101.127	-4.6
4103.559	-4.6
4105.989	3.4
4108.418	1.4
4110.845	0.4
4113.27	2.4
4115.694	-1.6
4118.115	-2.6
4120.535	-0.6
4122.954	-0.6
4125.37	-2.6
4127.785	-9.6
4130.198	-5.6
4132.609	-4.6
4135.019	-6.6
4137.427	-6.6
4139.833	-5.6
4142.237	-3.6
