Data from 1 5sec_RamanShift_01.txt Node
Date: Wed Mar 21 14:42:22 IST 2018
User: aro
Spectrometer: QEPB0276
Trigger mode: 0
Integration Time (sec): 5.000000E0
Scans to average: 1
Electric dark correction enabled: true
Nonlinearity correction enabled: false
Boxcar width: 0
XAxis mode: Raman Shifts
Number of Pixels in Spectrum: 1044
>>>>>Begin Spectral Data<<<<<
160.701	-0.8
166.742	3.2
172.777	1.2
178.805	11.2
184.826	27.2
190.841	57.2
196.849	92.2
202.85	116.2
208.845	124.2
214.833	119.2
220.815	117.2
226.789	114.2
232.758	126.2
238.719	121.2
244.674	121.2
250.623	117.2
256.565	116.2
262.5	117.2
268.429	115.2
274.351	111.2
280.267	119.2
286.176	113.2
292.079	118.2
297.975	114.2
303.865	114.2
309.748	119.2
315.625	116.2
321.495	120.2
327.359	118.2
333.217	117.2
339.068	118.2
344.912	116.2
350.751	121.2
356.583	119.2
362.408	123.2
368.227	118.2
374.04	130.2
379.847	121.2
385.647	134.2
391.44	122.2
397.228	123.2
403.009	120.2
408.784	128.2
414.553	136.2
420.315	148.2
426.071	154.2
431.821	145.2
437.565	131.2
443.302	128.2
449.033	129.2
454.758	120.2
460.477	115.2
466.189	119.2
471.896	114.2
477.596	112.2
483.29	111.2
488.978	112.2
494.66	109.2
500.335	107.2
506.005	101.2
511.668	89.2
517.325	86.2
522.977	82.2
528.622	78.2
534.261	80.2
539.894	74.2
545.521	78.2
551.141	75.2
556.756	77.2
562.365	77.2
567.968	70.2
573.565	66.2
579.155	69.2
584.74	71.2
590.319	81.2
595.892	67.2
601.459	73.2
607.02	72.2
612.575	68.2
618.124	68.2
623.667	64.2
629.204	60.2
634.735	65.2
640.261	62.2
645.781	72.2
651.294	70.2
656.802	70.2
662.304	71.2
667.8	66.2
673.29	56.2
678.775	61.2
684.254	60.2
689.726	58.2
695.193	62.2
700.655	61.2
706.11	56.2
711.56	57.2
717.004	61.2
722.442	58.2
727.874	62.2
733.301	55.2
738.722	53.2
744.137	52.2
749.547	53.2
754.951	62.2
760.349	57.2
765.741	53.2
771.128	61.2
776.509	60.2
781.885	60.2
787.254	60.2
792.618	60.2
797.977	59.2
803.33	57.2
808.677	67.2
814.019	66.2
819.355	61.2
824.686	61.2
830.011	62.2
835.33	58.2
840.644	58.2
845.952	58.2
851.255	53.2
856.552	51.2
861.844	48.2
867.13	51.2
872.41	50.2
877.686	50.2
882.955	48.2
888.219	49.2
893.478	48.2
898.731	46.2
903.979	44.2
909.221	45.2
914.458	47.2
919.69	45.2
924.916	47.2
930.136	48.2
935.351	49.2
940.561	48.2
945.766	44.2
950.965	43.2
956.158	45.2
961.347	47.2
966.529	42.2
971.707	44.2
976.879	43.2
982.046	37.2
987.208	40.2
992.364	41.2
997.515	43.2
1002.66	43.2
1007.801	40.2
1012.936	42.2
1018.066	43.2
1023.19	45.2
1028.309	46.2
1033.423	41.2
1038.532	48.2
1043.636	47.2
1048.734	44.2
1053.827	45.2
1058.915	39.2
1063.998	40.2
1069.075	40.2
1074.147	40.2
1079.214	38.2
1084.276	39.2
1089.333	44.2
1094.385	45.2
1099.431	39.2
1104.472	35.2
1109.509	44.2
1114.54	37.2
1119.565	36.2
1124.586	37.2
1129.602	35.2
1134.613	37.2
1139.618	39.2
1144.619	41.2
1149.614	40.2
1154.604	40.2
1159.589	39.2
1164.57	31.2
1169.545	40.2
1174.515	35.2
1179.48	40.2
1184.44	37.2
1189.395	33.2
1194.345	35.2
1199.29	37.2
1204.23	34.2
1209.165	30.2
1214.095	34.2
1219.021	37.2
1223.941	36.2
1228.856	38.2
1233.766	36.2
1238.672	41.2
1243.572	42.2
1248.467	39.2
1253.358	33.2
1258.244	36.2
1263.124	32.2
1268	30.2
1272.871	30.2
1277.737	29.2
1282.599	29.2
1287.455	34.2
1292.306	31.2
1297.153	34.2
1301.995	32.2
1306.832	31.2
1311.664	34.2
1316.491	33.2
1321.314	34.2
1326.132	34.2
1330.945	37.2
1335.753	37.2
1340.556	33.2
1345.354	34.2
1350.148	33.2
1354.937	33.2
1359.722	29.2
1364.501	29.2
1369.276	33.2
1374.046	33.2
1378.811	29.2
1383.572	32.2
1388.327	27.2
1393.079	29.2
1397.825	19.2
1402.567	26.2
1407.304	26.2
1412.036	30.2
1416.764	29.2
1421.487	25.2
1426.205	27.2
1430.919	31.2
1435.628	27.2
1440.333	30.2
1445.032	28.2
1449.727	31.2
1454.418	25.2
1459.104	30.2
1463.785	32.2
1468.462	29.2
1473.134	27.2
1477.802	26.2
1482.465	24.2
1487.123	24.2
1491.777	25.2
1496.426	23.2
1501.071	21.2
1505.711	27.2
1510.347	26.2
1514.978	24.2
1519.604	29.2
1524.226	28.2
1528.844	28.2
1533.457	28.2
1538.065	26.2
1542.669	23.2
1547.269	19.2
1551.864	22.2
1556.454	24.2
1561.041	26.2
1565.622	26.2
1570.199	25.2
1574.772	27.2
1579.34	23.2
1583.904	22.2
1588.464	22.2
1593.019	23.2
1597.569	25.2
1602.115	26.2
1606.657	29.2
1611.195	27.2
1615.728	27.2
1620.256	26.2
1624.78	25.2
1629.3	25.2
1633.816	22.2
1638.327	21.2
1642.834	26.2
1647.336	26.2
1651.834	29.2
1656.328	25.2
1660.817	26.2
1665.302	24.2
1669.783	22.2
1674.259	22.2
1678.732	19.2
1683.199	20.2
1687.663	17.2
1692.122	21.2
1696.577	24.2
1701.028	23.2
1705.474	24.2
1709.917	24.2
1714.355	23.2
1718.788	20.2
1723.218	19.2
1727.643	17.2
1732.064	19.2
1736.481	14.2
1740.893	16.2
1745.301	15.2
1749.705	15.2
1754.105	15.2
1758.501	15.2
1762.893	13.2
1767.28	17.2
1771.663	17.2
1776.042	11.2
1780.417	16.2
1784.787	17.2
1789.154	16.2
1793.516	16.2
1797.874	18.2
1802.228	17.2
1806.578	14.2
1810.924	15.2
1815.266	9.2
1819.603	9.2
1823.937	16.2
1828.266	13.2
1832.591	13.2
1836.913	7.2
1841.23	10.2
1845.543	9.2
1849.852	10.2
1854.156	11.2
1858.457	13.2
1862.754	13.2
1867.047	11.2
1871.335	16.2
1875.62	15.2
1879.9	13.2
1884.177	13.2
1888.449	12.2
1892.718	13.2
1896.982	13.2
1901.243	12.2
1905.499	15.2
1909.752	9.2
1914	10.2
1918.245	8.2
1922.485	14.2
1926.722	9.2
1930.954	14.2
1935.183	11.2
1939.408	15.2
1943.628	9.2
1947.845	12.2
1952.058	9.2
1956.267	12.2
1960.472	10.2
1964.673	14.2
1968.87	13.2
1973.063	13.2
1977.252	14.2
1981.438	11.2
1985.619	14.2
1989.797	13.2
1993.971	8.2
1998.14	10.2
2002.306	11.2
2006.469	6.2
2010.627	9.2
2014.781	8.2
2018.932	14.2
2023.078	11.2
2027.221	6.2
2031.36	8.2
2035.495	9.2
2039.627	7.2
2043.754	4.2
2047.878	8.2
2051.998	4.2
2056.114	12.2
2060.226	10.2
2064.334	17.2
2068.439	16.2
2072.54	13.2
2076.637	10.2
2080.73	12.2
2084.82	9.2
2088.906	7.2
2092.988	10.2
2097.066	7.2
2101.14	6.2
2105.211	7.2
2109.278	11.2
2113.342	9.2
2117.401	6.2
2121.457	7.2
2125.509	2.2
2129.558	7.2
2133.602	5.2
2137.643	3.2
2141.681	8.2
2145.714	10.2
2149.744	9.2
2153.77	6.2
2157.793	4.2
2161.812	8.2
2165.827	4.2
2169.838	8.2
2173.846	11.2
2177.851	5.2
2181.851	10.2
2185.848	8.2
2189.841	10.2
2193.831	12.2
2197.817	8.2
2201.799	5.2
2205.778	1.2
2209.753	4.2
2213.725	3.2
2217.693	5.2
2221.657	9.2
2225.618	6.2
2229.575	7.2
2233.529	8.2
2237.479	6.2
2241.425	6.2
2245.368	5.2
2249.307	7.2
2253.243	7.2
2257.175	9.2
2261.104	5.2
2265.029	6.2
2268.95	6.2
2272.868	6.2
2276.783	6.2
2280.694	2.2
2284.601	5.2
2288.505	0.2
2292.405	2.2
2296.302	0.2
2300.195	-0.8
2304.085	5.2
2307.971	6.2
2311.854	7.2
2315.734	5.2
2319.609	5.2
2323.482	3.2
2327.351	3.2
2331.216	5.2
2335.078	0.2
2338.937	2.2
2342.792	7.2
2346.643	0.2
2350.492	4.2
2354.336	6.2
2358.178	5.2
2362.015	6.2
2365.85	4.2
2369.681	4.2
2373.508	-1.8
2377.333	0.2
2381.153	0.2
2384.971	2.2
2388.785	1.2
2392.595	3.2
2396.402	4.2
2400.206	6.2
2404.007	3.2
2407.804	1.2
2411.597	3.2
2415.388	1.2
2419.174	4.2
2422.958	4.2
2426.738	4.2
2430.515	5.2
2434.289	6.2
2438.059	4.2
2441.825	8.2
2445.589	2.2
2449.349	0.2
2453.106	1.2
2456.859	1.2
2460.61	1.2
2464.356	2.2
2468.1	-0.8
2471.84	3.2
2475.577	0.2
2479.311	3.2
2483.041	-0.8
2486.768	6.2
2490.492	-1.8
2494.213	2.2
2497.93	-0.8
2501.644	5.2
2505.355	5.2
2509.062	5.2
2512.766	3.2
2516.467	7.2
2520.165	1.2
2523.859	3.2
2527.551	-1.8
2531.239	3.2
2534.923	0.2
2538.605	4.2
2542.283	-0.8
2545.958	0.2
2549.63	0.2
2553.299	-0.8
2556.964	1.2
2560.626	-0.8
2564.285	2.2
2567.941	0.2
2571.594	0.2
2575.243	0.2
2578.89	7.2
2582.533	3.2
2586.173	2.2
2589.809	3.2
2593.443	4.2
2597.073	0.2
2600.701	2.2
2604.325	-1.8
2607.946	0.2
2611.564	0.2
2615.178	-0.8
2618.79	-2.8
2622.398	-1.8
2626.004	1.2
2629.606	6.2
2633.205	1.2
2636.801	0.2
2640.394	-0.8
2643.983	1.2
2647.57	-0.8
2651.153	1.2
2654.734	1.2
2658.311	3.2
2661.885	6.2
2665.456	3.2
2669.025	4.2
2672.589	5.2
2676.151	1.2
2679.71	-2.8
2683.266	-0.8
2686.819	-3.8
2690.368	0.2
2693.915	-0.8
2697.458	-2.8
2700.999	2.2
2704.536	1.2
2708.071	-5.8
2711.602	-2.8
2715.13	-1.8
2718.656	0.2
2722.178	1.2
2725.697	0.2
2729.214	-0.8
2732.727	2.2
2736.237	3.2
2739.744	3.2
2743.249	0.2
2746.75	-1.8
2750.248	-1.8
2753.743	-0.8
2757.236	0.2
2760.725	-1.8
2764.211	-0.8
2767.695	2.2
2771.175	1.2
2774.652	0.2
2778.127	-0.8
2781.598	0.2
2785.067	-3.8
2788.532	-3.8
2791.995	-2.8
2795.455	5.2
2798.911	2.2
2802.365	6.2
2805.816	2.2
2809.264	5.2
2812.709	-1.8
2816.151	1.2
2819.59	1.2
2823.026	-2.8
2826.46	-0.8
2829.89	1.2
2833.318	7.2
2836.742	4.2
2840.164	4.2
2843.583	3.2
2846.999	-1.8
2850.412	-0.8
2853.822	-2.8
2857.229	0.2
2860.634	3.2
2864.035	2.2
2867.434	0.2
2870.83	3.2
2874.223	4.2
2877.613	5.2
2881	6.2
2884.385	2.2
2887.766	3.2
2891.145	1.2
2894.521	3.2
2897.894	4.2
2901.264	4.2
2904.631	4.2
2907.996	5.2
2911.358	1.2
2914.717	-0.8
2918.073	-1.8
2921.426	0.2
2924.777	4.2
2928.124	1.2
2931.469	3.2
2934.811	4.2
2938.15	6.2
2941.487	9.2
2944.821	3.2
2948.152	6.2
2951.48	3.2
2954.805	1.2
2958.128	6.2
2961.447	0.2
2964.765	3.2
2968.079	3.2
2971.39	4.2
2974.699	-0.8
2978.005	0.2
2981.308	1.2
2984.609	1.2
2987.907	-0.8
2991.202	0.2
2994.494	1.2
2997.784	-3.8
3001.07	1.2
3004.355	5.2
3007.636	2.2
3010.915	4.2
3014.191	5.2
3017.464	5.2
3020.734	4.2
3024.002	2.2
3027.267	4.2
3030.53	4.2
3033.789	1.2
3037.046	5.2
3040.301	2.2
3043.552	1.2
3046.801	1.2
3050.048	0.2
3053.291	-1.8
3056.532	0.2
3059.771	5.2
3063.006	6.2
3066.239	8.2
3069.469	9.2
3072.697	8.2
3075.922	3.2
3079.144	2.2
3082.364	7.2
3085.581	5.2
3088.795	6.2
3092.007	6.2
3095.216	8.2
3098.423	3.2
3101.627	7.2
3104.828	5.2
3108.026	0.2
3111.222	4.2
3114.416	3.2
3117.607	0.2
3120.795	5.2
3123.98	9.2
3127.163	10.2
3130.344	8.2
3133.521	7.2
3136.696	7.2
3139.869	9.2
3143.039	9.2
3146.206	8.2
3149.371	5.2
3152.533	11.2
3155.693	9.2
3158.85	11.2
3162.005	6.2
3165.157	10.2
3168.306	7.2
3171.453	7.2
3174.597	3.2
3177.739	8.2
3180.878	3.2
3184.014	12.2
3187.149	4.2
3190.28	8.2
3193.409	11.2
3196.536	11.2
3199.659	10.2
3202.781	6.2
3205.9	8.2
3209.016	9.2
3212.13	7.2
3215.241	8.2
3218.35	11.2
3221.456	13.2
3224.56	7.2
3227.661	10.2
3230.76	9.2
3233.856	8.2
3236.95	3.2
3240.041	1.2
3243.13	10.2
3246.216	7.2
3249.3	5.2
3252.382	7.2
3255.46	10.2
3258.537	13.2
3261.611	11.2
3264.682	13.2
3267.751	9.2
3270.818	6.2
3273.882	5.2
3276.943	6.2
3280.002	5.2
3283.059	5.2
3286.113	7.2
3289.165	5.2
3292.214	5.2
3295.261	8.2
3298.306	6.2
3301.348	5.2
3304.387	4.2
3307.425	6.2
3310.459	5.2
3313.492	9.2
3316.521	6.2
3319.549	9.2
3322.574	9.2
3325.597	6.2
3328.617	1.2
3331.635	5.2
3334.65	7.2
3337.663	8.2
3340.674	5.2
3343.682	4.2
3346.688	7.2
3349.691	8.2
3352.692	1.2
3355.691	7.2
3358.687	4.2
3361.681	7.2
3364.673	0.2
3367.662	6.2
3370.649	1.2
3373.633	5.2
3376.615	5.2
3379.595	7.2
3382.572	9.2
3385.547	6.2
3388.52	7.2
3391.49	8.2
3394.458	7.2
3397.424	5.2
3400.387	3.2
3403.348	6.2
3406.307	0.2
3409.263	-1.8
3412.217	5.2
3415.168	6.2
3418.118	7.2
3421.065	5.2
3424.009	2.2
3426.951	2.2
3429.891	3.2
3432.829	2.2
3435.764	0.2
3438.697	-0.8
3441.628	1.2
3444.557	7.2
3447.483	3.2
3450.407	4.2
3453.328	7.2
3456.247	5.2
3459.164	3.2
3462.079	3.2
3464.991	1.2
3467.902	8.2
3470.809	3.2
3473.715	6.2
3476.618	1.2
3479.519	5.2
3482.418	3.2
3485.315	1.2
3488.209	-2.8
3491.101	-4.8
3493.99	-1.8
3496.878	0.2
3499.763	0.2
3502.646	-2.8
3505.527	3.2
3508.405	-1.8
3511.281	0.2
3514.155	3.2
3517.027	-2.8
3519.897	-2.8
3522.764	1.2
3525.629	1.2
3528.492	-0.8
3531.352	-1.8
3534.211	3.2
3537.067	1.2
3539.921	2.2
3542.773	4.2
3545.622	-1.8
3548.469	-4.8
3551.315	0.2
3554.157	-1.8
3556.998	-2.8
3559.837	-0.8
3562.673	-1.8
3565.507	1.2
3568.339	-0.8
3571.169	1.2
3573.996	2.2
3576.822	0.2
3579.645	1.2
3582.466	-1.8
3585.285	0.2
3588.101	-2.8
3590.916	-1.8
3593.728	2.2
3596.538	-0.8
3599.346	-1.8
3602.152	0.2
3604.956	1.2
3607.757	-3.8
3610.556	-5.8
3613.354	-6.8
3616.149	-3.8
3618.942	-6.8
3621.732	-3.8
3624.521	-0.8
3627.307	1.2
3630.092	1.2
3632.874	0.2
3635.654	-1.8
3638.432	-1.8
3641.208	-2.8
3643.982	-0.8
3646.753	-3.8
3649.523	-0.8
3652.29	-2.8
3655.055	2.2
3657.818	-0.8
3660.579	0.2
3663.338	-1.8
3666.095	-1.8
3668.849	-5.8
3671.602	-1.8
3674.352	-4.8
3677.101	-4.8
3679.847	-3.8
3682.591	-2.8
3685.333	-1.8
3688.073	-2.8
3690.811	-1.8
3693.547	-4.8
3696.281	-4.8
3699.013	-2.8
3701.742	-6.8
3704.47	1.2
3707.195	-3.8
3709.919	2.2
3712.64	-0.8
3715.359	-1.8
3718.076	-2.8
3720.792	-1.8
3723.505	-2.8
3726.216	1.2
3728.925	-2.8
3731.632	-0.8
3734.336	-5.8
3737.039	-1.8
3739.74	-3.8
3742.439	-1.8
3745.136	-4.8
3747.83	-2.8
3750.523	-5.8
3753.213	-3.8
3755.902	-6.8
3758.589	-1.8
3761.273	-6.8
3763.956	-3.8
3766.636	-1.8
3769.315	0.2
3771.991	1.2
3774.665	1.2
3777.338	0.2
3780.008	-1.8
3782.677	-3.8
3785.343	-2.8
3788.007	-4.8
3790.67	-4.8
3793.33	1.2
3795.989	-1.8
3798.645	-0.8
3801.299	-1.8
3803.952	-3.8
3806.602	-3.8
3809.251	-7.8
3811.897	-2.8
3814.542	-3.8
3817.184	-1.8
3819.825	0.2
3822.463	-1.8
3825.1	1.2
3827.735	-3.8
3830.367	-0.8
3832.998	-1.8
3835.627	-3.8
3838.253	0.2
3840.878	-2.8
3843.501	-3.8
3846.122	-1.8
3848.741	-2.8
3851.358	-3.8
3853.973	-3.8
3856.586	-4.8
3859.197	-4.8
3861.806	-1.8
3864.414	-2.8
3867.019	-8.8
3869.622	-0.8
3872.224	1.2
3874.823	-1.8
3877.421	1.2
3880.016	2.2
3882.61	4.2
3885.202	1.2
3887.792	2.2
3890.38	-2.8
3892.966	-1.8
3895.55	-3.8
3898.132	1.2
3900.713	-0.8
3903.291	-2.8
3905.868	-2.8
3908.442	-6.8
3911.015	-2.8
3913.586	-7.8
3916.155	-9.8
3918.722	-7.8
3921.287	-5.8
3923.85	-2.8
3926.411	-3.8
3928.971	-0.8
3931.528	-1.8
3934.084	-2.8
3936.638	-0.8
3939.19	0.2
3941.74	-4.8
3944.288	-2.8
3946.834	-2.8
3949.378	-2.8
3951.921	-2.8
3954.462	-2.8
3957	-1.8
3959.537	-4.8
3962.072	-4.8
3964.606	-4.8
3967.137	-4.8
3969.667	-5.8
3972.194	-2.8
3974.72	-0.8
3977.244	-1.8
3979.766	1.2
3982.286	2.2
3984.805	0.2
3987.321	-2.8
3989.836	-3.8
3992.349	0.2
3994.86	-2.8
3997.369	-2.8
3999.877	-4.8
4002.382	1.2
4004.886	-3.8
4007.388	-1.8
4009.888	1.2
4012.386	-2.8
4014.883	-6.8
4017.377	-6.8
4019.87	-6.8
4022.361	0.2
4024.85	-4.8
4027.338	3.2
4029.823	-0.8
4032.307	-1.8
4034.789	-0.8
4037.269	-3.8
4039.747	-2.8
4042.224	-2.8
4044.699	-0.8
4047.172	-2.8
4049.643	-2.8
4052.112	-1.8
4054.58	-3.8
4057.046	-1.8
4059.51	-2.8
4061.972	-5.8
4064.432	-3.8
4066.891	-3.8
4069.348	-9.8
4071.803	-4.8
4074.256	-2.8
4076.708	0.2
4079.158	-2.8
4081.606	1.2
4084.052	-0.8
4086.497	-1.8
4088.939	-5.8
4091.38	-2.8
4093.819	1.2
4096.257	-2.8
4098.693	-4.8
4101.127	-1.8
4103.559	-1.8
4105.989	5.2
4108.418	1.2
4110.845	2.2
4113.27	1.2
4115.694	-0.8
4118.115	-0.8
4120.535	1.2
4122.954	-0.8
4125.37	-2.8
4127.785	-6.8
4130.198	-6.8
4132.609	-1.8
4135.019	-5.8
4137.427	-4.8
4139.833	-1.8
4142.237	-2.8
