Data from 2 5sec_RamanShift_02.txt Node
Date: Wed Mar 21 14:43:37 IST 2018
User: aro
Spectrometer: QEPB0276
Trigger mode: 0
Integration Time (sec): 5.000000E0
Scans to average: 1
Electric dark correction enabled: true
Nonlinearity correction enabled: false
Boxcar width: 0
XAxis mode: Raman Shifts
Number of Pixels in Spectrum: 1044
>>>>>Begin Spectral Data<<<<<
160.701	0.4
166.742	5.4
172.777	5.4
178.805	19.4
184.826	42.4
190.841	86.4
196.849	129.4
202.85	170.4
208.845	176.4
214.833	176.4
220.815	175.4
226.789	177.4
232.758	183.4
238.719	183.4
244.674	184.4
250.623	186.4
256.565	190.4
262.5	183.4
268.429	185.4
274.351	185.4
280.267	188.4
286.176	189.4
292.079	182.4
297.975	187.4
303.865	186.4
309.748	193.4
315.625	190.4
321.495	195.4
327.359	195.4
333.217	190.4
339.068	195.4
344.912	188.4
350.751	189.4
356.583	192.4
362.408	196.4
368.227	193.4
374.04	194.4
379.847	200.4
385.647	210.4
391.44	202.4
397.228	201.4
403.009	195.4
408.784	198.4
414.553	202.4
420.315	228.4
426.071	227.4
431.821	209.4
437.565	203.4
443.302	193.4
449.033	194.4
454.758	191.4
460.477	188.4
466.189	185.4
471.896	183.4
477.596	184.4
483.29	182.4
488.978	178.4
494.66	178.4
500.335	180.4
506.005	162.4
511.668	165.4
517.325	155.4
522.977	152.4
528.622	149.4
534.261	151.4
539.894	146.4
545.521	149.4
551.141	147.4
556.756	144.4
562.365	140.4
567.968	142.4
573.565	137.4
579.155	138.4
584.74	133.4
590.319	140.4
595.892	126.4
601.459	132.4
607.02	131.4
612.575	136.4
618.124	129.4
623.667	130.4
629.204	124.4
634.735	123.4
640.261	125.4
645.781	133.4
651.294	138.4
656.802	132.4
662.304	130.4
667.8	122.4
673.29	119.4
678.775	125.4
684.254	121.4
689.726	116.4
695.193	115.4
700.655	114.4
706.11	115.4
711.56	111.4
717.004	118.4
722.442	115.4
727.874	117.4
733.301	109.4
738.722	112.4
744.137	113.4
749.547	113.4
754.951	115.4
760.349	120.4
765.741	119.4
771.128	114.4
776.509	112.4
781.885	118.4
787.254	120.4
792.618	114.4
797.977	114.4
803.33	111.4
808.677	122.4
814.019	116.4
819.355	114.4
824.686	110.4
830.011	115.4
835.33	111.4
840.644	114.4
845.952	118.4
851.255	107.4
856.552	103.4
861.844	105.4
867.13	110.4
872.41	98.4
877.686	106.4
882.955	106.4
888.219	103.4
893.478	101.4
898.731	100.4
903.979	94.4
909.221	100.4
914.458	92.4
919.69	91.4
924.916	97.4
930.136	94.4
935.351	97.4
940.561	95.4
945.766	93.4
950.965	93.4
956.158	91.4
961.347	94.4
966.529	90.4
971.707	94.4
976.879	93.4
982.046	89.4
987.208	91.4
992.364	90.4
997.515	88.4
1002.66	92.4
1007.801	89.4
1012.936	94.4
1018.066	88.4
1023.19	89.4
1028.309	88.4
1033.423	88.4
1038.532	89.4
1043.636	97.4
1048.734	89.4
1053.827	85.4
1058.915	85.4
1063.998	86.4
1069.075	83.4
1074.147	86.4
1079.214	88.4
1084.276	90.4
1089.333	90.4
1094.385	88.4
1099.431	88.4
1104.472	83.4
1109.509	84.4
1114.54	78.4
1119.565	83.4
1124.586	75.4
1129.602	78.4
1134.613	77.4
1139.618	83.4
1144.619	78.4
1149.614	82.4
1154.604	81.4
1159.589	80.4
1164.57	72.4
1169.545	81.4
1174.515	76.4
1179.48	81.4
1184.44	80.4
1189.395	75.4
1194.345	76.4
1199.29	84.4
1204.23	72.4
1209.165	76.4
1214.095	78.4
1219.021	77.4
1223.941	73.4
1228.856	77.4
1233.766	75.4
1238.672	74.4
1243.572	77.4
1248.467	75.4
1253.358	74.4
1258.244	71.4
1263.124	69.4
1268	69.4
1272.871	70.4
1277.737	67.4
1282.599	69.4
1287.455	72.4
1292.306	75.4
1297.153	72.4
1301.995	72.4
1306.832	66.4
1311.664	72.4
1316.491	67.4
1321.314	69.4
1326.132	65.4
1330.945	67.4
1335.753	68.4
1340.556	68.4
1345.354	61.4
1350.148	61.4
1354.937	58.4
1359.722	57.4
1364.501	57.4
1369.276	71.4
1374.046	62.4
1378.811	67.4
1383.572	64.4
1388.327	63.4
1393.079	63.4
1397.825	59.4
1402.567	56.4
1407.304	57.4
1412.036	59.4
1416.764	52.4
1421.487	53.4
1426.205	55.4
1430.919	56.4
1435.628	60.4
1440.333	62.4
1445.032	58.4
1449.727	57.4
1454.418	58.4
1459.104	61.4
1463.785	62.4
1468.462	62.4
1473.134	63.4
1477.802	57.4
1482.465	55.4
1487.123	54.4
1491.777	53.4
1496.426	51.4
1501.071	51.4
1505.711	54.4
1510.347	52.4
1514.978	50.4
1519.604	52.4
1524.226	51.4
1528.844	51.4
1533.457	52.4
1538.065	48.4
1542.669	51.4
1547.269	48.4
1551.864	45.4
1556.454	48.4
1561.041	50.4
1565.622	54.4
1570.199	53.4
1574.772	52.4
1579.34	54.4
1583.904	44.4
1588.464	50.4
1593.019	49.4
1597.569	47.4
1602.115	53.4
1606.657	43.4
1611.195	51.4
1615.728	50.4
1620.256	45.4
1624.78	52.4
1629.3	50.4
1633.816	44.4
1638.327	44.4
1642.834	50.4
1647.336	51.4
1651.834	48.4
1656.328	50.4
1660.817	49.4
1665.302	49.4
1669.783	40.4
1674.259	45.4
1678.732	38.4
1683.199	39.4
1687.663	38.4
1692.122	41.4
1696.577	37.4
1701.028	40.4
1705.474	41.4
1709.917	37.4
1714.355	42.4
1718.788	37.4
1723.218	34.4
1727.643	41.4
1732.064	39.4
1736.481	37.4
1740.893	35.4
1745.301	38.4
1749.705	37.4
1754.105	36.4
1758.501	32.4
1762.893	27.4
1767.28	34.4
1771.663	30.4
1776.042	26.4
1780.417	30.4
1784.787	31.4
1789.154	29.4
1793.516	27.4
1797.874	28.4
1802.228	29.4
1806.578	30.4
1810.924	28.4
1815.266	26.4
1819.603	29.4
1823.937	27.4
1828.266	27.4
1832.591	29.4
1836.913	28.4
1841.23	30.4
1845.543	30.4
1849.852	27.4
1854.156	24.4
1858.457	29.4
1862.754	27.4
1867.047	24.4
1871.335	26.4
1875.62	28.4
1879.9	23.4
1884.177	22.4
1888.449	23.4
1892.718	23.4
1896.982	24.4
1901.243	24.4
1905.499	26.4
1909.752	25.4
1914	22.4
1918.245	22.4
1922.485	26.4
1926.722	26.4
1930.954	22.4
1935.183	28.4
1939.408	23.4
1943.628	21.4
1947.845	21.4
1952.058	17.4
1956.267	21.4
1960.472	22.4
1964.673	23.4
1968.87	21.4
1973.063	22.4
1977.252	23.4
1981.438	18.4
1985.619	19.4
1989.797	22.4
1993.971	16.4
1998.14	21.4
2002.306	17.4
2006.469	21.4
2010.627	20.4
2014.781	25.4
2018.932	21.4
2023.078	21.4
2027.221	20.4
2031.36	19.4
2035.495	21.4
2039.627	19.4
2043.754	15.4
2047.878	12.4
2051.998	15.4
2056.114	20.4
2060.226	18.4
2064.334	18.4
2068.439	20.4
2072.54	20.4
2076.637	19.4
2080.73	18.4
2084.82	16.4
2088.906	13.4
2092.988	14.4
2097.066	17.4
2101.14	15.4
2105.211	21.4
2109.278	19.4
2113.342	19.4
2117.401	18.4
2121.457	16.4
2125.509	18.4
2129.558	16.4
2133.602	14.4
2137.643	17.4
2141.681	16.4
2145.714	17.4
2149.744	17.4
2153.77	14.4
2157.793	10.4
2161.812	13.4
2165.827	12.4
2169.838	14.4
2173.846	13.4
2177.851	7.4
2181.851	9.4
2185.848	15.4
2189.841	15.4
2193.831	17.4
2197.817	15.4
2201.799	11.4
2205.778	9.4
2209.753	12.4
2213.725	13.4
2217.693	12.4
2221.657	18.4
2225.618	14.4
2229.575	17.4
2233.529	13.4
2237.479	12.4
2241.425	9.4
2245.368	9.4
2249.307	5.4
2253.243	11.4
2257.175	9.4
2261.104	7.4
2265.029	8.4
2268.95	8.4
2272.868	9.4
2276.783	11.4
2280.694	8.4
2284.601	9.4
2288.505	6.4
2292.405	8.4
2296.302	8.4
2300.195	7.4
2304.085	8.4
2307.971	12.4
2311.854	10.4
2315.734	10.4
2319.609	7.4
2323.482	10.4
2327.351	5.4
2331.216	9.4
2335.078	3.4
2338.937	7.4
2342.792	7.4
2346.643	5.4
2350.492	6.4
2354.336	7.4
2358.178	7.4
2362.015	9.4
2365.85	5.4
2369.681	8.4
2373.508	4.4
2377.333	4.4
2381.153	5.4
2384.971	9.4
2388.785	10.4
2392.595	7.4
2396.402	10.4
2400.206	10.4
2404.007	6.4
2407.804	5.4
2411.597	6.4
2415.388	3.4
2419.174	3.4
2422.958	2.4
2426.738	2.4
2430.515	3.4
2434.289	8.4
2438.059	8.4
2441.825	7.4
2445.589	3.4
2449.349	2.4
2453.106	6.4
2456.859	4.4
2460.61	6.4
2464.356	7.4
2468.1	5.4
2471.84	8.4
2475.577	10.4
2479.311	4.4
2483.041	4.4
2486.768	4.4
2490.492	-0.6
2494.213	3.4
2497.93	1.4
2501.644	2.4
2505.355	5.4
2509.062	4.4
2512.766	2.4
2516.467	6.4
2520.165	5.4
2523.859	2.4
2527.551	2.4
2531.239	3.4
2534.923	3.4
2538.605	6.4
2542.283	7.4
2545.958	5.4
2549.63	5.4
2553.299	4.4
2556.964	4.4
2560.626	3.4
2564.285	6.4
2567.941	4.4
2571.594	2.4
2575.243	-0.6
2578.89	4.4
2582.533	0.4
2586.173	0.4
2589.809	3.4
2593.443	5.4
2597.073	5.4
2600.701	1.4
2604.325	1.4
2607.946	4.4
2611.564	1.4
2615.178	5.4
2618.79	3.4
2622.398	-0.6
2626.004	6.4
2629.606	6.4
2633.205	2.4
2636.801	2.4
2640.394	2.4
2643.983	1.4
2647.57	1.4
2651.153	-4.6
2654.734	1.4
2658.311	4.4
2661.885	1.4
2665.456	1.4
2669.025	3.4
2672.589	5.4
2676.151	4.4
2679.71	0.4
2683.266	-2.6
2686.819	1.4
2690.368	-0.6
2693.915	5.4
2697.458	3.4
2700.999	5.4
2704.536	1.4
2708.071	-0.6
2711.602	-0.6
2715.13	0.4
2718.656	-2.6
2722.178	-0.6
2725.697	-2.6
2729.214	0.4
2732.727	0.4
2736.237	2.4
2739.744	-0.6
2743.249	-0.6
2746.75	0.4
2750.248	-4.6
2753.743	1.4
2757.236	2.4
2760.725	-0.6
2764.211	0.4
2767.695	1.4
2771.175	2.4
2774.652	3.4
2778.127	0.4
2781.598	3.4
2785.067	-1.6
2788.532	-2.6
2791.995	-1.6
2795.455	-0.6
2798.911	0.4
2802.365	2.4
2805.816	2.4
2809.264	-0.6
2812.709	-3.6
2816.151	-1.6
2819.59	1.4
2823.026	-2.6
2826.46	0.4
2829.89	2.4
2833.318	8.4
2836.742	7.4
2840.164	5.4
2843.583	4.4
2846.999	1.4
2850.412	3.4
2853.822	2.4
2857.229	1.4
2860.634	1.4
2864.035	2.4
2867.434	0.4
2870.83	0.4
2874.223	3.4
2877.613	2.4
2881	4.4
2884.385	2.4
2887.766	4.4
2891.145	2.4
2894.521	7.4
2897.894	4.4
2901.264	4.4
2904.631	8.4
2907.996	9.4
2911.358	5.4
2914.717	5.4
2918.073	3.4
2921.426	3.4
2924.777	5.4
2928.124	0.4
2931.469	1.4
2934.811	4.4
2938.15	5.4
2941.487	6.4
2944.821	5.4
2948.152	-1.6
2951.48	2.4
2954.805	-1.6
2958.128	0.4
2961.447	2.4
2964.765	5.4
2968.079	4.4
2971.39	5.4
2974.699	2.4
2978.005	3.4
2981.308	2.4
2984.609	0.4
2987.907	3.4
2991.202	0.4
2994.494	-0.6
2997.784	-2.6
3001.07	1.4
3004.355	1.4
3007.636	-1.6
3010.915	-1.6
3014.191	0.4
3017.464	-0.6
3020.734	-0.6
3024.002	0.4
3027.267	1.4
3030.53	3.4
3033.789	0.4
3037.046	1.4
3040.301	4.4
3043.552	-0.6
3046.801	0.4
3050.048	2.4
3053.291	-1.6
3056.532	2.4
3059.771	2.4
3063.006	3.4
3066.239	2.4
3069.469	6.4
3072.697	4.4
3075.922	-2.6
3079.144	-2.6
3082.364	0.4
3085.581	1.4
3088.795	1.4
3092.007	-0.6
3095.216	1.4
3098.423	3.4
3101.627	2.4
3104.828	5.4
3108.026	1.4
3111.222	1.4
3114.416	3.4
3117.607	4.4
3120.795	6.4
3123.98	5.4
3127.163	6.4
3130.344	5.4
3133.521	5.4
3136.696	5.4
3139.869	7.4
3143.039	4.4
3146.206	5.4
3149.371	1.4
3152.533	4.4
3155.693	5.4
3158.85	7.4
3162.005	4.4
3165.157	6.4
3168.306	6.4
3171.453	3.4
3174.597	5.4
3177.739	3.4
3180.878	0.4
3184.014	8.4
3187.149	5.4
3190.28	6.4
3193.409	9.4
3196.536	5.4
3199.659	11.4
3202.781	6.4
3205.9	6.4
3209.016	5.4
3212.13	4.4
3215.241	6.4
3218.35	8.4
3221.456	8.4
3224.56	7.4
3227.661	7.4
3230.76	6.4
3233.856	2.4
3236.95	0.4
3240.041	-0.6
3243.13	4.4
3246.216	1.4
3249.3	4.4
3252.382	0.4
3255.46	6.4
3258.537	8.4
3261.611	8.4
3264.682	5.4
3267.751	4.4
3270.818	4.4
3273.882	2.4
3276.943	6.4
3280.002	3.4
3283.059	6.4
3286.113	4.4
3289.165	4.4
3292.214	4.4
3295.261	3.4
3298.306	2.4
3301.348	1.4
3304.387	0.4
3307.425	-0.6
3310.459	2.4
3313.492	-0.6
3316.521	4.4
3319.549	6.4
3322.574	5.4
3325.597	4.4
3328.617	0.4
3331.635	4.4
3334.65	4.4
3337.663	2.4
3340.674	4.4
3343.682	3.4
3346.688	4.4
3349.691	2.4
3352.692	1.4
3355.691	4.4
3358.687	2.4
3361.681	2.4
3364.673	-3.6
3367.662	0.4
3370.649	-1.6
3373.633	1.4
3376.615	1.4
3379.595	0.4
3382.572	5.4
3385.547	1.4
3388.52	-0.6
3391.49	1.4
3394.458	2.4
3397.424	-2.6
3400.387	-3.6
3403.348	0.4
3406.307	-0.6
3409.263	-2.6
3412.217	2.4
3415.168	1.4
3418.118	7.4
3421.065	5.4
3424.009	2.4
3426.951	1.4
3429.891	3.4
3432.829	1.4
3435.764	-0.6
3438.697	-1.6
3441.628	-4.6
3444.557	-1.6
3447.483	-1.6
3450.407	-2.6
3453.328	1.4
3456.247	-0.6
3459.164	-2.6
3462.079	-0.6
3464.991	-3.6
3467.902	2.4
3470.809	2.4
3473.715	1.4
3476.618	-0.6
3479.519	1.4
3482.418	2.4
3485.315	1.4
3488.209	-0.6
3491.101	-5.6
3493.99	-1.6
3496.878	0.4
3499.763	-0.6
3502.646	-2.6
3505.527	0.4
3508.405	-1.6
3511.281	-1.6
3514.155	-3.6
3517.027	-5.6
3519.897	-5.6
3522.764	-3.6
3525.629	-3.6
3528.492	-2.6
3531.352	-5.6
3534.211	1.4
3537.067	-2.6
3539.921	1.4
3542.773	0.4
3545.622	-0.6
3548.469	-5.6
3551.315	-0.6
3554.157	-4.6
3556.998	-3.6
3559.837	-2.6
3562.673	0.4
3565.507	1.4
3568.339	-3.6
3571.169	0.4
3573.996	-3.6
3576.822	-5.6
3579.645	-6.6
3582.466	-9.6
3585.285	-7.6
3588.101	-6.6
3590.916	-3.6
3593.728	-0.6
3596.538	-0.6
3599.346	-2.6
3602.152	0.4
3604.956	4.4
3607.757	-0.6
3610.556	-2.6
3613.354	-6.6
3616.149	-3.6
3618.942	-5.6
3621.732	-1.6
3624.521	-3.6
3627.307	-0.6
3630.092	-4.6
3632.874	-3.6
3635.654	-3.6
3638.432	-5.6
3641.208	-6.6
3643.982	-5.6
3646.753	-8.6
3649.523	-6.6
3652.29	-1.6
3655.055	-0.6
3657.818	-5.6
3660.579	-2.6
3663.338	-3.6
3666.095	-2.6
3668.849	-3.6
3671.602	-1.6
3674.352	-6.6
3677.101	-5.6
3679.847	-0.6
3682.591	-2.6
3685.333	-4.6
3688.073	-2.6
3690.811	-8.6
3693.547	-10.6
3696.281	-8.6
3699.013	-6.6
3701.742	-10.6
3704.47	-7.6
3707.195	-6.6
3709.919	-2.6
3712.64	-5.6
3715.359	-7.6
3718.076	-4.6
3720.792	-3.6
3723.505	-1.6
3726.216	-6.6
3728.925	-3.6
3731.632	-1.6
3734.336	-4.6
3737.039	-4.6
3739.74	-3.6
3742.439	-4.6
3745.136	-6.6
3747.83	-5.6
3750.523	-8.6
3753.213	-6.6
3755.902	-11.6
3758.589	-7.6
3761.273	-8.6
3763.956	-6.6
3766.636	-6.6
3769.315	-3.6
3771.991	-3.6
3774.665	-0.6
3777.338	-2.6
3780.008	-1.6
3782.677	-6.6
3785.343	-3.6
3788.007	-8.6
3790.67	-3.6
3793.33	-5.6
3795.989	-6.6
3798.645	-3.6
3801.299	-5.6
3803.952	-5.6
3806.602	-7.6
3809.251	-7.6
3811.897	-8.6
3814.542	-5.6
3817.184	-7.6
3819.825	-6.6
3822.463	-3.6
3825.1	-3.6
3827.735	-4.6
3830.367	-5.6
3832.998	-4.6
3835.627	-5.6
3838.253	-2.6
3840.878	-3.6
3843.501	-8.6
3846.122	-4.6
3848.741	-1.6
3851.358	-5.6
3853.973	-2.6
3856.586	-5.6
3859.197	-8.6
3861.806	-4.6
3864.414	-5.6
3867.019	-11.6
3869.622	-5.6
3872.224	-4.6
3874.823	-3.6
3877.421	-2.6
3880.016	0.4
3882.61	-0.6
3885.202	-0.6
3887.792	0.4
3890.38	-4.6
3892.966	-5.6
3895.55	-7.6
3898.132	-5.6
3900.713	-2.6
3903.291	-6.6
3905.868	-5.6
3908.442	-9.6
3911.015	-7.6
3913.586	-10.6
3916.155	-11.6
3918.722	-6.6
3921.287	-7.6
3923.85	-6.6
3926.411	-6.6
3928.971	-4.6
3931.528	-5.6
3934.084	-3.6
3936.638	-5.6
3939.19	-7.6
3941.74	-7.6
3944.288	-3.6
3946.834	-8.6
3949.378	-6.6
3951.921	-4.6
3954.462	0.4
3957	-3.6
3959.537	-5.6
3962.072	-8.6
3964.606	-6.6
3967.137	-4.6
3969.667	-5.6
3972.194	-8.6
3974.72	-4.6
3977.244	-4.6
3979.766	-1.6
3982.286	-3.6
3984.805	-5.6
3987.321	-5.6
3989.836	-7.6
3992.349	-6.6
3994.86	-5.6
3997.369	-6.6
3999.877	-4.6
4002.382	-2.6
4004.886	-6.6
4007.388	-4.6
4009.888	-1.6
4012.386	-5.6
4014.883	-6.6
4017.377	-8.6
4019.87	-6.6
4022.361	-5.6
4024.85	-7.6
4027.338	-0.6
4029.823	-4.6
4032.307	-2.6
4034.789	-4.6
4037.269	-6.6
4039.747	-5.6
4042.224	-10.6
4044.699	-2.6
4047.172	-1.6
4049.643	-5.6
4052.112	-5.6
4054.58	-5.6
4057.046	-4.6
4059.51	-5.6
4061.972	-6.6
4064.432	-8.6
4066.891	-9.6
4069.348	-11.6
4071.803	-9.6
4074.256	-8.6
4076.708	-4.6
4079.158	-4.6
4081.606	-3.6
4084.052	-1.6
4086.497	-2.6
4088.939	-3.6
4091.38	-3.6
4093.819	-3.6
4096.257	-6.6
4098.693	-8.6
4101.127	-7.6
4103.559	-4.6
4105.989	-0.6
4108.418	-0.6
4110.845	0.4
4113.27	0.4
4115.694	-2.6
4118.115	-0.6
4120.535	-1.6
4122.954	-3.6
4125.37	-6.6
4127.785	-6.6
4130.198	-6.6
4132.609	-7.6
4135.019	-8.6
4137.427	-8.6
4139.833	-6.6
4142.237	-6.6
