Data from etoh 5sec_RamanShift_01.txt Node
Date: Wed Mar 21 14:31:32 IST 2018
User: aro
Spectrometer: QEPB0276
Trigger mode: 0
Integration Time (sec): 5.000000E0
Scans to average: 1
Electric dark correction enabled: true
Nonlinearity correction enabled: false
Boxcar width: 0
XAxis mode: Raman Shifts
Number of Pixels in Spectrum: 1044
>>>>>Begin Spectral Data<<<<<
160.701	-0.9
166.742	3.1
172.777	8.1
178.805	28.1
184.826	68.1
190.841	149.1
196.849	241.1
202.85	307.1
208.845	329.1
214.833	310.1
220.815	305.1
226.789	297.1
232.758	303.1
238.719	300.1
244.674	298.1
250.623	300.1
256.565	300.1
262.5	293.1
268.429	283.1
274.351	271.1
280.267	276.1
286.176	264.1
292.079	252.1
297.975	248.1
303.865	243.1
309.748	248.1
315.625	254.1
321.495	253.1
327.359	255.1
333.217	240.1
339.068	235.1
344.912	227.1
350.751	232.1
356.583	236.1
362.408	226.1
368.227	230.1
374.04	244.1
379.847	252.1
385.647	253.1
391.44	272.1
397.228	311.1
403.009	333.1
408.784	348.1
414.553	344.1
420.315	366.1
426.071	400.1
431.821	437.1
437.565	467.1
443.302	468.1
449.033	434.1
454.758	391.1
460.477	347.1
466.189	305.1
471.896	284.1
477.596	259.1
483.29	249.1
488.978	241.1
494.66	236.1
500.335	226.1
506.005	205.1
511.668	201.1
517.325	201.1
522.977	201.1
528.622	203.1
534.261	203.1
539.894	190.1
545.521	185.1
551.141	182.1
556.756	177.1
562.365	167.1
567.968	164.1
573.565	163.1
579.155	162.1
584.74	156.1
590.319	160.1
595.892	152.1
601.459	158.1
607.02	153.1
612.575	153.1
618.124	152.1
623.667	148.1
629.204	146.1
634.735	142.1
640.261	149.1
645.781	156.1
651.294	149.1
656.802	156.1
662.304	146.1
667.8	141.1
673.29	138.1
678.775	146.1
684.254	137.1
689.726	138.1
695.193	139.1
700.655	134.1
706.11	131.1
711.56	131.1
717.004	134.1
722.442	131.1
727.874	136.1
733.301	133.1
738.722	133.1
744.137	133.1
749.547	137.1
754.951	138.1
760.349	145.1
765.741	144.1
771.128	147.1
776.509	152.1
781.885	152.1
787.254	157.1
792.618	170.1
797.977	180.1
803.33	206.1
808.677	260.1
814.019	308.1
819.355	297.1
824.686	246.1
830.011	231.1
835.33	247.1
840.644	283.1
845.952	318.1
851.255	323.1
856.552	310.1
861.844	343.1
867.13	443.1
872.41	704.1
877.686	1186.1
882.955	1753.1
888.219	1972.1
893.478	1592.1
898.731	966.1
903.979	553.1
909.221	362.1
914.458	267.1
919.69	227.1
924.916	202.1
930.136	181.1
935.351	186.1
940.561	180.1
945.766	182.1
950.965	170.1
956.158	163.1
961.347	154.1
966.529	152.1
971.707	178.1
976.879	192.1
982.046	201.1
987.208	181.1
992.364	177.1
997.515	193.1
1002.66	204.1
1007.801	226.1
1012.936	237.1
1018.066	264.1
1023.19	300.1
1028.309	345.1
1033.423	401.1
1038.532	489.1
1043.636	599.1
1048.734	710.1
1053.827	777.1
1058.915	738.1
1063.998	621.1
1069.075	522.1
1074.147	481.1
1079.214	512.1
1084.276	588.1
1089.333	690.1
1094.385	768.1
1099.431	763.1
1104.472	656.1
1109.509	523.1
1114.54	404.1
1119.565	354.1
1124.586	315.1
1129.602	288.1
1134.613	271.1
1139.618	248.1
1144.619	232.1
1149.614	248.1
1154.604	280.1
1159.589	294.1
1164.57	264.1
1169.545	239.1
1174.515	209.1
1179.48	186.1
1184.44	154.1
1189.395	134.1
1194.345	131.1
1199.29	135.1
1204.23	130.1
1209.165	130.1
1214.095	142.1
1219.021	160.1
1223.941	170.1
1228.856	174.1
1233.766	167.1
1238.672	160.1
1243.572	161.1
1248.467	165.1
1253.358	172.1
1258.244	192.1
1263.124	211.1
1268	240.1
1272.871	290.1
1277.737	339.1
1282.599	383.1
1287.455	367.1
1292.306	314.1
1297.153	266.1
1301.995	234.1
1306.832	212.1
1311.664	203.1
1316.491	195.1
1321.314	199.1
1326.132	224.1
1330.945	258.1
1335.753	289.1
1340.556	257.1
1345.354	218.1
1350.148	193.1
1354.937	180.1
1359.722	199.1
1364.501	198.1
1369.276	211.1
1374.046	205.1
1378.811	212.1
1383.572	224.1
1388.327	224.1
1393.079	237.1
1397.825	222.1
1402.567	234.1
1407.304	238.1
1412.036	257.1
1416.764	267.1
1421.487	291.1
1426.205	314.1
1430.919	359.1
1435.628	401.1
1440.333	489.1
1445.032	581.1
1449.727	722.1
1454.418	910.1
1459.104	1069.1
1463.785	1046.1
1468.462	875.1
1473.134	659.1
1477.802	510.1
1482.465	441.1
1487.123	416.1
1491.777	389.1
1496.426	333.1
1501.071	277.1
1505.711	239.1
1510.347	212.1
1514.978	185.1
1519.604	178.1
1524.226	163.1
1528.844	153.1
1533.457	140.1
1538.065	128.1
1542.669	126.1
1547.269	114.1
1551.864	112.1
1556.454	102.1
1561.041	107.1
1565.622	103.1
1570.199	93.1
1574.772	97.1
1579.34	88.1
1583.904	85.1
1588.464	78.1
1593.019	75.1
1597.569	81.1
1602.115	81.1
1606.657	76.1
1611.195	80.1
1615.728	86.1
1620.256	78.1
1624.78	73.1
1629.3	71.1
1633.816	65.1
1638.327	67.1
1642.834	62.1
1647.336	66.1
1651.834	71.1
1656.328	65.1
1660.817	69.1
1665.302	62.1
1669.783	65.1
1674.259	63.1
1678.732	57.1
1683.199	58.1
1687.663	55.1
1692.122	56.1
1696.577	54.1
1701.028	56.1
1705.474	59.1
1709.917	50.1
1714.355	55.1
1718.788	47.1
1723.218	43.1
1727.643	44.1
1732.064	45.1
1736.481	43.1
1740.893	44.1
1745.301	44.1
1749.705	43.1
1754.105	38.1
1758.501	40.1
1762.893	31.1
1767.28	31.1
1771.663	26.1
1776.042	30.1
1780.417	30.1
1784.787	32.1
1789.154	32.1
1793.516	32.1
1797.874	34.1
1802.228	33.1
1806.578	31.1
1810.924	31.1
1815.266	29.1
1819.603	28.1
1823.937	28.1
1828.266	29.1
1832.591	28.1
1836.913	27.1
1841.23	26.1
1845.543	25.1
1849.852	20.1
1854.156	21.1
1858.457	29.1
1862.754	24.1
1867.047	24.1
1871.335	26.1
1875.62	28.1
1879.9	25.1
1884.177	30.1
1888.449	31.1
1892.718	25.1
1896.982	26.1
1901.243	22.1
1905.499	28.1
1909.752	26.1
1914	22.1
1918.245	20.1
1922.485	26.1
1926.722	26.1
1930.954	27.1
1935.183	25.1
1939.408	26.1
1943.628	22.1
1947.845	27.1
1952.058	24.1
1956.267	24.1
1960.472	24.1
1964.673	23.1
1968.87	27.1
1973.063	26.1
1977.252	22.1
1981.438	19.1
1985.619	20.1
1989.797	24.1
1993.971	22.1
1998.14	22.1
2002.306	20.1
2006.469	21.1
2010.627	24.1
2014.781	22.1
2018.932	25.1
2023.078	22.1
2027.221	18.1
2031.36	21.1
2035.495	18.1
2039.627	19.1
2043.754	13.1
2047.878	13.1
2051.998	12.1
2056.114	20.1
2060.226	18.1
2064.334	22.1
2068.439	25.1
2072.54	26.1
2076.637	22.1
2080.73	19.1
2084.82	17.1
2088.906	18.1
2092.988	19.1
2097.066	19.1
2101.14	20.1
2105.211	20.1
2109.278	24.1
2113.342	25.1
2117.401	20.1
2121.457	20.1
2125.509	15.1
2129.558	17.1
2133.602	18.1
2137.643	16.1
2141.681	15.1
2145.714	20.1
2149.744	18.1
2153.77	16.1
2157.793	19.1
2161.812	13.1
2165.827	15.1
2169.838	19.1
2173.846	19.1
2177.851	18.1
2181.851	21.1
2185.848	18.1
2189.841	20.1
2193.831	21.1
2197.817	13.1
2201.799	15.1
2205.778	12.1
2209.753	14.1
2213.725	13.1
2217.693	15.1
2221.657	17.1
2225.618	19.1
2229.575	21.1
2233.529	21.1
2237.479	18.1
2241.425	19.1
2245.368	18.1
2249.307	20.1
2253.243	19.1
2257.175	18.1
2261.104	20.1
2265.029	17.1
2268.95	16.1
2272.868	13.1
2276.783	18.1
2280.694	13.1
2284.601	15.1
2288.505	18.1
2292.405	13.1
2296.302	19.1
2300.195	16.1
2304.085	19.1
2307.971	17.1
2311.854	18.1
2315.734	13.1
2319.609	13.1
2323.482	11.1
2327.351	12.1
2331.216	12.1
2335.078	6.1
2338.937	10.1
2342.792	12.1
2346.643	11.1
2350.492	14.1
2354.336	12.1
2358.178	14.1
2362.015	8.1
2365.85	7.1
2369.681	10.1
2373.508	6.1
2377.333	4.1
2381.153	10.1
2384.971	5.1
2388.785	8.1
2392.595	13.1
2396.402	12.1
2400.206	13.1
2404.007	9.1
2407.804	7.1
2411.597	10.1
2415.388	11.1
2419.174	10.1
2422.958	12.1
2426.738	11.1
2430.515	11.1
2434.289	14.1
2438.059	13.1
2441.825	12.1
2445.589	7.1
2449.349	8.1
2453.106	13.1
2456.859	11.1
2460.61	14.1
2464.356	18.1
2468.1	12.1
2471.84	15.1
2475.577	11.1
2479.311	15.1
2483.041	11.1
2486.768	11.1
2490.492	6.1
2494.213	9.1
2497.93	3.1
2501.644	10.1
2505.355	12.1
2509.062	14.1
2512.766	9.1
2516.467	16.1
2520.165	14.1
2523.859	10.1
2527.551	12.1
2531.239	14.1
2534.923	14.1
2538.605	18.1
2542.283	19.1
2545.958	19.1
2549.63	19.1
2553.299	16.1
2556.964	21.1
2560.626	18.1
2564.285	19.1
2567.941	15.1
2571.594	17.1
2575.243	19.1
2578.89	23.1
2582.533	19.1
2586.173	19.1
2589.809	20.1
2593.443	19.1
2597.073	19.1
2600.701	14.1
2604.325	18.1
2607.946	18.1
2611.564	14.1
2615.178	17.1
2618.79	18.1
2622.398	19.1
2626.004	25.1
2629.606	23.1
2633.205	23.1
2636.801	22.1
2640.394	20.1
2643.983	24.1
2647.57	23.1
2651.153	21.1
2654.734	21.1
2658.311	26.1
2661.885	26.1
2665.456	27.1
2669.025	28.1
2672.589	27.1
2676.151	28.1
2679.71	28.1
2683.266	30.1
2686.819	33.1
2690.368	36.1
2693.915	40.1
2697.458	47.1
2700.999	50.1
2704.536	54.1
2708.071	61.1
2711.602	67.1
2715.13	69.1
2718.656	77.1
2722.178	80.1
2725.697	84.1
2729.214	87.1
2732.727	87.1
2736.237	77.1
2739.744	74.1
2743.249	75.1
2746.75	70.1
2750.248	64.1
2753.743	72.1
2757.236	68.1
2760.725	70.1
2764.211	65.1
2767.695	63.1
2771.175	58.1
2774.652	61.1
2778.127	60.1
2781.598	61.1
2785.067	60.1
2788.532	63.1
2791.995	62.1
2795.455	74.1
2798.911	78.1
2802.365	80.1
2805.816	84.1
2809.264	96.1
2812.709	96.1
2816.151	104.1
2819.59	114.1
2823.026	124.1
2826.46	134.1
2829.89	155.1
2833.318	181.1
2836.742	198.1
2840.164	223.1
2843.583	238.1
2846.999	254.1
2850.412	263.1
2853.822	268.1
2857.229	281.1
2860.634	306.1
2864.035	333.1
2867.434	379.1
2870.83	424.1
2874.223	485.1
2877.613	536.1
2881	585.1
2884.385	618.1
2887.766	629.1
2891.145	616.1
2894.521	606.1
2897.894	588.1
2901.264	570.1
2904.631	554.1
2907.996	555.1
2911.358	537.1
2914.717	528.1
2918.073	529.1
2921.426	554.1
2924.777	617.1
2928.124	672.1
2931.469	740.1
2934.811	774.1
2938.15	742.1
2941.487	685.1
2944.821	605.1
2948.152	534.1
2951.48	494.1
2954.805	446.1
2958.128	417.1
2961.447	386.1
2964.765	373.1
2968.079	352.1
2971.39	355.1
2974.699	349.1
2978.005	348.1
2981.308	337.1
2984.609	304.1
2987.907	281.1
2991.202	251.1
2994.494	217.1
2997.784	193.1
3001.07	168.1
3004.355	149.1
3007.636	132.1
3010.915	114.1
3014.191	107.1
3017.464	96.1
3020.734	94.1
3024.002	84.1
3027.267	75.1
3030.53	76.1
3033.789	66.1
3037.046	67.1
3040.301	58.1
3043.552	52.1
3046.801	54.1
3050.048	47.1
3053.291	42.1
3056.532	45.1
3059.771	43.1
3063.006	48.1
3066.239	42.1
3069.469	44.1
3072.697	38.1
3075.922	35.1
3079.144	33.1
3082.364	34.1
3085.581	40.1
3088.795	34.1
3092.007	31.1
3095.216	30.1
3098.423	31.1
3101.627	31.1
3104.828	30.1
3108.026	29.1
3111.222	26.1
3114.416	34.1
3117.607	32.1
3120.795	31.1
3123.98	34.1
3127.163	33.1
3130.344	32.1
3133.521	34.1
3136.696	26.1
3139.869	31.1
3143.039	28.1
3146.206	26.1
3149.371	27.1
3152.533	31.1
3155.693	29.1
3158.85	37.1
3162.005	32.1
3165.157	33.1
3168.306	29.1
3171.453	31.1
3174.597	30.1
3177.739	29.1
3180.878	29.1
3184.014	34.1
3187.149	33.1
3190.28	31.1
3193.409	32.1
3196.536	28.1
3199.659	30.1
3202.781	30.1
3205.9	31.1
3209.016	31.1
3212.13	29.1
3215.241	31.1
3218.35	36.1
3221.456	33.1
3224.56	34.1
3227.661	32.1
3230.76	34.1
3233.856	29.1
3236.95	26.1
3240.041	22.1
3243.13	26.1
3246.216	29.1
3249.3	25.1
3252.382	25.1
3255.46	29.1
3258.537	33.1
3261.611	29.1
3264.682	29.1
3267.751	27.1
3270.818	21.1
3273.882	22.1
3276.943	23.1
3280.002	22.1
3283.059	23.1
3286.113	23.1
3289.165	23.1
3292.214	21.1
3295.261	22.1
3298.306	22.1
3301.348	21.1
3304.387	20.1
3307.425	23.1
3310.459	21.1
3313.492	24.1
3316.521	27.1
3319.549	25.1
3322.574	22.1
3325.597	19.1
3328.617	17.1
3331.635	19.1
3334.65	20.1
3337.663	19.1
3340.674	19.1
3343.682	20.1
3346.688	23.1
3349.691	22.1
3352.692	18.1
3355.691	19.1
3358.687	22.1
3361.681	22.1
3364.673	17.1
3367.662	18.1
3370.649	15.1
3373.633	18.1
3376.615	16.1
3379.595	22.1
3382.572	15.1
3385.547	20.1
3388.52	21.1
3391.49	21.1
3394.458	16.1
3397.424	14.1
3400.387	14.1
3403.348	15.1
3406.307	10.1
3409.263	13.1
3412.217	14.1
3415.168	10.1
3418.118	17.1
3421.065	14.1
3424.009	9.1
3426.951	14.1
3429.891	13.1
3432.829	11.1
3435.764	10.1
3438.697	13.1
3441.628	13.1
3444.557	16.1
3447.483	12.1
3450.407	6.1
3453.328	10.1
3456.247	9.1
3459.164	7.1
3462.079	10.1
3464.991	6.1
3467.902	11.1
3470.809	8.1
3473.715	7.1
3476.618	8.1
3479.519	9.1
3482.418	8.1
3485.315	5.1
3488.209	2.1
3491.101	1.1
3493.99	4.1
3496.878	2.1
3499.763	2.1
3502.646	-0.9
3505.527	5.1
3508.405	3.1
3511.281	0.1
3514.155	5.1
3517.027	-1.9
3519.897	0.1
3522.764	-1.9
3525.629	1.1
3528.492	1.1
3531.352	-2.9
3534.211	0.1
3537.067	-2.9
3539.921	-0.9
3542.773	1.1
3545.622	-5.9
3548.469	-4.9
3551.315	-2.9
3554.157	-0.9
3556.998	-0.9
3559.837	0.1
3562.673	-1.9
3565.507	1.1
3568.339	-1.9
3571.169	1.1
3573.996	-1.9
3576.822	-6.9
3579.645	-5.9
3582.466	-5.9
3585.285	-8.9
3588.101	-7.9
3590.916	-5.9
3593.728	-3.9
3596.538	-3.9
3599.346	-3.9
3602.152	-3.9
3604.956	0.1
3607.757	-3.9
3610.556	-4.9
3613.354	-6.9
3616.149	-7.9
3618.942	-7.9
3621.732	-7.9
3624.521	-6.9
3627.307	-1.9
3630.092	-7.9
3632.874	-2.9
3635.654	-5.9
3638.432	-5.9
3641.208	-5.9
3643.982	-4.9
3646.753	-7.9
3649.523	-4.9
3652.29	-4.9
3655.055	-0.9
3657.818	-6.9
3660.579	-5.9
3663.338	-9.9
3666.095	-5.9
3668.849	-9.9
3671.602	-8.9
3674.352	-5.9
3677.101	-4.9
3679.847	-2.9
3682.591	-0.9
3685.333	-3.9
3688.073	-2.9
3690.811	-6.9
3693.547	-8.9
3696.281	-6.9
3699.013	-7.9
3701.742	-10.9
3704.47	-10.9
3707.195	-8.9
3709.919	-3.9
3712.64	-8.9
3715.359	-7.9
3718.076	-6.9
3720.792	-6.9
3723.505	-6.9
3726.216	-8.9
3728.925	-6.9
3731.632	-4.9
3734.336	-8.9
3737.039	-9.9
3739.74	-7.9
3742.439	-6.9
3745.136	-7.9
3747.83	-7.9
3750.523	-10.9
3753.213	-5.9
3755.902	-11.9
3758.589	-5.9
3761.273	-9.9
3763.956	-3.9
3766.636	-9.9
3769.315	-7.9
3771.991	-5.9
3774.665	-6.9
3777.338	-7.9
3780.008	-7.9
3782.677	-9.9
3785.343	-9.9
3788.007	-12.9
3790.67	-9.9
3793.33	-7.9
3795.989	-4.9
3798.645	-6.9
3801.299	-5.9
3803.952	-5.9
3806.602	-6.9
3809.251	-5.9
3811.897	-7.9
3814.542	-7.9
3817.184	-8.9
3819.825	-6.9
3822.463	-5.9
3825.1	-7.9
3827.735	-11.9
3830.367	-10.9
3832.998	-10.9
3835.627	-8.9
3838.253	-6.9
3840.878	-6.9
3843.501	-6.9
3846.122	-6.9
3848.741	-4.9
3851.358	-7.9
3853.973	-9.9
3856.586	-6.9
3859.197	-10.9
3861.806	-5.9
3864.414	-9.9
3867.019	-15.9
3869.622	-9.9
3872.224	-4.9
3874.823	-6.9
3877.421	-3.9
3880.016	-1.9
3882.61	-0.9
3885.202	-4.9
3887.792	-1.9
3890.38	-7.9
3892.966	-7.9
3895.55	-7.9
3898.132	-5.9
3900.713	-4.9
3903.291	-6.9
3905.868	-5.9
3908.442	-10.9
3911.015	-10.9
3913.586	-12.9
3916.155	-13.9
3918.722	-10.9
3921.287	-7.9
3923.85	-5.9
3926.411	-6.9
3928.971	-5.9
3931.528	-7.9
3934.084	-7.9
3936.638	-3.9
3939.19	-8.9
3941.74	-12.9
3944.288	-5.9
3946.834	-6.9
3949.378	-6.9
3951.921	-9.9
3954.462	-6.9
3957	-7.9
3959.537	-11.9
3962.072	-10.9
3964.606	-5.9
3967.137	-4.9
3969.667	-7.9
3972.194	-9.9
3974.72	-2.9
3977.244	-6.9
3979.766	-3.9
3982.286	-1.9
3984.805	-8.9
3987.321	-10.9
3989.836	-10.9
3992.349	-10.9
3994.86	-9.9
3997.369	-10.9
3999.877	-11.9
4002.382	-5.9
4004.886	-8.9
4007.388	-5.9
4009.888	-3.9
4012.386	-7.9
4014.883	-8.9
4017.377	-8.9
4019.87	-8.9
4022.361	-5.9
4024.85	-9.9
4027.338	-5.9
4029.823	-11.9
4032.307	-7.9
4034.789	-9.9
4037.269	-6.9
4039.747	-8.9
4042.224	-9.9
4044.699	-4.9
4047.172	-4.9
4049.643	-8.9
4052.112	-3.9
4054.58	-7.9
4057.046	-9.9
4059.51	-5.9
4061.972	-6.9
4064.432	-9.9
4066.891	-8.9
4069.348	-10.9
4071.803	-7.9
4074.256	-10.9
4076.708	-4.9
4079.158	-4.9
4081.606	-7.9
4084.052	-3.9
4086.497	-5.9
4088.939	-7.9
4091.38	-7.9
4093.819	-7.9
4096.257	-10.9
4098.693	-10.9
4101.127	-7.9
4103.559	-7.9
4105.989	0.1
4108.418	-3.9
4110.845	-1.9
4113.27	-5.9
4115.694	-4.9
4118.115	-4.9
4120.535	-5.9
4122.954	-4.9
4125.37	-6.9
4127.785	-12.9
4130.198	-12.9
4132.609	-7.9
4135.019	-10.9
4137.427	-11.9
4139.833	-6.9
4142.237	-8.9
