Data from 01000000CFU1_B_RamanShift_1.txt Node
Date: Wed Jan 25 12:44:40 IST 2017
User: aro
Spectrometer: QEPB0276
Trigger mode: 0
Integration Time (sec): 5.000000E0
Scans to average: 1
Electric dark correction enabled: true
Nonlinearity correction enabled: false
Boxcar width: 0
XAxis mode: Raman Shifts
Number of Pixels in Spectrum: 1044
>>>>>Begin Spectral Data<<<<<
160.701	-35.38
166.742	-4.38
172.777	102.62
178.805	409.62
184.826	1113.62
190.841	2324.62
196.849	3615.62
202.85	4439.62
208.845	4647.62
214.833	4499.62
220.815	4344.62
226.789	4229.62
232.758	4132.62
238.719	3987.62
244.674	3863.62
250.623	3711.62
256.565	3571.62
262.5	3426.62
268.429	3259.62
274.351	3182.62
280.267	3043.62
286.176	2970.62
292.079	2887.62
297.975	2795.62
303.865	2738.62
309.748	2658.62
315.625	2610.62
321.495	2586.62
327.359	2524.62
333.217	2498.62
339.068	2476.62
344.912	2457.62
350.751	2442.62
356.583	2466.62
362.408	2472.62
368.227	2449.62
374.04	2470.62
379.847	2477.62
385.647	2473.62
391.44	2490.62
397.228	2523.62
403.009	2525.62
408.784	2557.62
414.553	2540.62
420.315	2565.62
426.071	2542.62
431.821	2545.62
437.565	2544.62
443.302	2547.62
449.033	2521.62
454.758	2543.62
460.477	2524.62
466.189	2515.62
471.896	2515.62
477.596	2494.62
483.29	2503.62
488.978	2462.62
494.66	2456.62
500.335	2442.62
506.005	2401.62
511.668	2362.62
517.325	2357.62
522.977	2304.62
528.622	2251.62
534.261	2239.62
539.894	2225.62
545.521	2226.62
551.141	2207.62
556.756	2184.62
562.365	2189.62
567.968	2180.62
573.565	2164.62
579.155	2145.62
584.74	2136.62
590.319	2129.62
595.892	2122.62
601.459	2093.62
607.02	2082.62
612.575	2087.62
618.124	2083.62
623.667	2038.62
629.204	2018.62
634.735	2009.62
640.261	1990.62
645.781	1995.62
651.294	1979.62
656.802	1979.62
662.304	1979.62
667.8	1966.62
673.29	1971.62
678.775	1957.62
684.254	1954.62
689.726	1950.62
695.193	1929.62
700.655	1903.62
706.11	1922.62
711.56	1892.62
717.004	1869.62
722.442	1896.62
727.874	1858.62
733.301	1873.62
738.722	1855.62
744.137	1833.62
749.547	1837.62
754.951	1862.62
760.349	1839.62
765.741	1841.62
771.128	1830.62
776.509	1843.62
781.885	1834.62
787.254	1830.62
792.618	1844.62
797.977	1827.62
803.33	1811.62
808.677	1802.62
814.019	1777.62
819.355	1773.62
824.686	1762.62
830.011	1759.62
835.33	1728.62
840.644	1729.62
845.952	1738.62
851.255	1727.62
856.552	1731.62
861.844	1722.62
867.13	1691.62
872.41	1697.62
877.686	1675.62
882.955	1677.62
888.219	1653.62
893.478	1629.62
898.731	1602.62
903.979	1589.62
909.221	1575.62
914.458	1562.62
919.69	1557.62
924.916	1569.62
930.136	1570.62
935.351	1549.62
940.561	1558.62
945.766	1551.62
950.965	1536.62
956.158	1536.62
961.347	1527.62
966.529	1496.62
971.707	1491.62
976.879	1462.62
982.046	1461.62
987.208	1444.62
992.364	1452.62
997.515	1464.62
1002.66	1465.62
1007.801	1473.62
1012.936	1507.62
1018.066	1506.62
1023.19	1532.62
1028.309	1514.62
1033.423	1517.62
1038.532	1512.62
1043.636	1481.62
1048.734	1487.62
1053.827	1470.62
1058.915	1444.62
1063.998	1449.62
1069.075	1443.62
1074.147	1453.62
1079.214	1444.62
1084.276	1478.62
1089.333	1481.62
1094.385	1483.62
1099.431	1507.62
1104.472	1488.62
1109.509	1490.62
1114.54	1469.62
1119.565	1453.62
1124.586	1450.62
1129.602	1417.62
1134.613	1400.62
1139.618	1420.62
1144.619	1412.62
1149.614	1429.62
1154.604	1431.62
1159.589	1452.62
1164.57	1436.62
1169.545	1461.62
1174.515	1458.62
1179.48	1456.62
1184.44	1425.62
1189.395	1438.62
1194.345	1433.62
1199.29	1409.62
1204.23	1425.62
1209.165	1433.62
1214.095	1433.62
1219.021	1458.62
1223.941	1450.62
1228.856	1461.62
1233.766	1479.62
1238.672	1484.62
1243.572	1468.62
1248.467	1464.62
1253.358	1462.62
1258.244	1434.62
1263.124	1415.62
1268	1386.62
1272.871	1381.62
1277.737	1376.62
1282.599	1365.62
1287.455	1379.62
1292.306	1384.62
1297.153	1378.62
1301.995	1386.62
1306.832	1412.62
1311.664	1410.62
1316.491	1415.62
1321.314	1426.62
1326.132	1391.62
1330.945	1392.62
1335.753	1388.62
1340.556	1373.62
1345.354	1363.62
1350.148	1355.62
1354.937	1355.62
1359.722	1335.62
1364.501	1316.62
1369.276	1286.62
1374.046	1269.62
1378.811	1260.62
1383.572	1267.62
1388.327	1275.62
1393.079	1256.62
1397.825	1256.62
1402.567	1257.62
1407.304	1256.62
1412.036	1245.62
1416.764	1239.62
1421.487	1231.62
1426.205	1239.62
1430.919	1258.62
1435.628	1253.62
1440.333	1293.62
1445.032	1303.62
1449.727	1326.62
1454.418	1324.62
1459.104	1308.62
1463.785	1305.62
1468.462	1289.62
1473.134	1275.62
1477.802	1263.62
1482.465	1255.62
1487.123	1261.62
1491.777	1265.62
1496.426	1273.62
1501.071	1272.62
1505.711	1307.62
1510.347	1292.62
1514.978	1287.62
1519.604	1303.62
1524.226	1307.62
1528.844	1313.62
1533.457	1308.62
1538.065	1281.62
1542.669	1292.62
1547.269	1294.62
1551.864	1294.62
1556.454	1306.62
1561.041	1313.62
1565.622	1322.62
1570.199	1332.62
1574.772	1366.62
1579.34	1374.62
1583.904	1387.62
1588.464	1410.62
1593.019	1415.62
1597.569	1427.62
1602.115	1440.62
1606.657	1442.62
1611.195	1453.62
1615.728	1473.62
1620.256	1488.62
1624.78	1500.62
1629.3	1528.62
1633.816	1548.62
1638.327	1559.62
1642.834	1572.62
1647.336	1588.62
1651.834	1598.62
1656.328	1605.62
1660.817	1583.62
1665.302	1573.62
1669.783	1526.62
1674.259	1511.62
1678.732	1465.62
1683.199	1435.62
1687.663	1386.62
1692.122	1344.62
1696.577	1305.62
1701.028	1249.62
1705.474	1182.62
1709.917	1157.62
1714.355	1142.62
1718.788	1141.62
1723.218	1126.62
1727.643	1110.62
1732.064	1078.62
1736.481	1071.62
1740.893	1056.62
1745.301	1020.62
1749.705	988.62
1754.105	979.62
1758.501	959.62
1762.893	954.62
1767.28	943.62
1771.663	935.62
1776.042	938.62
1780.417	934.62
1784.787	935.62
1789.154	928.62
1793.516	940.62
1797.874	949.62
1802.228	918.62
1806.578	912.62
1810.924	901.62
1815.266	878.62
1819.603	877.62
1823.937	867.62
1828.266	857.62
1832.591	859.62
1836.913	844.62
1841.23	847.62
1845.543	854.62
1849.852	855.62
1854.156	855.62
1858.457	849.62
1862.754	870.62
1867.047	863.62
1871.335	866.62
1875.62	864.62
1879.9	871.62
1884.177	883.62
1888.449	867.62
1892.718	869.62
1896.982	872.62
1901.243	862.62
1905.499	855.62
1909.752	861.62
1914	848.62
1918.245	855.62
1922.485	848.62
1926.722	853.62
1930.954	863.62
1935.183	858.62
1939.408	858.62
1943.628	863.62
1947.845	867.62
1952.058	868.62
1956.267	849.62
1960.472	830.62
1964.673	826.62
1968.87	830.62
1973.063	821.62
1977.252	807.62
1981.438	795.62
1985.619	807.62
1989.797	804.62
1993.971	802.62
1998.14	810.62
2002.306	812.62
2006.469	809.62
2010.627	828.62
2014.781	819.62
2018.932	831.62
2023.078	809.62
2027.221	820.62
2031.36	804.62
2035.495	811.62
2039.627	792.62
2043.754	787.62
2047.878	786.62
2051.998	793.62
2056.114	785.62
2060.226	794.62
2064.334	794.62
2068.439	787.62
2072.54	792.62
2076.637	800.62
2080.73	807.62
2084.82	803.62
2088.906	804.62
2092.988	798.62
2097.066	813.62
2101.14	792.62
2105.211	786.62
2109.278	795.62
2113.342	780.62
2117.401	778.62
2121.457	770.62
2125.509	776.62
2129.558	771.62
2133.602	774.62
2137.643	757.62
2141.681	768.62
2145.714	745.62
2149.744	744.62
2153.77	745.62
2157.793	738.62
2161.812	747.62
2165.827	716.62
2169.838	720.62
2173.846	702.62
2177.851	701.62
2181.851	693.62
2185.848	684.62
2189.841	683.62
2193.831	681.62
2197.817	665.62
2201.799	660.62
2205.778	651.62
2209.753	651.62
2213.725	670.62
2217.693	659.62
2221.657	659.62
2225.618	672.62
2229.575	663.62
2233.529	656.62
2237.479	642.62
2241.425	643.62
2245.368	632.62
2249.307	628.62
2253.243	608.62
2257.175	615.62
2261.104	600.62
2265.029	590.62
2268.95	594.62
2272.868	591.62
2276.783	569.62
2280.694	577.62
2284.601	558.62
2288.505	548.62
2292.405	549.62
2296.302	542.62
2300.195	538.62
2304.085	525.62
2307.971	527.62
2311.854	517.62
2315.734	518.62
2319.609	502.62
2323.482	491.62
2327.351	498.62
2331.216	486.62
2335.078	475.62
2338.937	477.62
2342.792	466.62
2346.643	467.62
2350.492	468.62
2354.336	466.62
2358.178	466.62
2362.015	481.62
2365.85	472.62
2369.681	477.62
2373.508	477.62
2377.333	476.62
2381.153	479.62
2384.971	481.62
2388.785	479.62
2392.595	466.62
2396.402	466.62
2400.206	462.62
2404.007	458.62
2407.804	461.62
2411.597	459.62
2415.388	452.62
2419.174	452.62
2422.958	453.62
2426.738	454.62
2430.515	453.62
2434.289	439.62
2438.059	452.62
2441.825	447.62
2445.589	437.62
2449.349	444.62
2453.106	438.62
2456.859	434.62
2460.61	422.62
2464.356	431.62
2468.1	419.62
2471.84	426.62
2475.577	419.62
2479.311	406.62
2483.041	409.62
2486.768	421.62
2490.492	415.62
2494.213	409.62
2497.93	417.62
2501.644	413.62
2505.355	415.62
2509.062	422.62
2512.766	417.62
2516.467	413.62
2520.165	403.62
2523.859	399.62
2527.551	401.62
2531.239	405.62
2534.923	387.62
2538.605	384.62
2542.283	386.62
2545.958	389.62
2549.63	386.62
2553.299	380.62
2556.964	375.62
2560.626	380.62
2564.285	379.62
2567.941	367.62
2571.594	361.62
2575.243	370.62
2578.89	375.62
2582.533	370.62
2586.173	363.62
2589.809	354.62
2593.443	358.62
2597.073	349.62
2600.701	348.62
2604.325	348.62
2607.946	359.62
2611.564	346.62
2615.178	346.62
2618.79	343.62
2622.398	342.62
2626.004	339.62
2629.606	342.62
2633.205	335.62
2636.801	325.62
2640.394	326.62
2643.983	323.62
2647.57	316.62
2651.153	322.62
2654.734	304.62
2658.311	306.62
2661.885	312.62
2665.456	304.62
2669.025	308.62
2672.589	299.62
2676.151	302.62
2679.71	301.62
2683.266	292.62
2686.819	288.62
2690.368	291.62
2693.915	286.62
2697.458	281.62
2700.999	285.62
2704.536	277.62
2708.071	273.62
2711.602	274.62
2715.13	271.62
2718.656	271.62
2722.178	272.62
2725.697	271.62
2729.214	268.62
2732.727	278.62
2736.237	279.62
2739.744	274.62
2743.249	273.62
2746.75	272.62
2750.248	279.62
2753.743	277.62
2757.236	278.62
2760.725	278.62
2764.211	259.62
2767.695	264.62
2771.175	259.62
2774.652	262.62
2778.127	252.62
2781.598	246.62
2785.067	247.62
2788.532	252.62
2791.995	256.62
2795.455	257.62
2798.911	256.62
2802.365	258.62
2805.816	255.62
2809.264	253.62
2812.709	266.62
2816.151	260.62
2819.59	254.62
2823.026	254.62
2826.46	255.62
2829.89	255.62
2833.318	262.62
2836.742	267.62
2840.164	263.62
2843.583	252.62
2846.999	258.62
2850.412	265.62
2853.822	261.62
2857.229	264.62
2860.634	279.62
2864.035	273.62
2867.434	272.62
2870.83	280.62
2874.223	285.62
2877.613	279.62
2881	286.62
2884.385	278.62
2887.766	283.62
2891.145	286.62
2894.521	285.62
2897.894	289.62
2901.264	289.62
2904.631	289.62
2907.996	289.62
2911.358	280.62
2914.717	289.62
2918.073	292.62
2921.426	293.62
2924.777	300.62
2928.124	302.62
2931.469	304.62
2934.811	318.62
2938.15	313.62
2941.487	319.62
2944.821	324.62
2948.152	330.62
2951.48	329.62
2954.805	327.62
2958.128	341.62
2961.447	344.62
2964.765	345.62
2968.079	355.62
2971.39	359.62
2974.699	366.62
2978.005	374.62
2981.308	385.62
2984.609	382.62
2987.907	389.62
2991.202	404.62
2994.494	419.62
2997.784	418.62
3001.07	434.62
3004.355	447.62
3007.636	456.62
3010.915	467.62
3014.191	475.62
3017.464	475.62
3020.734	484.62
3024.002	496.62
3027.267	499.62
3030.53	498.62
3033.789	521.62
3037.046	517.62
3040.301	537.62
3043.552	544.62
3046.801	553.62
3050.048	575.62
3053.291	581.62
3056.532	599.62
3059.771	618.62
3063.006	638.62
3066.239	654.62
3069.469	673.62
3072.697	696.62
3075.922	719.62
3079.144	732.62
3082.364	749.62
3085.581	766.62
3088.795	771.62
3092.007	810.62
3095.216	818.62
3098.423	810.62
3101.627	845.62
3104.828	869.62
3108.026	877.62
3111.222	905.62
3114.416	917.62
3117.607	934.62
3120.795	959.62
3123.98	979.62
3127.163	1007.62
3130.344	1027.62
3133.521	1048.62
3136.696	1066.62
3139.869	1085.62
3143.039	1100.62
3146.206	1117.62
3149.371	1130.62
3152.533	1142.62
3155.693	1155.62
3158.85	1155.62
3162.005	1154.62
3165.157	1163.62
3168.306	1163.62
3171.453	1165.62
3174.597	1181.62
3177.739	1169.62
3180.878	1184.62
3184.014	1180.62
3187.149	1182.62
3190.28	1194.62
3193.409	1196.62
3196.536	1197.62
3199.659	1194.62
3202.781	1222.62
3205.9	1217.62
3209.016	1208.62
3212.13	1212.62
3215.241	1204.62
3218.35	1203.62
3221.456	1187.62
3224.56	1162.62
3227.661	1173.62
3230.76	1157.62
3233.856	1142.62
3236.95	1130.62
3240.041	1134.62
3243.13	1117.62
3246.216	1110.62
3249.3	1091.62
3252.382	1101.62
3255.46	1078.62
3258.537	1078.62
3261.611	1084.62
3264.682	1082.62
3267.751	1081.62
3270.818	1077.62
3273.882	1040.62
3276.943	1037.62
3280.002	1042.62
3283.059	1034.62
3286.113	1023.62
3289.165	1000.62
3292.214	991.62
3295.261	976.62
3298.306	965.62
3301.348	941.62
3304.387	936.62
3307.425	908.62
3310.459	905.62
3313.492	887.62
3316.521	877.62
3319.549	872.62
3322.574	873.62
3325.597	864.62
3328.617	846.62
3331.635	853.62
3334.65	858.62
3337.663	848.62
3340.674	838.62
3343.682	837.62
3346.688	838.62
3349.691	838.62
3352.692	818.62
3355.691	828.62
3358.687	813.62
3361.681	793.62
3364.673	780.62
3367.662	781.62
3370.649	773.62
3373.633	758.62
3376.615	752.62
3379.595	736.62
3382.572	718.62
3385.547	705.62
3388.52	707.62
3391.49	693.62
3394.458	694.62
3397.424	681.62
3400.387	665.62
3403.348	668.62
3406.307	665.62
3409.263	655.62
3412.217	646.62
3415.168	632.62
3418.118	634.62
3421.065	627.62
3424.009	611.62
3426.951	591.62
3429.891	601.62
3432.829	593.62
3435.764	574.62
3438.697	571.62
3441.628	551.62
3444.557	528.62
3447.483	524.62
3450.407	505.62
3453.328	490.62
3456.247	472.62
3459.164	467.62
3462.079	454.62
3464.991	420.62
3467.902	426.62
3470.809	410.62
3473.715	396.62
3476.618	390.62
3479.519	377.62
3482.418	357.62
3485.315	349.62
3488.209	341.62
3491.101	323.62
3493.99	321.62
3496.878	311.62
3499.763	305.62
3502.646	287.62
3505.527	282.62
3508.405	272.62
3511.281	263.62
3514.155	250.62
3517.027	237.62
3519.897	226.62
3522.764	211.62
3525.629	192.62
3528.492	192.62
3531.352	185.62
3534.211	171.62
3537.067	157.62
3539.921	154.62
3542.773	143.62
3545.622	143.62
3548.469	129.62
3551.315	117.62
3554.157	117.62
3556.998	97.62
3559.837	93.62
3562.673	90.62
3565.507	80.62
3568.339	76.62
3571.169	72.62
3573.996	59.62
3576.822	57.62
3579.645	52.62
3582.466	45.62
3585.285	47.62
3588.101	43.62
3590.916	30.62
3593.728	34.62
3596.538	25.62
3599.346	18.62
3602.152	16.62
3604.956	11.62
3607.757	9.62
3610.556	4.62
3613.354	-4.38
3616.149	-4.38
3618.942	-11.38
3621.732	-15.38
3624.521	-22.38
3627.307	-21.38
3630.092	-23.38
3632.874	-29.38
3635.654	-28.38
3638.432	-29.38
3641.208	-34.38
3643.982	-35.38
3646.753	-37.38
3649.523	-40.38
3652.29	-39.38
3655.055	-44.38
3657.818	-45.38
3660.579	-47.38
3663.338	-47.38
3666.095	-51.38
3668.849	-54.38
3671.602	-61.38
3674.352	-62.38
3677.101	-64.38
3679.847	-67.38
3682.591	-69.38
3685.333	-70.38
3688.073	-71.38
3690.811	-75.38
3693.547	-77.38
3696.281	-78.38
3699.013	-78.38
3701.742	-76.38
3704.47	-82.38
3707.195	-82.38
3709.919	-82.38
3712.64	-80.38
3715.359	-82.38
3718.076	-82.38
3720.792	-87.38
3723.505	-86.38
3726.216	-86.38
3728.925	-86.38
3731.632	-85.38
3734.336	-90.38
3737.039	-92.38
3739.74	-92.38
3742.439	-88.38
3745.136	-93.38
3747.83	-92.38
3750.523	-96.38
3753.213	-95.38
3755.902	-94.38
3758.589	-98.38
3761.273	-94.38
3763.956	-96.38
3766.636	-98.38
3769.315	-96.38
3771.991	-100.38
3774.665	-99.38
3777.338	-97.38
3780.008	-100.38
3782.677	-98.38
3785.343	-99.38
3788.007	-97.38
3790.67	-95.38
3793.33	-98.38
3795.989	-96.38
3798.645	-101.38
3801.299	-99.38
3803.952	-102.38
3806.602	-98.38
3809.251	-101.38
3811.897	-107.38
3814.542	-106.38
3817.184	-103.38
3819.825	-106.38
3822.463	-103.38
3825.1	-103.38
3827.735	-100.38
3830.367	-103.38
3832.998	-106.38
3835.627	-103.38
3838.253	-101.38
3840.878	-99.38
3843.501	-105.38
3846.122	-106.38
3848.741	-104.38
3851.358	-107.38
3853.973	-106.38
3856.586	-108.38
3859.197	-108.38
3861.806	-108.38
3864.414	-107.38
3867.019	-111.38
3869.622	-104.38
3872.224	-109.38
3874.823	-103.38
3877.421	-101.38
3880.016	-95.38
3882.61	-94.38
3885.202	-96.38
3887.792	-98.38
3890.38	-100.38
3892.966	-105.38
3895.55	-106.38
3898.132	-104.38
3900.713	-110.38
3903.291	-107.38
3905.868	-111.38
3908.442	-111.38
3911.015	-110.38
3913.586	-112.38
3916.155	-110.38
3918.722	-110.38
3921.287	-109.38
3923.85	-109.38
3926.411	-107.38
3928.971	-112.38
3931.528	-107.38
3934.084	-112.38
3936.638	-111.38
3939.19	-111.38
3941.74	-109.38
3944.288	-111.38
3946.834	-111.38
3949.378	-111.38
3951.921	-111.38
3954.462	-111.38
3957	-112.38
3959.537	-112.38
3962.072	-110.38
3964.606	-112.38
3967.137	-107.38
3969.667	-112.38
3972.194	-110.38
3974.72	-107.38
3977.244	-106.38
3979.766	-109.38
3982.286	-112.38
3984.805	-109.38
3987.321	-110.38
3989.836	-111.38
3992.349	-112.38
3994.86	-107.38
3997.369	-106.38
3999.877	-107.38
4002.382	-109.38
4004.886	-106.38
4007.388	-108.38
4009.888	-107.38
4012.386	-111.38
4014.883	-113.38
4017.377	-111.38
4019.87	-111.38
4022.361	-110.38
4024.85	-114.38
4027.338	-116.38
4029.823	-110.38
4032.307	-109.38
4034.789	-109.38
4037.269	-109.38
4039.747	-110.38
4042.224	-106.38
4044.699	-110.38
4047.172	-110.38
4049.643	-106.38
4052.112	-109.38
4054.58	-111.38
4057.046	-110.38
4059.51	-111.38
4061.972	-112.38
4064.432	-113.38
4066.891	-115.38
4069.348	-114.38
4071.803	-111.38
4074.256	-113.38
4076.708	-109.38
4079.158	-106.38
4081.606	-109.38
4084.052	-109.38
4086.497	-109.38
4088.939	-106.38
4091.38	-107.38
4093.819	-107.38
4096.257	-112.38
4098.693	-113.38
4101.127	-114.38
4103.559	-115.38
4105.989	-71.38
4108.418	-72.38
4110.845	-68.38
4113.27	-63.38
4115.694	-60.38
4118.115	-47.38
4120.535	-110.38
4122.954	-115.38
4125.37	-110.38
4127.785	-114.38
4130.198	-115.38
4132.609	-113.38
4135.019	-117.38
4137.427	-120.38
4139.833	-117.38
4142.237	-117.38
