Data from 1000CFU3_B_RamanShift_1.txt Node
Date: Wed Jan 25 12:35:20 IST 2017
User: aro
Spectrometer: QEPB0276
Trigger mode: 0
Integration Time (sec): 5.000000E0
Scans to average: 1
Electric dark correction enabled: true
Nonlinearity correction enabled: false
Boxcar width: 0
XAxis mode: Raman Shifts
Number of Pixels in Spectrum: 1044
>>>>>Begin Spectral Data<<<<<
160.701	-37.38
166.742	-3.38
172.777	106.62
178.805	418.62
184.826	1144.62
190.841	2317.62
196.849	3608.62
202.85	4455.62
208.845	4623.62
214.833	4471.62
220.815	4314.62
226.789	4212.62
232.758	4085.62
238.719	3981.62
244.674	3809.62
250.623	3680.62
256.565	3516.62
262.5	3346.62
268.429	3211.62
274.351	3082.62
280.267	2971.62
286.176	2850.62
292.079	2789.62
297.975	2707.62
303.865	2628.62
309.748	2532.62
315.625	2467.62
321.495	2439.62
327.359	2392.62
333.217	2382.62
339.068	2338.62
344.912	2343.62
350.751	2332.62
356.583	2327.62
362.408	2325.62
368.227	2317.62
374.04	2336.62
379.847	2332.62
385.647	2344.62
391.44	2371.62
397.228	2372.62
403.009	2382.62
408.784	2386.62
414.553	2388.62
420.315	2405.62
426.071	2402.62
431.821	2394.62
437.565	2395.62
443.302	2384.62
449.033	2379.62
454.758	2378.62
460.477	2364.62
466.189	2373.62
471.896	2373.62
477.596	2345.62
483.29	2328.62
488.978	2321.62
494.66	2321.62
500.335	2281.62
506.005	2239.62
511.668	2209.62
517.325	2177.62
522.977	2135.62
528.622	2118.62
534.261	2095.62
539.894	2063.62
545.521	2053.62
551.141	2055.62
556.756	2031.62
562.365	2013.62
567.968	2026.62
573.565	2009.62
579.155	2005.62
584.74	1975.62
590.319	1979.62
595.892	1951.62
601.459	1950.62
607.02	1952.62
612.575	1934.62
618.124	1887.62
623.667	1889.62
629.204	1847.62
634.735	1865.62
640.261	1837.62
645.781	1826.62
651.294	1829.62
656.802	1818.62
662.304	1805.62
667.8	1806.62
673.29	1798.62
678.775	1793.62
684.254	1782.62
689.726	1773.62
695.193	1762.62
700.655	1752.62
706.11	1741.62
711.56	1723.62
717.004	1733.62
722.442	1718.62
727.874	1704.62
733.301	1708.62
738.722	1702.62
744.137	1694.62
749.547	1686.62
754.951	1696.62
760.349	1668.62
765.741	1670.62
771.128	1669.62
776.509	1668.62
781.885	1664.62
787.254	1686.62
792.618	1666.62
797.977	1670.62
803.33	1656.62
808.677	1638.62
814.019	1617.62
819.355	1615.62
824.686	1596.62
830.011	1569.62
835.33	1560.62
840.644	1585.62
845.952	1561.62
851.255	1562.62
856.552	1561.62
861.844	1570.62
867.13	1540.62
872.41	1533.62
877.686	1524.62
882.955	1502.62
888.219	1476.62
893.478	1471.62
898.731	1433.62
903.979	1410.62
909.221	1413.62
914.458	1400.62
919.69	1394.62
924.916	1406.62
930.136	1403.62
935.351	1390.62
940.561	1390.62
945.766	1405.62
950.965	1394.62
956.158	1367.62
961.347	1359.62
966.529	1331.62
971.707	1319.62
976.879	1292.62
982.046	1285.62
987.208	1282.62
992.364	1284.62
997.515	1294.62
1002.66	1309.62
1007.801	1308.62
1012.936	1319.62
1018.066	1339.62
1023.19	1351.62
1028.309	1361.62
1033.423	1356.62
1038.532	1350.62
1043.636	1344.62
1048.734	1313.62
1053.827	1296.62
1058.915	1298.62
1063.998	1300.62
1069.075	1279.62
1074.147	1280.62
1079.214	1285.62
1084.276	1305.62
1089.333	1328.62
1094.385	1321.62
1099.431	1323.62
1104.472	1338.62
1109.509	1328.62
1114.54	1327.62
1119.565	1314.62
1124.586	1279.62
1129.602	1266.62
1134.613	1256.62
1139.618	1264.62
1144.619	1267.62
1149.614	1256.62
1154.604	1277.62
1159.589	1272.62
1164.57	1281.62
1169.545	1295.62
1174.515	1281.62
1179.48	1285.62
1184.44	1282.62
1189.395	1277.62
1194.345	1265.62
1199.29	1266.62
1204.23	1262.62
1209.165	1257.62
1214.095	1273.62
1219.021	1299.62
1223.941	1296.62
1228.856	1317.62
1233.766	1328.62
1238.672	1328.62
1243.572	1320.62
1248.467	1301.62
1253.358	1290.62
1258.244	1278.62
1263.124	1240.62
1268	1255.62
1272.871	1227.62
1277.737	1207.62
1282.599	1218.62
1287.455	1216.62
1292.306	1215.62
1297.153	1225.62
1301.995	1237.62
1306.832	1238.62
1311.664	1246.62
1316.491	1261.62
1321.314	1257.62
1326.132	1227.62
1330.945	1233.62
1335.753	1220.62
1340.556	1209.62
1345.354	1212.62
1350.148	1190.62
1354.937	1174.62
1359.722	1190.62
1364.501	1154.62
1369.276	1148.62
1374.046	1133.62
1378.811	1121.62
1383.572	1119.62
1388.327	1126.62
1393.079	1124.62
1397.825	1116.62
1402.567	1114.62
1407.304	1100.62
1412.036	1120.62
1416.764	1105.62
1421.487	1099.62
1426.205	1109.62
1430.919	1120.62
1435.628	1133.62
1440.333	1139.62
1445.032	1158.62
1449.727	1153.62
1454.418	1172.62
1459.104	1164.62
1463.785	1159.62
1468.462	1135.62
1473.134	1139.62
1477.802	1122.62
1482.465	1123.62
1487.123	1131.62
1491.777	1129.62
1496.426	1133.62
1501.071	1136.62
1505.711	1145.62
1510.347	1149.62
1514.978	1176.62
1519.604	1172.62
1524.226	1172.62
1528.844	1175.62
1533.457	1173.62
1538.065	1169.62
1542.669	1164.62
1547.269	1164.62
1551.864	1159.62
1556.454	1174.62
1561.041	1189.62
1565.622	1210.62
1570.199	1221.62
1574.772	1225.62
1579.34	1246.62
1583.904	1278.62
1588.464	1308.62
1593.019	1315.62
1597.569	1312.62
1602.115	1326.62
1606.657	1347.62
1611.195	1336.62
1615.728	1364.62
1620.256	1381.62
1624.78	1394.62
1629.3	1416.62
1633.816	1443.62
1638.327	1438.62
1642.834	1460.62
1647.336	1488.62
1651.834	1494.62
1656.328	1483.62
1660.817	1473.62
1665.302	1471.62
1669.783	1422.62
1674.259	1394.62
1678.732	1346.62
1683.199	1322.62
1687.663	1295.62
1692.122	1237.62
1696.577	1182.62
1701.028	1146.62
1705.474	1092.62
1709.917	1068.62
1714.355	1037.62
1718.788	1033.62
1723.218	1031.62
1727.643	1001.62
1732.064	986.62
1736.481	959.62
1740.893	942.62
1745.301	920.62
1749.705	895.62
1754.105	877.62
1758.501	845.62
1762.893	853.62
1767.28	839.62
1771.663	826.62
1776.042	829.62
1780.417	825.62
1784.787	829.62
1789.154	825.62
1793.516	830.62
1797.874	835.62
1802.228	821.62
1806.578	818.62
1810.924	808.62
1815.266	791.62
1819.603	777.62
1823.937	778.62
1828.266	761.62
1832.591	755.62
1836.913	766.62
1841.23	749.62
1845.543	737.62
1849.852	745.62
1854.156	756.62
1858.457	750.62
1862.754	761.62
1867.047	764.62
1871.335	777.62
1875.62	773.62
1879.9	771.62
1884.177	773.62
1888.449	778.62
1892.718	769.62
1896.982	765.62
1901.243	763.62
1905.499	760.62
1909.752	757.62
1914	751.62
1918.245	757.62
1922.485	759.62
1926.722	757.62
1930.954	766.62
1935.183	755.62
1939.408	773.62
1943.628	776.62
1947.845	759.62
1952.058	767.62
1956.267	768.62
1960.472	751.62
1964.673	741.62
1968.87	721.62
1973.063	731.62
1977.252	726.62
1981.438	709.62
1985.619	719.62
1989.797	725.62
1993.971	721.62
1998.14	715.62
2002.306	713.62
2006.469	729.62
2010.627	726.62
2014.781	732.62
2018.932	735.62
2023.078	736.62
2027.221	723.62
2031.36	720.62
2035.495	718.62
2039.627	711.62
2043.754	704.62
2047.878	712.62
2051.998	706.62
2056.114	708.62
2060.226	708.62
2064.334	712.62
2068.439	715.62
2072.54	713.62
2076.637	717.62
2080.73	727.62
2084.82	729.62
2088.906	714.62
2092.988	735.62
2097.066	725.62
2101.14	725.62
2105.211	709.62
2109.278	719.62
2113.342	718.62
2117.401	709.62
2121.457	695.62
2125.509	691.62
2129.558	697.62
2133.602	685.62
2137.643	684.62
2141.681	694.62
2145.714	685.62
2149.744	685.62
2153.77	678.62
2157.793	676.62
2161.812	654.62
2165.827	652.62
2169.838	639.62
2173.846	638.62
2177.851	630.62
2181.851	622.62
2185.848	622.62
2189.841	613.62
2193.831	611.62
2197.817	605.62
2201.799	605.62
2205.778	603.62
2209.753	601.62
2213.725	609.62
2217.693	604.62
2221.657	592.62
2225.618	591.62
2229.575	581.62
2233.529	580.62
2237.479	584.62
2241.425	570.62
2245.368	575.62
2249.307	570.62
2253.243	558.62
2257.175	549.62
2261.104	547.62
2265.029	530.62
2268.95	522.62
2272.868	523.62
2276.783	520.62
2280.694	511.62
2284.601	502.62
2288.505	496.62
2292.405	499.62
2296.302	489.62
2300.195	489.62
2304.085	472.62
2307.971	466.62
2311.854	454.62
2315.734	455.62
2319.609	438.62
2323.482	445.62
2327.351	435.62
2331.216	441.62
2335.078	438.62
2338.937	431.62
2342.792	426.62
2346.643	412.62
2350.492	423.62
2354.336	428.62
2358.178	427.62
2362.015	413.62
2365.85	419.62
2369.681	426.62
2373.508	419.62
2377.333	425.62
2381.153	426.62
2384.971	423.62
2388.785	408.62
2392.595	421.62
2396.402	409.62
2400.206	420.62
2404.007	411.62
2407.804	411.62
2411.597	403.62
2415.388	410.62
2419.174	400.62
2422.958	407.62
2426.738	404.62
2430.515	405.62
2434.289	407.62
2438.059	404.62
2441.825	408.62
2445.589	395.62
2449.349	397.62
2453.106	386.62
2456.859	386.62
2460.61	384.62
2464.356	378.62
2468.1	369.62
2471.84	367.62
2475.577	366.62
2479.311	364.62
2483.041	377.62
2486.768	364.62
2490.492	374.62
2494.213	373.62
2497.93	371.62
2501.644	367.62
2505.355	377.62
2509.062	374.62
2512.766	368.62
2516.467	364.62
2520.165	351.62
2523.859	359.62
2527.551	356.62
2531.239	359.62
2534.923	340.62
2538.605	341.62
2542.283	341.62
2545.958	343.62
2549.63	342.62
2553.299	335.62
2556.964	347.62
2560.626	338.62
2564.285	341.62
2567.941	332.62
2571.594	334.62
2575.243	329.62
2578.89	326.62
2582.533	313.62
2586.173	327.62
2589.809	324.62
2593.443	313.62
2597.073	312.62
2600.701	316.62
2604.325	313.62
2607.946	303.62
2611.564	312.62
2615.178	304.62
2618.79	309.62
2622.398	306.62
2626.004	303.62
2629.606	304.62
2633.205	300.62
2636.801	292.62
2640.394	294.62
2643.983	286.62
2647.57	289.62
2651.153	285.62
2654.734	275.62
2658.311	281.62
2661.885	275.62
2665.456	271.62
2669.025	273.62
2672.589	266.62
2676.151	268.62
2679.71	267.62
2683.266	256.62
2686.819	259.62
2690.368	261.62
2693.915	257.62
2697.458	252.62
2700.999	247.62
2704.536	252.62
2708.071	243.62
2711.602	237.62
2715.13	247.62
2718.656	242.62
2722.178	245.62
2725.697	234.62
2729.214	244.62
2732.727	243.62
2736.237	248.62
2739.744	247.62
2743.249	250.62
2746.75	245.62
2750.248	246.62
2753.743	244.62
2757.236	243.62
2760.725	235.62
2764.211	234.62
2767.695	235.62
2771.175	234.62
2774.652	236.62
2778.127	233.62
2781.598	238.62
2785.067	226.62
2788.532	227.62
2791.995	233.62
2795.455	235.62
2798.911	241.62
2802.365	236.62
2805.816	235.62
2809.264	234.62
2812.709	231.62
2816.151	237.62
2819.59	231.62
2823.026	235.62
2826.46	232.62
2829.89	242.62
2833.318	236.62
2836.742	239.62
2840.164	237.62
2843.583	247.62
2846.999	253.62
2850.412	247.62
2853.822	248.62
2857.229	253.62
2860.634	252.62
2864.035	255.62
2867.434	258.62
2870.83	261.62
2874.223	261.62
2877.613	261.62
2881	261.62
2884.385	265.62
2887.766	265.62
2891.145	257.62
2894.521	265.62
2897.894	266.62
2901.264	284.62
2904.631	279.62
2907.996	278.62
2911.358	277.62
2914.717	280.62
2918.073	277.62
2921.426	284.62
2924.777	286.62
2928.124	291.62
2931.469	296.62
2934.811	298.62
2938.15	300.62
2941.487	307.62
2944.821	317.62
2948.152	310.62
2951.48	313.62
2954.805	321.62
2958.128	326.62
2961.447	341.62
2964.765	348.62
2968.079	353.62
2971.39	356.62
2974.699	359.62
2978.005	372.62
2981.308	379.62
2984.609	387.62
2987.907	391.62
2991.202	411.62
2994.494	417.62
2997.784	422.62
3001.07	431.62
3004.355	449.62
3007.636	444.62
3010.915	459.62
3014.191	467.62
3017.464	475.62
3020.734	490.62
3024.002	490.62
3027.267	504.62
3030.53	505.62
3033.789	515.62
3037.046	534.62
3040.301	538.62
3043.552	553.62
3046.801	561.62
3050.048	590.62
3053.291	600.62
3056.532	606.62
3059.771	622.62
3063.006	644.62
3066.239	665.62
3069.469	699.62
3072.697	710.62
3075.922	721.62
3079.144	743.62
3082.364	764.62
3085.581	779.62
3088.795	804.62
3092.007	818.62
3095.216	819.62
3098.423	846.62
3101.627	867.62
3104.828	886.62
3108.026	902.62
3111.222	915.62
3114.416	948.62
3117.607	958.62
3120.795	987.62
3123.98	1017.62
3127.163	1035.62
3130.344	1048.62
3133.521	1085.62
3136.696	1093.62
3139.869	1109.62
3143.039	1139.62
3146.206	1158.62
3149.371	1171.62
3152.533	1178.62
3155.693	1180.62
3158.85	1191.62
3162.005	1198.62
3165.157	1203.62
3168.306	1186.62
3171.453	1201.62
3174.597	1207.62
3177.739	1233.62
3180.878	1208.62
3184.014	1234.62
3187.149	1232.62
3190.28	1257.62
3193.409	1239.62
3196.536	1237.62
3199.659	1264.62
3202.781	1245.62
3205.9	1243.62
3209.016	1264.62
3212.13	1240.62
3215.241	1242.62
3218.35	1231.62
3221.456	1226.62
3224.56	1200.62
3227.661	1196.62
3230.76	1190.62
3233.856	1181.62
3236.95	1166.62
3240.041	1165.62
3243.13	1145.62
3246.216	1143.62
3249.3	1133.62
3252.382	1123.62
3255.46	1119.62
3258.537	1120.62
3261.611	1125.62
3264.682	1097.62
3267.751	1112.62
3270.818	1092.62
3273.882	1085.62
3276.943	1099.62
3280.002	1075.62
3283.059	1067.62
3286.113	1042.62
3289.165	1054.62
3292.214	1031.62
3295.261	1022.62
3298.306	1007.62
3301.348	990.62
3304.387	963.62
3307.425	967.62
3310.459	944.62
3313.492	922.62
3316.521	921.62
3319.549	905.62
3322.574	902.62
3325.597	892.62
3328.617	902.62
3331.635	878.62
3334.65	872.62
3337.663	858.62
3340.674	857.62
3343.682	859.62
3346.688	869.62
3349.691	871.62
3352.692	853.62
3355.691	851.62
3358.687	840.62
3361.681	824.62
3364.673	818.62
3367.662	814.62
3370.649	799.62
3373.633	784.62
3376.615	778.62
3379.595	766.62
3382.572	753.62
3385.547	742.62
3388.52	736.62
3391.49	731.62
3394.458	716.62
3397.424	710.62
3400.387	685.62
3403.348	688.62
3406.307	691.62
3409.263	687.62
3412.217	675.62
3415.168	672.62
3418.118	660.62
3421.065	650.62
3424.009	649.62
3426.951	631.62
3429.891	627.62
3432.829	611.62
3435.764	601.62
3438.697	582.62
3441.628	563.62
3444.557	550.62
3447.483	547.62
3450.407	529.62
3453.328	510.62
3456.247	486.62
3459.164	490.62
3462.079	461.62
3464.991	454.62
3467.902	445.62
3470.809	427.62
3473.715	414.62
3476.618	405.62
3479.519	393.62
3482.418	373.62
3485.315	366.62
3488.209	362.62
3491.101	343.62
3493.99	345.62
3496.878	320.62
3499.763	315.62
3502.646	303.62
3505.527	302.62
3508.405	292.62
3511.281	273.62
3514.155	260.62
3517.027	243.62
3519.897	228.62
3522.764	222.62
3525.629	212.62
3528.492	197.62
3531.352	185.62
3534.211	180.62
3537.067	169.62
3539.921	161.62
3542.773	151.62
3545.622	146.62
3548.469	133.62
3551.315	120.62
3554.157	116.62
3556.998	107.62
3559.837	98.62
3562.673	97.62
3565.507	80.62
3568.339	75.62
3571.169	75.62
3573.996	67.62
3576.822	62.62
3579.645	62.62
3582.466	44.62
3585.285	44.62
3588.101	43.62
3590.916	38.62
3593.728	31.62
3596.538	22.62
3599.346	17.62
3602.152	18.62
3604.956	8.62
3607.757	12.62
3610.556	4.62
3613.354	-5.38
3616.149	-6.38
3618.942	-13.38
3621.732	-9.38
3624.521	-12.38
3627.307	-21.38
3630.092	-24.38
3632.874	-26.38
3635.654	-27.38
3638.432	-26.38
3641.208	-32.38
3643.982	-36.38
3646.753	-36.38
3649.523	-40.38
3652.29	-41.38
3655.055	-46.38
3657.818	-49.38
3660.579	-50.38
3663.338	-53.38
3666.095	-55.38
3668.849	-60.38
3671.602	-65.38
3674.352	-66.38
3677.101	-66.38
3679.847	-73.38
3682.591	-71.38
3685.333	-67.38
3688.073	-76.38
3690.811	-73.38
3693.547	-76.38
3696.281	-74.38
3699.013	-81.38
3701.742	-75.38
3704.47	-81.38
3707.195	-85.38
3709.919	-81.38
3712.64	-87.38
3715.359	-82.38
3718.076	-89.38
3720.792	-91.38
3723.505	-93.38
3726.216	-93.38
3728.925	-90.38
3731.632	-92.38
3734.336	-94.38
3737.039	-94.38
3739.74	-98.38
3742.439	-91.38
3745.136	-97.38
3747.83	-90.38
3750.523	-94.38
3753.213	-94.38
3755.902	-96.38
3758.589	-99.38
3761.273	-94.38
3763.956	-97.38
3766.636	-103.38
3769.315	-103.38
3771.991	-105.38
3774.665	-107.38
3777.338	-107.38
3780.008	-103.38
3782.677	-106.38
3785.343	-101.38
3788.007	-102.38
3790.67	-102.38
3793.33	-103.38
3795.989	-103.38
3798.645	-102.38
3801.299	-103.38
3803.952	-102.38
3806.602	-102.38
3809.251	-106.38
3811.897	-105.38
3814.542	-105.38
3817.184	-110.38
3819.825	-112.38
3822.463	-109.38
3825.1	-108.38
3827.735	-108.38
3830.367	-110.38
3832.998	-109.38
3835.627	-106.38
3838.253	-104.38
3840.878	-102.38
3843.501	-104.38
3846.122	-108.38
3848.741	-105.38
3851.358	-107.38
3853.973	-111.38
3856.586	-116.38
3859.197	-110.38
3861.806	-113.38
3864.414	-114.38
3867.019	-114.38
3869.622	-110.38
3872.224	-113.38
3874.823	-108.38
3877.421	-106.38
3880.016	-101.38
3882.61	-99.38
3885.202	-102.38
3887.792	-101.38
3890.38	-105.38
3892.966	-110.38
3895.55	-109.38
3898.132	-112.38
3900.713	-112.38
3903.291	-112.38
3905.868	-114.38
3908.442	-114.38
3911.015	-113.38
3913.586	-113.38
3916.155	-107.38
3918.722	-113.38
3921.287	-113.38
3923.85	-114.38
3926.411	-112.38
3928.971	-116.38
3931.528	-113.38
3934.084	-116.38
3936.638	-117.38
3939.19	-115.38
3941.74	-112.38
3944.288	-116.38
3946.834	-115.38
3949.378	-119.38
3951.921	-116.38
3954.462	-114.38
3957	-115.38
3959.537	-114.38
3962.072	-111.38
3964.606	-112.38
3967.137	-112.38
3969.667	-117.38
3972.194	-114.38
3974.72	-111.38
3977.244	-110.38
3979.766	-113.38
3982.286	-117.38
3984.805	-119.38
3987.321	-116.38
3989.836	-115.38
3992.349	-114.38
3994.86	-113.38
3997.369	-110.38
3999.877	-111.38
4002.382	-110.38
4004.886	-111.38
4007.388	-111.38
4009.888	-112.38
4012.386	-116.38
4014.883	-112.38
4017.377	-112.38
4019.87	-115.38
4022.361	-115.38
4024.85	-118.38
4027.338	-119.38
4029.823	-115.38
4032.307	-117.38
4034.789	-116.38
4037.269	-117.38
4039.747	-116.38
4042.224	-111.38
4044.699	-116.38
4047.172	-111.38
4049.643	-110.38
4052.112	-114.38
4054.58	-112.38
4057.046	-115.38
4059.51	-114.38
4061.972	-118.38
4064.432	-117.38
4066.891	-117.38
4069.348	-116.38
4071.803	-114.38
4074.256	-118.38
4076.708	-116.38
4079.158	-114.38
4081.606	-116.38
4084.052	-114.38
4086.497	-110.38
4088.939	-109.38
4091.38	-112.38
4093.819	-113.38
4096.257	-116.38
4098.693	-120.38
4101.127	-121.38
4103.559	-121.38
4105.989	-77.38
4108.418	-77.38
4110.845	-75.38
4113.27	-68.38
4115.694	-60.38
4118.115	-46.38
4120.535	-113.38
4122.954	-119.38
4125.37	-114.38
4127.785	-114.38
4130.198	-117.38
4132.609	-116.38
4135.019	-118.38
4137.427	-123.38
4139.833	-122.38
4142.237	-120.38
