Data from 1000000CFU1_B_RamanShift_1.txt Node
Date: Wed Jan 25 12:41:55 IST 2017
User: aro
Spectrometer: QEPB0276
Trigger mode: 0
Integration Time (sec): 5.000000E0
Scans to average: 1
Electric dark correction enabled: true
Nonlinearity correction enabled: false
Boxcar width: 0
XAxis mode: Raman Shifts
Number of Pixels in Spectrum: 1044
>>>>>Begin Spectral Data<<<<<
160.701	-37
166.742	-2
172.777	94
178.805	399
184.826	1107
190.841	2259
196.849	3526
202.85	4356
208.845	4517
214.833	4350
220.815	4185
226.789	4062
232.758	3971
238.719	3840
244.674	3677
250.623	3516
256.565	3382
262.5	3202
268.429	3089
274.351	2972
280.267	2869
286.176	2750
292.079	2648
297.975	2564
303.865	2488
309.748	2414
315.625	2369
321.495	2297
327.359	2290
333.217	2233
339.068	2219
344.912	2236
350.751	2217
356.583	2210
362.408	2221
368.227	2222
374.04	2195
379.847	2237
385.647	2251
391.44	2248
397.228	2252
403.009	2269
408.784	2280
414.553	2294
420.315	2290
426.071	2303
431.821	2283
437.565	2275
443.302	2287
449.033	2266
454.758	2272
460.477	2263
466.189	2247
471.896	2243
477.596	2227
483.29	2231
488.978	2201
494.66	2201
500.335	2159
506.005	2115
511.668	2074
517.325	2048
522.977	2023
528.622	1983
534.261	1957
539.894	1955
545.521	1930
551.141	1918
556.756	1912
562.365	1910
567.968	1887
573.565	1886
579.155	1862
584.74	1851
590.319	1835
595.892	1846
601.459	1812
607.02	1807
612.575	1800
618.124	1769
623.667	1762
629.204	1742
634.735	1725
640.261	1694
645.781	1705
651.294	1690
656.802	1702
662.304	1693
667.8	1682
673.29	1654
678.775	1675
684.254	1648
689.726	1649
695.193	1640
700.655	1625
706.11	1614
711.56	1604
717.004	1599
722.442	1588
727.874	1573
733.301	1567
738.722	1567
744.137	1566
749.547	1553
754.951	1540
760.349	1549
765.741	1526
771.128	1536
776.509	1559
781.885	1542
787.254	1530
792.618	1517
797.977	1508
803.33	1506
808.677	1497
814.019	1469
819.355	1478
824.686	1439
830.011	1446
835.33	1451
840.644	1440
845.952	1421
851.255	1419
856.552	1416
861.844	1416
867.13	1396
872.41	1392
877.686	1366
882.955	1367
888.219	1337
893.478	1315
898.731	1298
903.979	1273
909.221	1264
914.458	1265
919.69	1238
924.916	1263
930.136	1251
935.351	1243
940.561	1250
945.766	1235
950.965	1258
956.158	1231
961.347	1209
966.529	1192
971.707	1172
976.879	1154
982.046	1139
987.208	1146
992.364	1157
997.515	1161
1002.66	1170
1007.801	1164
1012.936	1181
1018.066	1181
1023.19	1191
1028.309	1200
1033.423	1196
1038.532	1185
1043.636	1182
1048.734	1155
1053.827	1145
1058.915	1141
1063.998	1134
1069.075	1137
1074.147	1135
1079.214	1137
1084.276	1145
1089.333	1169
1094.385	1161
1099.431	1165
1104.472	1157
1109.509	1180
1114.54	1141
1119.565	1149
1124.586	1121
1129.602	1117
1134.613	1109
1139.618	1107
1144.619	1101
1149.614	1109
1154.604	1109
1159.589	1132
1164.57	1129
1169.545	1124
1174.515	1140
1179.48	1135
1184.44	1126
1189.395	1125
1194.345	1119
1199.29	1094
1204.23	1102
1209.165	1129
1214.095	1111
1219.021	1119
1223.941	1133
1228.856	1149
1233.766	1141
1238.672	1138
1243.572	1154
1248.467	1132
1253.358	1120
1258.244	1113
1263.124	1095
1268	1083
1272.871	1074
1277.737	1057
1282.599	1069
1287.455	1056
1292.306	1071
1297.153	1078
1301.995	1071
1306.832	1092
1311.664	1095
1316.491	1091
1321.314	1096
1326.132	1092
1330.945	1071
1335.753	1064
1340.556	1074
1345.354	1056
1350.148	1040
1354.937	1027
1359.722	1022
1364.501	994
1369.276	991
1374.046	989
1378.811	968
1383.572	983
1388.327	971
1393.079	984
1397.825	960
1402.567	963
1407.304	958
1412.036	947
1416.764	955
1421.487	962
1426.205	962
1430.919	960
1435.628	981
1440.333	995
1445.032	988
1449.727	1005
1454.418	998
1459.104	999
1463.785	998
1468.462	985
1473.134	986
1477.802	978
1482.465	968
1487.123	973
1491.777	982
1496.426	974
1501.071	985
1505.711	998
1510.347	997
1514.978	1006
1519.604	1007
1524.226	1016
1528.844	1040
1533.457	1023
1538.065	1029
1542.669	1015
1547.269	1010
1551.864	1008
1556.454	1021
1561.041	1030
1565.622	1037
1570.199	1055
1574.772	1058
1579.34	1099
1583.904	1110
1588.464	1130
1593.019	1154
1597.569	1162
1602.115	1164
1606.657	1193
1611.195	1216
1615.728	1203
1620.256	1215
1624.78	1246
1629.3	1263
1633.816	1288
1638.327	1290
1642.834	1317
1647.336	1333
1651.834	1324
1656.328	1328
1660.817	1310
1665.302	1289
1669.783	1255
1674.259	1225
1678.732	1191
1683.199	1163
1687.663	1127
1692.122	1085
1696.577	1052
1701.028	996
1705.474	952
1709.917	927
1714.355	901
1718.788	904
1723.218	871
1727.643	858
1732.064	839
1736.481	820
1740.893	784
1745.301	785
1749.705	757
1754.105	737
1758.501	719
1762.893	710
1767.28	702
1771.663	699
1776.042	690
1780.417	694
1784.787	699
1789.154	701
1793.516	686
1797.874	692
1802.228	680
1806.578	681
1810.924	657
1815.266	638
1819.603	638
1823.937	631
1828.266	621
1832.591	630
1836.913	625
1841.23	621
1845.543	608
1849.852	618
1854.156	605
1858.457	634
1862.754	621
1867.047	628
1871.335	630
1875.62	631
1879.9	642
1884.177	642
1888.449	634
1892.718	641
1896.982	624
1901.243	619
1905.499	632
1909.752	620
1914	617
1918.245	623
1922.485	611
1926.722	620
1930.954	635
1935.183	636
1939.408	631
1943.628	637
1947.845	631
1952.058	632
1956.267	630
1960.472	620
1964.673	627
1968.87	605
1973.063	603
1977.252	600
1981.438	595
1985.619	603
1989.797	608
1993.971	599
1998.14	591
2002.306	601
2006.469	606
2010.627	617
2014.781	615
2018.932	615
2023.078	615
2027.221	610
2031.36	613
2035.495	603
2039.627	588
2043.754	598
2047.878	599
2051.998	592
2056.114	593
2060.226	588
2064.334	593
2068.439	593
2072.54	607
2076.637	611
2080.73	613
2084.82	611
2088.906	605
2092.988	618
2097.066	604
2101.14	608
2105.211	603
2109.278	602
2113.342	583
2117.401	605
2121.457	579
2125.509	581
2129.558	578
2133.602	581
2137.643	575
2141.681	582
2145.714	584
2149.744	570
2153.77	571
2157.793	566
2161.812	555
2165.827	542
2169.838	543
2173.846	551
2177.851	531
2181.851	519
2185.848	517
2189.841	519
2193.831	504
2197.817	503
2201.799	505
2205.778	496
2209.753	498
2213.725	503
2217.693	498
2221.657	496
2225.618	480
2229.575	492
2233.529	490
2237.479	491
2241.425	480
2245.368	460
2249.307	460
2253.243	464
2257.175	444
2261.104	445
2265.029	443
2268.95	441
2272.868	429
2276.783	411
2280.694	414
2284.601	417
2288.505	410
2292.405	402
2296.302	402
2300.195	389
2304.085	379
2307.971	382
2311.854	379
2315.734	375
2319.609	366
2323.482	356
2327.351	354
2331.216	361
2335.078	346
2338.937	339
2342.792	346
2346.643	329
2350.492	337
2354.336	336
2358.178	342
2362.015	342
2365.85	340
2369.681	341
2373.508	351
2377.333	345
2381.153	346
2384.971	348
2388.785	346
2392.595	340
2396.402	336
2400.206	330
2404.007	339
2407.804	331
2411.597	321
2415.388	319
2419.174	327
2422.958	321
2426.738	321
2430.515	323
2434.289	316
2438.059	328
2441.825	318
2445.589	312
2449.349	320
2453.106	317
2456.859	310
2460.61	314
2464.356	305
2468.1	298
2471.84	299
2475.577	297
2479.311	291
2483.041	286
2486.768	297
2490.492	289
2494.213	282
2497.93	294
2501.644	289
2505.355	298
2509.062	299
2512.766	301
2516.467	292
2520.165	284
2523.859	291
2527.551	297
2531.239	299
2534.923	272
2538.605	269
2542.283	272
2545.958	271
2549.63	274
2553.299	272
2556.964	268
2560.626	268
2564.285	261
2567.941	262
2571.594	258
2575.243	257
2578.89	255
2582.533	262
2586.173	257
2589.809	252
2593.443	244
2597.073	246
2600.701	246
2604.325	248
2607.946	247
2611.564	252
2615.178	241
2618.79	243
2622.398	247
2626.004	242
2629.606	239
2633.205	235
2636.801	236
2640.394	229
2643.983	231
2647.57	224
2651.153	230
2654.734	218
2658.311	222
2661.885	213
2665.456	208
2669.025	211
2672.589	214
2676.151	207
2679.71	201
2683.266	209
2686.819	202
2690.368	205
2693.915	204
2697.458	204
2700.999	204
2704.536	197
2708.071	192
2711.602	198
2715.13	187
2718.656	182
2722.178	187
2725.697	184
2729.214	190
2732.727	197
2736.237	196
2739.744	191
2743.249	205
2746.75	193
2750.248	193
2753.743	205
2757.236	196
2760.725	189
2764.211	190
2767.695	189
2771.175	181
2774.652	181
2778.127	183
2781.598	173
2785.067	173
2788.532	184
2791.995	176
2795.455	187
2798.911	186
2802.365	188
2805.816	194
2809.264	191
2812.709	201
2816.151	193
2819.59	191
2823.026	185
2826.46	186
2829.89	197
2833.318	181
2836.742	201
2840.164	192
2843.583	192
2846.999	197
2850.412	199
2853.822	200
2857.229	204
2860.634	208
2864.035	210
2867.434	213
2870.83	215
2874.223	221
2877.613	224
2881	217
2884.385	222
2887.766	227
2891.145	233
2894.521	226
2897.894	226
2901.264	228
2904.631	227
2907.996	233
2911.358	233
2914.717	244
2918.073	236
2921.426	243
2924.777	241
2928.124	253
2931.469	253
2934.811	263
2938.15	260
2941.487	268
2944.821	277
2948.152	279
2951.48	295
2954.805	289
2958.128	297
2961.447	297
2964.765	305
2968.079	303
2971.39	317
2974.699	328
2978.005	329
2981.308	341
2984.609	352
2987.907	351
2991.202	368
2994.494	374
2997.784	386
3001.07	396
3004.355	409
3007.636	419
3010.915	430
3014.191	437
3017.464	453
3020.734	454
3024.002	459
3027.267	469
3030.53	480
3033.789	493
3037.046	494
3040.301	517
3043.552	518
3046.801	533
3050.048	540
3053.291	561
3056.532	577
3059.771	600
3063.006	617
3066.239	641
3069.469	657
3072.697	668
3075.922	693
3079.144	706
3082.364	727
3085.581	752
3088.795	767
3092.007	766
3095.216	794
3098.423	819
3101.627	832
3104.828	844
3108.026	862
3111.222	884
3114.416	897
3117.607	929
3120.795	939
3123.98	971
3127.163	991
3130.344	1022
3133.521	1039
3136.696	1061
3139.869	1084
3143.039	1090
3146.206	1124
3149.371	1137
3152.533	1141
3155.693	1141
3158.85	1148
3162.005	1157
3165.157	1159
3168.306	1160
3171.453	1177
3174.597	1184
3177.739	1183
3180.878	1178
3184.014	1188
3187.149	1211
3190.28	1218
3193.409	1196
3196.536	1220
3199.659	1222
3202.781	1220
3205.9	1231
3209.016	1215
3212.13	1223
3215.241	1217
3218.35	1190
3221.456	1187
3224.56	1177
3227.661	1163
3230.76	1150
3233.856	1147
3236.95	1137
3240.041	1134
3243.13	1133
3246.216	1113
3249.3	1104
3252.382	1104
3255.46	1095
3258.537	1092
3261.611	1102
3264.682	1074
3267.751	1075
3270.818	1085
3273.882	1073
3276.943	1064
3280.002	1049
3283.059	1036
3286.113	1041
3289.165	1017
3292.214	997
3295.261	979
3298.306	964
3301.348	962
3304.387	952
3307.425	927
3310.459	920
3313.492	907
3316.521	899
3319.549	897
3322.574	888
3325.597	875
3328.617	865
3331.635	863
3334.65	856
3337.663	852
3340.674	835
3343.682	851
3346.688	844
3349.691	844
3352.692	838
3355.691	821
3358.687	832
3361.681	819
3364.673	814
3367.662	793
3370.649	787
3373.633	770
3376.615	767
3379.595	757
3382.572	736
3385.547	732
3388.52	721
3391.49	713
3394.458	692
3397.424	693
3400.387	682
3403.348	678
3406.307	678
3409.263	667
3412.217	653
3415.168	650
3418.118	647
3421.065	630
3424.009	631
3426.951	610
3429.891	627
3432.829	605
3435.764	584
3438.697	581
3441.628	561
3444.557	547
3447.483	535
3450.407	530
3453.328	502
3456.247	486
3459.164	469
3462.079	458
3464.991	455
3467.902	430
3470.809	421
3473.715	398
3476.618	398
3479.519	386
3482.418	372
3485.315	371
3488.209	349
3491.101	347
3493.99	333
3496.878	323
3499.763	317
3502.646	303
3505.527	291
3508.405	276
3511.281	263
3514.155	260
3517.027	242
3519.897	231
3522.764	217
3525.629	205
3528.492	194
3531.352	186
3534.211	178
3537.067	170
3539.921	157
3542.773	145
3545.622	142
3548.469	134
3551.315	125
3554.157	113
3556.998	101
3559.837	103
3562.673	93
3565.507	81
3568.339	82
3571.169	76
3573.996	65
3576.822	70
3579.645	61
3582.466	47
3585.285	49
3588.101	46
3590.916	37
3593.728	30
3596.538	30
3599.346	21
3602.152	20
3604.956	13
3607.757	19
3610.556	13
3613.354	1
3616.149	-4
3618.942	-9
3621.732	-11
3624.521	-12
3627.307	-18
3630.092	-22
3632.874	-23
3635.654	-25
3638.432	-31
3641.208	-32
3643.982	-32
3646.753	-35
3649.523	-35
3652.29	-37
3655.055	-42
3657.818	-42
3660.579	-44
3663.338	-48
3666.095	-54
3668.849	-53
3671.602	-57
3674.352	-56
3677.101	-64
3679.847	-63
3682.591	-64
3685.333	-68
3688.073	-68
3690.811	-70
3693.547	-73
3696.281	-76
3699.013	-76
3701.742	-77
3704.47	-78
3707.195	-77
3709.919	-82
3712.64	-77
3715.359	-77
3718.076	-80
3720.792	-87
3723.505	-86
3726.216	-82
3728.925	-85
3731.632	-87
3734.336	-88
3737.039	-90
3739.74	-87
3742.439	-88
3745.136	-89
3747.83	-89
3750.523	-91
3753.213	-89
3755.902	-94
3758.589	-93
3761.273	-89
3763.956	-92
3766.636	-98
3769.315	-94
3771.991	-100
3774.665	-98
3777.338	-95
3780.008	-94
3782.677	-97
3785.343	-98
3788.007	-95
3790.67	-93
3793.33	-98
3795.989	-96
3798.645	-97
3801.299	-99
3803.952	-100
3806.602	-99
3809.251	-103
3811.897	-102
3814.542	-102
3817.184	-105
3819.825	-103
3822.463	-102
3825.1	-102
3827.735	-104
3830.367	-101
3832.998	-101
3835.627	-100
3838.253	-102
3840.878	-101
3843.501	-101
3846.122	-102
3848.741	-101
3851.358	-104
3853.973	-104
3856.586	-107
3859.197	-106
3861.806	-107
3864.414	-108
3867.019	-106
3869.622	-106
3872.224	-104
3874.823	-100
3877.421	-98
3880.016	-96
3882.61	-92
3885.202	-95
3887.792	-95
3890.38	-98
3892.966	-101
3895.55	-104
3898.132	-105
3900.713	-106
3903.291	-103
3905.868	-109
3908.442	-109
3911.015	-110
3913.586	-110
3916.155	-106
3918.722	-107
3921.287	-108
3923.85	-108
3926.411	-105
3928.971	-111
3931.528	-107
3934.084	-111
3936.638	-108
3939.19	-107
3941.74	-105
3944.288	-109
3946.834	-112
3949.378	-110
3951.921	-110
3954.462	-108
3957	-108
3959.537	-106
3962.072	-107
3964.606	-108
3967.137	-105
3969.667	-109
3972.194	-110
3974.72	-108
3977.244	-106
3979.766	-106
3982.286	-111
3984.805	-108
3987.321	-109
3989.836	-107
3992.349	-108
3994.86	-105
3997.369	-105
3999.877	-105
4002.382	-104
4004.886	-105
4007.388	-105
4009.888	-106
4012.386	-111
4014.883	-106
4017.377	-104
4019.87	-110
4022.361	-110
4024.85	-110
4027.338	-112
4029.823	-109
4032.307	-110
4034.789	-109
4037.269	-108
4039.747	-106
4042.224	-106
4044.699	-110
4047.172	-106
4049.643	-104
4052.112	-106
4054.58	-104
4057.046	-107
4059.51	-106
4061.972	-111
4064.432	-111
4066.891	-109
4069.348	-108
4071.803	-111
4074.256	-112
4076.708	-112
4079.158	-107
4081.606	-108
4084.052	-108
4086.497	-106
4088.939	-106
4091.38	-106
4093.819	-104
4096.257	-109
4098.693	-110
4101.127	-111
4103.559	-110
4105.989	-69
4108.418	-69
4110.845	-70
4113.27	-63
4115.694	-54
4118.115	-46
4120.535	-105
4122.954	-109
4125.37	-109
4127.785	-111
4130.198	-111
4132.609	-109
4135.019	-113
4137.427	-113
4139.833	-114
4142.237	-114
