Data from 1000000CFU3_A_RamanShift_1.txt Node
Date: Wed Jan 25 12:04:30 IST 2017
User: aro
Spectrometer: QEPB0276
Trigger mode: 0
Integration Time (sec): 5.000000E0
Scans to average: 1
Electric dark correction enabled: true
Nonlinearity correction enabled: false
Boxcar width: 0
XAxis mode: Raman Shifts
Number of Pixels in Spectrum: 1044
>>>>>Begin Spectral Data<<<<<
160.701	-36.38
166.742	-6.38
172.777	100.62
178.805	436.62
184.826	1198.62
190.841	2439.62
196.849	3776.62
202.85	4645.62
208.845	4807.62
214.833	4632.62
220.815	4472.62
226.789	4340.62
232.758	4260.62
238.719	4112.62
244.674	3948.62
250.623	3802.62
256.565	3622.62
262.5	3450.62
268.429	3323.62
274.351	3179.62
280.267	3085.62
286.176	2948.62
292.079	2881.62
297.975	2771.62
303.865	2711.62
309.748	2645.62
315.625	2556.62
321.495	2498.62
327.359	2465.62
333.217	2447.62
339.068	2443.62
344.912	2413.62
350.751	2390.62
356.583	2389.62
362.408	2406.62
368.227	2392.62
374.04	2399.62
379.847	2415.62
385.647	2417.62
391.44	2440.62
397.228	2446.62
403.009	2457.62
408.784	2477.62
414.553	2482.62
420.315	2481.62
426.071	2483.62
431.821	2471.62
437.565	2491.62
443.302	2487.62
449.033	2464.62
454.758	2461.62
460.477	2452.62
466.189	2444.62
471.896	2421.62
477.596	2414.62
483.29	2418.62
488.978	2413.62
494.66	2364.62
500.335	2359.62
506.005	2312.62
511.668	2268.62
517.325	2237.62
522.977	2205.62
528.622	2170.62
534.261	2158.62
539.894	2138.62
545.521	2103.62
551.141	2093.62
556.756	2090.62
562.365	2083.62
567.968	2068.62
573.565	2057.62
579.155	2057.62
584.74	2048.62
590.319	2015.62
595.892	2013.62
601.459	1988.62
607.02	1977.62
612.575	1963.62
618.124	1960.62
623.667	1941.62
629.204	1902.62
634.735	1888.62
640.261	1888.62
645.781	1872.62
651.294	1857.62
656.802	1863.62
662.304	1854.62
667.8	1838.62
673.29	1828.62
678.775	1834.62
684.254	1819.62
689.726	1825.62
695.193	1810.62
700.655	1792.62
706.11	1781.62
711.56	1778.62
717.004	1751.62
722.442	1771.62
727.874	1749.62
733.301	1740.62
738.722	1722.62
744.137	1723.62
749.547	1731.62
754.951	1733.62
760.349	1719.62
765.741	1720.62
771.128	1705.62
776.509	1715.62
781.885	1718.62
787.254	1695.62
792.618	1701.62
797.977	1682.62
803.33	1672.62
808.677	1658.62
814.019	1650.62
819.355	1621.62
824.686	1619.62
830.011	1614.62
835.33	1604.62
840.644	1597.62
845.952	1580.62
851.255	1591.62
856.552	1578.62
861.844	1581.62
867.13	1557.62
872.41	1554.62
877.686	1542.62
882.955	1506.62
888.219	1495.62
893.478	1468.62
898.731	1461.62
903.979	1451.62
909.221	1419.62
914.458	1432.62
919.69	1416.62
924.916	1410.62
930.136	1406.62
935.351	1401.62
940.561	1410.62
945.766	1408.62
950.965	1386.62
956.158	1381.62
961.347	1376.62
966.529	1348.62
971.707	1328.62
976.879	1327.62
982.046	1296.62
987.208	1299.62
992.364	1296.62
997.515	1299.62
1002.66	1307.62
1007.801	1326.62
1012.936	1344.62
1018.066	1359.62
1023.19	1363.62
1028.309	1356.62
1033.423	1356.62
1038.532	1359.62
1043.636	1319.62
1048.734	1332.62
1053.827	1299.62
1058.915	1294.62
1063.998	1305.62
1069.075	1289.62
1074.147	1315.62
1079.214	1295.62
1084.276	1307.62
1089.333	1318.62
1094.385	1339.62
1099.431	1352.62
1104.472	1337.62
1109.509	1343.62
1114.54	1315.62
1119.565	1307.62
1124.586	1278.62
1129.602	1257.62
1134.613	1263.62
1139.618	1275.62
1144.619	1258.62
1149.614	1267.62
1154.604	1274.62
1159.589	1297.62
1164.57	1297.62
1169.545	1297.62
1174.515	1289.62
1179.48	1285.62
1184.44	1268.62
1189.395	1272.62
1194.345	1262.62
1199.29	1259.62
1204.23	1266.62
1209.165	1270.62
1214.095	1288.62
1219.021	1294.62
1223.941	1303.62
1228.856	1296.62
1233.766	1309.62
1238.672	1323.62
1243.572	1312.62
1248.467	1311.62
1253.358	1294.62
1258.244	1278.62
1263.124	1244.62
1268	1243.62
1272.871	1219.62
1277.737	1216.62
1282.599	1220.62
1287.455	1238.62
1292.306	1222.62
1297.153	1216.62
1301.995	1234.62
1306.832	1257.62
1311.664	1248.62
1316.491	1262.62
1321.314	1253.62
1326.132	1243.62
1330.945	1239.62
1335.753	1226.62
1340.556	1201.62
1345.354	1192.62
1350.148	1183.62
1354.937	1177.62
1359.722	1168.62
1364.501	1162.62
1369.276	1171.62
1374.046	1129.62
1378.811	1137.62
1383.572	1134.62
1388.327	1136.62
1393.079	1133.62
1397.825	1117.62
1402.567	1104.62
1407.304	1106.62
1412.036	1105.62
1416.764	1101.62
1421.487	1095.62
1426.205	1112.62
1430.919	1119.62
1435.628	1127.62
1440.333	1130.62
1445.032	1154.62
1449.727	1150.62
1454.418	1163.62
1459.104	1164.62
1463.785	1151.62
1468.462	1147.62
1473.134	1128.62
1477.802	1130.62
1482.465	1100.62
1487.123	1105.62
1491.777	1122.62
1496.426	1129.62
1501.071	1134.62
1505.711	1154.62
1510.347	1161.62
1514.978	1157.62
1519.604	1173.62
1524.226	1182.62
1528.844	1168.62
1533.457	1165.62
1538.065	1176.62
1542.669	1164.62
1547.269	1163.62
1551.864	1165.62
1556.454	1177.62
1561.041	1192.62
1565.622	1204.62
1570.199	1214.62
1574.772	1228.62
1579.34	1263.62
1583.904	1281.62
1588.464	1302.62
1593.019	1299.62
1597.569	1317.62
1602.115	1340.62
1606.657	1351.62
1611.195	1352.62
1615.728	1372.62
1620.256	1372.62
1624.78	1409.62
1629.3	1414.62
1633.816	1457.62
1638.327	1455.62
1642.834	1464.62
1647.336	1493.62
1651.834	1499.62
1656.328	1505.62
1660.817	1476.62
1665.302	1464.62
1669.783	1446.62
1674.259	1408.62
1678.732	1364.62
1683.199	1318.62
1687.663	1285.62
1692.122	1236.62
1696.577	1196.62
1701.028	1144.62
1705.474	1085.62
1709.917	1050.62
1714.355	1048.62
1718.788	1007.62
1723.218	1021.62
1727.643	987.62
1732.064	988.62
1736.481	944.62
1740.893	928.62
1745.301	903.62
1749.705	879.62
1754.105	867.62
1758.501	854.62
1762.893	834.62
1767.28	814.62
1771.663	799.62
1776.042	813.62
1780.417	801.62
1784.787	810.62
1789.154	820.62
1793.516	816.62
1797.874	813.62
1802.228	816.62
1806.578	793.62
1810.924	784.62
1815.266	771.62
1819.603	753.62
1823.937	762.62
1828.266	741.62
1832.591	744.62
1836.913	736.62
1841.23	741.62
1845.543	733.62
1849.852	734.62
1854.156	746.62
1858.457	734.62
1862.754	748.62
1867.047	754.62
1871.335	746.62
1875.62	751.62
1879.9	752.62
1884.177	745.62
1888.449	756.62
1892.718	748.62
1896.982	748.62
1901.243	743.62
1905.499	747.62
1909.752	740.62
1914	737.62
1918.245	721.62
1922.485	746.62
1926.722	745.62
1930.954	744.62
1935.183	749.62
1939.408	738.62
1943.628	753.62
1947.845	739.62
1952.058	750.62
1956.267	746.62
1960.472	746.62
1964.673	721.62
1968.87	719.62
1973.063	711.62
1977.252	711.62
1981.438	704.62
1985.619	698.62
1989.797	701.62
1993.971	706.62
1998.14	711.62
2002.306	711.62
2006.469	720.62
2010.627	720.62
2014.781	710.62
2018.932	709.62
2023.078	714.62
2027.221	713.62
2031.36	722.62
2035.495	708.62
2039.627	710.62
2043.754	709.62
2047.878	701.62
2051.998	699.62
2056.114	696.62
2060.226	711.62
2064.334	715.62
2068.439	701.62
2072.54	714.62
2076.637	711.62
2080.73	706.62
2084.82	722.62
2088.906	717.62
2092.988	715.62
2097.066	711.62
2101.14	703.62
2105.211	706.62
2109.278	697.62
2113.342	695.62
2117.401	692.62
2121.457	679.62
2125.509	668.62
2129.558	677.62
2133.602	673.62
2137.643	664.62
2141.681	666.62
2145.714	672.62
2149.744	669.62
2153.77	661.62
2157.793	663.62
2161.812	641.62
2165.827	649.62
2169.838	645.62
2173.846	628.62
2177.851	622.62
2181.851	621.62
2185.848	605.62
2189.841	585.62
2193.831	595.62
2197.817	586.62
2201.799	580.62
2205.778	589.62
2209.753	581.62
2213.725	577.62
2217.693	587.62
2221.657	588.62
2225.618	587.62
2229.575	580.62
2233.529	598.62
2237.479	579.62
2241.425	570.62
2245.368	566.62
2249.307	544.62
2253.243	533.62
2257.175	542.62
2261.104	530.62
2265.029	508.62
2268.95	520.62
2272.868	516.62
2276.783	505.62
2280.694	500.62
2284.601	489.62
2288.505	484.62
2292.405	482.62
2296.302	474.62
2300.195	469.62
2304.085	464.62
2307.971	460.62
2311.854	447.62
2315.734	455.62
2319.609	422.62
2323.482	424.62
2327.351	421.62
2331.216	414.62
2335.078	419.62
2338.937	409.62
2342.792	406.62
2346.643	403.62
2350.492	416.62
2354.336	411.62
2358.178	405.62
2362.015	406.62
2365.85	409.62
2369.681	416.62
2373.508	410.62
2377.333	416.62
2381.153	418.62
2384.971	408.62
2388.785	404.62
2392.595	410.62
2396.402	399.62
2400.206	407.62
2404.007	391.62
2407.804	398.62
2411.597	387.62
2415.388	395.62
2419.174	386.62
2422.958	391.62
2426.738	385.62
2430.515	391.62
2434.289	386.62
2438.059	386.62
2441.825	384.62
2445.589	377.62
2449.349	380.62
2453.106	375.62
2456.859	376.62
2460.61	365.62
2464.356	371.62
2468.1	356.62
2471.84	352.62
2475.577	356.62
2479.311	353.62
2483.041	348.62
2486.768	351.62
2490.492	348.62
2494.213	365.62
2497.93	361.62
2501.644	360.62
2505.355	350.62
2509.062	366.62
2512.766	360.62
2516.467	352.62
2520.165	359.62
2523.859	351.62
2527.551	344.62
2531.239	341.62
2534.923	341.62
2538.605	330.62
2542.283	328.62
2545.958	339.62
2549.63	327.62
2553.299	320.62
2556.964	330.62
2560.626	330.62
2564.285	325.62
2567.941	322.62
2571.594	330.62
2575.243	318.62
2578.89	316.62
2582.533	323.62
2586.173	305.62
2589.809	319.62
2593.443	300.62
2597.073	309.62
2600.701	300.62
2604.325	299.62
2607.946	302.62
2611.564	301.62
2615.178	296.62
2618.79	294.62
2622.398	297.62
2626.004	293.62
2629.606	291.62
2633.205	285.62
2636.801	282.62
2640.394	271.62
2643.983	277.62
2647.57	283.62
2651.153	279.62
2654.734	272.62
2658.311	260.62
2661.885	265.62
2665.456	253.62
2669.025	262.62
2672.589	265.62
2676.151	267.62
2679.71	259.62
2683.266	254.62
2686.819	255.62
2690.368	248.62
2693.915	249.62
2697.458	240.62
2700.999	239.62
2704.536	235.62
2708.071	236.62
2711.602	235.62
2715.13	237.62
2718.656	229.62
2722.178	235.62
2725.697	233.62
2729.214	233.62
2732.727	237.62
2736.237	234.62
2739.744	231.62
2743.249	242.62
2746.75	238.62
2750.248	236.62
2753.743	231.62
2757.236	228.62
2760.725	229.62
2764.211	224.62
2767.695	229.62
2771.175	216.62
2774.652	223.62
2778.127	223.62
2781.598	220.62
2785.067	212.62
2788.532	217.62
2791.995	217.62
2795.455	223.62
2798.911	222.62
2802.365	224.62
2805.816	228.62
2809.264	229.62
2812.709	224.62
2816.151	230.62
2819.59	228.62
2823.026	226.62
2826.46	221.62
2829.89	224.62
2833.318	234.62
2836.742	224.62
2840.164	230.62
2843.583	226.62
2846.999	232.62
2850.412	232.62
2853.822	242.62
2857.229	243.62
2860.634	243.62
2864.035	244.62
2867.434	253.62
2870.83	255.62
2874.223	266.62
2877.613	270.62
2881	260.62
2884.385	261.62
2887.766	256.62
2891.145	249.62
2894.521	266.62
2897.894	258.62
2901.264	266.62
2904.631	256.62
2907.996	264.62
2911.358	256.62
2914.717	277.62
2918.073	275.62
2921.426	284.62
2924.777	292.62
2928.124	284.62
2931.469	290.62
2934.811	309.62
2938.15	306.62
2941.487	299.62
2944.821	307.62
2948.152	318.62
2951.48	305.62
2954.805	314.62
2958.128	330.62
2961.447	336.62
2964.765	337.62
2968.079	343.62
2971.39	352.62
2974.699	358.62
2978.005	370.62
2981.308	371.62
2984.609	393.62
2987.907	393.62
2991.202	395.62
2994.494	409.62
2997.784	426.62
3001.07	428.62
3004.355	455.62
3007.636	464.62
3010.915	462.62
3014.191	468.62
3017.464	481.62
3020.734	508.62
3024.002	491.62
3027.267	505.62
3030.53	509.62
3033.789	523.62
3037.046	541.62
3040.301	551.62
3043.552	561.62
3046.801	574.62
3050.048	603.62
3053.291	604.62
3056.532	625.62
3059.771	650.62
3063.006	649.62
3066.239	679.62
3069.469	708.62
3072.697	724.62
3075.922	744.62
3079.144	762.62
3082.364	789.62
3085.581	813.62
3088.795	817.62
3092.007	842.62
3095.216	860.62
3098.423	874.62
3101.627	888.62
3104.828	906.62
3108.026	922.62
3111.222	953.62
3114.416	977.62
3117.607	988.62
3120.795	1008.62
3123.98	1027.62
3127.163	1057.62
3130.344	1087.62
3133.521	1101.62
3136.696	1140.62
3139.869	1154.62
3143.039	1155.62
3146.206	1203.62
3149.371	1209.62
3152.533	1220.62
3155.693	1222.62
3158.85	1234.62
3162.005	1242.62
3165.157	1254.62
3168.306	1263.62
3171.453	1252.62
3174.597	1255.62
3177.739	1255.62
3180.878	1245.62
3184.014	1270.62
3187.149	1270.62
3190.28	1277.62
3193.409	1274.62
3196.536	1275.62
3199.659	1285.62
3202.781	1286.62
3205.9	1295.62
3209.016	1284.62
3212.13	1291.62
3215.241	1286.62
3218.35	1273.62
3221.456	1244.62
3224.56	1240.62
3227.661	1233.62
3230.76	1213.62
3233.856	1216.62
3236.95	1220.62
3240.041	1208.62
3243.13	1195.62
3246.216	1184.62
3249.3	1171.62
3252.382	1163.62
3255.46	1157.62
3258.537	1156.62
3261.611	1160.62
3264.682	1139.62
3267.751	1135.62
3270.818	1141.62
3273.882	1129.62
3276.943	1110.62
3280.002	1116.62
3283.059	1106.62
3286.113	1087.62
3289.165	1064.62
3292.214	1065.62
3295.261	1041.62
3298.306	1025.62
3301.348	1018.62
3304.387	1003.62
3307.425	980.62
3310.459	967.62
3313.492	960.62
3316.521	942.62
3319.549	953.62
3322.574	918.62
3325.597	927.62
3328.617	913.62
3331.635	913.62
3334.65	904.62
3337.663	892.62
3340.674	905.62
3343.682	892.62
3346.688	895.62
3349.691	888.62
3352.692	882.62
3355.691	871.62
3358.687	859.62
3361.681	868.62
3364.673	845.62
3367.662	827.62
3370.649	815.62
3373.633	813.62
3376.615	790.62
3379.595	797.62
3382.572	788.62
3385.547	768.62
3388.52	765.62
3391.49	746.62
3394.458	730.62
3397.424	736.62
3400.387	716.62
3403.348	708.62
3406.307	707.62
3409.263	692.62
3412.217	686.62
3415.168	670.62
3418.118	663.62
3421.065	676.62
3424.009	670.62
3426.951	644.62
3429.891	651.62
3432.829	634.62
3435.764	619.62
3438.697	594.62
3441.628	586.62
3444.557	565.62
3447.483	570.62
3450.407	543.62
3453.328	524.62
3456.247	507.62
3459.164	499.62
3462.079	470.62
3464.991	459.62
3467.902	452.62
3470.809	436.62
3473.715	418.62
3476.618	412.62
3479.519	401.62
3482.418	387.62
3485.315	376.62
3488.209	361.62
3491.101	357.62
3493.99	345.62
3496.878	335.62
3499.763	331.62
3502.646	318.62
3505.527	312.62
3508.405	296.62
3511.281	280.62
3514.155	268.62
3517.027	254.62
3519.897	237.62
3522.764	232.62
3525.629	221.62
3528.492	201.62
3531.352	183.62
3534.211	186.62
3537.067	167.62
3539.921	158.62
3542.773	144.62
3545.622	140.62
3548.469	131.62
3551.315	124.62
3554.157	124.62
3556.998	104.62
3559.837	99.62
3562.673	95.62
3565.507	84.62
3568.339	77.62
3571.169	78.62
3573.996	71.62
3576.822	64.62
3579.645	57.62
3582.466	51.62
3585.285	50.62
3588.101	50.62
3590.916	34.62
3593.728	34.62
3596.538	27.62
3599.346	15.62
3602.152	12.62
3604.956	6.62
3607.757	8.62
3610.556	1.62
3613.354	-5.38
3616.149	-8.38
3618.942	-13.38
3621.732	-13.38
3624.521	-17.38
3627.307	-21.38
3630.092	-22.38
3632.874	-32.38
3635.654	-30.38
3638.432	-36.38
3641.208	-36.38
3643.982	-38.38
3646.753	-43.38
3649.523	-39.38
3652.29	-42.38
3655.055	-47.38
3657.818	-49.38
3660.579	-52.38
3663.338	-58.38
3666.095	-58.38
3668.849	-61.38
3671.602	-64.38
3674.352	-68.38
3677.101	-72.38
3679.847	-75.38
3682.591	-76.38
3685.333	-75.38
3688.073	-83.38
3690.811	-73.38
3693.547	-80.38
3696.281	-78.38
3699.013	-81.38
3701.742	-80.38
3704.47	-85.38
3707.195	-86.38
3709.919	-89.38
3712.64	-88.38
3715.359	-90.38
3718.076	-94.38
3720.792	-94.38
3723.505	-95.38
3726.216	-92.38
3728.925	-95.38
3731.632	-95.38
3734.336	-97.38
3737.039	-96.38
3739.74	-98.38
3742.439	-99.38
3745.136	-96.38
3747.83	-97.38
3750.523	-96.38
3753.213	-99.38
3755.902	-100.38
3758.589	-105.38
3761.273	-105.38
3763.956	-104.38
3766.636	-109.38
3769.315	-102.38
3771.991	-106.38
3774.665	-108.38
3777.338	-104.38
3780.008	-105.38
3782.677	-106.38
3785.343	-106.38
3788.007	-104.38
3790.67	-102.38
3793.33	-105.38
3795.989	-107.38
3798.645	-106.38
3801.299	-108.38
3803.952	-108.38
3806.602	-110.38
3809.251	-108.38
3811.897	-109.38
3814.542	-107.38
3817.184	-112.38
3819.825	-108.38
3822.463	-109.38
3825.1	-107.38
3827.735	-109.38
3830.367	-110.38
3832.998	-114.38
3835.627	-114.38
3838.253	-112.38
3840.878	-112.38
3843.501	-112.38
3846.122	-117.38
3848.741	-108.38
3851.358	-110.38
3853.973	-113.38
3856.586	-111.38
3859.197	-110.38
3861.806	-114.38
3864.414	-116.38
3867.019	-116.38
3869.622	-112.38
3872.224	-115.38
3874.823	-108.38
3877.421	-113.38
3880.016	-110.38
3882.61	-102.38
3885.202	-104.38
3887.792	-103.38
3890.38	-107.38
3892.966	-113.38
3895.55	-113.38
3898.132	-115.38
3900.713	-119.38
3903.291	-116.38
3905.868	-118.38
3908.442	-121.38
3911.015	-122.38
3913.586	-121.38
3916.155	-119.38
3918.722	-116.38
3921.287	-112.38
3923.85	-117.38
3926.411	-113.38
3928.971	-116.38
3931.528	-115.38
3934.084	-120.38
3936.638	-118.38
3939.19	-116.38
3941.74	-117.38
3944.288	-120.38
3946.834	-123.38
3949.378	-121.38
3951.921	-122.38
3954.462	-119.38
3957	-118.38
3959.537	-118.38
3962.072	-117.38
3964.606	-115.38
3967.137	-115.38
3969.667	-116.38
3972.194	-117.38
3974.72	-115.38
3977.244	-116.38
3979.766	-115.38
3982.286	-121.38
3984.805	-123.38
3987.321	-119.38
3989.836	-119.38
3992.349	-117.38
3994.86	-117.38
3997.369	-113.38
3999.877	-113.38
4002.382	-113.38
4004.886	-112.38
4007.388	-113.38
4009.888	-114.38
4012.386	-116.38
4014.883	-117.38
4017.377	-117.38
4019.87	-119.38
4022.361	-118.38
4024.85	-118.38
4027.338	-121.38
4029.823	-118.38
4032.307	-118.38
4034.789	-118.38
4037.269	-117.38
4039.747	-117.38
4042.224	-115.38
4044.699	-120.38
4047.172	-114.38
4049.643	-118.38
4052.112	-118.38
4054.58	-116.38
4057.046	-120.38
4059.51	-117.38
4061.972	-120.38
4064.432	-121.38
4066.891	-121.38
4069.348	-119.38
4071.803	-116.38
4074.256	-121.38
4076.708	-116.38
4079.158	-117.38
4081.606	-117.38
4084.052	-114.38
4086.497	-116.38
4088.939	-117.38
4091.38	-114.38
4093.819	-119.38
4096.257	-118.38
4098.693	-120.38
4101.127	-121.38
4103.559	-122.38
4105.989	-74.38
4108.418	-76.38
4110.845	-76.38
4113.27	-69.38
4115.694	-62.38
4118.115	-50.38
4120.535	-119.38
4122.954	-122.38
4125.37	-121.38
4127.785	-120.38
4130.198	-122.38
4132.609	-119.38
4135.019	-125.38
4137.427	-124.38
4139.833	-121.38
4142.237	-123.38
