Data from 10000CFU2_B_RamanShift_1.txt Node
Date: Wed Jan 25 12:37:05 IST 2017
User: aro
Spectrometer: QEPB0276
Trigger mode: 0
Integration Time (sec): 5.000000E0
Scans to average: 1
Electric dark correction enabled: true
Nonlinearity correction enabled: false
Boxcar width: 0
XAxis mode: Raman Shifts
Number of Pixels in Spectrum: 1044
>>>>>Begin Spectral Data<<<<<
160.701	-29.75
166.742	0.25
172.777	97.25
178.805	408.25
184.826	1135.25
190.841	2320.25
196.849	3638.25
202.85	4468.25
208.845	4639.25
214.833	4496.25
220.815	4331.25
226.789	4208.25
232.758	4137.25
238.719	4048.25
244.674	3863.25
250.623	3722.25
256.565	3559.25
262.5	3425.25
268.429	3272.25
274.351	3149.25
280.267	3061.25
286.176	2974.25
292.079	2879.25
297.975	2772.25
303.865	2709.25
309.748	2641.25
315.625	2576.25
321.495	2548.25
327.359	2509.25
333.217	2458.25
339.068	2457.25
344.912	2445.25
350.751	2428.25
356.583	2411.25
362.408	2430.25
368.227	2419.25
374.04	2408.25
379.847	2435.25
385.647	2450.25
391.44	2475.25
397.228	2483.25
403.009	2480.25
408.784	2497.25
414.553	2498.25
420.315	2503.25
426.071	2521.25
431.821	2507.25
437.565	2514.25
443.302	2505.25
449.033	2499.25
454.758	2488.25
460.477	2483.25
466.189	2477.25
471.896	2455.25
477.596	2434.25
483.29	2453.25
488.978	2447.25
494.66	2422.25
500.335	2403.25
506.005	2349.25
511.668	2316.25
517.325	2288.25
522.977	2236.25
528.622	2242.25
534.261	2194.25
539.894	2185.25
545.521	2174.25
551.141	2174.25
556.756	2141.25
562.365	2149.25
567.968	2136.25
573.565	2135.25
579.155	2118.25
584.74	2083.25
590.319	2066.25
595.892	2069.25
601.459	2052.25
607.02	2084.25
612.575	2023.25
618.124	2013.25
623.667	1997.25
629.204	1973.25
634.735	1970.25
640.261	1946.25
645.781	1959.25
651.294	1937.25
656.802	1928.25
662.304	1934.25
667.8	1934.25
673.29	1933.25
678.775	1930.25
684.254	1901.25
689.726	1907.25
695.193	1907.25
700.655	1873.25
706.11	1871.25
711.56	1854.25
717.004	1849.25
722.442	1834.25
727.874	1837.25
733.301	1833.25
738.722	1816.25
744.137	1827.25
749.547	1819.25
754.951	1830.25
760.349	1814.25
765.741	1806.25
771.128	1803.25
776.509	1810.25
781.885	1806.25
787.254	1804.25
792.618	1798.25
797.977	1789.25
803.33	1784.25
808.677	1744.25
814.019	1754.25
819.355	1729.25
824.686	1743.25
830.011	1706.25
835.33	1707.25
840.644	1698.25
845.952	1708.25
851.255	1704.25
856.552	1694.25
861.844	1696.25
867.13	1684.25
872.41	1666.25
877.686	1658.25
882.955	1639.25
888.219	1612.25
893.478	1596.25
898.731	1587.25
903.979	1568.25
909.221	1554.25
914.458	1538.25
919.69	1536.25
924.916	1551.25
930.136	1541.25
935.351	1538.25
940.561	1544.25
945.766	1538.25
950.965	1527.25
956.158	1514.25
961.347	1510.25
966.529	1467.25
971.707	1476.25
976.879	1423.25
982.046	1427.25
987.208	1427.25
992.364	1417.25
997.515	1444.25
1002.66	1457.25
1007.801	1456.25
1012.936	1473.25
1018.066	1468.25
1023.19	1494.25
1028.309	1496.25
1033.423	1499.25
1038.532	1496.25
1043.636	1469.25
1048.734	1458.25
1053.827	1467.25
1058.915	1457.25
1063.998	1440.25
1069.075	1420.25
1074.147	1445.25
1079.214	1446.25
1084.276	1448.25
1089.333	1473.25
1094.385	1477.25
1099.431	1473.25
1104.472	1487.25
1109.509	1467.25
1114.54	1473.25
1119.565	1449.25
1124.586	1427.25
1129.602	1417.25
1134.613	1397.25
1139.618	1402.25
1144.619	1407.25
1149.614	1426.25
1154.604	1432.25
1159.589	1434.25
1164.57	1457.25
1169.545	1440.25
1174.515	1445.25
1179.48	1450.25
1184.44	1426.25
1189.395	1422.25
1194.345	1428.25
1199.29	1395.25
1204.23	1392.25
1209.165	1417.25
1214.095	1432.25
1219.021	1449.25
1223.941	1442.25
1228.856	1455.25
1233.766	1476.25
1238.672	1470.25
1243.572	1471.25
1248.467	1475.25
1253.358	1448.25
1258.244	1430.25
1263.124	1399.25
1268	1389.25
1272.871	1374.25
1277.737	1386.25
1282.599	1368.25
1287.455	1366.25
1292.306	1378.25
1297.153	1379.25
1301.995	1388.25
1306.832	1404.25
1311.664	1403.25
1316.491	1409.25
1321.314	1416.25
1326.132	1408.25
1330.945	1382.25
1335.753	1377.25
1340.556	1365.25
1345.354	1356.25
1350.148	1338.25
1354.937	1339.25
1359.722	1319.25
1364.501	1305.25
1369.276	1301.25
1374.046	1284.25
1378.811	1275.25
1383.572	1272.25
1388.327	1268.25
1393.079	1262.25
1397.825	1269.25
1402.567	1259.25
1407.304	1242.25
1412.036	1240.25
1416.764	1248.25
1421.487	1253.25
1426.205	1245.25
1430.919	1268.25
1435.628	1265.25
1440.333	1296.25
1445.032	1301.25
1449.727	1306.25
1454.418	1325.25
1459.104	1311.25
1463.785	1301.25
1468.462	1294.25
1473.134	1291.25
1477.802	1277.25
1482.465	1268.25
1487.123	1265.25
1491.777	1275.25
1496.426	1283.25
1501.071	1286.25
1505.711	1302.25
1510.347	1295.25
1514.978	1314.25
1519.604	1321.25
1524.226	1305.25
1528.844	1315.25
1533.457	1327.25
1538.065	1310.25
1542.669	1308.25
1547.269	1314.25
1551.864	1312.25
1556.454	1312.25
1561.041	1323.25
1565.622	1343.25
1570.199	1337.25
1574.772	1373.25
1579.34	1378.25
1583.904	1411.25
1588.464	1443.25
1593.019	1452.25
1597.569	1449.25
1602.115	1446.25
1606.657	1464.25
1611.195	1476.25
1615.728	1509.25
1620.256	1498.25
1624.78	1525.25
1629.3	1540.25
1633.816	1544.25
1638.327	1565.25
1642.834	1589.25
1647.336	1589.25
1651.834	1610.25
1656.328	1607.25
1660.817	1606.25
1665.302	1582.25
1669.783	1553.25
1674.259	1523.25
1678.732	1497.25
1683.199	1423.25
1687.663	1401.25
1692.122	1362.25
1696.577	1322.25
1701.028	1261.25
1705.474	1208.25
1709.917	1169.25
1714.355	1166.25
1718.788	1162.25
1723.218	1145.25
1727.643	1144.25
1732.064	1118.25
1736.481	1085.25
1740.893	1065.25
1745.301	1054.25
1749.705	1023.25
1754.105	1000.25
1758.501	982.25
1762.893	970.25
1767.28	954.25
1771.663	960.25
1776.042	945.25
1780.417	959.25
1784.787	945.25
1789.154	960.25
1793.516	955.25
1797.874	947.25
1802.228	939.25
1806.578	943.25
1810.924	911.25
1815.266	915.25
1819.603	882.25
1823.937	880.25
1828.266	870.25
1832.591	873.25
1836.913	874.25
1841.23	865.25
1845.543	860.25
1849.852	872.25
1854.156	872.25
1858.457	874.25
1862.754	882.25
1867.047	886.25
1871.335	873.25
1875.62	893.25
1879.9	893.25
1884.177	885.25
1888.449	892.25
1892.718	886.25
1896.982	874.25
1901.243	883.25
1905.499	875.25
1909.752	885.25
1914	872.25
1918.245	869.25
1922.485	871.25
1926.722	871.25
1930.954	883.25
1935.183	881.25
1939.408	879.25
1943.628	876.25
1947.845	877.25
1952.058	868.25
1956.267	859.25
1960.472	865.25
1964.673	858.25
1968.87	847.25
1973.063	845.25
1977.252	844.25
1981.438	824.25
1985.619	824.25
1989.797	816.25
1993.971	837.25
1998.14	835.25
2002.306	821.25
2006.469	821.25
2010.627	851.25
2014.781	839.25
2018.932	841.25
2023.078	833.25
2027.221	828.25
2031.36	827.25
2035.495	810.25
2039.627	825.25
2043.754	820.25
2047.878	805.25
2051.998	816.25
2056.114	817.25
2060.226	818.25
2064.334	818.25
2068.439	816.25
2072.54	823.25
2076.637	828.25
2080.73	826.25
2084.82	825.25
2088.906	830.25
2092.988	818.25
2097.066	815.25
2101.14	818.25
2105.211	808.25
2109.278	803.25
2113.342	798.25
2117.401	799.25
2121.457	800.25
2125.509	794.25
2129.558	800.25
2133.602	774.25
2137.643	776.25
2141.681	782.25
2145.714	777.25
2149.744	770.25
2153.77	767.25
2157.793	764.25
2161.812	762.25
2165.827	744.25
2169.838	742.25
2173.846	731.25
2177.851	720.25
2181.851	715.25
2185.848	699.25
2189.841	707.25
2193.831	698.25
2197.817	696.25
2201.799	681.25
2205.778	677.25
2209.753	689.25
2213.725	682.25
2217.693	675.25
2221.657	687.25
2225.618	670.25
2229.575	673.25
2233.529	674.25
2237.479	668.25
2241.425	675.25
2245.368	662.25
2249.307	647.25
2253.243	639.25
2257.175	624.25
2261.104	622.25
2265.029	619.25
2268.95	609.25
2272.868	598.25
2276.783	601.25
2280.694	586.25
2284.601	580.25
2288.505	573.25
2292.405	574.25
2296.302	572.25
2300.195	560.25
2304.085	549.25
2307.971	544.25
2311.854	531.25
2315.734	539.25
2319.609	521.25
2323.482	515.25
2327.351	519.25
2331.216	515.25
2335.078	503.25
2338.937	495.25
2342.792	485.25
2346.643	490.25
2350.492	485.25
2354.336	481.25
2358.178	484.25
2362.015	492.25
2365.85	485.25
2369.681	495.25
2373.508	486.25
2377.333	502.25
2381.153	497.25
2384.971	489.25
2388.785	495.25
2392.595	491.25
2396.402	480.25
2400.206	492.25
2404.007	484.25
2407.804	489.25
2411.597	480.25
2415.388	476.25
2419.174	466.25
2422.958	488.25
2426.738	473.25
2430.515	474.25
2434.289	467.25
2438.059	467.25
2441.825	462.25
2445.589	471.25
2449.349	461.25
2453.106	457.25
2456.859	465.25
2460.61	451.25
2464.356	457.25
2468.1	448.25
2471.84	431.25
2475.577	439.25
2479.311	439.25
2483.041	443.25
2486.768	445.25
2490.492	426.25
2494.213	443.25
2497.93	447.25
2501.644	443.25
2505.355	435.25
2509.062	443.25
2512.766	448.25
2516.467	432.25
2520.165	427.25
2523.859	432.25
2527.551	432.25
2531.239	416.25
2534.923	418.25
2538.605	404.25
2542.283	411.25
2545.958	410.25
2549.63	413.25
2553.299	402.25
2556.964	407.25
2560.626	403.25
2564.285	399.25
2567.941	389.25
2571.594	395.25
2575.243	389.25
2578.89	391.25
2582.533	383.25
2586.173	389.25
2589.809	379.25
2593.443	379.25
2597.073	370.25
2600.701	374.25
2604.325	379.25
2607.946	382.25
2611.564	379.25
2615.178	367.25
2618.79	372.25
2622.398	363.25
2626.004	361.25
2629.606	359.25
2633.205	358.25
2636.801	351.25
2640.394	346.25
2643.983	343.25
2647.57	342.25
2651.153	342.25
2654.734	336.25
2658.311	333.25
2661.885	330.25
2665.456	326.25
2669.025	329.25
2672.589	320.25
2676.151	319.25
2679.71	317.25
2683.266	311.25
2686.819	316.25
2690.368	313.25
2693.915	300.25
2697.458	307.25
2700.999	302.25
2704.536	300.25
2708.071	294.25
2711.602	292.25
2715.13	285.25
2718.656	289.25
2722.178	289.25
2725.697	289.25
2729.214	290.25
2732.727	289.25
2736.237	298.25
2739.744	306.25
2743.249	296.25
2746.75	297.25
2750.248	300.25
2753.743	297.25
2757.236	288.25
2760.725	286.25
2764.211	276.25
2767.695	277.25
2771.175	273.25
2774.652	286.25
2778.127	265.25
2781.598	271.25
2785.067	276.25
2788.532	273.25
2791.995	277.25
2795.455	276.25
2798.911	280.25
2802.365	275.25
2805.816	274.25
2809.264	275.25
2812.709	278.25
2816.151	275.25
2819.59	278.25
2823.026	273.25
2826.46	270.25
2829.89	274.25
2833.318	278.25
2836.742	280.25
2840.164	280.25
2843.583	280.25
2846.999	279.25
2850.412	276.25
2853.822	290.25
2857.229	282.25
2860.634	293.25
2864.035	295.25
2867.434	290.25
2870.83	300.25
2874.223	302.25
2877.613	292.25
2881	301.25
2884.385	293.25
2887.766	296.25
2891.145	300.25
2894.521	301.25
2897.894	292.25
2901.264	302.25
2904.631	302.25
2907.996	297.25
2911.358	309.25
2914.717	309.25
2918.073	306.25
2921.426	308.25
2924.777	314.25
2928.124	308.25
2931.469	310.25
2934.811	321.25
2938.15	318.25
2941.487	330.25
2944.821	341.25
2948.152	341.25
2951.48	342.25
2954.805	341.25
2958.128	353.25
2961.447	361.25
2964.765	358.25
2968.079	367.25
2971.39	377.25
2974.699	380.25
2978.005	384.25
2981.308	398.25
2984.609	399.25
2987.907	410.25
2991.202	416.25
2994.494	425.25
2997.784	436.25
3001.07	452.25
3004.355	460.25
3007.636	475.25
3010.915	476.25
3014.191	480.25
3017.464	496.25
3020.734	494.25
3024.002	501.25
3027.267	510.25
3030.53	513.25
3033.789	532.25
3037.046	533.25
3040.301	562.25
3043.552	557.25
3046.801	564.25
3050.048	582.25
3053.291	590.25
3056.532	620.25
3059.771	629.25
3063.006	650.25
3066.239	671.25
3069.469	688.25
3072.697	714.25
3075.922	717.25
3079.144	734.25
3082.364	744.25
3085.581	765.25
3088.795	782.25
3092.007	809.25
3095.216	823.25
3098.423	832.25
3101.627	860.25
3104.828	883.25
3108.026	891.25
3111.222	909.25
3114.416	921.25
3117.607	954.25
3120.795	962.25
3123.98	986.25
3127.163	1016.25
3130.344	1015.25
3133.521	1050.25
3136.696	1064.25
3139.869	1100.25
3143.039	1118.25
3146.206	1130.25
3149.371	1133.25
3152.533	1129.25
3155.693	1152.25
3158.85	1152.25
3162.005	1170.25
3165.157	1176.25
3168.306	1170.25
3171.453	1175.25
3174.597	1174.25
3177.739	1192.25
3180.878	1191.25
3184.014	1184.25
3187.149	1187.25
3190.28	1187.25
3193.409	1193.25
3196.536	1192.25
3199.659	1199.25
3202.781	1203.25
3205.9	1215.25
3209.016	1198.25
3212.13	1204.25
3215.241	1199.25
3218.35	1190.25
3221.456	1192.25
3224.56	1172.25
3227.661	1149.25
3230.76	1146.25
3233.856	1140.25
3236.95	1121.25
3240.041	1107.25
3243.13	1104.25
3246.216	1101.25
3249.3	1096.25
3252.382	1067.25
3255.46	1083.25
3258.537	1076.25
3261.611	1053.25
3264.682	1055.25
3267.751	1064.25
3270.818	1067.25
3273.882	1055.25
3276.943	1050.25
3280.002	1027.25
3283.059	1030.25
3286.113	1017.25
3289.165	983.25
3292.214	998.25
3295.261	970.25
3298.306	977.25
3301.348	943.25
3304.387	921.25
3307.425	912.25
3310.459	910.25
3313.492	886.25
3316.521	879.25
3319.549	887.25
3322.574	869.25
3325.597	851.25
3328.617	850.25
3331.635	851.25
3334.65	835.25
3337.663	827.25
3340.674	844.25
3343.682	847.25
3346.688	827.25
3349.691	819.25
3352.692	824.25
3355.691	815.25
3358.687	811.25
3361.681	795.25
3364.673	790.25
3367.662	775.25
3370.649	763.25
3373.633	758.25
3376.615	748.25
3379.595	738.25
3382.572	718.25
3385.547	711.25
3388.52	691.25
3391.49	689.25
3394.458	674.25
3397.424	678.25
3400.387	667.25
3403.348	667.25
3406.307	662.25
3409.263	646.25
3412.217	655.25
3415.168	631.25
3418.118	623.25
3421.065	613.25
3424.009	602.25
3426.951	601.25
3429.891	606.25
3432.829	582.25
3435.764	574.25
3438.697	557.25
3441.628	547.25
3444.557	530.25
3447.483	520.25
3450.407	500.25
3453.328	495.25
3456.247	469.25
3459.164	462.25
3462.079	441.25
3464.991	422.25
3467.902	416.25
3470.809	403.25
3473.715	393.25
3476.618	383.25
3479.519	368.25
3482.418	351.25
3485.315	352.25
3488.209	337.25
3491.101	326.25
3493.99	314.25
3496.878	309.25
3499.763	302.25
3502.646	292.25
3505.527	279.25
3508.405	273.25
3511.281	260.25
3514.155	240.25
3517.027	231.25
3519.897	221.25
3522.764	208.25
3525.629	194.25
3528.492	186.25
3531.352	180.25
3534.211	167.25
3537.067	155.25
3539.921	152.25
3542.773	137.25
3545.622	134.25
3548.469	124.25
3551.315	114.25
3554.157	112.25
3556.998	98.25
3559.837	94.25
3562.673	87.25
3565.507	71.25
3568.339	74.25
3571.169	66.25
3573.996	62.25
3576.822	54.25
3579.645	54.25
3582.466	46.25
3585.285	46.25
3588.101	42.25
3590.916	35.25
3593.728	28.25
3596.538	21.25
3599.346	20.25
3602.152	15.25
3604.956	9.25
3607.757	3.25
3610.556	2.25
3613.354	-5.75
3616.149	-7.75
3618.942	-14.75
3621.732	-16.75
3624.521	-20.75
3627.307	-21.75
3630.092	-18.75
3632.874	-27.75
3635.654	-25.75
3638.432	-26.75
3641.208	-31.75
3643.982	-33.75
3646.753	-33.75
3649.523	-35.75
3652.29	-39.75
3655.055	-45.75
3657.818	-48.75
3660.579	-49.75
3663.338	-50.75
3666.095	-57.75
3668.849	-55.75
3671.602	-60.75
3674.352	-62.75
3677.101	-68.75
3679.847	-69.75
3682.591	-71.75
3685.333	-69.75
3688.073	-71.75
3690.811	-69.75
3693.547	-72.75
3696.281	-72.75
3699.013	-77.75
3701.742	-75.75
3704.47	-81.75
3707.195	-78.75
3709.919	-78.75
3712.64	-83.75
3715.359	-82.75
3718.076	-86.75
3720.792	-91.75
3723.505	-90.75
3726.216	-87.75
3728.925	-88.75
3731.632	-89.75
3734.336	-94.75
3737.039	-90.75
3739.74	-92.75
3742.439	-90.75
3745.136	-88.75
3747.83	-88.75
3750.523	-88.75
3753.213	-92.75
3755.902	-92.75
3758.589	-94.75
3761.273	-94.75
3763.956	-98.75
3766.636	-98.75
3769.315	-100.75
3771.991	-102.75
3774.665	-101.75
3777.338	-98.75
3780.008	-99.75
3782.677	-97.75
3785.343	-98.75
3788.007	-95.75
3790.67	-96.75
3793.33	-100.75
3795.989	-96.75
3798.645	-97.75
3801.299	-98.75
3803.952	-100.75
3806.602	-98.75
3809.251	-102.75
3811.897	-106.75
3814.542	-103.75
3817.184	-108.75
3819.825	-107.75
3822.463	-107.75
3825.1	-102.75
3827.735	-106.75
3830.367	-103.75
3832.998	-107.75
3835.627	-102.75
3838.253	-103.75
3840.878	-99.75
3843.501	-102.75
3846.122	-107.75
3848.741	-101.75
3851.358	-105.75
3853.973	-105.75
3856.586	-111.75
3859.197	-106.75
3861.806	-108.75
3864.414	-107.75
3867.019	-109.75
3869.622	-108.75
3872.224	-107.75
3874.823	-105.75
3877.421	-100.75
3880.016	-99.75
3882.61	-97.75
3885.202	-100.75
3887.792	-95.75
3890.38	-100.75
3892.966	-107.75
3895.55	-106.75
3898.132	-109.75
3900.713	-109.75
3903.291	-112.75
3905.868	-109.75
3908.442	-114.75
3911.015	-110.75
3913.586	-114.75
3916.155	-107.75
3918.722	-109.75
3921.287	-112.75
3923.85	-110.75
3926.411	-108.75
3928.971	-113.75
3931.528	-110.75
3934.084	-110.75
3936.638	-112.75
3939.19	-109.75
3941.74	-108.75
3944.288	-110.75
3946.834	-111.75
3949.378	-115.75
3951.921	-114.75
3954.462	-114.75
3957	-112.75
3959.537	-110.75
3962.072	-112.75
3964.606	-110.75
3967.137	-111.75
3969.667	-113.75
3972.194	-110.75
3974.72	-111.75
3977.244	-108.75
3979.766	-112.75
3982.286	-111.75
3984.805	-110.75
3987.321	-111.75
3989.836	-109.75
3992.349	-111.75
3994.86	-109.75
3997.369	-110.75
3999.877	-106.75
4002.382	-104.75
4004.886	-107.75
4007.388	-109.75
4009.888	-106.75
4012.386	-109.75
4014.883	-108.75
4017.377	-110.75
4019.87	-109.75
4022.361	-110.75
4024.85	-113.75
4027.338	-116.75
4029.823	-112.75
4032.307	-114.75
4034.789	-112.75
4037.269	-112.75
4039.747	-110.75
4042.224	-107.75
4044.699	-110.75
4047.172	-108.75
4049.643	-107.75
4052.112	-110.75
4054.58	-110.75
4057.046	-108.75
4059.51	-108.75
4061.972	-114.75
4064.432	-111.75
4066.891	-116.75
4069.348	-112.75
4071.803	-114.75
4074.256	-115.75
4076.708	-112.75
4079.158	-107.75
4081.606	-111.75
4084.052	-110.75
4086.497	-110.75
4088.939	-107.75
4091.38	-110.75
4093.819	-109.75
4096.257	-112.75
4098.693	-116.75
4101.127	-120.75
4103.559	-114.75
4105.989	-74.75
4108.418	-69.75
4110.845	-75.75
4113.27	-65.75
4115.694	-55.75
4118.115	-47.75
4120.535	-111.75
4122.954	-115.75
4125.37	-112.75
4127.785	-112.75
4130.198	-113.75
4132.609	-115.75
4135.019	-118.75
4137.427	-117.75
4139.833	-118.75
4142.237	-120.75
