Data from 100000000CFU1_B_RamanShift_2.txt Node
Date: Wed Jan 25 12:48:00 IST 2017
User: aro
Spectrometer: QEPB0276
Trigger mode: 0
Integration Time (sec): 5.000000E0
Scans to average: 1
Electric dark correction enabled: true
Nonlinearity correction enabled: false
Boxcar width: 0
XAxis mode: Raman Shifts
Number of Pixels in Spectrum: 1044
>>>>>Begin Spectral Data<<<<<
160.701	-25.62
166.742	0.38
172.777	64.38
178.805	270.38
184.826	728.38
190.841	1465.38
196.849	2286.38
202.85	2799.38
208.845	2886.38
214.833	2778.38
220.815	2709.38
226.789	2606.38
232.758	2572.38
238.719	2480.38
244.674	2381.38
250.623	2267.38
256.565	2172.38
262.5	2079.38
268.429	1997.38
274.351	1907.38
280.267	1838.38
286.176	1784.38
292.079	1717.38
297.975	1655.38
303.865	1635.38
309.748	1595.38
315.625	1539.38
321.495	1521.38
327.359	1496.38
333.217	1463.38
339.068	1470.38
344.912	1455.38
350.751	1445.38
356.583	1421.38
362.408	1448.38
368.227	1450.38
374.04	1453.38
379.847	1462.38
385.647	1469.38
391.44	1478.38
397.228	1479.38
403.009	1501.38
408.784	1512.38
414.553	1507.38
420.315	1525.38
426.071	1511.38
431.821	1514.38
437.565	1515.38
443.302	1513.38
449.033	1492.38
454.758	1492.38
460.477	1480.38
466.189	1474.38
471.896	1468.38
477.596	1462.38
483.29	1461.38
488.978	1454.38
494.66	1443.38
500.335	1420.38
506.005	1382.38
511.668	1351.38
517.325	1319.38
522.977	1296.38
528.622	1281.38
534.261	1242.38
539.894	1234.38
545.521	1216.38
551.141	1225.38
556.756	1213.38
562.365	1194.38
567.968	1186.38
573.565	1175.38
579.155	1180.38
584.74	1171.38
590.319	1157.38
595.892	1163.38
601.459	1158.38
607.02	1138.38
612.575	1127.38
618.124	1114.38
623.667	1096.38
629.204	1112.38
634.735	1084.38
640.261	1090.38
645.781	1071.38
651.294	1067.38
656.802	1058.38
662.304	1056.38
667.8	1047.38
673.29	1054.38
678.775	1047.38
684.254	1046.38
689.726	1037.38
695.193	1028.38
700.655	1026.38
706.11	1004.38
711.56	996.38
717.004	1003.38
722.442	990.38
727.874	994.38
733.301	979.38
738.722	974.38
744.137	972.38
749.547	971.38
754.951	970.38
760.349	966.38
765.741	964.38
771.128	959.38
776.509	981.38
781.885	983.38
787.254	963.38
792.618	962.38
797.977	951.38
803.33	946.38
808.677	953.38
814.019	928.38
819.355	928.38
824.686	911.38
830.011	902.38
835.33	908.38
840.644	905.38
845.952	885.38
851.255	883.38
856.552	883.38
861.844	870.38
867.13	870.38
872.41	873.38
877.686	860.38
882.955	857.38
888.219	839.38
893.478	819.38
898.731	800.38
903.979	791.38
909.221	789.38
914.458	776.38
919.69	794.38
924.916	773.38
930.136	772.38
935.351	774.38
940.561	756.38
945.766	755.38
950.965	760.38
956.158	755.38
961.347	745.38
966.529	726.38
971.707	717.38
976.879	713.38
982.046	697.38
987.208	697.38
992.364	686.38
997.515	702.38
1002.66	708.38
1007.801	707.38
1012.936	724.38
1018.066	737.38
1023.19	733.38
1028.309	732.38
1033.423	743.38
1038.532	734.38
1043.636	723.38
1048.734	718.38
1053.827	726.38
1058.915	710.38
1063.998	694.38
1069.075	701.38
1074.147	702.38
1079.214	699.38
1084.276	719.38
1089.333	712.38
1094.385	713.38
1099.431	727.38
1104.472	726.38
1109.509	729.38
1114.54	704.38
1119.565	705.38
1124.586	687.38
1129.602	694.38
1134.613	685.38
1139.618	680.38
1144.619	684.38
1149.614	683.38
1154.604	680.38
1159.589	688.38
1164.57	690.38
1169.545	690.38
1174.515	687.38
1179.48	695.38
1184.44	679.38
1189.395	675.38
1194.345	684.38
1199.29	671.38
1204.23	684.38
1209.165	677.38
1214.095	679.38
1219.021	688.38
1223.941	697.38
1228.856	697.38
1233.766	708.38
1238.672	697.38
1243.572	697.38
1248.467	698.38
1253.358	697.38
1258.244	683.38
1263.124	668.38
1268	668.38
1272.871	655.38
1277.737	646.38
1282.599	654.38
1287.455	662.38
1292.306	650.38
1297.153	658.38
1301.995	662.38
1306.832	668.38
1311.664	663.38
1316.491	665.38
1321.314	664.38
1326.132	658.38
1330.945	657.38
1335.753	642.38
1340.556	640.38
1345.354	631.38
1350.148	631.38
1354.937	616.38
1359.722	617.38
1364.501	599.38
1369.276	610.38
1374.046	616.38
1378.811	602.38
1383.572	603.38
1388.327	602.38
1393.079	599.38
1397.825	604.38
1402.567	593.38
1407.304	589.38
1412.036	586.38
1416.764	591.38
1421.487	588.38
1426.205	584.38
1430.919	585.38
1435.628	596.38
1440.333	606.38
1445.032	613.38
1449.727	610.38
1454.418	609.38
1459.104	623.38
1463.785	606.38
1468.462	610.38
1473.134	606.38
1477.802	584.38
1482.465	600.38
1487.123	601.38
1491.777	605.38
1496.426	594.38
1501.071	601.38
1505.711	610.38
1510.347	611.38
1514.978	618.38
1519.604	618.38
1524.226	623.38
1528.844	631.38
1533.457	635.38
1538.065	622.38
1542.669	618.38
1547.269	619.38
1551.864	630.38
1556.454	640.38
1561.041	642.38
1565.622	643.38
1570.199	668.38
1574.772	672.38
1579.34	680.38
1583.904	692.38
1588.464	704.38
1593.019	718.38
1597.569	719.38
1602.115	729.38
1606.657	738.38
1611.195	740.38
1615.728	754.38
1620.256	760.38
1624.78	776.38
1629.3	782.38
1633.816	799.38
1638.327	805.38
1642.834	822.38
1647.336	827.38
1651.834	816.38
1656.328	825.38
1660.817	829.38
1665.302	800.38
1669.783	786.38
1674.259	769.38
1678.732	742.38
1683.199	719.38
1687.663	697.38
1692.122	671.38
1696.577	649.38
1701.028	629.38
1705.474	593.38
1709.917	581.38
1714.355	557.38
1718.788	548.38
1723.218	544.38
1727.643	523.38
1732.064	516.38
1736.481	495.38
1740.893	490.38
1745.301	473.38
1749.705	456.38
1754.105	449.38
1758.501	445.38
1762.893	436.38
1767.28	423.38
1771.663	416.38
1776.042	410.38
1780.417	417.38
1784.787	416.38
1789.154	414.38
1793.516	414.38
1797.874	413.38
1802.228	424.38
1806.578	409.38
1810.924	405.38
1815.266	400.38
1819.603	387.38
1823.937	379.38
1828.266	372.38
1832.591	381.38
1836.913	373.38
1841.23	367.38
1845.543	369.38
1849.852	367.38
1854.156	377.38
1858.457	371.38
1862.754	374.38
1867.047	374.38
1871.335	379.38
1875.62	388.38
1879.9	377.38
1884.177	391.38
1888.449	391.38
1892.718	385.38
1896.982	372.38
1901.243	379.38
1905.499	382.38
1909.752	370.38
1914	382.38
1918.245	380.38
1922.485	369.38
1926.722	374.38
1930.954	391.38
1935.183	387.38
1939.408	379.38
1943.628	379.38
1947.845	392.38
1952.058	394.38
1956.267	381.38
1960.472	382.38
1964.673	378.38
1968.87	376.38
1973.063	369.38
1977.252	361.38
1981.438	367.38
1985.619	362.38
1989.797	362.38
1993.971	358.38
1998.14	364.38
2002.306	355.38
2006.469	358.38
2010.627	376.38
2014.781	371.38
2018.932	371.38
2023.078	368.38
2027.221	374.38
2031.36	377.38
2035.495	364.38
2039.627	366.38
2043.754	360.38
2047.878	361.38
2051.998	353.38
2056.114	358.38
2060.226	360.38
2064.334	360.38
2068.439	362.38
2072.54	362.38
2076.637	368.38
2080.73	370.38
2084.82	369.38
2088.906	385.38
2092.988	377.38
2097.066	367.38
2101.14	368.38
2105.211	364.38
2109.278	371.38
2113.342	366.38
2117.401	364.38
2121.457	357.38
2125.509	356.38
2129.558	366.38
2133.602	351.38
2137.643	348.38
2141.681	352.38
2145.714	347.38
2149.744	346.38
2153.77	348.38
2157.793	346.38
2161.812	334.38
2165.827	326.38
2169.838	323.38
2173.846	323.38
2177.851	314.38
2181.851	320.38
2185.848	309.38
2189.841	314.38
2193.831	313.38
2197.817	299.38
2201.799	295.38
2205.778	297.38
2209.753	290.38
2213.725	301.38
2217.693	297.38
2221.657	298.38
2225.618	292.38
2229.575	293.38
2233.529	290.38
2237.479	288.38
2241.425	285.38
2245.368	278.38
2249.307	278.38
2253.243	276.38
2257.175	270.38
2261.104	262.38
2265.029	259.38
2268.95	259.38
2272.868	258.38
2276.783	256.38
2280.694	252.38
2284.601	246.38
2288.505	241.38
2292.405	234.38
2296.302	234.38
2300.195	234.38
2304.085	229.38
2307.971	231.38
2311.854	225.38
2315.734	222.38
2319.609	211.38
2323.482	211.38
2327.351	208.38
2331.216	217.38
2335.078	216.38
2338.937	204.38
2342.792	203.38
2346.643	196.38
2350.492	199.38
2354.336	200.38
2358.178	204.38
2362.015	201.38
2365.85	204.38
2369.681	197.38
2373.508	204.38
2377.333	202.38
2381.153	197.38
2384.971	212.38
2388.785	207.38
2392.595	192.38
2396.402	197.38
2400.206	188.38
2404.007	189.38
2407.804	199.38
2411.597	189.38
2415.388	191.38
2419.174	191.38
2422.958	190.38
2426.738	183.38
2430.515	181.38
2434.289	190.38
2438.059	191.38
2441.825	185.38
2445.589	183.38
2449.349	187.38
2453.106	179.38
2456.859	180.38
2460.61	180.38
2464.356	175.38
2468.1	177.38
2471.84	178.38
2475.577	164.38
2479.311	169.38
2483.041	170.38
2486.768	166.38
2490.492	171.38
2494.213	173.38
2497.93	174.38
2501.644	178.38
2505.355	177.38
2509.062	178.38
2512.766	172.38
2516.467	173.38
2520.165	176.38
2523.859	163.38
2527.551	165.38
2531.239	167.38
2534.923	155.38
2538.605	159.38
2542.283	152.38
2545.958	158.38
2549.63	159.38
2553.299	153.38
2556.964	157.38
2560.626	149.38
2564.285	155.38
2567.941	156.38
2571.594	149.38
2575.243	155.38
2578.89	155.38
2582.533	157.38
2586.173	152.38
2589.809	148.38
2593.443	146.38
2597.073	150.38
2600.701	146.38
2604.325	149.38
2607.946	139.38
2611.564	137.38
2615.178	138.38
2618.79	138.38
2622.398	136.38
2626.004	141.38
2629.606	138.38
2633.205	139.38
2636.801	137.38
2640.394	131.38
2643.983	126.38
2647.57	129.38
2651.153	132.38
2654.734	119.38
2658.311	122.38
2661.885	124.38
2665.456	122.38
2669.025	124.38
2672.589	125.38
2676.151	127.38
2679.71	121.38
2683.266	124.38
2686.819	122.38
2690.368	121.38
2693.915	120.38
2697.458	112.38
2700.999	114.38
2704.536	113.38
2708.071	118.38
2711.602	113.38
2715.13	113.38
2718.656	109.38
2722.178	109.38
2725.697	106.38
2729.214	111.38
2732.727	115.38
2736.237	112.38
2739.744	108.38
2743.249	115.38
2746.75	114.38
2750.248	116.38
2753.743	117.38
2757.236	116.38
2760.725	117.38
2764.211	107.38
2767.695	117.38
2771.175	116.38
2774.652	114.38
2778.127	104.38
2781.598	113.38
2785.067	101.38
2788.532	112.38
2791.995	108.38
2795.455	107.38
2798.911	112.38
2802.365	112.38
2805.816	114.38
2809.264	116.38
2812.709	119.38
2816.151	122.38
2819.59	117.38
2823.026	113.38
2826.46	112.38
2829.89	122.38
2833.318	120.38
2836.742	121.38
2840.164	117.38
2843.583	120.38
2846.999	125.38
2850.412	129.38
2853.822	126.38
2857.229	134.38
2860.634	135.38
2864.035	133.38
2867.434	138.38
2870.83	138.38
2874.223	139.38
2877.613	139.38
2881	144.38
2884.385	147.38
2887.766	141.38
2891.145	141.38
2894.521	142.38
2897.894	146.38
2901.264	154.38
2904.631	147.38
2907.996	152.38
2911.358	149.38
2914.717	158.38
2918.073	156.38
2921.426	159.38
2924.777	161.38
2928.124	171.38
2931.469	171.38
2934.811	175.38
2938.15	181.38
2941.487	181.38
2944.821	185.38
2948.152	181.38
2951.48	186.38
2954.805	183.38
2958.128	194.38
2961.447	191.38
2964.765	205.38
2968.079	206.38
2971.39	210.38
2974.699	211.38
2978.005	220.38
2981.308	223.38
2984.609	238.38
2987.907	232.38
2991.202	247.38
2994.494	256.38
2997.784	258.38
3001.07	263.38
3004.355	280.38
3007.636	280.38
3010.915	289.38
3014.191	291.38
3017.464	293.38
3020.734	300.38
3024.002	307.38
3027.267	311.38
3030.53	320.38
3033.789	325.38
3037.046	334.38
3040.301	328.38
3043.552	343.38
3046.801	353.38
3050.048	363.38
3053.291	372.38
3056.532	385.38
3059.771	400.38
3063.006	421.38
3066.239	424.38
3069.469	440.38
3072.697	456.38
3075.922	475.38
3079.144	482.38
3082.364	479.38
3085.581	509.38
3088.795	508.38
3092.007	533.38
3095.216	538.38
3098.423	540.38
3101.627	550.38
3104.828	574.38
3108.026	584.38
3111.222	606.38
3114.416	607.38
3117.607	631.38
3120.795	637.38
3123.98	659.38
3127.163	685.38
3130.344	712.38
3133.521	722.38
3136.696	725.38
3139.869	733.38
3143.039	746.38
3146.206	765.38
3149.371	768.38
3152.533	780.38
3155.693	783.38
3158.85	787.38
3162.005	790.38
3165.157	797.38
3168.306	806.38
3171.453	807.38
3174.597	808.38
3177.739	813.38
3180.878	811.38
3184.014	810.38
3187.149	819.38
3190.28	819.38
3193.409	825.38
3196.536	825.38
3199.659	835.38
3202.781	824.38
3205.9	829.38
3209.016	825.38
3212.13	834.38
3215.241	828.38
3218.35	819.38
3221.456	812.38
3224.56	803.38
3227.661	797.38
3230.76	772.38
3233.856	783.38
3236.95	780.38
3240.041	768.38
3243.13	769.38
3246.216	764.38
3249.3	763.38
3252.382	749.38
3255.46	743.38
3258.537	739.38
3261.611	740.38
3264.682	743.38
3267.751	728.38
3270.818	732.38
3273.882	738.38
3276.943	722.38
3280.002	729.38
3283.059	703.38
3286.113	702.38
3289.165	689.38
3292.214	685.38
3295.261	667.38
3298.306	663.38
3301.348	648.38
3304.387	629.38
3307.425	627.38
3310.459	616.38
3313.492	616.38
3316.521	606.38
3319.549	602.38
3322.574	595.38
3325.597	589.38
3328.617	595.38
3331.635	587.38
3334.65	586.38
3337.663	582.38
3340.674	588.38
3343.682	584.38
3346.688	582.38
3349.691	568.38
3352.692	574.38
3355.691	562.38
3358.687	561.38
3361.681	547.38
3364.673	538.38
3367.662	526.38
3370.649	534.38
3373.633	526.38
3376.615	512.38
3379.595	509.38
3382.572	506.38
3385.547	503.38
3388.52	492.38
3391.49	478.38
3394.458	484.38
3397.424	470.38
3400.387	466.38
3403.348	467.38
3406.307	460.38
3409.263	458.38
3412.217	445.38
3415.168	441.38
3418.118	435.38
3421.065	432.38
3424.009	425.38
3426.951	415.38
3429.891	418.38
3432.829	403.38
3435.764	397.38
3438.697	382.38
3441.628	376.38
3444.557	372.38
3447.483	364.38
3450.407	357.38
3453.328	339.38
3456.247	329.38
3459.164	325.38
3462.079	312.38
3464.991	308.38
3467.902	295.38
3470.809	278.38
3473.715	270.38
3476.618	265.38
3479.519	261.38
3482.418	255.38
3485.315	239.38
3488.209	240.38
3491.101	227.38
3493.99	224.38
3496.878	219.38
3499.763	216.38
3502.646	207.38
3505.527	198.38
3508.405	195.38
3511.281	192.38
3514.155	184.38
3517.027	166.38
3519.897	156.38
3522.764	148.38
3525.629	137.38
3528.492	137.38
3531.352	131.38
3534.211	120.38
3537.067	110.38
3539.921	108.38
3542.773	100.38
3545.622	94.38
3548.469	90.38
3551.315	80.38
3554.157	75.38
3556.998	73.38
3559.837	69.38
3562.673	63.38
3565.507	63.38
3568.339	55.38
3571.169	54.38
3573.996	43.38
3576.822	46.38
3579.645	44.38
3582.466	38.38
3585.285	33.38
3588.101	33.38
3590.916	29.38
3593.728	24.38
3596.538	14.38
3599.346	17.38
3602.152	9.38
3604.956	8.38
3607.757	4.38
3610.556	6.38
3613.354	1.38
3616.149	-0.62
3618.942	-5.62
3621.732	-1.62
3624.521	-3.62
3627.307	-9.62
3630.092	-14.62
3632.874	-14.62
3635.654	-17.62
3638.432	-19.62
3641.208	-17.62
3643.982	-20.62
3646.753	-22.62
3649.523	-22.62
3652.29	-26.62
3655.055	-32.62
3657.818	-28.62
3660.579	-30.62
3663.338	-35.62
3666.095	-33.62
3668.849	-35.62
3671.602	-42.62
3674.352	-40.62
3677.101	-43.62
3679.847	-43.62
3682.591	-45.62
3685.333	-46.62
3688.073	-49.62
3690.811	-42.62
3693.547	-49.62
3696.281	-50.62
3699.013	-52.62
3701.742	-49.62
3704.47	-53.62
3707.195	-55.62
3709.919	-52.62
3712.64	-55.62
3715.359	-54.62
3718.076	-56.62
3720.792	-61.62
3723.505	-59.62
3726.216	-54.62
3728.925	-58.62
3731.632	-55.62
3734.336	-60.62
3737.039	-56.62
3739.74	-61.62
3742.439	-56.62
3745.136	-59.62
3747.83	-54.62
3750.523	-60.62
3753.213	-59.62
3755.902	-62.62
3758.589	-62.62
3761.273	-63.62
3763.956	-64.62
3766.636	-68.62
3769.315	-66.62
3771.991	-68.62
3774.665	-68.62
3777.338	-63.62
3780.008	-63.62
3782.677	-65.62
3785.343	-63.62
3788.007	-66.62
3790.67	-62.62
3793.33	-66.62
3795.989	-65.62
3798.645	-64.62
3801.299	-62.62
3803.952	-65.62
3806.602	-66.62
3809.251	-69.62
3811.897	-66.62
3814.542	-69.62
3817.184	-72.62
3819.825	-68.62
3822.463	-71.62
3825.1	-69.62
3827.735	-68.62
3830.367	-68.62
3832.998	-70.62
3835.627	-69.62
3838.253	-69.62
3840.878	-66.62
3843.501	-68.62
3846.122	-68.62
3848.741	-68.62
3851.358	-68.62
3853.973	-70.62
3856.586	-71.62
3859.197	-68.62
3861.806	-70.62
3864.414	-69.62
3867.019	-72.62
3869.622	-70.62
3872.224	-71.62
3874.823	-66.62
3877.421	-68.62
3880.016	-63.62
3882.61	-62.62
3885.202	-66.62
3887.792	-64.62
3890.38	-66.62
3892.966	-69.62
3895.55	-68.62
3898.132	-69.62
3900.713	-72.62
3903.291	-69.62
3905.868	-68.62
3908.442	-73.62
3911.015	-70.62
3913.586	-73.62
3916.155	-68.62
3918.722	-67.62
3921.287	-71.62
3923.85	-72.62
3926.411	-72.62
3928.971	-75.62
3931.528	-73.62
3934.084	-74.62
3936.638	-73.62
3939.19	-75.62
3941.74	-75.62
3944.288	-77.62
3946.834	-76.62
3949.378	-75.62
3951.921	-77.62
3954.462	-72.62
3957	-74.62
3959.537	-75.62
3962.072	-71.62
3964.606	-69.62
3967.137	-67.62
3969.667	-72.62
3972.194	-69.62
3974.72	-68.62
3977.244	-66.62
3979.766	-72.62
3982.286	-75.62
3984.805	-74.62
3987.321	-74.62
3989.836	-72.62
3992.349	-74.62
3994.86	-74.62
3997.369	-71.62
3999.877	-72.62
4002.382	-70.62
4004.886	-70.62
4007.388	-70.62
4009.888	-71.62
4012.386	-74.62
4014.883	-70.62
4017.377	-68.62
4019.87	-72.62
4022.361	-67.62
4024.85	-73.62
4027.338	-72.62
4029.823	-73.62
4032.307	-71.62
4034.789	-72.62
4037.269	-72.62
4039.747	-73.62
4042.224	-68.62
4044.699	-73.62
4047.172	-68.62
4049.643	-74.62
4052.112	-76.62
4054.58	-74.62
4057.046	-74.62
4059.51	-73.62
4061.972	-74.62
4064.432	-75.62
4066.891	-76.62
4069.348	-70.62
4071.803	-72.62
4074.256	-74.62
4076.708	-71.62
4079.158	-70.62
4081.606	-73.62
4084.052	-70.62
4086.497	-67.62
4088.939	-70.62
4091.38	-71.62
4093.819	-70.62
4096.257	-71.62
4098.693	-73.62
4101.127	-75.62
4103.559	-74.62
4105.989	-47.62
4108.418	-43.62
4110.845	-48.62
4113.27	-41.62
4115.694	-36.62
4118.115	-30.62
4120.535	-72.62
4122.954	-76.62
4125.37	-74.62
4127.785	-75.62
4130.198	-75.62
4132.609	-76.62
4135.019	-77.62
4137.427	-76.62
4139.833	-77.62
4142.237	-77.62
