Data from 100000000CFU2_A_RamanShift_1.txt Node
Date: Wed Jan 25 12:10:25 IST 2017
User: aro
Spectrometer: QEPB0276
Trigger mode: 0
Integration Time (sec): 5.000000E0
Scans to average: 1
Electric dark correction enabled: true
Nonlinearity correction enabled: false
Boxcar width: 0
XAxis mode: Raman Shifts
Number of Pixels in Spectrum: 1044
>>>>>Begin Spectral Data<<<<<
160.701	-27.88
166.742	-2.88
172.777	68.12
178.805	283.12
184.826	776.12
190.841	1543.12
196.849	2408.12
202.85	2915.12
208.845	3040.12
214.833	2916.12
220.815	2812.12
226.789	2726.12
232.758	2662.12
238.719	2566.12
244.674	2480.12
250.623	2391.12
256.565	2267.12
262.5	2166.12
268.429	2087.12
274.351	1996.12
280.267	1922.12
286.176	1859.12
292.079	1795.12
297.975	1741.12
303.865	1695.12
309.748	1673.12
315.625	1630.12
321.495	1573.12
327.359	1558.12
333.217	1556.12
339.068	1543.12
344.912	1528.12
350.751	1521.12
356.583	1520.12
362.408	1514.12
368.227	1528.12
374.04	1523.12
379.847	1547.12
385.647	1540.12
391.44	1538.12
397.228	1546.12
403.009	1552.12
408.784	1584.12
414.553	1578.12
420.315	1581.12
426.071	1584.12
431.821	1609.12
437.565	1577.12
443.302	1587.12
449.033	1555.12
454.758	1562.12
460.477	1538.12
466.189	1561.12
471.896	1559.12
477.596	1530.12
483.29	1536.12
488.978	1523.12
494.66	1504.12
500.335	1509.12
506.005	1461.12
511.668	1427.12
517.325	1390.12
522.977	1367.12
528.622	1351.12
534.261	1330.12
539.894	1318.12
545.521	1292.12
551.141	1288.12
556.756	1294.12
562.365	1275.12
567.968	1268.12
573.565	1258.12
579.155	1244.12
584.74	1241.12
590.319	1238.12
595.892	1224.12
601.459	1227.12
607.02	1214.12
612.575	1190.12
618.124	1189.12
623.667	1159.12
629.204	1164.12
634.735	1151.12
640.261	1140.12
645.781	1138.12
651.294	1137.12
656.802	1124.12
662.304	1117.12
667.8	1113.12
673.29	1094.12
678.775	1099.12
684.254	1101.12
689.726	1092.12
695.193	1082.12
700.655	1083.12
706.11	1063.12
711.56	1073.12
717.004	1061.12
722.442	1053.12
727.874	1046.12
733.301	1029.12
738.722	1032.12
744.137	1021.12
749.547	1034.12
754.951	1015.12
760.349	1026.12
765.741	1026.12
771.128	1031.12
776.509	1028.12
781.885	1031.12
787.254	1020.12
792.618	1032.12
797.977	1009.12
803.33	1007.12
808.677	1008.12
814.019	982.12
819.355	981.12
824.686	974.12
830.011	957.12
835.33	946.12
840.644	944.12
845.952	944.12
851.255	934.12
856.552	936.12
861.844	923.12
867.13	912.12
872.41	904.12
877.686	911.12
882.955	885.12
888.219	869.12
893.478	856.12
898.731	848.12
903.979	836.12
909.221	823.12
914.458	825.12
919.69	813.12
924.916	820.12
930.136	814.12
935.351	814.12
940.561	814.12
945.766	802.12
950.965	806.12
956.158	792.12
961.347	786.12
966.529	777.12
971.707	773.12
976.879	747.12
982.046	741.12
987.208	748.12
992.364	740.12
997.515	748.12
1002.66	756.12
1007.801	750.12
1012.936	774.12
1018.066	762.12
1023.19	763.12
1028.309	774.12
1033.423	777.12
1038.532	772.12
1043.636	764.12
1048.734	759.12
1053.827	757.12
1058.915	741.12
1063.998	746.12
1069.075	747.12
1074.147	724.12
1079.214	738.12
1084.276	739.12
1089.333	743.12
1094.385	766.12
1099.431	763.12
1104.472	758.12
1109.509	754.12
1114.54	728.12
1119.565	737.12
1124.586	729.12
1129.602	712.12
1134.613	714.12
1139.618	712.12
1144.619	721.12
1149.614	721.12
1154.604	725.12
1159.589	720.12
1164.57	737.12
1169.545	731.12
1174.515	734.12
1179.48	724.12
1184.44	730.12
1189.395	719.12
1194.345	721.12
1199.29	714.12
1204.23	706.12
1209.165	709.12
1214.095	725.12
1219.021	715.12
1223.941	731.12
1228.856	732.12
1233.766	731.12
1238.672	734.12
1243.572	737.12
1248.467	730.12
1253.358	728.12
1258.244	723.12
1263.124	688.12
1268	692.12
1272.871	682.12
1277.737	687.12
1282.599	685.12
1287.455	685.12
1292.306	684.12
1297.153	696.12
1301.995	695.12
1306.832	699.12
1311.664	691.12
1316.491	695.12
1321.314	690.12
1326.132	682.12
1330.945	684.12
1335.753	671.12
1340.556	659.12
1345.354	673.12
1350.148	642.12
1354.937	648.12
1359.722	637.12
1364.501	634.12
1369.276	638.12
1374.046	633.12
1378.811	642.12
1383.572	644.12
1388.327	639.12
1393.079	635.12
1397.825	622.12
1402.567	614.12
1407.304	614.12
1412.036	607.12
1416.764	603.12
1421.487	603.12
1426.205	609.12
1430.919	617.12
1435.628	611.12
1440.333	627.12
1445.032	629.12
1449.727	636.12
1454.418	633.12
1459.104	643.12
1463.785	638.12
1468.462	622.12
1473.134	631.12
1477.802	618.12
1482.465	607.12
1487.123	620.12
1491.777	617.12
1496.426	621.12
1501.071	616.12
1505.711	625.12
1510.347	637.12
1514.978	643.12
1519.604	660.12
1524.226	645.12
1528.844	669.12
1533.457	647.12
1538.065	649.12
1542.669	647.12
1547.269	645.12
1551.864	659.12
1556.454	659.12
1561.041	670.12
1565.622	679.12
1570.199	665.12
1574.772	703.12
1579.34	707.12
1583.904	709.12
1588.464	731.12
1593.019	730.12
1597.569	746.12
1602.115	762.12
1606.657	759.12
1611.195	783.12
1615.728	779.12
1620.256	785.12
1624.78	797.12
1629.3	808.12
1633.816	818.12
1638.327	827.12
1642.834	859.12
1647.336	855.12
1651.834	857.12
1656.328	853.12
1660.817	841.12
1665.302	834.12
1669.783	816.12
1674.259	801.12
1678.732	755.12
1683.199	734.12
1687.663	713.12
1692.122	705.12
1696.577	666.12
1701.028	642.12
1705.474	617.12
1709.917	604.12
1714.355	579.12
1718.788	583.12
1723.218	575.12
1727.643	548.12
1732.064	538.12
1736.481	514.12
1740.893	507.12
1745.301	500.12
1749.705	475.12
1754.105	466.12
1758.501	459.12
1762.893	456.12
1767.28	439.12
1771.663	435.12
1776.042	433.12
1780.417	424.12
1784.787	443.12
1789.154	440.12
1793.516	436.12
1797.874	425.12
1802.228	425.12
1806.578	434.12
1810.924	428.12
1815.266	408.12
1819.603	411.12
1823.937	404.12
1828.266	400.12
1832.591	391.12
1836.913	393.12
1841.23	384.12
1845.543	375.12
1849.852	378.12
1854.156	385.12
1858.457	378.12
1862.754	383.12
1867.047	390.12
1871.335	392.12
1875.62	397.12
1879.9	392.12
1884.177	392.12
1888.449	399.12
1892.718	401.12
1896.982	388.12
1901.243	388.12
1905.499	387.12
1909.752	392.12
1914	387.12
1918.245	391.12
1922.485	373.12
1926.722	382.12
1930.954	383.12
1935.183	393.12
1939.408	394.12
1943.628	395.12
1947.845	403.12
1952.058	404.12
1956.267	404.12
1960.472	394.12
1964.673	382.12
1968.87	379.12
1973.063	381.12
1977.252	374.12
1981.438	370.12
1985.619	376.12
1989.797	374.12
1993.971	368.12
1998.14	361.12
2002.306	373.12
2006.469	373.12
2010.627	393.12
2014.781	377.12
2018.932	379.12
2023.078	372.12
2027.221	377.12
2031.36	372.12
2035.495	373.12
2039.627	376.12
2043.754	366.12
2047.878	364.12
2051.998	365.12
2056.114	365.12
2060.226	372.12
2064.334	376.12
2068.439	381.12
2072.54	385.12
2076.637	384.12
2080.73	383.12
2084.82	385.12
2088.906	389.12
2092.988	385.12
2097.066	386.12
2101.14	383.12
2105.211	378.12
2109.278	369.12
2113.342	377.12
2117.401	369.12
2121.457	363.12
2125.509	367.12
2129.558	353.12
2133.602	365.12
2137.643	361.12
2141.681	371.12
2145.714	365.12
2149.744	359.12
2153.77	355.12
2157.793	359.12
2161.812	346.12
2165.827	334.12
2169.838	341.12
2173.846	330.12
2177.851	328.12
2181.851	339.12
2185.848	318.12
2189.841	322.12
2193.831	322.12
2197.817	310.12
2201.799	310.12
2205.778	299.12
2209.753	311.12
2213.725	297.12
2217.693	303.12
2221.657	306.12
2225.618	305.12
2229.575	292.12
2233.529	304.12
2237.479	302.12
2241.425	294.12
2245.368	293.12
2249.307	285.12
2253.243	285.12
2257.175	274.12
2261.104	272.12
2265.029	266.12
2268.95	266.12
2272.868	264.12
2276.783	259.12
2280.694	252.12
2284.601	258.12
2288.505	252.12
2292.405	245.12
2296.302	242.12
2300.195	229.12
2304.085	231.12
2307.971	231.12
2311.854	226.12
2315.734	228.12
2319.609	215.12
2323.482	219.12
2327.351	219.12
2331.216	221.12
2335.078	208.12
2338.937	206.12
2342.792	210.12
2346.643	201.12
2350.492	201.12
2354.336	203.12
2358.178	205.12
2362.015	204.12
2365.85	197.12
2369.681	202.12
2373.508	203.12
2377.333	205.12
2381.153	207.12
2384.971	210.12
2388.785	202.12
2392.595	203.12
2396.402	206.12
2400.206	192.12
2404.007	197.12
2407.804	196.12
2411.597	183.12
2415.388	188.12
2419.174	190.12
2422.958	196.12
2426.738	196.12
2430.515	197.12
2434.289	191.12
2438.059	188.12
2441.825	178.12
2445.589	190.12
2449.349	190.12
2453.106	182.12
2456.859	183.12
2460.61	177.12
2464.356	176.12
2468.1	179.12
2471.84	174.12
2475.577	178.12
2479.311	167.12
2483.041	171.12
2486.768	170.12
2490.492	172.12
2494.213	178.12
2497.93	175.12
2501.644	172.12
2505.355	175.12
2509.062	179.12
2512.766	171.12
2516.467	170.12
2520.165	166.12
2523.859	175.12
2527.551	163.12
2531.239	164.12
2534.923	163.12
2538.605	156.12
2542.283	160.12
2545.958	163.12
2549.63	159.12
2553.299	156.12
2556.964	157.12
2560.626	159.12
2564.285	160.12
2567.941	155.12
2571.594	157.12
2575.243	155.12
2578.89	153.12
2582.533	152.12
2586.173	144.12
2589.809	153.12
2593.443	149.12
2597.073	145.12
2600.701	142.12
2604.325	135.12
2607.946	141.12
2611.564	136.12
2615.178	142.12
2618.79	137.12
2622.398	142.12
2626.004	134.12
2629.606	144.12
2633.205	135.12
2636.801	141.12
2640.394	135.12
2643.983	137.12
2647.57	125.12
2651.153	133.12
2654.734	125.12
2658.311	123.12
2661.885	124.12
2665.456	121.12
2669.025	117.12
2672.589	121.12
2676.151	124.12
2679.71	118.12
2683.266	117.12
2686.819	128.12
2690.368	128.12
2693.915	117.12
2697.458	117.12
2700.999	114.12
2704.536	115.12
2708.071	108.12
2711.602	111.12
2715.13	106.12
2718.656	103.12
2722.178	105.12
2725.697	104.12
2729.214	107.12
2732.727	101.12
2736.237	112.12
2739.744	115.12
2743.249	114.12
2746.75	115.12
2750.248	116.12
2753.743	116.12
2757.236	117.12
2760.725	112.12
2764.211	110.12
2767.695	109.12
2771.175	106.12
2774.652	108.12
2778.127	108.12
2781.598	113.12
2785.067	99.12
2788.532	100.12
2791.995	108.12
2795.455	107.12
2798.911	107.12
2802.365	113.12
2805.816	102.12
2809.264	122.12
2812.709	114.12
2816.151	109.12
2819.59	114.12
2823.026	110.12
2826.46	112.12
2829.89	112.12
2833.318	113.12
2836.742	118.12
2840.164	121.12
2843.583	115.12
2846.999	118.12
2850.412	119.12
2853.822	119.12
2857.229	130.12
2860.634	124.12
2864.035	135.12
2867.434	131.12
2870.83	134.12
2874.223	139.12
2877.613	135.12
2881	137.12
2884.385	145.12
2887.766	139.12
2891.145	132.12
2894.521	140.12
2897.894	131.12
2901.264	143.12
2904.631	144.12
2907.996	145.12
2911.358	152.12
2914.717	157.12
2918.073	148.12
2921.426	153.12
2924.777	163.12
2928.124	164.12
2931.469	168.12
2934.811	171.12
2938.15	172.12
2941.487	171.12
2944.821	171.12
2948.152	175.12
2951.48	182.12
2954.805	181.12
2958.128	185.12
2961.447	191.12
2964.765	196.12
2968.079	200.12
2971.39	206.12
2974.699	219.12
2978.005	213.12
2981.308	225.12
2984.609	228.12
2987.907	235.12
2991.202	241.12
2994.494	243.12
2997.784	258.12
3001.07	259.12
3004.355	262.12
3007.636	279.12
3010.915	283.12
3014.191	290.12
3017.464	302.12
3020.734	312.12
3024.002	305.12
3027.267	316.12
3030.53	317.12
3033.789	326.12
3037.046	336.12
3040.301	339.12
3043.552	342.12
3046.801	352.12
3050.048	362.12
3053.291	380.12
3056.532	387.12
3059.771	408.12
3063.006	415.12
3066.239	423.12
3069.469	443.12
3072.697	455.12
3075.922	464.12
3079.144	473.12
3082.364	487.12
3085.581	507.12
3088.795	514.12
3092.007	523.12
3095.216	540.12
3098.423	552.12
3101.627	557.12
3104.828	578.12
3108.026	585.12
3111.222	596.12
3114.416	601.12
3117.607	629.12
3120.795	648.12
3123.98	664.12
3127.163	678.12
3130.344	689.12
3133.521	703.12
3136.696	728.12
3139.869	747.12
3143.039	749.12
3146.206	764.12
3149.371	776.12
3152.533	776.12
3155.693	783.12
3158.85	793.12
3162.005	787.12
3165.157	801.12
3168.306	814.12
3171.453	801.12
3174.597	806.12
3177.739	814.12
3180.878	815.12
3184.014	838.12
3187.149	823.12
3190.28	827.12
3193.409	839.12
3196.536	839.12
3199.659	837.12
3202.781	830.12
3205.9	838.12
3209.016	838.12
3212.13	831.12
3215.241	835.12
3218.35	823.12
3221.456	803.12
3224.56	809.12
3227.661	800.12
3230.76	794.12
3233.856	794.12
3236.95	775.12
3240.041	775.12
3243.13	753.12
3246.216	773.12
3249.3	768.12
3252.382	748.12
3255.46	747.12
3258.537	758.12
3261.611	750.12
3264.682	755.12
3267.751	736.12
3270.818	735.12
3273.882	739.12
3276.943	732.12
3280.002	735.12
3283.059	725.12
3286.113	718.12
3289.165	714.12
3292.214	685.12
3295.261	672.12
3298.306	676.12
3301.348	655.12
3304.387	661.12
3307.425	633.12
3310.459	637.12
3313.492	626.12
3316.521	614.12
3319.549	617.12
3322.574	609.12
3325.597	608.12
3328.617	590.12
3331.635	596.12
3334.65	591.12
3337.663	584.12
3340.674	574.12
3343.682	574.12
3346.688	571.12
3349.691	583.12
3352.692	562.12
3355.691	575.12
3358.687	577.12
3361.681	560.12
3364.673	540.12
3367.662	540.12
3370.649	535.12
3373.633	530.12
3376.615	531.12
3379.595	514.12
3382.572	510.12
3385.547	509.12
3388.52	496.12
3391.49	482.12
3394.458	479.12
3397.424	477.12
3400.387	466.12
3403.348	466.12
3406.307	464.12
3409.263	459.12
3412.217	448.12
3415.168	453.12
3418.118	444.12
3421.065	434.12
3424.009	436.12
3426.951	410.12
3429.891	418.12
3432.829	405.12
3435.764	403.12
3438.697	398.12
3441.628	381.12
3444.557	374.12
3447.483	360.12
3450.407	356.12
3453.328	350.12
3456.247	342.12
3459.164	327.12
3462.079	312.12
3464.991	310.12
3467.902	289.12
3470.809	286.12
3473.715	271.12
3476.618	271.12
3479.519	266.12
3482.418	258.12
3485.315	247.12
3488.209	238.12
3491.101	233.12
3493.99	227.12
3496.878	221.12
3499.763	212.12
3502.646	216.12
3505.527	201.12
3508.405	199.12
3511.281	183.12
3514.155	176.12
3517.027	164.12
3519.897	161.12
3522.764	153.12
3525.629	137.12
3528.492	130.12
3531.352	129.12
3534.211	124.12
3537.067	110.12
3539.921	110.12
3542.773	104.12
3545.622	100.12
3548.469	99.12
3551.315	87.12
3554.157	78.12
3556.998	71.12
3559.837	69.12
3562.673	66.12
3565.507	63.12
3568.339	51.12
3571.169	48.12
3573.996	41.12
3576.822	41.12
3579.645	40.12
3582.466	31.12
3585.285	38.12
3588.101	37.12
3590.916	24.12
3593.728	20.12
3596.538	20.12
3599.346	15.12
3602.152	10.12
3604.956	6.12
3607.757	8.12
3610.556	2.12
3613.354	0.12
3616.149	-5.88
3618.942	-10.88
3621.732	-8.88
3624.521	-7.88
3627.307	-14.88
3630.092	-13.88
3632.874	-16.88
3635.654	-13.88
3638.432	-19.88
3641.208	-24.88
3643.982	-21.88
3646.753	-27.88
3649.523	-25.88
3652.29	-25.88
3655.055	-34.88
3657.818	-30.88
3660.579	-34.88
3663.338	-33.88
3666.095	-37.88
3668.849	-39.88
3671.602	-40.88
3674.352	-42.88
3677.101	-46.88
3679.847	-46.88
3682.591	-47.88
3685.333	-45.88
3688.073	-53.88
3690.811	-49.88
3693.547	-54.88
3696.281	-54.88
3699.013	-56.88
3701.742	-51.88
3704.47	-55.88
3707.195	-54.88
3709.919	-57.88
3712.64	-58.88
3715.359	-58.88
3718.076	-56.88
3720.792	-61.88
3723.505	-62.88
3726.216	-61.88
3728.925	-63.88
3731.632	-59.88
3734.336	-63.88
3737.039	-66.88
3739.74	-62.88
3742.439	-63.88
3745.136	-65.88
3747.83	-64.88
3750.523	-64.88
3753.213	-63.88
3755.902	-63.88
3758.589	-66.88
3761.273	-64.88
3763.956	-66.88
3766.636	-66.88
3769.315	-68.88
3771.991	-70.88
3774.665	-73.88
3777.338	-70.88
3780.008	-71.88
3782.677	-74.88
3785.343	-70.88
3788.007	-70.88
3790.67	-66.88
3793.33	-70.88
3795.989	-67.88
3798.645	-69.88
3801.299	-67.88
3803.952	-69.88
3806.602	-68.88
3809.251	-70.88
3811.897	-71.88
3814.542	-71.88
3817.184	-73.88
3819.825	-72.88
3822.463	-72.88
3825.1	-70.88
3827.735	-72.88
3830.367	-73.88
3832.998	-73.88
3835.627	-72.88
3838.253	-73.88
3840.878	-70.88
3843.501	-74.88
3846.122	-72.88
3848.741	-67.88
3851.358	-71.88
3853.973	-73.88
3856.586	-75.88
3859.197	-72.88
3861.806	-75.88
3864.414	-73.88
3867.019	-74.88
3869.622	-71.88
3872.224	-73.88
3874.823	-71.88
3877.421	-71.88
3880.016	-68.88
3882.61	-62.88
3885.202	-68.88
3887.792	-65.88
3890.38	-71.88
3892.966	-72.88
3895.55	-69.88
3898.132	-73.88
3900.713	-75.88
3903.291	-74.88
3905.868	-73.88
3908.442	-75.88
3911.015	-75.88
3913.586	-76.88
3916.155	-72.88
3918.722	-70.88
3921.287	-76.88
3923.85	-77.88
3926.411	-75.88
3928.971	-79.88
3931.528	-77.88
3934.084	-80.88
3936.638	-76.88
3939.19	-77.88
3941.74	-76.88
3944.288	-76.88
3946.834	-78.88
3949.378	-78.88
3951.921	-79.88
3954.462	-77.88
3957	-78.88
3959.537	-79.88
3962.072	-76.88
3964.606	-77.88
3967.137	-74.88
3969.667	-76.88
3972.194	-77.88
3974.72	-76.88
3977.244	-76.88
3979.766	-74.88
3982.286	-76.88
3984.805	-77.88
3987.321	-77.88
3989.836	-76.88
3992.349	-77.88
3994.86	-73.88
3997.369	-73.88
3999.877	-74.88
4002.382	-74.88
4004.886	-72.88
4007.388	-75.88
4009.888	-74.88
4012.386	-75.88
4014.883	-75.88
4017.377	-73.88
4019.87	-74.88
4022.361	-76.88
4024.85	-76.88
4027.338	-76.88
4029.823	-73.88
4032.307	-75.88
4034.789	-77.88
4037.269	-75.88
4039.747	-75.88
4042.224	-76.88
4044.699	-80.88
4047.172	-77.88
4049.643	-76.88
4052.112	-78.88
4054.58	-77.88
4057.046	-75.88
4059.51	-71.88
4061.972	-79.88
4064.432	-75.88
4066.891	-77.88
4069.348	-73.88
4071.803	-73.88
4074.256	-79.88
4076.708	-76.88
4079.158	-72.88
4081.606	-75.88
4084.052	-72.88
4086.497	-75.88
4088.939	-73.88
4091.38	-75.88
4093.819	-77.88
4096.257	-74.88
4098.693	-77.88
4101.127	-80.88
4103.559	-78.88
4105.989	-49.88
4108.418	-47.88
4110.845	-51.88
4113.27	-42.88
4115.694	-40.88
4118.115	-31.88
4120.535	-78.88
4122.954	-77.88
4125.37	-76.88
4127.785	-77.88
4130.198	-77.88
4132.609	-77.88
4135.019	-79.88
4137.427	-81.88
4139.833	-78.88
4142.237	-79.88
