Data from 1000CFU1_B_RamanShift_1.txt Node
Date: Wed Jan 25 12:33:20 IST 2017
User: aro
Spectrometer: QEPB0276
Trigger mode: 0
Integration Time (sec): 5.000000E0
Scans to average: 1
Electric dark correction enabled: true
Nonlinearity correction enabled: false
Boxcar width: 0
XAxis mode: Raman Shifts
Number of Pixels in Spectrum: 1044
>>>>>Begin Spectral Data<<<<<
160.701	-37.62
166.742	-2.62
172.777	100.38
178.805	404.38
184.826	1108.38
190.841	2289.38
196.849	3568.38
202.85	4366.38
208.845	4545.38
214.833	4382.38
220.815	4244.38
226.789	4092.38
232.758	3985.38
238.719	3854.38
244.674	3712.38
250.623	3545.38
256.565	3401.38
262.5	3241.38
268.429	3100.38
274.351	2974.38
280.267	2863.38
286.176	2762.38
292.079	2682.38
297.975	2590.38
303.865	2507.38
309.748	2449.38
315.625	2373.38
321.495	2341.38
327.359	2301.38
333.217	2255.38
339.068	2260.38
344.912	2219.38
350.751	2236.38
356.583	2220.38
362.408	2203.38
368.227	2225.38
374.04	2225.38
379.847	2258.38
385.647	2244.38
391.44	2265.38
397.228	2266.38
403.009	2287.38
408.784	2287.38
414.553	2282.38
420.315	2329.38
426.071	2321.38
431.821	2311.38
437.565	2304.38
443.302	2306.38
449.033	2287.38
454.758	2304.38
460.477	2276.38
466.189	2290.38
471.896	2242.38
477.596	2254.38
483.29	2249.38
488.978	2238.38
494.66	2208.38
500.335	2195.38
506.005	2172.38
511.668	2105.38
517.325	2083.38
522.977	2043.38
528.622	2018.38
534.261	1978.38
539.894	1976.38
545.521	1954.38
551.141	1948.38
556.756	1924.38
562.365	1914.38
567.968	1911.38
573.565	1883.38
579.155	1870.38
584.74	1864.38
590.319	1844.38
595.892	1851.38
601.459	1855.38
607.02	1822.38
612.575	1798.38
618.124	1791.38
623.667	1758.38
629.204	1753.38
634.735	1748.38
640.261	1717.38
645.781	1719.38
651.294	1721.38
656.802	1714.38
662.304	1701.38
667.8	1708.38
673.29	1692.38
678.775	1686.38
684.254	1660.38
689.726	1659.38
695.193	1655.38
700.655	1640.38
706.11	1636.38
711.56	1611.38
717.004	1613.38
722.442	1602.38
727.874	1600.38
733.301	1580.38
738.722	1579.38
744.137	1578.38
749.547	1583.38
754.951	1575.38
760.349	1557.38
765.741	1569.38
771.128	1560.38
776.509	1567.38
781.885	1550.38
787.254	1554.38
792.618	1551.38
797.977	1537.38
803.33	1508.38
808.677	1514.38
814.019	1498.38
819.355	1468.38
824.686	1471.38
830.011	1470.38
835.33	1462.38
840.644	1453.38
845.952	1443.38
851.255	1441.38
856.552	1432.38
861.844	1424.38
867.13	1436.38
872.41	1403.38
877.686	1401.38
882.955	1364.38
888.219	1365.38
893.478	1333.38
898.731	1321.38
903.979	1289.38
909.221	1301.38
914.458	1269.38
919.69	1277.38
924.916	1276.38
930.136	1288.38
935.351	1267.38
940.561	1277.38
945.766	1265.38
950.965	1252.38
956.158	1237.38
961.347	1227.38
966.529	1216.38
971.707	1186.38
976.879	1174.38
982.046	1170.38
987.208	1160.38
992.364	1169.38
997.515	1172.38
1002.66	1173.38
1007.801	1166.38
1012.936	1201.38
1018.066	1212.38
1023.19	1212.38
1028.309	1224.38
1033.423	1200.38
1038.532	1215.38
1043.636	1201.38
1048.734	1179.38
1053.827	1170.38
1058.915	1151.38
1063.998	1153.38
1069.075	1170.38
1074.147	1160.38
1079.214	1155.38
1084.276	1169.38
1089.333	1171.38
1094.385	1197.38
1099.431	1191.38
1104.472	1193.38
1109.509	1185.38
1114.54	1166.38
1119.565	1158.38
1124.586	1150.38
1129.602	1128.38
1134.613	1135.38
1139.618	1133.38
1144.619	1130.38
1149.614	1134.38
1154.604	1123.38
1159.589	1142.38
1164.57	1144.38
1169.545	1159.38
1174.515	1165.38
1179.48	1141.38
1184.44	1138.38
1189.395	1144.38
1194.345	1136.38
1199.29	1133.38
1204.23	1130.38
1209.165	1155.38
1214.095	1148.38
1219.021	1154.38
1223.941	1162.38
1228.856	1162.38
1233.766	1170.38
1238.672	1171.38
1243.572	1178.38
1248.467	1155.38
1253.358	1147.38
1258.244	1137.38
1263.124	1119.38
1268	1086.38
1272.871	1102.38
1277.737	1097.38
1282.599	1077.38
1287.455	1084.38
1292.306	1086.38
1297.153	1096.38
1301.995	1111.38
1306.832	1105.38
1311.664	1114.38
1316.491	1117.38
1321.314	1115.38
1326.132	1102.38
1330.945	1101.38
1335.753	1077.38
1340.556	1077.38
1345.354	1058.38
1350.148	1061.38
1354.937	1037.38
1359.722	1047.38
1364.501	1014.38
1369.276	1015.38
1374.046	1007.38
1378.811	995.38
1383.572	1005.38
1388.327	988.38
1393.079	994.38
1397.825	1005.38
1402.567	991.38
1407.304	984.38
1412.036	969.38
1416.764	971.38
1421.487	966.38
1426.205	968.38
1430.919	980.38
1435.628	991.38
1440.333	1004.38
1445.032	1018.38
1449.727	1020.38
1454.418	1013.38
1459.104	1025.38
1463.785	1033.38
1468.462	1005.38
1473.134	1003.38
1477.802	1007.38
1482.465	987.38
1487.123	994.38
1491.777	1000.38
1496.426	994.38
1501.071	1009.38
1505.711	1018.38
1510.347	1024.38
1514.978	1025.38
1519.604	1039.38
1524.226	1036.38
1528.844	1040.38
1533.457	1033.38
1538.065	1051.38
1542.669	1036.38
1547.269	1041.38
1551.864	1037.38
1556.454	1039.38
1561.041	1057.38
1565.622	1074.38
1570.199	1080.38
1574.772	1108.38
1579.34	1124.38
1583.904	1137.38
1588.464	1165.38
1593.019	1182.38
1597.569	1184.38
1602.115	1184.38
1606.657	1206.38
1611.195	1224.38
1615.728	1231.38
1620.256	1233.38
1624.78	1256.38
1629.3	1293.38
1633.816	1298.38
1638.327	1322.38
1642.834	1358.38
1647.336	1343.38
1651.834	1356.38
1656.328	1334.38
1660.817	1346.38
1665.302	1311.38
1669.783	1288.38
1674.259	1268.38
1678.732	1221.38
1683.199	1167.38
1687.663	1140.38
1692.122	1107.38
1696.577	1070.38
1701.028	1025.38
1705.474	972.38
1709.917	929.38
1714.355	908.38
1718.788	916.38
1723.218	886.38
1727.643	879.38
1732.064	855.38
1736.481	840.38
1740.893	820.38
1745.301	799.38
1749.705	770.38
1754.105	774.38
1758.501	742.38
1762.893	742.38
1767.28	717.38
1771.663	710.38
1776.042	701.38
1780.417	706.38
1784.787	721.38
1789.154	719.38
1793.516	703.38
1797.874	714.38
1802.228	707.38
1806.578	695.38
1810.924	676.38
1815.266	676.38
1819.603	663.38
1823.937	660.38
1828.266	646.38
1832.591	637.38
1836.913	637.38
1841.23	641.38
1845.543	632.38
1849.852	641.38
1854.156	644.38
1858.457	634.38
1862.754	646.38
1867.047	647.38
1871.335	656.38
1875.62	660.38
1879.9	653.38
1884.177	662.38
1888.449	660.38
1892.718	645.38
1896.982	653.38
1901.243	660.38
1905.499	632.38
1909.752	656.38
1914	644.38
1918.245	636.38
1922.485	641.38
1926.722	648.38
1930.954	645.38
1935.183	649.38
1939.408	652.38
1943.628	654.38
1947.845	657.38
1952.058	645.38
1956.267	643.38
1960.472	635.38
1964.673	627.38
1968.87	622.38
1973.063	624.38
1977.252	620.38
1981.438	624.38
1985.619	613.38
1989.797	610.38
1993.971	614.38
1998.14	616.38
2002.306	618.38
2006.469	620.38
2010.627	631.38
2014.781	628.38
2018.932	633.38
2023.078	615.38
2027.221	627.38
2031.36	616.38
2035.495	610.38
2039.627	609.38
2043.754	600.38
2047.878	613.38
2051.998	603.38
2056.114	605.38
2060.226	616.38
2064.334	616.38
2068.439	611.38
2072.54	626.38
2076.637	627.38
2080.73	624.38
2084.82	620.38
2088.906	632.38
2092.988	635.38
2097.066	624.38
2101.14	624.38
2105.211	605.38
2109.278	607.38
2113.342	595.38
2117.401	596.38
2121.457	597.38
2125.509	603.38
2129.558	585.38
2133.602	594.38
2137.643	588.38
2141.681	590.38
2145.714	583.38
2149.744	592.38
2153.77	585.38
2157.793	577.38
2161.812	585.38
2165.827	552.38
2169.838	559.38
2173.846	559.38
2177.851	543.38
2181.851	535.38
2185.848	536.38
2189.841	524.38
2193.831	522.38
2197.817	508.38
2201.799	513.38
2205.778	515.38
2209.753	509.38
2213.725	503.38
2217.693	509.38
2221.657	506.38
2225.618	516.38
2229.575	509.38
2233.529	505.38
2237.479	504.38
2241.425	492.38
2245.368	486.38
2249.307	478.38
2253.243	477.38
2257.175	464.38
2261.104	461.38
2265.029	451.38
2268.95	444.38
2272.868	435.38
2276.783	423.38
2280.694	433.38
2284.601	429.38
2288.505	418.38
2292.405	415.38
2296.302	405.38
2300.195	412.38
2304.085	399.38
2307.971	389.38
2311.854	388.38
2315.734	382.38
2319.609	377.38
2323.482	367.38
2327.351	366.38
2331.216	367.38
2335.078	359.38
2338.937	357.38
2342.792	353.38
2346.643	347.38
2350.492	346.38
2354.336	352.38
2358.178	350.38
2362.015	356.38
2365.85	358.38
2369.681	357.38
2373.508	356.38
2377.333	351.38
2381.153	359.38
2384.971	358.38
2388.785	359.38
2392.595	351.38
2396.402	341.38
2400.206	338.38
2404.007	341.38
2407.804	341.38
2411.597	342.38
2415.388	340.38
2419.174	343.38
2422.958	344.38
2426.738	333.38
2430.515	334.38
2434.289	340.38
2438.059	344.38
2441.825	333.38
2445.589	331.38
2449.349	332.38
2453.106	326.38
2456.859	321.38
2460.61	318.38
2464.356	308.38
2468.1	309.38
2471.84	307.38
2475.577	312.38
2479.311	294.38
2483.041	307.38
2486.768	306.38
2490.492	314.38
2494.213	303.38
2497.93	310.38
2501.644	302.38
2505.355	305.38
2509.062	309.38
2512.766	309.38
2516.467	303.38
2520.165	296.38
2523.859	296.38
2527.551	298.38
2531.239	294.38
2534.923	290.38
2538.605	283.38
2542.283	278.38
2545.958	273.38
2549.63	281.38
2553.299	280.38
2556.964	273.38
2560.626	275.38
2564.285	278.38
2567.941	282.38
2571.594	276.38
2575.243	270.38
2578.89	266.38
2582.533	267.38
2586.173	258.38
2589.809	265.38
2593.443	258.38
2597.073	257.38
2600.701	249.38
2604.325	251.38
2607.946	255.38
2611.564	256.38
2615.178	251.38
2618.79	248.38
2622.398	248.38
2626.004	246.38
2629.606	248.38
2633.205	239.38
2636.801	237.38
2640.394	232.38
2643.983	237.38
2647.57	232.38
2651.153	237.38
2654.734	223.38
2658.311	216.38
2661.885	225.38
2665.456	221.38
2669.025	227.38
2672.589	219.38
2676.151	218.38
2679.71	223.38
2683.266	218.38
2686.819	211.38
2690.368	216.38
2693.915	210.38
2697.458	205.38
2700.999	206.38
2704.536	201.38
2708.071	198.38
2711.602	199.38
2715.13	189.38
2718.656	187.38
2722.178	193.38
2725.697	195.38
2729.214	195.38
2732.727	191.38
2736.237	197.38
2739.744	202.38
2743.249	206.38
2746.75	209.38
2750.248	203.38
2753.743	212.38
2757.236	194.38
2760.725	200.38
2764.211	194.38
2767.695	184.38
2771.175	188.38
2774.652	194.38
2778.127	190.38
2781.598	188.38
2785.067	178.38
2788.532	190.38
2791.995	191.38
2795.455	192.38
2798.911	192.38
2802.365	203.38
2805.816	189.38
2809.264	192.38
2812.709	195.38
2816.151	191.38
2819.59	190.38
2823.026	194.38
2826.46	191.38
2829.89	194.38
2833.318	186.38
2836.742	196.38
2840.164	190.38
2843.583	201.38
2846.999	205.38
2850.412	205.38
2853.822	204.38
2857.229	209.38
2860.634	207.38
2864.035	219.38
2867.434	219.38
2870.83	219.38
2874.223	221.38
2877.613	234.38
2881	228.38
2884.385	228.38
2887.766	225.38
2891.145	218.38
2894.521	228.38
2897.894	234.38
2901.264	231.38
2904.631	234.38
2907.996	241.38
2911.358	239.38
2914.717	245.38
2918.073	247.38
2921.426	258.38
2924.777	251.38
2928.124	256.38
2931.469	268.38
2934.811	269.38
2938.15	269.38
2941.487	268.38
2944.821	281.38
2948.152	284.38
2951.48	287.38
2954.805	291.38
2958.128	298.38
2961.447	301.38
2964.765	310.38
2968.079	317.38
2971.39	335.38
2974.699	330.38
2978.005	340.38
2981.308	351.38
2984.609	351.38
2987.907	357.38
2991.202	373.38
2994.494	383.38
2997.784	394.38
3001.07	404.38
3004.355	423.38
3007.636	428.38
3010.915	426.38
3014.191	454.38
3017.464	448.38
3020.734	455.38
3024.002	471.38
3027.267	465.38
3030.53	484.38
3033.789	502.38
3037.046	502.38
3040.301	511.38
3043.552	537.38
3046.801	536.38
3050.048	550.38
3053.291	563.38
3056.532	573.38
3059.771	617.38
3063.006	618.38
3066.239	631.38
3069.469	648.38
3072.697	682.38
3075.922	690.38
3079.144	727.38
3082.364	746.38
3085.581	751.38
3088.795	772.38
3092.007	774.38
3095.216	789.38
3098.423	829.38
3101.627	825.38
3104.828	851.38
3108.026	877.38
3111.222	897.38
3114.416	917.38
3117.607	928.38
3120.795	958.38
3123.98	962.38
3127.163	1002.38
3130.344	1017.38
3133.521	1047.38
3136.696	1078.38
3139.869	1090.38
3143.039	1118.38
3146.206	1113.38
3149.371	1136.38
3152.533	1160.38
3155.693	1147.38
3158.85	1159.38
3162.005	1160.38
3165.157	1171.38
3168.306	1178.38
3171.453	1173.38
3174.597	1197.38
3177.739	1197.38
3180.878	1174.38
3184.014	1197.38
3187.149	1205.38
3190.28	1207.38
3193.409	1212.38
3196.536	1214.38
3199.659	1206.38
3202.781	1221.38
3205.9	1223.38
3209.016	1223.38
3212.13	1215.38
3215.241	1214.38
3218.35	1199.38
3221.456	1204.38
3224.56	1196.38
3227.661	1185.38
3230.76	1164.38
3233.856	1170.38
3236.95	1133.38
3240.041	1135.38
3243.13	1125.38
3246.216	1123.38
3249.3	1104.38
3252.382	1108.38
3255.46	1090.38
3258.537	1085.38
3261.611	1105.38
3264.682	1071.38
3267.751	1075.38
3270.818	1078.38
3273.882	1071.38
3276.943	1061.38
3280.002	1063.38
3283.059	1050.38
3286.113	1028.38
3289.165	1013.38
3292.214	1004.38
3295.261	989.38
3298.306	969.38
3301.348	961.38
3304.387	947.38
3307.425	942.38
3310.459	926.38
3313.492	914.38
3316.521	900.38
3319.549	890.38
3322.574	880.38
3325.597	874.38
3328.617	867.38
3331.635	865.38
3334.65	857.38
3337.663	861.38
3340.674	864.38
3343.682	846.38
3346.688	841.38
3349.691	831.38
3352.692	833.38
3355.691	831.38
3358.687	815.38
3361.681	817.38
3364.673	805.38
3367.662	801.38
3370.649	776.38
3373.633	775.38
3376.615	757.38
3379.595	756.38
3382.572	737.38
3385.547	727.38
3388.52	725.38
3391.49	716.38
3394.458	695.38
3397.424	700.38
3400.387	680.38
3403.348	671.38
3406.307	666.38
3409.263	665.38
3412.217	668.38
3415.168	648.38
3418.118	650.38
3421.065	629.38
3424.009	633.38
3426.951	609.38
3429.891	612.38
3432.829	603.38
3435.764	597.38
3438.697	568.38
3441.628	557.38
3444.557	546.38
3447.483	528.38
3450.407	507.38
3453.328	504.38
3456.247	483.38
3459.164	471.38
3462.079	461.38
3464.991	438.38
3467.902	425.38
3470.809	409.38
3473.715	398.38
3476.618	390.38
3479.519	378.38
3482.418	365.38
3485.315	352.38
3488.209	338.38
3491.101	332.38
3493.99	330.38
3496.878	315.38
3499.763	308.38
3502.646	297.38
3505.527	289.38
3508.405	283.38
3511.281	263.38
3514.155	250.38
3517.027	233.38
3519.897	235.38
3522.764	218.38
3525.629	201.38
3528.492	185.38
3531.352	182.38
3534.211	169.38
3537.067	165.38
3539.921	149.38
3542.773	141.38
3545.622	136.38
3548.469	122.38
3551.315	121.38
3554.157	121.38
3556.998	103.38
3559.837	94.38
3562.673	93.38
3565.507	85.38
3568.339	80.38
3571.169	71.38
3573.996	62.38
3576.822	58.38
3579.645	55.38
3582.466	44.38
3585.285	46.38
3588.101	51.38
3590.916	31.38
3593.728	25.38
3596.538	22.38
3599.346	25.38
3602.152	11.38
3604.956	9.38
3607.757	5.38
3610.556	-1.62
3613.354	-0.62
3616.149	-2.62
3618.942	-9.62
3621.732	-13.62
3624.521	-14.62
3627.307	-18.62
3630.092	-22.62
3632.874	-24.62
3635.654	-27.62
3638.432	-27.62
3641.208	-33.62
3643.982	-33.62
3646.753	-40.62
3649.523	-39.62
3652.29	-42.62
3655.055	-47.62
3657.818	-45.62
3660.579	-47.62
3663.338	-52.62
3666.095	-52.62
3668.849	-63.62
3671.602	-61.62
3674.352	-59.62
3677.101	-62.62
3679.847	-65.62
3682.591	-70.62
3685.333	-69.62
3688.073	-75.62
3690.811	-73.62
3693.547	-75.62
3696.281	-79.62
3699.013	-79.62
3701.742	-77.62
3704.47	-80.62
3707.195	-81.62
3709.919	-82.62
3712.64	-85.62
3715.359	-80.62
3718.076	-84.62
3720.792	-89.62
3723.505	-88.62
3726.216	-89.62
3728.925	-90.62
3731.632	-88.62
3734.336	-93.62
3737.039	-93.62
3739.74	-92.62
3742.439	-92.62
3745.136	-95.62
3747.83	-91.62
3750.523	-93.62
3753.213	-96.62
3755.902	-94.62
3758.589	-95.62
3761.273	-92.62
3763.956	-96.62
3766.636	-98.62
3769.315	-96.62
3771.991	-102.62
3774.665	-102.62
3777.338	-99.62
3780.008	-103.62
3782.677	-101.62
3785.343	-103.62
3788.007	-103.62
3790.67	-101.62
3793.33	-102.62
3795.989	-101.62
3798.645	-102.62
3801.299	-101.62
3803.952	-100.62
3806.602	-98.62
3809.251	-101.62
3811.897	-104.62
3814.542	-105.62
3817.184	-107.62
3819.825	-105.62
3822.463	-103.62
3825.1	-107.62
3827.735	-104.62
3830.367	-108.62
3832.998	-107.62
3835.627	-105.62
3838.253	-108.62
3840.878	-104.62
3843.501	-104.62
3846.122	-106.62
3848.741	-104.62
3851.358	-105.62
3853.973	-107.62
3856.586	-107.62
3859.197	-105.62
3861.806	-109.62
3864.414	-110.62
3867.019	-112.62
3869.622	-107.62
3872.224	-112.62
3874.823	-104.62
3877.421	-107.62
3880.016	-102.62
3882.61	-98.62
3885.202	-102.62
3887.792	-100.62
3890.38	-98.62
3892.966	-106.62
3895.55	-106.62
3898.132	-108.62
3900.713	-111.62
3903.291	-108.62
3905.868	-110.62
3908.442	-111.62
3911.015	-112.62
3913.586	-111.62
3916.155	-107.62
3918.722	-109.62
3921.287	-113.62
3923.85	-112.62
3926.411	-108.62
3928.971	-117.62
3931.528	-110.62
3934.084	-112.62
3936.638	-115.62
3939.19	-111.62
3941.74	-109.62
3944.288	-108.62
3946.834	-113.62
3949.378	-115.62
3951.921	-113.62
3954.462	-113.62
3957	-112.62
3959.537	-111.62
3962.072	-111.62
3964.606	-110.62
3967.137	-112.62
3969.667	-109.62
3972.194	-112.62
3974.72	-109.62
3977.244	-109.62
3979.766	-110.62
3982.286	-110.62
3984.805	-111.62
3987.321	-110.62
3989.836	-111.62
3992.349	-112.62
3994.86	-111.62
3997.369	-108.62
3999.877	-110.62
4002.382	-108.62
4004.886	-108.62
4007.388	-107.62
4009.888	-108.62
4012.386	-112.62
4014.883	-113.62
4017.377	-110.62
4019.87	-112.62
4022.361	-110.62
4024.85	-113.62
4027.338	-113.62
4029.823	-110.62
4032.307	-110.62
4034.789	-109.62
4037.269	-112.62
4039.747	-110.62
4042.224	-107.62
4044.699	-112.62
4047.172	-112.62
4049.643	-111.62
4052.112	-112.62
4054.58	-115.62
4057.046	-113.62
4059.51	-114.62
4061.972	-112.62
4064.432	-113.62
4066.891	-114.62
4069.348	-112.62
4071.803	-107.62
4074.256	-112.62
4076.708	-110.62
4079.158	-108.62
4081.606	-110.62
4084.052	-109.62
4086.497	-109.62
4088.939	-110.62
4091.38	-109.62
4093.819	-113.62
4096.257	-111.62
4098.693	-117.62
4101.127	-119.62
4103.559	-116.62
4105.989	-76.62
4108.418	-70.62
4110.845	-70.62
4113.27	-62.62
4115.694	-56.62
4118.115	-45.62
4120.535	-115.62
4122.954	-117.62
4125.37	-114.62
4127.785	-113.62
4130.198	-115.62
4132.609	-115.62
4135.019	-116.62
4137.427	-117.62
4139.833	-114.62
4142.237	-115.62
