Data from 100CFU2_B_RamanShift_1.txt Node
Date: Wed Jan 25 12:30:55 IST 2017
User: aro
Spectrometer: QEPB0276
Trigger mode: 0
Integration Time (sec): 5.000000E0
Scans to average: 1
Electric dark correction enabled: true
Nonlinearity correction enabled: false
Boxcar width: 0
XAxis mode: Raman Shifts
Number of Pixels in Spectrum: 1044
>>>>>Begin Spectral Data<<<<<
160.701	-33.62
166.742	-2.62
172.777	96.38
178.805	405.38
184.826	1121.38
190.841	2262.38
196.849	3552.38
202.85	4365.38
208.845	4553.38
214.833	4371.38
220.815	4234.38
226.789	4124.38
232.758	3966.38
238.719	3865.38
244.674	3693.38
250.623	3582.38
256.565	3400.38
262.5	3235.38
268.429	3103.38
274.351	2990.38
280.267	2873.38
286.176	2784.38
292.079	2677.38
297.975	2608.38
303.865	2498.38
309.748	2463.38
315.625	2404.38
321.495	2356.38
327.359	2324.38
333.217	2273.38
339.068	2274.38
344.912	2251.38
350.751	2242.38
356.583	2253.38
362.408	2236.38
368.227	2227.38
374.04	2247.38
379.847	2238.38
385.647	2252.38
391.44	2283.38
397.228	2296.38
403.009	2297.38
408.784	2298.38
414.553	2312.38
420.315	2333.38
426.071	2323.38
431.821	2333.38
437.565	2316.38
443.302	2311.38
449.033	2308.38
454.758	2294.38
460.477	2301.38
466.189	2295.38
471.896	2274.38
477.596	2246.38
483.29	2248.38
488.978	2228.38
494.66	2254.38
500.335	2189.38
506.005	2175.38
511.668	2108.38
517.325	2089.38
522.977	2048.38
528.622	2022.38
534.261	1997.38
539.894	2002.38
545.521	1957.38
551.141	1949.38
556.756	1956.38
562.365	1956.38
567.968	1940.38
573.565	1922.38
579.155	1912.38
584.74	1902.38
590.319	1877.38
595.892	1887.38
601.459	1865.38
607.02	1823.38
612.575	1826.38
618.124	1798.38
623.667	1788.38
629.204	1776.38
634.735	1747.38
640.261	1732.38
645.781	1739.38
651.294	1729.38
656.802	1727.38
662.304	1706.38
667.8	1710.38
673.29	1716.38
678.775	1697.38
684.254	1698.38
689.726	1695.38
695.193	1668.38
700.655	1667.38
706.11	1647.38
711.56	1645.38
717.004	1653.38
722.442	1626.38
727.874	1611.38
733.301	1612.38
738.722	1592.38
744.137	1570.38
749.547	1593.38
754.951	1583.38
760.349	1573.38
765.741	1577.38
771.128	1586.38
776.509	1587.38
781.885	1585.38
787.254	1580.38
792.618	1588.38
797.977	1559.38
803.33	1558.38
808.677	1538.38
814.019	1532.38
819.355	1510.38
824.686	1496.38
830.011	1485.38
835.33	1470.38
840.644	1479.38
845.952	1465.38
851.255	1462.38
856.552	1463.38
861.844	1430.38
867.13	1447.38
872.41	1431.38
877.686	1415.38
882.955	1409.38
888.219	1375.38
893.478	1366.38
898.731	1327.38
903.979	1323.38
909.221	1324.38
914.458	1324.38
919.69	1289.38
924.916	1309.38
930.136	1285.38
935.351	1289.38
940.561	1301.38
945.766	1280.38
950.965	1294.38
956.158	1261.38
961.347	1256.38
966.529	1235.38
971.707	1209.38
976.879	1213.38
982.046	1193.38
987.208	1194.38
992.364	1184.38
997.515	1205.38
1002.66	1202.38
1007.801	1209.38
1012.936	1241.38
1018.066	1234.38
1023.19	1252.38
1028.309	1243.38
1033.423	1250.38
1038.532	1244.38
1043.636	1235.38
1048.734	1200.38
1053.827	1202.38
1058.915	1213.38
1063.998	1176.38
1069.075	1181.38
1074.147	1197.38
1079.214	1194.38
1084.276	1217.38
1089.333	1200.38
1094.385	1211.38
1099.431	1228.38
1104.472	1218.38
1109.509	1218.38
1114.54	1205.38
1119.565	1194.38
1124.586	1179.38
1129.602	1161.38
1134.613	1152.38
1139.618	1155.38
1144.619	1166.38
1149.614	1161.38
1154.604	1184.38
1159.589	1180.38
1164.57	1171.38
1169.545	1177.38
1174.515	1186.38
1179.48	1184.38
1184.44	1174.38
1189.395	1162.38
1194.345	1166.38
1199.29	1153.38
1204.23	1163.38
1209.165	1177.38
1214.095	1175.38
1219.021	1180.38
1223.941	1200.38
1228.856	1202.38
1233.766	1214.38
1238.672	1203.38
1243.572	1201.38
1248.467	1194.38
1253.358	1181.38
1258.244	1169.38
1263.124	1155.38
1268	1137.38
1272.871	1118.38
1277.737	1114.38
1282.599	1127.38
1287.455	1119.38
1292.306	1131.38
1297.153	1117.38
1301.995	1129.38
1306.832	1148.38
1311.664	1145.38
1316.491	1156.38
1321.314	1144.38
1326.132	1119.38
1330.945	1143.38
1335.753	1117.38
1340.556	1101.38
1345.354	1103.38
1350.148	1089.38
1354.937	1079.38
1359.722	1073.38
1364.501	1062.38
1369.276	1071.38
1374.046	1053.38
1378.811	1037.38
1383.572	1025.38
1388.327	1048.38
1393.079	1038.38
1397.825	1034.38
1402.567	1018.38
1407.304	1005.38
1412.036	1014.38
1416.764	1008.38
1421.487	1016.38
1426.205	1012.38
1430.919	1032.38
1435.628	1038.38
1440.333	1037.38
1445.032	1062.38
1449.727	1058.38
1454.418	1062.38
1459.104	1076.38
1463.785	1056.38
1468.462	1050.38
1473.134	1027.38
1477.802	1032.38
1482.465	1027.38
1487.123	1018.38
1491.777	1036.38
1496.426	1023.38
1501.071	1049.38
1505.711	1057.38
1510.347	1065.38
1514.978	1078.38
1519.604	1088.38
1524.226	1066.38
1528.844	1089.38
1533.457	1078.38
1538.065	1080.38
1542.669	1079.38
1547.269	1082.38
1551.864	1078.38
1556.454	1095.38
1561.041	1094.38
1565.622	1110.38
1570.199	1126.38
1574.772	1141.38
1579.34	1171.38
1583.904	1180.38
1588.464	1210.38
1593.019	1214.38
1597.569	1215.38
1602.115	1248.38
1606.657	1250.38
1611.195	1259.38
1615.728	1255.38
1620.256	1276.38
1624.78	1305.38
1629.3	1315.38
1633.816	1340.38
1638.327	1365.38
1642.834	1375.38
1647.336	1384.38
1651.834	1410.38
1656.328	1381.38
1660.817	1355.38
1665.302	1378.38
1669.783	1321.38
1674.259	1307.38
1678.732	1242.38
1683.199	1232.38
1687.663	1178.38
1692.122	1135.38
1696.577	1100.38
1701.028	1058.38
1705.474	1015.38
1709.917	989.38
1714.355	961.38
1718.788	942.38
1723.218	931.38
1727.643	910.38
1732.064	895.38
1736.481	875.38
1740.893	858.38
1745.301	840.38
1749.705	818.38
1754.105	796.38
1758.501	774.38
1762.893	771.38
1767.28	764.38
1771.663	741.38
1776.042	745.38
1780.417	752.38
1784.787	748.38
1789.154	755.38
1793.516	750.38
1797.874	753.38
1802.228	729.38
1806.578	716.38
1810.924	713.38
1815.266	695.38
1819.603	698.38
1823.937	685.38
1828.266	676.38
1832.591	673.38
1836.913	669.38
1841.23	669.38
1845.543	667.38
1849.852	667.38
1854.156	684.38
1858.457	670.38
1862.754	682.38
1867.047	683.38
1871.335	690.38
1875.62	695.38
1879.9	689.38
1884.177	691.38
1888.449	694.38
1892.718	685.38
1896.982	682.38
1901.243	690.38
1905.499	676.38
1909.752	684.38
1914	685.38
1918.245	669.38
1922.485	672.38
1926.722	691.38
1930.954	683.38
1935.183	679.38
1939.408	704.38
1943.628	679.38
1947.845	699.38
1952.058	692.38
1956.267	686.38
1960.472	674.38
1964.673	675.38
1968.87	652.38
1973.063	662.38
1977.252	655.38
1981.438	638.38
1985.619	651.38
1989.797	655.38
1993.971	654.38
1998.14	653.38
2002.306	650.38
2006.469	658.38
2010.627	666.38
2014.781	657.38
2018.932	653.38
2023.078	661.38
2027.221	659.38
2031.36	648.38
2035.495	630.38
2039.627	644.38
2043.754	640.38
2047.878	633.38
2051.998	638.38
2056.114	647.38
2060.226	649.38
2064.334	647.38
2068.439	641.38
2072.54	654.38
2076.637	657.38
2080.73	655.38
2084.82	662.38
2088.906	655.38
2092.988	667.38
2097.066	658.38
2101.14	667.38
2105.211	654.38
2109.278	645.38
2113.342	641.38
2117.401	642.38
2121.457	632.38
2125.509	624.38
2129.558	623.38
2133.602	621.38
2137.643	623.38
2141.681	626.38
2145.714	612.38
2149.744	619.38
2153.77	620.38
2157.793	611.38
2161.812	596.38
2165.827	590.38
2169.838	586.38
2173.846	573.38
2177.851	576.38
2181.851	565.38
2185.848	554.38
2189.841	557.38
2193.831	551.38
2197.817	544.38
2201.799	535.38
2205.778	542.38
2209.753	530.38
2213.725	528.38
2217.693	527.38
2221.657	544.38
2225.618	539.38
2229.575	538.38
2233.529	528.38
2237.479	522.38
2241.425	510.38
2245.368	506.38
2249.307	514.38
2253.243	499.38
2257.175	493.38
2261.104	484.38
2265.029	478.38
2268.95	477.38
2272.868	464.38
2276.783	459.38
2280.694	447.38
2284.601	452.38
2288.505	443.38
2292.405	431.38
2296.302	429.38
2300.195	430.38
2304.085	420.38
2307.971	419.38
2311.854	413.38
2315.734	397.38
2319.609	395.38
2323.482	386.38
2327.351	387.38
2331.216	388.38
2335.078	386.38
2338.937	381.38
2342.792	370.38
2346.643	369.38
2350.492	377.38
2354.336	374.38
2358.178	377.38
2362.015	379.38
2365.85	379.38
2369.681	368.38
2373.508	378.38
2377.333	376.38
2381.153	381.38
2384.971	378.38
2388.785	367.38
2392.595	372.38
2396.402	364.38
2400.206	373.38
2404.007	362.38
2407.804	359.38
2411.597	353.38
2415.388	353.38
2419.174	356.38
2422.958	366.38
2426.738	356.38
2430.515	356.38
2434.289	359.38
2438.059	350.38
2441.825	349.38
2445.589	351.38
2449.349	347.38
2453.106	347.38
2456.859	336.38
2460.61	336.38
2464.356	337.38
2468.1	335.38
2471.84	326.38
2475.577	328.38
2479.311	322.38
2483.041	327.38
2486.768	333.38
2490.492	340.38
2494.213	318.38
2497.93	321.38
2501.644	328.38
2505.355	329.38
2509.062	337.38
2512.766	328.38
2516.467	318.38
2520.165	324.38
2523.859	315.38
2527.551	315.38
2531.239	313.38
2534.923	309.38
2538.605	306.38
2542.283	303.38
2545.958	301.38
2549.63	305.38
2553.299	309.38
2556.964	299.38
2560.626	293.38
2564.285	293.38
2567.941	288.38
2571.594	290.38
2575.243	300.38
2578.89	287.38
2582.533	284.38
2586.173	277.38
2589.809	285.38
2593.443	282.38
2597.073	279.38
2600.701	268.38
2604.325	270.38
2607.946	264.38
2611.564	265.38
2615.178	274.38
2618.79	267.38
2622.398	264.38
2626.004	264.38
2629.606	262.38
2633.205	258.38
2636.801	259.38
2640.394	257.38
2643.983	256.38
2647.57	249.38
2651.153	256.38
2654.734	243.38
2658.311	244.38
2661.885	234.38
2665.456	242.38
2669.025	227.38
2672.589	231.38
2676.151	234.38
2679.71	230.38
2683.266	230.38
2686.819	230.38
2690.368	226.38
2693.915	218.38
2697.458	213.38
2700.999	218.38
2704.536	217.38
2708.071	215.38
2711.602	209.38
2715.13	211.38
2718.656	209.38
2722.178	210.38
2725.697	201.38
2729.214	220.38
2732.727	214.38
2736.237	214.38
2739.744	211.38
2743.249	221.38
2746.75	219.38
2750.248	215.38
2753.743	217.38
2757.236	217.38
2760.725	216.38
2764.211	207.38
2767.695	208.38
2771.175	203.38
2774.652	202.38
2778.127	194.38
2781.598	202.38
2785.067	196.38
2788.532	202.38
2791.995	204.38
2795.455	206.38
2798.911	212.38
2802.365	207.38
2805.816	201.38
2809.264	205.38
2812.709	211.38
2816.151	206.38
2819.59	209.38
2823.026	201.38
2826.46	201.38
2829.89	217.38
2833.318	205.38
2836.742	215.38
2840.164	210.38
2843.583	219.38
2846.999	225.38
2850.412	215.38
2853.822	220.38
2857.229	228.38
2860.634	233.38
2864.035	227.38
2867.434	226.38
2870.83	233.38
2874.223	239.38
2877.613	237.38
2881	238.38
2884.385	239.38
2887.766	237.38
2891.145	233.38
2894.521	243.38
2897.894	238.38
2901.264	245.38
2904.631	249.38
2907.996	252.38
2911.358	259.38
2914.717	246.38
2918.073	258.38
2921.426	252.38
2924.777	268.38
2928.124	272.38
2931.469	264.38
2934.811	277.38
2938.15	278.38
2941.487	285.38
2944.821	286.38
2948.152	289.38
2951.48	297.38
2954.805	305.38
2958.128	302.38
2961.447	315.38
2964.765	319.38
2968.079	321.38
2971.39	333.38
2974.699	344.38
2978.005	342.38
2981.308	362.38
2984.609	366.38
2987.907	370.38
2991.202	395.38
2994.494	404.38
2997.784	408.38
3001.07	418.38
3004.355	416.38
3007.636	435.38
3010.915	433.38
3014.191	449.38
3017.464	476.38
3020.734	461.38
3024.002	470.38
3027.267	480.38
3030.53	496.38
3033.789	498.38
3037.046	518.38
3040.301	524.38
3043.552	541.38
3046.801	542.38
3050.048	554.38
3053.291	574.38
3056.532	580.38
3059.771	612.38
3063.006	627.38
3066.239	657.38
3069.469	667.38
3072.697	705.38
3075.922	702.38
3079.144	728.38
3082.364	738.38
3085.581	768.38
3088.795	779.38
3092.007	786.38
3095.216	812.38
3098.423	830.38
3101.627	851.38
3104.828	862.38
3108.026	878.38
3111.222	905.38
3114.416	924.38
3117.607	940.38
3120.795	964.38
3123.98	993.38
3127.163	1016.38
3130.344	1030.38
3133.521	1064.38
3136.696	1072.38
3139.869	1101.38
3143.039	1111.38
3146.206	1139.38
3149.371	1134.38
3152.533	1156.38
3155.693	1170.38
3158.85	1177.38
3162.005	1180.38
3165.157	1194.38
3168.306	1203.38
3171.453	1196.38
3174.597	1208.38
3177.739	1215.38
3180.878	1202.38
3184.014	1209.38
3187.149	1212.38
3190.28	1223.38
3193.409	1225.38
3196.536	1228.38
3199.659	1238.38
3202.781	1241.38
3205.9	1235.38
3209.016	1243.38
3212.13	1238.38
3215.241	1232.38
3218.35	1219.38
3221.456	1222.38
3224.56	1201.38
3227.661	1190.38
3230.76	1176.38
3233.856	1174.38
3236.95	1164.38
3240.041	1153.38
3243.13	1150.38
3246.216	1124.38
3249.3	1146.38
3252.382	1100.38
3255.46	1096.38
3258.537	1119.38
3261.611	1112.38
3264.682	1103.38
3267.751	1098.38
3270.818	1092.38
3273.882	1085.38
3276.943	1083.38
3280.002	1062.38
3283.059	1064.38
3286.113	1048.38
3289.165	1034.38
3292.214	1022.38
3295.261	1013.38
3298.306	999.38
3301.348	968.38
3304.387	954.38
3307.425	960.38
3310.459	928.38
3313.492	929.38
3316.521	908.38
3319.549	905.38
3322.574	897.38
3325.597	884.38
3328.617	894.38
3331.635	879.38
3334.65	868.38
3337.663	874.38
3340.674	875.38
3343.682	860.38
3346.688	861.38
3349.691	849.38
3352.692	853.38
3355.691	846.38
3358.687	831.38
3361.681	824.38
3364.673	803.38
3367.662	801.38
3370.649	798.38
3373.633	779.38
3376.615	763.38
3379.595	781.38
3382.572	751.38
3385.547	745.38
3388.52	729.38
3391.49	726.38
3394.458	715.38
3397.424	702.38
3400.387	692.38
3403.348	694.38
3406.307	686.38
3409.263	679.38
3412.217	658.38
3415.168	660.38
3418.118	661.38
3421.065	646.38
3424.009	639.38
3426.951	633.38
3429.891	622.38
3432.829	607.38
3435.764	604.38
3438.697	585.38
3441.628	558.38
3444.557	555.38
3447.483	548.38
3450.407	531.38
3453.328	521.38
3456.247	495.38
3459.164	472.38
3462.079	465.38
3464.991	448.38
3467.902	439.38
3470.809	427.38
3473.715	405.38
3476.618	393.38
3479.519	388.38
3482.418	368.38
3485.315	369.38
3488.209	355.38
3491.101	346.38
3493.99	338.38
3496.878	330.38
3499.763	327.38
3502.646	307.38
3505.527	295.38
3508.405	282.38
3511.281	276.38
3514.155	256.38
3517.027	253.38
3519.897	235.38
3522.764	216.38
3525.629	206.38
3528.492	195.38
3531.352	182.38
3534.211	179.38
3537.067	169.38
3539.921	160.38
3542.773	147.38
3545.622	148.38
3548.469	136.38
3551.315	124.38
3554.157	119.38
3556.998	109.38
3559.837	104.38
3562.673	97.38
3565.507	87.38
3568.339	86.38
3571.169	74.38
3573.996	69.38
3576.822	62.38
3579.645	66.38
3582.466	46.38
3585.285	49.38
3588.101	45.38
3590.916	43.38
3593.728	35.38
3596.538	28.38
3599.346	22.38
3602.152	21.38
3604.956	14.38
3607.757	9.38
3610.556	3.38
3613.354	-0.62
3616.149	-5.62
3618.942	-12.62
3621.732	-15.62
3624.521	-16.62
3627.307	-13.62
3630.092	-19.62
3632.874	-25.62
3635.654	-25.62
3638.432	-26.62
3641.208	-30.62
3643.982	-32.62
3646.753	-33.62
3649.523	-38.62
3652.29	-35.62
3655.055	-43.62
3657.818	-45.62
3660.579	-48.62
3663.338	-51.62
3666.095	-51.62
3668.849	-58.62
3671.602	-61.62
3674.352	-60.62
3677.101	-63.62
3679.847	-63.62
3682.591	-69.62
3685.333	-64.62
3688.073	-72.62
3690.811	-70.62
3693.547	-76.62
3696.281	-73.62
3699.013	-77.62
3701.742	-74.62
3704.47	-82.62
3707.195	-83.62
3709.919	-81.62
3712.64	-87.62
3715.359	-84.62
3718.076	-86.62
3720.792	-86.62
3723.505	-87.62
3726.216	-88.62
3728.925	-91.62
3731.632	-89.62
3734.336	-93.62
3737.039	-88.62
3739.74	-89.62
3742.439	-88.62
3745.136	-91.62
3747.83	-93.62
3750.523	-90.62
3753.213	-96.62
3755.902	-97.62
3758.589	-96.62
3761.273	-93.62
3763.956	-96.62
3766.636	-99.62
3769.315	-95.62
3771.991	-98.62
3774.665	-100.62
3777.338	-98.62
3780.008	-98.62
3782.677	-96.62
3785.343	-100.62
3788.007	-96.62
3790.67	-99.62
3793.33	-99.62
3795.989	-101.62
3798.645	-98.62
3801.299	-100.62
3803.952	-103.62
3806.602	-102.62
3809.251	-102.62
3811.897	-103.62
3814.542	-101.62
3817.184	-104.62
3819.825	-102.62
3822.463	-104.62
3825.1	-104.62
3827.735	-102.62
3830.367	-103.62
3832.998	-109.62
3835.627	-103.62
3838.253	-101.62
3840.878	-102.62
3843.501	-105.62
3846.122	-109.62
3848.741	-103.62
3851.358	-105.62
3853.973	-106.62
3856.586	-107.62
3859.197	-105.62
3861.806	-106.62
3864.414	-104.62
3867.019	-107.62
3869.622	-105.62
3872.224	-106.62
3874.823	-104.62
3877.421	-101.62
3880.016	-98.62
3882.61	-95.62
3885.202	-97.62
3887.792	-97.62
3890.38	-105.62
3892.966	-107.62
3895.55	-107.62
3898.132	-107.62
3900.713	-109.62
3903.291	-107.62
3905.868	-108.62
3908.442	-110.62
3911.015	-109.62
3913.586	-108.62
3916.155	-104.62
3918.722	-107.62
3921.287	-112.62
3923.85	-110.62
3926.411	-109.62
3928.971	-116.62
3931.528	-111.62
3934.084	-115.62
3936.638	-115.62
3939.19	-114.62
3941.74	-108.62
3944.288	-110.62
3946.834	-112.62
3949.378	-111.62
3951.921	-111.62
3954.462	-113.62
3957	-113.62
3959.537	-112.62
3962.072	-109.62
3964.606	-108.62
3967.137	-109.62
3969.667	-109.62
3972.194	-110.62
3974.72	-107.62
3977.244	-106.62
3979.766	-109.62
3982.286	-112.62
3984.805	-112.62
3987.321	-110.62
3989.836	-109.62
3992.349	-110.62
3994.86	-106.62
3997.369	-105.62
3999.877	-106.62
4002.382	-107.62
4004.886	-106.62
4007.388	-105.62
4009.888	-106.62
4012.386	-111.62
4014.883	-112.62
4017.377	-110.62
4019.87	-112.62
4022.361	-109.62
4024.85	-113.62
4027.338	-113.62
4029.823	-109.62
4032.307	-109.62
4034.789	-112.62
4037.269	-113.62
4039.747	-111.62
4042.224	-109.62
4044.699	-111.62
4047.172	-108.62
4049.643	-109.62
4052.112	-111.62
4054.58	-110.62
4057.046	-111.62
4059.51	-112.62
4061.972	-114.62
4064.432	-114.62
4066.891	-115.62
4069.348	-112.62
4071.803	-109.62
4074.256	-112.62
4076.708	-109.62
4079.158	-109.62
4081.606	-108.62
4084.052	-107.62
4086.497	-109.62
4088.939	-105.62
4091.38	-109.62
4093.819	-111.62
4096.257	-113.62
4098.693	-113.62
4101.127	-114.62
4103.559	-115.62
4105.989	-73.62
4108.418	-70.62
4110.845	-67.62
4113.27	-63.62
4115.694	-59.62
4118.115	-50.62
4120.535	-111.62
4122.954	-115.62
4125.37	-113.62
4127.785	-113.62
4130.198	-115.62
4132.609	-114.62
4135.019	-117.62
4137.427	-117.62
4139.833	-114.62
4142.237	-115.62
