Data from 100CFU1_A_RamanShift_1.txt Node
Date: Wed Jan 25 11:49:36 IST 2017
User: aro
Spectrometer: QEPB0276
Trigger mode: 0
Integration Time (sec): 5.000000E0
Scans to average: 1
Electric dark correction enabled: true
Nonlinearity correction enabled: false
Boxcar width: 0
XAxis mode: Raman Shifts
Number of Pixels in Spectrum: 1044
>>>>>Begin Spectral Data<<<<<
160.701	-37.62
166.742	-2.62
172.777	104.38
178.805	413.38
184.826	1128.38
190.841	2312.38
196.849	3579.38
202.85	4372.38
208.845	4523.38
214.833	4374.38
220.815	4225.38
226.789	4092.38
232.758	3986.38
238.719	3858.38
244.674	3722.38
250.623	3559.38
256.565	3411.38
262.5	3240.38
268.429	3102.38
274.351	3014.38
280.267	2876.38
286.176	2789.38
292.079	2687.38
297.975	2619.38
303.865	2540.38
309.748	2447.38
315.625	2412.38
321.495	2350.38
327.359	2289.38
333.217	2298.38
339.068	2281.38
344.912	2286.38
350.751	2244.38
356.583	2236.38
362.408	2243.38
368.227	2242.38
374.04	2241.38
379.847	2249.38
385.647	2259.38
391.44	2277.38
397.228	2291.38
403.009	2310.38
408.784	2323.38
414.553	2329.38
420.315	2335.38
426.071	2344.38
431.821	2333.38
437.565	2317.38
443.302	2327.38
449.033	2323.38
454.758	2309.38
460.477	2293.38
466.189	2280.38
471.896	2259.38
477.596	2273.38
483.29	2258.38
488.978	2236.38
494.66	2244.38
500.335	2194.38
506.005	2158.38
511.668	2132.38
517.325	2098.38
522.977	2057.38
528.622	2033.38
534.261	2003.38
539.894	1982.38
545.521	1977.38
551.141	1982.38
556.756	1959.38
562.365	1943.38
567.968	1953.38
573.565	1916.38
579.155	1896.38
584.74	1893.38
590.319	1891.38
595.892	1888.38
601.459	1856.38
607.02	1847.38
612.575	1840.38
618.124	1819.38
623.667	1809.38
629.204	1790.38
634.735	1774.38
640.261	1756.38
645.781	1729.38
651.294	1736.38
656.802	1736.38
662.304	1730.38
667.8	1722.38
673.29	1718.38
678.775	1721.38
684.254	1710.38
689.726	1696.38
695.193	1700.38
700.655	1682.38
706.11	1667.38
711.56	1660.38
717.004	1642.38
722.442	1646.38
727.874	1623.38
733.301	1618.38
738.722	1629.38
744.137	1607.38
749.547	1602.38
754.951	1611.38
760.349	1588.38
765.741	1605.38
771.128	1584.38
776.509	1607.38
781.885	1601.38
787.254	1603.38
792.618	1592.38
797.977	1578.38
803.33	1567.38
808.677	1541.38
814.019	1538.38
819.355	1516.38
824.686	1512.38
830.011	1512.38
835.33	1518.38
840.644	1495.38
845.952	1476.38
851.255	1478.38
856.552	1478.38
861.844	1470.38
867.13	1457.38
872.41	1437.38
877.686	1437.38
882.955	1431.38
888.219	1400.38
893.478	1389.38
898.731	1371.38
903.979	1334.38
909.221	1334.38
914.458	1316.38
919.69	1316.38
924.916	1306.38
930.136	1310.38
935.351	1310.38
940.561	1322.38
945.766	1304.38
950.965	1301.38
956.158	1302.38
961.347	1287.38
966.529	1254.38
971.707	1232.38
976.879	1219.38
982.046	1205.38
987.208	1203.38
992.364	1211.38
997.515	1209.38
1002.66	1221.38
1007.801	1224.38
1012.936	1243.38
1018.066	1247.38
1023.19	1269.38
1028.309	1256.38
1033.423	1266.38
1038.532	1248.38
1043.636	1245.38
1048.734	1224.38
1053.827	1216.38
1058.915	1214.38
1063.998	1211.38
1069.075	1205.38
1074.147	1196.38
1079.214	1210.38
1084.276	1237.38
1089.333	1229.38
1094.385	1243.38
1099.431	1252.38
1104.472	1239.38
1109.509	1242.38
1114.54	1221.38
1119.565	1188.38
1124.586	1200.38
1129.602	1193.38
1134.613	1186.38
1139.618	1187.38
1144.619	1179.38
1149.614	1175.38
1154.604	1193.38
1159.589	1195.38
1164.57	1207.38
1169.545	1192.38
1174.515	1202.38
1179.48	1197.38
1184.44	1199.38
1189.395	1184.38
1194.345	1182.38
1199.29	1182.38
1204.23	1172.38
1209.165	1176.38
1214.095	1182.38
1219.021	1194.38
1223.941	1213.38
1228.856	1219.38
1233.766	1224.38
1238.672	1232.38
1243.572	1217.38
1248.467	1206.38
1253.358	1191.38
1258.244	1180.38
1263.124	1181.38
1268	1154.38
1272.871	1143.38
1277.737	1138.38
1282.599	1126.38
1287.455	1136.38
1292.306	1146.38
1297.153	1139.38
1301.995	1142.38
1306.832	1159.38
1311.664	1169.38
1316.491	1167.38
1321.314	1163.38
1326.132	1151.38
1330.945	1154.38
1335.753	1136.38
1340.556	1120.38
1345.354	1114.38
1350.148	1096.38
1354.937	1110.38
1359.722	1076.38
1364.501	1063.38
1369.276	1080.38
1374.046	1052.38
1378.811	1043.38
1383.572	1064.38
1388.327	1044.38
1393.079	1036.38
1397.825	1043.38
1402.567	1043.38
1407.304	1024.38
1412.036	1025.38
1416.764	1016.38
1421.487	1043.38
1426.205	1028.38
1430.919	1027.38
1435.628	1050.38
1440.333	1070.38
1445.032	1071.38
1449.727	1069.38
1454.418	1080.38
1459.104	1084.38
1463.785	1080.38
1468.462	1074.38
1473.134	1048.38
1477.802	1051.38
1482.465	1053.38
1487.123	1038.38
1491.777	1039.38
1496.426	1045.38
1501.071	1047.38
1505.711	1051.38
1510.347	1067.38
1514.978	1083.38
1519.604	1100.38
1524.226	1087.38
1528.844	1111.38
1533.457	1101.38
1538.065	1079.38
1542.669	1086.38
1547.269	1091.38
1551.864	1098.38
1556.454	1093.38
1561.041	1119.38
1565.622	1119.38
1570.199	1130.38
1574.772	1149.38
1579.34	1163.38
1583.904	1187.38
1588.464	1204.38
1593.019	1220.38
1597.569	1229.38
1602.115	1240.38
1606.657	1257.38
1611.195	1267.38
1615.728	1280.38
1620.256	1291.38
1624.78	1307.38
1629.3	1323.38
1633.816	1342.38
1638.327	1364.38
1642.834	1381.38
1647.336	1390.38
1651.834	1389.38
1656.328	1393.38
1660.817	1382.38
1665.302	1368.38
1669.783	1337.38
1674.259	1304.38
1678.732	1262.38
1683.199	1225.38
1687.663	1197.38
1692.122	1150.38
1696.577	1106.38
1701.028	1071.38
1705.474	1021.38
1709.917	989.38
1714.355	982.38
1718.788	968.38
1723.218	944.38
1727.643	914.38
1732.064	900.38
1736.481	882.38
1740.893	853.38
1745.301	839.38
1749.705	820.38
1754.105	803.38
1758.501	775.38
1762.893	764.38
1767.28	755.38
1771.663	761.38
1776.042	753.38
1780.417	755.38
1784.787	761.38
1789.154	756.38
1793.516	749.38
1797.874	760.38
1802.228	742.38
1806.578	746.38
1810.924	721.38
1815.266	691.38
1819.603	699.38
1823.937	705.38
1828.266	678.38
1832.591	684.38
1836.913	675.38
1841.23	678.38
1845.543	675.38
1849.852	678.38
1854.156	679.38
1858.457	685.38
1862.754	699.38
1867.047	691.38
1871.335	700.38
1875.62	705.38
1879.9	703.38
1884.177	692.38
1888.449	695.38
1892.718	679.38
1896.982	684.38
1901.243	690.38
1905.499	691.38
1909.752	689.38
1914	683.38
1918.245	687.38
1922.485	682.38
1926.722	691.38
1930.954	682.38
1935.183	682.38
1939.408	684.38
1943.628	691.38
1947.845	710.38
1952.058	701.38
1956.267	679.38
1960.472	684.38
1964.673	679.38
1968.87	665.38
1973.063	650.38
1977.252	658.38
1981.438	652.38
1985.619	647.38
1989.797	650.38
1993.971	653.38
1998.14	657.38
2002.306	657.38
2006.469	650.38
2010.627	656.38
2014.781	652.38
2018.932	666.38
2023.078	670.38
2027.221	666.38
2031.36	654.38
2035.495	655.38
2039.627	648.38
2043.754	640.38
2047.878	635.38
2051.998	637.38
2056.114	641.38
2060.226	641.38
2064.334	649.38
2068.439	653.38
2072.54	650.38
2076.637	655.38
2080.73	659.38
2084.82	663.38
2088.906	669.38
2092.988	659.38
2097.066	662.38
2101.14	646.38
2105.211	649.38
2109.278	649.38
2113.342	634.38
2117.401	641.38
2121.457	635.38
2125.509	632.38
2129.558	619.38
2133.602	628.38
2137.643	624.38
2141.681	626.38
2145.714	618.38
2149.744	621.38
2153.77	615.38
2157.793	619.38
2161.812	590.38
2165.827	596.38
2169.838	587.38
2173.846	581.38
2177.851	577.38
2181.851	571.38
2185.848	555.38
2189.841	555.38
2193.831	542.38
2197.817	549.38
2201.799	552.38
2205.778	535.38
2209.753	540.38
2213.725	535.38
2217.693	545.38
2221.657	542.38
2225.618	534.38
2229.575	538.38
2233.529	536.38
2237.479	523.38
2241.425	513.38
2245.368	511.38
2249.307	494.38
2253.243	497.38
2257.175	496.38
2261.104	476.38
2265.029	489.38
2268.95	461.38
2272.868	468.38
2276.783	462.38
2280.694	461.38
2284.601	456.38
2288.505	444.38
2292.405	443.38
2296.302	429.38
2300.195	435.38
2304.085	422.38
2307.971	421.38
2311.854	408.38
2315.734	409.38
2319.609	390.38
2323.482	393.38
2327.351	385.38
2331.216	392.38
2335.078	386.38
2338.937	375.38
2342.792	374.38
2346.643	364.38
2350.492	375.38
2354.336	369.38
2358.178	367.38
2362.015	360.38
2365.85	369.38
2369.681	382.38
2373.508	372.38
2377.333	381.38
2381.153	368.38
2384.971	369.38
2388.785	375.38
2392.595	367.38
2396.402	364.38
2400.206	365.38
2404.007	364.38
2407.804	356.38
2411.597	365.38
2415.388	358.38
2419.174	356.38
2422.958	363.38
2426.738	360.38
2430.515	354.38
2434.289	350.38
2438.059	348.38
2441.825	354.38
2445.589	351.38
2449.349	349.38
2453.106	342.38
2456.859	342.38
2460.61	337.38
2464.356	331.38
2468.1	330.38
2471.84	329.38
2475.577	333.38
2479.311	322.38
2483.041	330.38
2486.768	327.38
2490.492	319.38
2494.213	333.38
2497.93	322.38
2501.644	327.38
2505.355	325.38
2509.062	327.38
2512.766	327.38
2516.467	320.38
2520.165	323.38
2523.859	320.38
2527.551	315.38
2531.239	309.38
2534.923	307.38
2538.605	304.38
2542.283	298.38
2545.958	305.38
2549.63	302.38
2553.299	292.38
2556.964	292.38
2560.626	295.38
2564.285	299.38
2567.941	296.38
2571.594	292.38
2575.243	288.38
2578.89	284.38
2582.533	288.38
2586.173	280.38
2589.809	289.38
2593.443	279.38
2597.073	272.38
2600.701	274.38
2604.325	270.38
2607.946	272.38
2611.564	274.38
2615.178	266.38
2618.79	260.38
2622.398	261.38
2626.004	272.38
2629.606	259.38
2633.205	258.38
2636.801	260.38
2640.394	255.38
2643.983	254.38
2647.57	246.38
2651.153	252.38
2654.734	236.38
2658.311	232.38
2661.885	233.38
2665.456	230.38
2669.025	240.38
2672.589	236.38
2676.151	238.38
2679.71	232.38
2683.266	228.38
2686.819	234.38
2690.368	227.38
2693.915	227.38
2697.458	221.38
2700.999	218.38
2704.536	208.38
2708.071	214.38
2711.602	212.38
2715.13	215.38
2718.656	206.38
2722.178	210.38
2725.697	206.38
2729.214	212.38
2732.727	213.38
2736.237	215.38
2739.744	219.38
2743.249	215.38
2746.75	214.38
2750.248	211.38
2753.743	214.38
2757.236	212.38
2760.725	211.38
2764.211	213.38
2767.695	211.38
2771.175	200.38
2774.652	205.38
2778.127	202.38
2781.598	199.38
2785.067	199.38
2788.532	195.38
2791.995	198.38
2795.455	203.38
2798.911	211.38
2802.365	206.38
2805.816	205.38
2809.264	205.38
2812.709	206.38
2816.151	207.38
2819.59	211.38
2823.026	205.38
2826.46	202.38
2829.89	200.38
2833.318	212.38
2836.742	209.38
2840.164	208.38
2843.583	207.38
2846.999	221.38
2850.412	218.38
2853.822	217.38
2857.229	227.38
2860.634	219.38
2864.035	221.38
2867.434	230.38
2870.83	227.38
2874.223	250.38
2877.613	239.38
2881	234.38
2884.385	244.38
2887.766	238.38
2891.145	238.38
2894.521	228.38
2897.894	238.38
2901.264	241.38
2904.631	252.38
2907.996	251.38
2911.358	248.38
2914.717	245.38
2918.073	253.38
2921.426	263.38
2924.777	255.38
2928.124	271.38
2931.469	275.38
2934.811	278.38
2938.15	284.38
2941.487	284.38
2944.821	282.38
2948.152	290.38
2951.48	291.38
2954.805	297.38
2958.128	304.38
2961.447	308.38
2964.765	313.38
2968.079	321.38
2971.39	324.38
2974.699	338.38
2978.005	341.38
2981.308	357.38
2984.609	353.38
2987.907	374.38
2991.202	371.38
2994.494	397.38
2997.784	399.38
3001.07	413.38
3004.355	417.38
3007.636	444.38
3010.915	439.38
3014.191	450.38
3017.464	458.38
3020.734	464.38
3024.002	470.38
3027.267	473.38
3030.53	505.38
3033.789	505.38
3037.046	518.38
3040.301	516.38
3043.552	516.38
3046.801	537.38
3050.048	555.38
3053.291	565.38
3056.532	577.38
3059.771	599.38
3063.006	624.38
3066.239	631.38
3069.469	662.38
3072.697	695.38
3075.922	696.38
3079.144	716.38
3082.364	739.38
3085.581	753.38
3088.795	778.38
3092.007	794.38
3095.216	793.38
3098.423	827.38
3101.627	837.38
3104.828	860.38
3108.026	862.38
3111.222	888.38
3114.416	897.38
3117.607	922.38
3120.795	955.38
3123.98	966.38
3127.163	991.38
3130.344	1021.38
3133.521	1037.38
3136.696	1071.38
3139.869	1072.38
3143.039	1112.38
3146.206	1115.38
3149.371	1142.38
3152.533	1136.38
3155.693	1144.38
3158.85	1156.38
3162.005	1174.38
3165.157	1169.38
3168.306	1170.38
3171.453	1185.38
3174.597	1196.38
3177.739	1187.38
3180.878	1194.38
3184.014	1209.38
3187.149	1213.38
3190.28	1219.38
3193.409	1206.38
3196.536	1209.38
3199.659	1218.38
3202.781	1207.38
3205.9	1228.38
3209.016	1203.38
3212.13	1218.38
3215.241	1221.38
3218.35	1204.38
3221.456	1203.38
3224.56	1178.38
3227.661	1180.38
3230.76	1155.38
3233.856	1162.38
3236.95	1137.38
3240.041	1137.38
3243.13	1126.38
3246.216	1113.38
3249.3	1109.38
3252.382	1111.38
3255.46	1102.38
3258.537	1096.38
3261.611	1079.38
3264.682	1087.38
3267.751	1067.38
3270.818	1080.38
3273.882	1075.38
3276.943	1065.38
3280.002	1071.38
3283.059	1038.38
3286.113	1034.38
3289.165	1013.38
3292.214	1002.38
3295.261	989.38
3298.306	967.38
3301.348	962.38
3304.387	950.38
3307.425	938.38
3310.459	915.38
3313.492	895.38
3316.521	896.38
3319.549	892.38
3322.574	875.38
3325.597	869.38
3328.617	858.38
3331.635	866.38
3334.65	853.38
3337.663	848.38
3340.674	845.38
3343.682	848.38
3346.688	844.38
3349.691	834.38
3352.692	834.38
3355.691	818.38
3358.687	816.38
3361.681	805.38
3364.673	810.38
3367.662	794.38
3370.649	778.38
3373.633	765.38
3376.615	752.38
3379.595	749.38
3382.572	744.38
3385.547	729.38
3388.52	730.38
3391.49	711.38
3394.458	712.38
3397.424	701.38
3400.387	683.38
3403.348	675.38
3406.307	669.38
3409.263	658.38
3412.217	660.38
3415.168	638.38
3418.118	633.38
3421.065	633.38
3424.009	630.38
3426.951	607.38
3429.891	601.38
3432.829	585.38
3435.764	595.38
3438.697	577.38
3441.628	558.38
3444.557	534.38
3447.483	530.38
3450.407	512.38
3453.328	495.38
3456.247	487.38
3459.164	470.38
3462.079	459.38
3464.991	446.38
3467.902	431.38
3470.809	412.38
3473.715	403.38
3476.618	393.38
3479.519	379.38
3482.418	366.38
3485.315	362.38
3488.209	352.38
3491.101	345.38
3493.99	331.38
3496.878	320.38
3499.763	314.38
3502.646	309.38
3505.527	292.38
3508.405	280.38
3511.281	270.38
3514.155	258.38
3517.027	245.38
3519.897	233.38
3522.764	218.38
3525.629	204.38
3528.492	188.38
3531.352	182.38
3534.211	168.38
3537.067	170.38
3539.921	153.38
3542.773	142.38
3545.622	137.38
3548.469	134.38
3551.315	118.38
3554.157	112.38
3556.998	107.38
3559.837	99.38
3562.673	98.38
3565.507	85.38
3568.339	76.38
3571.169	74.38
3573.996	61.38
3576.822	59.38
3579.645	54.38
3582.466	48.38
3585.285	46.38
3588.101	42.38
3590.916	30.38
3593.728	28.38
3596.538	22.38
3599.346	17.38
3602.152	16.38
3604.956	8.38
3607.757	11.38
3610.556	8.38
3613.354	-0.62
3616.149	-8.62
3618.942	-13.62
3621.732	-18.62
3624.521	-18.62
3627.307	-21.62
3630.092	-20.62
3632.874	-26.62
3635.654	-29.62
3638.432	-35.62
3641.208	-30.62
3643.982	-37.62
3646.753	-35.62
3649.523	-41.62
3652.29	-43.62
3655.055	-47.62
3657.818	-45.62
3660.579	-50.62
3663.338	-53.62
3666.095	-56.62
3668.849	-57.62
3671.602	-63.62
3674.352	-64.62
3677.101	-64.62
3679.847	-73.62
3682.591	-72.62
3685.333	-68.62
3688.073	-76.62
3690.811	-67.62
3693.547	-78.62
3696.281	-77.62
3699.013	-75.62
3701.742	-77.62
3704.47	-83.62
3707.195	-84.62
3709.919	-87.62
3712.64	-81.62
3715.359	-80.62
3718.076	-85.62
3720.792	-92.62
3723.505	-87.62
3726.216	-87.62
3728.925	-90.62
3731.632	-91.62
3734.336	-97.62
3737.039	-95.62
3739.74	-93.62
3742.439	-90.62
3745.136	-92.62
3747.83	-87.62
3750.523	-90.62
3753.213	-93.62
3755.902	-94.62
3758.589	-98.62
3761.273	-97.62
3763.956	-98.62
3766.636	-99.62
3769.315	-98.62
3771.991	-99.62
3774.665	-104.62
3777.338	-99.62
3780.008	-102.62
3782.677	-102.62
3785.343	-106.62
3788.007	-102.62
3790.67	-100.62
3793.33	-103.62
3795.989	-99.62
3798.645	-99.62
3801.299	-100.62
3803.952	-101.62
3806.602	-100.62
3809.251	-105.62
3811.897	-105.62
3814.542	-107.62
3817.184	-108.62
3819.825	-107.62
3822.463	-106.62
3825.1	-105.62
3827.735	-104.62
3830.367	-105.62
3832.998	-108.62
3835.627	-107.62
3838.253	-107.62
3840.878	-104.62
3843.501	-104.62
3846.122	-107.62
3848.741	-104.62
3851.358	-104.62
3853.973	-106.62
3856.586	-109.62
3859.197	-107.62
3861.806	-109.62
3864.414	-109.62
3867.019	-111.62
3869.622	-108.62
3872.224	-109.62
3874.823	-101.62
3877.421	-102.62
3880.016	-100.62
3882.61	-93.62
3885.202	-96.62
3887.792	-98.62
3890.38	-99.62
3892.966	-107.62
3895.55	-110.62
3898.132	-109.62
3900.713	-111.62
3903.291	-108.62
3905.868	-110.62
3908.442	-110.62
3911.015	-111.62
3913.586	-110.62
3916.155	-108.62
3918.722	-108.62
3921.287	-109.62
3923.85	-111.62
3926.411	-111.62
3928.971	-116.62
3931.528	-109.62
3934.084	-114.62
3936.638	-113.62
3939.19	-114.62
3941.74	-114.62
3944.288	-115.62
3946.834	-118.62
3949.378	-114.62
3951.921	-116.62
3954.462	-112.62
3957	-114.62
3959.537	-110.62
3962.072	-108.62
3964.606	-110.62
3967.137	-110.62
3969.667	-111.62
3972.194	-112.62
3974.72	-107.62
3977.244	-109.62
3979.766	-109.62
3982.286	-113.62
3984.805	-113.62
3987.321	-112.62
3989.836	-112.62
3992.349	-114.62
3994.86	-111.62
3997.369	-109.62
3999.877	-106.62
4002.382	-107.62
4004.886	-105.62
4007.388	-108.62
4009.888	-106.62
4012.386	-111.62
4014.883	-111.62
4017.377	-111.62
4019.87	-113.62
4022.361	-107.62
4024.85	-112.62
4027.338	-114.62
4029.823	-109.62
4032.307	-111.62
4034.789	-111.62
4037.269	-114.62
4039.747	-113.62
4042.224	-112.62
4044.699	-114.62
4047.172	-111.62
4049.643	-110.62
4052.112	-111.62
4054.58	-111.62
4057.046	-109.62
4059.51	-109.62
4061.972	-114.62
4064.432	-114.62
4066.891	-114.62
4069.348	-112.62
4071.803	-112.62
4074.256	-113.62
4076.708	-111.62
4079.158	-108.62
4081.606	-113.62
4084.052	-111.62
4086.497	-110.62
4088.939	-111.62
4091.38	-115.62
4093.819	-113.62
4096.257	-113.62
4098.693	-113.62
4101.127	-115.62
4103.559	-115.62
4105.989	-77.62
4108.418	-75.62
4110.845	-71.62
4113.27	-64.62
4115.694	-58.62
4118.115	-51.62
4120.535	-112.62
4122.954	-114.62
4125.37	-113.62
4127.785	-112.62
4130.198	-112.62
4132.609	-113.62
4135.019	-119.62
4137.427	-119.62
4139.833	-119.62
4142.237	-118.62
