Data from 10CFU2_A_RamanShift_1.txt Node
Date: Wed Jan 25 11:47:31 IST 2017
User: aro
Spectrometer: QEPB0276
Trigger mode: 0
Integration Time (sec): 5.000000E0
Scans to average: 1
Electric dark correction enabled: true
Nonlinearity correction enabled: false
Boxcar width: 0
XAxis mode: Raman Shifts
Number of Pixels in Spectrum: 1044
>>>>>Begin Spectral Data<<<<<
160.701	-37.88
166.742	-1.88
172.777	102.12
178.805	400.12
184.826	1122.12
190.841	2280.12
196.849	3519.12
202.85	4288.12
208.845	4464.12
214.833	4305.12
220.815	4161.12
226.789	4013.12
232.758	3897.12
238.719	3779.12
244.674	3638.12
250.623	3479.12
256.565	3349.12
262.5	3164.12
268.429	3049.12
274.351	2908.12
280.267	2811.12
286.176	2722.12
292.079	2647.12
297.975	2525.12
303.865	2447.12
309.748	2383.12
315.625	2337.12
321.495	2285.12
327.359	2250.12
333.217	2226.12
339.068	2216.12
344.912	2209.12
350.751	2190.12
356.583	2184.12
362.408	2186.12
368.227	2176.12
374.04	2191.12
379.847	2188.12
385.647	2213.12
391.44	2226.12
397.228	2248.12
403.009	2241.12
408.784	2250.12
414.553	2233.12
420.315	2260.12
426.071	2265.12
431.821	2240.12
437.565	2274.12
443.302	2280.12
449.033	2259.12
454.758	2236.12
460.477	2254.12
466.189	2231.12
471.896	2196.12
477.596	2195.12
483.29	2184.12
488.978	2189.12
494.66	2178.12
500.335	2140.12
506.005	2111.12
511.668	2062.12
517.325	2023.12
522.977	1997.12
528.622	1976.12
534.261	1934.12
539.894	1926.12
545.521	1915.12
551.141	1900.12
556.756	1888.12
562.365	1891.12
567.968	1871.12
573.565	1858.12
579.155	1852.12
584.74	1831.12
590.319	1819.12
595.892	1804.12
601.459	1802.12
607.02	1788.12
612.575	1770.12
618.124	1764.12
623.667	1735.12
629.204	1723.12
634.735	1710.12
640.261	1695.12
645.781	1683.12
651.294	1672.12
656.802	1660.12
662.304	1660.12
667.8	1655.12
673.29	1652.12
678.775	1648.12
684.254	1637.12
689.726	1625.12
695.193	1612.12
700.655	1602.12
706.11	1589.12
711.56	1597.12
717.004	1585.12
722.442	1588.12
727.874	1555.12
733.301	1542.12
738.722	1543.12
744.137	1541.12
749.547	1551.12
754.951	1545.12
760.349	1535.12
765.741	1521.12
771.128	1519.12
776.509	1527.12
781.885	1537.12
787.254	1519.12
792.618	1510.12
797.977	1504.12
803.33	1491.12
808.677	1501.12
814.019	1465.12
819.355	1446.12
824.686	1429.12
830.011	1425.12
835.33	1416.12
840.644	1429.12
845.952	1420.12
851.255	1407.12
856.552	1414.12
861.844	1396.12
867.13	1389.12
872.41	1372.12
877.686	1363.12
882.955	1361.12
888.219	1330.12
893.478	1286.12
898.731	1293.12
903.979	1278.12
909.221	1265.12
914.458	1244.12
919.69	1237.12
924.916	1247.12
930.136	1248.12
935.351	1231.12
940.561	1243.12
945.766	1232.12
950.965	1218.12
956.158	1211.12
961.347	1198.12
966.529	1171.12
971.707	1165.12
976.879	1148.12
982.046	1143.12
987.208	1134.12
992.364	1134.12
997.515	1134.12
1002.66	1149.12
1007.801	1159.12
1012.936	1181.12
1018.066	1187.12
1023.19	1182.12
1028.309	1195.12
1033.423	1196.12
1038.532	1181.12
1043.636	1167.12
1048.734	1147.12
1053.827	1142.12
1058.915	1123.12
1063.998	1132.12
1069.075	1133.12
1074.147	1124.12
1079.214	1127.12
1084.276	1158.12
1089.333	1162.12
1094.385	1165.12
1099.431	1176.12
1104.472	1159.12
1109.509	1158.12
1114.54	1157.12
1119.565	1136.12
1124.586	1108.12
1129.602	1107.12
1134.613	1108.12
1139.618	1101.12
1144.619	1108.12
1149.614	1106.12
1154.604	1110.12
1159.589	1130.12
1164.57	1126.12
1169.545	1140.12
1174.515	1134.12
1179.48	1122.12
1184.44	1111.12
1189.395	1114.12
1194.345	1101.12
1199.29	1081.12
1204.23	1101.12
1209.165	1102.12
1214.095	1111.12
1219.021	1130.12
1223.941	1128.12
1228.856	1151.12
1233.766	1128.12
1238.672	1145.12
1243.572	1138.12
1248.467	1124.12
1253.358	1120.12
1258.244	1111.12
1263.124	1095.12
1268	1080.12
1272.871	1056.12
1277.737	1059.12
1282.599	1052.12
1287.455	1064.12
1292.306	1069.12
1297.153	1075.12
1301.995	1070.12
1306.832	1080.12
1311.664	1090.12
1316.491	1083.12
1321.314	1084.12
1326.132	1071.12
1330.945	1077.12
1335.753	1043.12
1340.556	1046.12
1345.354	1027.12
1350.148	1016.12
1354.937	1024.12
1359.722	1013.12
1364.501	989.12
1369.276	995.12
1374.046	977.12
1378.811	989.12
1383.572	970.12
1388.327	967.12
1393.079	964.12
1397.825	971.12
1402.567	963.12
1407.304	949.12
1412.036	939.12
1416.764	953.12
1421.487	949.12
1426.205	965.12
1430.919	954.12
1435.628	969.12
1440.333	981.12
1445.032	998.12
1449.727	999.12
1454.418	984.12
1459.104	1003.12
1463.785	995.12
1468.462	967.12
1473.134	979.12
1477.802	960.12
1482.465	962.12
1487.123	942.12
1491.777	944.12
1496.426	979.12
1501.071	968.12
1505.711	967.12
1510.347	970.12
1514.978	992.12
1519.604	1004.12
1524.226	1002.12
1528.844	997.12
1533.457	1008.12
1538.065	997.12
1542.669	1011.12
1547.269	1006.12
1551.864	997.12
1556.454	1017.12
1561.041	1025.12
1565.622	1039.12
1570.199	1042.12
1574.772	1059.12
1579.34	1082.12
1583.904	1097.12
1588.464	1122.12
1593.019	1139.12
1597.569	1146.12
1602.115	1174.12
1606.657	1163.12
1611.195	1190.12
1615.728	1192.12
1620.256	1206.12
1624.78	1230.12
1629.3	1255.12
1633.816	1268.12
1638.327	1255.12
1642.834	1292.12
1647.336	1302.12
1651.834	1299.12
1656.328	1298.12
1660.817	1281.12
1665.302	1262.12
1669.783	1228.12
1674.259	1210.12
1678.732	1167.12
1683.199	1139.12
1687.663	1092.12
1692.122	1055.12
1696.577	1012.12
1701.028	972.12
1705.474	927.12
1709.917	895.12
1714.355	881.12
1718.788	872.12
1723.218	854.12
1727.643	846.12
1732.064	818.12
1736.481	814.12
1740.893	783.12
1745.301	763.12
1749.705	744.12
1754.105	719.12
1758.501	700.12
1762.893	708.12
1767.28	695.12
1771.663	684.12
1776.042	684.12
1780.417	668.12
1784.787	676.12
1789.154	674.12
1793.516	670.12
1797.874	660.12
1802.228	675.12
1806.578	665.12
1810.924	648.12
1815.266	633.12
1819.603	640.12
1823.937	628.12
1828.266	625.12
1832.591	601.12
1836.913	606.12
1841.23	603.12
1845.543	598.12
1849.852	615.12
1854.156	608.12
1858.457	613.12
1862.754	614.12
1867.047	610.12
1871.335	617.12
1875.62	618.12
1879.9	613.12
1884.177	620.12
1888.449	624.12
1892.718	619.12
1896.982	619.12
1901.243	614.12
1905.499	613.12
1909.752	604.12
1914	601.12
1918.245	609.12
1922.485	599.12
1926.722	614.12
1930.954	609.12
1935.183	609.12
1939.408	624.12
1943.628	616.12
1947.845	615.12
1952.058	628.12
1956.267	611.12
1960.472	600.12
1964.673	589.12
1968.87	595.12
1973.063	586.12
1977.252	594.12
1981.438	597.12
1985.619	574.12
1989.797	583.12
1993.971	580.12
1998.14	587.12
2002.306	584.12
2006.469	599.12
2010.627	595.12
2014.781	598.12
2018.932	597.12
2023.078	607.12
2027.221	604.12
2031.36	599.12
2035.495	580.12
2039.627	575.12
2043.754	576.12
2047.878	571.12
2051.998	573.12
2056.114	562.12
2060.226	585.12
2064.334	596.12
2068.439	581.12
2072.54	591.12
2076.637	590.12
2080.73	587.12
2084.82	588.12
2088.906	597.12
2092.988	596.12
2097.066	595.12
2101.14	579.12
2105.211	580.12
2109.278	574.12
2113.342	570.12
2117.401	579.12
2121.457	567.12
2125.509	556.12
2129.558	565.12
2133.602	558.12
2137.643	556.12
2141.681	562.12
2145.714	565.12
2149.744	548.12
2153.77	552.12
2157.793	548.12
2161.812	528.12
2165.827	536.12
2169.838	527.12
2173.846	517.12
2177.851	517.12
2181.851	514.12
2185.848	511.12
2189.841	504.12
2193.831	495.12
2197.817	493.12
2201.799	478.12
2205.778	472.12
2209.753	484.12
2213.725	471.12
2217.693	483.12
2221.657	481.12
2225.618	485.12
2229.575	478.12
2233.529	466.12
2237.479	467.12
2241.425	465.12
2245.368	454.12
2249.307	451.12
2253.243	451.12
2257.175	440.12
2261.104	436.12
2265.029	426.12
2268.95	424.12
2272.868	418.12
2276.783	411.12
2280.694	409.12
2284.601	399.12
2288.505	393.12
2292.405	393.12
2296.302	389.12
2300.195	382.12
2304.085	385.12
2307.971	377.12
2311.854	363.12
2315.734	366.12
2319.609	352.12
2323.482	345.12
2327.351	343.12
2331.216	357.12
2335.078	350.12
2338.937	339.12
2342.792	339.12
2346.643	332.12
2350.492	335.12
2354.336	335.12
2358.178	337.12
2362.015	330.12
2365.85	332.12
2369.681	337.12
2373.508	340.12
2377.333	338.12
2381.153	341.12
2384.971	336.12
2388.785	334.12
2392.595	328.12
2396.402	329.12
2400.206	324.12
2404.007	326.12
2407.804	319.12
2411.597	313.12
2415.388	323.12
2419.174	322.12
2422.958	324.12
2426.738	313.12
2430.515	316.12
2434.289	316.12
2438.059	321.12
2441.825	308.12
2445.589	302.12
2449.349	305.12
2453.106	302.12
2456.859	300.12
2460.61	304.12
2464.356	296.12
2468.1	295.12
2471.84	289.12
2475.577	286.12
2479.311	278.12
2483.041	295.12
2486.768	287.12
2490.492	289.12
2494.213	288.12
2497.93	284.12
2501.644	285.12
2505.355	291.12
2509.062	289.12
2512.766	283.12
2516.467	280.12
2520.165	283.12
2523.859	283.12
2527.551	279.12
2531.239	282.12
2534.923	273.12
2538.605	270.12
2542.283	264.12
2545.958	264.12
2549.63	263.12
2553.299	254.12
2556.964	261.12
2560.626	259.12
2564.285	261.12
2567.941	251.12
2571.594	259.12
2575.243	254.12
2578.89	246.12
2582.533	248.12
2586.173	248.12
2589.809	239.12
2593.443	244.12
2597.073	238.12
2600.701	233.12
2604.325	235.12
2607.946	238.12
2611.564	234.12
2615.178	231.12
2618.79	227.12
2622.398	233.12
2626.004	229.12
2629.606	232.12
2633.205	229.12
2636.801	222.12
2640.394	230.12
2643.983	221.12
2647.57	220.12
2651.153	222.12
2654.734	213.12
2658.311	206.12
2661.885	213.12
2665.456	198.12
2669.025	201.12
2672.589	212.12
2676.151	205.12
2679.71	203.12
2683.266	196.12
2686.819	205.12
2690.368	199.12
2693.915	194.12
2697.458	190.12
2700.999	185.12
2704.536	192.12
2708.071	189.12
2711.602	180.12
2715.13	182.12
2718.656	186.12
2722.178	179.12
2725.697	177.12
2729.214	181.12
2732.727	180.12
2736.237	186.12
2739.744	184.12
2743.249	178.12
2746.75	181.12
2750.248	182.12
2753.743	185.12
2757.236	182.12
2760.725	179.12
2764.211	181.12
2767.695	188.12
2771.175	174.12
2774.652	176.12
2778.127	166.12
2781.598	174.12
2785.067	171.12
2788.532	175.12
2791.995	174.12
2795.455	181.12
2798.911	175.12
2802.365	178.12
2805.816	184.12
2809.264	185.12
2812.709	183.12
2816.151	168.12
2819.59	183.12
2823.026	178.12
2826.46	184.12
2829.89	187.12
2833.318	189.12
2836.742	191.12
2840.164	190.12
2843.583	179.12
2846.999	188.12
2850.412	193.12
2853.822	195.12
2857.229	193.12
2860.634	208.12
2864.035	205.12
2867.434	210.12
2870.83	205.12
2874.223	211.12
2877.613	214.12
2881	216.12
2884.385	215.12
2887.766	215.12
2891.145	221.12
2894.521	214.12
2897.894	224.12
2901.264	228.12
2904.631	232.12
2907.996	228.12
2911.358	229.12
2914.717	226.12
2918.073	226.12
2921.426	240.12
2924.777	234.12
2928.124	241.12
2931.469	255.12
2934.811	256.12
2938.15	255.12
2941.487	273.12
2944.821	272.12
2948.152	270.12
2951.48	270.12
2954.805	276.12
2958.128	283.12
2961.447	286.12
2964.765	297.12
2968.079	301.12
2971.39	311.12
2974.699	316.12
2978.005	318.12
2981.308	323.12
2984.609	335.12
2987.907	340.12
2991.202	344.12
2994.494	363.12
2997.784	383.12
3001.07	383.12
3004.355	396.12
3007.636	402.12
3010.915	412.12
3014.191	425.12
3017.464	434.12
3020.734	442.12
3024.002	452.12
3027.267	448.12
3030.53	462.12
3033.789	476.12
3037.046	485.12
3040.301	484.12
3043.552	503.12
3046.801	512.12
3050.048	527.12
3053.291	540.12
3056.532	568.12
3059.771	582.12
3063.006	589.12
3066.239	618.12
3069.469	638.12
3072.697	650.12
3075.922	670.12
3079.144	684.12
3082.364	710.12
3085.581	735.12
3088.795	738.12
3092.007	743.12
3095.216	770.12
3098.423	781.12
3101.627	807.12
3104.828	826.12
3108.026	830.12
3111.222	855.12
3114.416	881.12
3117.607	901.12
3120.795	904.12
3123.98	948.12
3127.163	960.12
3130.344	977.12
3133.521	1007.12
3136.696	1045.12
3139.869	1055.12
3143.039	1072.12
3146.206	1081.12
3149.371	1082.12
3152.533	1097.12
3155.693	1110.12
3158.85	1121.12
3162.005	1121.12
3165.157	1108.12
3168.306	1131.12
3171.453	1141.12
3174.597	1127.12
3177.739	1136.12
3180.878	1150.12
3184.014	1168.12
3187.149	1159.12
3190.28	1160.12
3193.409	1169.12
3196.536	1161.12
3199.659	1151.12
3202.781	1173.12
3205.9	1188.12
3209.016	1163.12
3212.13	1170.12
3215.241	1164.12
3218.35	1155.12
3221.456	1157.12
3224.56	1133.12
3227.661	1129.12
3230.76	1116.12
3233.856	1110.12
3236.95	1090.12
3240.041	1083.12
3243.13	1095.12
3246.216	1080.12
3249.3	1062.12
3252.382	1059.12
3255.46	1052.12
3258.537	1045.12
3261.611	1033.12
3264.682	1032.12
3267.751	1043.12
3270.818	1040.12
3273.882	1032.12
3276.943	1024.12
3280.002	1021.12
3283.059	1008.12
3286.113	982.12
3289.165	973.12
3292.214	971.12
3295.261	949.12
3298.306	928.12
3301.348	928.12
3304.387	919.12
3307.425	884.12
3310.459	888.12
3313.492	859.12
3316.521	860.12
3319.549	852.12
3322.574	843.12
3325.597	851.12
3328.617	836.12
3331.635	825.12
3334.65	825.12
3337.663	811.12
3340.674	820.12
3343.682	799.12
3346.688	811.12
3349.691	813.12
3352.692	802.12
3355.691	787.12
3358.687	792.12
3361.681	772.12
3364.673	781.12
3367.662	761.12
3370.649	750.12
3373.633	725.12
3376.615	733.12
3379.595	721.12
3382.572	710.12
3385.547	698.12
3388.52	683.12
3391.49	684.12
3394.458	675.12
3397.424	670.12
3400.387	667.12
3403.348	640.12
3406.307	647.12
3409.263	637.12
3412.217	633.12
3415.168	624.12
3418.118	616.12
3421.065	618.12
3424.009	588.12
3426.951	588.12
3429.891	590.12
3432.829	563.12
3435.764	561.12
3438.697	545.12
3441.628	534.12
3444.557	526.12
3447.483	511.12
3450.407	498.12
3453.328	484.12
3456.247	459.12
3459.164	441.12
3462.079	433.12
3464.991	414.12
3467.902	407.12
3470.809	400.12
3473.715	382.12
3476.618	374.12
3479.519	366.12
3482.418	351.12
3485.315	337.12
3488.209	331.12
3491.101	314.12
3493.99	314.12
3496.878	308.12
3499.763	304.12
3502.646	281.12
3505.527	270.12
3508.405	259.12
3511.281	255.12
3514.155	247.12
3517.027	226.12
3519.897	216.12
3522.764	200.12
3525.629	195.12
3528.492	184.12
3531.352	178.12
3534.211	168.12
3537.067	155.12
3539.921	146.12
3542.773	131.12
3545.622	127.12
3548.469	122.12
3551.315	107.12
3554.157	103.12
3556.998	96.12
3559.837	96.12
3562.673	81.12
3565.507	82.12
3568.339	71.12
3571.169	62.12
3573.996	58.12
3576.822	58.12
3579.645	51.12
3582.466	43.12
3585.285	41.12
3588.101	38.12
3590.916	36.12
3593.728	28.12
3596.538	29.12
3599.346	12.12
3602.152	8.12
3604.956	6.12
3607.757	0.12
3610.556	-3.88
3613.354	-3.88
3616.149	-5.88
3618.942	-14.88
3621.732	-13.88
3624.521	-14.88
3627.307	-21.88
3630.092	-22.88
3632.874	-29.88
3635.654	-31.88
3638.432	-32.88
3641.208	-31.88
3643.982	-32.88
3646.753	-40.88
3649.523	-34.88
3652.29	-40.88
3655.055	-45.88
3657.818	-48.88
3660.579	-47.88
3663.338	-57.88
3666.095	-57.88
3668.849	-59.88
3671.602	-61.88
3674.352	-64.88
3677.101	-67.88
3679.847	-67.88
3682.591	-66.88
3685.333	-67.88
3688.073	-76.88
3690.811	-73.88
3693.547	-76.88
3696.281	-76.88
3699.013	-78.88
3701.742	-75.88
3704.47	-78.88
3707.195	-80.88
3709.919	-79.88
3712.64	-80.88
3715.359	-82.88
3718.076	-86.88
3720.792	-88.88
3723.505	-87.88
3726.216	-87.88
3728.925	-86.88
3731.632	-88.88
3734.336	-86.88
3737.039	-87.88
3739.74	-89.88
3742.439	-89.88
3745.136	-92.88
3747.83	-89.88
3750.523	-92.88
3753.213	-94.88
3755.902	-94.88
3758.589	-96.88
3761.273	-95.88
3763.956	-95.88
3766.636	-99.88
3769.315	-97.88
3771.991	-100.88
3774.665	-102.88
3777.338	-97.88
3780.008	-100.88
3782.677	-99.88
3785.343	-96.88
3788.007	-96.88
3790.67	-94.88
3793.33	-96.88
3795.989	-98.88
3798.645	-99.88
3801.299	-99.88
3803.952	-100.88
3806.602	-100.88
3809.251	-103.88
3811.897	-101.88
3814.542	-99.88
3817.184	-105.88
3819.825	-104.88
3822.463	-104.88
3825.1	-105.88
3827.735	-102.88
3830.367	-104.88
3832.998	-103.88
3835.627	-102.88
3838.253	-100.88
3840.878	-99.88
3843.501	-101.88
3846.122	-107.88
3848.741	-102.88
3851.358	-104.88
3853.973	-107.88
3856.586	-108.88
3859.197	-107.88
3861.806	-109.88
3864.414	-104.88
3867.019	-108.88
3869.622	-102.88
3872.224	-104.88
3874.823	-106.88
3877.421	-103.88
3880.016	-98.88
3882.61	-95.88
3885.202	-98.88
3887.792	-97.88
3890.38	-99.88
3892.966	-105.88
3895.55	-102.88
3898.132	-104.88
3900.713	-109.88
3903.291	-108.88
3905.868	-108.88
3908.442	-111.88
3911.015	-110.88
3913.586	-110.88
3916.155	-106.88
3918.722	-106.88
3921.287	-105.88
3923.85	-109.88
3926.411	-107.88
3928.971	-112.88
3931.528	-106.88
3934.084	-114.88
3936.638	-111.88
3939.19	-111.88
3941.74	-110.88
3944.288	-109.88
3946.834	-110.88
3949.378	-110.88
3951.921	-109.88
3954.462	-109.88
3957	-110.88
3959.537	-112.88
3962.072	-110.88
3964.606	-107.88
3967.137	-109.88
3969.667	-108.88
3972.194	-105.88
3974.72	-106.88
3977.244	-104.88
3979.766	-104.88
3982.286	-108.88
3984.805	-110.88
3987.321	-112.88
3989.836	-113.88
3992.349	-108.88
3994.86	-107.88
3997.369	-106.88
3999.877	-103.88
4002.382	-104.88
4004.886	-103.88
4007.388	-105.88
4009.888	-107.88
4012.386	-110.88
4014.883	-108.88
4017.377	-107.88
4019.87	-107.88
4022.361	-106.88
4024.85	-106.88
4027.338	-113.88
4029.823	-105.88
4032.307	-111.88
4034.789	-110.88
4037.269	-114.88
4039.747	-111.88
4042.224	-106.88
4044.699	-110.88
4047.172	-105.88
4049.643	-107.88
4052.112	-107.88
4054.58	-108.88
4057.046	-108.88
4059.51	-107.88
4061.972	-111.88
4064.432	-112.88
4066.891	-111.88
4069.348	-109.88
4071.803	-108.88
4074.256	-110.88
4076.708	-111.88
4079.158	-106.88
4081.606	-109.88
4084.052	-109.88
4086.497	-107.88
4088.939	-106.88
4091.38	-110.88
4093.819	-110.88
4096.257	-110.88
4098.693	-111.88
4101.127	-112.88
4103.559	-112.88
4105.989	-71.88
4108.418	-75.88
4110.845	-71.88
4113.27	-63.88
4115.694	-59.88
4118.115	-50.88
4120.535	-109.88
4122.954	-110.88
4125.37	-106.88
4127.785	-108.88
4130.198	-113.88
4132.609	-113.88
4135.019	-115.88
4137.427	-116.88
4139.833	-115.88
4142.237	-113.88
