Data from 10CFU2_B_RamanShift_1.txt Node
Date: Wed Jan 25 12:26:30 IST 2017
User: aro
Spectrometer: QEPB0276
Trigger mode: 0
Integration Time (sec): 5.000000E0
Scans to average: 1
Electric dark correction enabled: true
Nonlinearity correction enabled: false
Boxcar width: 0
XAxis mode: Raman Shifts
Number of Pixels in Spectrum: 1044
>>>>>Begin Spectral Data<<<<<
160.701	-38.38
166.742	0.62
172.777	104.62
178.805	434.62
184.826	1197.62
190.841	2427.62
196.849	3802.62
202.85	4674.62
208.845	4870.62
214.833	4706.62
220.815	4529.62
226.789	4420.62
232.758	4278.62
238.719	4181.62
244.674	3995.62
250.623	3831.62
256.565	3659.62
262.5	3515.62
268.429	3368.62
274.351	3236.62
280.267	3104.62
286.176	3017.62
292.079	2891.62
297.975	2826.62
303.865	2763.62
309.748	2662.62
315.625	2613.62
321.495	2550.62
327.359	2522.62
333.217	2490.62
339.068	2466.62
344.912	2446.62
350.751	2453.62
356.583	2426.62
362.408	2437.62
368.227	2425.62
374.04	2445.62
379.847	2445.62
385.647	2464.62
391.44	2464.62
397.228	2494.62
403.009	2509.62
408.784	2507.62
414.553	2502.62
420.315	2512.62
426.071	2529.62
431.821	2517.62
437.565	2506.62
443.302	2528.62
449.033	2506.62
454.758	2503.62
460.477	2479.62
466.189	2479.62
471.896	2458.62
477.596	2450.62
483.29	2445.62
488.978	2438.62
494.66	2418.62
500.335	2397.62
506.005	2366.62
511.668	2306.62
517.325	2268.62
522.977	2244.62
528.622	2199.62
534.261	2180.62
539.894	2200.62
545.521	2145.62
551.141	2148.62
556.756	2113.62
562.365	2128.62
567.968	2115.62
573.565	2089.62
579.155	2079.62
584.74	2083.62
590.319	2068.62
595.892	2050.62
601.459	2038.62
607.02	2047.62
612.575	2009.62
618.124	1979.62
623.667	1970.62
629.204	1950.62
634.735	1935.62
640.261	1933.62
645.781	1908.62
651.294	1914.62
656.802	1920.62
662.304	1899.62
667.8	1890.62
673.29	1874.62
678.775	1867.62
684.254	1855.62
689.726	1843.62
695.193	1846.62
700.655	1841.62
706.11	1816.62
711.56	1822.62
717.004	1813.62
722.442	1789.62
727.874	1785.62
733.301	1783.62
738.722	1780.62
744.137	1756.62
749.547	1766.62
754.951	1768.62
760.349	1764.62
765.741	1740.62
771.128	1764.62
776.509	1763.62
781.885	1757.62
787.254	1740.62
792.618	1730.62
797.977	1740.62
803.33	1725.62
808.677	1703.62
814.019	1683.62
819.355	1669.62
824.686	1667.62
830.011	1654.62
835.33	1620.62
840.644	1636.62
845.952	1619.62
851.255	1629.62
856.552	1622.62
861.844	1601.62
867.13	1597.62
872.41	1585.62
877.686	1574.62
882.955	1533.62
888.219	1546.62
893.478	1513.62
898.731	1482.62
903.979	1478.62
909.221	1474.62
914.458	1439.62
919.69	1461.62
924.916	1458.62
930.136	1441.62
935.351	1439.62
940.561	1447.62
945.766	1449.62
950.965	1437.62
956.158	1424.62
961.347	1412.62
966.529	1377.62
971.707	1373.62
976.879	1341.62
982.046	1357.62
987.208	1345.62
992.364	1341.62
997.515	1344.62
1002.66	1358.62
1007.801	1361.62
1012.936	1388.62
1018.066	1382.62
1023.19	1386.62
1028.309	1400.62
1033.423	1388.62
1038.532	1393.62
1043.636	1369.62
1048.734	1354.62
1053.827	1350.62
1058.915	1338.62
1063.998	1321.62
1069.075	1330.62
1074.147	1325.62
1079.214	1337.62
1084.276	1345.62
1089.333	1368.62
1094.385	1380.62
1099.431	1376.62
1104.472	1394.62
1109.509	1374.62
1114.54	1369.62
1119.565	1339.62
1124.586	1322.62
1129.602	1326.62
1134.613	1308.62
1139.618	1308.62
1144.619	1300.62
1149.614	1311.62
1154.604	1306.62
1159.589	1330.62
1164.57	1338.62
1169.545	1335.62
1174.515	1335.62
1179.48	1329.62
1184.44	1313.62
1189.395	1317.62
1194.345	1312.62
1199.29	1289.62
1204.23	1311.62
1209.165	1300.62
1214.095	1328.62
1219.021	1325.62
1223.941	1326.62
1228.856	1346.62
1233.766	1360.62
1238.672	1366.62
1243.572	1362.62
1248.467	1348.62
1253.358	1340.62
1258.244	1327.62
1263.124	1291.62
1268	1284.62
1272.871	1265.62
1277.737	1265.62
1282.599	1250.62
1287.455	1267.62
1292.306	1272.62
1297.153	1274.62
1301.995	1269.62
1306.832	1299.62
1311.664	1303.62
1316.491	1310.62
1321.314	1322.62
1326.132	1282.62
1330.945	1270.62
1335.753	1270.62
1340.556	1257.62
1345.354	1245.62
1350.148	1244.62
1354.937	1222.62
1359.722	1214.62
1364.501	1198.62
1369.276	1198.62
1374.046	1179.62
1378.811	1182.62
1383.572	1191.62
1388.327	1189.62
1393.079	1174.62
1397.825	1180.62
1402.567	1148.62
1407.304	1154.62
1412.036	1148.62
1416.764	1147.62
1421.487	1150.62
1426.205	1148.62
1430.919	1145.62
1435.628	1186.62
1440.333	1185.62
1445.032	1203.62
1449.727	1201.62
1454.418	1214.62
1459.104	1202.62
1463.785	1191.62
1468.462	1176.62
1473.134	1189.62
1477.802	1176.62
1482.465	1167.62
1487.123	1175.62
1491.777	1161.62
1496.426	1173.62
1501.071	1188.62
1505.711	1194.62
1510.347	1201.62
1514.978	1214.62
1519.604	1202.62
1524.226	1236.62
1528.844	1222.62
1533.457	1219.62
1538.065	1228.62
1542.669	1202.62
1547.269	1206.62
1551.864	1212.62
1556.454	1221.62
1561.041	1242.62
1565.622	1251.62
1570.199	1267.62
1574.772	1284.62
1579.34	1290.62
1583.904	1316.62
1588.464	1345.62
1593.019	1387.62
1597.569	1368.62
1602.115	1379.62
1606.657	1387.62
1611.195	1397.62
1615.728	1427.62
1620.256	1423.62
1624.78	1427.62
1629.3	1465.62
1633.816	1479.62
1638.327	1503.62
1642.834	1521.62
1647.336	1525.62
1651.834	1547.62
1656.328	1543.62
1660.817	1511.62
1665.302	1525.62
1669.783	1490.62
1674.259	1453.62
1678.732	1410.62
1683.199	1367.62
1687.663	1321.62
1692.122	1280.62
1696.577	1234.62
1701.028	1186.62
1705.474	1145.62
1709.917	1100.62
1714.355	1081.62
1718.788	1076.62
1723.218	1054.62
1727.643	1033.62
1732.064	1013.62
1736.481	983.62
1740.893	961.62
1745.301	941.62
1749.705	918.62
1754.105	897.62
1758.501	874.62
1762.893	879.62
1767.28	864.62
1771.663	857.62
1776.042	850.62
1780.417	852.62
1784.787	857.62
1789.154	858.62
1793.516	868.62
1797.874	857.62
1802.228	847.62
1806.578	841.62
1810.924	828.62
1815.266	801.62
1819.603	800.62
1823.937	790.62
1828.266	772.62
1832.591	777.62
1836.913	776.62
1841.23	772.62
1845.543	772.62
1849.852	773.62
1854.156	760.62
1858.457	767.62
1862.754	765.62
1867.047	785.62
1871.335	794.62
1875.62	792.62
1879.9	793.62
1884.177	794.62
1888.449	776.62
1892.718	777.62
1896.982	771.62
1901.243	780.62
1905.499	785.62
1909.752	786.62
1914	772.62
1918.245	781.62
1922.485	776.62
1926.722	789.62
1930.954	779.62
1935.183	793.62
1939.408	784.62
1943.628	787.62
1947.845	802.62
1952.058	798.62
1956.267	780.62
1960.472	771.62
1964.673	753.62
1968.87	761.62
1973.063	745.62
1977.252	745.62
1981.438	745.62
1985.619	740.62
1989.797	739.62
1993.971	738.62
1998.14	737.62
2002.306	739.62
2006.469	767.62
2010.627	750.62
2014.781	740.62
2018.932	763.62
2023.078	754.62
2027.221	749.62
2031.36	747.62
2035.495	748.62
2039.627	736.62
2043.754	727.62
2047.878	730.62
2051.998	724.62
2056.114	721.62
2060.226	734.62
2064.334	730.62
2068.439	740.62
2072.54	731.62
2076.637	744.62
2080.73	761.62
2084.82	748.62
2088.906	753.62
2092.988	751.62
2097.066	740.62
2101.14	735.62
2105.211	737.62
2109.278	722.62
2113.342	720.62
2117.401	715.62
2121.457	711.62
2125.509	707.62
2129.558	713.62
2133.602	706.62
2137.643	705.62
2141.681	706.62
2145.714	700.62
2149.744	691.62
2153.77	693.62
2157.793	687.62
2161.812	683.62
2165.827	665.62
2169.838	665.62
2173.846	649.62
2177.851	640.62
2181.851	632.62
2185.848	621.62
2189.841	629.62
2193.831	630.62
2197.817	612.62
2201.799	612.62
2205.778	601.62
2209.753	604.62
2213.725	606.62
2217.693	598.62
2221.657	603.62
2225.618	614.62
2229.575	599.62
2233.529	603.62
2237.479	599.62
2241.425	584.62
2245.368	568.62
2249.307	579.62
2253.243	564.62
2257.175	551.62
2261.104	546.62
2265.029	545.62
2268.95	543.62
2272.868	521.62
2276.783	514.62
2280.694	516.62
2284.601	512.62
2288.505	504.62
2292.405	504.62
2296.302	484.62
2300.195	494.62
2304.085	474.62
2307.971	474.62
2311.854	464.62
2315.734	465.62
2319.609	447.62
2323.482	443.62
2327.351	433.62
2331.216	445.62
2335.078	430.62
2338.937	424.62
2342.792	417.62
2346.643	420.62
2350.492	414.62
2354.336	421.62
2358.178	423.62
2362.015	423.62
2365.85	425.62
2369.681	424.62
2373.508	428.62
2377.333	423.62
2381.153	427.62
2384.971	433.62
2388.785	417.62
2392.595	407.62
2396.402	416.62
2400.206	405.62
2404.007	411.62
2407.804	403.62
2411.597	408.62
2415.388	411.62
2419.174	397.62
2422.958	404.62
2426.738	403.62
2430.515	412.62
2434.289	402.62
2438.059	400.62
2441.825	405.62
2445.589	388.62
2449.349	391.62
2453.106	389.62
2456.859	389.62
2460.61	382.62
2464.356	377.62
2468.1	377.62
2471.84	365.62
2475.577	369.62
2479.311	363.62
2483.041	373.62
2486.768	368.62
2490.492	372.62
2494.213	367.62
2497.93	362.62
2501.644	373.62
2505.355	375.62
2509.062	379.62
2512.766	375.62
2516.467	355.62
2520.165	367.62
2523.859	357.62
2527.551	362.62
2531.239	356.62
2534.923	348.62
2538.605	354.62
2542.283	331.62
2545.958	345.62
2549.63	345.62
2553.299	344.62
2556.964	343.62
2560.626	331.62
2564.285	333.62
2567.941	330.62
2571.594	326.62
2575.243	329.62
2578.89	332.62
2582.533	329.62
2586.173	324.62
2589.809	321.62
2593.443	310.62
2597.073	312.62
2600.701	309.62
2604.325	306.62
2607.946	313.62
2611.564	322.62
2615.178	301.62
2618.79	306.62
2622.398	304.62
2626.004	305.62
2629.606	304.62
2633.205	296.62
2636.801	298.62
2640.394	287.62
2643.983	287.62
2647.57	291.62
2651.153	278.62
2654.734	277.62
2658.311	275.62
2661.885	276.62
2665.456	270.62
2669.025	272.62
2672.589	269.62
2676.151	264.62
2679.71	264.62
2683.266	256.62
2686.819	260.62
2690.368	257.62
2693.915	259.62
2697.458	255.62
2700.999	252.62
2704.536	249.62
2708.071	251.62
2711.602	243.62
2715.13	236.62
2718.656	241.62
2722.178	239.62
2725.697	242.62
2729.214	240.62
2732.727	243.62
2736.237	250.62
2739.744	248.62
2743.249	248.62
2746.75	243.62
2750.248	245.62
2753.743	240.62
2757.236	247.62
2760.725	245.62
2764.211	240.62
2767.695	237.62
2771.175	229.62
2774.652	226.62
2778.127	232.62
2781.598	224.62
2785.067	235.62
2788.532	235.62
2791.995	229.62
2795.455	242.62
2798.911	224.62
2802.365	239.62
2805.816	236.62
2809.264	232.62
2812.709	237.62
2816.151	241.62
2819.59	238.62
2823.026	234.62
2826.46	233.62
2829.89	242.62
2833.318	236.62
2836.742	243.62
2840.164	242.62
2843.583	235.62
2846.999	243.62
2850.412	249.62
2853.822	252.62
2857.229	247.62
2860.634	254.62
2864.035	248.62
2867.434	267.62
2870.83	260.62
2874.223	261.62
2877.613	265.62
2881	255.62
2884.385	258.62
2887.766	265.62
2891.145	262.62
2894.521	277.62
2897.894	267.62
2901.264	279.62
2904.631	266.62
2907.996	285.62
2911.358	282.62
2914.717	284.62
2918.073	283.62
2921.426	291.62
2924.777	294.62
2928.124	298.62
2931.469	302.62
2934.811	295.62
2938.15	305.62
2941.487	302.62
2944.821	315.62
2948.152	327.62
2951.48	326.62
2954.805	331.62
2958.128	337.62
2961.447	341.62
2964.765	342.62
2968.079	356.62
2971.39	363.62
2974.699	373.62
2978.005	375.62
2981.308	378.62
2984.609	401.62
2987.907	408.62
2991.202	411.62
2994.494	419.62
2997.784	439.62
3001.07	448.62
3004.355	456.62
3007.636	468.62
3010.915	480.62
3014.191	484.62
3017.464	494.62
3020.734	499.62
3024.002	510.62
3027.267	516.62
3030.53	522.62
3033.789	534.62
3037.046	535.62
3040.301	571.62
3043.552	558.62
3046.801	570.62
3050.048	590.62
3053.291	617.62
3056.532	640.62
3059.771	651.62
3063.006	673.62
3066.239	693.62
3069.469	713.62
3072.697	741.62
3075.922	746.62
3079.144	774.62
3082.364	785.62
3085.581	811.62
3088.795	832.62
3092.007	843.62
3095.216	875.62
3098.423	868.62
3101.627	888.62
3104.828	922.62
3108.026	937.62
3111.222	961.62
3114.416	980.62
3117.607	1001.62
3120.795	1017.62
3123.98	1053.62
3127.163	1082.62
3130.344	1113.62
3133.521	1117.62
3136.696	1152.62
3139.869	1169.62
3143.039	1186.62
3146.206	1192.62
3149.371	1205.62
3152.533	1227.62
3155.693	1231.62
3158.85	1247.62
3162.005	1263.62
3165.157	1259.62
3168.306	1263.62
3171.453	1273.62
3174.597	1280.62
3177.739	1273.62
3180.878	1277.62
3184.014	1278.62
3187.149	1286.62
3190.28	1305.62
3193.409	1292.62
3196.536	1314.62
3199.659	1295.62
3202.781	1310.62
3205.9	1296.62
3209.016	1310.62
3212.13	1315.62
3215.241	1291.62
3218.35	1296.62
3221.456	1274.62
3224.56	1266.62
3227.661	1254.62
3230.76	1239.62
3233.856	1242.62
3236.95	1222.62
3240.041	1198.62
3243.13	1209.62
3246.216	1198.62
3249.3	1179.62
3252.382	1184.62
3255.46	1179.62
3258.537	1175.62
3261.611	1168.62
3264.682	1168.62
3267.751	1165.62
3270.818	1151.62
3273.882	1149.62
3276.943	1151.62
3280.002	1126.62
3283.059	1108.62
3286.113	1087.62
3289.165	1085.62
3292.214	1077.62
3295.261	1060.62
3298.306	1038.62
3301.348	1024.62
3304.387	1004.62
3307.425	997.62
3310.459	986.62
3313.492	979.62
3316.521	939.62
3319.549	956.62
3322.574	936.62
3325.597	929.62
3328.617	921.62
3331.635	919.62
3334.65	906.62
3337.663	899.62
3340.674	898.62
3343.682	893.62
3346.688	910.62
3349.691	893.62
3352.692	888.62
3355.691	886.62
3358.687	881.62
3361.681	867.62
3364.673	871.62
3367.662	841.62
3370.649	831.62
3373.633	825.62
3376.615	802.62
3379.595	808.62
3382.572	787.62
3385.547	779.62
3388.52	754.62
3391.49	754.62
3394.458	748.62
3397.424	736.62
3400.387	736.62
3403.348	722.62
3406.307	717.62
3409.263	708.62
3412.217	696.62
3415.168	687.62
3418.118	683.62
3421.065	683.62
3424.009	675.62
3426.951	669.62
3429.891	636.62
3432.829	635.62
3435.764	623.62
3438.697	608.62
3441.628	590.62
3444.557	580.62
3447.483	571.62
3450.407	555.62
3453.328	536.62
3456.247	515.62
3459.164	502.62
3462.079	491.62
3464.991	470.62
3467.902	454.62
3470.809	452.62
3473.715	435.62
3476.618	419.62
3479.519	418.62
3482.418	393.62
3485.315	380.62
3488.209	373.62
3491.101	362.62
3493.99	347.62
3496.878	347.62
3499.763	333.62
3502.646	322.62
3505.527	309.62
3508.405	297.62
3511.281	278.62
3514.155	278.62
3517.027	262.62
3519.897	250.62
3522.764	231.62
3525.629	228.62
3528.492	209.62
3531.352	197.62
3534.211	188.62
3537.067	178.62
3539.921	164.62
3542.773	152.62
3545.622	157.62
3548.469	136.62
3551.315	122.62
3554.157	123.62
3556.998	105.62
3559.837	100.62
3562.673	100.62
3565.507	87.62
3568.339	88.62
3571.169	78.62
3573.996	76.62
3576.822	66.62
3579.645	60.62
3582.466	50.62
3585.285	50.62
3588.101	49.62
3590.916	37.62
3593.728	29.62
3596.538	27.62
3599.346	26.62
3602.152	14.62
3604.956	15.62
3607.757	8.62
3610.556	-0.38
3613.354	0.62
3616.149	-4.38
3618.942	-8.38
3621.732	-17.38
3624.521	-13.38
3627.307	-21.38
3630.092	-21.38
3632.874	-27.38
3635.654	-23.38
3638.432	-29.38
3641.208	-37.38
3643.982	-36.38
3646.753	-41.38
3649.523	-44.38
3652.29	-43.38
3655.055	-53.38
3657.818	-49.38
3660.579	-54.38
3663.338	-56.38
3666.095	-56.38
3668.849	-63.38
3671.602	-64.38
3674.352	-66.38
3677.101	-67.38
3679.847	-71.38
3682.591	-71.38
3685.333	-67.38
3688.073	-76.38
3690.811	-78.38
3693.547	-80.38
3696.281	-81.38
3699.013	-84.38
3701.742	-83.38
3704.47	-86.38
3707.195	-85.38
3709.919	-86.38
3712.64	-87.38
3715.359	-86.38
3718.076	-91.38
3720.792	-91.38
3723.505	-91.38
3726.216	-93.38
3728.925	-96.38
3731.632	-94.38
3734.336	-99.38
3737.039	-97.38
3739.74	-93.38
3742.439	-100.38
3745.136	-99.38
3747.83	-96.38
3750.523	-99.38
3753.213	-100.38
3755.902	-104.38
3758.589	-103.38
3761.273	-102.38
3763.956	-103.38
3766.636	-105.38
3769.315	-102.38
3771.991	-106.38
3774.665	-109.38
3777.338	-105.38
3780.008	-105.38
3782.677	-107.38
3785.343	-106.38
3788.007	-106.38
3790.67	-106.38
3793.33	-108.38
3795.989	-108.38
3798.645	-107.38
3801.299	-108.38
3803.952	-109.38
3806.602	-110.38
3809.251	-108.38
3811.897	-112.38
3814.542	-109.38
3817.184	-112.38
3819.825	-109.38
3822.463	-111.38
3825.1	-112.38
3827.735	-111.38
3830.367	-112.38
3832.998	-113.38
3835.627	-113.38
3838.253	-115.38
3840.878	-110.38
3843.501	-114.38
3846.122	-114.38
3848.741	-111.38
3851.358	-110.38
3853.973	-115.38
3856.586	-116.38
3859.197	-111.38
3861.806	-114.38
3864.414	-114.38
3867.019	-117.38
3869.622	-114.38
3872.224	-115.38
3874.823	-113.38
3877.421	-113.38
3880.016	-107.38
3882.61	-104.38
3885.202	-108.38
3887.792	-109.38
3890.38	-109.38
3892.966	-115.38
3895.55	-114.38
3898.132	-116.38
3900.713	-118.38
3903.291	-116.38
3905.868	-114.38
3908.442	-120.38
3911.015	-116.38
3913.586	-122.38
3916.155	-117.38
3918.722	-120.38
3921.287	-118.38
3923.85	-117.38
3926.411	-116.38
3928.971	-123.38
3931.528	-119.38
3934.084	-121.38
3936.638	-120.38
3939.19	-122.38
3941.74	-117.38
3944.288	-119.38
3946.834	-123.38
3949.378	-118.38
3951.921	-125.38
3954.462	-121.38
3957	-122.38
3959.537	-122.38
3962.072	-118.38
3964.606	-118.38
3967.137	-120.38
3969.667	-119.38
3972.194	-120.38
3974.72	-118.38
3977.244	-115.38
3979.766	-115.38
3982.286	-117.38
3984.805	-119.38
3987.321	-116.38
3989.836	-118.38
3992.349	-116.38
3994.86	-117.38
3997.369	-116.38
3999.877	-117.38
4002.382	-116.38
4004.886	-118.38
4007.388	-117.38
4009.888	-117.38
4012.386	-116.38
4014.883	-121.38
4017.377	-118.38
4019.87	-120.38
4022.361	-118.38
4024.85	-118.38
4027.338	-118.38
4029.823	-118.38
4032.307	-120.38
4034.789	-120.38
4037.269	-121.38
4039.747	-119.38
4042.224	-117.38
4044.699	-119.38
4047.172	-117.38
4049.643	-118.38
4052.112	-120.38
4054.58	-121.38
4057.046	-120.38
4059.51	-116.38
4061.972	-120.38
4064.432	-120.38
4066.891	-121.38
4069.348	-115.38
4071.803	-119.38
4074.256	-121.38
4076.708	-119.38
4079.158	-117.38
4081.606	-118.38
4084.052	-118.38
4086.497	-119.38
4088.939	-117.38
4091.38	-118.38
4093.819	-119.38
4096.257	-119.38
4098.693	-124.38
4101.127	-125.38
4103.559	-125.38
4105.989	-81.38
4108.418	-80.38
4110.845	-75.38
4113.27	-70.38
4115.694	-62.38
4118.115	-52.38
4120.535	-119.38
4122.954	-123.38
4125.37	-118.38
4127.785	-119.38
4130.198	-123.38
4132.609	-121.38
4135.019	-124.38
4137.427	-126.38
4139.833	-125.38
4142.237	-125.38
