Data from 10CFU3_A_RamanShift_1.txt Node
Date: Wed Jan 25 11:48:36 IST 2017
User: aro
Spectrometer: QEPB0276
Trigger mode: 0
Integration Time (sec): 5.000000E0
Scans to average: 1
Electric dark correction enabled: true
Nonlinearity correction enabled: false
Boxcar width: 0
XAxis mode: Raman Shifts
Number of Pixels in Spectrum: 1044
>>>>>Begin Spectral Data<<<<<
160.701	-33.75
166.742	-8.75
172.777	99.25
178.805	421.25
184.826	1141.25
190.841	2302.25
196.849	3595.25
202.85	4394.25
208.845	4572.25
214.833	4399.25
220.815	4264.25
226.789	4125.25
232.758	4039.25
238.719	3926.25
244.674	3786.25
250.623	3631.25
256.565	3498.25
262.5	3315.25
268.429	3151.25
274.351	3053.25
280.267	2933.25
286.176	2832.25
292.079	2768.25
297.975	2670.25
303.865	2607.25
309.748	2510.25
315.625	2472.25
321.495	2414.25
327.359	2408.25
333.217	2354.25
339.068	2326.25
344.912	2329.25
350.751	2314.25
356.583	2297.25
362.408	2305.25
368.227	2299.25
374.04	2298.25
379.847	2333.25
385.647	2336.25
391.44	2362.25
397.228	2365.25
403.009	2368.25
408.784	2396.25
414.553	2401.25
420.315	2407.25
426.071	2398.25
431.821	2394.25
437.565	2398.25
443.302	2381.25
449.033	2395.25
454.758	2365.25
460.477	2370.25
466.189	2352.25
471.896	2351.25
477.596	2329.25
483.29	2342.25
488.978	2310.25
494.66	2314.25
500.335	2285.25
506.005	2248.25
511.668	2194.25
517.325	2154.25
522.977	2126.25
528.622	2119.25
534.261	2088.25
539.894	2062.25
545.521	2071.25
551.141	2044.25
556.756	2031.25
562.365	2006.25
567.968	2013.25
573.565	1992.25
579.155	1973.25
584.74	1982.25
590.319	1951.25
595.892	1963.25
601.459	1963.25
607.02	1930.25
612.575	1921.25
618.124	1881.25
623.667	1881.25
629.204	1857.25
634.735	1834.25
640.261	1858.25
645.781	1824.25
651.294	1828.25
656.802	1805.25
662.304	1797.25
667.8	1786.25
673.29	1790.25
678.775	1792.25
684.254	1779.25
689.726	1783.25
695.193	1767.25
700.655	1742.25
706.11	1744.25
711.56	1728.25
717.004	1737.25
722.442	1713.25
727.874	1701.25
733.301	1702.25
738.722	1687.25
744.137	1685.25
749.547	1668.25
754.951	1682.25
760.349	1694.25
765.741	1663.25
771.128	1686.25
776.509	1682.25
781.885	1666.25
787.254	1668.25
792.618	1677.25
797.977	1651.25
803.33	1650.25
808.677	1641.25
814.019	1615.25
819.355	1591.25
824.686	1595.25
830.011	1578.25
835.33	1574.25
840.644	1587.25
845.952	1560.25
851.255	1568.25
856.552	1576.25
861.844	1550.25
867.13	1545.25
872.41	1532.25
877.686	1504.25
882.955	1493.25
888.219	1477.25
893.478	1464.25
898.731	1439.25
903.979	1419.25
909.221	1419.25
914.458	1408.25
919.69	1405.25
924.916	1411.25
930.136	1394.25
935.351	1397.25
940.561	1403.25
945.766	1408.25
950.965	1407.25
956.158	1387.25
961.347	1364.25
966.529	1357.25
971.707	1325.25
976.879	1311.25
982.046	1294.25
987.208	1294.25
992.364	1304.25
997.515	1328.25
1002.66	1328.25
1007.801	1331.25
1012.936	1340.25
1018.066	1356.25
1023.19	1354.25
1028.309	1358.25
1033.423	1356.25
1038.532	1366.25
1043.636	1338.25
1048.734	1325.25
1053.827	1317.25
1058.915	1311.25
1063.998	1287.25
1069.075	1292.25
1074.147	1304.25
1079.214	1291.25
1084.276	1331.25
1089.333	1326.25
1094.385	1325.25
1099.431	1351.25
1104.472	1341.25
1109.509	1339.25
1114.54	1334.25
1119.565	1310.25
1124.586	1305.25
1129.602	1278.25
1134.613	1266.25
1139.618	1268.25
1144.619	1286.25
1149.614	1272.25
1154.604	1286.25
1159.589	1299.25
1164.57	1301.25
1169.545	1295.25
1174.515	1295.25
1179.48	1305.25
1184.44	1286.25
1189.395	1291.25
1194.345	1272.25
1199.29	1270.25
1204.23	1272.25
1209.165	1262.25
1214.095	1279.25
1219.021	1295.25
1223.941	1311.25
1228.856	1319.25
1233.766	1321.25
1238.672	1331.25
1243.572	1318.25
1248.467	1310.25
1253.358	1300.25
1258.244	1290.25
1263.124	1263.25
1268	1248.25
1272.871	1233.25
1277.737	1230.25
1282.599	1229.25
1287.455	1240.25
1292.306	1242.25
1297.153	1234.25
1301.995	1258.25
1306.832	1262.25
1311.664	1257.25
1316.491	1269.25
1321.314	1265.25
1326.132	1261.25
1330.945	1246.25
1335.753	1228.25
1340.556	1210.25
1345.354	1209.25
1350.148	1194.25
1354.937	1202.25
1359.722	1195.25
1364.501	1175.25
1369.276	1161.25
1374.046	1148.25
1378.811	1153.25
1383.572	1154.25
1388.327	1155.25
1393.079	1144.25
1397.825	1140.25
1402.567	1131.25
1407.304	1131.25
1412.036	1115.25
1416.764	1113.25
1421.487	1117.25
1426.205	1125.25
1430.919	1133.25
1435.628	1141.25
1440.333	1159.25
1445.032	1166.25
1449.727	1191.25
1454.418	1169.25
1459.104	1171.25
1463.785	1166.25
1468.462	1155.25
1473.134	1147.25
1477.802	1130.25
1482.465	1143.25
1487.123	1133.25
1491.777	1145.25
1496.426	1154.25
1501.071	1157.25
1505.711	1176.25
1510.347	1169.25
1514.978	1195.25
1519.604	1186.25
1524.226	1197.25
1528.844	1182.25
1533.457	1188.25
1538.065	1190.25
1542.669	1192.25
1547.269	1195.25
1551.864	1187.25
1556.454	1188.25
1561.041	1196.25
1565.622	1221.25
1570.199	1231.25
1574.772	1244.25
1579.34	1276.25
1583.904	1296.25
1588.464	1310.25
1593.019	1320.25
1597.569	1333.25
1602.115	1342.25
1606.657	1347.25
1611.195	1375.25
1615.728	1371.25
1620.256	1380.25
1624.78	1407.25
1629.3	1419.25
1633.816	1430.25
1638.327	1466.25
1642.834	1487.25
1647.336	1483.25
1651.834	1504.25
1656.328	1491.25
1660.817	1484.25
1665.302	1461.25
1669.783	1427.25
1674.259	1399.25
1678.732	1365.25
1683.199	1337.25
1687.663	1282.25
1692.122	1240.25
1696.577	1210.25
1701.028	1153.25
1705.474	1099.25
1709.917	1076.25
1714.355	1058.25
1718.788	1042.25
1723.218	1036.25
1727.643	1021.25
1732.064	997.25
1736.481	965.25
1740.893	961.25
1745.301	927.25
1749.705	910.25
1754.105	883.25
1758.501	858.25
1762.893	850.25
1767.28	846.25
1771.663	841.25
1776.042	831.25
1780.417	836.25
1784.787	852.25
1789.154	845.25
1793.516	838.25
1797.874	829.25
1802.228	831.25
1806.578	819.25
1810.924	812.25
1815.266	797.25
1819.603	789.25
1823.937	780.25
1828.266	763.25
1832.591	757.25
1836.913	766.25
1841.23	758.25
1845.543	757.25
1849.852	755.25
1854.156	763.25
1858.457	765.25
1862.754	776.25
1867.047	780.25
1871.335	790.25
1875.62	787.25
1879.9	794.25
1884.177	779.25
1888.449	780.25
1892.718	789.25
1896.982	784.25
1901.243	783.25
1905.499	770.25
1909.752	775.25
1914	770.25
1918.245	767.25
1922.485	759.25
1926.722	779.25
1930.954	774.25
1935.183	756.25
1939.408	788.25
1943.628	775.25
1947.845	774.25
1952.058	778.25
1956.267	765.25
1960.472	773.25
1964.673	757.25
1968.87	745.25
1973.063	735.25
1977.252	736.25
1981.438	733.25
1985.619	725.25
1989.797	727.25
1993.971	731.25
1998.14	727.25
2002.306	734.25
2006.469	743.25
2010.627	736.25
2014.781	744.25
2018.932	751.25
2023.078	741.25
2027.221	742.25
2031.36	738.25
2035.495	738.25
2039.627	729.25
2043.754	714.25
2047.878	723.25
2051.998	724.25
2056.114	722.25
2060.226	717.25
2064.334	722.25
2068.439	734.25
2072.54	735.25
2076.637	742.25
2080.73	737.25
2084.82	735.25
2088.906	734.25
2092.988	739.25
2097.066	744.25
2101.14	730.25
2105.211	727.25
2109.278	730.25
2113.342	711.25
2117.401	721.25
2121.457	711.25
2125.509	701.25
2129.558	703.25
2133.602	701.25
2137.643	682.25
2141.681	691.25
2145.714	688.25
2149.744	685.25
2153.77	684.25
2157.793	686.25
2161.812	670.25
2165.827	667.25
2169.838	657.25
2173.846	652.25
2177.851	629.25
2181.851	632.25
2185.848	626.25
2189.841	622.25
2193.831	621.25
2197.817	620.25
2201.799	606.25
2205.778	608.25
2209.753	604.25
2213.725	605.25
2217.693	601.25
2221.657	600.25
2225.618	595.25
2229.575	589.25
2233.529	602.25
2237.479	590.25
2241.425	591.25
2245.368	570.25
2249.307	567.25
2253.243	563.25
2257.175	556.25
2261.104	544.25
2265.029	538.25
2268.95	536.25
2272.868	532.25
2276.783	525.25
2280.694	523.25
2284.601	513.25
2288.505	497.25
2292.405	505.25
2296.302	492.25
2300.195	484.25
2304.085	475.25
2307.971	467.25
2311.854	466.25
2315.734	467.25
2319.609	451.25
2323.482	440.25
2327.351	442.25
2331.216	438.25
2335.078	441.25
2338.937	431.25
2342.792	425.25
2346.643	413.25
2350.492	426.25
2354.336	429.25
2358.178	424.25
2362.015	422.25
2365.85	433.25
2369.681	426.25
2373.508	427.25
2377.333	431.25
2381.153	429.25
2384.971	422.25
2388.785	434.25
2392.595	425.25
2396.402	418.25
2400.206	420.25
2404.007	408.25
2407.804	410.25
2411.597	402.25
2415.388	414.25
2419.174	415.25
2422.958	413.25
2426.738	405.25
2430.515	422.25
2434.289	409.25
2438.059	408.25
2441.825	410.25
2445.589	404.25
2449.349	400.25
2453.106	398.25
2456.859	393.25
2460.61	397.25
2464.356	386.25
2468.1	388.25
2471.84	380.25
2475.577	385.25
2479.311	381.25
2483.041	375.25
2486.768	380.25
2490.492	378.25
2494.213	369.25
2497.93	372.25
2501.644	377.25
2505.355	383.25
2509.062	378.25
2512.766	375.25
2516.467	365.25
2520.165	361.25
2523.859	365.25
2527.551	361.25
2531.239	358.25
2534.923	354.25
2538.605	359.25
2542.283	350.25
2545.958	358.25
2549.63	345.25
2553.299	348.25
2556.964	334.25
2560.626	341.25
2564.285	341.25
2567.941	341.25
2571.594	340.25
2575.243	336.25
2578.89	327.25
2582.533	339.25
2586.173	327.25
2589.809	323.25
2593.443	328.25
2597.073	322.25
2600.701	312.25
2604.325	313.25
2607.946	308.25
2611.564	317.25
2615.178	309.25
2618.79	308.25
2622.398	309.25
2626.004	306.25
2629.606	308.25
2633.205	301.25
2636.801	310.25
2640.394	298.25
2643.983	300.25
2647.57	297.25
2651.153	293.25
2654.734	285.25
2658.311	288.25
2661.885	292.25
2665.456	274.25
2669.025	273.25
2672.589	270.25
2676.151	273.25
2679.71	276.25
2683.266	278.25
2686.819	276.25
2690.368	268.25
2693.915	268.25
2697.458	257.25
2700.999	253.25
2704.536	256.25
2708.071	251.25
2711.602	241.25
2715.13	241.25
2718.656	241.25
2722.178	244.25
2725.697	248.25
2729.214	253.25
2732.727	248.25
2736.237	251.25
2739.744	250.25
2743.249	247.25
2746.75	255.25
2750.248	258.25
2753.743	249.25
2757.236	246.25
2760.725	252.25
2764.211	237.25
2767.695	243.25
2771.175	239.25
2774.652	233.25
2778.127	232.25
2781.598	228.25
2785.067	232.25
2788.532	240.25
2791.995	237.25
2795.455	229.25
2798.911	231.25
2802.365	231.25
2805.816	226.25
2809.264	241.25
2812.709	243.25
2816.151	235.25
2819.59	244.25
2823.026	234.25
2826.46	233.25
2829.89	237.25
2833.318	231.25
2836.742	238.25
2840.164	235.25
2843.583	234.25
2846.999	240.25
2850.412	247.25
2853.822	250.25
2857.229	251.25
2860.634	253.25
2864.035	256.25
2867.434	256.25
2870.83	262.25
2874.223	261.25
2877.613	267.25
2881	266.25
2884.385	263.25
2887.766	263.25
2891.145	259.25
2894.521	257.25
2897.894	268.25
2901.264	266.25
2904.631	269.25
2907.996	279.25
2911.358	268.25
2914.717	281.25
2918.073	276.25
2921.426	285.25
2924.777	284.25
2928.124	286.25
2931.469	294.25
2934.811	300.25
2938.15	299.25
2941.487	304.25
2944.821	303.25
2948.152	313.25
2951.48	319.25
2954.805	332.25
2958.128	330.25
2961.447	328.25
2964.765	334.25
2968.079	344.25
2971.39	352.25
2974.699	355.25
2978.005	370.25
2981.308	371.25
2984.609	380.25
2987.907	381.25
2991.202	397.25
2994.494	414.25
2997.784	425.25
3001.07	422.25
3004.355	433.25
3007.636	443.25
3010.915	469.25
3014.191	465.25
3017.464	481.25
3020.734	479.25
3024.002	479.25
3027.267	494.25
3030.53	501.25
3033.789	511.25
3037.046	522.25
3040.301	533.25
3043.552	538.25
3046.801	558.25
3050.048	571.25
3053.291	573.25
3056.532	598.25
3059.771	617.25
3063.006	644.25
3066.239	662.25
3069.469	666.25
3072.697	683.25
3075.922	702.25
3079.144	727.25
3082.364	747.25
3085.581	767.25
3088.795	783.25
3092.007	800.25
3095.216	812.25
3098.423	835.25
3101.627	844.25
3104.828	870.25
3108.026	884.25
3111.222	900.25
3114.416	912.25
3117.607	945.25
3120.795	971.25
3123.98	989.25
3127.163	1017.25
3130.344	1039.25
3133.521	1055.25
3136.696	1077.25
3139.869	1098.25
3143.039	1111.25
3146.206	1111.25
3149.371	1141.25
3152.533	1165.25
3155.693	1173.25
3158.85	1174.25
3162.005	1167.25
3165.157	1175.25
3168.306	1191.25
3171.453	1175.25
3174.597	1202.25
3177.739	1204.25
3180.878	1201.25
3184.014	1221.25
3187.149	1207.25
3190.28	1212.25
3193.409	1202.25
3196.536	1210.25
3199.659	1221.25
3202.781	1246.25
3205.9	1224.25
3209.016	1226.25
3212.13	1225.25
3215.241	1222.25
3218.35	1206.25
3221.456	1200.25
3224.56	1191.25
3227.661	1182.25
3230.76	1159.25
3233.856	1152.25
3236.95	1139.25
3240.041	1145.25
3243.13	1145.25
3246.216	1125.25
3249.3	1117.25
3252.382	1103.25
3255.46	1108.25
3258.537	1101.25
3261.611	1089.25
3264.682	1088.25
3267.751	1094.25
3270.818	1078.25
3273.882	1080.25
3276.943	1075.25
3280.002	1061.25
3283.059	1057.25
3286.113	1034.25
3289.165	1024.25
3292.214	1014.25
3295.261	1000.25
3298.306	986.25
3301.348	969.25
3304.387	949.25
3307.425	933.25
3310.459	925.25
3313.492	908.25
3316.521	893.25
3319.549	888.25
3322.574	874.25
3325.597	874.25
3328.617	870.25
3331.635	855.25
3334.65	864.25
3337.663	845.25
3340.674	858.25
3343.682	852.25
3346.688	843.25
3349.691	848.25
3352.692	827.25
3355.691	829.25
3358.687	824.25
3361.681	810.25
3364.673	798.25
3367.662	796.25
3370.649	786.25
3373.633	777.25
3376.615	769.25
3379.595	750.25
3382.572	734.25
3385.547	735.25
3388.52	720.25
3391.49	706.25
3394.458	701.25
3397.424	705.25
3400.387	690.25
3403.348	687.25
3406.307	677.25
3409.263	665.25
3412.217	656.25
3415.168	646.25
3418.118	649.25
3421.065	630.25
3424.009	622.25
3426.951	617.25
3429.891	610.25
3432.829	592.25
3435.764	586.25
3438.697	568.25
3441.628	558.25
3444.557	534.25
3447.483	541.25
3450.407	519.25
3453.328	498.25
3456.247	491.25
3459.164	473.25
3462.079	464.25
3464.991	444.25
3467.902	436.25
3470.809	417.25
3473.715	404.25
3476.618	404.25
3479.519	384.25
3482.418	368.25
3485.315	365.25
3488.209	344.25
3491.101	349.25
3493.99	337.25
3496.878	314.25
3499.763	312.25
3502.646	304.25
3505.527	283.25
3508.405	271.25
3511.281	276.25
3514.155	258.25
3517.027	239.25
3519.897	229.25
3522.764	220.25
3525.629	201.25
3528.492	193.25
3531.352	188.25
3534.211	174.25
3537.067	163.25
3539.921	156.25
3542.773	147.25
3545.622	144.25
3548.469	120.25
3551.315	117.25
3554.157	108.25
3556.998	99.25
3559.837	98.25
3562.673	89.25
3565.507	82.25
3568.339	71.25
3571.169	68.25
3573.996	66.25
3576.822	61.25
3579.645	58.25
3582.466	45.25
3585.285	45.25
3588.101	42.25
3590.916	31.25
3593.728	25.25
3596.538	25.25
3599.346	18.25
3602.152	14.25
3604.956	9.25
3607.757	10.25
3610.556	-0.75
3613.354	-4.75
3616.149	-4.75
3618.942	-14.75
3621.732	-16.75
3624.521	-12.75
3627.307	-18.75
3630.092	-26.75
3632.874	-26.75
3635.654	-26.75
3638.432	-34.75
3641.208	-30.75
3643.982	-37.75
3646.753	-40.75
3649.523	-44.75
3652.29	-44.75
3655.055	-48.75
3657.818	-47.75
3660.579	-53.75
3663.338	-55.75
3666.095	-57.75
3668.849	-58.75
3671.602	-64.75
3674.352	-68.75
3677.101	-67.75
3679.847	-70.75
3682.591	-73.75
3685.333	-70.75
3688.073	-76.75
3690.811	-72.75
3693.547	-82.75
3696.281	-76.75
3699.013	-81.75
3701.742	-80.75
3704.47	-86.75
3707.195	-82.75
3709.919	-81.75
3712.64	-85.75
3715.359	-82.75
3718.076	-83.75
3720.792	-92.75
3723.505	-90.75
3726.216	-92.75
3728.925	-92.75
3731.632	-90.75
3734.336	-95.75
3737.039	-96.75
3739.74	-94.75
3742.439	-90.75
3745.136	-92.75
3747.83	-92.75
3750.523	-96.75
3753.213	-97.75
3755.902	-97.75
3758.589	-101.75
3761.273	-95.75
3763.956	-98.75
3766.636	-98.75
3769.315	-103.75
3771.991	-99.75
3774.665	-104.75
3777.338	-101.75
3780.008	-105.75
3782.677	-106.75
3785.343	-101.75
3788.007	-101.75
3790.67	-99.75
3793.33	-101.75
3795.989	-100.75
3798.645	-99.75
3801.299	-102.75
3803.952	-106.75
3806.602	-106.75
3809.251	-111.75
3811.897	-106.75
3814.542	-104.75
3817.184	-108.75
3819.825	-105.75
3822.463	-108.75
3825.1	-106.75
3827.735	-107.75
3830.367	-106.75
3832.998	-112.75
3835.627	-107.75
3838.253	-106.75
3840.878	-105.75
3843.501	-105.75
3846.122	-107.75
3848.741	-106.75
3851.358	-106.75
3853.973	-112.75
3856.586	-112.75
3859.197	-110.75
3861.806	-110.75
3864.414	-111.75
3867.019	-110.75
3869.622	-104.75
3872.224	-111.75
3874.823	-105.75
3877.421	-105.75
3880.016	-102.75
3882.61	-97.75
3885.202	-98.75
3887.792	-100.75
3890.38	-102.75
3892.966	-106.75
3895.55	-107.75
3898.132	-106.75
3900.713	-113.75
3903.291	-113.75
3905.868	-113.75
3908.442	-114.75
3911.015	-112.75
3913.586	-113.75
3916.155	-107.75
3918.722	-109.75
3921.287	-110.75
3923.85	-115.75
3926.411	-111.75
3928.971	-115.75
3931.528	-116.75
3934.084	-114.75
3936.638	-114.75
3939.19	-113.75
3941.74	-111.75
3944.288	-116.75
3946.834	-118.75
3949.378	-116.75
3951.921	-117.75
3954.462	-116.75
3957	-115.75
3959.537	-113.75
3962.072	-110.75
3964.606	-108.75
3967.137	-110.75
3969.667	-113.75
3972.194	-113.75
3974.72	-114.75
3977.244	-111.75
3979.766	-113.75
3982.286	-117.75
3984.805	-116.75
3987.321	-116.75
3989.836	-112.75
3992.349	-114.75
3994.86	-113.75
3997.369	-111.75
3999.877	-110.75
4002.382	-111.75
4004.886	-111.75
4007.388	-111.75
4009.888	-111.75
4012.386	-111.75
4014.883	-111.75
4017.377	-110.75
4019.87	-110.75
4022.361	-110.75
4024.85	-117.75
4027.338	-117.75
4029.823	-113.75
4032.307	-116.75
4034.789	-115.75
4037.269	-114.75
4039.747	-111.75
4042.224	-110.75
4044.699	-114.75
4047.172	-111.75
4049.643	-112.75
4052.112	-115.75
4054.58	-113.75
4057.046	-113.75
4059.51	-114.75
4061.972	-115.75
4064.432	-114.75
4066.891	-114.75
4069.348	-114.75
4071.803	-114.75
4074.256	-117.75
4076.708	-115.75
4079.158	-112.75
4081.606	-115.75
4084.052	-115.75
4086.497	-112.75
4088.939	-109.75
4091.38	-113.75
4093.819	-114.75
4096.257	-114.75
4098.693	-113.75
4101.127	-117.75
4103.559	-118.75
4105.989	-76.75
4108.418	-77.75
4110.845	-77.75
4113.27	-67.75
4115.694	-57.75
4118.115	-47.75
4120.535	-112.75
4122.954	-118.75
4125.37	-115.75
4127.785	-116.75
4130.198	-116.75
4132.609	-116.75
4135.019	-119.75
4137.427	-118.75
4139.833	-119.75
4142.237	-119.75
