Data from 10CFU1_B_RamanShift_1.txt Node
Date: Wed Jan 25 12:25:25 IST 2017
User: aro
Spectrometer: QEPB0276
Trigger mode: 0
Integration Time (sec): 5.000000E0
Scans to average: 1
Electric dark correction enabled: true
Nonlinearity correction enabled: false
Boxcar width: 0
XAxis mode: Raman Shifts
Number of Pixels in Spectrum: 1044
>>>>>Begin Spectral Data<<<<<
160.701	-39.88
166.742	-2.88
172.777	105.12
178.805	438.12
184.826	1194.12
190.841	2443.12
196.849	3777.12
202.85	4657.12
208.845	4858.12
214.833	4669.12
220.815	4507.12
226.789	4355.12
232.758	4251.12
238.719	4121.12
244.674	3987.12
250.623	3820.12
256.565	3644.12
262.5	3490.12
268.429	3345.12
274.351	3196.12
280.267	3070.12
286.176	2978.12
292.079	2879.12
297.975	2797.12
303.865	2731.12
309.748	2641.12
315.625	2568.12
321.495	2534.12
327.359	2490.12
333.217	2461.12
339.068	2429.12
344.912	2433.12
350.751	2435.12
356.583	2405.12
362.408	2419.12
368.227	2423.12
374.04	2411.12
379.847	2436.12
385.647	2455.12
391.44	2458.12
397.228	2464.12
403.009	2483.12
408.784	2503.12
414.553	2493.12
420.315	2511.12
426.071	2498.12
431.821	2500.12
437.565	2495.12
443.302	2500.12
449.033	2484.12
454.758	2485.12
460.477	2482.12
466.189	2474.12
471.896	2458.12
477.596	2433.12
483.29	2417.12
488.978	2415.12
494.66	2405.12
500.335	2367.12
506.005	2342.12
511.668	2287.12
517.325	2267.12
522.977	2210.12
528.622	2186.12
534.261	2157.12
539.894	2147.12
545.521	2135.12
551.141	2123.12
556.756	2111.12
562.365	2096.12
567.968	2084.12
573.565	2077.12
579.155	2070.12
584.74	2055.12
590.319	2030.12
595.892	2035.12
601.459	2009.12
607.02	1999.12
612.575	1976.12
618.124	1970.12
623.667	1940.12
629.204	1917.12
634.735	1917.12
640.261	1889.12
645.781	1885.12
651.294	1878.12
656.802	1891.12
662.304	1871.12
667.8	1871.12
673.29	1864.12
678.775	1847.12
684.254	1829.12
689.726	1851.12
695.193	1824.12
700.655	1824.12
706.11	1807.12
711.56	1787.12
717.004	1786.12
722.442	1785.12
727.874	1751.12
733.301	1748.12
738.722	1741.12
744.137	1733.12
749.547	1717.12
754.951	1728.12
760.349	1737.12
765.741	1705.12
771.128	1744.12
776.509	1715.12
781.885	1736.12
787.254	1703.12
792.618	1704.12
797.977	1692.12
803.33	1687.12
808.677	1686.12
814.019	1670.12
819.355	1651.12
824.686	1635.12
830.011	1621.12
835.33	1630.12
840.644	1627.12
845.952	1609.12
851.255	1601.12
856.552	1600.12
861.844	1567.12
867.13	1562.12
872.41	1558.12
877.686	1557.12
882.955	1524.12
888.219	1499.12
893.478	1496.12
898.731	1467.12
903.979	1454.12
909.221	1438.12
914.458	1428.12
919.69	1425.12
924.916	1435.12
930.136	1420.12
935.351	1427.12
940.561	1409.12
945.766	1416.12
950.965	1400.12
956.158	1396.12
961.347	1375.12
966.529	1356.12
971.707	1337.12
976.879	1323.12
982.046	1331.12
987.208	1305.12
992.364	1313.12
997.515	1321.12
1002.66	1315.12
1007.801	1330.12
1012.936	1346.12
1018.066	1366.12
1023.19	1369.12
1028.309	1355.12
1033.423	1371.12
1038.532	1350.12
1043.636	1331.12
1048.734	1321.12
1053.827	1318.12
1058.915	1304.12
1063.998	1306.12
1069.075	1294.12
1074.147	1297.12
1079.214	1315.12
1084.276	1339.12
1089.333	1331.12
1094.385	1323.12
1099.431	1339.12
1104.472	1349.12
1109.509	1339.12
1114.54	1332.12
1119.565	1294.12
1124.586	1301.12
1129.602	1288.12
1134.613	1265.12
1139.618	1254.12
1144.619	1275.12
1149.614	1274.12
1154.604	1274.12
1159.589	1295.12
1164.57	1288.12
1169.545	1294.12
1174.515	1319.12
1179.48	1295.12
1184.44	1294.12
1189.395	1287.12
1194.345	1261.12
1199.29	1263.12
1204.23	1289.12
1209.165	1275.12
1214.095	1297.12
1219.021	1292.12
1223.941	1301.12
1228.856	1309.12
1233.766	1330.12
1238.672	1321.12
1243.572	1323.12
1248.467	1308.12
1253.358	1306.12
1258.244	1284.12
1263.124	1246.12
1268	1246.12
1272.871	1234.12
1277.737	1231.12
1282.599	1229.12
1287.455	1234.12
1292.306	1248.12
1297.153	1232.12
1301.995	1239.12
1306.832	1256.12
1311.664	1254.12
1316.491	1256.12
1321.314	1274.12
1326.132	1243.12
1330.945	1242.12
1335.753	1218.12
1340.556	1206.12
1345.354	1200.12
1350.148	1192.12
1354.937	1196.12
1359.722	1180.12
1364.501	1161.12
1369.276	1160.12
1374.046	1149.12
1378.811	1150.12
1383.572	1139.12
1388.327	1148.12
1393.079	1133.12
1397.825	1131.12
1402.567	1116.12
1407.304	1125.12
1412.036	1110.12
1416.764	1105.12
1421.487	1100.12
1426.205	1111.12
1430.919	1118.12
1435.628	1130.12
1440.333	1128.12
1445.032	1164.12
1449.727	1165.12
1454.418	1175.12
1459.104	1156.12
1463.785	1152.12
1468.462	1140.12
1473.134	1149.12
1477.802	1120.12
1482.465	1128.12
1487.123	1127.12
1491.777	1159.12
1496.426	1128.12
1501.071	1151.12
1505.711	1156.12
1510.347	1174.12
1514.978	1158.12
1519.604	1181.12
1524.226	1176.12
1528.844	1185.12
1533.457	1174.12
1538.065	1189.12
1542.669	1180.12
1547.269	1183.12
1551.864	1178.12
1556.454	1180.12
1561.041	1206.12
1565.622	1219.12
1570.199	1217.12
1574.772	1236.12
1579.34	1271.12
1583.904	1289.12
1588.464	1307.12
1593.019	1319.12
1597.569	1336.12
1602.115	1354.12
1606.657	1358.12
1611.195	1355.12
1615.728	1379.12
1620.256	1403.12
1624.78	1413.12
1629.3	1426.12
1633.816	1434.12
1638.327	1483.12
1642.834	1488.12
1647.336	1494.12
1651.834	1500.12
1656.328	1515.12
1660.817	1493.12
1665.302	1476.12
1669.783	1437.12
1674.259	1408.12
1678.732	1368.12
1683.199	1322.12
1687.663	1298.12
1692.122	1236.12
1696.577	1206.12
1701.028	1158.12
1705.474	1106.12
1709.917	1069.12
1714.355	1046.12
1718.788	1029.12
1723.218	1010.12
1727.643	993.12
1732.064	987.12
1736.481	955.12
1740.893	931.12
1745.301	907.12
1749.705	893.12
1754.105	857.12
1758.501	850.12
1762.893	840.12
1767.28	827.12
1771.663	813.12
1776.042	825.12
1780.417	821.12
1784.787	816.12
1789.154	823.12
1793.516	818.12
1797.874	823.12
1802.228	802.12
1806.578	798.12
1810.924	791.12
1815.266	766.12
1819.603	757.12
1823.937	753.12
1828.266	755.12
1832.591	733.12
1836.913	742.12
1841.23	748.12
1845.543	725.12
1849.852	740.12
1854.156	735.12
1858.457	737.12
1862.754	742.12
1867.047	740.12
1871.335	754.12
1875.62	755.12
1879.9	753.12
1884.177	750.12
1888.449	762.12
1892.718	754.12
1896.982	755.12
1901.243	739.12
1905.499	735.12
1909.752	733.12
1914	743.12
1918.245	740.12
1922.485	731.12
1926.722	743.12
1930.954	731.12
1935.183	738.12
1939.408	743.12
1943.628	750.12
1947.845	751.12
1952.058	747.12
1956.267	739.12
1960.472	739.12
1964.673	726.12
1968.87	724.12
1973.063	722.12
1977.252	714.12
1981.438	716.12
1985.619	715.12
1989.797	704.12
1993.971	701.12
1998.14	706.12
2002.306	710.12
2006.469	713.12
2010.627	718.12
2014.781	707.12
2018.932	706.12
2023.078	722.12
2027.221	713.12
2031.36	710.12
2035.495	698.12
2039.627	708.12
2043.754	694.12
2047.878	700.12
2051.998	692.12
2056.114	701.12
2060.226	693.12
2064.334	690.12
2068.439	699.12
2072.54	710.12
2076.637	701.12
2080.73	717.12
2084.82	717.12
2088.906	702.12
2092.988	717.12
2097.066	710.12
2101.14	719.12
2105.211	710.12
2109.278	695.12
2113.342	694.12
2117.401	681.12
2121.457	687.12
2125.509	684.12
2129.558	684.12
2133.602	669.12
2137.643	674.12
2141.681	677.12
2145.714	669.12
2149.744	675.12
2153.77	652.12
2157.793	662.12
2161.812	648.12
2165.827	642.12
2169.838	639.12
2173.846	623.12
2177.851	615.12
2181.851	615.12
2185.848	599.12
2189.841	593.12
2193.831	595.12
2197.817	594.12
2201.799	588.12
2205.778	577.12
2209.753	587.12
2213.725	579.12
2217.693	584.12
2221.657	576.12
2225.618	572.12
2229.575	576.12
2233.529	570.12
2237.479	563.12
2241.425	570.12
2245.368	548.12
2249.307	543.12
2253.243	533.12
2257.175	527.12
2261.104	518.12
2265.029	511.12
2268.95	507.12
2272.868	496.12
2276.783	499.12
2280.694	491.12
2284.601	478.12
2288.505	481.12
2292.405	476.12
2296.302	464.12
2300.195	474.12
2304.085	458.12
2307.971	445.12
2311.854	456.12
2315.734	438.12
2319.609	432.12
2323.482	425.12
2327.351	410.12
2331.216	413.12
2335.078	410.12
2338.937	408.12
2342.792	409.12
2346.643	398.12
2350.492	403.12
2354.336	402.12
2358.178	403.12
2362.015	400.12
2365.85	409.12
2369.681	408.12
2373.508	405.12
2377.333	406.12
2381.153	403.12
2384.971	415.12
2388.785	395.12
2392.595	401.12
2396.402	402.12
2400.206	383.12
2404.007	388.12
2407.804	382.12
2411.597	382.12
2415.388	393.12
2419.174	378.12
2422.958	382.12
2426.738	389.12
2430.515	378.12
2434.289	382.12
2438.059	378.12
2441.825	379.12
2445.589	374.12
2449.349	378.12
2453.106	377.12
2456.859	363.12
2460.61	365.12
2464.356	354.12
2468.1	344.12
2471.84	340.12
2475.577	351.12
2479.311	344.12
2483.041	351.12
2486.768	349.12
2490.492	351.12
2494.213	355.12
2497.93	350.12
2501.644	347.12
2505.355	352.12
2509.062	344.12
2512.766	354.12
2516.467	343.12
2520.165	346.12
2523.859	333.12
2527.551	334.12
2531.239	330.12
2534.923	327.12
2538.605	329.12
2542.283	324.12
2545.958	326.12
2549.63	319.12
2553.299	323.12
2556.964	314.12
2560.626	313.12
2564.285	309.12
2567.941	308.12
2571.594	314.12
2575.243	309.12
2578.89	312.12
2582.533	316.12
2586.173	304.12
2589.809	297.12
2593.443	297.12
2597.073	290.12
2600.701	288.12
2604.325	290.12
2607.946	286.12
2611.564	286.12
2615.178	282.12
2618.79	289.12
2622.398	290.12
2626.004	281.12
2629.606	276.12
2633.205	284.12
2636.801	281.12
2640.394	274.12
2643.983	275.12
2647.57	269.12
2651.153	264.12
2654.734	256.12
2658.311	257.12
2661.885	259.12
2665.456	250.12
2669.025	247.12
2672.589	244.12
2676.151	251.12
2679.71	244.12
2683.266	245.12
2686.819	246.12
2690.368	243.12
2693.915	243.12
2697.458	233.12
2700.999	233.12
2704.536	228.12
2708.071	231.12
2711.602	230.12
2715.13	219.12
2718.656	224.12
2722.178	223.12
2725.697	227.12
2729.214	229.12
2732.727	227.12
2736.237	230.12
2739.744	227.12
2743.249	224.12
2746.75	222.12
2750.248	230.12
2753.743	228.12
2757.236	223.12
2760.725	228.12
2764.211	225.12
2767.695	219.12
2771.175	214.12
2774.652	226.12
2778.127	208.12
2781.598	211.12
2785.067	212.12
2788.532	220.12
2791.995	218.12
2795.455	218.12
2798.911	222.12
2802.365	222.12
2805.816	217.12
2809.264	220.12
2812.709	231.12
2816.151	218.12
2819.59	223.12
2823.026	220.12
2826.46	219.12
2829.89	218.12
2833.318	216.12
2836.742	222.12
2840.164	225.12
2843.583	231.12
2846.999	222.12
2850.412	232.12
2853.822	240.12
2857.229	236.12
2860.634	247.12
2864.035	246.12
2867.434	253.12
2870.83	252.12
2874.223	251.12
2877.613	246.12
2881	254.12
2884.385	255.12
2887.766	255.12
2891.145	252.12
2894.521	248.12
2897.894	262.12
2901.264	259.12
2904.631	263.12
2907.996	261.12
2911.358	272.12
2914.717	270.12
2918.073	271.12
2921.426	276.12
2924.777	274.12
2928.124	286.12
2931.469	288.12
2934.811	297.12
2938.15	306.12
2941.487	300.12
2944.821	307.12
2948.152	311.12
2951.48	325.12
2954.805	318.12
2958.128	321.12
2961.447	337.12
2964.765	340.12
2968.079	346.12
2971.39	360.12
2974.699	370.12
2978.005	373.12
2981.308	377.12
2984.609	382.12
2987.907	395.12
2991.202	394.12
2994.494	418.12
2997.784	420.12
3001.07	441.12
3004.355	452.12
3007.636	455.12
3010.915	473.12
3014.191	483.12
3017.464	492.12
3020.734	489.12
3024.002	501.12
3027.267	507.12
3030.53	520.12
3033.789	524.12
3037.046	534.12
3040.301	557.12
3043.552	560.12
3046.801	565.12
3050.048	591.12
3053.291	608.12
3056.532	628.12
3059.771	646.12
3063.006	670.12
3066.239	691.12
3069.469	700.12
3072.697	721.12
3075.922	755.12
3079.144	769.12
3082.364	781.12
3085.581	808.12
3088.795	830.12
3092.007	842.12
3095.216	846.12
3098.423	890.12
3101.627	897.12
3104.828	911.12
3108.026	925.12
3111.222	970.12
3114.416	973.12
3117.607	990.12
3120.795	1026.12
3123.98	1057.12
3127.163	1079.12
3130.344	1105.12
3133.521	1122.12
3136.696	1154.12
3139.869	1167.12
3143.039	1173.12
3146.206	1193.12
3149.371	1218.12
3152.533	1240.12
3155.693	1221.12
3158.85	1227.12
3162.005	1263.12
3165.157	1254.12
3168.306	1261.12
3171.453	1270.12
3174.597	1269.12
3177.739	1269.12
3180.878	1291.12
3184.014	1275.12
3187.149	1296.12
3190.28	1283.12
3193.409	1299.12
3196.536	1295.12
3199.659	1312.12
3202.781	1304.12
3205.9	1311.12
3209.016	1294.12
3212.13	1309.12
3215.241	1308.12
3218.35	1281.12
3221.456	1269.12
3224.56	1280.12
3227.661	1262.12
3230.76	1245.12
3233.856	1232.12
3236.95	1232.12
3240.041	1223.12
3243.13	1222.12
3246.216	1207.12
3249.3	1182.12
3252.382	1185.12
3255.46	1173.12
3258.537	1179.12
3261.611	1173.12
3264.682	1170.12
3267.751	1164.12
3270.818	1150.12
3273.882	1152.12
3276.943	1140.12
3280.002	1132.12
3283.059	1125.12
3286.113	1094.12
3289.165	1081.12
3292.214	1094.12
3295.261	1059.12
3298.306	1049.12
3301.348	1030.12
3304.387	1002.12
3307.425	987.12
3310.459	988.12
3313.492	982.12
3316.521	957.12
3319.549	952.12
3322.574	932.12
3325.597	932.12
3328.617	927.12
3331.635	919.12
3334.65	925.12
3337.663	918.12
3340.674	911.12
3343.682	909.12
3346.688	903.12
3349.691	888.12
3352.692	899.12
3355.691	886.12
3358.687	894.12
3361.681	875.12
3364.673	853.12
3367.662	858.12
3370.649	834.12
3373.633	830.12
3376.615	809.12
3379.595	800.12
3382.572	791.12
3385.547	769.12
3388.52	765.12
3391.49	760.12
3394.458	763.12
3397.424	747.12
3400.387	738.12
3403.348	728.12
3406.307	723.12
3409.263	709.12
3412.217	708.12
3415.168	687.12
3418.118	691.12
3421.065	669.12
3424.009	667.12
3426.951	657.12
3429.891	647.12
3432.829	634.12
3435.764	622.12
3438.697	617.12
3441.628	602.12
3444.557	576.12
3447.483	566.12
3450.407	540.12
3453.328	533.12
3456.247	520.12
3459.164	504.12
3462.079	492.12
3464.991	465.12
3467.902	471.12
3470.809	449.12
3473.715	436.12
3476.618	429.12
3479.519	403.12
3482.418	397.12
3485.315	378.12
3488.209	373.12
3491.101	369.12
3493.99	349.12
3496.878	337.12
3499.763	340.12
3502.646	315.12
3505.527	304.12
3508.405	290.12
3511.281	288.12
3514.155	273.12
3517.027	260.12
3519.897	248.12
3522.764	235.12
3525.629	223.12
3528.492	219.12
3531.352	197.12
3534.211	181.12
3537.067	179.12
3539.921	171.12
3542.773	156.12
3545.622	146.12
3548.469	137.12
3551.315	131.12
3554.157	117.12
3556.998	110.12
3559.837	107.12
3562.673	101.12
3565.507	89.12
3568.339	81.12
3571.169	81.12
3573.996	75.12
3576.822	64.12
3579.645	64.12
3582.466	54.12
3585.285	51.12
3588.101	48.12
3590.916	31.12
3593.728	31.12
3596.538	24.12
3599.346	23.12
3602.152	18.12
3604.956	8.12
3607.757	10.12
3610.556	3.12
3613.354	-1.88
3616.149	-2.88
3618.942	-3.88
3621.732	-12.88
3624.521	-13.88
3627.307	-17.88
3630.092	-21.88
3632.874	-25.88
3635.654	-28.88
3638.432	-29.88
3641.208	-34.88
3643.982	-37.88
3646.753	-43.88
3649.523	-41.88
3652.29	-46.88
3655.055	-46.88
3657.818	-46.88
3660.579	-51.88
3663.338	-57.88
3666.095	-56.88
3668.849	-59.88
3671.602	-60.88
3674.352	-62.88
3677.101	-69.88
3679.847	-74.88
3682.591	-72.88
3685.333	-74.88
3688.073	-80.88
3690.811	-75.88
3693.547	-81.88
3696.281	-82.88
3699.013	-84.88
3701.742	-84.88
3704.47	-84.88
3707.195	-83.88
3709.919	-87.88
3712.64	-83.88
3715.359	-84.88
3718.076	-89.88
3720.792	-95.88
3723.505	-93.88
3726.216	-92.88
3728.925	-94.88
3731.632	-94.88
3734.336	-100.88
3737.039	-101.88
3739.74	-96.88
3742.439	-98.88
3745.136	-97.88
3747.83	-94.88
3750.523	-98.88
3753.213	-99.88
3755.902	-96.88
3758.589	-99.88
3761.273	-101.88
3763.956	-101.88
3766.636	-104.88
3769.315	-104.88
3771.991	-107.88
3774.665	-109.88
3777.338	-106.88
3780.008	-110.88
3782.677	-108.88
3785.343	-105.88
3788.007	-110.88
3790.67	-106.88
3793.33	-108.88
3795.989	-104.88
3798.645	-105.88
3801.299	-104.88
3803.952	-107.88
3806.602	-105.88
3809.251	-109.88
3811.897	-109.88
3814.542	-109.88
3817.184	-111.88
3819.825	-110.88
3822.463	-112.88
3825.1	-114.88
3827.735	-111.88
3830.367	-115.88
3832.998	-116.88
3835.627	-113.88
3838.253	-112.88
3840.878	-112.88
3843.501	-111.88
3846.122	-112.88
3848.741	-110.88
3851.358	-111.88
3853.973	-112.88
3856.586	-116.88
3859.197	-113.88
3861.806	-116.88
3864.414	-115.88
3867.019	-116.88
3869.622	-112.88
3872.224	-113.88
3874.823	-109.88
3877.421	-113.88
3880.016	-108.88
3882.61	-104.88
3885.202	-104.88
3887.792	-104.88
3890.38	-109.88
3892.966	-111.88
3895.55	-112.88
3898.132	-115.88
3900.713	-116.88
3903.291	-112.88
3905.868	-117.88
3908.442	-116.88
3911.015	-117.88
3913.586	-117.88
3916.155	-114.88
3918.722	-115.88
3921.287	-117.88
3923.85	-120.88
3926.411	-118.88
3928.971	-121.88
3931.528	-118.88
3934.084	-121.88
3936.638	-120.88
3939.19	-119.88
3941.74	-119.88
3944.288	-119.88
3946.834	-122.88
3949.378	-120.88
3951.921	-118.88
3954.462	-118.88
3957	-117.88
3959.537	-118.88
3962.072	-115.88
3964.606	-117.88
3967.137	-115.88
3969.667	-115.88
3972.194	-117.88
3974.72	-116.88
3977.244	-118.88
3979.766	-117.88
3982.286	-118.88
3984.805	-119.88
3987.321	-118.88
3989.836	-116.88
3992.349	-120.88
3994.86	-116.88
3997.369	-115.88
3999.877	-111.88
4002.382	-113.88
4004.886	-114.88
4007.388	-113.88
4009.888	-117.88
4012.386	-120.88
4014.883	-116.88
4017.377	-115.88
4019.87	-118.88
4022.361	-117.88
4024.85	-118.88
4027.338	-119.88
4029.823	-115.88
4032.307	-120.88
4034.789	-118.88
4037.269	-117.88
4039.747	-118.88
4042.224	-114.88
4044.699	-120.88
4047.172	-115.88
4049.643	-115.88
4052.112	-115.88
4054.58	-119.88
4057.046	-118.88
4059.51	-117.88
4061.972	-121.88
4064.432	-122.88
4066.891	-120.88
4069.348	-121.88
4071.803	-120.88
4074.256	-121.88
4076.708	-118.88
4079.158	-116.88
4081.606	-117.88
4084.052	-117.88
4086.497	-114.88
4088.939	-114.88
4091.38	-116.88
4093.819	-116.88
4096.257	-120.88
4098.693	-121.88
4101.127	-121.88
4103.559	-119.88
4105.989	-75.88
4108.418	-77.88
4110.845	-72.88
4113.27	-67.88
4115.694	-63.88
4118.115	-54.88
4120.535	-119.88
4122.954	-120.88
4125.37	-119.88
4127.785	-122.88
4130.198	-122.88
4132.609	-123.88
4135.019	-125.88
4137.427	-126.88
4139.833	-123.88
4142.237	-123.88
