Data from Height 4_RamanShift_1.txt Node
Date: Wed Apr 19 11:54:53 IDT 2017
User: aro
Spectrometer: QEPB0276
Trigger mode: 0
Integration Time (sec): 2.000000E0
Scans to average: 1
Electric dark correction enabled: true
Nonlinearity correction enabled: false
Boxcar width: 0
XAxis mode: Raman Shifts
Number of Pixels in Spectrum: 1044
>>>>>Begin Spectral Data<<<<<
160.701	0.25
166.742	2.25
172.777	6.25
178.805	17.25
184.826	47.25
190.841	98.25
196.849	158.25
202.85	195.25
208.845	205.25
214.833	207.25
220.815	198.25
226.789	197.25
232.758	199.25
238.719	193.25
244.674	190.25
250.623	185.25
256.565	192.25
262.5	192.25
268.429	183.25
274.351	187.25
280.267	181.25
286.176	173.25
292.079	171.25
297.975	168.25
303.865	160.25
309.748	158.25
315.625	151.25
321.495	151.25
327.359	149.25
333.217	150.25
339.068	152.25
344.912	149.25
350.751	151.25
356.583	147.25
362.408	150.25
368.227	155.25
374.04	161.25
379.847	172.25
385.647	183.25
391.44	181.25
397.228	188.25
403.009	199.25
408.784	222.25
414.553	279.25
420.315	346.25
426.071	420.25
431.821	457.25
437.565	500.25
443.302	482.25
449.033	425.25
454.758	344.25
460.477	286.25
466.189	251.25
471.896	220.25
477.596	194.25
483.29	173.25
488.978	171.25
494.66	157.25
500.335	142.25
506.005	128.25
511.668	123.25
517.325	112.25
522.977	102.25
528.622	96.25
534.261	88.25
539.894	84.25
545.521	83.25
551.141	81.25
556.756	80.25
562.365	77.25
567.968	74.25
573.565	75.25
579.155	78.25
584.74	78.25
590.319	75.25
595.892	74.25
601.459	78.25
607.02	78.25
612.575	81.25
618.124	75.25
623.667	80.25
629.204	80.25
634.735	81.25
640.261	84.25
645.781	94.25
651.294	94.25
656.802	95.25
662.304	79.25
667.8	73.25
673.29	77.25
678.775	74.25
684.254	69.25
689.726	69.25
695.193	69.25
700.655	66.25
706.11	66.25
711.56	65.25
717.004	64.25
722.442	65.25
727.874	66.25
733.301	66.25
738.722	64.25
744.137	67.25
749.547	75.25
754.951	77.25
760.349	77.25
765.741	72.25
771.128	70.25
776.509	85.25
781.885	83.25
787.254	89.25
792.618	99.25
797.977	100.25
803.33	115.25
808.677	118.25
814.019	122.25
819.355	123.25
824.686	117.25
830.011	124.25
835.33	135.25
840.644	145.25
845.952	160.25
851.255	183.25
856.552	234.25
861.844	304.25
867.13	446.25
872.41	761.25
877.686	1375.25
882.955	2199.25
888.219	2692.25
893.478	2325.25
898.731	1420.25
903.979	734.25
909.221	429.25
914.458	281.25
919.69	217.25
924.916	181.25
930.136	149.25
935.351	133.25
940.561	115.25
945.766	112.25
950.965	102.25
956.158	98.25
961.347	94.25
966.529	94.25
971.707	80.25
976.879	90.25
982.046	93.25
987.208	101.25
992.364	112.25
997.515	129.25
1002.66	149.25
1007.801	185.25
1012.936	200.25
1018.066	223.25
1023.19	266.25
1028.309	345.25
1033.423	443.25
1038.532	557.25
1043.636	690.25
1048.734	849.25
1053.827	965.25
1058.915	980.25
1063.998	847.25
1069.075	691.25
1074.147	595.25
1079.214	589.25
1084.276	663.25
1089.333	783.25
1094.385	940.25
1099.431	1021.25
1104.472	969.25
1109.509	791.25
1114.54	592.25
1119.565	479.25
1124.586	410.25
1129.602	358.25
1134.613	300.25
1139.618	247.25
1144.619	209.25
1149.614	181.25
1154.604	164.25
1159.589	147.25
1164.57	137.25
1169.545	122.25
1174.515	113.25
1179.48	103.25
1184.44	99.25
1189.395	100.25
1194.345	95.25
1199.29	93.25
1204.23	98.25
1209.165	93.25
1214.095	95.25
1219.021	98.25
1223.941	96.25
1228.856	101.25
1233.766	115.25
1238.672	123.25
1243.572	131.25
1248.467	147.25
1253.358	155.25
1258.244	182.25
1263.124	219.25
1268	275.25
1272.871	356.25
1277.737	439.25
1282.599	459.25
1287.455	416.25
1292.306	322.25
1297.153	253.25
1301.995	215.25
1306.832	191.25
1311.664	176.25
1316.491	165.25
1321.314	154.25
1326.132	150.25
1330.945	142.25
1335.753	148.25
1340.556	132.25
1345.354	143.25
1350.148	141.25
1354.937	149.25
1359.722	148.25
1364.501	153.25
1369.276	162.25
1374.046	170.25
1378.811	188.25
1383.572	207.25
1388.327	218.25
1393.079	229.25
1397.825	237.25
1402.567	253.25
1407.304	265.25
1412.036	294.25
1416.764	317.25
1421.487	345.25
1426.205	398.25
1430.919	431.25
1435.628	504.25
1440.333	592.25
1445.032	720.25
1449.727	926.25
1454.418	1112.25
1459.104	1208.25
1463.785	1130.25
1468.462	934.25
1473.134	739.25
1477.802	636.25
1482.465	578.25
1487.123	563.25
1491.777	497.25
1496.426	438.25
1501.071	358.25
1505.711	302.25
1510.347	243.25
1514.978	225.25
1519.604	200.25
1524.226	176.25
1528.844	160.25
1533.457	147.25
1538.065	137.25
1542.669	120.25
1547.269	111.25
1551.864	103.25
1556.454	100.25
1561.041	95.25
1565.622	89.25
1570.199	78.25
1574.772	74.25
1579.34	69.25
1583.904	64.25
1588.464	68.25
1593.019	64.25
1597.569	57.25
1602.115	62.25
1606.657	59.25
1611.195	58.25
1615.728	52.25
1620.256	55.25
1624.78	52.25
1629.3	50.25
1633.816	46.25
1638.327	45.25
1642.834	39.25
1647.336	43.25
1651.834	39.25
1656.328	37.25
1660.817	32.25
1665.302	35.25
1669.783	35.25
1674.259	30.25
1678.732	35.25
1683.199	30.25
1687.663	28.25
1692.122	34.25
1696.577	33.25
1701.028	31.25
1705.474	30.25
1709.917	28.25
1714.355	28.25
1718.788	28.25
1723.218	26.25
1727.643	27.25
1732.064	24.25
1736.481	27.25
1740.893	25.25
1745.301	22.25
1749.705	24.25
1754.105	20.25
1758.501	19.25
1762.893	20.25
1767.28	20.25
1771.663	14.25
1776.042	15.25
1780.417	13.25
1784.787	14.25
1789.154	14.25
1793.516	11.25
1797.874	11.25
1802.228	8.25
1806.578	9.25
1810.924	11.25
1815.266	13.25
1819.603	6.25
1823.937	6.25
1828.266	9.25
1832.591	11.25
1836.913	4.25
1841.23	6.25
1845.543	8.25
1849.852	2.25
1854.156	11.25
1858.457	12.25
1862.754	12.25
1867.047	11.25
1871.335	13.25
1875.62	10.25
1879.9	9.25
1884.177	9.25
1888.449	8.25
1892.718	7.25
1896.982	9.25
1901.243	7.25
1905.499	7.25
1909.752	7.25
1914	11.25
1918.245	10.25
1922.485	8.25
1926.722	10.25
1930.954	7.25
1935.183	9.25
1939.408	9.25
1943.628	7.25
1947.845	7.25
1952.058	7.25
1956.267	12.25
1960.472	7.25
1964.673	10.25
1968.87	10.25
1973.063	10.25
1977.252	8.25
1981.438	8.25
1985.619	5.25
1989.797	9.25
1993.971	5.25
1998.14	3.25
2002.306	3.25
2006.469	4.25
2010.627	7.25
2014.781	4.25
2018.932	7.25
2023.078	7.25
2027.221	4.25
2031.36	11.25
2035.495	6.25
2039.627	7.25
2043.754	5.25
2047.878	4.25
2051.998	4.25
2056.114	7.25
2060.226	4.25
2064.334	6.25
2068.439	4.25
2072.54	2.25
2076.637	5.25
2080.73	4.25
2084.82	6.25
2088.906	6.25
2092.988	8.25
2097.066	10.25
2101.14	8.25
2105.211	7.25
2109.278	8.25
2113.342	9.25
2117.401	9.25
2121.457	7.25
2125.509	10.25
2129.558	7.25
2133.602	6.25
2137.643	9.25
2141.681	6.25
2145.714	5.25
2149.744	8.25
2153.77	8.25
2157.793	6.25
2161.812	10.25
2165.827	11.25
2169.838	7.25
2173.846	6.25
2177.851	7.25
2181.851	4.25
2185.848	6.25
2189.841	6.25
2193.831	5.25
2197.817	3.25
2201.799	3.25
2205.778	3.25
2209.753	3.25
2213.725	3.25
2217.693	5.25
2221.657	5.25
2225.618	9.25
2229.575	7.25
2233.529	9.25
2237.479	5.25
2241.425	9.25
2245.368	9.25
2249.307	14.25
2253.243	12.25
2257.175	15.25
2261.104	16.25
2265.029	12.25
2268.95	10.25
2272.868	11.25
2276.783	13.25
2280.694	16.25
2284.601	10.25
2288.505	14.25
2292.405	9.25
2296.302	9.25
2300.195	5.25
2304.085	7.25
2307.971	7.25
2311.854	3.25
2315.734	6.25
2319.609	7.25
2323.482	5.25
2327.351	7.25
2331.216	13.25
2335.078	14.25
2338.937	9.25
2342.792	8.25
2346.643	6.25
2350.492	9.25
2354.336	7.25
2358.178	6.25
2362.015	7.25
2365.85	7.25
2369.681	7.25
2373.508	6.25
2377.333	7.25
2381.153	7.25
2384.971	5.25
2388.785	6.25
2392.595	7.25
2396.402	4.25
2400.206	9.25
2404.007	1.25
2407.804	5.25
2411.597	8.25
2415.388	4.25
2419.174	4.25
2422.958	8.25
2426.738	8.25
2430.515	8.25
2434.289	7.25
2438.059	7.25
2441.825	8.25
2445.589	7.25
2449.349	10.25
2453.106	11.25
2456.859	9.25
2460.61	13.25
2464.356	11.25
2468.1	15.25
2471.84	15.25
2475.577	11.25
2479.311	10.25
2483.041	8.25
2486.768	12.25
2490.492	8.25
2494.213	9.25
2497.93	11.25
2501.644	14.25
2505.355	14.25
2509.062	14.25
2512.766	15.25
2516.467	17.25
2520.165	17.25
2523.859	16.25
2527.551	15.25
2531.239	18.25
2534.923	23.25
2538.605	21.25
2542.283	29.25
2545.958	31.25
2549.63	27.25
2553.299	30.25
2556.964	28.25
2560.626	26.25
2564.285	24.25
2567.941	29.25
2571.594	28.25
2575.243	23.25
2578.89	24.25
2582.533	23.25
2586.173	27.25
2589.809	22.25
2593.443	22.25
2597.073	27.25
2600.701	23.25
2604.325	21.25
2607.946	24.25
2611.564	17.25
2615.178	23.25
2618.79	22.25
2622.398	25.25
2626.004	25.25
2629.606	21.25
2633.205	26.25
2636.801	23.25
2640.394	25.25
2643.983	30.25
2647.57	30.25
2651.153	30.25
2654.734	28.25
2658.311	31.25
2661.885	32.25
2665.456	35.25
2669.025	34.25
2672.589	38.25
2676.151	38.25
2679.71	40.25
2683.266	43.25
2686.819	49.25
2690.368	50.25
2693.915	60.25
2697.458	67.25
2700.999	74.25
2704.536	89.25
2708.071	99.25
2711.602	107.25
2715.13	113.25
2718.656	120.25
2722.178	122.25
2725.697	121.25
2729.214	116.25
2732.727	112.25
2736.237	112.25
2739.744	110.25
2743.249	108.25
2746.75	106.25
2750.248	108.25
2753.743	104.25
2757.236	116.25
2760.725	101.25
2764.211	101.25
2767.695	96.25
2771.175	92.25
2774.652	91.25
2778.127	87.25
2781.598	90.25
2785.067	94.25
2788.532	91.25
2791.995	102.25
2795.455	106.25
2798.911	110.25
2802.365	116.25
2805.816	130.25
2809.264	139.25
2812.709	155.25
2816.151	164.25
2819.59	188.25
2823.026	205.25
2826.46	233.25
2829.89	249.25
2833.318	274.25
2836.742	299.25
2840.164	310.25
2843.583	338.25
2846.999	343.25
2850.412	367.25
2853.822	391.25
2857.229	421.25
2860.634	456.25
2864.035	502.25
2867.434	575.25
2870.83	634.25
2874.223	726.25
2877.613	795.25
2881	832.25
2884.385	855.25
2887.766	856.25
2891.145	827.25
2894.521	788.25
2897.894	750.25
2901.264	721.25
2904.631	704.25
2907.996	690.25
2911.358	679.25
2914.717	697.25
2918.073	743.25
2921.426	801.25
2924.777	881.25
2928.124	986.25
2931.469	1042.25
2934.811	1044.25
2938.15	985.25
2941.487	885.25
2944.821	764.25
2948.152	685.25
2951.48	600.25
2954.805	547.25
2958.128	496.25
2961.447	478.25
2964.765	467.25
2968.079	468.25
2971.39	494.25
2974.699	482.25
2978.005	486.25
2981.308	453.25
2984.609	421.25
2987.907	373.25
2991.202	319.25
2994.494	283.25
2997.784	244.25
3001.07	213.25
3004.355	179.25
3007.636	166.25
3010.915	145.25
3014.191	133.25
3017.464	120.25
3020.734	111.25
3024.002	101.25
3027.267	88.25
3030.53	81.25
3033.789	79.25
3037.046	77.25
3040.301	68.25
3043.552	64.25
3046.801	59.25
3050.048	58.25
3053.291	54.25
3056.532	53.25
3059.771	52.25
3063.006	51.25
3066.239	48.25
3069.469	45.25
3072.697	40.25
3075.922	43.25
3079.144	38.25
3082.364	39.25
3085.581	32.25
3088.795	29.25
3092.007	30.25
3095.216	26.25
3098.423	23.25
3101.627	26.25
3104.828	22.25
3108.026	22.25
3111.222	18.25
3114.416	21.25
3117.607	17.25
3120.795	21.25
3123.98	23.25
3127.163	18.25
3130.344	22.25
3133.521	22.25
3136.696	21.25
3139.869	23.25
3143.039	24.25
3146.206	18.25
3149.371	21.25
3152.533	19.25
3155.693	22.25
3158.85	19.25
3162.005	21.25
3165.157	19.25
3168.306	19.25
3171.453	17.25
3174.597	18.25
3177.739	18.25
3180.878	11.25
3184.014	12.25
3187.149	19.25
3190.28	15.25
3193.409	17.25
3196.536	15.25
3199.659	16.25
3202.781	16.25
3205.9	20.25
3209.016	15.25
3212.13	17.25
3215.241	14.25
3218.35	19.25
3221.456	16.25
3224.56	22.25
3227.661	19.25
3230.76	17.25
3233.856	18.25
3236.95	17.25
3240.041	22.25
3243.13	18.25
3246.216	18.25
3249.3	17.25
3252.382	16.25
3255.46	22.25
3258.537	21.25
3261.611	20.25
3264.682	18.25
3267.751	16.25
3270.818	18.25
3273.882	17.25
3276.943	21.25
3280.002	19.25
3283.059	18.25
3286.113	21.25
3289.165	17.25
3292.214	16.25
3295.261	16.25
3298.306	16.25
3301.348	14.25
3304.387	15.25
3307.425	15.25
3310.459	14.25
3313.492	13.25
3316.521	9.25
3319.549	11.25
3322.574	11.25
3325.597	10.25
3328.617	11.25
3331.635	10.25
3334.65	10.25
3337.663	14.25
3340.674	10.25
3343.682	16.25
3346.688	11.25
3349.691	15.25
3352.692	20.25
3355.691	15.25
3358.687	18.25
3361.681	14.25
3364.673	11.25
3367.662	10.25
3370.649	13.25
3373.633	9.25
3376.615	10.25
3379.595	13.25
3382.572	8.25
3385.547	7.25
3388.52	8.25
3391.49	7.25
3394.458	7.25
3397.424	6.25
3400.387	6.25
3403.348	5.25
3406.307	8.25
3409.263	5.25
3412.217	3.25
3415.168	6.25
3418.118	7.25
3421.065	9.25
3424.009	8.25
3426.951	9.25
3429.891	9.25
3432.829	7.25
3435.764	6.25
3438.697	10.25
3441.628	6.25
3444.557	3.25
3447.483	7.25
3450.407	5.25
3453.328	5.25
3456.247	2.25
3459.164	5.25
3462.079	1.25
3464.991	5.25
3467.902	3.25
3470.809	4.25
3473.715	0.25
3476.618	3.25
3479.519	1.25
3482.418	0.25
3485.315	2.25
3488.209	-1.75
3491.101	-0.75
3493.99	2.25
3496.878	-1.75
3499.763	-0.75
3502.646	-0.75
3505.527	2.25
3508.405	3.25
3511.281	1.25
3514.155	-3.75
3517.027	-1.75
3519.897	0.25
3522.764	-0.75
3525.629	-3.75
3528.492	-1.75
3531.352	-2.75
3534.211	-0.75
3537.067	-1.75
3539.921	-1.75
3542.773	-0.75
3545.622	-0.75
3548.469	1.25
3551.315	-0.75
3554.157	-1.75
3556.998	-1.75
3559.837	-3.75
3562.673	-1.75
3565.507	-2.75
3568.339	-2.75
3571.169	-2.75
3573.996	-4.75
3576.822	-2.75
3579.645	-4.75
3582.466	-2.75
3585.285	-9.75
3588.101	-5.75
3590.916	-7.75
3593.728	-7.75
3596.538	-6.75
3599.346	-6.75
3602.152	-7.75
3604.956	-7.75
3607.757	-6.75
3610.556	-4.75
3613.354	-3.75
3616.149	-5.75
3618.942	-2.75
3621.732	-0.75
3624.521	-3.75
3627.307	-3.75
3630.092	-2.75
3632.874	-3.75
3635.654	-1.75
3638.432	-2.75
3641.208	-2.75
3643.982	-6.75
3646.753	-1.75
3649.523	-1.75
3652.29	-5.75
3655.055	-7.75
3657.818	-8.75
3660.579	-8.75
3663.338	-7.75
3666.095	-5.75
3668.849	-5.75
3671.602	-6.75
3674.352	-7.75
3677.101	-9.75
3679.847	-7.75
3682.591	-5.75
3685.333	-5.75
3688.073	-7.75
3690.811	-2.75
3693.547	-4.75
3696.281	-6.75
3699.013	-5.75
3701.742	-5.75
3704.47	-5.75
3707.195	-3.75
3709.919	-1.75
3712.64	-2.75
3715.359	-2.75
3718.076	-5.75
3720.792	-3.75
3723.505	-4.75
3726.216	-4.75
3728.925	-6.75
3731.632	-6.75
3734.336	-6.75
3737.039	-8.75
3739.74	-6.75
3742.439	-3.75
3745.136	-4.75
3747.83	-7.75
3750.523	-8.75
3753.213	-3.75
3755.902	-8.75
3758.589	-8.75
3761.273	-7.75
3763.956	-8.75
3766.636	-4.75
3769.315	-6.75
3771.991	-8.75
3774.665	-7.75
3777.338	-8.75
3780.008	-7.75
3782.677	-3.75
3785.343	-4.75
3788.007	-3.75
3790.67	-5.75
3793.33	-2.75
3795.989	-8.75
3798.645	-5.75
3801.299	-2.75
3803.952	-4.75
3806.602	-6.75
3809.251	-7.75
3811.897	-5.75
3814.542	-4.75
3817.184	-4.75
3819.825	-5.75
3822.463	-6.75
3825.1	-6.75
3827.735	-4.75
3830.367	-5.75
3832.998	-6.75
3835.627	-2.75
3838.253	-3.75
3840.878	-1.75
3843.501	-5.75
3846.122	-1.75
3848.741	-5.75
3851.358	-2.75
3853.973	-1.75
3856.586	-1.75
3859.197	-5.75
3861.806	-6.75
3864.414	-6.75
3867.019	-5.75
3869.622	-8.75
3872.224	-6.75
3874.823	-6.75
3877.421	-9.75
3880.016	-7.75
3882.61	-7.75
3885.202	-4.75
3887.792	-0.75
3890.38	-5.75
3892.966	-7.75
3895.55	-4.75
3898.132	-8.75
3900.713	-5.75
3903.291	-5.75
3905.868	-6.75
3908.442	-5.75
3911.015	-6.75
3913.586	-2.75
3916.155	-9.75
3918.722	-5.75
3921.287	-7.75
3923.85	-2.75
3926.411	-3.75
3928.971	-1.75
3931.528	-7.75
3934.084	-4.75
3936.638	-7.75
3939.19	-5.75
3941.74	-8.75
3944.288	-8.75
3946.834	-6.75
3949.378	-6.75
3951.921	-8.75
3954.462	-6.75
3957	-7.75
3959.537	-5.75
3962.072	-5.75
3964.606	-4.75
3967.137	-6.75
3969.667	-7.75
3972.194	-5.75
3974.72	-5.75
3977.244	-6.75
3979.766	-4.75
3982.286	-5.75
3984.805	-5.75
3987.321	-5.75
3989.836	-1.75
3992.349	-1.75
3994.86	-2.75
3997.369	-3.75
3999.877	-4.75
4002.382	-9.75
4004.886	-3.75
4007.388	-3.75
4009.888	-3.75
4012.386	-7.75
4014.883	-5.75
4017.377	-6.75
4019.87	-4.75
4022.361	-5.75
4024.85	-6.75
4027.338	-1.75
4029.823	-5.75
4032.307	-2.75
4034.789	-3.75
4037.269	-1.75
4039.747	-4.75
4042.224	-3.75
4044.699	-6.75
4047.172	-5.75
4049.643	-7.75
4052.112	-5.75
4054.58	-8.75
4057.046	-9.75
4059.51	-10.75
4061.972	-7.75
4064.432	-5.75
4066.891	-8.75
4069.348	-8.75
4071.803	-10.75
4074.256	-8.75
4076.708	-8.75
4079.158	-7.75
4081.606	-5.75
4084.052	-5.75
4086.497	-6.75
4088.939	-4.75
4091.38	-4.75
4093.819	-5.75
4096.257	-8.75
4098.693	-6.75
4101.127	-11.75
4103.559	-7.75
4105.989	-1.75
4108.418	0.25
4110.845	1.25
4113.27	-0.75
4115.694	2.25
4118.115	2.25
4120.535	-1.75
4122.954	-4.75
4125.37	-1.75
4127.785	-4.75
4130.198	-2.75
4132.609	-2.75
4135.019	-6.75
4137.427	-8.75
4139.833	-4.75
4142.237	-5.75
