Data from 100000CFU2_B_RamanShift_1.txt Node
Date: Mon Jan 23 14:34:07 IST 2017
User: aro
Spectrometer: QEPB0276
Trigger mode: 0
Integration Time (sec): 5.000000E0
Scans to average: 1
Electric dark correction enabled: true
Nonlinearity correction enabled: false
Boxcar width: 0
XAxis mode: Raman Shifts
Number of Pixels in Spectrum: 1044
>>>>>Begin Spectral Data<<<<<
160.701	-32.62
166.742	2.38
172.777	92.38
178.805	381.38
184.826	1063.38
190.841	2218.38
196.849	3433.38
202.85	4256.38
208.845	4432.38
214.833	4316.38
220.815	4137.38
226.789	4031.38
232.758	3902.38
238.719	3791.38
244.674	3649.38
250.623	3502.38
256.565	3348.38
262.5	3182.38
268.429	3054.38
274.351	2900.38
280.267	2785.38
286.176	2713.38
292.079	2602.38
297.975	2528.38
303.865	2437.38
309.748	2373.38
315.625	2316.38
321.495	2276.38
327.359	2230.38
333.217	2205.38
339.068	2197.38
344.912	2175.38
350.751	2142.38
356.583	2154.38
362.408	2138.38
368.227	2160.38
374.04	2144.38
379.847	2174.38
385.647	2174.38
391.44	2192.38
397.228	2212.38
403.009	2236.38
408.784	2228.38
414.553	2232.38
420.315	2225.38
426.071	2223.38
431.821	2206.38
437.565	2220.38
443.302	2234.38
449.033	2222.38
454.758	2199.38
460.477	2207.38
466.189	2207.38
471.896	2185.38
477.596	2189.38
483.29	2147.38
488.978	2170.38
494.66	2166.38
500.335	2105.38
506.005	2087.38
511.668	2061.38
517.325	2016.38
522.977	2001.38
528.622	1951.38
534.261	1934.38
539.894	1937.38
545.521	1912.38
551.141	1909.38
556.756	1901.38
562.365	1863.38
567.968	1879.38
573.565	1848.38
579.155	1862.38
584.74	1840.38
590.319	1827.38
595.892	1810.38
601.459	1801.38
607.02	1789.38
612.575	1774.38
618.124	1753.38
623.667	1725.38
629.204	1737.38
634.735	1717.38
640.261	1720.38
645.781	1688.38
651.294	1665.38
656.802	1682.38
662.304	1656.38
667.8	1655.38
673.29	1660.38
678.775	1660.38
684.254	1636.38
689.726	1622.38
695.193	1617.38
700.655	1613.38
706.11	1597.38
711.56	1583.38
717.004	1569.38
722.442	1571.38
727.874	1559.38
733.301	1567.38
738.722	1526.38
744.137	1550.38
749.547	1541.38
754.951	1530.38
760.349	1524.38
765.741	1540.38
771.128	1546.38
776.509	1525.38
781.885	1532.38
787.254	1527.38
792.618	1516.38
797.977	1496.38
803.33	1481.38
808.677	1482.38
814.019	1463.38
819.355	1448.38
824.686	1437.38
830.011	1423.38
835.33	1424.38
840.644	1419.38
845.952	1413.38
851.255	1391.38
856.552	1401.38
861.844	1380.38
867.13	1383.38
872.41	1381.38
877.686	1381.38
882.955	1346.38
888.219	1329.38
893.478	1302.38
898.731	1296.38
903.979	1258.38
909.221	1271.38
914.458	1255.38
919.69	1236.38
924.916	1235.38
930.136	1250.38
935.351	1234.38
940.561	1237.38
945.766	1229.38
950.965	1230.38
956.158	1209.38
961.347	1208.38
966.529	1173.38
971.707	1162.38
976.879	1152.38
982.046	1138.38
987.208	1131.38
992.364	1128.38
997.515	1140.38
1002.66	1155.38
1007.801	1145.38
1012.936	1157.38
1018.066	1176.38
1023.19	1183.38
1028.309	1173.38
1033.423	1177.38
1038.532	1182.38
1043.636	1157.38
1048.734	1158.38
1053.827	1133.38
1058.915	1134.38
1063.998	1114.38
1069.075	1121.38
1074.147	1128.38
1079.214	1132.38
1084.276	1138.38
1089.333	1163.38
1094.385	1152.38
1099.431	1161.38
1104.472	1169.38
1109.509	1150.38
1114.54	1138.38
1119.565	1125.38
1124.586	1114.38
1129.602	1084.38
1134.613	1108.38
1139.618	1101.38
1144.619	1084.38
1149.614	1100.38
1154.604	1118.38
1159.589	1108.38
1164.57	1120.38
1169.545	1124.38
1174.515	1121.38
1179.48	1095.38
1184.44	1096.38
1189.395	1096.38
1194.345	1103.38
1199.29	1094.38
1204.23	1096.38
1209.165	1091.38
1214.095	1107.38
1219.021	1117.38
1223.941	1116.38
1228.856	1131.38
1233.766	1122.38
1238.672	1141.38
1243.572	1141.38
1248.467	1129.38
1253.358	1122.38
1258.244	1107.38
1263.124	1093.38
1268	1062.38
1272.871	1059.38
1277.737	1061.38
1282.599	1050.38
1287.455	1045.38
1292.306	1063.38
1297.153	1076.38
1301.995	1069.38
1306.832	1072.38
1311.664	1079.38
1316.491	1102.38
1321.314	1076.38
1326.132	1058.38
1330.945	1060.38
1335.753	1032.38
1340.556	1047.38
1345.354	1020.38
1350.148	1025.38
1354.937	1019.38
1359.722	1006.38
1364.501	990.38
1369.276	1000.38
1374.046	972.38
1378.811	966.38
1383.572	976.38
1388.327	968.38
1393.079	967.38
1397.825	961.38
1402.567	944.38
1407.304	952.38
1412.036	931.38
1416.764	935.38
1421.487	945.38
1426.205	940.38
1430.919	947.38
1435.628	963.38
1440.333	967.38
1445.032	982.38
1449.727	997.38
1454.418	994.38
1459.104	995.38
1463.785	984.38
1468.462	991.38
1473.134	972.38
1477.802	972.38
1482.465	968.38
1487.123	971.38
1491.777	963.38
1496.426	970.38
1501.071	980.38
1505.711	981.38
1510.347	997.38
1514.978	997.38
1519.604	1006.38
1524.226	1027.38
1528.844	1017.38
1533.457	1012.38
1538.065	1005.38
1542.669	1005.38
1547.269	1006.38
1551.864	1006.38
1556.454	1009.38
1561.041	1018.38
1565.622	1020.38
1570.199	1034.38
1574.772	1068.38
1579.34	1088.38
1583.904	1105.38
1588.464	1114.38
1593.019	1122.38
1597.569	1135.38
1602.115	1165.38
1606.657	1165.38
1611.195	1173.38
1615.728	1200.38
1620.256	1192.38
1624.78	1226.38
1629.3	1243.38
1633.816	1273.38
1638.327	1283.38
1642.834	1294.38
1647.336	1312.38
1651.834	1295.38
1656.328	1320.38
1660.817	1300.38
1665.302	1279.38
1669.783	1263.38
1674.259	1222.38
1678.732	1202.38
1683.199	1166.38
1687.663	1122.38
1692.122	1081.38
1696.577	1042.38
1701.028	987.38
1705.474	935.38
1709.917	911.38
1714.355	890.38
1718.788	880.38
1723.218	870.38
1727.643	852.38
1732.064	826.38
1736.481	808.38
1740.893	790.38
1745.301	760.38
1749.705	740.38
1754.105	725.38
1758.501	718.38
1762.893	708.38
1767.28	695.38
1771.663	682.38
1776.042	671.38
1780.417	692.38
1784.787	695.38
1789.154	698.38
1793.516	678.38
1797.874	681.38
1802.228	673.38
1806.578	666.38
1810.924	654.38
1815.266	641.38
1819.603	630.38
1823.937	613.38
1828.266	608.38
1832.591	612.38
1836.913	620.38
1841.23	611.38
1845.543	606.38
1849.852	613.38
1854.156	612.38
1858.457	606.38
1862.754	624.38
1867.047	622.38
1871.335	613.38
1875.62	622.38
1879.9	616.38
1884.177	630.38
1888.449	615.38
1892.718	610.38
1896.982	614.38
1901.243	614.38
1905.499	616.38
1909.752	611.38
1914	618.38
1918.245	614.38
1922.485	622.38
1926.722	615.38
1930.954	635.38
1935.183	627.38
1939.408	633.38
1943.628	634.38
1947.845	627.38
1952.058	623.38
1956.267	607.38
1960.472	606.38
1964.673	616.38
1968.87	599.38
1973.063	594.38
1977.252	583.38
1981.438	592.38
1985.619	590.38
1989.797	573.38
1993.971	572.38
1998.14	590.38
2002.306	585.38
2006.469	598.38
2010.627	592.38
2014.781	612.38
2018.932	607.38
2023.078	607.38
2027.221	599.38
2031.36	584.38
2035.495	587.38
2039.627	581.38
2043.754	582.38
2047.878	582.38
2051.998	588.38
2056.114	579.38
2060.226	583.38
2064.334	576.38
2068.439	587.38
2072.54	598.38
2076.637	604.38
2080.73	599.38
2084.82	597.38
2088.906	595.38
2092.988	616.38
2097.066	595.38
2101.14	580.38
2105.211	588.38
2109.278	591.38
2113.342	571.38
2117.401	585.38
2121.457	577.38
2125.509	576.38
2129.558	576.38
2133.602	566.38
2137.643	574.38
2141.681	557.38
2145.714	570.38
2149.744	565.38
2153.77	561.38
2157.793	550.38
2161.812	534.38
2165.827	534.38
2169.838	522.38
2173.846	524.38
2177.851	524.38
2181.851	506.38
2185.848	504.38
2189.841	496.38
2193.831	494.38
2197.817	486.38
2201.799	490.38
2205.778	476.38
2209.753	488.38
2213.725	476.38
2217.693	479.38
2221.657	479.38
2225.618	483.38
2229.575	471.38
2233.529	474.38
2237.479	466.38
2241.425	473.38
2245.368	451.38
2249.307	448.38
2253.243	441.38
2257.175	439.38
2261.104	430.38
2265.029	426.38
2268.95	411.38
2272.868	412.38
2276.783	411.38
2280.694	406.38
2284.601	406.38
2288.505	388.38
2292.405	387.38
2296.302	384.38
2300.195	371.38
2304.085	371.38
2307.971	368.38
2311.854	357.38
2315.734	354.38
2319.609	346.38
2323.482	335.38
2327.351	334.38
2331.216	348.38
2335.078	340.38
2338.937	338.38
2342.792	333.38
2346.643	324.38
2350.492	325.38
2354.336	329.38
2358.178	324.38
2362.015	325.38
2365.85	329.38
2369.681	332.38
2373.508	328.38
2377.333	327.38
2381.153	323.38
2384.971	323.38
2388.785	323.38
2392.595	319.38
2396.402	328.38
2400.206	316.38
2404.007	313.38
2407.804	315.38
2411.597	298.38
2415.388	310.38
2419.174	312.38
2422.958	309.38
2426.738	311.38
2430.515	313.38
2434.289	303.38
2438.059	303.38
2441.825	298.38
2445.589	297.38
2449.349	295.38
2453.106	294.38
2456.859	282.38
2460.61	280.38
2464.356	292.38
2468.1	289.38
2471.84	293.38
2475.577	288.38
2479.311	287.38
2483.041	281.38
2486.768	284.38
2490.492	273.38
2494.213	285.38
2497.93	285.38
2501.644	283.38
2505.355	277.38
2509.062	275.38
2512.766	278.38
2516.467	278.38
2520.165	278.38
2523.859	271.38
2527.551	270.38
2531.239	269.38
2534.923	261.38
2538.605	260.38
2542.283	252.38
2545.958	260.38
2549.63	254.38
2553.299	256.38
2556.964	260.38
2560.626	254.38
2564.285	250.38
2567.941	252.38
2571.594	241.38
2575.243	244.38
2578.89	242.38
2582.533	240.38
2586.173	241.38
2589.809	239.38
2593.443	237.38
2597.073	239.38
2600.701	237.38
2604.325	234.38
2607.946	233.38
2611.564	228.38
2615.178	233.38
2618.79	230.38
2622.398	229.38
2626.004	217.38
2629.606	226.38
2633.205	219.38
2636.801	216.38
2640.394	218.38
2643.983	211.38
2647.57	219.38
2651.153	206.38
2654.734	215.38
2658.311	209.38
2661.885	210.38
2665.456	199.38
2669.025	204.38
2672.589	205.38
2676.151	201.38
2679.71	198.38
2683.266	195.38
2686.819	193.38
2690.368	181.38
2693.915	184.38
2697.458	189.38
2700.999	185.38
2704.536	186.38
2708.071	181.38
2711.602	175.38
2715.13	179.38
2718.656	178.38
2722.178	179.38
2725.697	186.38
2729.214	174.38
2732.727	180.38
2736.237	181.38
2739.744	183.38
2743.249	188.38
2746.75	181.38
2750.248	190.38
2753.743	185.38
2757.236	176.38
2760.725	181.38
2764.211	180.38
2767.695	176.38
2771.175	166.38
2774.652	170.38
2778.127	165.38
2781.598	168.38
2785.067	167.38
2788.532	171.38
2791.995	173.38
2795.455	176.38
2798.911	168.38
2802.365	182.38
2805.816	178.38
2809.264	185.38
2812.709	180.38
2816.151	175.38
2819.59	182.38
2823.026	176.38
2826.46	174.38
2829.89	186.38
2833.318	181.38
2836.742	188.38
2840.164	192.38
2843.583	191.38
2846.999	187.38
2850.412	192.38
2853.822	191.38
2857.229	190.38
2860.634	199.38
2864.035	198.38
2867.434	210.38
2870.83	213.38
2874.223	213.38
2877.613	216.38
2881	214.38
2884.385	221.38
2887.766	208.38
2891.145	225.38
2894.521	227.38
2897.894	211.38
2901.264	218.38
2904.631	224.38
2907.996	228.38
2911.358	221.38
2914.717	228.38
2918.073	226.38
2921.426	241.38
2924.777	233.38
2928.124	244.38
2931.469	242.38
2934.811	259.38
2938.15	257.38
2941.487	266.38
2944.821	273.38
2948.152	266.38
2951.48	271.38
2954.805	282.38
2958.128	288.38
2961.447	286.38
2964.765	294.38
2968.079	300.38
2971.39	300.38
2974.699	305.38
2978.005	327.38
2981.308	333.38
2984.609	339.38
2987.907	350.38
2991.202	359.38
2994.494	366.38
2997.784	375.38
3001.07	389.38
3004.355	403.38
3007.636	414.38
3010.915	430.38
3014.191	430.38
3017.464	431.38
3020.734	438.38
3024.002	453.38
3027.267	451.38
3030.53	462.38
3033.789	475.38
3037.046	485.38
3040.301	506.38
3043.552	518.38
3046.801	521.38
3050.048	527.38
3053.291	542.38
3056.532	568.38
3059.771	591.38
3063.006	605.38
3066.239	628.38
3069.469	643.38
3072.697	656.38
3075.922	679.38
3079.144	698.38
3082.364	715.38
3085.581	717.38
3088.795	749.38
3092.007	773.38
3095.216	780.38
3098.423	813.38
3101.627	816.38
3104.828	833.38
3108.026	850.38
3111.222	872.38
3114.416	896.38
3117.607	909.38
3120.795	931.38
3123.98	959.38
3127.163	988.38
3130.344	1014.38
3133.521	1017.38
3136.696	1045.38
3139.869	1063.38
3143.039	1086.38
3146.206	1109.38
3149.371	1112.38
3152.533	1127.38
3155.693	1125.38
3158.85	1145.38
3162.005	1135.38
3165.157	1155.38
3168.306	1158.38
3171.453	1162.38
3174.597	1159.38
3177.739	1170.38
3180.878	1163.38
3184.014	1171.38
3187.149	1172.38
3190.28	1176.38
3193.409	1188.38
3196.536	1196.38
3199.659	1196.38
3202.781	1196.38
3205.9	1208.38
3209.016	1198.38
3212.13	1193.38
3215.241	1178.38
3218.35	1183.38
3221.456	1176.38
3224.56	1166.38
3227.661	1159.38
3230.76	1155.38
3233.856	1132.38
3236.95	1130.38
3240.041	1113.38
3243.13	1095.38
3246.216	1097.38
3249.3	1093.38
3252.382	1094.38
3255.46	1091.38
3258.537	1075.38
3261.611	1071.38
3264.682	1063.38
3267.751	1065.38
3270.818	1054.38
3273.882	1045.38
3276.943	1045.38
3280.002	1048.38
3283.059	1037.38
3286.113	1014.38
3289.165	1005.38
3292.214	993.38
3295.261	966.38
3298.306	947.38
3301.348	930.38
3304.387	926.38
3307.425	920.38
3310.459	898.38
3313.492	897.38
3316.521	889.38
3319.549	881.38
3322.574	874.38
3325.597	861.38
3328.617	860.38
3331.635	834.38
3334.65	843.38
3337.663	830.38
3340.674	835.38
3343.682	833.38
3346.688	813.38
3349.691	811.38
3352.692	801.38
3355.691	812.38
3358.687	800.38
3361.681	793.38
3364.673	792.38
3367.662	786.38
3370.649	774.38
3373.633	760.38
3376.615	737.38
3379.595	736.38
3382.572	724.38
3385.547	723.38
3388.52	720.38
3391.49	692.38
3394.458	691.38
3397.424	670.38
3400.387	672.38
3403.348	668.38
3406.307	654.38
3409.263	650.38
3412.217	645.38
3415.168	638.38
3418.118	627.38
3421.065	624.38
3424.009	609.38
3426.951	602.38
3429.891	600.38
3432.829	580.38
3435.764	575.38
3438.697	570.38
3441.628	547.38
3444.557	530.38
3447.483	521.38
3450.407	505.38
3453.328	495.38
3456.247	481.38
3459.164	471.38
3462.079	445.38
3464.991	435.38
3467.902	421.38
3470.809	406.38
3473.715	400.38
3476.618	389.38
3479.519	378.38
3482.418	366.38
3485.315	351.38
3488.209	352.38
3491.101	344.38
3493.99	319.38
3496.878	306.38
3499.763	327.38
3502.646	302.38
3505.527	289.38
3508.405	286.38
3511.281	267.38
3514.155	256.38
3517.027	243.38
3519.897	235.38
3522.764	225.38
3525.629	212.38
3528.492	198.38
3531.352	187.38
3534.211	177.38
3537.067	159.38
3539.921	151.38
3542.773	148.38
3545.622	133.38
3548.469	129.38
3551.315	118.38
3554.157	121.38
3556.998	108.38
3559.837	104.38
3562.673	92.38
3565.507	87.38
3568.339	84.38
3571.169	78.38
3573.996	69.38
3576.822	73.38
3579.645	65.38
3582.466	63.38
3585.285	50.38
3588.101	38.38
3590.916	32.38
3593.728	36.38
3596.538	28.38
3599.346	23.38
3602.152	21.38
3604.956	16.38
3607.757	11.38
3610.556	2.38
3613.354	-0.62
3616.149	1.38
3618.942	-7.62
3621.732	-9.62
3624.521	-8.62
3627.307	-11.62
3630.092	-17.62
3632.874	-19.62
3635.654	-20.62
3638.432	-25.62
3641.208	-28.62
3643.982	-32.62
3646.753	-36.62
3649.523	-38.62
3652.29	-40.62
3655.055	-42.62
3657.818	-43.62
3660.579	-45.62
3663.338	-52.62
3666.095	-55.62
3668.849	-56.62
3671.602	-62.62
3674.352	-59.62
3677.101	-63.62
3679.847	-66.62
3682.591	-65.62
3685.333	-66.62
3688.073	-69.62
3690.811	-65.62
3693.547	-73.62
3696.281	-75.62
3699.013	-75.62
3701.742	-77.62
3704.47	-77.62
3707.195	-79.62
3709.919	-81.62
3712.64	-77.62
3715.359	-80.62
3718.076	-82.62
3720.792	-85.62
3723.505	-84.62
3726.216	-84.62
3728.925	-88.62
3731.632	-83.62
3734.336	-85.62
3737.039	-88.62
3739.74	-87.62
3742.439	-92.62
3745.136	-95.62
3747.83	-91.62
3750.523	-90.62
3753.213	-91.62
3755.902	-90.62
3758.589	-94.62
3761.273	-90.62
3763.956	-90.62
3766.636	-91.62
3769.315	-100.62
3771.991	-96.62
3774.665	-94.62
3777.338	-96.62
3780.008	-96.62
3782.677	-99.62
3785.343	-95.62
3788.007	-95.62
3790.67	-96.62
3793.33	-96.62
3795.989	-97.62
3798.645	-93.62
3801.299	-94.62
3803.952	-102.62
3806.602	-105.62
3809.251	-102.62
3811.897	-97.62
3814.542	-99.62
3817.184	-100.62
3819.825	-98.62
3822.463	-99.62
3825.1	-99.62
3827.735	-103.62
3830.367	-102.62
3832.998	-104.62
3835.627	-101.62
3838.253	-102.62
3840.878	-102.62
3843.501	-105.62
3846.122	-105.62
3848.741	-106.62
3851.358	-105.62
3853.973	-101.62
3856.586	-101.62
3859.197	-99.62
3861.806	-103.62
3864.414	-105.62
3867.019	-104.62
3869.622	-109.62
3872.224	-106.62
3874.823	-104.62
3877.421	-100.62
3880.016	-98.62
3882.61	-95.62
3885.202	-97.62
3887.792	-97.62
3890.38	-100.62
3892.966	-99.62
3895.55	-103.62
3898.132	-104.62
3900.713	-105.62
3903.291	-105.62
3905.868	-105.62
3908.442	-110.62
3911.015	-110.62
3913.586	-107.62
3916.155	-106.62
3918.722	-107.62
3921.287	-104.62
3923.85	-103.62
3926.411	-107.62
3928.971	-106.62
3931.528	-110.62
3934.084	-107.62
3936.638	-110.62
3939.19	-112.62
3941.74	-107.62
3944.288	-109.62
3946.834	-106.62
3949.378	-105.62
3951.921	-109.62
3954.462	-108.62
3957	-107.62
3959.537	-110.62
3962.072	-109.62
3964.606	-110.62
3967.137	-107.62
3969.667	-103.62
3972.194	-108.62
3974.72	-110.62
3977.244	-105.62
3979.766	-106.62
3982.286	-104.62
3984.805	-102.62
3987.321	-105.62
3989.836	-102.62
3992.349	-108.62
3994.86	-107.62
3997.369	-106.62
3999.877	-109.62
4002.382	-105.62
4004.886	-104.62
4007.388	-106.62
4009.888	-108.62
4012.386	-103.62
4014.883	-105.62
4017.377	-108.62
4019.87	-102.62
4022.361	-105.62
4024.85	-105.62
4027.338	-108.62
4029.823	-105.62
4032.307	-107.62
4034.789	-107.62
4037.269	-109.62
4039.747	-107.62
4042.224	-112.62
4044.699	-108.62
4047.172	-107.62
4049.643	-103.62
4052.112	-108.62
4054.58	-107.62
4057.046	-106.62
4059.51	-106.62
4061.972	-110.62
4064.432	-112.62
4066.891	-108.62
4069.348	-109.62
4071.803	-108.62
4074.256	-108.62
4076.708	-102.62
4079.158	-108.62
4081.606	-107.62
4084.052	-111.62
4086.497	-104.62
4088.939	-106.62
4091.38	-106.62
4093.819	-105.62
4096.257	-114.62
4098.693	-109.62
4101.127	-113.62
4103.559	-111.62
4105.989	-70.62
4108.418	-72.62
4110.845	-69.62
4113.27	-65.62
4115.694	-54.62
4118.115	-49.62
4120.535	-108.62
4122.954	-104.62
4125.37	-110.62
4127.785	-109.62
4130.198	-111.62
4132.609	-107.62
4135.019	-112.62
4137.427	-111.62
4139.833	-109.62
4142.237	-109.62
