Data from 100000000CFU2_A_RamanShift_1.txt Node
Date: Mon Jan 23 14:52:07 IST 2017
User: aro
Spectrometer: QEPB0276
Trigger mode: 0
Integration Time (sec): 5.000000E0
Scans to average: 1
Electric dark correction enabled: true
Nonlinearity correction enabled: false
Boxcar width: 0
XAxis mode: Raman Shifts
Number of Pixels in Spectrum: 1044
>>>>>Begin Spectral Data<<<<<
160.701	-20.25
166.742	4.75
172.777	65.75
178.805	277.75
184.826	767.75
190.841	1582.75
196.849	2491.75
202.85	3064.75
208.845	3232.75
214.833	3123.75
220.815	3011.75
226.789	2900.75
232.758	2831.75
238.719	2756.75
244.674	2656.75
250.623	2538.75
256.565	2431.75
262.5	2314.75
268.429	2206.75
274.351	2101.75
280.267	2040.75
286.176	1952.75
292.079	1900.75
297.975	1839.75
303.865	1769.75
309.748	1736.75
315.625	1701.75
321.495	1651.75
327.359	1645.75
333.217	1614.75
339.068	1592.75
344.912	1597.75
350.751	1578.75
356.583	1570.75
362.408	1573.75
368.227	1582.75
374.04	1590.75
379.847	1604.75
385.647	1609.75
391.44	1621.75
397.228	1619.75
403.009	1635.75
408.784	1662.75
414.553	1639.75
420.315	1634.75
426.071	1643.75
431.821	1659.75
437.565	1640.75
443.302	1650.75
449.033	1623.75
454.758	1646.75
460.477	1640.75
466.189	1635.75
471.896	1632.75
477.596	1606.75
483.29	1593.75
488.978	1573.75
494.66	1596.75
500.335	1555.75
506.005	1556.75
511.668	1508.75
517.325	1470.75
522.977	1451.75
528.622	1440.75
534.261	1414.75
539.894	1397.75
545.521	1398.75
551.141	1393.75
556.756	1374.75
562.365	1358.75
567.968	1355.75
573.565	1340.75
579.155	1334.75
584.74	1334.75
590.319	1322.75
595.892	1313.75
601.459	1306.75
607.02	1291.75
612.575	1302.75
618.124	1277.75
623.667	1268.75
629.204	1256.75
634.735	1247.75
640.261	1240.75
645.781	1224.75
651.294	1234.75
656.802	1215.75
662.304	1207.75
667.8	1196.75
673.29	1190.75
678.775	1202.75
684.254	1190.75
689.726	1188.75
695.193	1177.75
700.655	1181.75
706.11	1164.75
711.56	1158.75
717.004	1137.75
722.442	1134.75
727.874	1126.75
733.301	1124.75
738.722	1126.75
744.137	1103.75
749.547	1102.75
754.951	1105.75
760.349	1111.75
765.741	1099.75
771.128	1120.75
776.509	1108.75
781.885	1114.75
787.254	1101.75
792.618	1098.75
797.977	1091.75
803.33	1082.75
808.677	1075.75
814.019	1059.75
819.355	1064.75
824.686	1053.75
830.011	1034.75
835.33	1045.75
840.644	1031.75
845.952	1021.75
851.255	1015.75
856.552	1007.75
861.844	1003.75
867.13	1010.75
872.41	1007.75
877.686	998.75
882.955	977.75
888.219	974.75
893.478	964.75
898.731	930.75
903.979	921.75
909.221	914.75
914.458	894.75
919.69	892.75
924.916	892.75
930.136	883.75
935.351	885.75
940.561	885.75
945.766	884.75
950.965	877.75
956.158	870.75
961.347	851.75
966.529	851.75
971.707	832.75
976.879	823.75
982.046	819.75
987.208	811.75
992.364	810.75
997.515	819.75
1002.66	826.75
1007.801	821.75
1012.936	827.75
1018.066	830.75
1023.19	841.75
1028.309	842.75
1033.423	842.75
1038.532	846.75
1043.636	827.75
1048.734	839.75
1053.827	819.75
1058.915	808.75
1063.998	798.75
1069.075	799.75
1074.147	800.75
1079.214	787.75
1084.276	819.75
1089.333	819.75
1094.385	823.75
1099.431	826.75
1104.472	823.75
1109.509	811.75
1114.54	812.75
1119.565	801.75
1124.586	787.75
1129.602	768.75
1134.613	778.75
1139.618	768.75
1144.619	776.75
1149.614	781.75
1154.604	784.75
1159.589	780.75
1164.57	792.75
1169.545	791.75
1174.515	795.75
1179.48	785.75
1184.44	788.75
1189.395	770.75
1194.345	764.75
1199.29	768.75
1204.23	772.75
1209.165	770.75
1214.095	766.75
1219.021	783.75
1223.941	791.75
1228.856	796.75
1233.766	799.75
1238.672	799.75
1243.572	807.75
1248.467	792.75
1253.358	798.75
1258.244	784.75
1263.124	772.75
1268	757.75
1272.871	755.75
1277.737	741.75
1282.599	743.75
1287.455	737.75
1292.306	751.75
1297.153	750.75
1301.995	755.75
1306.832	752.75
1311.664	749.75
1316.491	746.75
1321.314	762.75
1326.132	749.75
1330.945	738.75
1335.753	728.75
1340.556	722.75
1345.354	711.75
1350.148	715.75
1354.937	716.75
1359.722	699.75
1364.501	691.75
1369.276	707.75
1374.046	691.75
1378.811	687.75
1383.572	688.75
1388.327	679.75
1393.079	680.75
1397.825	679.75
1402.567	659.75
1407.304	656.75
1412.036	661.75
1416.764	656.75
1421.487	674.75
1426.205	667.75
1430.919	661.75
1435.628	682.75
1440.333	684.75
1445.032	684.75
1449.727	705.75
1454.418	702.75
1459.104	704.75
1463.785	679.75
1468.462	681.75
1473.134	673.75
1477.802	674.75
1482.465	679.75
1487.123	678.75
1491.777	664.75
1496.426	672.75
1501.071	677.75
1505.711	680.75
1510.347	692.75
1514.978	697.75
1519.604	709.75
1524.226	705.75
1528.844	703.75
1533.457	703.75
1538.065	703.75
1542.669	699.75
1547.269	702.75
1551.864	697.75
1556.454	695.75
1561.041	718.75
1565.622	722.75
1570.199	739.75
1574.772	736.75
1579.34	749.75
1583.904	769.75
1588.464	763.75
1593.019	784.75
1597.569	800.75
1602.115	814.75
1606.657	817.75
1611.195	837.75
1615.728	843.75
1620.256	837.75
1624.78	869.75
1629.3	876.75
1633.816	873.75
1638.327	887.75
1642.834	908.75
1647.336	913.75
1651.834	916.75
1656.328	919.75
1660.817	904.75
1665.302	898.75
1669.783	872.75
1674.259	856.75
1678.732	820.75
1683.199	801.75
1687.663	776.75
1692.122	747.75
1696.577	711.75
1701.028	678.75
1705.474	650.75
1709.917	621.75
1714.355	623.75
1718.788	609.75
1723.218	592.75
1727.643	577.75
1732.064	578.75
1736.481	553.75
1740.893	539.75
1745.301	529.75
1749.705	499.75
1754.105	488.75
1758.501	487.75
1762.893	477.75
1767.28	469.75
1771.663	468.75
1776.042	458.75
1780.417	468.75
1784.787	470.75
1789.154	471.75
1793.516	472.75
1797.874	469.75
1802.228	455.75
1806.578	446.75
1810.924	431.75
1815.266	441.75
1819.603	426.75
1823.937	417.75
1828.266	417.75
1832.591	419.75
1836.913	408.75
1841.23	420.75
1845.543	417.75
1849.852	417.75
1854.156	405.75
1858.457	414.75
1862.754	415.75
1867.047	417.75
1871.335	427.75
1875.62	413.75
1879.9	428.75
1884.177	420.75
1888.449	420.75
1892.718	415.75
1896.982	427.75
1901.243	413.75
1905.499	423.75
1909.752	417.75
1914	415.75
1918.245	411.75
1922.485	414.75
1926.722	418.75
1930.954	418.75
1935.183	417.75
1939.408	425.75
1943.628	428.75
1947.845	420.75
1952.058	424.75
1956.267	422.75
1960.472	412.75
1964.673	404.75
1968.87	407.75
1973.063	397.75
1977.252	402.75
1981.438	405.75
1985.619	387.75
1989.797	383.75
1993.971	389.75
1998.14	397.75
2002.306	396.75
2006.469	399.75
2010.627	398.75
2014.781	401.75
2018.932	401.75
2023.078	407.75
2027.221	406.75
2031.36	402.75
2035.495	403.75
2039.627	393.75
2043.754	392.75
2047.878	391.75
2051.998	388.75
2056.114	389.75
2060.226	393.75
2064.334	388.75
2068.439	401.75
2072.54	405.75
2076.637	409.75
2080.73	416.75
2084.82	412.75
2088.906	410.75
2092.988	415.75
2097.066	410.75
2101.14	400.75
2105.211	397.75
2109.278	406.75
2113.342	387.75
2117.401	390.75
2121.457	392.75
2125.509	393.75
2129.558	382.75
2133.602	386.75
2137.643	387.75
2141.681	381.75
2145.714	386.75
2149.744	383.75
2153.77	383.75
2157.793	377.75
2161.812	369.75
2165.827	364.75
2169.838	354.75
2173.846	356.75
2177.851	354.75
2181.851	343.75
2185.848	335.75
2189.841	330.75
2193.831	332.75
2197.817	339.75
2201.799	331.75
2205.778	335.75
2209.753	325.75
2213.725	328.75
2217.693	321.75
2221.657	331.75
2225.618	316.75
2229.575	314.75
2233.529	313.75
2237.479	324.75
2241.425	323.75
2245.368	311.75
2249.307	302.75
2253.243	302.75
2257.175	292.75
2261.104	285.75
2265.029	286.75
2268.95	283.75
2272.868	275.75
2276.783	273.75
2280.694	274.75
2284.601	267.75
2288.505	262.75
2292.405	262.75
2296.302	249.75
2300.195	249.75
2304.085	258.75
2307.971	242.75
2311.854	238.75
2315.734	238.75
2319.609	228.75
2323.482	228.75
2327.351	227.75
2331.216	222.75
2335.078	222.75
2338.937	224.75
2342.792	220.75
2346.643	210.75
2350.492	210.75
2354.336	209.75
2358.178	221.75
2362.015	222.75
2365.85	219.75
2369.681	216.75
2373.508	221.75
2377.333	216.75
2381.153	212.75
2384.971	210.75
2388.785	212.75
2392.595	211.75
2396.402	216.75
2400.206	208.75
2404.007	208.75
2407.804	204.75
2411.597	207.75
2415.388	204.75
2419.174	198.75
2422.958	207.75
2426.738	206.75
2430.515	208.75
2434.289	208.75
2438.059	205.75
2441.825	196.75
2445.589	191.75
2449.349	201.75
2453.106	195.75
2456.859	195.75
2460.61	187.75
2464.356	187.75
2468.1	198.75
2471.84	180.75
2475.577	193.75
2479.311	189.75
2483.041	187.75
2486.768	189.75
2490.492	182.75
2494.213	187.75
2497.93	178.75
2501.644	195.75
2505.355	184.75
2509.062	185.75
2512.766	189.75
2516.467	187.75
2520.165	185.75
2523.859	181.75
2527.551	177.75
2531.239	179.75
2534.923	176.75
2538.605	176.75
2542.283	175.75
2545.958	172.75
2549.63	175.75
2553.299	166.75
2556.964	168.75
2560.626	164.75
2564.285	165.75
2567.941	168.75
2571.594	166.75
2575.243	165.75
2578.89	156.75
2582.533	159.75
2586.173	162.75
2589.809	158.75
2593.443	149.75
2597.073	154.75
2600.701	151.75
2604.325	147.75
2607.946	159.75
2611.564	150.75
2615.178	156.75
2618.79	155.75
2622.398	144.75
2626.004	147.75
2629.606	149.75
2633.205	146.75
2636.801	143.75
2640.394	139.75
2643.983	134.75
2647.57	130.75
2651.153	138.75
2654.734	137.75
2658.311	135.75
2661.885	132.75
2665.456	130.75
2669.025	138.75
2672.589	133.75
2676.151	130.75
2679.71	123.75
2683.266	130.75
2686.819	120.75
2690.368	124.75
2693.915	123.75
2697.458	123.75
2700.999	123.75
2704.536	113.75
2708.071	122.75
2711.602	117.75
2715.13	114.75
2718.656	117.75
2722.178	123.75
2725.697	120.75
2729.214	122.75
2732.727	114.75
2736.237	116.75
2739.744	116.75
2743.249	111.75
2746.75	122.75
2750.248	117.75
2753.743	120.75
2757.236	122.75
2760.725	112.75
2764.211	113.75
2767.695	117.75
2771.175	115.75
2774.652	109.75
2778.127	111.75
2781.598	108.75
2785.067	110.75
2788.532	110.75
2791.995	109.75
2795.455	112.75
2798.911	116.75
2802.365	119.75
2805.816	110.75
2809.264	119.75
2812.709	115.75
2816.151	115.75
2819.59	120.75
2823.026	111.75
2826.46	116.75
2829.89	118.75
2833.318	121.75
2836.742	121.75
2840.164	120.75
2843.583	122.75
2846.999	132.75
2850.412	129.75
2853.822	131.75
2857.229	127.75
2860.634	129.75
2864.035	135.75
2867.434	137.75
2870.83	144.75
2874.223	143.75
2877.613	138.75
2881	143.75
2884.385	152.75
2887.766	144.75
2891.145	142.75
2894.521	146.75
2897.894	149.75
2901.264	147.75
2904.631	159.75
2907.996	160.75
2911.358	156.75
2914.717	155.75
2918.073	162.75
2921.426	163.75
2924.777	166.75
2928.124	167.75
2931.469	177.75
2934.811	188.75
2938.15	188.75
2941.487	189.75
2944.821	189.75
2948.152	195.75
2951.48	188.75
2954.805	192.75
2958.128	205.75
2961.447	208.75
2964.765	200.75
2968.079	211.75
2971.39	217.75
2974.699	231.75
2978.005	227.75
2981.308	231.75
2984.609	238.75
2987.907	254.75
2991.202	260.75
2994.494	272.75
2997.784	270.75
3001.07	276.75
3004.355	282.75
3007.636	290.75
3010.915	302.75
3014.191	307.75
3017.464	326.75
3020.734	323.75
3024.002	320.75
3027.267	329.75
3030.53	329.75
3033.789	338.75
3037.046	356.75
3040.301	364.75
3043.552	365.75
3046.801	375.75
3050.048	383.75
3053.291	399.75
3056.532	416.75
3059.771	430.75
3063.006	436.75
3066.239	453.75
3069.469	467.75
3072.697	487.75
3075.922	489.75
3079.144	500.75
3082.364	511.75
3085.581	528.75
3088.795	542.75
3092.007	562.75
3095.216	575.75
3098.423	582.75
3101.627	590.75
3104.828	602.75
3108.026	628.75
3111.222	628.75
3114.416	641.75
3117.607	661.75
3120.795	690.75
3123.98	688.75
3127.163	703.75
3130.344	728.75
3133.521	746.75
3136.696	768.75
3139.869	775.75
3143.039	782.75
3146.206	810.75
3149.371	812.75
3152.533	822.75
3155.693	839.75
3158.85	826.75
3162.005	829.75
3165.157	837.75
3168.306	841.75
3171.453	836.75
3174.597	848.75
3177.739	840.75
3180.878	853.75
3184.014	855.75
3187.149	863.75
3190.28	851.75
3193.409	861.75
3196.536	854.75
3199.659	856.75
3202.781	867.75
3205.9	873.75
3209.016	854.75
3212.13	877.75
3215.241	862.75
3218.35	847.75
3221.456	849.75
3224.56	839.75
3227.661	829.75
3230.76	827.75
3233.856	819.75
3236.95	813.75
3240.041	802.75
3243.13	791.75
3246.216	788.75
3249.3	785.75
3252.382	780.75
3255.46	782.75
3258.537	785.75
3261.611	775.75
3264.682	776.75
3267.751	765.75
3270.818	763.75
3273.882	758.75
3276.943	749.75
3280.002	738.75
3283.059	739.75
3286.113	737.75
3289.165	720.75
3292.214	704.75
3295.261	705.75
3298.306	689.75
3301.348	674.75
3304.387	662.75
3307.425	659.75
3310.459	647.75
3313.492	642.75
3316.521	636.75
3319.549	631.75
3322.574	622.75
3325.597	615.75
3328.617	610.75
3331.635	606.75
3334.65	611.75
3337.663	604.75
3340.674	587.75
3343.682	587.75
3346.688	590.75
3349.691	593.75
3352.692	576.75
3355.691	576.75
3358.687	583.75
3361.681	569.75
3364.673	551.75
3367.662	554.75
3370.649	546.75
3373.633	545.75
3376.615	531.75
3379.595	527.75
3382.572	522.75
3385.547	512.75
3388.52	514.75
3391.49	497.75
3394.458	489.75
3397.424	476.75
3400.387	480.75
3403.348	475.75
3406.307	468.75
3409.263	466.75
3412.217	459.75
3415.168	455.75
3418.118	441.75
3421.065	439.75
3424.009	441.75
3426.951	435.75
3429.891	428.75
3432.829	414.75
3435.764	407.75
3438.697	397.75
3441.628	387.75
3444.557	376.75
3447.483	378.75
3450.407	359.75
3453.328	346.75
3456.247	340.75
3459.164	332.75
3462.079	322.75
3464.991	305.75
3467.902	302.75
3470.809	281.75
3473.715	278.75
3476.618	277.75
3479.519	269.75
3482.418	261.75
3485.315	246.75
3488.209	237.75
3491.101	240.75
3493.99	224.75
3496.878	223.75
3499.763	210.75
3502.646	200.75
3505.527	199.75
3508.405	195.75
3511.281	189.75
3514.155	178.75
3517.027	167.75
3519.897	155.75
3522.764	153.75
3525.629	145.75
3528.492	134.75
3531.352	122.75
3534.211	121.75
3537.067	106.75
3539.921	102.75
3542.773	99.75
3545.622	97.75
3548.469	86.75
3551.315	86.75
3554.157	75.75
3556.998	73.75
3559.837	67.75
3562.673	57.75
3565.507	57.75
3568.339	50.75
3571.169	49.75
3573.996	46.75
3576.822	40.75
3579.645	36.75
3582.466	31.75
3585.285	33.75
3588.101	25.75
3590.916	23.75
3593.728	16.75
3596.538	16.75
3599.346	16.75
3602.152	13.75
3604.956	10.75
3607.757	0.75
3610.556	-6.25
3613.354	-6.25
3616.149	-6.25
3618.942	-10.25
3621.732	-11.25
3624.521	-8.25
3627.307	-10.25
3630.092	-17.25
3632.874	-17.25
3635.654	-20.25
3638.432	-21.25
3641.208	-22.25
3643.982	-23.25
3646.753	-28.25
3649.523	-30.25
3652.29	-31.25
3655.055	-38.25
3657.818	-39.25
3660.579	-36.25
3663.338	-39.25
3666.095	-41.25
3668.849	-39.25
3671.602	-44.25
3674.352	-45.25
3677.101	-50.25
3679.847	-51.25
3682.591	-51.25
3685.333	-52.25
3688.073	-56.25
3690.811	-53.25
3693.547	-59.25
3696.281	-57.25
3699.013	-58.25
3701.742	-59.25
3704.47	-57.25
3707.195	-60.25
3709.919	-59.25
3712.64	-58.25
3715.359	-63.25
3718.076	-63.25
3720.792	-64.25
3723.505	-66.25
3726.216	-65.25
3728.925	-64.25
3731.632	-68.25
3734.336	-65.25
3737.039	-67.25
3739.74	-64.25
3742.439	-71.25
3745.136	-68.25
3747.83	-67.25
3750.523	-68.25
3753.213	-69.25
3755.902	-68.25
3758.589	-73.25
3761.273	-71.25
3763.956	-68.25
3766.636	-69.25
3769.315	-73.25
3771.991	-72.25
3774.665	-73.25
3777.338	-68.25
3780.008	-72.25
3782.677	-73.25
3785.343	-73.25
3788.007	-71.25
3790.67	-75.25
3793.33	-72.25
3795.989	-72.25
3798.645	-71.25
3801.299	-73.25
3803.952	-77.25
3806.602	-80.25
3809.251	-75.25
3811.897	-75.25
3814.542	-75.25
3817.184	-72.25
3819.825	-76.25
3822.463	-74.25
3825.1	-76.25
3827.735	-78.25
3830.367	-77.25
3832.998	-81.25
3835.627	-77.25
3838.253	-77.25
3840.878	-77.25
3843.501	-77.25
3846.122	-77.25
3848.741	-80.25
3851.358	-77.25
3853.973	-78.25
3856.586	-75.25
3859.197	-73.25
3861.806	-76.25
3864.414	-81.25
3867.019	-78.25
3869.622	-85.25
3872.224	-79.25
3874.823	-80.25
3877.421	-74.25
3880.016	-74.25
3882.61	-70.25
3885.202	-73.25
3887.792	-73.25
3890.38	-76.25
3892.966	-76.25
3895.55	-82.25
3898.132	-77.25
3900.713	-80.25
3903.291	-81.25
3905.868	-79.25
3908.442	-80.25
3911.015	-83.25
3913.586	-80.25
3916.155	-82.25
3918.722	-80.25
3921.287	-78.25
3923.85	-78.25
3926.411	-80.25
3928.971	-80.25
3931.528	-81.25
3934.084	-81.25
3936.638	-84.25
3939.19	-86.25
3941.74	-82.25
3944.288	-83.25
3946.834	-78.25
3949.378	-79.25
3951.921	-79.25
3954.462	-80.25
3957	-79.25
3959.537	-79.25
3962.072	-83.25
3964.606	-84.25
3967.137	-79.25
3969.667	-79.25
3972.194	-82.25
3974.72	-84.25
3977.244	-83.25
3979.766	-80.25
3982.286	-76.25
3984.805	-78.25
3987.321	-78.25
3989.836	-78.25
3992.349	-82.25
3994.86	-79.25
3997.369	-81.25
3999.877	-82.25
4002.382	-79.25
4004.886	-78.25
4007.388	-77.25
4009.888	-81.25
4012.386	-75.25
4014.883	-78.25
4017.377	-87.25
4019.87	-78.25
4022.361	-78.25
4024.85	-81.25
4027.338	-78.25
4029.823	-78.25
4032.307	-78.25
4034.789	-79.25
4037.269	-81.25
4039.747	-80.25
4042.224	-83.25
4044.699	-82.25
4047.172	-78.25
4049.643	-80.25
4052.112	-82.25
4054.58	-80.25
4057.046	-75.25
4059.51	-80.25
4061.972	-85.25
4064.432	-83.25
4066.891	-80.25
4069.348	-80.25
4071.803	-82.25
4074.256	-79.25
4076.708	-79.25
4079.158	-81.25
4081.606	-81.25
4084.052	-81.25
4086.497	-78.25
4088.939	-80.25
4091.38	-79.25
4093.819	-79.25
4096.257	-83.25
4098.693	-83.25
4101.127	-84.25
4103.559	-84.25
4105.989	-55.25
4108.418	-53.25
4110.845	-50.25
4113.27	-48.25
4115.694	-42.25
4118.115	-39.25
4120.535	-78.25
4122.954	-79.25
4125.37	-82.25
4127.785	-83.25
4130.198	-84.25
4132.609	-80.25
4135.019	-82.25
4137.427	-82.25
4139.833	-83.25
4142.237	-80.25
