Data from 1000000CFU1_A_RamanShift_1.txt Node
Date: Mon Jan 23 14:36:47 IST 2017
User: aro
Spectrometer: QEPB0276
Trigger mode: 0
Integration Time (sec): 5.000000E0
Scans to average: 1
Electric dark correction enabled: true
Nonlinearity correction enabled: false
Boxcar width: 0
XAxis mode: Raman Shifts
Number of Pixels in Spectrum: 1044
>>>>>Begin Spectral Data<<<<<
160.701	-32.38
166.742	2.62
172.777	90.62
178.805	383.62
184.826	1062.62
190.841	2183.62
196.849	3464.62
202.85	4272.62
208.845	4476.62
214.833	4343.62
220.815	4168.62
226.789	4034.62
232.758	3930.62
238.719	3775.62
244.674	3639.62
250.623	3504.62
256.565	3335.62
262.5	3176.62
268.429	3048.62
274.351	2911.62
280.267	2784.62
286.176	2688.62
292.079	2616.62
297.975	2507.62
303.865	2433.62
309.748	2357.62
315.625	2334.62
321.495	2249.62
327.359	2211.62
333.217	2189.62
339.068	2156.62
344.912	2155.62
350.751	2149.62
356.583	2161.62
362.408	2137.62
368.227	2137.62
374.04	2143.62
379.847	2171.62
385.647	2168.62
391.44	2181.62
397.228	2192.62
403.009	2214.62
408.784	2193.62
414.553	2220.62
420.315	2213.62
426.071	2230.62
431.821	2220.62
437.565	2216.62
443.302	2225.62
449.033	2202.62
454.758	2210.62
460.477	2217.62
466.189	2182.62
471.896	2176.62
477.596	2167.62
483.29	2160.62
488.978	2140.62
494.66	2140.62
500.335	2113.62
506.005	2084.62
511.668	2052.62
517.325	1998.62
522.977	1977.62
528.622	1955.62
534.261	1917.62
539.894	1901.62
545.521	1922.62
551.141	1910.62
556.756	1893.62
562.365	1840.62
567.968	1875.62
573.565	1842.62
579.155	1857.62
584.74	1830.62
590.319	1816.62
595.892	1814.62
601.459	1796.62
607.02	1797.62
612.575	1755.62
618.124	1747.62
623.667	1724.62
629.204	1702.62
634.735	1693.62
640.261	1685.62
645.781	1694.62
651.294	1666.62
656.802	1666.62
662.304	1658.62
667.8	1664.62
673.29	1632.62
678.775	1638.62
684.254	1618.62
689.726	1617.62
695.193	1635.62
700.655	1603.62
706.11	1596.62
711.56	1592.62
717.004	1594.62
722.442	1566.62
727.874	1567.62
733.301	1572.62
738.722	1552.62
744.137	1526.62
749.547	1553.62
754.951	1537.62
760.349	1533.62
765.741	1534.62
771.128	1537.62
776.509	1539.62
781.885	1522.62
787.254	1528.62
792.618	1514.62
797.977	1499.62
803.33	1517.62
808.677	1486.62
814.019	1460.62
819.355	1442.62
824.686	1459.62
830.011	1434.62
835.33	1414.62
840.644	1412.62
845.952	1409.62
851.255	1412.62
856.552	1391.62
861.844	1394.62
867.13	1392.62
872.41	1367.62
877.686	1378.62
882.955	1373.62
888.219	1349.62
893.478	1326.62
898.731	1283.62
903.979	1282.62
909.221	1275.62
914.458	1238.62
919.69	1251.62
924.916	1249.62
930.136	1253.62
935.351	1247.62
940.561	1233.62
945.766	1240.62
950.965	1226.62
956.158	1214.62
961.347	1223.62
966.529	1185.62
971.707	1150.62
976.879	1143.62
982.046	1149.62
987.208	1140.62
992.364	1150.62
997.515	1130.62
1002.66	1159.62
1007.801	1161.62
1012.936	1164.62
1018.066	1184.62
1023.19	1192.62
1028.309	1175.62
1033.423	1188.62
1038.532	1187.62
1043.636	1170.62
1048.734	1150.62
1053.827	1137.62
1058.915	1139.62
1063.998	1148.62
1069.075	1127.62
1074.147	1134.62
1079.214	1152.62
1084.276	1137.62
1089.333	1165.62
1094.385	1166.62
1099.431	1170.62
1104.472	1171.62
1109.509	1149.62
1114.54	1147.62
1119.565	1137.62
1124.586	1117.62
1129.602	1124.62
1134.613	1109.62
1139.618	1087.62
1144.619	1112.62
1149.614	1121.62
1154.604	1112.62
1159.589	1123.62
1164.57	1131.62
1169.545	1128.62
1174.515	1127.62
1179.48	1112.62
1184.44	1117.62
1189.395	1092.62
1194.345	1101.62
1199.29	1110.62
1204.23	1110.62
1209.165	1124.62
1214.095	1105.62
1219.021	1114.62
1223.941	1121.62
1228.856	1132.62
1233.766	1127.62
1238.672	1145.62
1243.572	1148.62
1248.467	1140.62
1253.358	1122.62
1258.244	1114.62
1263.124	1097.62
1268	1077.62
1272.871	1072.62
1277.737	1059.62
1282.599	1065.62
1287.455	1066.62
1292.306	1070.62
1297.153	1071.62
1301.995	1079.62
1306.832	1081.62
1311.664	1089.62
1316.491	1084.62
1321.314	1088.62
1326.132	1098.62
1330.945	1070.62
1335.753	1071.62
1340.556	1066.62
1345.354	1043.62
1350.148	1042.62
1354.937	1027.62
1359.722	1021.62
1364.501	1020.62
1369.276	1009.62
1374.046	992.62
1378.811	978.62
1383.572	980.62
1388.327	982.62
1393.079	976.62
1397.825	966.62
1402.567	979.62
1407.304	972.62
1412.036	958.62
1416.764	970.62
1421.487	967.62
1426.205	960.62
1430.919	964.62
1435.628	970.62
1440.333	993.62
1445.032	996.62
1449.727	1014.62
1454.418	1019.62
1459.104	1034.62
1463.785	1030.62
1468.462	998.62
1473.134	994.62
1477.802	986.62
1482.465	984.62
1487.123	979.62
1491.777	976.62
1496.426	982.62
1501.071	996.62
1505.711	1000.62
1510.347	1005.62
1514.978	1015.62
1519.604	1033.62
1524.226	1033.62
1528.844	1033.62
1533.457	1021.62
1538.065	1021.62
1542.669	1018.62
1547.269	1020.62
1551.864	1016.62
1556.454	1026.62
1561.041	1019.62
1565.622	1053.62
1570.199	1061.62
1574.772	1077.62
1579.34	1093.62
1583.904	1113.62
1588.464	1141.62
1593.019	1150.62
1597.569	1185.62
1602.115	1175.62
1606.657	1184.62
1611.195	1190.62
1615.728	1207.62
1620.256	1204.62
1624.78	1232.62
1629.3	1263.62
1633.816	1284.62
1638.327	1293.62
1642.834	1317.62
1647.336	1304.62
1651.834	1324.62
1656.328	1321.62
1660.817	1321.62
1665.302	1308.62
1669.783	1262.62
1674.259	1232.62
1678.732	1194.62
1683.199	1171.62
1687.663	1125.62
1692.122	1098.62
1696.577	1046.62
1701.028	1008.62
1705.474	952.62
1709.917	942.62
1714.355	913.62
1718.788	892.62
1723.218	879.62
1727.643	863.62
1732.064	844.62
1736.481	819.62
1740.893	807.62
1745.301	782.62
1749.705	760.62
1754.105	752.62
1758.501	722.62
1762.893	722.62
1767.28	706.62
1771.663	708.62
1776.042	694.62
1780.417	702.62
1784.787	707.62
1789.154	699.62
1793.516	697.62
1797.874	696.62
1802.228	684.62
1806.578	674.62
1810.924	662.62
1815.266	658.62
1819.603	637.62
1823.937	637.62
1828.266	623.62
1832.591	635.62
1836.913	633.62
1841.23	625.62
1845.543	619.62
1849.852	622.62
1854.156	629.62
1858.457	625.62
1862.754	626.62
1867.047	634.62
1871.335	650.62
1875.62	647.62
1879.9	650.62
1884.177	646.62
1888.449	640.62
1892.718	636.62
1896.982	651.62
1901.243	633.62
1905.499	634.62
1909.752	641.62
1914	641.62
1918.245	631.62
1922.485	636.62
1926.722	648.62
1930.954	646.62
1935.183	659.62
1939.408	646.62
1943.628	644.62
1947.845	634.62
1952.058	636.62
1956.267	631.62
1960.472	625.62
1964.673	613.62
1968.87	616.62
1973.063	602.62
1977.252	605.62
1981.438	602.62
1985.619	609.62
1989.797	591.62
1993.971	593.62
1998.14	598.62
2002.306	614.62
2006.469	610.62
2010.627	611.62
2014.781	603.62
2018.932	610.62
2023.078	609.62
2027.221	606.62
2031.36	610.62
2035.495	602.62
2039.627	593.62
2043.754	591.62
2047.878	596.62
2051.998	595.62
2056.114	592.62
2060.226	597.62
2064.334	596.62
2068.439	610.62
2072.54	612.62
2076.637	607.62
2080.73	624.62
2084.82	620.62
2088.906	624.62
2092.988	621.62
2097.066	619.62
2101.14	604.62
2105.211	600.62
2109.278	600.62
2113.342	603.62
2117.401	598.62
2121.457	588.62
2125.509	586.62
2129.558	574.62
2133.602	581.62
2137.643	583.62
2141.681	579.62
2145.714	585.62
2149.744	582.62
2153.77	573.62
2157.793	561.62
2161.812	561.62
2165.827	556.62
2169.838	534.62
2173.846	539.62
2177.851	529.62
2181.851	529.62
2185.848	514.62
2189.841	511.62
2193.831	505.62
2197.817	513.62
2201.799	504.62
2205.778	498.62
2209.753	489.62
2213.725	501.62
2217.693	492.62
2221.657	495.62
2225.618	490.62
2229.575	489.62
2233.529	491.62
2237.479	495.62
2241.425	488.62
2245.368	473.62
2249.307	470.62
2253.243	462.62
2257.175	446.62
2261.104	440.62
2265.029	445.62
2268.95	433.62
2272.868	424.62
2276.783	432.62
2280.694	419.62
2284.601	418.62
2288.505	416.62
2292.405	397.62
2296.302	403.62
2300.195	397.62
2304.085	392.62
2307.971	380.62
2311.854	384.62
2315.734	358.62
2319.609	360.62
2323.482	349.62
2327.351	356.62
2331.216	342.62
2335.078	355.62
2338.937	341.62
2342.792	339.62
2346.643	347.62
2350.492	334.62
2354.336	336.62
2358.178	339.62
2362.015	339.62
2365.85	340.62
2369.681	343.62
2373.508	341.62
2377.333	340.62
2381.153	334.62
2384.971	338.62
2388.785	338.62
2392.595	341.62
2396.402	336.62
2400.206	336.62
2404.007	328.62
2407.804	328.62
2411.597	323.62
2415.388	327.62
2419.174	316.62
2422.958	318.62
2426.738	327.62
2430.515	325.62
2434.289	323.62
2438.059	313.62
2441.825	315.62
2445.589	306.62
2449.349	308.62
2453.106	314.62
2456.859	308.62
2460.61	307.62
2464.356	303.62
2468.1	295.62
2471.84	301.62
2475.577	306.62
2479.311	296.62
2483.041	301.62
2486.768	300.62
2490.492	296.62
2494.213	300.62
2497.93	295.62
2501.644	302.62
2505.355	299.62
2509.062	284.62
2512.766	297.62
2516.467	295.62
2520.165	296.62
2523.859	284.62
2527.551	288.62
2531.239	285.62
2534.923	285.62
2538.605	276.62
2542.283	276.62
2545.958	280.62
2549.63	274.62
2553.299	273.62
2556.964	269.62
2560.626	264.62
2564.285	263.62
2567.941	268.62
2571.594	265.62
2575.243	267.62
2578.89	262.62
2582.533	258.62
2586.173	260.62
2589.809	253.62
2593.443	253.62
2597.073	247.62
2600.701	246.62
2604.325	247.62
2607.946	253.62
2611.564	249.62
2615.178	244.62
2618.79	241.62
2622.398	239.62
2626.004	235.62
2629.606	230.62
2633.205	241.62
2636.801	237.62
2640.394	228.62
2643.983	222.62
2647.57	226.62
2651.153	221.62
2654.734	221.62
2658.311	219.62
2661.885	214.62
2665.456	214.62
2669.025	220.62
2672.589	214.62
2676.151	212.62
2679.71	208.62
2683.266	205.62
2686.819	202.62
2690.368	205.62
2693.915	204.62
2697.458	207.62
2700.999	191.62
2704.536	199.62
2708.071	192.62
2711.602	194.62
2715.13	194.62
2718.656	194.62
2722.178	195.62
2725.697	196.62
2729.214	197.62
2732.727	199.62
2736.237	193.62
2739.744	195.62
2743.249	193.62
2746.75	195.62
2750.248	197.62
2753.743	198.62
2757.236	189.62
2760.725	192.62
2764.211	192.62
2767.695	185.62
2771.175	181.62
2774.652	181.62
2778.127	183.62
2781.598	179.62
2785.067	177.62
2788.532	178.62
2791.995	184.62
2795.455	176.62
2798.911	182.62
2802.365	187.62
2805.816	183.62
2809.264	190.62
2812.709	190.62
2816.151	186.62
2819.59	192.62
2823.026	183.62
2826.46	197.62
2829.89	198.62
2833.318	198.62
2836.742	190.62
2840.164	182.62
2843.583	199.62
2846.999	200.62
2850.412	198.62
2853.822	205.62
2857.229	198.62
2860.634	209.62
2864.035	208.62
2867.434	220.62
2870.83	220.62
2874.223	226.62
2877.613	226.62
2881	227.62
2884.385	224.62
2887.766	220.62
2891.145	223.62
2894.521	223.62
2897.894	227.62
2901.264	226.62
2904.631	231.62
2907.996	235.62
2911.358	243.62
2914.717	240.62
2918.073	238.62
2921.426	250.62
2924.777	245.62
2928.124	257.62
2931.469	251.62
2934.811	268.62
2938.15	272.62
2941.487	271.62
2944.821	275.62
2948.152	280.62
2951.48	285.62
2954.805	297.62
2958.128	301.62
2961.447	295.62
2964.765	304.62
2968.079	310.62
2971.39	310.62
2974.699	325.62
2978.005	334.62
2981.308	324.62
2984.609	354.62
2987.907	363.62
2991.202	373.62
2994.494	386.62
2997.784	383.62
3001.07	400.62
3004.355	414.62
3007.636	425.62
3010.915	420.62
3014.191	436.62
3017.464	443.62
3020.734	441.62
3024.002	463.62
3027.267	470.62
3030.53	469.62
3033.789	471.62
3037.046	484.62
3040.301	500.62
3043.552	505.62
3046.801	530.62
3050.048	529.62
3053.291	551.62
3056.532	572.62
3059.771	584.62
3063.006	607.62
3066.239	618.62
3069.469	630.62
3072.697	664.62
3075.922	677.62
3079.144	682.62
3082.364	713.62
3085.581	732.62
3088.795	749.62
3092.007	764.62
3095.216	789.62
3098.423	809.62
3101.627	824.62
3104.828	846.62
3108.026	848.62
3111.222	859.62
3114.416	880.62
3117.607	919.62
3120.795	920.62
3123.98	963.62
3127.163	962.62
3130.344	1006.62
3133.521	1026.62
3136.696	1053.62
3139.869	1068.62
3143.039	1093.62
3146.206	1113.62
3149.371	1112.62
3152.533	1103.62
3155.693	1130.62
3158.85	1132.62
3162.005	1140.62
3165.157	1146.62
3168.306	1160.62
3171.453	1161.62
3174.597	1164.62
3177.739	1156.62
3180.878	1168.62
3184.014	1164.62
3187.149	1161.62
3190.28	1169.62
3193.409	1194.62
3196.536	1181.62
3199.659	1185.62
3202.781	1178.62
3205.9	1176.62
3209.016	1183.62
3212.13	1185.62
3215.241	1186.62
3218.35	1177.62
3221.456	1175.62
3224.56	1160.62
3227.661	1140.62
3230.76	1132.62
3233.856	1132.62
3236.95	1119.62
3240.041	1088.62
3243.13	1079.62
3246.216	1092.62
3249.3	1077.62
3252.382	1071.62
3255.46	1069.62
3258.537	1064.62
3261.611	1054.62
3264.682	1057.62
3267.751	1046.62
3270.818	1037.62
3273.882	1036.62
3276.943	1036.62
3280.002	1013.62
3283.059	1010.62
3286.113	1000.62
3289.165	978.62
3292.214	973.62
3295.261	958.62
3298.306	937.62
3301.348	924.62
3304.387	920.62
3307.425	904.62
3310.459	887.62
3313.492	880.62
3316.521	866.62
3319.549	855.62
3322.574	847.62
3325.597	865.62
3328.617	846.62
3331.635	833.62
3334.65	840.62
3337.663	825.62
3340.674	826.62
3343.682	827.62
3346.688	829.62
3349.691	820.62
3352.692	810.62
3355.691	811.62
3358.687	790.62
3361.681	788.62
3364.673	785.62
3367.662	762.62
3370.649	752.62
3373.633	750.62
3376.615	736.62
3379.595	738.62
3382.572	724.62
3385.547	709.62
3388.52	715.62
3391.49	690.62
3394.458	678.62
3397.424	668.62
3400.387	664.62
3403.348	654.62
3406.307	645.62
3409.263	646.62
3412.217	643.62
3415.168	637.62
3418.118	623.62
3421.065	618.62
3424.009	605.62
3426.951	608.62
3429.891	589.62
3432.829	567.62
3435.764	565.62
3438.697	550.62
3441.628	545.62
3444.557	538.62
3447.483	517.62
3450.407	509.62
3453.328	489.62
3456.247	482.62
3459.164	461.62
3462.079	440.62
3464.991	418.62
3467.902	413.62
3470.809	405.62
3473.715	394.62
3476.618	372.62
3479.519	377.62
3482.418	359.62
3485.315	358.62
3488.209	345.62
3491.101	330.62
3493.99	314.62
3496.878	311.62
3499.763	298.62
3502.646	301.62
3505.527	280.62
3508.405	274.62
3511.281	254.62
3514.155	248.62
3517.027	241.62
3519.897	229.62
3522.764	213.62
3525.629	208.62
3528.492	196.62
3531.352	179.62
3534.211	168.62
3537.067	157.62
3539.921	149.62
3542.773	144.62
3545.622	136.62
3548.469	126.62
3551.315	113.62
3554.157	113.62
3556.998	103.62
3559.837	104.62
3562.673	84.62
3565.507	87.62
3568.339	80.62
3571.169	72.62
3573.996	69.62
3576.822	57.62
3579.645	54.62
3582.466	49.62
3585.285	48.62
3588.101	38.62
3590.916	38.62
3593.728	34.62
3596.538	22.62
3599.346	22.62
3602.152	19.62
3604.956	17.62
3607.757	1.62
3610.556	1.62
3613.354	-4.38
3616.149	-6.38
3618.942	-9.38
3621.732	-13.38
3624.521	-14.38
3627.307	-13.38
3630.092	-17.38
3632.874	-14.38
3635.654	-27.38
3638.432	-24.38
3641.208	-29.38
3643.982	-34.38
3646.753	-36.38
3649.523	-35.38
3652.29	-41.38
3655.055	-45.38
3657.818	-46.38
3660.579	-50.38
3663.338	-53.38
3666.095	-53.38
3668.849	-48.38
3671.602	-58.38
3674.352	-57.38
3677.101	-62.38
3679.847	-64.38
3682.591	-68.38
3685.333	-69.38
3688.073	-70.38
3690.811	-68.38
3693.547	-73.38
3696.281	-76.38
3699.013	-75.38
3701.742	-73.38
3704.47	-72.38
3707.195	-77.38
3709.919	-80.38
3712.64	-79.38
3715.359	-84.38
3718.076	-85.38
3720.792	-88.38
3723.505	-83.38
3726.216	-82.38
3728.925	-82.38
3731.632	-87.38
3734.336	-85.38
3737.039	-91.38
3739.74	-84.38
3742.439	-92.38
3745.136	-92.38
3747.83	-91.38
3750.523	-92.38
3753.213	-88.38
3755.902	-94.38
3758.589	-91.38
3761.273	-92.38
3763.956	-90.38
3766.636	-93.38
3769.315	-95.38
3771.991	-95.38
3774.665	-93.38
3777.338	-91.38
3780.008	-95.38
3782.677	-97.38
3785.343	-98.38
3788.007	-98.38
3790.67	-96.38
3793.33	-100.38
3795.989	-95.38
3798.645	-94.38
3801.299	-95.38
3803.952	-96.38
3806.602	-103.38
3809.251	-98.38
3811.897	-101.38
3814.542	-99.38
3817.184	-97.38
3819.825	-100.38
3822.463	-101.38
3825.1	-102.38
3827.735	-104.38
3830.367	-96.38
3832.998	-106.38
3835.627	-100.38
3838.253	-100.38
3840.878	-100.38
3843.501	-102.38
3846.122	-103.38
3848.741	-107.38
3851.358	-103.38
3853.973	-106.38
3856.586	-104.38
3859.197	-102.38
3861.806	-103.38
3864.414	-106.38
3867.019	-102.38
3869.622	-103.38
3872.224	-100.38
3874.823	-101.38
3877.421	-98.38
3880.016	-95.38
3882.61	-95.38
3885.202	-98.38
3887.792	-99.38
3890.38	-103.38
3892.966	-103.38
3895.55	-104.38
3898.132	-101.38
3900.713	-103.38
3903.291	-103.38
3905.868	-104.38
3908.442	-107.38
3911.015	-107.38
3913.586	-109.38
3916.155	-109.38
3918.722	-110.38
3921.287	-108.38
3923.85	-108.38
3926.411	-108.38
3928.971	-106.38
3931.528	-110.38
3934.084	-107.38
3936.638	-108.38
3939.19	-108.38
3941.74	-104.38
3944.288	-107.38
3946.834	-105.38
3949.378	-109.38
3951.921	-105.38
3954.462	-111.38
3957	-112.38
3959.537	-103.38
3962.072	-110.38
3964.606	-107.38
3967.137	-103.38
3969.667	-102.38
3972.194	-108.38
3974.72	-105.38
3977.244	-105.38
3979.766	-107.38
3982.286	-104.38
3984.805	-104.38
3987.321	-106.38
3989.836	-106.38
3992.349	-108.38
3994.86	-106.38
3997.369	-107.38
3999.877	-106.38
4002.382	-103.38
4004.886	-102.38
4007.388	-102.38
4009.888	-106.38
4012.386	-103.38
4014.883	-106.38
4017.377	-112.38
4019.87	-106.38
4022.361	-107.38
4024.85	-106.38
4027.338	-107.38
4029.823	-106.38
4032.307	-108.38
4034.789	-105.38
4037.269	-106.38
4039.747	-104.38
4042.224	-109.38
4044.699	-108.38
4047.172	-106.38
4049.643	-106.38
4052.112	-109.38
4054.58	-108.38
4057.046	-106.38
4059.51	-112.38
4061.972	-112.38
4064.432	-110.38
4066.891	-108.38
4069.348	-105.38
4071.803	-107.38
4074.256	-107.38
4076.708	-101.38
4079.158	-106.38
4081.606	-105.38
4084.052	-110.38
4086.497	-108.38
4088.939	-107.38
4091.38	-110.38
4093.819	-108.38
4096.257	-111.38
4098.693	-109.38
4101.127	-112.38
4103.559	-112.38
4105.989	-78.38
4108.418	-68.38
4110.845	-66.38
4113.27	-65.38
4115.694	-54.38
4118.115	-50.38
4120.535	-107.38
4122.954	-103.38
4125.37	-108.38
4127.785	-107.38
4130.198	-107.38
4132.609	-107.38
4135.019	-110.38
4137.427	-111.38
4139.833	-111.38
4142.237	-111.38
