Data from 10000CFU1_A_RamanShift_1.txt Node
Date: Mon Jan 23 14:21:07 IST 2017
User: aro
Spectrometer: QEPB0276
Trigger mode: 0
Integration Time (sec): 5.000000E0
Scans to average: 1
Electric dark correction enabled: true
Nonlinearity correction enabled: false
Boxcar width: 0
XAxis mode: Raman Shifts
Number of Pixels in Spectrum: 1044
>>>>>Begin Spectral Data<<<<<
160.701	-27
166.742	-1
172.777	90
178.805	366
184.826	1014
190.841	2075
196.849	3282
202.85	4099
208.845	4294
214.833	4180
220.815	4030
226.789	3906
232.758	3842
238.719	3729
244.674	3591
250.623	3465
256.565	3325
262.5	3171
268.429	3039
274.351	2924
280.267	2827
286.176	2757
292.079	2657
297.975	2590
303.865	2498
309.748	2453
315.625	2421
321.495	2339
327.359	2295
333.217	2288
339.068	2282
344.912	2259
350.751	2243
356.583	2233
362.408	2230
368.227	2251
374.04	2242
379.847	2242
385.647	2267
391.44	2287
397.228	2291
403.009	2294
408.784	2324
414.553	2309
420.315	2318
426.071	2318
431.821	2324
437.565	2315
443.302	2302
449.033	2324
454.758	2301
460.477	2308
466.189	2303
471.896	2296
477.596	2283
483.29	2261
488.978	2251
494.66	2247
500.335	2247
506.005	2208
511.668	2169
517.325	2141
522.977	2103
528.622	2085
534.261	2080
539.894	2066
545.521	2035
551.141	2042
556.756	2030
562.365	2022
567.968	2001
573.565	2003
579.155	1985
584.74	1962
590.319	1963
595.892	1949
601.459	1932
607.02	1927
612.575	1935
618.124	1916
623.667	1884
629.204	1872
634.735	1856
640.261	1863
645.781	1864
651.294	1846
656.802	1842
662.304	1820
667.8	1822
673.29	1821
678.775	1825
684.254	1817
689.726	1821
695.193	1798
700.655	1799
706.11	1779
711.56	1754
717.004	1765
722.442	1754
727.874	1755
733.301	1752
738.722	1730
744.137	1728
749.547	1725
754.951	1738
760.349	1741
765.741	1736
771.128	1736
776.509	1720
781.885	1739
787.254	1747
792.618	1735
797.977	1721
803.33	1710
808.677	1696
814.019	1668
819.355	1661
824.686	1662
830.011	1651
835.33	1635
840.644	1651
845.952	1637
851.255	1636
856.552	1633
861.844	1633
867.13	1634
872.41	1614
877.686	1622
882.955	1628
888.219	1587
893.478	1563
898.731	1551
903.979	1516
909.221	1518
914.458	1514
919.69	1511
924.916	1504
930.136	1511
935.351	1503
940.561	1498
945.766	1508
950.965	1501
956.158	1489
961.347	1467
966.529	1446
971.707	1425
976.879	1404
982.046	1411
987.208	1395
992.364	1404
997.515	1419
1002.66	1433
1007.801	1436
1012.936	1450
1018.066	1467
1023.19	1486
1028.309	1481
1033.423	1461
1038.532	1471
1043.636	1442
1048.734	1444
1053.827	1422
1058.915	1437
1063.998	1413
1069.075	1414
1074.147	1416
1079.214	1430
1084.276	1441
1089.333	1447
1094.385	1470
1099.431	1463
1104.472	1463
1109.509	1467
1114.54	1437
1119.565	1422
1124.586	1406
1129.602	1403
1134.613	1418
1139.618	1400
1144.619	1381
1149.614	1419
1154.604	1405
1159.589	1429
1164.57	1409
1169.545	1433
1174.515	1407
1179.48	1420
1184.44	1416
1189.395	1391
1194.345	1395
1199.29	1418
1204.23	1406
1209.165	1420
1214.095	1413
1219.021	1437
1223.941	1433
1228.856	1451
1233.766	1459
1238.672	1459
1243.572	1455
1248.467	1447
1253.358	1444
1258.244	1415
1263.124	1386
1268	1381
1272.871	1347
1277.737	1350
1282.599	1349
1287.455	1363
1292.306	1376
1297.153	1372
1301.995	1385
1306.832	1404
1311.664	1398
1316.491	1416
1321.314	1402
1326.132	1388
1330.945	1398
1335.753	1376
1340.556	1352
1345.354	1353
1350.148	1359
1354.937	1334
1359.722	1340
1364.501	1296
1369.276	1296
1374.046	1270
1378.811	1264
1383.572	1262
1388.327	1252
1393.079	1268
1397.825	1249
1402.567	1255
1407.304	1241
1412.036	1253
1416.764	1234
1421.487	1239
1426.205	1250
1430.919	1273
1435.628	1280
1440.333	1295
1445.032	1296
1449.727	1316
1454.418	1338
1459.104	1327
1463.785	1301
1468.462	1295
1473.134	1281
1477.802	1286
1482.465	1287
1487.123	1264
1491.777	1269
1496.426	1292
1501.071	1299
1505.711	1296
1510.347	1298
1514.978	1307
1519.604	1335
1524.226	1312
1528.844	1318
1533.457	1303
1538.065	1306
1542.669	1291
1547.269	1285
1551.864	1296
1556.454	1302
1561.041	1308
1565.622	1306
1570.199	1323
1574.772	1356
1579.34	1368
1583.904	1399
1588.464	1397
1593.019	1420
1597.569	1422
1602.115	1436
1606.657	1449
1611.195	1452
1615.728	1466
1620.256	1477
1624.78	1484
1629.3	1496
1633.816	1524
1638.327	1540
1642.834	1558
1647.336	1564
1651.834	1587
1656.328	1584
1660.817	1552
1665.302	1548
1669.783	1528
1674.259	1504
1678.732	1477
1683.199	1427
1687.663	1398
1692.122	1360
1696.577	1315
1701.028	1247
1705.474	1186
1709.917	1153
1714.355	1141
1718.788	1138
1723.218	1141
1727.643	1112
1732.064	1112
1736.481	1091
1740.893	1067
1745.301	1043
1749.705	1018
1754.105	988
1758.501	988
1762.893	987
1767.28	966
1771.663	966
1776.042	970
1780.417	965
1784.787	962
1789.154	970
1793.516	988
1797.874	982
1802.228	950
1806.578	940
1810.924	925
1815.266	919
1819.603	901
1823.937	891
1828.266	874
1832.591	883
1836.913	886
1841.23	879
1845.543	888
1849.852	891
1854.156	887
1858.457	895
1862.754	904
1867.047	892
1871.335	912
1875.62	915
1879.9	927
1884.177	905
1888.449	912
1892.718	905
1896.982	920
1901.243	906
1905.499	894
1909.752	902
1914	890
1918.245	898
1922.485	891
1926.722	907
1930.954	906
1935.183	904
1939.408	913
1943.628	916
1947.845	902
1952.058	901
1956.267	897
1960.472	884
1964.673	869
1968.87	851
1973.063	847
1977.252	847
1981.438	844
1985.619	838
1989.797	835
1993.971	832
1998.14	840
2002.306	848
2006.469	841
2010.627	837
2014.781	857
2018.932	866
2023.078	866
2027.221	859
2031.36	842
2035.495	826
2039.627	835
2043.754	819
2047.878	829
2051.998	830
2056.114	827
2060.226	826
2064.334	836
2068.439	841
2072.54	841
2076.637	845
2080.73	846
2084.82	847
2088.906	851
2092.988	845
2097.066	848
2101.14	832
2105.211	835
2109.278	831
2113.342	823
2117.401	822
2121.457	798
2125.509	804
2129.558	798
2133.602	808
2137.643	780
2141.681	786
2145.714	795
2149.744	790
2153.77	781
2157.793	777
2161.812	769
2165.827	760
2169.838	756
2173.846	752
2177.851	730
2181.851	724
2185.848	717
2189.841	715
2193.831	706
2197.817	709
2201.799	698
2205.778	700
2209.753	702
2213.725	704
2217.693	700
2221.657	692
2225.618	707
2229.575	701
2233.529	689
2237.479	694
2241.425	686
2245.368	673
2249.307	672
2253.243	659
2257.175	636
2261.104	651
2265.029	636
2268.95	632
2272.868	634
2276.783	620
2280.694	610
2284.601	605
2288.505	595
2292.405	582
2296.302	589
2300.195	568
2304.085	570
2307.971	569
2311.854	548
2315.734	541
2319.609	533
2323.482	538
2327.351	531
2331.216	522
2335.078	527
2338.937	513
2342.792	513
2346.643	506
2350.492	503
2354.336	509
2358.178	513
2362.015	516
2365.85	523
2369.681	521
2373.508	521
2377.333	523
2381.153	529
2384.971	523
2388.785	517
2392.595	519
2396.402	509
2400.206	505
2404.007	511
2407.804	511
2411.597	513
2415.388	503
2419.174	494
2422.958	501
2426.738	495
2430.515	501
2434.289	497
2438.059	494
2441.825	501
2445.589	478
2449.349	481
2453.106	486
2456.859	485
2460.61	466
2464.356	471
2468.1	485
2471.84	462
2475.577	469
2479.311	459
2483.041	471
2486.768	471
2490.492	457
2494.213	474
2497.93	472
2501.644	460
2505.355	461
2509.062	456
2512.766	458
2516.467	453
2520.165	460
2523.859	462
2527.551	454
2531.239	451
2534.923	449
2538.605	441
2542.283	437
2545.958	425
2549.63	440
2553.299	437
2556.964	437
2560.626	419
2564.285	418
2567.941	424
2571.594	416
2575.243	426
2578.89	419
2582.533	408
2586.173	403
2589.809	407
2593.443	406
2597.073	394
2600.701	393
2604.325	391
2607.946	410
2611.564	403
2615.178	391
2618.79	386
2622.398	380
2626.004	388
2629.606	389
2633.205	386
2636.801	382
2640.394	372
2643.983	367
2647.57	377
2651.153	356
2654.734	362
2658.311	357
2661.885	354
2665.456	356
2669.025	344
2672.589	339
2676.151	343
2679.71	333
2683.266	343
2686.819	337
2690.368	328
2693.915	329
2697.458	329
2700.999	325
2704.536	317
2708.071	314
2711.602	315
2715.13	316
2718.656	321
2722.178	321
2725.697	326
2729.214	312
2732.727	321
2736.237	318
2739.744	316
2743.249	329
2746.75	312
2750.248	311
2753.743	313
2757.236	322
2760.725	301
2764.211	301
2767.695	304
2771.175	298
2774.652	287
2778.127	289
2781.598	287
2785.067	282
2788.532	290
2791.995	286
2795.455	290
2798.911	287
2802.365	297
2805.816	286
2809.264	294
2812.709	293
2816.151	290
2819.59	294
2823.026	280
2826.46	286
2829.89	292
2833.318	297
2836.742	294
2840.164	294
2843.583	287
2846.999	294
2850.412	291
2853.822	290
2857.229	296
2860.634	305
2864.035	305
2867.434	310
2870.83	318
2874.223	319
2877.613	322
2881	317
2884.385	309
2887.766	307
2891.145	304
2894.521	307
2897.894	302
2901.264	305
2904.631	319
2907.996	316
2911.358	315
2914.717	318
2918.073	314
2921.426	326
2924.777	324
2928.124	325
2931.469	331
2934.811	344
2938.15	333
2941.487	337
2944.821	350
2948.152	336
2951.48	345
2954.805	349
2958.128	359
2961.447	350
2964.765	361
2968.079	369
2971.39	370
2974.699	369
2978.005	382
2981.308	384
2984.609	390
2987.907	413
2991.202	405
2994.494	423
2997.784	422
3001.07	442
3004.355	441
3007.636	451
3010.915	457
3014.191	464
3017.464	470
3020.734	476
3024.002	479
3027.267	490
3030.53	492
3033.789	494
3037.046	507
3040.301	518
3043.552	526
3046.801	535
3050.048	551
3053.291	565
3056.532	571
3059.771	592
3063.006	602
3066.239	617
3069.469	640
3072.697	656
3075.922	680
3079.144	692
3082.364	704
3085.581	713
3088.795	719
3092.007	745
3095.216	759
3098.423	782
3101.627	785
3104.828	799
3108.026	825
3111.222	825
3114.416	840
3117.607	886
3120.795	884
3123.98	895
3127.163	926
3130.344	941
3133.521	959
3136.696	992
3139.869	999
3143.039	1013
3146.206	1033
3149.371	1039
3152.533	1052
3155.693	1062
3158.85	1067
3162.005	1060
3165.157	1073
3168.306	1068
3171.453	1063
3174.597	1083
3177.739	1080
3180.878	1093
3184.014	1076
3187.149	1075
3190.28	1094
3193.409	1102
3196.536	1097
3199.659	1107
3202.781	1111
3205.9	1110
3209.016	1094
3212.13	1112
3215.241	1086
3218.35	1082
3221.456	1071
3224.56	1068
3227.661	1059
3230.76	1052
3233.856	1035
3236.95	1011
3240.041	1014
3243.13	1000
3246.216	991
3249.3	990
3252.382	968
3255.46	987
3258.537	983
3261.611	966
3264.682	965
3267.751	963
3270.818	949
3273.882	947
3276.943	953
3280.002	933
3283.059	928
3286.113	915
3289.165	909
3292.214	899
3295.261	873
3298.306	858
3301.348	850
3304.387	835
3307.425	835
3310.459	823
3313.492	811
3316.521	798
3319.549	787
3322.574	774
3325.597	777
3328.617	771
3331.635	770
3334.65	770
3337.663	758
3340.674	747
3343.682	762
3346.688	749
3349.691	752
3352.692	745
3355.691	741
3358.687	738
3361.681	731
3364.673	711
3367.662	696
3370.649	710
3373.633	686
3376.615	668
3379.595	652
3382.572	662
3385.547	647
3388.52	646
3391.49	636
3394.458	622
3397.424	607
3400.387	604
3403.348	611
3406.307	595
3409.263	591
3412.217	582
3415.168	576
3418.118	571
3421.065	562
3424.009	554
3426.951	553
3429.891	535
3432.829	533
3435.764	512
3438.697	502
3441.628	489
3444.557	479
3447.483	457
3450.407	454
3453.328	445
3456.247	424
3459.164	429
3462.079	407
3464.991	392
3467.902	387
3470.809	362
3473.715	352
3476.618	349
3479.519	336
3482.418	317
3485.315	322
3488.209	316
3491.101	300
3493.99	297
3496.878	283
3499.763	271
3502.646	271
3505.527	257
3508.405	240
3511.281	229
3514.155	226
3517.027	215
3519.897	208
3522.764	191
3525.629	178
3528.492	170
3531.352	163
3534.211	158
3537.067	143
3539.921	137
3542.773	125
3545.622	127
3548.469	112
3551.315	105
3554.157	98
3556.998	97
3559.837	87
3562.673	76
3565.507	68
3568.339	74
3571.169	67
3573.996	56
3576.822	53
3579.645	53
3582.466	43
3585.285	42
3588.101	38
3590.916	30
3593.728	23
3596.538	20
3599.346	13
3602.152	8
3604.956	10
3607.757	7
3610.556	1
3613.354	-6
3616.149	-1
3618.942	-10
3621.732	-13
3624.521	-14
3627.307	-16
3630.092	-22
3632.874	-22
3635.654	-22
3638.432	-24
3641.208	-26
3643.982	-31
3646.753	-32
3649.523	-34
3652.29	-39
3655.055	-42
3657.818	-46
3660.579	-46
3663.338	-50
3666.095	-56
3668.849	-51
3671.602	-54
3674.352	-56
3677.101	-59
3679.847	-64
3682.591	-63
3685.333	-59
3688.073	-60
3690.811	-62
3693.547	-67
3696.281	-70
3699.013	-71
3701.742	-71
3704.47	-69
3707.195	-75
3709.919	-74
3712.64	-75
3715.359	-80
3718.076	-79
3720.792	-78
3723.505	-80
3726.216	-77
3728.925	-79
3731.632	-80
3734.336	-80
3737.039	-84
3739.74	-80
3742.439	-89
3745.136	-85
3747.83	-86
3750.523	-89
3753.213	-85
3755.902	-85
3758.589	-86
3761.273	-87
3763.956	-87
3766.636	-87
3769.315	-89
3771.991	-89
3774.665	-86
3777.338	-85
3780.008	-91
3782.677	-93
3785.343	-93
3788.007	-91
3790.67	-94
3793.33	-91
3795.989	-92
3798.645	-89
3801.299	-90
3803.952	-92
3806.602	-95
3809.251	-95
3811.897	-93
3814.542	-94
3817.184	-96
3819.825	-96
3822.463	-95
3825.1	-97
3827.735	-98
3830.367	-95
3832.998	-97
3835.627	-93
3838.253	-94
3840.878	-94
3843.501	-96
3846.122	-100
3848.741	-102
3851.358	-98
3853.973	-101
3856.586	-97
3859.197	-95
3861.806	-97
3864.414	-100
3867.019	-96
3869.622	-103
3872.224	-98
3874.823	-95
3877.421	-96
3880.016	-93
3882.61	-91
3885.202	-96
3887.792	-97
3890.38	-98
3892.966	-98
3895.55	-100
3898.132	-98
3900.713	-100
3903.291	-97
3905.868	-99
3908.442	-101
3911.015	-103
3913.586	-104
3916.155	-104
3918.722	-107
3921.287	-101
3923.85	-104
3926.411	-105
3928.971	-104
3931.528	-103
3934.084	-101
3936.638	-102
3939.19	-104
3941.74	-101
3944.288	-106
3946.834	-100
3949.378	-102
3951.921	-101
3954.462	-107
3957	-105
3959.537	-103
3962.072	-104
3964.606	-104
3967.137	-103
3969.667	-99
3972.194	-103
3974.72	-99
3977.244	-102
3979.766	-101
3982.286	-103
3984.805	-102
3987.321	-104
3989.836	-103
3992.349	-106
3994.86	-105
3997.369	-101
3999.877	-103
4002.382	-100
4004.886	-97
4007.388	-99
4009.888	-102
4012.386	-98
4014.883	-98
4017.377	-107
4019.87	-101
4022.361	-102
4024.85	-104
4027.338	-104
4029.823	-101
4032.307	-99
4034.789	-101
4037.269	-101
4039.747	-99
4042.224	-103
4044.699	-102
4047.172	-103
4049.643	-99
4052.112	-103
4054.58	-104
4057.046	-100
4059.51	-102
4061.972	-107
4064.432	-106
4066.891	-100
4069.348	-99
4071.803	-102
4074.256	-96
4076.708	-98
4079.158	-102
4081.606	-104
4084.052	-106
4086.497	-104
4088.939	-106
4091.38	-103
4093.819	-104
4096.257	-107
4098.693	-103
4101.127	-107
4103.559	-108
4105.989	-71
4108.418	-68
4110.845	-64
4113.27	-63
4115.694	-58
4118.115	-47
4120.535	-103
4122.954	-99
4125.37	-104
4127.785	-101
4130.198	-102
4132.609	-100
4135.019	-107
4137.427	-108
4139.833	-107
4142.237	-106
