Data from 100000CFU3_A_RamanShift_1.txt Node
Date: Mon Jan 23 14:31:22 IST 2017
User: aro
Spectrometer: QEPB0276
Trigger mode: 0
Integration Time (sec): 5.000000E0
Scans to average: 1
Electric dark correction enabled: true
Nonlinearity correction enabled: false
Boxcar width: 0
XAxis mode: Raman Shifts
Number of Pixels in Spectrum: 1044
>>>>>Begin Spectral Data<<<<<
160.701	-35.75
166.742	-0.75
172.777	92.25
178.805	398.25
184.826	1091.25
190.841	2235.25
196.849	3531.25
202.85	4411.25
208.845	4634.25
214.833	4490.25
220.815	4289.25
226.789	4172.25
232.758	4075.25
238.719	3949.25
244.674	3809.25
250.623	3658.25
256.565	3477.25
262.5	3325.25
268.429	3164.25
274.351	3069.25
280.267	2918.25
286.176	2821.25
292.079	2739.25
297.975	2665.25
303.865	2565.25
309.748	2507.25
315.625	2444.25
321.495	2382.25
327.359	2339.25
333.217	2321.25
339.068	2315.25
344.912	2283.25
350.751	2282.25
356.583	2264.25
362.408	2270.25
368.227	2266.25
374.04	2257.25
379.847	2287.25
385.647	2282.25
391.44	2304.25
397.228	2310.25
403.009	2314.25
408.784	2331.25
414.553	2342.25
420.315	2357.25
426.071	2352.25
431.821	2357.25
437.565	2355.25
443.302	2355.25
449.033	2329.25
454.758	2338.25
460.477	2335.25
466.189	2326.25
471.896	2300.25
477.596	2310.25
483.29	2281.25
488.978	2265.25
494.66	2250.25
500.335	2237.25
506.005	2213.25
511.668	2179.25
517.325	2132.25
522.977	2113.25
528.622	2089.25
534.261	2074.25
539.894	2052.25
545.521	2043.25
551.141	2020.25
556.756	2017.25
562.365	1995.25
567.968	1984.25
573.565	1988.25
579.155	1962.25
584.74	1954.25
590.319	1933.25
595.892	1944.25
601.459	1919.25
607.02	1892.25
612.575	1897.25
618.124	1885.25
623.667	1848.25
629.204	1842.25
634.735	1819.25
640.261	1815.25
645.781	1826.25
651.294	1806.25
656.802	1792.25
662.304	1794.25
667.8	1786.25
673.29	1786.25
678.775	1772.25
684.254	1770.25
689.726	1765.25
695.193	1741.25
700.655	1736.25
706.11	1743.25
711.56	1725.25
717.004	1695.25
722.442	1689.25
727.874	1696.25
733.301	1667.25
738.722	1651.25
744.137	1669.25
749.547	1649.25
754.951	1645.25
760.349	1667.25
765.741	1665.25
771.128	1652.25
776.509	1655.25
781.885	1664.25
787.254	1659.25
792.618	1645.25
797.977	1639.25
803.33	1623.25
808.677	1618.25
814.019	1606.25
819.355	1561.25
824.686	1559.25
830.011	1568.25
835.33	1542.25
840.644	1535.25
845.952	1540.25
851.255	1537.25
856.552	1536.25
861.844	1534.25
867.13	1523.25
872.41	1518.25
877.686	1500.25
882.955	1469.25
888.219	1450.25
893.478	1452.25
898.731	1421.25
903.979	1406.25
909.221	1402.25
914.458	1370.25
919.69	1364.25
924.916	1376.25
930.136	1362.25
935.351	1381.25
940.561	1370.25
945.766	1363.25
950.965	1352.25
956.158	1345.25
961.347	1322.25
966.529	1330.25
971.707	1277.25
976.879	1268.25
982.046	1263.25
987.208	1255.25
992.364	1256.25
997.515	1267.25
1002.66	1277.25
1007.801	1285.25
1012.936	1294.25
1018.066	1323.25
1023.19	1327.25
1028.309	1312.25
1033.423	1320.25
1038.532	1309.25
1043.636	1305.25
1048.734	1280.25
1053.827	1260.25
1058.915	1265.25
1063.998	1262.25
1069.075	1247.25
1074.147	1249.25
1079.214	1257.25
1084.276	1268.25
1089.333	1283.25
1094.385	1287.25
1099.431	1304.25
1104.472	1299.25
1109.509	1266.25
1114.54	1287.25
1119.565	1263.25
1124.586	1251.25
1129.602	1235.25
1134.613	1222.25
1139.618	1227.25
1144.619	1230.25
1149.614	1240.25
1154.604	1250.25
1159.589	1250.25
1164.57	1246.25
1169.545	1252.25
1174.515	1250.25
1179.48	1235.25
1184.44	1257.25
1189.395	1239.25
1194.345	1224.25
1199.29	1232.25
1204.23	1227.25
1209.165	1228.25
1214.095	1234.25
1219.021	1231.25
1223.941	1254.25
1228.856	1258.25
1233.766	1257.25
1238.672	1273.25
1243.572	1267.25
1248.467	1270.25
1253.358	1251.25
1258.244	1231.25
1263.124	1229.25
1268	1188.25
1272.871	1181.25
1277.737	1185.25
1282.599	1181.25
1287.455	1173.25
1292.306	1191.25
1297.153	1191.25
1301.995	1204.25
1306.832	1213.25
1311.664	1223.25
1316.491	1217.25
1321.314	1219.25
1326.132	1215.25
1330.945	1199.25
1335.753	1184.25
1340.556	1178.25
1345.354	1160.25
1350.148	1154.25
1354.937	1159.25
1359.722	1144.25
1364.501	1131.25
1369.276	1125.25
1374.046	1121.25
1378.811	1093.25
1383.572	1103.25
1388.327	1089.25
1393.079	1095.25
1397.825	1092.25
1402.567	1090.25
1407.304	1079.25
1412.036	1075.25
1416.764	1065.25
1421.487	1078.25
1426.205	1084.25
1430.919	1076.25
1435.628	1094.25
1440.333	1101.25
1445.032	1115.25
1449.727	1130.25
1454.418	1132.25
1459.104	1129.25
1463.785	1133.25
1468.462	1120.25
1473.134	1103.25
1477.802	1089.25
1482.465	1092.25
1487.123	1093.25
1491.777	1096.25
1496.426	1104.25
1501.071	1107.25
1505.711	1116.25
1510.347	1126.25
1514.978	1134.25
1519.604	1144.25
1524.226	1150.25
1528.844	1141.25
1533.457	1145.25
1538.065	1137.25
1542.669	1132.25
1547.269	1116.25
1551.864	1136.25
1556.454	1142.25
1561.041	1149.25
1565.622	1153.25
1570.199	1179.25
1574.772	1189.25
1579.34	1202.25
1583.904	1226.25
1588.464	1241.25
1593.019	1263.25
1597.569	1267.25
1602.115	1274.25
1606.657	1310.25
1611.195	1311.25
1615.728	1331.25
1620.256	1347.25
1624.78	1342.25
1629.3	1366.25
1633.816	1374.25
1638.327	1424.25
1642.834	1431.25
1647.336	1435.25
1651.834	1435.25
1656.328	1427.25
1660.817	1426.25
1665.302	1408.25
1669.783	1390.25
1674.259	1349.25
1678.732	1321.25
1683.199	1284.25
1687.663	1247.25
1692.122	1200.25
1696.577	1167.25
1701.028	1112.25
1705.474	1049.25
1709.917	1028.25
1714.355	1009.25
1718.788	989.25
1723.218	983.25
1727.643	974.25
1732.064	927.25
1736.481	922.25
1740.893	898.25
1745.301	870.25
1749.705	845.25
1754.105	828.25
1758.501	827.25
1762.893	807.25
1767.28	797.25
1771.663	785.25
1776.042	787.25
1780.417	788.25
1784.787	793.25
1789.154	797.25
1793.516	808.25
1797.874	793.25
1802.228	770.25
1806.578	769.25
1810.924	758.25
1815.266	735.25
1819.603	722.25
1823.937	726.25
1828.266	710.25
1832.591	708.25
1836.913	708.25
1841.23	707.25
1845.543	709.25
1849.852	714.25
1854.156	712.25
1858.457	712.25
1862.754	728.25
1867.047	720.25
1871.335	725.25
1875.62	726.25
1879.9	721.25
1884.177	715.25
1888.449	730.25
1892.718	717.25
1896.982	720.25
1901.243	714.25
1905.499	711.25
1909.752	720.25
1914	714.25
1918.245	703.25
1922.485	717.25
1926.722	718.25
1930.954	724.25
1935.183	737.25
1939.408	737.25
1943.628	738.25
1947.845	738.25
1952.058	707.25
1956.267	719.25
1960.472	718.25
1964.673	699.25
1968.87	690.25
1973.063	695.25
1977.252	686.25
1981.438	680.25
1985.619	673.25
1989.797	662.25
1993.971	677.25
1998.14	678.25
2002.306	679.25
2006.469	681.25
2010.627	697.25
2014.781	698.25
2018.932	679.25
2023.078	700.25
2027.221	683.25
2031.36	685.25
2035.495	667.25
2039.627	676.25
2043.754	663.25
2047.878	663.25
2051.998	677.25
2056.114	677.25
2060.226	672.25
2064.334	674.25
2068.439	687.25
2072.54	690.25
2076.637	683.25
2080.73	700.25
2084.82	683.25
2088.906	702.25
2092.988	694.25
2097.066	679.25
2101.14	679.25
2105.211	667.25
2109.278	667.25
2113.342	675.25
2117.401	668.25
2121.457	655.25
2125.509	659.25
2129.558	642.25
2133.602	648.25
2137.643	652.25
2141.681	637.25
2145.714	640.25
2149.744	640.25
2153.77	635.25
2157.793	623.25
2161.812	625.25
2165.827	614.25
2169.838	609.25
2173.846	589.25
2177.851	590.25
2181.851	583.25
2185.848	579.25
2189.841	575.25
2193.831	558.25
2197.817	554.25
2201.799	558.25
2205.778	564.25
2209.753	564.25
2213.725	560.25
2217.693	559.25
2221.657	556.25
2225.618	545.25
2229.575	545.25
2233.529	558.25
2237.479	542.25
2241.425	535.25
2245.368	530.25
2249.307	531.25
2253.243	511.25
2257.175	504.25
2261.104	505.25
2265.029	498.25
2268.95	484.25
2272.868	488.25
2276.783	477.25
2280.694	462.25
2284.601	476.25
2288.505	467.25
2292.405	458.25
2296.302	460.25
2300.195	445.25
2304.085	434.25
2307.971	429.25
2311.854	424.25
2315.734	411.25
2319.609	402.25
2323.482	410.25
2327.351	392.25
2331.216	399.25
2335.078	398.25
2338.937	394.25
2342.792	390.25
2346.643	376.25
2350.492	382.25
2354.336	385.25
2358.178	397.25
2362.015	389.25
2365.85	386.25
2369.681	392.25
2373.508	380.25
2377.333	387.25
2381.153	387.25
2384.971	394.25
2388.785	379.25
2392.595	383.25
2396.402	383.25
2400.206	372.25
2404.007	368.25
2407.804	373.25
2411.597	364.25
2415.388	375.25
2419.174	369.25
2422.958	355.25
2426.738	362.25
2430.515	370.25
2434.289	371.25
2438.059	357.25
2441.825	357.25
2445.589	350.25
2449.349	353.25
2453.106	349.25
2456.859	362.25
2460.61	344.25
2464.356	347.25
2468.1	341.25
2471.84	346.25
2475.577	341.25
2479.311	341.25
2483.041	341.25
2486.768	335.25
2490.492	339.25
2494.213	338.25
2497.93	343.25
2501.644	338.25
2505.355	332.25
2509.062	342.25
2512.766	333.25
2516.467	332.25
2520.165	333.25
2523.859	328.25
2527.551	326.25
2531.239	315.25
2534.923	311.25
2538.605	309.25
2542.283	314.25
2545.958	313.25
2549.63	315.25
2553.299	321.25
2556.964	312.25
2560.626	308.25
2564.285	308.25
2567.941	304.25
2571.594	303.25
2575.243	301.25
2578.89	291.25
2582.533	292.25
2586.173	302.25
2589.809	286.25
2593.443	295.25
2597.073	286.25
2600.701	286.25
2604.325	284.25
2607.946	288.25
2611.564	275.25
2615.178	282.25
2618.79	269.25
2622.398	271.25
2626.004	268.25
2629.606	279.25
2633.205	271.25
2636.801	267.25
2640.394	271.25
2643.983	263.25
2647.57	257.25
2651.153	249.25
2654.734	253.25
2658.311	252.25
2661.885	245.25
2665.456	243.25
2669.025	243.25
2672.589	239.25
2676.151	239.25
2679.71	243.25
2683.266	238.25
2686.819	236.25
2690.368	240.25
2693.915	229.25
2697.458	221.25
2700.999	231.25
2704.536	216.25
2708.071	221.25
2711.602	213.25
2715.13	215.25
2718.656	222.25
2722.178	224.25
2725.697	226.25
2729.214	224.25
2732.727	225.25
2736.237	225.25
2739.744	223.25
2743.249	225.25
2746.75	225.25
2750.248	218.25
2753.743	225.25
2757.236	215.25
2760.725	220.25
2764.211	221.25
2767.695	214.25
2771.175	209.25
2774.652	206.25
2778.127	205.25
2781.598	203.25
2785.067	208.25
2788.532	207.25
2791.995	213.25
2795.455	208.25
2798.911	215.25
2802.365	207.25
2805.816	211.25
2809.264	213.25
2812.709	206.25
2816.151	211.25
2819.59	216.25
2823.026	215.25
2826.46	216.25
2829.89	216.25
2833.318	213.25
2836.742	217.25
2840.164	219.25
2843.583	223.25
2846.999	220.25
2850.412	227.25
2853.822	223.25
2857.229	232.25
2860.634	230.25
2864.035	231.25
2867.434	238.25
2870.83	245.25
2874.223	249.25
2877.613	248.25
2881	254.25
2884.385	248.25
2887.766	241.25
2891.145	241.25
2894.521	244.25
2897.894	252.25
2901.264	243.25
2904.631	261.25
2907.996	256.25
2911.358	261.25
2914.717	253.25
2918.073	257.25
2921.426	262.25
2924.777	262.25
2928.124	271.25
2931.469	278.25
2934.811	285.25
2938.15	293.25
2941.487	294.25
2944.821	306.25
2948.152	301.25
2951.48	308.25
2954.805	305.25
2958.128	317.25
2961.447	317.25
2964.765	315.25
2968.079	323.25
2971.39	331.25
2974.699	347.25
2978.005	356.25
2981.308	360.25
2984.609	372.25
2987.907	385.25
2991.202	392.25
2994.494	400.25
2997.784	405.25
3001.07	409.25
3004.355	431.25
3007.636	441.25
3010.915	443.25
3014.191	460.25
3017.464	468.25
3020.734	462.25
3024.002	478.25
3027.267	480.25
3030.53	481.25
3033.789	495.25
3037.046	520.25
3040.301	531.25
3043.552	542.25
3046.801	539.25
3050.048	555.25
3053.291	566.25
3056.532	590.25
3059.771	619.25
3063.006	625.25
3066.239	663.25
3069.469	674.25
3072.697	680.25
3075.922	715.25
3079.144	727.25
3082.364	743.25
3085.581	756.25
3088.795	766.25
3092.007	798.25
3095.216	828.25
3098.423	834.25
3101.627	850.25
3104.828	871.25
3108.026	897.25
3111.222	899.25
3114.416	925.25
3117.607	951.25
3120.795	960.25
3123.98	987.25
3127.163	1011.25
3130.344	1041.25
3133.521	1050.25
3136.696	1078.25
3139.869	1093.25
3143.039	1102.25
3146.206	1141.25
3149.371	1146.25
3152.533	1154.25
3155.693	1167.25
3158.85	1182.25
3162.005	1177.25
3165.157	1197.25
3168.306	1186.25
3171.453	1191.25
3174.597	1183.25
3177.739	1190.25
3180.878	1197.25
3184.014	1203.25
3187.149	1207.25
3190.28	1206.25
3193.409	1214.25
3196.536	1219.25
3199.659	1220.25
3202.781	1221.25
3205.9	1222.25
3209.016	1219.25
3212.13	1210.25
3215.241	1198.25
3218.35	1203.25
3221.456	1209.25
3224.56	1192.25
3227.661	1174.25
3230.76	1166.25
3233.856	1156.25
3236.95	1144.25
3240.041	1127.25
3243.13	1113.25
3246.216	1116.25
3249.3	1109.25
3252.382	1087.25
3255.46	1091.25
3258.537	1098.25
3261.611	1088.25
3264.682	1080.25
3267.751	1081.25
3270.818	1080.25
3273.882	1067.25
3276.943	1063.25
3280.002	1046.25
3283.059	1041.25
3286.113	1046.25
3289.165	1023.25
3292.214	1005.25
3295.261	976.25
3298.306	967.25
3301.348	953.25
3304.387	937.25
3307.425	925.25
3310.459	924.25
3313.492	903.25
3316.521	886.25
3319.549	895.25
3322.574	881.25
3325.597	872.25
3328.617	869.25
3331.635	856.25
3334.65	855.25
3337.663	838.25
3340.674	844.25
3343.682	835.25
3346.688	840.25
3349.691	834.25
3352.692	824.25
3355.691	818.25
3358.687	818.25
3361.681	811.25
3364.673	800.25
3367.662	780.25
3370.649	778.25
3373.633	768.25
3376.615	762.25
3379.595	735.25
3382.572	734.25
3385.547	726.25
3388.52	706.25
3391.49	697.25
3394.458	695.25
3397.424	692.25
3400.387	685.25
3403.348	671.25
3406.307	662.25
3409.263	667.25
3412.217	660.25
3415.168	643.25
3418.118	629.25
3421.065	626.25
3424.009	610.25
3426.951	618.25
3429.891	607.25
3432.829	596.25
3435.764	586.25
3438.697	569.25
3441.628	556.25
3444.557	534.25
3447.483	528.25
3450.407	519.25
3453.328	501.25
3456.247	486.25
3459.164	470.25
3462.079	452.25
3464.991	441.25
3467.902	430.25
3470.809	411.25
3473.715	396.25
3476.618	385.25
3479.519	386.25
3482.418	370.25
3485.315	357.25
3488.209	349.25
3491.101	342.25
3493.99	324.25
3496.878	316.25
3499.763	311.25
3502.646	303.25
3505.527	290.25
3508.405	280.25
3511.281	266.25
3514.155	251.25
3517.027	235.25
3519.897	232.25
3522.764	213.25
3525.629	209.25
3528.492	191.25
3531.352	177.25
3534.211	176.25
3537.067	163.25
3539.921	157.25
3542.773	149.25
3545.622	130.25
3548.469	128.25
3551.315	123.25
3554.157	118.25
3556.998	105.25
3559.837	101.25
3562.673	90.25
3565.507	92.25
3568.339	84.25
3571.169	75.25
3573.996	70.25
3576.822	68.25
3579.645	63.25
3582.466	49.25
3585.285	44.25
3588.101	42.25
3590.916	37.25
3593.728	38.25
3596.538	31.25
3599.346	25.25
3602.152	19.25
3604.956	17.25
3607.757	5.25
3610.556	-3.75
3613.354	-5.75
3616.149	-4.75
3618.942	-5.75
3621.732	-10.75
3624.521	-14.75
3627.307	-11.75
3630.092	-20.75
3632.874	-24.75
3635.654	-29.75
3638.432	-22.75
3641.208	-29.75
3643.982	-31.75
3646.753	-35.75
3649.523	-39.75
3652.29	-40.75
3655.055	-45.75
3657.818	-50.75
3660.579	-55.75
3663.338	-50.75
3666.095	-51.75
3668.849	-48.75
3671.602	-57.75
3674.352	-60.75
3677.101	-66.75
3679.847	-66.75
3682.591	-66.75
3685.333	-67.75
3688.073	-69.75
3690.811	-72.75
3693.547	-73.75
3696.281	-72.75
3699.013	-78.75
3701.742	-77.75
3704.47	-75.75
3707.195	-76.75
3709.919	-79.75
3712.64	-76.75
3715.359	-82.75
3718.076	-88.75
3720.792	-87.75
3723.505	-86.75
3726.216	-84.75
3728.925	-87.75
3731.632	-86.75
3734.336	-88.75
3737.039	-88.75
3739.74	-87.75
3742.439	-93.75
3745.136	-94.75
3747.83	-90.75
3750.523	-92.75
3753.213	-90.75
3755.902	-93.75
3758.589	-94.75
3761.273	-98.75
3763.956	-94.75
3766.636	-93.75
3769.315	-97.75
3771.991	-95.75
3774.665	-94.75
3777.338	-94.75
3780.008	-96.75
3782.677	-97.75
3785.343	-97.75
3788.007	-97.75
3790.67	-100.75
3793.33	-102.75
3795.989	-98.75
3798.645	-98.75
3801.299	-96.75
3803.952	-100.75
3806.602	-103.75
3809.251	-101.75
3811.897	-97.75
3814.542	-103.75
3817.184	-100.75
3819.825	-103.75
3822.463	-102.75
3825.1	-100.75
3827.735	-106.75
3830.367	-102.75
3832.998	-108.75
3835.627	-102.75
3838.253	-100.75
3840.878	-102.75
3843.501	-102.75
3846.122	-103.75
3848.741	-105.75
3851.358	-105.75
3853.973	-107.75
3856.586	-103.75
3859.197	-104.75
3861.806	-107.75
3864.414	-107.75
3867.019	-108.75
3869.622	-106.75
3872.224	-102.75
3874.823	-100.75
3877.421	-101.75
3880.016	-97.75
3882.61	-94.75
3885.202	-97.75
3887.792	-98.75
3890.38	-103.75
3892.966	-105.75
3895.55	-108.75
3898.132	-106.75
3900.713	-106.75
3903.291	-106.75
3905.868	-105.75
3908.442	-107.75
3911.015	-108.75
3913.586	-108.75
3916.155	-109.75
3918.722	-111.75
3921.287	-108.75
3923.85	-108.75
3926.411	-111.75
3928.971	-110.75
3931.528	-113.75
3934.084	-111.75
3936.638	-111.75
3939.19	-109.75
3941.74	-106.75
3944.288	-108.75
3946.834	-105.75
3949.378	-108.75
3951.921	-106.75
3954.462	-111.75
3957	-111.75
3959.537	-112.75
3962.072	-111.75
3964.606	-112.75
3967.137	-110.75
3969.667	-104.75
3972.194	-109.75
3974.72	-106.75
3977.244	-108.75
3979.766	-107.75
3982.286	-104.75
3984.805	-105.75
3987.321	-108.75
3989.836	-106.75
3992.349	-111.75
3994.86	-111.75
3997.369	-105.75
3999.877	-108.75
4002.382	-106.75
4004.886	-101.75
4007.388	-104.75
4009.888	-109.75
4012.386	-106.75
4014.883	-110.75
4017.377	-109.75
4019.87	-108.75
4022.361	-108.75
4024.85	-113.75
4027.338	-109.75
4029.823	-106.75
4032.307	-105.75
4034.789	-107.75
4037.269	-106.75
4039.747	-108.75
4042.224	-111.75
4044.699	-114.75
4047.172	-109.75
4049.643	-110.75
4052.112	-111.75
4054.58	-111.75
4057.046	-111.75
4059.51	-110.75
4061.972	-112.75
4064.432	-110.75
4066.891	-108.75
4069.348	-108.75
4071.803	-105.75
4074.256	-105.75
4076.708	-108.75
4079.158	-111.75
4081.606	-111.75
4084.052	-111.75
4086.497	-108.75
4088.939	-111.75
4091.38	-110.75
4093.819	-108.75
4096.257	-115.75
4098.693	-114.75
4101.127	-114.75
4103.559	-115.75
4105.989	-77.75
4108.418	-73.75
4110.845	-68.75
4113.27	-62.75
4115.694	-54.75
4118.115	-48.75
4120.535	-103.75
4122.954	-103.75
4125.37	-109.75
4127.785	-110.75
4130.198	-109.75
4132.609	-111.75
4135.019	-113.75
4137.427	-114.75
4139.833	-112.75
4142.237	-112.75
