Data from 10000CFU2_A_RamanShift_1.txt Node
Date: Mon Jan 23 14:22:22 IST 2017
User: aro
Spectrometer: QEPB0276
Trigger mode: 0
Integration Time (sec): 5.000000E0
Scans to average: 1
Electric dark correction enabled: true
Nonlinearity correction enabled: false
Boxcar width: 0
XAxis mode: Raman Shifts
Number of Pixels in Spectrum: 1044
>>>>>Begin Spectral Data<<<<<
160.701	-28.88
166.742	2.12
172.777	92.12
178.805	381.12
184.826	1071.12
190.841	2185.12
196.849	3444.12
202.85	4286.12
208.845	4498.12
214.833	4342.12
220.815	4210.12
226.789	4057.12
232.758	3940.12
238.719	3857.12
244.674	3700.12
250.623	3557.12
256.565	3400.12
262.5	3231.12
268.429	3084.12
274.351	2975.12
280.267	2877.12
286.176	2786.12
292.079	2693.12
297.975	2632.12
303.865	2532.12
309.748	2470.12
315.625	2407.12
321.495	2360.12
327.359	2323.12
333.217	2297.12
339.068	2268.12
344.912	2262.12
350.751	2248.12
356.583	2249.12
362.408	2233.12
368.227	2261.12
374.04	2238.12
379.847	2264.12
385.647	2277.12
391.44	2290.12
397.228	2289.12
403.009	2302.12
408.784	2311.12
414.553	2334.12
420.315	2325.12
426.071	2303.12
431.821	2315.12
437.565	2328.12
443.302	2318.12
449.033	2318.12
454.758	2318.12
460.477	2299.12
466.189	2297.12
471.896	2278.12
477.596	2259.12
483.29	2275.12
488.978	2264.12
494.66	2239.12
500.335	2200.12
506.005	2204.12
511.668	2161.12
517.325	2126.12
522.977	2081.12
528.622	2066.12
534.261	2055.12
539.894	2035.12
545.521	2014.12
551.141	2002.12
556.756	1992.12
562.365	1975.12
567.968	1972.12
573.565	1976.12
579.155	1958.12
584.74	1956.12
590.319	1942.12
595.892	1925.12
601.459	1923.12
607.02	1901.12
612.575	1906.12
618.124	1873.12
623.667	1860.12
629.204	1838.12
634.735	1841.12
640.261	1811.12
645.781	1818.12
651.294	1799.12
656.802	1788.12
662.304	1799.12
667.8	1784.12
673.29	1770.12
678.775	1771.12
684.254	1767.12
689.726	1760.12
695.193	1760.12
700.655	1742.12
706.11	1743.12
711.56	1731.12
717.004	1718.12
722.442	1717.12
727.874	1702.12
733.301	1717.12
738.722	1682.12
744.137	1683.12
749.547	1665.12
754.951	1696.12
760.349	1678.12
765.741	1679.12
771.128	1679.12
776.509	1664.12
781.885	1657.12
787.254	1664.12
792.618	1659.12
797.977	1648.12
803.33	1642.12
808.677	1636.12
814.019	1615.12
819.355	1618.12
824.686	1576.12
830.011	1589.12
835.33	1576.12
840.644	1567.12
845.952	1568.12
851.255	1568.12
856.552	1551.12
861.844	1556.12
867.13	1544.12
872.41	1542.12
877.686	1524.12
882.955	1504.12
888.219	1504.12
893.478	1472.12
898.731	1463.12
903.979	1455.12
909.221	1424.12
914.458	1427.12
919.69	1403.12
924.916	1415.12
930.136	1390.12
935.351	1406.12
940.561	1423.12
945.766	1395.12
950.965	1408.12
956.158	1379.12
961.347	1371.12
966.529	1346.12
971.707	1333.12
976.879	1323.12
982.046	1310.12
987.208	1309.12
992.364	1326.12
997.515	1316.12
1002.66	1316.12
1007.801	1331.12
1012.936	1355.12
1018.066	1345.12
1023.19	1361.12
1028.309	1360.12
1033.423	1362.12
1038.532	1371.12
1043.636	1337.12
1048.734	1352.12
1053.827	1317.12
1058.915	1314.12
1063.998	1305.12
1069.075	1309.12
1074.147	1297.12
1079.214	1308.12
1084.276	1333.12
1089.333	1347.12
1094.385	1358.12
1099.431	1351.12
1104.472	1357.12
1109.509	1352.12
1114.54	1351.12
1119.565	1318.12
1124.586	1307.12
1129.602	1301.12
1134.613	1290.12
1139.618	1275.12
1144.619	1278.12
1149.614	1290.12
1154.604	1315.12
1159.589	1304.12
1164.57	1300.12
1169.545	1315.12
1174.515	1316.12
1179.48	1319.12
1184.44	1298.12
1189.395	1291.12
1194.345	1290.12
1199.29	1281.12
1204.23	1282.12
1209.165	1310.12
1214.095	1288.12
1219.021	1310.12
1223.941	1326.12
1228.856	1332.12
1233.766	1339.12
1238.672	1341.12
1243.572	1340.12
1248.467	1337.12
1253.358	1309.12
1258.244	1298.12
1263.124	1268.12
1268	1267.12
1272.871	1243.12
1277.737	1230.12
1282.599	1241.12
1287.455	1248.12
1292.306	1256.12
1297.153	1268.12
1301.995	1261.12
1306.832	1285.12
1311.664	1281.12
1316.491	1281.12
1321.314	1282.12
1326.132	1263.12
1330.945	1260.12
1335.753	1269.12
1340.556	1254.12
1345.354	1238.12
1350.148	1229.12
1354.937	1212.12
1359.722	1218.12
1364.501	1198.12
1369.276	1197.12
1374.046	1165.12
1378.811	1174.12
1383.572	1144.12
1388.327	1157.12
1393.079	1154.12
1397.825	1139.12
1402.567	1150.12
1407.304	1132.12
1412.036	1129.12
1416.764	1138.12
1421.487	1151.12
1426.205	1137.12
1430.919	1150.12
1435.628	1152.12
1440.333	1162.12
1445.032	1172.12
1449.727	1206.12
1454.418	1195.12
1459.104	1204.12
1463.785	1204.12
1468.462	1182.12
1473.134	1168.12
1477.802	1179.12
1482.465	1157.12
1487.123	1157.12
1491.777	1154.12
1496.426	1160.12
1501.071	1174.12
1505.711	1162.12
1510.347	1190.12
1514.978	1187.12
1519.604	1206.12
1524.226	1210.12
1528.844	1215.12
1533.457	1201.12
1538.065	1199.12
1542.669	1198.12
1547.269	1203.12
1551.864	1198.12
1556.454	1199.12
1561.041	1214.12
1565.622	1219.12
1570.199	1229.12
1574.772	1246.12
1579.34	1268.12
1583.904	1282.12
1588.464	1322.12
1593.019	1336.12
1597.569	1349.12
1602.115	1340.12
1606.657	1353.12
1611.195	1357.12
1615.728	1370.12
1620.256	1382.12
1624.78	1405.12
1629.3	1422.12
1633.816	1443.12
1638.327	1463.12
1642.834	1482.12
1647.336	1492.12
1651.834	1489.12
1656.328	1487.12
1660.817	1478.12
1665.302	1469.12
1669.783	1440.12
1674.259	1405.12
1678.732	1373.12
1683.199	1329.12
1687.663	1298.12
1692.122	1254.12
1696.577	1218.12
1701.028	1156.12
1705.474	1118.12
1709.917	1085.12
1714.355	1071.12
1718.788	1051.12
1723.218	1039.12
1727.643	1028.12
1732.064	1009.12
1736.481	982.12
1740.893	961.12
1745.301	949.12
1749.705	927.12
1754.105	904.12
1758.501	890.12
1762.893	882.12
1767.28	876.12
1771.663	861.12
1776.042	864.12
1780.417	877.12
1784.787	864.12
1789.154	858.12
1793.516	865.12
1797.874	863.12
1802.228	852.12
1806.578	832.12
1810.924	828.12
1815.266	816.12
1819.603	805.12
1823.937	800.12
1828.266	787.12
1832.591	789.12
1836.913	781.12
1841.23	780.12
1845.543	783.12
1849.852	773.12
1854.156	785.12
1858.457	802.12
1862.754	789.12
1867.047	803.12
1871.335	807.12
1875.62	794.12
1879.9	811.12
1884.177	791.12
1888.449	806.12
1892.718	799.12
1896.982	800.12
1901.243	792.12
1905.499	792.12
1909.752	799.12
1914	800.12
1918.245	787.12
1922.485	785.12
1926.722	809.12
1930.954	807.12
1935.183	809.12
1939.408	807.12
1943.628	797.12
1947.845	805.12
1952.058	800.12
1956.267	790.12
1960.472	776.12
1964.673	773.12
1968.87	762.12
1973.063	752.12
1977.252	761.12
1981.438	763.12
1985.619	739.12
1989.797	737.12
1993.971	743.12
1998.14	754.12
2002.306	754.12
2006.469	750.12
2010.627	760.12
2014.781	766.12
2018.932	750.12
2023.078	756.12
2027.221	773.12
2031.36	748.12
2035.495	743.12
2039.627	729.12
2043.754	727.12
2047.878	741.12
2051.998	729.12
2056.114	730.12
2060.226	736.12
2064.334	739.12
2068.439	744.12
2072.54	743.12
2076.637	771.12
2080.73	772.12
2084.82	743.12
2088.906	763.12
2092.988	755.12
2097.066	743.12
2101.14	741.12
2105.211	737.12
2109.278	731.12
2113.342	741.12
2117.401	722.12
2121.457	726.12
2125.509	719.12
2129.558	718.12
2133.602	705.12
2137.643	709.12
2141.681	716.12
2145.714	712.12
2149.744	704.12
2153.77	707.12
2157.793	688.12
2161.812	690.12
2165.827	678.12
2169.838	662.12
2173.846	666.12
2177.851	659.12
2181.851	642.12
2185.848	641.12
2189.841	625.12
2193.831	628.12
2197.817	623.12
2201.799	619.12
2205.778	620.12
2209.753	623.12
2213.725	626.12
2217.693	619.12
2221.657	629.12
2225.618	611.12
2229.575	618.12
2233.529	619.12
2237.479	614.12
2241.425	613.12
2245.368	601.12
2249.307	580.12
2253.243	588.12
2257.175	565.12
2261.104	553.12
2265.029	556.12
2268.95	561.12
2272.868	544.12
2276.783	540.12
2280.694	535.12
2284.601	525.12
2288.505	512.12
2292.405	516.12
2296.302	515.12
2300.195	513.12
2304.085	497.12
2307.971	490.12
2311.854	479.12
2315.734	467.12
2319.609	469.12
2323.482	460.12
2327.351	451.12
2331.216	447.12
2335.078	449.12
2338.937	449.12
2342.792	444.12
2346.643	432.12
2350.492	436.12
2354.336	441.12
2358.178	445.12
2362.015	442.12
2365.85	441.12
2369.681	443.12
2373.508	448.12
2377.333	454.12
2381.153	437.12
2384.971	430.12
2388.785	436.12
2392.595	446.12
2396.402	423.12
2400.206	422.12
2404.007	430.12
2407.804	429.12
2411.597	428.12
2415.388	425.12
2419.174	431.12
2422.958	421.12
2426.738	429.12
2430.515	423.12
2434.289	418.12
2438.059	412.12
2441.825	415.12
2445.589	412.12
2449.349	413.12
2453.106	412.12
2456.859	404.12
2460.61	397.12
2464.356	408.12
2468.1	400.12
2471.84	400.12
2475.577	395.12
2479.311	394.12
2483.041	387.12
2486.768	399.12
2490.492	393.12
2494.213	387.12
2497.93	388.12
2501.644	382.12
2505.355	394.12
2509.062	395.12
2512.766	394.12
2516.467	388.12
2520.165	387.12
2523.859	375.12
2527.551	382.12
2531.239	377.12
2534.923	368.12
2538.605	372.12
2542.283	377.12
2545.958	366.12
2549.63	367.12
2553.299	368.12
2556.964	369.12
2560.626	358.12
2564.285	359.12
2567.941	360.12
2571.594	346.12
2575.243	358.12
2578.89	349.12
2582.533	349.12
2586.173	346.12
2589.809	340.12
2593.443	333.12
2597.073	336.12
2600.701	331.12
2604.325	331.12
2607.946	333.12
2611.564	333.12
2615.178	331.12
2618.79	333.12
2622.398	327.12
2626.004	324.12
2629.606	320.12
2633.205	321.12
2636.801	308.12
2640.394	309.12
2643.983	307.12
2647.57	304.12
2651.153	296.12
2654.734	301.12
2658.311	293.12
2661.885	295.12
2665.456	299.12
2669.025	304.12
2672.589	293.12
2676.151	289.12
2679.71	278.12
2683.266	280.12
2686.819	280.12
2690.368	277.12
2693.915	276.12
2697.458	272.12
2700.999	267.12
2704.536	259.12
2708.071	268.12
2711.602	271.12
2715.13	254.12
2718.656	261.12
2722.178	260.12
2725.697	265.12
2729.214	260.12
2732.727	270.12
2736.237	257.12
2739.744	271.12
2743.249	267.12
2746.75	263.12
2750.248	262.12
2753.743	271.12
2757.236	259.12
2760.725	263.12
2764.211	254.12
2767.695	256.12
2771.175	239.12
2774.652	240.12
2778.127	251.12
2781.598	242.12
2785.067	240.12
2788.532	237.12
2791.995	252.12
2795.455	244.12
2798.911	251.12
2802.365	245.12
2805.816	243.12
2809.264	251.12
2812.709	247.12
2816.151	254.12
2819.59	249.12
2823.026	244.12
2826.46	249.12
2829.89	243.12
2833.318	244.12
2836.742	251.12
2840.164	254.12
2843.583	263.12
2846.999	259.12
2850.412	261.12
2853.822	259.12
2857.229	253.12
2860.634	264.12
2864.035	257.12
2867.434	273.12
2870.83	265.12
2874.223	275.12
2877.613	275.12
2881	277.12
2884.385	285.12
2887.766	266.12
2891.145	275.12
2894.521	283.12
2897.894	279.12
2901.264	282.12
2904.631	282.12
2907.996	284.12
2911.358	277.12
2914.717	285.12
2918.073	274.12
2921.426	285.12
2924.777	283.12
2928.124	293.12
2931.469	309.12
2934.811	307.12
2938.15	312.12
2941.487	316.12
2944.821	321.12
2948.152	313.12
2951.48	326.12
2954.805	326.12
2958.128	337.12
2961.447	336.12
2964.765	337.12
2968.079	348.12
2971.39	353.12
2974.699	369.12
2978.005	370.12
2981.308	366.12
2984.609	381.12
2987.907	395.12
2991.202	390.12
2994.494	405.12
2997.784	423.12
3001.07	427.12
3004.355	436.12
3007.636	450.12
3010.915	451.12
3014.191	463.12
3017.464	470.12
3020.734	474.12
3024.002	483.12
3027.267	483.12
3030.53	491.12
3033.789	507.12
3037.046	514.12
3040.301	524.12
3043.552	527.12
3046.801	538.12
3050.048	561.12
3053.291	577.12
3056.532	591.12
3059.771	611.12
3063.006	629.12
3066.239	651.12
3069.469	661.12
3072.697	682.12
3075.922	690.12
3079.144	703.12
3082.364	716.12
3085.581	745.12
3088.795	759.12
3092.007	768.12
3095.216	800.12
3098.423	812.12
3101.627	832.12
3104.828	850.12
3108.026	853.12
3111.222	876.12
3114.416	896.12
3117.607	921.12
3120.795	930.12
3123.98	955.12
3127.163	976.12
3130.344	989.12
3133.521	1014.12
3136.696	1042.12
3139.869	1066.12
3143.039	1066.12
3146.206	1112.12
3149.371	1087.12
3152.533	1107.12
3155.693	1114.12
3158.85	1139.12
3162.005	1138.12
3165.157	1142.12
3168.306	1144.12
3171.453	1160.12
3174.597	1145.12
3177.739	1154.12
3180.878	1153.12
3184.014	1158.12
3187.149	1170.12
3190.28	1171.12
3193.409	1161.12
3196.536	1158.12
3199.659	1167.12
3202.781	1169.12
3205.9	1185.12
3209.016	1166.12
3212.13	1180.12
3215.241	1170.12
3218.35	1164.12
3221.456	1149.12
3224.56	1144.12
3227.661	1120.12
3230.76	1098.12
3233.856	1108.12
3236.95	1095.12
3240.041	1084.12
3243.13	1073.12
3246.216	1080.12
3249.3	1063.12
3252.382	1058.12
3255.46	1044.12
3258.537	1047.12
3261.611	1049.12
3264.682	1031.12
3267.751	1034.12
3270.818	1044.12
3273.882	1018.12
3276.943	1026.12
3280.002	1013.12
3283.059	992.12
3286.113	986.12
3289.165	986.12
3292.214	957.12
3295.261	945.12
3298.306	937.12
3301.348	920.12
3304.387	896.12
3307.425	888.12
3310.459	877.12
3313.492	864.12
3316.521	854.12
3319.549	843.12
3322.574	840.12
3325.597	831.12
3328.617	819.12
3331.635	828.12
3334.65	817.12
3337.663	807.12
3340.674	815.12
3343.682	810.12
3346.688	794.12
3349.691	798.12
3352.692	792.12
3355.691	790.12
3358.687	799.12
3361.681	779.12
3364.673	772.12
3367.662	754.12
3370.649	745.12
3373.633	729.12
3376.615	727.12
3379.595	717.12
3382.572	714.12
3385.547	690.12
3388.52	696.12
3391.49	692.12
3394.458	667.12
3397.424	658.12
3400.387	636.12
3403.348	637.12
3406.307	641.12
3409.263	631.12
3412.217	624.12
3415.168	622.12
3418.118	608.12
3421.065	617.12
3424.009	600.12
3426.951	601.12
3429.891	580.12
3432.829	567.12
3435.764	557.12
3438.697	551.12
3441.628	531.12
3444.557	524.12
3447.483	503.12
3450.407	486.12
3453.328	477.12
3456.247	470.12
3459.164	454.12
3462.079	442.12
3464.991	412.12
3467.902	413.12
3470.809	383.12
3473.715	386.12
3476.618	376.12
3479.519	359.12
3482.418	351.12
3485.315	335.12
3488.209	332.12
3491.101	320.12
3493.99	317.12
3496.878	305.12
3499.763	293.12
3502.646	289.12
3505.527	279.12
3508.405	275.12
3511.281	249.12
3514.155	245.12
3517.027	231.12
3519.897	220.12
3522.764	210.12
3525.629	206.12
3528.492	186.12
3531.352	178.12
3534.211	167.12
3537.067	159.12
3539.921	146.12
3542.773	146.12
3545.622	132.12
3548.469	126.12
3551.315	119.12
3554.157	106.12
3556.998	101.12
3559.837	94.12
3562.673	86.12
3565.507	80.12
3568.339	77.12
3571.169	65.12
3573.996	66.12
3576.822	63.12
3579.645	52.12
3582.466	48.12
3585.285	43.12
3588.101	35.12
3590.916	32.12
3593.728	32.12
3596.538	29.12
3599.346	26.12
3602.152	17.12
3604.956	10.12
3607.757	5.12
3610.556	-0.88
3613.354	-4.88
3616.149	-6.88
3618.942	-16.88
3621.732	-10.88
3624.521	-13.88
3627.307	-14.88
3630.092	-20.88
3632.874	-20.88
3635.654	-23.88
3638.432	-26.88
3641.208	-28.88
3643.982	-28.88
3646.753	-31.88
3649.523	-38.88
3652.29	-43.88
3655.055	-44.88
3657.818	-47.88
3660.579	-51.88
3663.338	-50.88
3666.095	-52.88
3668.849	-50.88
3671.602	-55.88
3674.352	-55.88
3677.101	-61.88
3679.847	-61.88
3682.591	-67.88
3685.333	-64.88
3688.073	-65.88
3690.811	-68.88
3693.547	-69.88
3696.281	-73.88
3699.013	-72.88
3701.742	-77.88
3704.47	-73.88
3707.195	-77.88
3709.919	-72.88
3712.64	-79.88
3715.359	-78.88
3718.076	-81.88
3720.792	-83.88
3723.505	-81.88
3726.216	-82.88
3728.925	-87.88
3731.632	-88.88
3734.336	-87.88
3737.039	-87.88
3739.74	-85.88
3742.439	-88.88
3745.136	-87.88
3747.83	-87.88
3750.523	-89.88
3753.213	-85.88
3755.902	-91.88
3758.589	-92.88
3761.273	-92.88
3763.956	-90.88
3766.636	-95.88
3769.315	-95.88
3771.991	-95.88
3774.665	-88.88
3777.338	-91.88
3780.008	-94.88
3782.677	-95.88
3785.343	-93.88
3788.007	-94.88
3790.67	-100.88
3793.33	-96.88
3795.989	-94.88
3798.645	-94.88
3801.299	-98.88
3803.952	-101.88
3806.602	-99.88
3809.251	-100.88
3811.897	-95.88
3814.542	-98.88
3817.184	-96.88
3819.825	-99.88
3822.463	-98.88
3825.1	-101.88
3827.735	-102.88
3830.367	-99.88
3832.998	-103.88
3835.627	-101.88
3838.253	-101.88
3840.878	-102.88
3843.501	-100.88
3846.122	-103.88
3848.741	-106.88
3851.358	-101.88
3853.973	-100.88
3856.586	-100.88
3859.197	-97.88
3861.806	-103.88
3864.414	-103.88
3867.019	-107.88
3869.622	-105.88
3872.224	-104.88
3874.823	-100.88
3877.421	-102.88
3880.016	-94.88
3882.61	-95.88
3885.202	-94.88
3887.792	-97.88
3890.38	-98.88
3892.966	-100.88
3895.55	-100.88
3898.132	-104.88
3900.713	-104.88
3903.291	-108.88
3905.868	-104.88
3908.442	-110.88
3911.015	-110.88
3913.586	-110.88
3916.155	-108.88
3918.722	-107.88
3921.287	-105.88
3923.85	-104.88
3926.411	-106.88
3928.971	-106.88
3931.528	-111.88
3934.084	-106.88
3936.638	-108.88
3939.19	-112.88
3941.74	-109.88
3944.288	-109.88
3946.834	-108.88
3949.378	-109.88
3951.921	-107.88
3954.462	-108.88
3957	-106.88
3959.537	-107.88
3962.072	-108.88
3964.606	-106.88
3967.137	-106.88
3969.667	-102.88
3972.194	-107.88
3974.72	-105.88
3977.244	-110.88
3979.766	-108.88
3982.286	-106.88
3984.805	-102.88
3987.321	-102.88
3989.836	-102.88
3992.349	-105.88
3994.86	-107.88
3997.369	-105.88
3999.877	-106.88
4002.382	-103.88
4004.886	-102.88
4007.388	-105.88
4009.888	-106.88
4012.386	-103.88
4014.883	-109.88
4017.377	-110.88
4019.87	-104.88
4022.361	-103.88
4024.85	-103.88
4027.338	-104.88
4029.823	-105.88
4032.307	-103.88
4034.789	-107.88
4037.269	-107.88
4039.747	-108.88
4042.224	-111.88
4044.699	-107.88
4047.172	-107.88
4049.643	-106.88
4052.112	-107.88
4054.58	-108.88
4057.046	-104.88
4059.51	-107.88
4061.972	-108.88
4064.432	-109.88
4066.891	-109.88
4069.348	-103.88
4071.803	-108.88
4074.256	-101.88
4076.708	-105.88
4079.158	-106.88
4081.606	-106.88
4084.052	-110.88
4086.497	-103.88
4088.939	-106.88
4091.38	-107.88
4093.819	-109.88
4096.257	-112.88
4098.693	-109.88
4101.127	-114.88
4103.559	-111.88
4105.989	-76.88
4108.418	-69.88
4110.845	-66.88
4113.27	-62.88
4115.694	-55.88
4118.115	-48.88
4120.535	-103.88
4122.954	-102.88
4125.37	-108.88
4127.785	-108.88
4130.198	-107.88
4132.609	-107.88
4135.019	-113.88
4137.427	-112.88
4139.833	-110.88
4142.237	-108.88
