Data from 1000000CFU3_B_RamanShift_1.txt Node
Date: Mon Jan 23 14:42:42 IST 2017
User: aro
Spectrometer: QEPB0276
Trigger mode: 0
Integration Time (sec): 5.000000E0
Scans to average: 1
Electric dark correction enabled: true
Nonlinearity correction enabled: false
Boxcar width: 0
XAxis mode: Raman Shifts
Number of Pixels in Spectrum: 1044
>>>>>Begin Spectral Data<<<<<
160.701	-36.88
166.742	0.12
172.777	91.12
178.805	411.12
184.826	1115.12
190.841	2342.12
196.849	3668.12
202.85	4504.12
208.845	4757.12
214.833	4556.12
220.815	4425.12
226.789	4296.12
232.758	4174.12
238.719	4053.12
244.674	3920.12
250.623	3718.12
256.565	3572.12
262.5	3406.12
268.429	3272.12
274.351	3130.12
280.267	3020.12
286.176	2897.12
292.079	2818.12
297.975	2741.12
303.865	2634.12
309.748	2583.12
315.625	2516.12
321.495	2448.12
327.359	2419.12
333.217	2406.12
339.068	2373.12
344.912	2371.12
350.751	2365.12
356.583	2357.12
362.408	2357.12
368.227	2355.12
374.04	2347.12
379.847	2359.12
385.647	2381.12
391.44	2373.12
397.228	2389.12
403.009	2415.12
408.784	2407.12
414.553	2436.12
420.315	2447.12
426.071	2438.12
431.821	2456.12
437.565	2443.12
443.302	2431.12
449.033	2423.12
454.758	2406.12
460.477	2415.12
466.189	2394.12
471.896	2393.12
477.596	2382.12
483.29	2370.12
488.978	2366.12
494.66	2337.12
500.335	2328.12
506.005	2307.12
511.668	2257.12
517.325	2228.12
522.977	2192.12
528.622	2163.12
534.261	2148.12
539.894	2107.12
545.521	2122.12
551.141	2113.12
556.756	2096.12
562.365	2079.12
567.968	2066.12
573.565	2061.12
579.155	2039.12
584.74	2032.12
590.319	2010.12
595.892	2017.12
601.459	2006.12
607.02	1974.12
612.575	1985.12
618.124	1933.12
623.667	1923.12
629.204	1896.12
634.735	1912.12
640.261	1895.12
645.781	1885.12
651.294	1870.12
656.802	1852.12
662.304	1856.12
667.8	1843.12
673.29	1843.12
678.775	1841.12
684.254	1829.12
689.726	1832.12
695.193	1812.12
700.655	1792.12
706.11	1796.12
711.56	1777.12
717.004	1776.12
722.442	1749.12
727.874	1751.12
733.301	1733.12
738.722	1736.12
744.137	1723.12
749.547	1737.12
754.951	1727.12
760.349	1720.12
765.741	1718.12
771.128	1731.12
776.509	1725.12
781.885	1716.12
787.254	1692.12
792.618	1706.12
797.977	1705.12
803.33	1661.12
808.677	1666.12
814.019	1645.12
819.355	1641.12
824.686	1626.12
830.011	1627.12
835.33	1604.12
840.644	1595.12
845.952	1586.12
851.255	1592.12
856.552	1582.12
861.844	1581.12
867.13	1575.12
872.41	1556.12
877.686	1573.12
882.955	1540.12
888.219	1533.12
893.478	1500.12
898.731	1468.12
903.979	1449.12
909.221	1427.12
914.458	1418.12
919.69	1420.12
924.916	1418.12
930.136	1412.12
935.351	1419.12
940.561	1419.12
945.766	1406.12
950.965	1387.12
956.158	1371.12
961.347	1373.12
966.529	1347.12
971.707	1325.12
976.879	1314.12
982.046	1305.12
987.208	1296.12
992.364	1306.12
997.515	1305.12
1002.66	1326.12
1007.801	1326.12
1012.936	1327.12
1018.066	1357.12
1023.19	1362.12
1028.309	1369.12
1033.423	1358.12
1038.532	1361.12
1043.636	1341.12
1048.734	1325.12
1053.827	1307.12
1058.915	1293.12
1063.998	1282.12
1069.075	1281.12
1074.147	1285.12
1079.214	1294.12
1084.276	1305.12
1089.333	1327.12
1094.385	1314.12
1099.431	1328.12
1104.472	1341.12
1109.509	1331.12
1114.54	1297.12
1119.565	1302.12
1124.586	1270.12
1129.602	1258.12
1134.613	1261.12
1139.618	1252.12
1144.619	1242.12
1149.614	1258.12
1154.604	1275.12
1159.589	1263.12
1164.57	1278.12
1169.545	1272.12
1174.515	1277.12
1179.48	1273.12
1184.44	1259.12
1189.395	1253.12
1194.345	1247.12
1199.29	1255.12
1204.23	1247.12
1209.165	1249.12
1214.095	1264.12
1219.021	1277.12
1223.941	1282.12
1228.856	1296.12
1233.766	1301.12
1238.672	1290.12
1243.572	1297.12
1248.467	1288.12
1253.358	1279.12
1258.244	1243.12
1263.124	1235.12
1268	1230.12
1272.871	1206.12
1277.737	1205.12
1282.599	1194.12
1287.455	1195.12
1292.306	1209.12
1297.153	1222.12
1301.995	1215.12
1306.832	1228.12
1311.664	1224.12
1316.491	1236.12
1321.314	1221.12
1326.132	1241.12
1330.945	1212.12
1335.753	1201.12
1340.556	1192.12
1345.354	1181.12
1350.148	1176.12
1354.937	1163.12
1359.722	1169.12
1364.501	1145.12
1369.276	1120.12
1374.046	1108.12
1378.811	1115.12
1383.572	1113.12
1388.327	1114.12
1393.079	1118.12
1397.825	1087.12
1402.567	1087.12
1407.304	1083.12
1412.036	1084.12
1416.764	1087.12
1421.487	1076.12
1426.205	1078.12
1430.919	1087.12
1435.628	1104.12
1440.333	1114.12
1445.032	1130.12
1449.727	1139.12
1454.418	1135.12
1459.104	1140.12
1463.785	1129.12
1468.462	1128.12
1473.134	1118.12
1477.802	1115.12
1482.465	1092.12
1487.123	1104.12
1491.777	1106.12
1496.426	1100.12
1501.071	1111.12
1505.711	1109.12
1510.347	1136.12
1514.978	1139.12
1519.604	1159.12
1524.226	1159.12
1528.844	1143.12
1533.457	1150.12
1538.065	1145.12
1542.669	1140.12
1547.269	1138.12
1551.864	1133.12
1556.454	1152.12
1561.041	1145.12
1565.622	1165.12
1570.199	1175.12
1574.772	1203.12
1579.34	1218.12
1583.904	1236.12
1588.464	1245.12
1593.019	1274.12
1597.569	1283.12
1602.115	1303.12
1606.657	1309.12
1611.195	1314.12
1615.728	1326.12
1620.256	1336.12
1624.78	1359.12
1629.3	1386.12
1633.816	1399.12
1638.327	1416.12
1642.834	1429.12
1647.336	1455.12
1651.834	1436.12
1656.328	1459.12
1660.817	1434.12
1665.302	1423.12
1669.783	1387.12
1674.259	1355.12
1678.732	1317.12
1683.199	1276.12
1687.663	1243.12
1692.122	1212.12
1696.577	1153.12
1701.028	1107.12
1705.474	1061.12
1709.917	1014.12
1714.355	1008.12
1718.788	1001.12
1723.218	969.12
1727.643	967.12
1732.064	944.12
1736.481	918.12
1740.893	897.12
1745.301	855.12
1749.705	855.12
1754.105	834.12
1758.501	823.12
1762.893	812.12
1767.28	789.12
1771.663	793.12
1776.042	791.12
1780.417	798.12
1784.787	784.12
1789.154	791.12
1793.516	801.12
1797.874	780.12
1802.228	766.12
1806.578	759.12
1810.924	746.12
1815.266	732.12
1819.603	732.12
1823.937	713.12
1828.266	701.12
1832.591	704.12
1836.913	716.12
1841.23	713.12
1845.543	720.12
1849.852	695.12
1854.156	702.12
1858.457	700.12
1862.754	711.12
1867.047	723.12
1871.335	707.12
1875.62	728.12
1879.9	727.12
1884.177	732.12
1888.449	719.12
1892.718	721.12
1896.982	728.12
1901.243	713.12
1905.499	704.12
1909.752	715.12
1914	712.12
1918.245	712.12
1922.485	717.12
1926.722	704.12
1930.954	728.12
1935.183	730.12
1939.408	718.12
1943.628	728.12
1947.845	722.12
1952.058	728.12
1956.267	706.12
1960.472	709.12
1964.673	708.12
1968.87	686.12
1973.063	665.12
1977.252	677.12
1981.438	674.12
1985.619	674.12
1989.797	668.12
1993.971	664.12
1998.14	677.12
2002.306	670.12
2006.469	681.12
2010.627	677.12
2014.781	682.12
2018.932	695.12
2023.078	689.12
2027.221	685.12
2031.36	678.12
2035.495	671.12
2039.627	656.12
2043.754	667.12
2047.878	665.12
2051.998	664.12
2056.114	657.12
2060.226	664.12
2064.334	661.12
2068.439	672.12
2072.54	664.12
2076.637	680.12
2080.73	677.12
2084.82	680.12
2088.906	686.12
2092.988	685.12
2097.066	684.12
2101.14	671.12
2105.211	678.12
2109.278	669.12
2113.342	670.12
2117.401	662.12
2121.457	656.12
2125.509	660.12
2129.558	646.12
2133.602	642.12
2137.643	637.12
2141.681	641.12
2145.714	638.12
2149.744	634.12
2153.77	633.12
2157.793	625.12
2161.812	620.12
2165.827	612.12
2169.838	604.12
2173.846	596.12
2177.851	597.12
2181.851	572.12
2185.848	568.12
2189.841	564.12
2193.831	573.12
2197.817	558.12
2201.799	559.12
2205.778	558.12
2209.753	548.12
2213.725	563.12
2217.693	566.12
2221.657	544.12
2225.618	545.12
2229.575	545.12
2233.529	541.12
2237.479	534.12
2241.425	534.12
2245.368	524.12
2249.307	513.12
2253.243	516.12
2257.175	494.12
2261.104	496.12
2265.029	492.12
2268.95	480.12
2272.868	485.12
2276.783	461.12
2280.694	461.12
2284.601	451.12
2288.505	445.12
2292.405	439.12
2296.302	440.12
2300.195	428.12
2304.085	426.12
2307.971	425.12
2311.854	416.12
2315.734	409.12
2319.609	398.12
2323.482	400.12
2327.351	386.12
2331.216	386.12
2335.078	380.12
2338.937	374.12
2342.792	381.12
2346.643	370.12
2350.492	374.12
2354.336	372.12
2358.178	381.12
2362.015	385.12
2365.85	382.12
2369.681	388.12
2373.508	372.12
2377.333	378.12
2381.153	381.12
2384.971	378.12
2388.785	368.12
2392.595	383.12
2396.402	369.12
2400.206	366.12
2404.007	356.12
2407.804	366.12
2411.597	374.12
2415.388	367.12
2419.174	366.12
2422.958	362.12
2426.738	356.12
2430.515	355.12
2434.289	347.12
2438.059	355.12
2441.825	351.12
2445.589	344.12
2449.349	348.12
2453.106	343.12
2456.859	345.12
2460.61	339.12
2464.356	329.12
2468.1	331.12
2471.84	337.12
2475.577	335.12
2479.311	323.12
2483.041	314.12
2486.768	327.12
2490.492	332.12
2494.213	325.12
2497.93	327.12
2501.644	326.12
2505.355	317.12
2509.062	324.12
2512.766	325.12
2516.467	316.12
2520.165	323.12
2523.859	320.12
2527.551	310.12
2531.239	313.12
2534.923	301.12
2538.605	302.12
2542.283	302.12
2545.958	303.12
2549.63	299.12
2553.299	295.12
2556.964	299.12
2560.626	298.12
2564.285	296.12
2567.941	294.12
2571.594	291.12
2575.243	279.12
2578.89	287.12
2582.533	282.12
2586.173	281.12
2589.809	282.12
2593.443	281.12
2597.073	274.12
2600.701	271.12
2604.325	266.12
2607.946	280.12
2611.564	271.12
2615.178	264.12
2618.79	278.12
2622.398	269.12
2626.004	266.12
2629.606	260.12
2633.205	257.12
2636.801	251.12
2640.394	252.12
2643.983	252.12
2647.57	237.12
2651.153	246.12
2654.734	246.12
2658.311	236.12
2661.885	235.12
2665.456	238.12
2669.025	232.12
2672.589	232.12
2676.151	241.12
2679.71	227.12
2683.266	227.12
2686.819	224.12
2690.368	219.12
2693.915	224.12
2697.458	224.12
2700.999	214.12
2704.536	216.12
2708.071	212.12
2711.602	208.12
2715.13	206.12
2718.656	209.12
2722.178	215.12
2725.697	217.12
2729.214	214.12
2732.727	217.12
2736.237	209.12
2739.744	207.12
2743.249	212.12
2746.75	217.12
2750.248	210.12
2753.743	217.12
2757.236	210.12
2760.725	205.12
2764.211	210.12
2767.695	205.12
2771.175	202.12
2774.652	198.12
2778.127	199.12
2781.598	191.12
2785.067	195.12
2788.532	196.12
2791.995	200.12
2795.455	196.12
2798.911	195.12
2802.365	199.12
2805.816	211.12
2809.264	209.12
2812.709	211.12
2816.151	208.12
2819.59	205.12
2823.026	206.12
2826.46	210.12
2829.89	213.12
2833.318	211.12
2836.742	209.12
2840.164	211.12
2843.583	208.12
2846.999	218.12
2850.412	214.12
2853.822	229.12
2857.229	223.12
2860.634	223.12
2864.035	232.12
2867.434	234.12
2870.83	237.12
2874.223	236.12
2877.613	233.12
2881	235.12
2884.385	240.12
2887.766	227.12
2891.145	232.12
2894.521	238.12
2897.894	245.12
2901.264	246.12
2904.631	250.12
2907.996	252.12
2911.358	259.12
2914.717	249.12
2918.073	245.12
2921.426	259.12
2924.777	253.12
2928.124	267.12
2931.469	273.12
2934.811	280.12
2938.15	285.12
2941.487	294.12
2944.821	295.12
2948.152	292.12
2951.48	299.12
2954.805	304.12
2958.128	306.12
2961.447	316.12
2964.765	324.12
2968.079	326.12
2971.39	331.12
2974.699	344.12
2978.005	344.12
2981.308	357.12
2984.609	370.12
2987.907	370.12
2991.202	389.12
2994.494	396.12
2997.784	408.12
3001.07	427.12
3004.355	424.12
3007.636	432.12
3010.915	449.12
3014.191	451.12
3017.464	462.12
3020.734	460.12
3024.002	482.12
3027.267	485.12
3030.53	498.12
3033.789	505.12
3037.046	503.12
3040.301	526.12
3043.552	543.12
3046.801	557.12
3050.048	564.12
3053.291	574.12
3056.532	615.12
3059.771	617.12
3063.006	629.12
3066.239	655.12
3069.469	684.12
3072.697	711.12
3075.922	712.12
3079.144	734.12
3082.364	748.12
3085.581	768.12
3088.795	775.12
3092.007	813.12
3095.216	808.12
3098.423	833.12
3101.627	859.12
3104.828	874.12
3108.026	876.12
3111.222	892.12
3114.416	922.12
3117.607	963.12
3120.795	968.12
3123.98	999.12
3127.163	1033.12
3130.344	1050.12
3133.521	1076.12
3136.696	1087.12
3139.869	1102.12
3143.039	1124.12
3146.206	1141.12
3149.371	1144.12
3152.533	1176.12
3155.693	1177.12
3158.85	1184.12
3162.005	1190.12
3165.157	1196.12
3168.306	1197.12
3171.453	1201.12
3174.597	1223.12
3177.739	1214.12
3180.878	1213.12
3184.014	1218.12
3187.149	1207.12
3190.28	1227.12
3193.409	1231.12
3196.536	1228.12
3199.659	1231.12
3202.781	1244.12
3205.9	1252.12
3209.016	1252.12
3212.13	1232.12
3215.241	1241.12
3218.35	1213.12
3221.456	1213.12
3224.56	1219.12
3227.661	1189.12
3230.76	1194.12
3233.856	1170.12
3236.95	1163.12
3240.041	1159.12
3243.13	1135.12
3246.216	1122.12
3249.3	1111.12
3252.382	1126.12
3255.46	1119.12
3258.537	1097.12
3261.611	1102.12
3264.682	1092.12
3267.751	1092.12
3270.818	1101.12
3273.882	1080.12
3276.943	1078.12
3280.002	1068.12
3283.059	1065.12
3286.113	1041.12
3289.165	1035.12
3292.214	1008.12
3295.261	997.12
3298.306	975.12
3301.348	969.12
3304.387	947.12
3307.425	943.12
3310.459	924.12
3313.492	914.12
3316.521	910.12
3319.549	902.12
3322.574	878.12
3325.597	867.12
3328.617	867.12
3331.635	863.12
3334.65	866.12
3337.663	866.12
3340.674	849.12
3343.682	849.12
3346.688	852.12
3349.691	847.12
3352.692	835.12
3355.691	843.12
3358.687	829.12
3361.681	823.12
3364.673	811.12
3367.662	795.12
3370.649	779.12
3373.633	776.12
3376.615	768.12
3379.595	757.12
3382.572	742.12
3385.547	730.12
3388.52	722.12
3391.49	723.12
3394.458	707.12
3397.424	698.12
3400.387	682.12
3403.348	691.12
3406.307	684.12
3409.263	679.12
3412.217	654.12
3415.168	662.12
3418.118	630.12
3421.065	638.12
3424.009	632.12
3426.951	618.12
3429.891	616.12
3432.829	600.12
3435.764	583.12
3438.697	578.12
3441.628	564.12
3444.557	549.12
3447.483	532.12
3450.407	518.12
3453.328	503.12
3456.247	478.12
3459.164	474.12
3462.079	464.12
3464.991	446.12
3467.902	427.12
3470.809	412.12
3473.715	407.12
3476.618	392.12
3479.519	380.12
3482.418	361.12
3485.315	359.12
3488.209	352.12
3491.101	339.12
3493.99	329.12
3496.878	317.12
3499.763	308.12
3502.646	305.12
3505.527	288.12
3508.405	284.12
3511.281	270.12
3514.155	253.12
3517.027	236.12
3519.897	233.12
3522.764	217.12
3525.629	209.12
3528.492	200.12
3531.352	181.12
3534.211	175.12
3537.067	159.12
3539.921	161.12
3542.773	141.12
3545.622	138.12
3548.469	131.12
3551.315	119.12
3554.157	121.12
3556.998	95.12
3559.837	98.12
3562.673	85.12
3565.507	80.12
3568.339	77.12
3571.169	72.12
3573.996	71.12
3576.822	67.12
3579.645	59.12
3582.466	53.12
3585.285	46.12
3588.101	40.12
3590.916	36.12
3593.728	30.12
3596.538	20.12
3599.346	19.12
3602.152	14.12
3604.956	9.12
3607.757	7.12
3610.556	3.12
3613.354	-6.88
3616.149	-1.88
3618.942	-8.88
3621.732	-10.88
3624.521	-17.88
3627.307	-13.88
3630.092	-22.88
3632.874	-26.88
3635.654	-31.88
3638.432	-30.88
3641.208	-31.88
3643.982	-38.88
3646.753	-37.88
3649.523	-37.88
3652.29	-44.88
3655.055	-45.88
3657.818	-51.88
3660.579	-48.88
3663.338	-55.88
3666.095	-59.88
3668.849	-57.88
3671.602	-60.88
3674.352	-61.88
3677.101	-66.88
3679.847	-67.88
3682.591	-69.88
3685.333	-70.88
3688.073	-72.88
3690.811	-74.88
3693.547	-73.88
3696.281	-81.88
3699.013	-75.88
3701.742	-83.88
3704.47	-84.88
3707.195	-84.88
3709.919	-84.88
3712.64	-83.88
3715.359	-86.88
3718.076	-88.88
3720.792	-89.88
3723.505	-87.88
3726.216	-86.88
3728.925	-88.88
3731.632	-92.88
3734.336	-92.88
3737.039	-90.88
3739.74	-94.88
3742.439	-101.88
3745.136	-100.88
3747.83	-102.88
3750.523	-96.88
3753.213	-92.88
3755.902	-98.88
3758.589	-98.88
3761.273	-98.88
3763.956	-98.88
3766.636	-97.88
3769.315	-99.88
3771.991	-100.88
3774.665	-99.88
3777.338	-102.88
3780.008	-100.88
3782.677	-101.88
3785.343	-101.88
3788.007	-104.88
3790.67	-103.88
3793.33	-107.88
3795.989	-100.88
3798.645	-100.88
3801.299	-103.88
3803.952	-104.88
3806.602	-105.88
3809.251	-106.88
3811.897	-104.88
3814.542	-107.88
3817.184	-106.88
3819.825	-110.88
3822.463	-108.88
3825.1	-109.88
3827.735	-112.88
3830.367	-108.88
3832.998	-111.88
3835.627	-107.88
3838.253	-103.88
3840.878	-106.88
3843.501	-106.88
3846.122	-109.88
3848.741	-110.88
3851.358	-107.88
3853.973	-110.88
3856.586	-107.88
3859.197	-107.88
3861.806	-111.88
3864.414	-111.88
3867.019	-112.88
3869.622	-111.88
3872.224	-111.88
3874.823	-105.88
3877.421	-106.88
3880.016	-100.88
3882.61	-100.88
3885.202	-103.88
3887.792	-107.88
3890.38	-107.88
3892.966	-108.88
3895.55	-109.88
3898.132	-111.88
3900.713	-110.88
3903.291	-109.88
3905.868	-111.88
3908.442	-111.88
3911.015	-111.88
3913.586	-111.88
3916.155	-111.88
3918.722	-114.88
3921.287	-109.88
3923.85	-113.88
3926.411	-114.88
3928.971	-116.88
3931.528	-114.88
3934.084	-113.88
3936.638	-113.88
3939.19	-115.88
3941.74	-113.88
3944.288	-114.88
3946.834	-113.88
3949.378	-113.88
3951.921	-111.88
3954.462	-117.88
3957	-115.88
3959.537	-115.88
3962.072	-117.88
3964.606	-117.88
3967.137	-113.88
3969.667	-110.88
3972.194	-110.88
3974.72	-110.88
3977.244	-112.88
3979.766	-112.88
3982.286	-111.88
3984.805	-107.88
3987.321	-110.88
3989.836	-111.88
3992.349	-116.88
3994.86	-116.88
3997.369	-114.88
3999.877	-113.88
4002.382	-110.88
4004.886	-109.88
4007.388	-109.88
4009.888	-112.88
4012.386	-109.88
4014.883	-112.88
4017.377	-113.88
4019.87	-110.88
4022.361	-110.88
4024.85	-114.88
4027.338	-114.88
4029.823	-113.88
4032.307	-111.88
4034.789	-113.88
4037.269	-112.88
4039.747	-111.88
4042.224	-112.88
4044.699	-113.88
4047.172	-111.88
4049.643	-112.88
4052.112	-112.88
4054.58	-112.88
4057.046	-111.88
4059.51	-117.88
4061.972	-116.88
4064.432	-116.88
4066.891	-116.88
4069.348	-114.88
4071.803	-111.88
4074.256	-111.88
4076.708	-103.88
4079.158	-111.88
4081.606	-114.88
4084.052	-116.88
4086.497	-115.88
4088.939	-113.88
4091.38	-115.88
4093.819	-114.88
4096.257	-119.88
4098.693	-115.88
4101.127	-117.88
4103.559	-117.88
4105.989	-76.88
4108.418	-72.88
4110.845	-74.88
4113.27	-68.88
4115.694	-56.88
4118.115	-50.88
4120.535	-113.88
4122.954	-111.88
4125.37	-115.88
4127.785	-114.88
4130.198	-113.88
4132.609	-114.88
4135.019	-116.88
4137.427	-117.88
4139.833	-114.88
4142.237	-115.88
