Data from 10000CFU1_B_RamanShift_1.txt Node
Date: Mon Jan 23 14:24:37 IST 2017
User: aro
Spectrometer: QEPB0276
Trigger mode: 0
Integration Time (sec): 5.000000E0
Scans to average: 1
Electric dark correction enabled: true
Nonlinearity correction enabled: false
Boxcar width: 0
XAxis mode: Raman Shifts
Number of Pixels in Spectrum: 1044
>>>>>Begin Spectral Data<<<<<
160.701	-25.62
166.742	-4.62
172.777	92.38
178.805	374.38
184.826	1040.38
190.841	2142.38
196.849	3370.38
202.85	4186.38
208.845	4350.38
214.833	4231.38
220.815	4088.38
226.789	3988.38
232.758	3843.38
238.719	3724.38
244.674	3584.38
250.623	3427.38
256.565	3280.38
262.5	3120.38
268.429	2986.38
274.351	2863.38
280.267	2746.38
286.176	2658.38
292.079	2572.38
297.975	2474.38
303.865	2396.38
309.748	2319.38
315.625	2277.38
321.495	2227.38
327.359	2176.38
333.217	2171.38
339.068	2148.38
344.912	2143.38
350.751	2145.38
356.583	2111.38
362.408	2124.38
368.227	2121.38
374.04	2110.38
379.847	2128.38
385.647	2135.38
391.44	2167.38
397.228	2152.38
403.009	2180.38
408.784	2179.38
414.553	2176.38
420.315	2200.38
426.071	2183.38
431.821	2202.38
437.565	2196.38
443.302	2188.38
449.033	2182.38
454.758	2163.38
460.477	2181.38
466.189	2156.38
471.896	2147.38
477.596	2141.38
483.29	2126.38
488.978	2134.38
494.66	2112.38
500.335	2095.38
506.005	2072.38
511.668	2025.38
517.325	1990.38
522.977	1939.38
528.622	1942.38
534.261	1912.38
539.894	1889.38
545.521	1884.38
551.141	1875.38
556.756	1875.38
562.365	1864.38
567.968	1841.38
573.565	1847.38
579.155	1835.38
584.74	1821.38
590.319	1810.38
595.892	1787.38
601.459	1799.38
607.02	1748.38
612.575	1752.38
618.124	1724.38
623.667	1714.38
629.204	1701.38
634.735	1707.38
640.261	1673.38
645.781	1676.38
651.294	1652.38
656.802	1650.38
662.304	1663.38
667.8	1645.38
673.29	1651.38
678.775	1642.38
684.254	1621.38
689.726	1616.38
695.193	1620.38
700.655	1610.38
706.11	1606.38
711.56	1578.38
717.004	1576.38
722.442	1553.38
727.874	1560.38
733.301	1553.38
738.722	1552.38
744.137	1537.38
749.547	1550.38
754.951	1530.38
760.349	1520.38
765.741	1526.38
771.128	1529.38
776.509	1532.38
781.885	1520.38
787.254	1525.38
792.618	1515.38
797.977	1508.38
803.33	1498.38
808.677	1483.38
814.019	1463.38
819.355	1458.38
824.686	1440.38
830.011	1437.38
835.33	1428.38
840.644	1421.38
845.952	1422.38
851.255	1411.38
856.552	1413.38
861.844	1405.38
867.13	1410.38
872.41	1386.38
877.686	1389.38
882.955	1380.38
888.219	1350.38
893.478	1332.38
898.731	1307.38
903.979	1294.38
909.221	1270.38
914.458	1260.38
919.69	1254.38
924.916	1256.38
930.136	1250.38
935.351	1267.38
940.561	1252.38
945.766	1238.38
950.965	1252.38
956.158	1231.38
961.347	1222.38
966.529	1195.38
971.707	1179.38
976.879	1164.38
982.046	1151.38
987.208	1165.38
992.364	1165.38
997.515	1167.38
1002.66	1159.38
1007.801	1175.38
1012.936	1182.38
1018.066	1188.38
1023.19	1190.38
1028.309	1199.38
1033.423	1198.38
1038.532	1217.38
1043.636	1187.38
1048.734	1174.38
1053.827	1171.38
1058.915	1159.38
1063.998	1156.38
1069.075	1150.38
1074.147	1163.38
1079.214	1146.38
1084.276	1169.38
1089.333	1175.38
1094.385	1169.38
1099.431	1193.38
1104.472	1202.38
1109.509	1184.38
1114.54	1163.38
1119.565	1177.38
1124.586	1136.38
1129.602	1136.38
1134.613	1127.38
1139.618	1128.38
1144.619	1121.38
1149.614	1118.38
1154.604	1133.38
1159.589	1151.38
1164.57	1155.38
1169.545	1150.38
1174.515	1147.38
1179.48	1147.38
1184.44	1156.38
1189.395	1136.38
1194.345	1121.38
1199.29	1123.38
1204.23	1137.38
1209.165	1135.38
1214.095	1133.38
1219.021	1145.38
1223.941	1159.38
1228.856	1173.38
1233.766	1171.38
1238.672	1177.38
1243.572	1173.38
1248.467	1159.38
1253.358	1137.38
1258.244	1126.38
1263.124	1111.38
1268	1095.38
1272.871	1088.38
1277.737	1085.38
1282.599	1073.38
1287.455	1097.38
1292.306	1077.38
1297.153	1102.38
1301.995	1096.38
1306.832	1120.38
1311.664	1119.38
1316.491	1124.38
1321.314	1111.38
1326.132	1105.38
1330.945	1104.38
1335.753	1085.38
1340.556	1069.38
1345.354	1078.38
1350.148	1077.38
1354.937	1049.38
1359.722	1038.38
1364.501	1041.38
1369.276	1039.38
1374.046	1024.38
1378.811	1005.38
1383.572	994.38
1388.327	997.38
1393.079	994.38
1397.825	989.38
1402.567	1004.38
1407.304	984.38
1412.036	983.38
1416.764	976.38
1421.487	987.38
1426.205	981.38
1430.919	982.38
1435.628	1011.38
1440.333	1008.38
1445.032	1030.38
1449.727	1042.38
1454.418	1044.38
1459.104	1049.38
1463.785	1034.38
1468.462	1030.38
1473.134	1016.38
1477.802	1010.38
1482.465	1018.38
1487.123	1004.38
1491.777	999.38
1496.426	1000.38
1501.071	1018.38
1505.711	1020.38
1510.347	1018.38
1514.978	1032.38
1519.604	1055.38
1524.226	1060.38
1528.844	1048.38
1533.457	1030.38
1538.065	1035.38
1542.669	1046.38
1547.269	1049.38
1551.864	1046.38
1556.454	1042.38
1561.041	1048.38
1565.622	1064.38
1570.199	1065.38
1574.772	1093.38
1579.34	1104.38
1583.904	1147.38
1588.464	1160.38
1593.019	1166.38
1597.569	1182.38
1602.115	1214.38
1606.657	1206.38
1611.195	1223.38
1615.728	1232.38
1620.256	1241.38
1624.78	1253.38
1629.3	1262.38
1633.816	1287.38
1638.327	1298.38
1642.834	1319.38
1647.336	1329.38
1651.834	1335.38
1656.328	1344.38
1660.817	1315.38
1665.302	1309.38
1669.783	1276.38
1674.259	1256.38
1678.732	1221.38
1683.199	1185.38
1687.663	1144.38
1692.122	1119.38
1696.577	1068.38
1701.028	1023.38
1705.474	977.38
1709.917	956.38
1714.355	929.38
1718.788	916.38
1723.218	905.38
1727.643	878.38
1732.064	875.38
1736.481	851.38
1740.893	832.38
1745.301	802.38
1749.705	796.38
1754.105	765.38
1758.501	756.38
1762.893	736.38
1767.28	725.38
1771.663	729.38
1776.042	722.38
1780.417	733.38
1784.787	727.38
1789.154	718.38
1793.516	728.38
1797.874	718.38
1802.228	707.38
1806.578	699.38
1810.924	683.38
1815.266	677.38
1819.603	666.38
1823.937	656.38
1828.266	640.38
1832.591	647.38
1836.913	649.38
1841.23	650.38
1845.543	651.38
1849.852	651.38
1854.156	651.38
1858.457	648.38
1862.754	660.38
1867.047	660.38
1871.335	664.38
1875.62	661.38
1879.9	670.38
1884.177	664.38
1888.449	673.38
1892.718	649.38
1896.982	655.38
1901.243	663.38
1905.499	661.38
1909.752	670.38
1914	666.38
1918.245	656.38
1922.485	655.38
1926.722	669.38
1930.954	668.38
1935.183	671.38
1939.408	670.38
1943.628	668.38
1947.845	667.38
1952.058	668.38
1956.267	655.38
1960.472	650.38
1964.673	651.38
1968.87	634.38
1973.063	634.38
1977.252	622.38
1981.438	627.38
1985.619	622.38
1989.797	612.38
1993.971	623.38
1998.14	630.38
2002.306	630.38
2006.469	642.38
2010.627	636.38
2014.781	639.38
2018.932	645.38
2023.078	626.38
2027.221	639.38
2031.36	623.38
2035.495	627.38
2039.627	610.38
2043.754	613.38
2047.878	617.38
2051.998	613.38
2056.114	619.38
2060.226	625.38
2064.334	613.38
2068.439	629.38
2072.54	632.38
2076.637	644.38
2080.73	639.38
2084.82	650.38
2088.906	649.38
2092.988	631.38
2097.066	636.38
2101.14	632.38
2105.211	625.38
2109.278	630.38
2113.342	627.38
2117.401	616.38
2121.457	619.38
2125.509	612.38
2129.558	609.38
2133.602	606.38
2137.643	591.38
2141.681	605.38
2145.714	604.38
2149.744	584.38
2153.77	584.38
2157.793	590.38
2161.812	579.38
2165.827	564.38
2169.838	562.38
2173.846	547.38
2177.851	549.38
2181.851	543.38
2185.848	540.38
2189.841	532.38
2193.831	531.38
2197.817	526.38
2201.799	518.38
2205.778	515.38
2209.753	512.38
2213.725	518.38
2217.693	527.38
2221.657	515.38
2225.618	510.38
2229.575	513.38
2233.529	513.38
2237.479	505.38
2241.425	509.38
2245.368	504.38
2249.307	489.38
2253.243	475.38
2257.175	467.38
2261.104	464.38
2265.029	466.38
2268.95	450.38
2272.868	448.38
2276.783	444.38
2280.694	437.38
2284.601	427.38
2288.505	424.38
2292.405	423.38
2296.302	416.38
2300.195	411.38
2304.085	410.38
2307.971	400.38
2311.854	393.38
2315.734	390.38
2319.609	379.38
2323.482	375.38
2327.351	361.38
2331.216	368.38
2335.078	364.38
2338.937	366.38
2342.792	362.38
2346.643	350.38
2350.492	362.38
2354.336	360.38
2358.178	359.38
2362.015	355.38
2365.85	357.38
2369.681	358.38
2373.508	360.38
2377.333	361.38
2381.153	356.38
2384.971	354.38
2388.785	366.38
2392.595	360.38
2396.402	356.38
2400.206	351.38
2404.007	360.38
2407.804	349.38
2411.597	350.38
2415.388	351.38
2419.174	340.38
2422.958	339.38
2426.738	349.38
2430.515	345.38
2434.289	339.38
2438.059	341.38
2441.825	338.38
2445.589	332.38
2449.349	333.38
2453.106	337.38
2456.859	332.38
2460.61	324.38
2464.356	321.38
2468.1	319.38
2471.84	325.38
2475.577	320.38
2479.311	314.38
2483.041	320.38
2486.768	327.38
2490.492	313.38
2494.213	320.38
2497.93	315.38
2501.644	317.38
2505.355	312.38
2509.062	313.38
2512.766	319.38
2516.467	311.38
2520.165	302.38
2523.859	317.38
2527.551	297.38
2531.239	307.38
2534.923	299.38
2538.605	302.38
2542.283	295.38
2545.958	301.38
2549.63	295.38
2553.299	293.38
2556.964	293.38
2560.626	288.38
2564.285	289.38
2567.941	283.38
2571.594	278.38
2575.243	286.38
2578.89	279.38
2582.533	279.38
2586.173	282.38
2589.809	269.38
2593.443	269.38
2597.073	273.38
2600.701	267.38
2604.325	274.38
2607.946	267.38
2611.564	262.38
2615.178	260.38
2618.79	261.38
2622.398	259.38
2626.004	259.38
2629.606	263.38
2633.205	258.38
2636.801	250.38
2640.394	255.38
2643.983	248.38
2647.57	255.38
2651.153	235.38
2654.734	238.38
2658.311	241.38
2661.885	232.38
2665.456	238.38
2669.025	225.38
2672.589	236.38
2676.151	226.38
2679.71	228.38
2683.266	224.38
2686.819	220.38
2690.368	219.38
2693.915	216.38
2697.458	215.38
2700.999	208.38
2704.536	208.38
2708.071	208.38
2711.602	203.38
2715.13	206.38
2718.656	206.38
2722.178	213.38
2725.697	210.38
2729.214	214.38
2732.727	211.38
2736.237	209.38
2739.744	206.38
2743.249	216.38
2746.75	219.38
2750.248	210.38
2753.743	205.38
2757.236	205.38
2760.725	207.38
2764.211	198.38
2767.695	199.38
2771.175	201.38
2774.652	196.38
2778.127	194.38
2781.598	197.38
2785.067	188.38
2788.532	196.38
2791.995	195.38
2795.455	192.38
2798.911	207.38
2802.365	196.38
2805.816	204.38
2809.264	208.38
2812.709	203.38
2816.151	207.38
2819.59	203.38
2823.026	202.38
2826.46	205.38
2829.89	210.38
2833.318	206.38
2836.742	205.38
2840.164	210.38
2843.583	207.38
2846.999	216.38
2850.412	224.38
2853.822	220.38
2857.229	214.38
2860.634	216.38
2864.035	222.38
2867.434	229.38
2870.83	226.38
2874.223	231.38
2877.613	225.38
2881	235.38
2884.385	232.38
2887.766	238.38
2891.145	236.38
2894.521	246.38
2897.894	236.38
2901.264	236.38
2904.631	251.38
2907.996	246.38
2911.358	248.38
2914.717	251.38
2918.073	240.38
2921.426	259.38
2924.777	249.38
2928.124	260.38
2931.469	262.38
2934.811	274.38
2938.15	272.38
2941.487	286.38
2944.821	292.38
2948.152	289.38
2951.48	294.38
2954.805	300.38
2958.128	301.38
2961.447	304.38
2964.765	309.38
2968.079	317.38
2971.39	319.38
2974.699	334.38
2978.005	326.38
2981.308	342.38
2984.609	346.38
2987.907	364.38
2991.202	369.38
2994.494	375.38
2997.784	389.38
3001.07	399.38
3004.355	401.38
3007.636	408.38
3010.915	424.38
3014.191	429.38
3017.464	441.38
3020.734	449.38
3024.002	453.38
3027.267	449.38
3030.53	465.38
3033.789	479.38
3037.046	483.38
3040.301	488.38
3043.552	505.38
3046.801	522.38
3050.048	528.38
3053.291	552.38
3056.532	560.38
3059.771	588.38
3063.006	602.38
3066.239	615.38
3069.469	638.38
3072.697	657.38
3075.922	661.38
3079.144	689.38
3082.364	703.38
3085.581	717.38
3088.795	735.38
3092.007	751.38
3095.216	763.38
3098.423	787.38
3101.627	797.38
3104.828	827.38
3108.026	832.38
3111.222	860.38
3114.416	869.38
3117.607	891.38
3120.795	907.38
3123.98	933.38
3127.163	965.38
3130.344	965.38
3133.521	998.38
3136.696	1025.38
3139.869	1048.38
3143.039	1052.38
3146.206	1082.38
3149.371	1085.38
3152.533	1090.38
3155.693	1099.38
3158.85	1113.38
3162.005	1117.38
3165.157	1121.38
3168.306	1116.38
3171.453	1117.38
3174.597	1128.38
3177.739	1136.38
3180.878	1137.38
3184.014	1143.38
3187.149	1143.38
3190.28	1144.38
3193.409	1158.38
3196.536	1153.38
3199.659	1154.38
3202.781	1159.38
3205.9	1159.38
3209.016	1152.38
3212.13	1155.38
3215.241	1152.38
3218.35	1147.38
3221.456	1134.38
3224.56	1131.38
3227.661	1111.38
3230.76	1106.38
3233.856	1096.38
3236.95	1093.38
3240.041	1072.38
3243.13	1060.38
3246.216	1055.38
3249.3	1053.38
3252.382	1054.38
3255.46	1031.38
3258.537	1039.38
3261.611	1030.38
3264.682	1030.38
3267.751	1020.38
3270.818	1024.38
3273.882	1024.38
3276.943	1006.38
3280.002	998.38
3283.059	983.38
3286.113	973.38
3289.165	956.38
3292.214	953.38
3295.261	930.38
3298.306	921.38
3301.348	904.38
3304.387	892.38
3307.425	879.38
3310.459	877.38
3313.492	852.38
3316.521	850.38
3319.549	832.38
3322.574	832.38
3325.597	834.38
3328.617	825.38
3331.635	811.38
3334.65	813.38
3337.663	804.38
3340.674	807.38
3343.682	799.38
3346.688	802.38
3349.691	793.38
3352.692	771.38
3355.691	780.38
3358.687	776.38
3361.681	766.38
3364.673	757.38
3367.662	753.38
3370.649	739.38
3373.633	724.38
3376.615	725.38
3379.595	707.38
3382.572	701.38
3385.547	690.38
3388.52	680.38
3391.49	673.38
3394.458	662.38
3397.424	650.38
3400.387	637.38
3403.348	634.38
3406.307	632.38
3409.263	627.38
3412.217	619.38
3415.168	610.38
3418.118	609.38
3421.065	596.38
3424.009	586.38
3426.951	579.38
3429.891	573.38
3432.829	566.38
3435.764	557.38
3438.697	547.38
3441.628	524.38
3444.557	513.38
3447.483	489.38
3450.407	496.38
3453.328	468.38
3456.247	456.38
3459.164	445.38
3462.079	434.38
3464.991	415.38
3467.902	406.38
3470.809	390.38
3473.715	382.38
3476.618	375.38
3479.519	357.38
3482.418	348.38
3485.315	342.38
3488.209	325.38
3491.101	320.38
3493.99	309.38
3496.878	296.38
3499.763	287.38
3502.646	284.38
3505.527	273.38
3508.405	262.38
3511.281	255.38
3514.155	241.38
3517.027	235.38
3519.897	216.38
3522.764	215.38
3525.629	196.38
3528.492	191.38
3531.352	174.38
3534.211	162.38
3537.067	155.38
3539.921	144.38
3542.773	138.38
3545.622	133.38
3548.469	127.38
3551.315	119.38
3554.157	114.38
3556.998	97.38
3559.837	90.38
3562.673	80.38
3565.507	82.38
3568.339	68.38
3571.169	71.38
3573.996	62.38
3576.822	59.38
3579.645	53.38
3582.466	50.38
3585.285	45.38
3588.101	37.38
3590.916	33.38
3593.728	33.38
3596.538	23.38
3599.346	17.38
3602.152	18.38
3604.956	13.38
3607.757	7.38
3610.556	5.38
3613.354	-5.62
3616.149	-1.62
3618.942	-10.62
3621.732	-14.62
3624.521	-12.62
3627.307	-14.62
3630.092	-16.62
3632.874	-22.62
3635.654	-21.62
3638.432	-28.62
3641.208	-22.62
3643.982	-29.62
3646.753	-31.62
3649.523	-36.62
3652.29	-38.62
3655.055	-42.62
3657.818	-48.62
3660.579	-44.62
3663.338	-50.62
3666.095	-47.62
3668.849	-48.62
3671.602	-56.62
3674.352	-53.62
3677.101	-60.62
3679.847	-62.62
3682.591	-62.62
3685.333	-66.62
3688.073	-69.62
3690.811	-67.62
3693.547	-72.62
3696.281	-73.62
3699.013	-72.62
3701.742	-66.62
3704.47	-73.62
3707.195	-73.62
3709.919	-72.62
3712.64	-73.62
3715.359	-77.62
3718.076	-79.62
3720.792	-85.62
3723.505	-80.62
3726.216	-82.62
3728.925	-81.62
3731.632	-85.62
3734.336	-81.62
3737.039	-82.62
3739.74	-83.62
3742.439	-84.62
3745.136	-88.62
3747.83	-84.62
3750.523	-84.62
3753.213	-89.62
3755.902	-89.62
3758.589	-89.62
3761.273	-91.62
3763.956	-88.62
3766.636	-90.62
3769.315	-93.62
3771.991	-88.62
3774.665	-90.62
3777.338	-87.62
3780.008	-92.62
3782.677	-94.62
3785.343	-95.62
3788.007	-94.62
3790.67	-98.62
3793.33	-97.62
3795.989	-93.62
3798.645	-89.62
3801.299	-93.62
3803.952	-94.62
3806.602	-98.62
3809.251	-96.62
3811.897	-93.62
3814.542	-95.62
3817.184	-91.62
3819.825	-98.62
3822.463	-96.62
3825.1	-97.62
3827.735	-102.62
3830.367	-98.62
3832.998	-105.62
3835.627	-98.62
3838.253	-97.62
3840.878	-96.62
3843.501	-94.62
3846.122	-98.62
3848.741	-104.62
3851.358	-97.62
3853.973	-99.62
3856.586	-98.62
3859.197	-96.62
3861.806	-103.62
3864.414	-103.62
3867.019	-102.62
3869.622	-99.62
3872.224	-100.62
3874.823	-97.62
3877.421	-90.62
3880.016	-89.62
3882.61	-87.62
3885.202	-92.62
3887.792	-95.62
3890.38	-99.62
3892.966	-100.62
3895.55	-104.62
3898.132	-101.62
3900.713	-103.62
3903.291	-102.62
3905.868	-97.62
3908.442	-101.62
3911.015	-103.62
3913.586	-103.62
3916.155	-106.62
3918.722	-104.62
3921.287	-103.62
3923.85	-100.62
3926.411	-106.62
3928.971	-104.62
3931.528	-107.62
3934.084	-104.62
3936.638	-102.62
3939.19	-108.62
3941.74	-101.62
3944.288	-103.62
3946.834	-101.62
3949.378	-105.62
3951.921	-106.62
3954.462	-106.62
3957	-105.62
3959.537	-107.62
3962.072	-104.62
3964.606	-108.62
3967.137	-105.62
3969.667	-97.62
3972.194	-103.62
3974.72	-102.62
3977.244	-103.62
3979.766	-101.62
3982.286	-102.62
3984.805	-98.62
3987.321	-100.62
3989.836	-104.62
3992.349	-107.62
3994.86	-102.62
3997.369	-104.62
3999.877	-102.62
4002.382	-101.62
4004.886	-98.62
4007.388	-97.62
4009.888	-102.62
4012.386	-97.62
4014.883	-103.62
4017.377	-107.62
4019.87	-102.62
4022.361	-102.62
4024.85	-107.62
4027.338	-100.62
4029.823	-99.62
4032.307	-103.62
4034.789	-98.62
4037.269	-101.62
4039.747	-104.62
4042.224	-106.62
4044.699	-104.62
4047.172	-103.62
4049.643	-103.62
4052.112	-106.62
4054.58	-102.62
4057.046	-102.62
4059.51	-103.62
4061.972	-107.62
4064.432	-107.62
4066.891	-102.62
4069.348	-101.62
4071.803	-102.62
4074.256	-100.62
4076.708	-100.62
4079.158	-103.62
4081.606	-107.62
4084.052	-108.62
4086.497	-104.62
4088.939	-105.62
4091.38	-103.62
4093.819	-104.62
4096.257	-107.62
4098.693	-103.62
4101.127	-107.62
4103.559	-107.62
4105.989	-69.62
4108.418	-68.62
4110.845	-63.62
4113.27	-62.62
4115.694	-58.62
4118.115	-47.62
4120.535	-100.62
4122.954	-100.62
4125.37	-103.62
4127.785	-104.62
4130.198	-105.62
4132.609	-104.62
4135.019	-109.62
4137.427	-110.62
4139.833	-108.62
4142.237	-107.62
