Data from 10000CFU3_A_RamanShift_1.txt Node
Date: Mon Jan 23 14:23:17 IST 2017
User: aro
Spectrometer: QEPB0276
Trigger mode: 0
Integration Time (sec): 5.000000E0
Scans to average: 1
Electric dark correction enabled: true
Nonlinearity correction enabled: false
Boxcar width: 0
XAxis mode: Raman Shifts
Number of Pixels in Spectrum: 1044
>>>>>Begin Spectral Data<<<<<
160.701	-31.75
166.742	0.25
172.777	95.25
178.805	381.25
184.826	1070.25
190.841	2222.25
196.849	3487.25
202.85	4320.25
208.845	4528.25
214.833	4385.25
220.815	4206.25
226.789	4077.25
232.758	3970.25
238.719	3836.25
244.674	3702.25
250.623	3565.25
256.565	3401.25
262.5	3202.25
268.429	3064.25
274.351	2929.25
280.267	2826.25
286.176	2734.25
292.079	2621.25
297.975	2523.25
303.865	2462.25
309.748	2400.25
315.625	2340.25
321.495	2276.25
327.359	2247.25
333.217	2215.25
339.068	2202.25
344.912	2170.25
350.751	2179.25
356.583	2174.25
362.408	2159.25
368.227	2160.25
374.04	2160.25
379.847	2177.25
385.647	2181.25
391.44	2205.25
397.228	2207.25
403.009	2233.25
408.784	2224.25
414.553	2237.25
420.315	2254.25
426.071	2228.25
431.821	2243.25
437.565	2244.25
443.302	2235.25
449.033	2231.25
454.758	2219.25
460.477	2210.25
466.189	2206.25
471.896	2200.25
477.596	2198.25
483.29	2171.25
488.978	2174.25
494.66	2150.25
500.335	2133.25
506.005	2110.25
511.668	2046.25
517.325	2018.25
522.977	1990.25
528.622	1979.25
534.261	1942.25
539.894	1936.25
545.521	1910.25
551.141	1934.25
556.756	1897.25
562.365	1889.25
567.968	1868.25
573.565	1871.25
579.155	1848.25
584.74	1835.25
590.319	1830.25
595.892	1826.25
601.459	1825.25
607.02	1782.25
612.575	1784.25
618.124	1744.25
623.667	1755.25
629.204	1727.25
634.735	1708.25
640.261	1710.25
645.781	1696.25
651.294	1679.25
656.802	1687.25
662.304	1674.25
667.8	1653.25
673.29	1655.25
678.775	1658.25
684.254	1657.25
689.726	1642.25
695.193	1628.25
700.655	1611.25
706.11	1626.25
711.56	1619.25
717.004	1592.25
722.442	1573.25
727.874	1573.25
733.301	1559.25
738.722	1567.25
744.137	1544.25
749.547	1555.25
754.951	1550.25
760.349	1534.25
765.741	1547.25
771.128	1528.25
776.509	1547.25
781.885	1532.25
787.254	1525.25
792.618	1524.25
797.977	1514.25
803.33	1509.25
808.677	1486.25
814.019	1468.25
819.355	1460.25
824.686	1448.25
830.011	1441.25
835.33	1429.25
840.644	1411.25
845.952	1433.25
851.255	1412.25
856.552	1416.25
861.844	1412.25
867.13	1398.25
872.41	1387.25
877.686	1365.25
882.955	1363.25
888.219	1336.25
893.478	1317.25
898.731	1289.25
903.979	1261.25
909.221	1265.25
914.458	1247.25
919.69	1252.25
924.916	1251.25
930.136	1256.25
935.351	1248.25
940.561	1238.25
945.766	1245.25
950.965	1221.25
956.158	1207.25
961.347	1231.25
966.529	1182.25
971.707	1155.25
976.879	1158.25
982.046	1146.25
987.208	1142.25
992.364	1157.25
997.515	1148.25
1002.66	1147.25
1007.801	1149.25
1012.936	1170.25
1018.066	1170.25
1023.19	1181.25
1028.309	1193.25
1033.423	1183.25
1038.532	1179.25
1043.636	1174.25
1048.734	1158.25
1053.827	1143.25
1058.915	1141.25
1063.998	1132.25
1069.075	1125.25
1074.147	1126.25
1079.214	1133.25
1084.276	1149.25
1089.333	1164.25
1094.385	1182.25
1099.431	1184.25
1104.472	1172.25
1109.509	1167.25
1114.54	1153.25
1119.565	1130.25
1124.586	1118.25
1129.602	1107.25
1134.613	1106.25
1139.618	1108.25
1144.619	1094.25
1149.614	1104.25
1154.604	1114.25
1159.589	1116.25
1164.57	1110.25
1169.545	1114.25
1174.515	1124.25
1179.48	1126.25
1184.44	1115.25
1189.395	1107.25
1194.345	1112.25
1199.29	1101.25
1204.23	1098.25
1209.165	1117.25
1214.095	1103.25
1219.021	1107.25
1223.941	1123.25
1228.856	1126.25
1233.766	1123.25
1238.672	1147.25
1243.572	1130.25
1248.467	1142.25
1253.358	1121.25
1258.244	1098.25
1263.124	1095.25
1268	1075.25
1272.871	1062.25
1277.737	1057.25
1282.599	1052.25
1287.455	1065.25
1292.306	1070.25
1297.153	1072.25
1301.995	1085.25
1306.832	1093.25
1311.664	1091.25
1316.491	1084.25
1321.314	1101.25
1326.132	1086.25
1330.945	1076.25
1335.753	1057.25
1340.556	1050.25
1345.354	1040.25
1350.148	1037.25
1354.937	1033.25
1359.722	1011.25
1364.501	997.25
1369.276	991.25
1374.046	986.25
1378.811	980.25
1383.572	980.25
1388.327	968.25
1393.079	967.25
1397.825	958.25
1402.567	962.25
1407.304	947.25
1412.036	955.25
1416.764	961.25
1421.487	933.25
1426.205	954.25
1430.919	957.25
1435.628	971.25
1440.333	978.25
1445.032	999.25
1449.727	1006.25
1454.418	1018.25
1459.104	1002.25
1463.785	1001.25
1468.462	1009.25
1473.134	990.25
1477.802	976.25
1482.465	970.25
1487.123	977.25
1491.777	964.25
1496.426	974.25
1501.071	987.25
1505.711	997.25
1510.347	998.25
1514.978	1013.25
1519.604	1020.25
1524.226	1017.25
1528.844	1023.25
1533.457	1017.25
1538.065	1013.25
1542.669	1003.25
1547.269	1027.25
1551.864	996.25
1556.454	1021.25
1561.041	1025.25
1565.622	1042.25
1570.199	1059.25
1574.772	1070.25
1579.34	1099.25
1583.904	1115.25
1588.464	1123.25
1593.019	1145.25
1597.569	1170.25
1602.115	1169.25
1606.657	1190.25
1611.195	1186.25
1615.728	1217.25
1620.256	1227.25
1624.78	1245.25
1629.3	1242.25
1633.816	1276.25
1638.327	1294.25
1642.834	1301.25
1647.336	1336.25
1651.834	1330.25
1656.328	1337.25
1660.817	1317.25
1665.302	1310.25
1669.783	1258.25
1674.259	1241.25
1678.732	1208.25
1683.199	1157.25
1687.663	1128.25
1692.122	1082.25
1696.577	1038.25
1701.028	990.25
1705.474	946.25
1709.917	929.25
1714.355	904.25
1718.788	885.25
1723.218	872.25
1727.643	856.25
1732.064	848.25
1736.481	817.25
1740.893	788.25
1745.301	779.25
1749.705	766.25
1754.105	734.25
1758.501	713.25
1762.893	705.25
1767.28	706.25
1771.663	691.25
1776.042	689.25
1780.417	684.25
1784.787	696.25
1789.154	694.25
1793.516	695.25
1797.874	684.25
1802.228	685.25
1806.578	677.25
1810.924	654.25
1815.266	648.25
1819.603	637.25
1823.937	625.25
1828.266	618.25
1832.591	616.25
1836.913	619.25
1841.23	616.25
1845.543	611.25
1849.852	613.25
1854.156	610.25
1858.457	627.25
1862.754	631.25
1867.047	619.25
1871.335	630.25
1875.62	630.25
1879.9	646.25
1884.177	629.25
1888.449	633.25
1892.718	628.25
1896.982	627.25
1901.243	633.25
1905.499	628.25
1909.752	633.25
1914	624.25
1918.245	629.25
1922.485	623.25
1926.722	629.25
1930.954	628.25
1935.183	637.25
1939.408	638.25
1943.628	638.25
1947.845	640.25
1952.058	631.25
1956.267	635.25
1960.472	621.25
1964.673	617.25
1968.87	609.25
1973.063	599.25
1977.252	587.25
1981.438	613.25
1985.619	587.25
1989.797	582.25
1993.971	586.25
1998.14	594.25
2002.306	595.25
2006.469	608.25
2010.627	608.25
2014.781	606.25
2018.932	624.25
2023.078	607.25
2027.221	607.25
2031.36	595.25
2035.495	598.25
2039.627	586.25
2043.754	589.25
2047.878	582.25
2051.998	583.25
2056.114	594.25
2060.226	589.25
2064.334	604.25
2068.439	608.25
2072.54	609.25
2076.637	617.25
2080.73	626.25
2084.82	626.25
2088.906	618.25
2092.988	605.25
2097.066	605.25
2101.14	604.25
2105.211	597.25
2109.278	585.25
2113.342	593.25
2117.401	589.25
2121.457	588.25
2125.509	578.25
2129.558	583.25
2133.602	575.25
2137.643	575.25
2141.681	565.25
2145.714	577.25
2149.744	573.25
2153.77	557.25
2157.793	562.25
2161.812	565.25
2165.827	541.25
2169.838	531.25
2173.846	532.25
2177.851	523.25
2181.851	520.25
2185.848	508.25
2189.841	510.25
2193.831	501.25
2197.817	502.25
2201.799	498.25
2205.778	502.25
2209.753	497.25
2213.725	492.25
2217.693	493.25
2221.657	496.25
2225.618	499.25
2229.575	493.25
2233.529	480.25
2237.479	490.25
2241.425	466.25
2245.368	471.25
2249.307	460.25
2253.243	452.25
2257.175	437.25
2261.104	440.25
2265.029	435.25
2268.95	429.25
2272.868	433.25
2276.783	416.25
2280.694	409.25
2284.601	407.25
2288.505	404.25
2292.405	391.25
2296.302	391.25
2300.195	382.25
2304.085	376.25
2307.971	383.25
2311.854	367.25
2315.734	364.25
2319.609	345.25
2323.482	348.25
2327.351	341.25
2331.216	341.25
2335.078	338.25
2338.937	345.25
2342.792	336.25
2346.643	335.25
2350.492	331.25
2354.336	327.25
2358.178	330.25
2362.015	337.25
2365.85	335.25
2369.681	333.25
2373.508	332.25
2377.333	339.25
2381.153	336.25
2384.971	336.25
2388.785	332.25
2392.595	325.25
2396.402	331.25
2400.206	331.25
2404.007	325.25
2407.804	326.25
2411.597	319.25
2415.388	323.25
2419.174	321.25
2422.958	318.25
2426.738	309.25
2430.515	316.25
2434.289	316.25
2438.059	320.25
2441.825	313.25
2445.589	312.25
2449.349	308.25
2453.106	301.25
2456.859	306.25
2460.61	295.25
2464.356	294.25
2468.1	289.25
2471.84	294.25
2475.577	288.25
2479.311	282.25
2483.041	298.25
2486.768	292.25
2490.492	293.25
2494.213	278.25
2497.93	287.25
2501.644	288.25
2505.355	287.25
2509.062	282.25
2512.766	283.25
2516.467	283.25
2520.165	286.25
2523.859	275.25
2527.551	284.25
2531.239	281.25
2534.923	271.25
2538.605	273.25
2542.283	274.25
2545.958	264.25
2549.63	268.25
2553.299	270.25
2556.964	261.25
2560.626	267.25
2564.285	257.25
2567.941	256.25
2571.594	253.25
2575.243	266.25
2578.89	254.25
2582.533	258.25
2586.173	249.25
2589.809	242.25
2593.443	241.25
2597.073	242.25
2600.701	239.25
2604.325	233.25
2607.946	239.25
2611.564	238.25
2615.178	233.25
2618.79	244.25
2622.398	227.25
2626.004	234.25
2629.606	231.25
2633.205	229.25
2636.801	224.25
2640.394	225.25
2643.983	217.25
2647.57	222.25
2651.153	214.25
2654.734	209.25
2658.311	216.25
2661.885	210.25
2665.456	209.25
2669.025	212.25
2672.589	204.25
2676.151	204.25
2679.71	194.25
2683.266	198.25
2686.819	201.25
2690.368	196.25
2693.915	198.25
2697.458	191.25
2700.999	196.25
2704.536	182.25
2708.071	183.25
2711.602	184.25
2715.13	182.25
2718.656	189.25
2722.178	185.25
2725.697	193.25
2729.214	188.25
2732.727	181.25
2736.237	187.25
2739.744	184.25
2743.249	186.25
2746.75	183.25
2750.248	189.25
2753.743	192.25
2757.236	183.25
2760.725	193.25
2764.211	184.25
2767.695	178.25
2771.175	173.25
2774.652	176.25
2778.127	173.25
2781.598	171.25
2785.067	176.25
2788.532	181.25
2791.995	177.25
2795.455	182.25
2798.911	180.25
2802.365	189.25
2805.816	185.25
2809.264	193.25
2812.709	187.25
2816.151	188.25
2819.59	183.25
2823.026	178.25
2826.46	181.25
2829.89	189.25
2833.318	192.25
2836.742	185.25
2840.164	188.25
2843.583	197.25
2846.999	198.25
2850.412	201.25
2853.822	200.25
2857.229	201.25
2860.634	204.25
2864.035	201.25
2867.434	211.25
2870.83	218.25
2874.223	227.25
2877.613	219.25
2881	224.25
2884.385	233.25
2887.766	228.25
2891.145	220.25
2894.521	227.25
2897.894	222.25
2901.264	235.25
2904.631	227.25
2907.996	227.25
2911.358	235.25
2914.717	235.25
2918.073	232.25
2921.426	245.25
2924.777	243.25
2928.124	254.25
2931.469	259.25
2934.811	267.25
2938.15	269.25
2941.487	273.25
2944.821	285.25
2948.152	273.25
2951.48	290.25
2954.805	281.25
2958.128	296.25
2961.447	293.25
2964.765	312.25
2968.079	312.25
2971.39	314.25
2974.699	322.25
2978.005	329.25
2981.308	332.25
2984.609	352.25
2987.907	357.25
2991.202	357.25
2994.494	381.25
2997.784	387.25
3001.07	399.25
3004.355	412.25
3007.636	420.25
3010.915	426.25
3014.191	427.25
3017.464	440.25
3020.734	450.25
3024.002	455.25
3027.267	466.25
3030.53	466.25
3033.789	477.25
3037.046	499.25
3040.301	507.25
3043.552	512.25
3046.801	527.25
3050.048	540.25
3053.291	561.25
3056.532	566.25
3059.771	596.25
3063.006	602.25
3066.239	638.25
3069.469	642.25
3072.697	666.25
3075.922	689.25
3079.144	700.25
3082.364	712.25
3085.581	743.25
3088.795	755.25
3092.007	774.25
3095.216	791.25
3098.423	824.25
3101.627	830.25
3104.828	845.25
3108.026	868.25
3111.222	877.25
3114.416	892.25
3117.607	919.25
3120.795	939.25
3123.98	966.25
3127.163	991.25
3130.344	1007.25
3133.521	1033.25
3136.696	1045.25
3139.869	1086.25
3143.039	1098.25
3146.206	1109.25
3149.371	1125.25
3152.533	1146.25
3155.693	1147.25
3158.85	1136.25
3162.005	1154.25
3165.157	1160.25
3168.306	1170.25
3171.453	1183.25
3174.597	1158.25
3177.739	1186.25
3180.878	1199.25
3184.014	1186.25
3187.149	1192.25
3190.28	1195.25
3193.409	1196.25
3196.536	1203.25
3199.659	1196.25
3202.781	1209.25
3205.9	1195.25
3209.016	1201.25
3212.13	1216.25
3215.241	1191.25
3218.35	1191.25
3221.456	1188.25
3224.56	1160.25
3227.661	1155.25
3230.76	1139.25
3233.856	1141.25
3236.95	1138.25
3240.041	1122.25
3243.13	1103.25
3246.216	1095.25
3249.3	1080.25
3252.382	1070.25
3255.46	1070.25
3258.537	1084.25
3261.611	1078.25
3264.682	1074.25
3267.751	1067.25
3270.818	1071.25
3273.882	1063.25
3276.943	1054.25
3280.002	1049.25
3283.059	1017.25
3286.113	1015.25
3289.165	1005.25
3292.214	983.25
3295.261	976.25
3298.306	965.25
3301.348	943.25
3304.387	940.25
3307.425	914.25
3310.459	907.25
3313.492	889.25
3316.521	884.25
3319.549	880.25
3322.574	860.25
3325.597	853.25
3328.617	841.25
3331.635	846.25
3334.65	840.25
3337.663	833.25
3340.674	840.25
3343.682	826.25
3346.688	817.25
3349.691	827.25
3352.692	827.25
3355.691	822.25
3358.687	811.25
3361.681	798.25
3364.673	795.25
3367.662	774.25
3370.649	770.25
3373.633	751.25
3376.615	761.25
3379.595	750.25
3382.572	736.25
3385.547	723.25
3388.52	707.25
3391.49	714.25
3394.458	701.25
3397.424	688.25
3400.387	672.25
3403.348	668.25
3406.307	663.25
3409.263	653.25
3412.217	648.25
3415.168	638.25
3418.118	636.25
3421.065	616.25
3424.009	615.25
3426.951	608.25
3429.891	605.25
3432.829	589.25
3435.764	573.25
3438.697	571.25
3441.628	548.25
3444.557	545.25
3447.483	517.25
3450.407	512.25
3453.328	492.25
3456.247	487.25
3459.164	462.25
3462.079	456.25
3464.991	447.25
3467.902	427.25
3470.809	413.25
3473.715	394.25
3476.618	387.25
3479.519	378.25
3482.418	365.25
3485.315	363.25
3488.209	338.25
3491.101	333.25
3493.99	325.25
3496.878	318.25
3499.763	307.25
3502.646	292.25
3505.527	292.25
3508.405	280.25
3511.281	265.25
3514.155	243.25
3517.027	246.25
3519.897	235.25
3522.764	216.25
3525.629	211.25
3528.492	199.25
3531.352	184.25
3534.211	171.25
3537.067	153.25
3539.921	152.25
3542.773	145.25
3545.622	133.25
3548.469	126.25
3551.315	117.25
3554.157	114.25
3556.998	107.25
3559.837	102.25
3562.673	92.25
3565.507	79.25
3568.339	81.25
3571.169	78.25
3573.996	71.25
3576.822	64.25
3579.645	55.25
3582.466	54.25
3585.285	51.25
3588.101	39.25
3590.916	38.25
3593.728	35.25
3596.538	29.25
3599.346	23.25
3602.152	17.25
3604.956	14.25
3607.757	11.25
3610.556	1.25
3613.354	-2.75
3616.149	2.25
3618.942	-3.75
3621.732	-8.75
3624.521	-8.75
3627.307	-13.75
3630.092	-18.75
3632.874	-21.75
3635.654	-22.75
3638.432	-27.75
3641.208	-30.75
3643.982	-34.75
3646.753	-36.75
3649.523	-36.75
3652.29	-40.75
3655.055	-44.75
3657.818	-45.75
3660.579	-49.75
3663.338	-48.75
3666.095	-52.75
3668.849	-49.75
3671.602	-54.75
3674.352	-60.75
3677.101	-69.75
3679.847	-69.75
3682.591	-63.75
3685.333	-64.75
3688.073	-68.75
3690.811	-70.75
3693.547	-71.75
3696.281	-77.75
3699.013	-76.75
3701.742	-75.75
3704.47	-77.75
3707.195	-81.75
3709.919	-80.75
3712.64	-81.75
3715.359	-83.75
3718.076	-86.75
3720.792	-90.75
3723.505	-84.75
3726.216	-84.75
3728.925	-85.75
3731.632	-83.75
3734.336	-87.75
3737.039	-91.75
3739.74	-89.75
3742.439	-93.75
3745.136	-92.75
3747.83	-95.75
3750.523	-91.75
3753.213	-90.75
3755.902	-89.75
3758.589	-95.75
3761.273	-95.75
3763.956	-89.75
3766.636	-96.75
3769.315	-97.75
3771.991	-98.75
3774.665	-96.75
3777.338	-93.75
3780.008	-97.75
3782.677	-99.75
3785.343	-100.75
3788.007	-100.75
3790.67	-100.75
3793.33	-98.75
3795.989	-96.75
3798.645	-93.75
3801.299	-94.75
3803.952	-101.75
3806.602	-106.75
3809.251	-102.75
3811.897	-101.75
3814.542	-102.75
3817.184	-97.75
3819.825	-103.75
3822.463	-100.75
3825.1	-102.75
3827.735	-105.75
3830.367	-98.75
3832.998	-110.75
3835.627	-100.75
3838.253	-101.75
3840.878	-104.75
3843.501	-103.75
3846.122	-104.75
3848.741	-108.75
3851.358	-105.75
3853.973	-105.75
3856.586	-105.75
3859.197	-102.75
3861.806	-106.75
3864.414	-104.75
3867.019	-105.75
3869.622	-106.75
3872.224	-105.75
3874.823	-103.75
3877.421	-100.75
3880.016	-99.75
3882.61	-93.75
3885.202	-98.75
3887.792	-102.75
3890.38	-99.75
3892.966	-102.75
3895.55	-106.75
3898.132	-102.75
3900.713	-106.75
3903.291	-105.75
3905.868	-105.75
3908.442	-108.75
3911.015	-110.75
3913.586	-109.75
3916.155	-111.75
3918.722	-112.75
3921.287	-105.75
3923.85	-104.75
3926.411	-106.75
3928.971	-107.75
3931.528	-111.75
3934.084	-109.75
3936.638	-111.75
3939.19	-111.75
3941.74	-110.75
3944.288	-109.75
3946.834	-106.75
3949.378	-108.75
3951.921	-106.75
3954.462	-111.75
3957	-107.75
3959.537	-109.75
3962.072	-112.75
3964.606	-108.75
3967.137	-106.75
3969.667	-105.75
3972.194	-113.75
3974.72	-111.75
3977.244	-110.75
3979.766	-110.75
3982.286	-105.75
3984.805	-104.75
3987.321	-108.75
3989.836	-104.75
3992.349	-109.75
3994.86	-107.75
3997.369	-108.75
3999.877	-110.75
4002.382	-105.75
4004.886	-104.75
4007.388	-104.75
4009.888	-110.75
4012.386	-106.75
4014.883	-108.75
4017.377	-110.75
4019.87	-103.75
4022.361	-109.75
4024.85	-108.75
4027.338	-106.75
4029.823	-105.75
4032.307	-103.75
4034.789	-108.75
4037.269	-110.75
4039.747	-108.75
4042.224	-110.75
4044.699	-113.75
4047.172	-109.75
4049.643	-104.75
4052.112	-108.75
4054.58	-107.75
4057.046	-106.75
4059.51	-105.75
4061.972	-113.75
4064.432	-115.75
4066.891	-111.75
4069.348	-111.75
4071.803	-109.75
4074.256	-107.75
4076.708	-101.75
4079.158	-106.75
4081.606	-107.75
4084.052	-110.75
4086.497	-107.75
4088.939	-106.75
4091.38	-110.75
4093.819	-107.75
4096.257	-114.75
4098.693	-111.75
4101.127	-116.75
4103.559	-113.75
4105.989	-77.75
4108.418	-71.75
4110.845	-65.75
4113.27	-64.75
4115.694	-58.75
4118.115	-49.75
4120.535	-105.75
4122.954	-108.75
4125.37	-109.75
4127.785	-112.75
4130.198	-112.75
4132.609	-105.75
4135.019	-111.75
4137.427	-111.75
4139.833	-109.75
4142.237	-111.75
