Data from 100CFU3_B_RamanShift_1.txt Node
Date: Mon Jan 23 14:08:02 IST 2017
User: aro
Spectrometer: QEPB0276
Trigger mode: 0
Integration Time (sec): 5.000000E0
Scans to average: 1
Electric dark correction enabled: true
Nonlinearity correction enabled: false
Boxcar width: 0
XAxis mode: Raman Shifts
Number of Pixels in Spectrum: 1044
>>>>>Begin Spectral Data<<<<<
160.701	-31
166.742	0
172.777	96
178.805	404
184.826	1121
190.841	2336
196.849	3684
202.85	4519
208.845	4778
214.833	4662
220.815	4484
226.789	4364
232.758	4252
238.719	4144
244.674	4007
250.623	3838
256.565	3671
262.5	3523
268.429	3374
274.351	3260
280.267	3154
286.176	3052
292.079	2964
297.975	2867
303.865	2797
309.748	2720
315.625	2681
321.495	2619
327.359	2579
333.217	2543
339.068	2542
344.912	2530
350.751	2510
356.583	2510
362.408	2505
368.227	2510
374.04	2489
379.847	2518
385.647	2530
391.44	2548
397.228	2545
403.009	2563
408.784	2586
414.553	2594
420.315	2600
426.071	2587
431.821	2601
437.565	2593
443.302	2585
449.033	2594
454.758	2573
460.477	2567
466.189	2562
471.896	2540
477.596	2534
483.29	2511
488.978	2494
494.66	2495
500.335	2487
506.005	2454
511.668	2407
517.325	2407
522.977	2361
528.622	2327
534.261	2313
539.894	2279
545.521	2280
551.141	2265
556.756	2238
562.365	2214
567.968	2222
573.565	2220
579.155	2204
584.74	2192
590.319	2187
595.892	2173
601.459	2156
607.02	2131
612.575	2111
618.124	2083
623.667	2082
629.204	2084
634.735	2038
640.261	2052
645.781	2037
651.294	2027
656.802	2019
662.304	2017
667.8	2010
673.29	2002
678.775	1999
684.254	1990
689.726	1990
695.193	1966
700.655	1961
706.11	1959
711.56	1957
717.004	1932
722.442	1937
727.874	1921
733.301	1920
738.722	1883
744.137	1900
749.547	1883
754.951	1892
760.349	1889
765.741	1865
771.128	1864
776.509	1882
781.885	1883
787.254	1859
792.618	1866
797.977	1858
803.33	1844
808.677	1836
814.019	1818
819.355	1806
824.686	1789
830.011	1774
835.33	1768
840.644	1766
845.952	1767
851.255	1757
856.552	1743
861.844	1755
867.13	1748
872.41	1751
877.686	1738
882.955	1709
888.219	1680
893.478	1665
898.731	1624
903.979	1621
909.221	1598
914.458	1602
919.69	1580
924.916	1591
930.136	1580
935.351	1597
940.561	1593
945.766	1597
950.965	1592
956.158	1559
961.347	1541
966.529	1540
971.707	1525
976.879	1474
982.046	1469
987.208	1467
992.364	1466
997.515	1481
1002.66	1487
1007.801	1488
1012.936	1502
1018.066	1529
1023.19	1554
1028.309	1538
1033.423	1534
1038.532	1526
1043.636	1523
1048.734	1508
1053.827	1473
1058.915	1478
1063.998	1463
1069.075	1465
1074.147	1473
1079.214	1472
1084.276	1477
1089.333	1495
1094.385	1496
1099.431	1491
1104.472	1527
1109.509	1506
1114.54	1490
1119.565	1472
1124.586	1461
1129.602	1448
1134.613	1424
1139.618	1448
1144.619	1429
1149.614	1431
1154.604	1443
1159.589	1459
1164.57	1470
1169.545	1465
1174.515	1478
1179.48	1458
1184.44	1451
1189.395	1444
1194.345	1449
1199.29	1431
1204.23	1421
1209.165	1428
1214.095	1441
1219.021	1445
1223.941	1447
1228.856	1477
1233.766	1474
1238.672	1511
1243.572	1492
1248.467	1476
1253.358	1450
1258.244	1432
1263.124	1412
1268	1410
1272.871	1392
1277.737	1386
1282.599	1383
1287.455	1394
1292.306	1365
1297.153	1386
1301.995	1406
1306.832	1417
1311.664	1432
1316.491	1421
1321.314	1413
1326.132	1410
1330.945	1413
1335.753	1389
1340.556	1382
1345.354	1351
1350.148	1361
1354.937	1347
1359.722	1338
1364.501	1300
1369.276	1281
1374.046	1271
1378.811	1259
1383.572	1262
1388.327	1251
1393.079	1254
1397.825	1248
1402.567	1249
1407.304	1244
1412.036	1247
1416.764	1236
1421.487	1248
1426.205	1233
1430.919	1260
1435.628	1262
1440.333	1285
1445.032	1301
1449.727	1316
1454.418	1328
1459.104	1309
1463.785	1309
1468.462	1301
1473.134	1275
1477.802	1279
1482.465	1249
1487.123	1260
1491.777	1248
1496.426	1263
1501.071	1269
1505.711	1294
1510.347	1301
1514.978	1302
1519.604	1313
1524.226	1318
1528.844	1314
1533.457	1305
1538.065	1300
1542.669	1285
1547.269	1292
1551.864	1291
1556.454	1297
1561.041	1292
1565.622	1305
1570.199	1337
1574.772	1344
1579.34	1364
1583.904	1385
1588.464	1402
1593.019	1424
1597.569	1432
1602.115	1440
1606.657	1454
1611.195	1454
1615.728	1473
1620.256	1482
1624.78	1512
1629.3	1518
1633.816	1548
1638.327	1560
1642.834	1585
1647.336	1582
1651.834	1598
1656.328	1605
1660.817	1583
1665.302	1571
1669.783	1546
1674.259	1512
1678.732	1462
1683.199	1436
1687.663	1403
1692.122	1335
1696.577	1295
1701.028	1234
1705.474	1188
1709.917	1145
1714.355	1146
1718.788	1132
1723.218	1112
1727.643	1101
1732.064	1081
1736.481	1056
1740.893	1031
1745.301	1015
1749.705	976
1754.105	961
1758.501	949
1762.893	933
1767.28	931
1771.663	919
1776.042	920
1780.417	929
1784.787	928
1789.154	922
1793.516	923
1797.874	913
1802.228	893
1806.578	899
1810.924	873
1815.266	853
1819.603	849
1823.937	845
1828.266	837
1832.591	830
1836.913	831
1841.23	824
1845.543	835
1849.852	827
1854.156	827
1858.457	830
1862.754	833
1867.047	843
1871.335	851
1875.62	835
1879.9	856
1884.177	848
1888.449	856
1892.718	852
1896.982	840
1901.243	831
1905.499	833
1909.752	846
1914	831
1918.245	840
1922.485	840
1926.722	838
1930.954	846
1935.183	847
1939.408	853
1943.628	840
1947.845	860
1952.058	837
1956.267	826
1960.472	831
1964.673	809
1968.87	814
1973.063	804
1977.252	778
1981.438	785
1985.619	789
1989.797	789
1993.971	769
1998.14	788
2002.306	780
2006.469	801
2010.627	801
2014.781	799
2018.932	786
2023.078	786
2027.221	798
2031.36	782
2035.495	778
2039.627	773
2043.754	765
2047.878	751
2051.998	781
2056.114	766
2060.226	773
2064.334	766
2068.439	771
2072.54	784
2076.637	785
2080.73	803
2084.82	789
2088.906	793
2092.988	781
2097.066	770
2101.14	777
2105.211	775
2109.278	768
2113.342	759
2117.401	759
2121.457	744
2125.509	748
2129.558	732
2133.602	742
2137.643	753
2141.681	729
2145.714	737
2149.744	731
2153.77	727
2157.793	721
2161.812	716
2165.827	691
2169.838	687
2173.846	686
2177.851	673
2181.851	668
2185.848	664
2189.841	648
2193.831	647
2197.817	636
2201.799	643
2205.778	637
2209.753	634
2213.725	631
2217.693	648
2221.657	635
2225.618	625
2229.575	624
2233.529	628
2237.479	625
2241.425	617
2245.368	609
2249.307	607
2253.243	590
2257.175	583
2261.104	568
2265.029	565
2268.95	563
2272.868	555
2276.783	537
2280.694	539
2284.601	533
2288.505	527
2292.405	526
2296.302	525
2300.195	508
2304.085	502
2307.971	491
2311.854	490
2315.734	476
2319.609	469
2323.482	463
2327.351	450
2331.216	455
2335.078	449
2338.937	450
2342.792	451
2346.643	453
2350.492	444
2354.336	442
2358.178	454
2362.015	452
2365.85	447
2369.681	440
2373.508	441
2377.333	447
2381.153	454
2384.971	448
2388.785	446
2392.595	432
2396.402	436
2400.206	426
2404.007	428
2407.804	439
2411.597	429
2415.388	430
2419.174	432
2422.958	422
2426.738	420
2430.515	425
2434.289	417
2438.059	420
2441.825	413
2445.589	411
2449.349	413
2453.106	406
2456.859	406
2460.61	400
2464.356	395
2468.1	396
2471.84	400
2475.577	394
2479.311	385
2483.041	391
2486.768	390
2490.492	385
2494.213	389
2497.93	395
2501.644	393
2505.355	395
2509.062	386
2512.766	384
2516.467	391
2520.165	377
2523.859	373
2527.551	379
2531.239	381
2534.923	359
2538.605	368
2542.283	364
2545.958	358
2549.63	367
2553.299	356
2556.964	360
2560.626	353
2564.285	353
2567.941	349
2571.594	343
2575.243	342
2578.89	345
2582.533	339
2586.173	342
2589.809	334
2593.443	336
2597.073	332
2600.701	328
2604.325	322
2607.946	322
2611.564	329
2615.178	332
2618.79	321
2622.398	307
2626.004	311
2629.606	312
2633.205	310
2636.801	314
2640.394	307
2643.983	300
2647.57	306
2651.153	291
2654.734	289
2658.311	282
2661.885	288
2665.456	290
2669.025	289
2672.589	282
2676.151	276
2679.71	273
2683.266	279
2686.819	281
2690.368	275
2693.915	270
2697.458	262
2700.999	254
2704.536	244
2708.071	254
2711.602	250
2715.13	248
2718.656	259
2722.178	254
2725.697	253
2729.214	265
2732.727	249
2736.237	257
2739.744	257
2743.249	259
2746.75	264
2750.248	258
2753.743	256
2757.236	259
2760.725	245
2764.211	246
2767.695	250
2771.175	235
2774.652	237
2778.127	235
2781.598	231
2785.067	236
2788.532	232
2791.995	238
2795.455	237
2798.911	243
2802.365	237
2805.816	243
2809.264	243
2812.709	249
2816.151	244
2819.59	245
2823.026	246
2826.46	244
2829.89	247
2833.318	238
2836.742	242
2840.164	243
2843.583	237
2846.999	248
2850.412	255
2853.822	256
2857.229	254
2860.634	257
2864.035	258
2867.434	265
2870.83	268
2874.223	266
2877.613	271
2881	269
2884.385	280
2887.766	267
2891.145	261
2894.521	273
2897.894	266
2901.264	277
2904.631	280
2907.996	276
2911.358	275
2914.717	274
2918.073	278
2921.426	287
2924.777	285
2928.124	292
2931.469	300
2934.811	305
2938.15	306
2941.487	311
2944.821	319
2948.152	316
2951.48	324
2954.805	325
2958.128	329
2961.447	341
2964.765	332
2968.079	335
2971.39	356
2974.699	352
2978.005	358
2981.308	371
2984.609	376
2987.907	393
2991.202	413
2994.494	424
2997.784	426
3001.07	434
3004.355	439
3007.636	452
3010.915	453
3014.191	473
3017.464	477
3020.734	476
3024.002	477
3027.267	502
3030.53	496
3033.789	520
3037.046	524
3040.301	535
3043.552	543
3046.801	553
3050.048	561
3053.291	581
3056.532	608
3059.771	620
3063.006	636
3066.239	653
3069.469	678
3072.697	693
3075.922	705
3079.144	731
3082.364	743
3085.581	758
3088.795	784
3092.007	810
3095.216	816
3098.423	835
3101.627	853
3104.828	874
3108.026	891
3111.222	896
3114.416	924
3117.607	932
3120.795	972
3123.98	1000
3127.163	1006
3130.344	1028
3133.521	1056
3136.696	1075
3139.869	1089
3143.039	1116
3146.206	1129
3149.371	1120
3152.533	1163
3155.693	1167
3158.85	1165
3162.005	1168
3165.157	1188
3168.306	1192
3171.453	1177
3174.597	1187
3177.739	1187
3180.878	1200
3184.014	1205
3187.149	1200
3190.28	1203
3193.409	1217
3196.536	1216
3199.659	1222
3202.781	1218
3205.9	1221
3209.016	1218
3212.13	1228
3215.241	1192
3218.35	1193
3221.456	1191
3224.56	1194
3227.661	1166
3230.76	1147
3233.856	1146
3236.95	1126
3240.041	1129
3243.13	1117
3246.216	1107
3249.3	1097
3252.382	1096
3255.46	1099
3258.537	1087
3261.611	1077
3264.682	1082
3267.751	1064
3270.818	1076
3273.882	1059
3276.943	1046
3280.002	1048
3283.059	1032
3286.113	1001
3289.165	1006
3292.214	994
3295.261	989
3298.306	966
3301.348	953
3304.387	932
3307.425	928
3310.459	904
3313.492	899
3316.521	892
3319.549	881
3322.574	863
3325.597	877
3328.617	867
3331.635	856
3334.65	838
3337.663	842
3340.674	850
3343.682	844
3346.688	821
3349.691	836
3352.692	827
3355.691	833
3358.687	818
3361.681	798
3364.673	794
3367.662	782
3370.649	772
3373.633	759
3376.615	752
3379.595	750
3382.572	738
3385.547	724
3388.52	727
3391.49	706
3394.458	695
3397.424	688
3400.387	676
3403.348	664
3406.307	660
3409.263	654
3412.217	656
3415.168	645
3418.118	642
3421.065	624
3424.009	616
3426.951	609
3429.891	599
3432.829	592
3435.764	577
3438.697	568
3441.628	544
3444.557	529
3447.483	507
3450.407	506
3453.328	503
3456.247	481
3459.164	473
3462.079	463
3464.991	437
3467.902	440
3470.809	406
3473.715	400
3476.618	387
3479.519	379
3482.418	353
3485.315	344
3488.209	346
3491.101	340
3493.99	313
3496.878	317
3499.763	302
3502.646	292
3505.527	284
3508.405	277
3511.281	259
3514.155	247
3517.027	234
3519.897	228
3522.764	217
3525.629	199
3528.492	188
3531.352	185
3534.211	172
3537.067	162
3539.921	153
3542.773	145
3545.622	138
3548.469	126
3551.315	112
3554.157	113
3556.998	100
3559.837	101
3562.673	91
3565.507	82
3568.339	79
3571.169	71
3573.996	65
3576.822	59
3579.645	55
3582.466	53
3585.285	46
3588.101	46
3590.916	31
3593.728	30
3596.538	28
3599.346	22
3602.152	14
3604.956	15
3607.757	6
3610.556	-3
3613.354	-3
3616.149	-5
3618.942	-15
3621.732	-17
3624.521	-12
3627.307	-13
3630.092	-23
3632.874	-25
3635.654	-31
3638.432	-28
3641.208	-33
3643.982	-35
3646.753	-39
3649.523	-40
3652.29	-44
3655.055	-45
3657.818	-49
3660.579	-51
3663.338	-55
3666.095	-53
3668.849	-59
3671.602	-62
3674.352	-60
3677.101	-69
3679.847	-76
3682.591	-72
3685.333	-74
3688.073	-71
3690.811	-74
3693.547	-75
3696.281	-78
3699.013	-78
3701.742	-80
3704.47	-78
3707.195	-82
3709.919	-78
3712.64	-88
3715.359	-86
3718.076	-88
3720.792	-95
3723.505	-91
3726.216	-88
3728.925	-89
3731.632	-90
3734.336	-87
3737.039	-91
3739.74	-91
3742.439	-91
3745.136	-96
3747.83	-92
3750.523	-96
3753.213	-97
3755.902	-99
3758.589	-102
3761.273	-98
3763.956	-98
3766.636	-96
3769.315	-101
3771.991	-100
3774.665	-99
3777.338	-101
3780.008	-103
3782.677	-103
3785.343	-103
3788.007	-105
3790.67	-104
3793.33	-101
3795.989	-101
3798.645	-99
3801.299	-103
3803.952	-103
3806.602	-107
3809.251	-107
3811.897	-103
3814.542	-106
3817.184	-102
3819.825	-108
3822.463	-105
3825.1	-110
3827.735	-114
3830.367	-106
3832.998	-111
3835.627	-106
3838.253	-104
3840.878	-108
3843.501	-104
3846.122	-109
3848.741	-111
3851.358	-108
3853.973	-110
3856.586	-112
3859.197	-103
3861.806	-110
3864.414	-111
3867.019	-111
3869.622	-109
3872.224	-109
3874.823	-105
3877.421	-102
3880.016	-100
3882.61	-101
3885.202	-104
3887.792	-109
3890.38	-110
3892.966	-110
3895.55	-114
3898.132	-109
3900.713	-112
3903.291	-112
3905.868	-109
3908.442	-112
3911.015	-111
3913.586	-113
3916.155	-114
3918.722	-114
3921.287	-109
3923.85	-113
3926.411	-114
3928.971	-117
3931.528	-117
3934.084	-115
3936.638	-114
3939.19	-114
3941.74	-115
3944.288	-115
3946.834	-111
3949.378	-113
3951.921	-112
3954.462	-118
3957	-114
3959.537	-114
3962.072	-114
3964.606	-116
3967.137	-113
3969.667	-111
3972.194	-112
3974.72	-114
3977.244	-113
3979.766	-110
3982.286	-111
3984.805	-109
3987.321	-112
3989.836	-114
3992.349	-116
3994.86	-115
3997.369	-115
3999.877	-112
4002.382	-110
4004.886	-108
4007.388	-108
4009.888	-110
4012.386	-109
4014.883	-112
4017.377	-118
4019.87	-113
4022.361	-113
4024.85	-116
4027.338	-114
4029.823	-109
4032.307	-111
4034.789	-108
4037.269	-110
4039.747	-109
4042.224	-113
4044.699	-116
4047.172	-111
4049.643	-112
4052.112	-116
4054.58	-114
4057.046	-114
4059.51	-115
4061.972	-117
4064.432	-115
4066.891	-109
4069.348	-110
4071.803	-112
4074.256	-109
4076.708	-110
4079.158	-112
4081.606	-115
4084.052	-118
4086.497	-114
4088.939	-114
4091.38	-115
4093.819	-113
4096.257	-117
4098.693	-116
4101.127	-117
4103.559	-118
4105.989	-77
4108.418	-74
4110.845	-72
4113.27	-66
4115.694	-56
4118.115	-49
4120.535	-112
4122.954	-107
4125.37	-116
4127.785	-114
4130.198	-113
4132.609	-114
4135.019	-117
4137.427	-118
4139.833	-117
4142.237	-117
