Data from 10CFU3_A_RamanShift_1.txt Node
Date: Mon Jan 23 13:59:42 IST 2017
User: aro
Spectrometer: QEPB0276
Trigger mode: 0
Integration Time (sec): 5.000000E0
Scans to average: 1
Electric dark correction enabled: true
Nonlinearity correction enabled: false
Boxcar width: 0
XAxis mode: Raman Shifts
Number of Pixels in Spectrum: 1044
>>>>>Begin Spectral Data<<<<<
160.701	-24.38
166.742	4.62
172.777	84.62
178.805	345.62
184.826	989.62
190.841	2054.62
196.849	3212.62
202.85	4035.62
208.845	4206.62
214.833	4085.62
220.815	3930.62
226.789	3793.62
232.758	3677.62
238.719	3567.62
244.674	3458.62
250.623	3307.62
256.565	3166.62
262.5	2998.62
268.429	2871.62
274.351	2766.62
280.267	2628.62
286.176	2531.62
292.079	2442.62
297.975	2371.62
303.865	2287.62
309.748	2225.62
315.625	2170.62
321.495	2130.62
327.359	2095.62
333.217	2075.62
339.068	2063.62
344.912	2049.62
350.751	2029.62
356.583	2025.62
362.408	2043.62
368.227	2036.62
374.04	2013.62
379.847	2043.62
385.647	2044.62
391.44	2069.62
397.228	2063.62
403.009	2091.62
408.784	2086.62
414.553	2100.62
420.315	2106.62
426.071	2116.62
431.821	2108.62
437.565	2106.62
443.302	2090.62
449.033	2110.62
454.758	2074.62
460.477	2071.62
466.189	2045.62
471.896	2056.62
477.596	2046.62
483.29	2044.62
488.978	2004.62
494.66	2014.62
500.335	1976.62
506.005	1961.62
511.668	1917.62
517.325	1906.62
522.977	1850.62
528.622	1847.62
534.261	1827.62
539.894	1808.62
545.521	1808.62
551.141	1794.62
556.756	1772.62
562.365	1754.62
567.968	1745.62
573.565	1735.62
579.155	1746.62
584.74	1715.62
590.319	1721.62
595.892	1696.62
601.459	1706.62
607.02	1669.62
612.575	1668.62
618.124	1647.62
623.667	1630.62
629.204	1608.62
634.735	1613.62
640.261	1604.62
645.781	1584.62
651.294	1577.62
656.802	1576.62
662.304	1576.62
667.8	1566.62
673.29	1564.62
678.775	1551.62
684.254	1542.62
689.726	1537.62
695.193	1531.62
700.655	1502.62
706.11	1515.62
711.56	1490.62
717.004	1492.62
722.442	1463.62
727.874	1457.62
733.301	1465.62
738.722	1452.62
744.137	1450.62
749.547	1443.62
754.951	1442.62
760.349	1449.62
765.741	1450.62
771.128	1440.62
776.509	1444.62
781.885	1444.62
787.254	1437.62
792.618	1425.62
797.977	1404.62
803.33	1417.62
808.677	1405.62
814.019	1364.62
819.355	1381.62
824.686	1362.62
830.011	1350.62
835.33	1343.62
840.644	1333.62
845.952	1326.62
851.255	1324.62
856.552	1300.62
861.844	1307.62
867.13	1305.62
872.41	1317.62
877.686	1287.62
882.955	1273.62
888.219	1248.62
893.478	1230.62
898.731	1210.62
903.979	1188.62
909.221	1192.62
914.458	1168.62
919.69	1164.62
924.916	1160.62
930.136	1147.62
935.351	1165.62
940.561	1162.62
945.766	1146.62
950.965	1161.62
956.158	1143.62
961.347	1121.62
966.529	1104.62
971.707	1103.62
976.879	1078.62
982.046	1064.62
987.208	1072.62
992.364	1066.62
997.515	1069.62
1002.66	1065.62
1007.801	1073.62
1012.936	1096.62
1018.066	1103.62
1023.19	1104.62
1028.309	1110.62
1033.423	1126.62
1038.532	1117.62
1043.636	1099.62
1048.734	1082.62
1053.827	1085.62
1058.915	1063.62
1063.998	1063.62
1069.075	1058.62
1074.147	1054.62
1079.214	1058.62
1084.276	1071.62
1089.333	1090.62
1094.385	1084.62
1099.431	1090.62
1104.472	1097.62
1109.509	1084.62
1114.54	1082.62
1119.565	1064.62
1124.586	1047.62
1129.602	1039.62
1134.613	1037.62
1139.618	1029.62
1144.619	1026.62
1149.614	1036.62
1154.604	1037.62
1159.589	1030.62
1164.57	1042.62
1169.545	1062.62
1174.515	1047.62
1179.48	1039.62
1184.44	1047.62
1189.395	1033.62
1194.345	1032.62
1199.29	1032.62
1204.23	1043.62
1209.165	1061.62
1214.095	1046.62
1219.021	1056.62
1223.941	1054.62
1228.856	1057.62
1233.766	1065.62
1238.672	1077.62
1243.572	1070.62
1248.467	1064.62
1253.358	1055.62
1258.244	1042.62
1263.124	1009.62
1268	1009.62
1272.871	989.62
1277.737	993.62
1282.599	986.62
1287.455	981.62
1292.306	999.62
1297.153	998.62
1301.995	999.62
1306.832	1022.62
1311.664	1008.62
1316.491	1017.62
1321.314	1021.62
1326.132	1011.62
1330.945	1003.62
1335.753	1002.62
1340.556	1000.62
1345.354	964.62
1350.148	974.62
1354.937	972.62
1359.722	969.62
1364.501	941.62
1369.276	926.62
1374.046	914.62
1378.811	914.62
1383.572	909.62
1388.327	903.62
1393.079	889.62
1397.825	901.62
1402.567	909.62
1407.304	891.62
1412.036	886.62
1416.764	888.62
1421.487	885.62
1426.205	892.62
1430.919	902.62
1435.628	893.62
1440.333	907.62
1445.032	930.62
1449.727	945.62
1454.418	955.62
1459.104	948.62
1463.785	940.62
1468.462	923.62
1473.134	925.62
1477.802	903.62
1482.465	920.62
1487.123	911.62
1491.777	910.62
1496.426	916.62
1501.071	921.62
1505.711	921.62
1510.347	946.62
1514.978	946.62
1519.604	954.62
1524.226	961.62
1528.844	960.62
1533.457	942.62
1538.065	932.62
1542.669	942.62
1547.269	940.62
1551.864	939.62
1556.454	936.62
1561.041	961.62
1565.622	977.62
1570.199	982.62
1574.772	1001.62
1579.34	1002.62
1583.904	1035.62
1588.464	1053.62
1593.019	1057.62
1597.569	1086.62
1602.115	1100.62
1606.657	1103.62
1611.195	1128.62
1615.728	1128.62
1620.256	1133.62
1624.78	1168.62
1629.3	1182.62
1633.816	1188.62
1638.327	1218.62
1642.834	1235.62
1647.336	1226.62
1651.834	1246.62
1656.328	1241.62
1660.817	1225.62
1665.302	1215.62
1669.783	1197.62
1674.259	1165.62
1678.732	1129.62
1683.199	1101.62
1687.663	1071.62
1692.122	1033.62
1696.577	991.62
1701.028	931.62
1705.474	884.62
1709.917	848.62
1714.355	842.62
1718.788	824.62
1723.218	831.62
1727.643	810.62
1732.064	806.62
1736.481	774.62
1740.893	747.62
1745.301	719.62
1749.705	709.62
1754.105	684.62
1758.501	679.62
1762.893	668.62
1767.28	664.62
1771.663	652.62
1776.042	652.62
1780.417	653.62
1784.787	653.62
1789.154	652.62
1793.516	660.62
1797.874	650.62
1802.228	637.62
1806.578	625.62
1810.924	614.62
1815.266	596.62
1819.603	600.62
1823.937	581.62
1828.266	573.62
1832.591	571.62
1836.913	582.62
1841.23	576.62
1845.543	574.62
1849.852	574.62
1854.156	578.62
1858.457	585.62
1862.754	579.62
1867.047	586.62
1871.335	599.62
1875.62	601.62
1879.9	604.62
1884.177	590.62
1888.449	606.62
1892.718	589.62
1896.982	590.62
1901.243	586.62
1905.499	592.62
1909.752	591.62
1914	595.62
1918.245	583.62
1922.485	589.62
1926.722	593.62
1930.954	590.62
1935.183	599.62
1939.408	608.62
1943.628	600.62
1947.845	593.62
1952.058	593.62
1956.267	597.62
1960.472	576.62
1964.673	570.62
1968.87	563.62
1973.063	565.62
1977.252	560.62
1981.438	558.62
1985.619	544.62
1989.797	546.62
1993.971	554.62
1998.14	560.62
2002.306	561.62
2006.469	562.62
2010.627	568.62
2014.781	564.62
2018.932	573.62
2023.078	567.62
2027.221	566.62
2031.36	552.62
2035.495	562.62
2039.627	553.62
2043.754	558.62
2047.878	563.62
2051.998	558.62
2056.114	560.62
2060.226	550.62
2064.334	562.62
2068.439	560.62
2072.54	575.62
2076.637	576.62
2080.73	578.62
2084.82	580.62
2088.906	586.62
2092.988	573.62
2097.066	566.62
2101.14	564.62
2105.211	562.62
2109.278	554.62
2113.342	552.62
2117.401	543.62
2121.457	540.62
2125.509	543.62
2129.558	543.62
2133.602	537.62
2137.643	541.62
2141.681	539.62
2145.714	523.62
2149.744	536.62
2153.77	522.62
2157.793	511.62
2161.812	516.62
2165.827	506.62
2169.838	513.62
2173.846	503.62
2177.851	490.62
2181.851	488.62
2185.848	479.62
2189.841	473.62
2193.831	476.62
2197.817	466.62
2201.799	470.62
2205.778	452.62
2209.753	469.62
2213.725	468.62
2217.693	457.62
2221.657	468.62
2225.618	453.62
2229.575	453.62
2233.529	445.62
2237.479	452.62
2241.425	450.62
2245.368	444.62
2249.307	430.62
2253.243	423.62
2257.175	410.62
2261.104	404.62
2265.029	412.62
2268.95	402.62
2272.868	405.62
2276.783	396.62
2280.694	386.62
2284.601	381.62
2288.505	370.62
2292.405	370.62
2296.302	364.62
2300.195	359.62
2304.085	357.62
2307.971	351.62
2311.854	339.62
2315.734	337.62
2319.609	335.62
2323.482	332.62
2327.351	327.62
2331.216	316.62
2335.078	335.62
2338.937	321.62
2342.792	319.62
2346.643	303.62
2350.492	314.62
2354.336	312.62
2358.178	312.62
2362.015	315.62
2365.85	311.62
2369.681	323.62
2373.508	318.62
2377.333	311.62
2381.153	318.62
2384.971	312.62
2388.785	309.62
2392.595	308.62
2396.402	306.62
2400.206	300.62
2404.007	291.62
2407.804	300.62
2411.597	303.62
2415.388	310.62
2419.174	304.62
2422.958	295.62
2426.738	305.62
2430.515	293.62
2434.289	300.62
2438.059	299.62
2441.825	292.62
2445.589	283.62
2449.349	290.62
2453.106	281.62
2456.859	283.62
2460.61	277.62
2464.356	283.62
2468.1	278.62
2471.84	276.62
2475.577	277.62
2479.311	275.62
2483.041	275.62
2486.768	278.62
2490.492	275.62
2494.213	276.62
2497.93	269.62
2501.644	271.62
2505.355	272.62
2509.062	277.62
2512.766	275.62
2516.467	258.62
2520.165	267.62
2523.859	266.62
2527.551	263.62
2531.239	263.62
2534.923	256.62
2538.605	267.62
2542.283	261.62
2545.958	254.62
2549.63	249.62
2553.299	258.62
2556.964	245.62
2560.626	250.62
2564.285	251.62
2567.941	245.62
2571.594	235.62
2575.243	239.62
2578.89	238.62
2582.533	242.62
2586.173	241.62
2589.809	229.62
2593.443	225.62
2597.073	231.62
2600.701	233.62
2604.325	228.62
2607.946	228.62
2611.564	226.62
2615.178	224.62
2618.79	229.62
2622.398	218.62
2626.004	217.62
2629.606	217.62
2633.205	217.62
2636.801	209.62
2640.394	209.62
2643.983	207.62
2647.57	207.62
2651.153	205.62
2654.734	205.62
2658.311	193.62
2661.885	199.62
2665.456	200.62
2669.025	196.62
2672.589	190.62
2676.151	194.62
2679.71	188.62
2683.266	189.62
2686.819	188.62
2690.368	185.62
2693.915	190.62
2697.458	187.62
2700.999	176.62
2704.536	184.62
2708.071	180.62
2711.602	181.62
2715.13	176.62
2718.656	177.62
2722.178	179.62
2725.697	177.62
2729.214	179.62
2732.727	176.62
2736.237	179.62
2739.744	180.62
2743.249	182.62
2746.75	175.62
2750.248	175.62
2753.743	183.62
2757.236	186.62
2760.725	176.62
2764.211	174.62
2767.695	171.62
2771.175	164.62
2774.652	173.62
2778.127	163.62
2781.598	172.62
2785.067	162.62
2788.532	169.62
2791.995	166.62
2795.455	173.62
2798.911	170.62
2802.365	181.62
2805.816	177.62
2809.264	181.62
2812.709	176.62
2816.151	175.62
2819.59	177.62
2823.026	175.62
2826.46	175.62
2829.89	174.62
2833.318	177.62
2836.742	183.62
2840.164	180.62
2843.583	185.62
2846.999	194.62
2850.412	189.62
2853.822	190.62
2857.229	194.62
2860.634	198.62
2864.035	203.62
2867.434	198.62
2870.83	193.62
2874.223	207.62
2877.613	200.62
2881	207.62
2884.385	220.62
2887.766	210.62
2891.145	213.62
2894.521	211.62
2897.894	209.62
2901.264	217.62
2904.631	215.62
2907.996	226.62
2911.358	214.62
2914.717	224.62
2918.073	223.62
2921.426	230.62
2924.777	229.62
2928.124	237.62
2931.469	234.62
2934.811	245.62
2938.15	257.62
2941.487	251.62
2944.821	257.62
2948.152	272.62
2951.48	268.62
2954.805	271.62
2958.128	267.62
2961.447	276.62
2964.765	295.62
2968.079	289.62
2971.39	295.62
2974.699	300.62
2978.005	308.62
2981.308	316.62
2984.609	321.62
2987.907	341.62
2991.202	350.62
2994.494	361.62
2997.784	362.62
3001.07	376.62
3004.355	383.62
3007.636	388.62
3010.915	397.62
3014.191	403.62
3017.464	422.62
3020.734	411.62
3024.002	428.62
3027.267	424.62
3030.53	444.62
3033.789	450.62
3037.046	459.62
3040.301	475.62
3043.552	486.62
3046.801	500.62
3050.048	508.62
3053.291	523.62
3056.532	545.62
3059.771	564.62
3063.006	579.62
3066.239	584.62
3069.469	610.62
3072.697	627.62
3075.922	650.62
3079.144	645.62
3082.364	668.62
3085.581	699.62
3088.795	707.62
3092.007	727.62
3095.216	737.62
3098.423	771.62
3101.627	769.62
3104.828	788.62
3108.026	801.62
3111.222	826.62
3114.416	827.62
3117.607	868.62
3120.795	874.62
3123.98	909.62
3127.163	934.62
3130.344	955.62
3133.521	967.62
3136.696	987.62
3139.869	1017.62
3143.039	1019.62
3146.206	1032.62
3149.371	1058.62
3152.533	1072.62
3155.693	1060.62
3158.85	1074.62
3162.005	1076.62
3165.157	1091.62
3168.306	1087.62
3171.453	1092.62
3174.597	1096.62
3177.739	1108.62
3180.878	1111.62
3184.014	1120.62
3187.149	1108.62
3190.28	1104.62
3193.409	1117.62
3196.536	1125.62
3199.659	1126.62
3202.781	1135.62
3205.9	1133.62
3209.016	1130.62
3212.13	1124.62
3215.241	1131.62
3218.35	1124.62
3221.456	1113.62
3224.56	1110.62
3227.661	1097.62
3230.76	1085.62
3233.856	1065.62
3236.95	1064.62
3240.041	1060.62
3243.13	1044.62
3246.216	1047.62
3249.3	1037.62
3252.382	1028.62
3255.46	1030.62
3258.537	1008.62
3261.611	1019.62
3264.682	1002.62
3267.751	995.62
3270.818	1000.62
3273.882	987.62
3276.943	984.62
3280.002	977.62
3283.059	969.62
3286.113	949.62
3289.165	940.62
3292.214	915.62
3295.261	914.62
3298.306	898.62
3301.348	883.62
3304.387	881.62
3307.425	857.62
3310.459	847.62
3313.492	850.62
3316.521	820.62
3319.549	825.62
3322.574	818.62
3325.597	817.62
3328.617	807.62
3331.635	797.62
3334.65	798.62
3337.663	794.62
3340.674	786.62
3343.682	784.62
3346.688	768.62
3349.691	771.62
3352.692	774.62
3355.691	768.62
3358.687	758.62
3361.681	756.62
3364.673	745.62
3367.662	742.62
3370.649	726.62
3373.633	725.62
3376.615	708.62
3379.595	687.62
3382.572	682.62
3385.547	667.62
3388.52	671.62
3391.49	660.62
3394.458	645.62
3397.424	638.62
3400.387	639.62
3403.348	624.62
3406.307	611.62
3409.263	611.62
3412.217	606.62
3415.168	613.62
3418.118	595.62
3421.065	586.62
3424.009	573.62
3426.951	577.62
3429.891	569.62
3432.829	548.62
3435.764	540.62
3438.697	535.62
3441.628	511.62
3444.557	513.62
3447.483	493.62
3450.407	481.62
3453.328	470.62
3456.247	456.62
3459.164	444.62
3462.079	429.62
3464.991	412.62
3467.902	394.62
3470.809	382.62
3473.715	374.62
3476.618	363.62
3479.519	356.62
3482.418	347.62
3485.315	341.62
3488.209	322.62
3491.101	317.62
3493.99	307.62
3496.878	298.62
3499.763	289.62
3502.646	289.62
3505.527	274.62
3508.405	268.62
3511.281	253.62
3514.155	236.62
3517.027	228.62
3519.897	224.62
3522.764	201.62
3525.629	199.62
3528.492	185.62
3531.352	172.62
3534.211	169.62
3537.067	156.62
3539.921	143.62
3542.773	132.62
3545.622	131.62
3548.469	125.62
3551.315	110.62
3554.157	115.62
3556.998	103.62
3559.837	98.62
3562.673	82.62
3565.507	79.62
3568.339	74.62
3571.169	70.62
3573.996	68.62
3576.822	61.62
3579.645	57.62
3582.466	48.62
3585.285	46.62
3588.101	41.62
3590.916	35.62
3593.728	37.62
3596.538	31.62
3599.346	22.62
3602.152	20.62
3604.956	17.62
3607.757	7.62
3610.556	-2.38
3613.354	-2.38
3616.149	-5.38
3618.942	-12.38
3621.732	-11.38
3624.521	-4.38
3627.307	-7.38
3630.092	-17.38
3632.874	-18.38
3635.654	-22.38
3638.432	-20.38
3641.208	-26.38
3643.982	-29.38
3646.753	-32.38
3649.523	-35.38
3652.29	-39.38
3655.055	-40.38
3657.818	-46.38
3660.579	-42.38
3663.338	-49.38
3666.095	-50.38
3668.849	-45.38
3671.602	-52.38
3674.352	-52.38
3677.101	-56.38
3679.847	-57.38
3682.591	-59.38
3685.333	-62.38
3688.073	-63.38
3690.811	-65.38
3693.547	-64.38
3696.281	-69.38
3699.013	-71.38
3701.742	-70.38
3704.47	-72.38
3707.195	-76.38
3709.919	-75.38
3712.64	-73.38
3715.359	-71.38
3718.076	-77.38
3720.792	-82.38
3723.505	-78.38
3726.216	-79.38
3728.925	-78.38
3731.632	-78.38
3734.336	-79.38
3737.039	-85.38
3739.74	-83.38
3742.439	-85.38
3745.136	-86.38
3747.83	-84.38
3750.523	-86.38
3753.213	-84.38
3755.902	-84.38
3758.589	-84.38
3761.273	-87.38
3763.956	-84.38
3766.636	-88.38
3769.315	-91.38
3771.991	-91.38
3774.665	-85.38
3777.338	-90.38
3780.008	-90.38
3782.677	-93.38
3785.343	-90.38
3788.007	-89.38
3790.67	-92.38
3793.33	-89.38
3795.989	-90.38
3798.645	-85.38
3801.299	-92.38
3803.952	-93.38
3806.602	-98.38
3809.251	-94.38
3811.897	-91.38
3814.542	-93.38
3817.184	-91.38
3819.825	-94.38
3822.463	-95.38
3825.1	-96.38
3827.735	-99.38
3830.367	-94.38
3832.998	-99.38
3835.627	-93.38
3838.253	-93.38
3840.878	-94.38
3843.501	-95.38
3846.122	-96.38
3848.741	-102.38
3851.358	-94.38
3853.973	-98.38
3856.586	-97.38
3859.197	-94.38
3861.806	-98.38
3864.414	-100.38
3867.019	-98.38
3869.622	-98.38
3872.224	-96.38
3874.823	-93.38
3877.421	-91.38
3880.016	-89.38
3882.61	-85.38
3885.202	-88.38
3887.792	-92.38
3890.38	-96.38
3892.966	-99.38
3895.55	-101.38
3898.132	-100.38
3900.713	-99.38
3903.291	-97.38
3905.868	-96.38
3908.442	-98.38
3911.015	-98.38
3913.586	-99.38
3916.155	-99.38
3918.722	-99.38
3921.287	-97.38
3923.85	-100.38
3926.411	-99.38
3928.971	-103.38
3931.528	-104.38
3934.084	-103.38
3936.638	-105.38
3939.19	-101.38
3941.74	-101.38
3944.288	-99.38
3946.834	-97.38
3949.378	-99.38
3951.921	-96.38
3954.462	-102.38
3957	-98.38
3959.537	-103.38
3962.072	-104.38
3964.606	-106.38
3967.137	-102.38
3969.667	-101.38
3972.194	-102.38
3974.72	-104.38
3977.244	-101.38
3979.766	-98.38
3982.286	-95.38
3984.805	-94.38
3987.321	-97.38
3989.836	-96.38
3992.349	-102.38
3994.86	-98.38
3997.369	-99.38
3999.877	-99.38
4002.382	-98.38
4004.886	-98.38
4007.388	-96.38
4009.888	-100.38
4012.386	-98.38
4014.883	-98.38
4017.377	-101.38
4019.87	-99.38
4022.361	-97.38
4024.85	-102.38
4027.338	-100.38
4029.823	-98.38
4032.307	-98.38
4034.789	-100.38
4037.269	-101.38
4039.747	-100.38
4042.224	-105.38
4044.699	-104.38
4047.172	-98.38
4049.643	-97.38
4052.112	-101.38
4054.58	-99.38
4057.046	-97.38
4059.51	-101.38
4061.972	-102.38
4064.432	-101.38
4066.891	-99.38
4069.348	-98.38
4071.803	-103.38
4074.256	-98.38
4076.708	-96.38
4079.158	-102.38
4081.606	-101.38
4084.052	-104.38
4086.497	-98.38
4088.939	-98.38
4091.38	-99.38
4093.819	-99.38
4096.257	-105.38
4098.693	-103.38
4101.127	-105.38
4103.559	-107.38
4105.989	-74.38
4108.418	-65.38
4110.845	-62.38
4113.27	-58.38
4115.694	-51.38
4118.115	-42.38
4120.535	-97.38
4122.954	-101.38
4125.37	-100.38
4127.785	-102.38
4130.198	-101.38
4132.609	-103.38
4135.019	-104.38
4137.427	-105.38
4139.833	-100.38
4142.237	-100.38
