Data from 1CFU1_A_RamanShift_1.txt Node
Date: Mon Jan 23 13:54:02 IST 2017
User: aro
Spectrometer: QEPB0276
Trigger mode: 0
Integration Time (sec): 5.000000E0
Scans to average: 1
Electric dark correction enabled: true
Nonlinearity correction enabled: false
Boxcar width: 0
XAxis mode: Raman Shifts
Number of Pixels in Spectrum: 1044
>>>>>Begin Spectral Data<<<<<
160.701	-29.62
166.742	0.38
172.777	94.38
178.805	363.38
184.826	1019.38
190.841	2111.38
196.849	3352.38
202.85	4183.38
208.845	4360.38
214.833	4246.38
220.815	4088.38
226.789	3955.38
232.758	3846.38
238.719	3735.38
244.674	3590.38
250.623	3431.38
256.565	3250.38
262.5	3114.38
268.429	2998.38
274.351	2844.38
280.267	2731.38
286.176	2648.38
292.079	2548.38
297.975	2457.38
303.865	2381.38
309.748	2299.38
315.625	2263.38
321.495	2196.38
327.359	2176.38
333.217	2157.38
339.068	2111.38
344.912	2121.38
350.751	2112.38
356.583	2103.38
362.408	2112.38
368.227	2087.38
374.04	2125.38
379.847	2103.38
385.647	2116.38
391.44	2122.38
397.228	2149.38
403.009	2167.38
408.784	2159.38
414.553	2182.38
420.315	2191.38
426.071	2182.38
431.821	2192.38
437.565	2164.38
443.302	2168.38
449.033	2146.38
454.758	2178.38
460.477	2160.38
466.189	2127.38
471.896	2120.38
477.596	2124.38
483.29	2100.38
488.978	2081.38
494.66	2088.38
500.335	2049.38
506.005	2022.38
511.668	1990.38
517.325	1956.38
522.977	1927.38
528.622	1898.38
534.261	1883.38
539.894	1867.38
545.521	1860.38
551.141	1837.38
556.756	1816.38
562.365	1808.38
567.968	1807.38
573.565	1796.38
579.155	1768.38
584.74	1769.38
590.319	1770.38
595.892	1750.38
601.459	1746.38
607.02	1737.38
612.575	1709.38
618.124	1684.38
623.667	1662.38
629.204	1666.38
634.735	1661.38
640.261	1645.38
645.781	1639.38
651.294	1608.38
656.802	1596.38
662.304	1602.38
667.8	1574.38
673.29	1606.38
678.775	1601.38
684.254	1593.38
689.726	1594.38
695.193	1576.38
700.655	1562.38
706.11	1550.38
711.56	1524.38
717.004	1534.38
722.442	1532.38
727.874	1515.38
733.301	1511.38
738.722	1494.38
744.137	1487.38
749.547	1480.38
754.951	1484.38
760.349	1487.38
765.741	1487.38
771.128	1481.38
776.509	1465.38
781.885	1472.38
787.254	1490.38
792.618	1461.38
797.977	1437.38
803.33	1418.38
808.677	1434.38
814.019	1411.38
819.355	1383.38
824.686	1401.38
830.011	1368.38
835.33	1368.38
840.644	1370.38
845.952	1363.38
851.255	1360.38
856.552	1347.38
861.844	1347.38
867.13	1329.38
872.41	1333.38
877.686	1313.38
882.955	1306.38
888.219	1271.38
893.478	1254.38
898.731	1235.38
903.979	1215.38
909.221	1199.38
914.458	1201.38
919.69	1195.38
924.916	1215.38
930.136	1184.38
935.351	1195.38
940.561	1184.38
945.766	1172.38
950.965	1165.38
956.158	1162.38
961.347	1154.38
966.529	1145.38
971.707	1118.38
976.879	1090.38
982.046	1089.38
987.208	1093.38
992.364	1086.38
997.515	1097.38
1002.66	1103.38
1007.801	1106.38
1012.936	1114.38
1018.066	1125.38
1023.19	1124.38
1028.309	1132.38
1033.423	1119.38
1038.532	1120.38
1043.636	1120.38
1048.734	1126.38
1053.827	1088.38
1058.915	1080.38
1063.998	1074.38
1069.075	1074.38
1074.147	1074.38
1079.214	1087.38
1084.276	1101.38
1089.333	1103.38
1094.385	1105.38
1099.431	1111.38
1104.472	1112.38
1109.509	1105.38
1114.54	1094.38
1119.565	1074.38
1124.586	1082.38
1129.602	1058.38
1134.613	1065.38
1139.618	1062.38
1144.619	1062.38
1149.614	1067.38
1154.604	1064.38
1159.589	1063.38
1164.57	1077.38
1169.545	1071.38
1174.515	1068.38
1179.48	1071.38
1184.44	1063.38
1189.395	1059.38
1194.345	1051.38
1199.29	1044.38
1204.23	1049.38
1209.165	1062.38
1214.095	1054.38
1219.021	1075.38
1223.941	1080.38
1228.856	1086.38
1233.766	1080.38
1238.672	1100.38
1243.572	1106.38
1248.467	1087.38
1253.358	1062.38
1258.244	1048.38
1263.124	1030.38
1268	1028.38
1272.871	1010.38
1277.737	1009.38
1282.599	1012.38
1287.455	993.38
1292.306	1011.38
1297.153	1023.38
1301.995	1032.38
1306.832	1028.38
1311.664	1047.38
1316.491	1036.38
1321.314	1054.38
1326.132	1041.38
1330.945	1009.38
1335.753	1014.38
1340.556	999.38
1345.354	979.38
1350.148	976.38
1354.937	972.38
1359.722	981.38
1364.501	967.38
1369.276	955.38
1374.046	943.38
1378.811	923.38
1383.572	915.38
1388.327	922.38
1393.079	915.38
1397.825	925.38
1402.567	922.38
1407.304	887.38
1412.036	906.38
1416.764	905.38
1421.487	909.38
1426.205	921.38
1430.919	913.38
1435.628	923.38
1440.333	944.38
1445.032	934.38
1449.727	956.38
1454.418	963.38
1459.104	955.38
1463.785	968.38
1468.462	954.38
1473.134	933.38
1477.802	935.38
1482.465	939.38
1487.123	926.38
1491.777	919.38
1496.426	924.38
1501.071	948.38
1505.711	940.38
1510.347	951.38
1514.978	963.38
1519.604	968.38
1524.226	971.38
1528.844	979.38
1533.457	965.38
1538.065	966.38
1542.669	960.38
1547.269	957.38
1551.864	960.38
1556.454	968.38
1561.041	978.38
1565.622	987.38
1570.199	1015.38
1574.772	1027.38
1579.34	1045.38
1583.904	1077.38
1588.464	1068.38
1593.019	1096.38
1597.569	1119.38
1602.115	1124.38
1606.657	1139.38
1611.195	1149.38
1615.728	1166.38
1620.256	1169.38
1624.78	1183.38
1629.3	1193.38
1633.816	1227.38
1638.327	1242.38
1642.834	1268.38
1647.336	1268.38
1651.834	1278.38
1656.328	1294.38
1660.817	1266.38
1665.302	1236.38
1669.783	1226.38
1674.259	1195.38
1678.732	1171.38
1683.199	1124.38
1687.663	1089.38
1692.122	1044.38
1696.577	1009.38
1701.028	954.38
1705.474	904.38
1709.917	863.38
1714.355	856.38
1718.788	843.38
1723.218	841.38
1727.643	822.38
1732.064	799.38
1736.481	787.38
1740.893	758.38
1745.301	729.38
1749.705	721.38
1754.105	694.38
1758.501	693.38
1762.893	678.38
1767.28	659.38
1771.663	661.38
1776.042	664.38
1780.417	654.38
1784.787	663.38
1789.154	664.38
1793.516	664.38
1797.874	652.38
1802.228	670.38
1806.578	642.38
1810.924	620.38
1815.266	598.38
1819.603	608.38
1823.937	596.38
1828.266	582.38
1832.591	587.38
1836.913	581.38
1841.23	591.38
1845.543	586.38
1849.852	587.38
1854.156	584.38
1858.457	578.38
1862.754	596.38
1867.047	593.38
1871.335	594.38
1875.62	609.38
1879.9	597.38
1884.177	607.38
1888.449	599.38
1892.718	600.38
1896.982	611.38
1901.243	599.38
1905.499	597.38
1909.752	592.38
1914	598.38
1918.245	591.38
1922.485	599.38
1926.722	607.38
1930.954	591.38
1935.183	611.38
1939.408	597.38
1943.628	614.38
1947.845	602.38
1952.058	597.38
1956.267	595.38
1960.472	587.38
1964.673	580.38
1968.87	576.38
1973.063	566.38
1977.252	564.38
1981.438	560.38
1985.619	561.38
1989.797	560.38
1993.971	564.38
1998.14	562.38
2002.306	573.38
2006.469	580.38
2010.627	574.38
2014.781	579.38
2018.932	582.38
2023.078	566.38
2027.221	582.38
2031.36	574.38
2035.495	560.38
2039.627	559.38
2043.754	568.38
2047.878	571.38
2051.998	554.38
2056.114	569.38
2060.226	577.38
2064.334	566.38
2068.439	573.38
2072.54	571.38
2076.637	588.38
2080.73	582.38
2084.82	593.38
2088.906	587.38
2092.988	583.38
2097.066	592.38
2101.14	571.38
2105.211	560.38
2109.278	575.38
2113.342	567.38
2117.401	564.38
2121.457	561.38
2125.509	545.38
2129.558	548.38
2133.602	541.38
2137.643	550.38
2141.681	550.38
2145.714	546.38
2149.744	544.38
2153.77	535.38
2157.793	534.38
2161.812	532.38
2165.827	519.38
2169.838	516.38
2173.846	507.38
2177.851	499.38
2181.851	498.38
2185.848	486.38
2189.841	488.38
2193.831	473.38
2197.817	478.38
2201.799	481.38
2205.778	469.38
2209.753	468.38
2213.725	456.38
2217.693	463.38
2221.657	479.38
2225.618	475.38
2229.575	460.38
2233.529	453.38
2237.479	460.38
2241.425	453.38
2245.368	438.38
2249.307	440.38
2253.243	436.38
2257.175	419.38
2261.104	415.38
2265.029	414.38
2268.95	406.38
2272.868	405.38
2276.783	402.38
2280.694	394.38
2284.601	388.38
2288.505	386.38
2292.405	382.38
2296.302	365.38
2300.195	374.38
2304.085	366.38
2307.971	355.38
2311.854	348.38
2315.734	346.38
2319.609	334.38
2323.482	328.38
2327.351	334.38
2331.216	324.38
2335.078	327.38
2338.937	325.38
2342.792	320.38
2346.643	313.38
2350.492	318.38
2354.336	312.38
2358.178	315.38
2362.015	317.38
2365.85	326.38
2369.681	317.38
2373.508	310.38
2377.333	314.38
2381.153	317.38
2384.971	309.38
2388.785	319.38
2392.595	316.38
2396.402	312.38
2400.206	311.38
2404.007	307.38
2407.804	308.38
2411.597	297.38
2415.388	300.38
2419.174	307.38
2422.958	298.38
2426.738	298.38
2430.515	298.38
2434.289	296.38
2438.059	305.38
2441.825	301.38
2445.589	288.38
2449.349	293.38
2453.106	291.38
2456.859	285.38
2460.61	286.38
2464.356	286.38
2468.1	278.38
2471.84	276.38
2475.577	280.38
2479.311	274.38
2483.041	273.38
2486.768	280.38
2490.492	279.38
2494.213	276.38
2497.93	281.38
2501.644	268.38
2505.355	283.38
2509.062	270.38
2512.766	278.38
2516.467	285.38
2520.165	276.38
2523.859	269.38
2527.551	270.38
2531.239	260.38
2534.923	258.38
2538.605	261.38
2542.283	257.38
2545.958	259.38
2549.63	256.38
2553.299	260.38
2556.964	252.38
2560.626	250.38
2564.285	243.38
2567.941	253.38
2571.594	248.38
2575.243	247.38
2578.89	243.38
2582.533	241.38
2586.173	240.38
2589.809	236.38
2593.443	238.38
2597.073	232.38
2600.701	223.38
2604.325	233.38
2607.946	229.38
2611.564	241.38
2615.178	222.38
2618.79	227.38
2622.398	219.38
2626.004	214.38
2629.606	223.38
2633.205	222.38
2636.801	225.38
2640.394	213.38
2643.983	210.38
2647.57	210.38
2651.153	199.38
2654.734	205.38
2658.311	207.38
2661.885	200.38
2665.456	199.38
2669.025	206.38
2672.589	193.38
2676.151	197.38
2679.71	191.38
2683.266	190.38
2686.819	181.38
2690.368	184.38
2693.915	190.38
2697.458	187.38
2700.999	176.38
2704.536	177.38
2708.071	184.38
2711.602	186.38
2715.13	176.38
2718.656	180.38
2722.178	185.38
2725.697	178.38
2729.214	174.38
2732.727	178.38
2736.237	178.38
2739.744	173.38
2743.249	187.38
2746.75	186.38
2750.248	183.38
2753.743	183.38
2757.236	183.38
2760.725	185.38
2764.211	175.38
2767.695	170.38
2771.175	168.38
2774.652	177.38
2778.127	165.38
2781.598	165.38
2785.067	160.38
2788.532	169.38
2791.995	169.38
2795.455	176.38
2798.911	180.38
2802.365	175.38
2805.816	177.38
2809.264	179.38
2812.709	182.38
2816.151	181.38
2819.59	175.38
2823.026	176.38
2826.46	182.38
2829.89	182.38
2833.318	180.38
2836.742	177.38
2840.164	186.38
2843.583	184.38
2846.999	190.38
2850.412	190.38
2853.822	191.38
2857.229	192.38
2860.634	201.38
2864.035	200.38
2867.434	207.38
2870.83	204.38
2874.223	208.38
2877.613	209.38
2881	209.38
2884.385	209.38
2887.766	207.38
2891.145	211.38
2894.521	222.38
2897.894	211.38
2901.264	217.38
2904.631	221.38
2907.996	227.38
2911.358	228.38
2914.717	227.38
2918.073	229.38
2921.426	240.38
2924.777	229.38
2928.124	244.38
2931.469	239.38
2934.811	254.38
2938.15	259.38
2941.487	261.38
2944.821	264.38
2948.152	279.38
2951.48	280.38
2954.805	278.38
2958.128	290.38
2961.447	293.38
2964.765	292.38
2968.079	298.38
2971.39	305.38
2974.699	313.38
2978.005	320.38
2981.308	319.38
2984.609	338.38
2987.907	347.38
2991.202	362.38
2994.494	365.38
2997.784	375.38
3001.07	379.38
3004.355	393.38
3007.636	407.38
3010.915	413.38
3014.191	428.38
3017.464	431.38
3020.734	430.38
3024.002	446.38
3027.267	455.38
3030.53	459.38
3033.789	470.38
3037.046	482.38
3040.301	489.38
3043.552	503.38
3046.801	513.38
3050.048	528.38
3053.291	543.38
3056.532	560.38
3059.771	576.38
3063.006	597.38
3066.239	619.38
3069.469	634.38
3072.697	662.38
3075.922	679.38
3079.144	681.38
3082.364	690.38
3085.581	711.38
3088.795	734.38
3092.007	751.38
3095.216	769.38
3098.423	794.38
3101.627	794.38
3104.828	826.38
3108.026	831.38
3111.222	850.38
3114.416	871.38
3117.607	908.38
3120.795	916.38
3123.98	938.38
3127.163	965.38
3130.344	986.38
3133.521	1004.38
3136.696	1034.38
3139.869	1062.38
3143.039	1072.38
3146.206	1092.38
3149.371	1096.38
3152.533	1103.38
3155.693	1113.38
3158.85	1115.38
3162.005	1121.38
3165.157	1143.38
3168.306	1136.38
3171.453	1138.38
3174.597	1146.38
3177.739	1137.38
3180.878	1147.38
3184.014	1164.38
3187.149	1172.38
3190.28	1169.38
3193.409	1166.38
3196.536	1169.38
3199.659	1175.38
3202.781	1167.38
3205.9	1165.38
3209.016	1189.38
3212.13	1174.38
3215.241	1162.38
3218.35	1157.38
3221.456	1162.38
3224.56	1152.38
3227.661	1126.38
3230.76	1127.38
3233.856	1100.38
3236.95	1100.38
3240.041	1086.38
3243.13	1083.38
3246.216	1077.38
3249.3	1083.38
3252.382	1050.38
3255.46	1051.38
3258.537	1058.38
3261.611	1058.38
3264.682	1055.38
3267.751	1041.38
3270.818	1036.38
3273.882	1038.38
3276.943	1023.38
3280.002	1013.38
3283.059	1011.38
3286.113	997.38
3289.165	980.38
3292.214	958.38
3295.261	946.38
3298.306	935.38
3301.348	935.38
3304.387	905.38
3307.425	901.38
3310.459	886.38
3313.492	878.38
3316.521	857.38
3319.549	853.38
3322.574	850.38
3325.597	837.38
3328.617	835.38
3331.635	823.38
3334.65	836.38
3337.663	823.38
3340.674	809.38
3343.682	813.38
3346.688	800.38
3349.691	810.38
3352.692	798.38
3355.691	801.38
3358.687	795.38
3361.681	798.38
3364.673	774.38
3367.662	768.38
3370.649	757.38
3373.633	741.38
3376.615	728.38
3379.595	720.38
3382.572	707.38
3385.547	710.38
3388.52	696.38
3391.49	680.38
3394.458	682.38
3397.424	664.38
3400.387	663.38
3403.348	644.38
3406.307	660.38
3409.263	651.38
3412.217	635.38
3415.168	633.38
3418.118	616.38
3421.065	607.38
3424.009	600.38
3426.951	593.38
3429.891	581.38
3432.829	564.38
3435.764	567.38
3438.697	555.38
3441.628	532.38
3444.557	533.38
3447.483	517.38
3450.407	504.38
3453.328	482.38
3456.247	475.38
3459.164	454.38
3462.079	449.38
3464.991	436.38
3467.902	419.38
3470.809	397.38
3473.715	389.38
3476.618	382.38
3479.519	367.38
3482.418	362.38
3485.315	356.38
3488.209	336.38
3491.101	327.38
3493.99	322.38
3496.878	307.38
3499.763	298.38
3502.646	297.38
3505.527	285.38
3508.405	272.38
3511.281	260.38
3514.155	238.38
3517.027	237.38
3519.897	230.38
3522.764	206.38
3525.629	209.38
3528.492	193.38
3531.352	181.38
3534.211	175.38
3537.067	160.38
3539.921	157.38
3542.773	151.38
3545.622	140.38
3548.469	129.38
3551.315	114.38
3554.157	115.38
3556.998	103.38
3559.837	88.38
3562.673	86.38
3565.507	80.38
3568.339	80.38
3571.169	70.38
3573.996	69.38
3576.822	66.38
3579.645	62.38
3582.466	53.38
3585.285	43.38
3588.101	44.38
3590.916	37.38
3593.728	34.38
3596.538	35.38
3599.346	26.38
3602.152	18.38
3604.956	14.38
3607.757	10.38
3610.556	-1.62
3613.354	-3.62
3616.149	-1.62
3618.942	-4.62
3621.732	-8.62
3624.521	-6.62
3627.307	-11.62
3630.092	-18.62
3632.874	-14.62
3635.654	-25.62
3638.432	-18.62
3641.208	-22.62
3643.982	-28.62
3646.753	-32.62
3649.523	-33.62
3652.29	-38.62
3655.055	-45.62
3657.818	-42.62
3660.579	-47.62
3663.338	-48.62
3666.095	-49.62
3668.849	-49.62
3671.602	-56.62
3674.352	-52.62
3677.101	-59.62
3679.847	-60.62
3682.591	-60.62
3685.333	-66.62
3688.073	-64.62
3690.811	-66.62
3693.547	-74.62
3696.281	-72.62
3699.013	-69.62
3701.742	-70.62
3704.47	-70.62
3707.195	-72.62
3709.919	-72.62
3712.64	-73.62
3715.359	-76.62
3718.076	-79.62
3720.792	-84.62
3723.505	-80.62
3726.216	-79.62
3728.925	-81.62
3731.632	-84.62
3734.336	-85.62
3737.039	-87.62
3739.74	-83.62
3742.439	-87.62
3745.136	-88.62
3747.83	-83.62
3750.523	-86.62
3753.213	-83.62
3755.902	-88.62
3758.589	-89.62
3761.273	-87.62
3763.956	-89.62
3766.636	-92.62
3769.315	-91.62
3771.991	-93.62
3774.665	-92.62
3777.338	-90.62
3780.008	-90.62
3782.677	-88.62
3785.343	-89.62
3788.007	-92.62
3790.67	-90.62
3793.33	-94.62
3795.989	-91.62
3798.645	-90.62
3801.299	-92.62
3803.952	-96.62
3806.602	-101.62
3809.251	-98.62
3811.897	-98.62
3814.542	-97.62
3817.184	-94.62
3819.825	-99.62
3822.463	-94.62
3825.1	-96.62
3827.735	-97.62
3830.367	-96.62
3832.998	-101.62
3835.627	-97.62
3838.253	-94.62
3840.878	-98.62
3843.501	-96.62
3846.122	-97.62
3848.741	-103.62
3851.358	-101.62
3853.973	-97.62
3856.586	-100.62
3859.197	-94.62
3861.806	-100.62
3864.414	-97.62
3867.019	-100.62
3869.622	-99.62
3872.224	-98.62
3874.823	-96.62
3877.421	-96.62
3880.016	-94.62
3882.61	-93.62
3885.202	-96.62
3887.792	-97.62
3890.38	-100.62
3892.966	-101.62
3895.55	-99.62
3898.132	-100.62
3900.713	-101.62
3903.291	-102.62
3905.868	-99.62
3908.442	-102.62
3911.015	-101.62
3913.586	-106.62
3916.155	-103.62
3918.722	-104.62
3921.287	-103.62
3923.85	-102.62
3926.411	-104.62
3928.971	-105.62
3931.528	-106.62
3934.084	-105.62
3936.638	-102.62
3939.19	-106.62
3941.74	-101.62
3944.288	-102.62
3946.834	-101.62
3949.378	-105.62
3951.921	-100.62
3954.462	-109.62
3957	-105.62
3959.537	-106.62
3962.072	-108.62
3964.606	-107.62
3967.137	-101.62
3969.667	-101.62
3972.194	-103.62
3974.72	-101.62
3977.244	-99.62
3979.766	-100.62
3982.286	-99.62
3984.805	-99.62
3987.321	-99.62
3989.836	-98.62
3992.349	-104.62
3994.86	-106.62
3997.369	-103.62
3999.877	-103.62
4002.382	-99.62
4004.886	-100.62
4007.388	-98.62
4009.888	-100.62
4012.386	-95.62
4014.883	-100.62
4017.377	-103.62
4019.87	-98.62
4022.361	-100.62
4024.85	-102.62
4027.338	-101.62
4029.823	-101.62
4032.307	-101.62
4034.789	-105.62
4037.269	-105.62
4039.747	-104.62
4042.224	-106.62
4044.699	-105.62
4047.172	-99.62
4049.643	-100.62
4052.112	-101.62
4054.58	-103.62
4057.046	-99.62
4059.51	-104.62
4061.972	-104.62
4064.432	-108.62
4066.891	-104.62
4069.348	-104.62
4071.803	-102.62
4074.256	-102.62
4076.708	-98.62
4079.158	-105.62
4081.606	-101.62
4084.052	-106.62
4086.497	-100.62
4088.939	-102.62
4091.38	-99.62
4093.819	-101.62
4096.257	-106.62
4098.693	-105.62
4101.127	-107.62
4103.559	-107.62
4105.989	-73.62
4108.418	-67.62
4110.845	-65.62
4113.27	-62.62
4115.694	-57.62
4118.115	-46.62
4120.535	-101.62
4122.954	-99.62
4125.37	-102.62
4127.785	-103.62
4130.198	-107.62
4132.609	-104.62
4135.019	-108.62
4137.427	-108.62
4139.833	-105.62
4142.237	-105.62
