Data from 1CFU3_A_RamanShift_1.txt Node
Date: Mon Jan 23 13:56:27 IST 2017
User: aro
Spectrometer: QEPB0276
Trigger mode: 0
Integration Time (sec): 5.000000E0
Scans to average: 1
Electric dark correction enabled: true
Nonlinearity correction enabled: false
Boxcar width: 0
XAxis mode: Raman Shifts
Number of Pixels in Spectrum: 1044
>>>>>Begin Spectral Data<<<<<
160.701	-28.75
166.742	3.25
172.777	89.25
178.805	363.25
184.826	1016.25
190.841	2064.25
196.849	3329.25
202.85	4147.25
208.845	4353.25
214.833	4210.25
220.815	4045.25
226.789	3925.25
232.758	3809.25
238.719	3674.25
244.674	3528.25
250.623	3399.25
256.565	3247.25
262.5	3100.25
268.429	2930.25
274.351	2819.25
280.267	2711.25
286.176	2595.25
292.079	2504.25
297.975	2410.25
303.865	2362.25
309.748	2292.25
315.625	2222.25
321.495	2171.25
327.359	2134.25
333.217	2127.25
339.068	2105.25
344.912	2077.25
350.751	2076.25
356.583	2090.25
362.408	2081.25
368.227	2073.25
374.04	2068.25
379.847	2078.25
385.647	2107.25
391.44	2101.25
397.228	2106.25
403.009	2121.25
408.784	2155.25
414.553	2159.25
420.315	2137.25
426.071	2152.25
431.821	2152.25
437.565	2147.25
443.302	2154.25
449.033	2156.25
454.758	2138.25
460.477	2123.25
466.189	2119.25
471.896	2119.25
477.596	2092.25
483.29	2071.25
488.978	2074.25
494.66	2049.25
500.335	2039.25
506.005	2017.25
511.668	1959.25
517.325	1931.25
522.977	1910.25
528.622	1873.25
534.261	1875.25
539.894	1850.25
545.521	1840.25
551.141	1827.25
556.756	1810.25
562.365	1794.25
567.968	1778.25
573.565	1780.25
579.155	1762.25
584.74	1751.25
590.319	1739.25
595.892	1740.25
601.459	1726.25
607.02	1725.25
612.575	1688.25
618.124	1666.25
623.667	1654.25
629.204	1635.25
634.735	1622.25
640.261	1621.25
645.781	1602.25
651.294	1612.25
656.802	1592.25
662.304	1583.25
667.8	1576.25
673.29	1574.25
678.775	1577.25
684.254	1554.25
689.726	1558.25
695.193	1554.25
700.655	1537.25
706.11	1514.25
711.56	1500.25
717.004	1519.25
722.442	1505.25
727.874	1483.25
733.301	1493.25
738.722	1458.25
744.137	1457.25
749.547	1441.25
754.951	1458.25
760.349	1455.25
765.741	1455.25
771.128	1454.25
776.509	1432.25
781.885	1459.25
787.254	1464.25
792.618	1434.25
797.977	1412.25
803.33	1433.25
808.677	1417.25
814.019	1392.25
819.355	1378.25
824.686	1368.25
830.011	1351.25
835.33	1342.25
840.644	1349.25
845.952	1340.25
851.255	1347.25
856.552	1326.25
861.844	1311.25
867.13	1323.25
872.41	1312.25
877.686	1299.25
882.955	1305.25
888.219	1270.25
893.478	1247.25
898.731	1233.25
903.979	1188.25
909.221	1188.25
914.458	1198.25
919.69	1169.25
924.916	1179.25
930.136	1172.25
935.351	1168.25
940.561	1175.25
945.766	1155.25
950.965	1165.25
956.158	1155.25
961.347	1132.25
966.529	1096.25
971.707	1090.25
976.879	1075.25
982.046	1070.25
987.208	1075.25
992.364	1063.25
997.515	1078.25
1002.66	1077.25
1007.801	1092.25
1012.936	1090.25
1018.066	1101.25
1023.19	1119.25
1028.309	1109.25
1033.423	1119.25
1038.532	1096.25
1043.636	1106.25
1048.734	1089.25
1053.827	1079.25
1058.915	1072.25
1063.998	1055.25
1069.075	1057.25
1074.147	1060.25
1079.214	1058.25
1084.276	1077.25
1089.333	1092.25
1094.385	1098.25
1099.431	1098.25
1104.472	1091.25
1109.509	1087.25
1114.54	1084.25
1119.565	1065.25
1124.586	1051.25
1129.602	1024.25
1134.613	1024.25
1139.618	1034.25
1144.619	1034.25
1149.614	1036.25
1154.604	1047.25
1159.589	1046.25
1164.57	1040.25
1169.545	1060.25
1174.515	1053.25
1179.48	1033.25
1184.44	1041.25
1189.395	1030.25
1194.345	1023.25
1199.29	1020.25
1204.23	1029.25
1209.165	1022.25
1214.095	1036.25
1219.021	1045.25
1223.941	1050.25
1228.856	1065.25
1233.766	1056.25
1238.672	1071.25
1243.572	1065.25
1248.467	1063.25
1253.358	1060.25
1258.244	1031.25
1263.124	1025.25
1268	1004.25
1272.871	992.25
1277.737	975.25
1282.599	991.25
1287.455	999.25
1292.306	998.25
1297.153	990.25
1301.995	1007.25
1306.832	1019.25
1311.664	1028.25
1316.491	1009.25
1321.314	1013.25
1326.132	1011.25
1330.945	1006.25
1335.753	997.25
1340.556	989.25
1345.354	964.25
1350.148	971.25
1354.937	967.25
1359.722	960.25
1364.501	933.25
1369.276	944.25
1374.046	928.25
1378.811	928.25
1383.572	912.25
1388.327	914.25
1393.079	906.25
1397.825	911.25
1402.567	893.25
1407.304	888.25
1412.036	893.25
1416.764	894.25
1421.487	888.25
1426.205	883.25
1430.919	903.25
1435.628	912.25
1440.333	926.25
1445.032	926.25
1449.727	933.25
1454.418	933.25
1459.104	951.25
1463.785	941.25
1468.462	939.25
1473.134	917.25
1477.802	918.25
1482.465	896.25
1487.123	915.25
1491.777	908.25
1496.426	908.25
1501.071	923.25
1505.711	927.25
1510.347	934.25
1514.978	959.25
1519.604	955.25
1524.226	958.25
1528.844	948.25
1533.457	938.25
1538.065	932.25
1542.669	952.25
1547.269	941.25
1551.864	950.25
1556.454	961.25
1561.041	962.25
1565.622	956.25
1570.199	977.25
1574.772	1013.25
1579.34	1025.25
1583.904	1038.25
1588.464	1063.25
1593.019	1068.25
1597.569	1102.25
1602.115	1098.25
1606.657	1111.25
1611.195	1124.25
1615.728	1125.25
1620.256	1149.25
1624.78	1169.25
1629.3	1191.25
1633.816	1202.25
1638.327	1225.25
1642.834	1250.25
1647.336	1253.25
1651.834	1249.25
1656.328	1249.25
1660.817	1243.25
1665.302	1223.25
1669.783	1189.25
1674.259	1165.25
1678.732	1135.25
1683.199	1110.25
1687.663	1070.25
1692.122	1030.25
1696.577	988.25
1701.028	938.25
1705.474	893.25
1709.917	865.25
1714.355	835.25
1718.788	824.25
1723.218	827.25
1727.643	799.25
1732.064	797.25
1736.481	764.25
1740.893	734.25
1745.301	714.25
1749.705	710.25
1754.105	689.25
1758.501	664.25
1762.893	647.25
1767.28	634.25
1771.663	647.25
1776.042	639.25
1780.417	647.25
1784.787	647.25
1789.154	651.25
1793.516	647.25
1797.874	645.25
1802.228	632.25
1806.578	611.25
1810.924	608.25
1815.266	586.25
1819.603	566.25
1823.937	572.25
1828.266	574.25
1832.591	577.25
1836.913	571.25
1841.23	574.25
1845.543	554.25
1849.852	573.25
1854.156	574.25
1858.457	583.25
1862.754	576.25
1867.047	584.25
1871.335	582.25
1875.62	571.25
1879.9	588.25
1884.177	585.25
1888.449	587.25
1892.718	578.25
1896.982	585.25
1901.243	585.25
1905.499	583.25
1909.752	578.25
1914	589.25
1918.245	583.25
1922.485	581.25
1926.722	590.25
1930.954	591.25
1935.183	593.25
1939.408	591.25
1943.628	593.25
1947.845	586.25
1952.058	575.25
1956.267	561.25
1960.472	560.25
1964.673	565.25
1968.87	561.25
1973.063	549.25
1977.252	556.25
1981.438	561.25
1985.619	548.25
1989.797	545.25
1993.971	548.25
1998.14	553.25
2002.306	556.25
2006.469	566.25
2010.627	557.25
2014.781	553.25
2018.932	558.25
2023.078	566.25
2027.221	568.25
2031.36	553.25
2035.495	544.25
2039.627	549.25
2043.754	546.25
2047.878	560.25
2051.998	543.25
2056.114	548.25
2060.226	550.25
2064.334	563.25
2068.439	561.25
2072.54	565.25
2076.637	556.25
2080.73	565.25
2084.82	573.25
2088.906	577.25
2092.988	572.25
2097.066	571.25
2101.14	568.25
2105.211	564.25
2109.278	566.25
2113.342	552.25
2117.401	548.25
2121.457	541.25
2125.509	542.25
2129.558	540.25
2133.602	532.25
2137.643	534.25
2141.681	525.25
2145.714	538.25
2149.744	522.25
2153.77	518.25
2157.793	518.25
2161.812	515.25
2165.827	505.25
2169.838	504.25
2173.846	496.25
2177.851	488.25
2181.851	483.25
2185.848	473.25
2189.841	468.25
2193.831	468.25
2197.817	457.25
2201.799	456.25
2205.778	453.25
2209.753	457.25
2213.725	459.25
2217.693	452.25
2221.657	462.25
2225.618	442.25
2229.575	442.25
2233.529	451.25
2237.479	456.25
2241.425	438.25
2245.368	432.25
2249.307	427.25
2253.243	419.25
2257.175	414.25
2261.104	411.25
2265.029	403.25
2268.95	396.25
2272.868	392.25
2276.783	386.25
2280.694	381.25
2284.601	378.25
2288.505	369.25
2292.405	362.25
2296.302	371.25
2300.195	357.25
2304.085	354.25
2307.971	343.25
2311.854	345.25
2315.734	336.25
2319.609	317.25
2323.482	330.25
2327.351	312.25
2331.216	313.25
2335.078	315.25
2338.937	315.25
2342.792	316.25
2346.643	303.25
2350.492	307.25
2354.336	297.25
2358.178	308.25
2362.015	313.25
2365.85	299.25
2369.681	309.25
2373.508	315.25
2377.333	309.25
2381.153	307.25
2384.971	301.25
2388.785	303.25
2392.595	293.25
2396.402	293.25
2400.206	303.25
2404.007	298.25
2407.804	292.25
2411.597	291.25
2415.388	291.25
2419.174	293.25
2422.958	289.25
2426.738	294.25
2430.515	293.25
2434.289	287.25
2438.059	284.25
2441.825	287.25
2445.589	289.25
2449.349	273.25
2453.106	280.25
2456.859	271.25
2460.61	280.25
2464.356	272.25
2468.1	277.25
2471.84	281.25
2475.577	272.25
2479.311	263.25
2483.041	264.25
2486.768	269.25
2490.492	269.25
2494.213	268.25
2497.93	269.25
2501.644	264.25
2505.355	272.25
2509.062	262.25
2512.766	271.25
2516.467	261.25
2520.165	269.25
2523.859	257.25
2527.551	261.25
2531.239	253.25
2534.923	254.25
2538.605	255.25
2542.283	254.25
2545.958	241.25
2549.63	245.25
2553.299	254.25
2556.964	247.25
2560.626	241.25
2564.285	242.25
2567.941	246.25
2571.594	231.25
2575.243	239.25
2578.89	229.25
2582.533	232.25
2586.173	233.25
2589.809	227.25
2593.443	233.25
2597.073	219.25
2600.701	231.25
2604.325	222.25
2607.946	224.25
2611.564	221.25
2615.178	221.25
2618.79	222.25
2622.398	213.25
2626.004	210.25
2629.606	205.25
2633.205	210.25
2636.801	207.25
2640.394	213.25
2643.983	200.25
2647.57	206.25
2651.153	198.25
2654.734	204.25
2658.311	194.25
2661.885	189.25
2665.456	190.25
2669.025	200.25
2672.589	190.25
2676.151	190.25
2679.71	188.25
2683.266	182.25
2686.819	184.25
2690.368	182.25
2693.915	178.25
2697.458	185.25
2700.999	173.25
2704.536	166.25
2708.071	172.25
2711.602	175.25
2715.13	170.25
2718.656	170.25
2722.178	175.25
2725.697	175.25
2729.214	172.25
2732.727	175.25
2736.237	181.25
2739.744	175.25
2743.249	181.25
2746.75	181.25
2750.248	175.25
2753.743	178.25
2757.236	172.25
2760.725	172.25
2764.211	171.25
2767.695	168.25
2771.175	166.25
2774.652	163.25
2778.127	164.25
2781.598	155.25
2785.067	157.25
2788.532	160.25
2791.995	167.25
2795.455	161.25
2798.911	166.25
2802.365	172.25
2805.816	161.25
2809.264	170.25
2812.709	171.25
2816.151	175.25
2819.59	171.25
2823.026	166.25
2826.46	177.25
2829.89	181.25
2833.318	182.25
2836.742	172.25
2840.164	178.25
2843.583	185.25
2846.999	186.25
2850.412	182.25
2853.822	188.25
2857.229	184.25
2860.634	194.25
2864.035	196.25
2867.434	200.25
2870.83	201.25
2874.223	206.25
2877.613	213.25
2881	203.25
2884.385	222.25
2887.766	201.25
2891.145	205.25
2894.521	211.25
2897.894	207.25
2901.264	221.25
2904.631	219.25
2907.996	222.25
2911.358	217.25
2914.717	228.25
2918.073	222.25
2921.426	228.25
2924.777	227.25
2928.124	243.25
2931.469	239.25
2934.811	253.25
2938.15	257.25
2941.487	260.25
2944.821	266.25
2948.152	264.25
2951.48	267.25
2954.805	268.25
2958.128	291.25
2961.447	286.25
2964.765	298.25
2968.079	299.25
2971.39	304.25
2974.699	306.25
2978.005	316.25
2981.308	326.25
2984.609	330.25
2987.907	345.25
2991.202	357.25
2994.494	366.25
2997.784	383.25
3001.07	379.25
3004.355	393.25
3007.636	404.25
3010.915	412.25
3014.191	425.25
3017.464	428.25
3020.734	436.25
3024.002	451.25
3027.267	446.25
3030.53	451.25
3033.789	464.25
3037.046	473.25
3040.301	489.25
3043.552	501.25
3046.801	506.25
3050.048	527.25
3053.291	534.25
3056.532	552.25
3059.771	576.25
3063.006	586.25
3066.239	613.25
3069.469	640.25
3072.697	646.25
3075.922	672.25
3079.144	679.25
3082.364	703.25
3085.581	718.25
3088.795	735.25
3092.007	750.25
3095.216	763.25
3098.423	792.25
3101.627	803.25
3104.828	817.25
3108.026	840.25
3111.222	836.25
3114.416	883.25
3117.607	889.25
3120.795	916.25
3123.98	935.25
3127.163	964.25
3130.344	982.25
3133.521	989.25
3136.696	1036.25
3139.869	1045.25
3143.039	1065.25
3146.206	1082.25
3149.371	1092.25
3152.533	1098.25
3155.693	1113.25
3158.85	1116.25
3162.005	1111.25
3165.157	1148.25
3168.306	1130.25
3171.453	1135.25
3174.597	1142.25
3177.739	1137.25
3180.878	1148.25
3184.014	1149.25
3187.149	1143.25
3190.28	1152.25
3193.409	1170.25
3196.536	1163.25
3199.659	1153.25
3202.781	1172.25
3205.9	1184.25
3209.016	1181.25
3212.13	1176.25
3215.241	1173.25
3218.35	1174.25
3221.456	1152.25
3224.56	1133.25
3227.661	1125.25
3230.76	1127.25
3233.856	1100.25
3236.95	1094.25
3240.041	1099.25
3243.13	1080.25
3246.216	1070.25
3249.3	1076.25
3252.382	1069.25
3255.46	1056.25
3258.537	1051.25
3261.611	1050.25
3264.682	1046.25
3267.751	1043.25
3270.818	1033.25
3273.882	1027.25
3276.943	1025.25
3280.002	1023.25
3283.059	1001.25
3286.113	993.25
3289.165	984.25
3292.214	977.25
3295.261	950.25
3298.306	933.25
3301.348	914.25
3304.387	907.25
3307.425	895.25
3310.459	884.25
3313.492	869.25
3316.521	855.25
3319.549	858.25
3322.574	843.25
3325.597	847.25
3328.617	827.25
3331.635	834.25
3334.65	833.25
3337.663	823.25
3340.674	823.25
3343.682	799.25
3346.688	802.25
3349.691	806.25
3352.692	797.25
3355.691	799.25
3358.687	777.25
3361.681	786.25
3364.673	772.25
3367.662	764.25
3370.649	759.25
3373.633	741.25
3376.615	735.25
3379.595	714.25
3382.572	712.25
3385.547	695.25
3388.52	698.25
3391.49	683.25
3394.458	684.25
3397.424	652.25
3400.387	649.25
3403.348	645.25
3406.307	633.25
3409.263	635.25
3412.217	621.25
3415.168	630.25
3418.118	611.25
3421.065	603.25
3424.009	601.25
3426.951	604.25
3429.891	588.25
3432.829	579.25
3435.764	556.25
3438.697	552.25
3441.628	536.25
3444.557	522.25
3447.483	499.25
3450.407	496.25
3453.328	485.25
3456.247	462.25
3459.164	460.25
3462.079	441.25
3464.991	431.25
3467.902	417.25
3470.809	405.25
3473.715	393.25
3476.618	369.25
3479.519	368.25
3482.418	360.25
3485.315	337.25
3488.209	338.25
3491.101	332.25
3493.99	308.25
3496.878	303.25
3499.763	294.25
3502.646	297.25
3505.527	280.25
3508.405	283.25
3511.281	261.25
3514.155	245.25
3517.027	235.25
3519.897	233.25
3522.764	218.25
3525.629	208.25
3528.492	196.25
3531.352	178.25
3534.211	177.25
3537.067	163.25
3539.921	154.25
3542.773	143.25
3545.622	140.25
3548.469	125.25
3551.315	112.25
3554.157	115.25
3556.998	104.25
3559.837	103.25
3562.673	90.25
3565.507	83.25
3568.339	85.25
3571.169	73.25
3573.996	76.25
3576.822	64.25
3579.645	63.25
3582.466	54.25
3585.285	50.25
3588.101	36.25
3590.916	39.25
3593.728	32.25
3596.538	23.25
3599.346	19.25
3602.152	19.25
3604.956	14.25
3607.757	12.25
3610.556	2.25
3613.354	3.25
3616.149	0.25
3618.942	-7.75
3621.732	-13.75
3624.521	-8.75
3627.307	-8.75
3630.092	-19.75
3632.874	-14.75
3635.654	-27.75
3638.432	-20.75
3641.208	-27.75
3643.982	-28.75
3646.753	-34.75
3649.523	-34.75
3652.29	-35.75
3655.055	-37.75
3657.818	-43.75
3660.579	-48.75
3663.338	-47.75
3666.095	-50.75
3668.849	-45.75
3671.602	-56.75
3674.352	-55.75
3677.101	-58.75
3679.847	-61.75
3682.591	-67.75
3685.333	-61.75
3688.073	-63.75
3690.811	-61.75
3693.547	-70.75
3696.281	-69.75
3699.013	-68.75
3701.742	-71.75
3704.47	-69.75
3707.195	-75.75
3709.919	-76.75
3712.64	-76.75
3715.359	-77.75
3718.076	-83.75
3720.792	-80.75
3723.505	-81.75
3726.216	-81.75
3728.925	-80.75
3731.632	-85.75
3734.336	-82.75
3737.039	-81.75
3739.74	-81.75
3742.439	-89.75
3745.136	-84.75
3747.83	-88.75
3750.523	-83.75
3753.213	-84.75
3755.902	-84.75
3758.589	-90.75
3761.273	-91.75
3763.956	-90.75
3766.636	-87.75
3769.315	-91.75
3771.991	-90.75
3774.665	-88.75
3777.338	-87.75
3780.008	-88.75
3782.677	-93.75
3785.343	-92.75
3788.007	-92.75
3790.67	-95.75
3793.33	-93.75
3795.989	-90.75
3798.645	-88.75
3801.299	-93.75
3803.952	-99.75
3806.602	-100.75
3809.251	-99.75
3811.897	-95.75
3814.542	-96.75
3817.184	-92.75
3819.825	-95.75
3822.463	-97.75
3825.1	-95.75
3827.735	-101.75
3830.367	-90.75
3832.998	-99.75
3835.627	-98.75
3838.253	-95.75
3840.878	-98.75
3843.501	-100.75
3846.122	-103.75
3848.741	-100.75
3851.358	-100.75
3853.973	-99.75
3856.586	-97.75
3859.197	-95.75
3861.806	-97.75
3864.414	-99.75
3867.019	-98.75
3869.622	-102.75
3872.224	-95.75
3874.823	-97.75
3877.421	-92.75
3880.016	-92.75
3882.61	-87.75
3885.202	-92.75
3887.792	-96.75
3890.38	-98.75
3892.966	-96.75
3895.55	-102.75
3898.132	-97.75
3900.713	-100.75
3903.291	-98.75
3905.868	-97.75
3908.442	-99.75
3911.015	-100.75
3913.586	-101.75
3916.155	-99.75
3918.722	-103.75
3921.287	-101.75
3923.85	-102.75
3926.411	-105.75
3928.971	-104.75
3931.528	-108.75
3934.084	-103.75
3936.638	-105.75
3939.19	-104.75
3941.74	-102.75
3944.288	-103.75
3946.834	-103.75
3949.378	-102.75
3951.921	-100.75
3954.462	-105.75
3957	-105.75
3959.537	-100.75
3962.072	-106.75
3964.606	-105.75
3967.137	-104.75
3969.667	-100.75
3972.194	-103.75
3974.72	-102.75
3977.244	-101.75
3979.766	-98.75
3982.286	-98.75
3984.805	-99.75
3987.321	-100.75
3989.836	-96.75
3992.349	-102.75
3994.86	-101.75
3997.369	-101.75
3999.877	-103.75
4002.382	-99.75
4004.886	-100.75
4007.388	-100.75
4009.888	-102.75
4012.386	-97.75
4014.883	-103.75
4017.377	-105.75
4019.87	-95.75
4022.361	-98.75
4024.85	-99.75
4027.338	-103.75
4029.823	-99.75
4032.307	-98.75
4034.789	-104.75
4037.269	-103.75
4039.747	-102.75
4042.224	-104.75
4044.699	-107.75
4047.172	-103.75
4049.643	-99.75
4052.112	-104.75
4054.58	-102.75
4057.046	-99.75
4059.51	-101.75
4061.972	-103.75
4064.432	-103.75
4066.891	-102.75
4069.348	-99.75
4071.803	-100.75
4074.256	-99.75
4076.708	-101.75
4079.158	-104.75
4081.606	-105.75
4084.052	-104.75
4086.497	-100.75
4088.939	-102.75
4091.38	-100.75
4093.819	-99.75
4096.257	-110.75
4098.693	-103.75
4101.127	-108.75
4103.559	-108.75
4105.989	-68.75
4108.418	-67.75
4110.845	-65.75
4113.27	-62.75
4115.694	-48.75
4118.115	-45.75
4120.535	-99.75
4122.954	-99.75
4125.37	-103.75
4127.785	-103.75
4130.198	-104.75
4132.609	-101.75
4135.019	-105.75
4137.427	-107.75
4139.833	-107.75
4142.237	-105.75
