Data from B.sub_water_100CFUA1_RamanShift_1.txt Node
Date: Wed Mar 08 14:54:22 IST 2017
User: aro
Spectrometer: QEPB0276
Trigger mode: 0
Integration Time (sec): 5.000000E0
Scans to average: 1
Electric dark correction enabled: true
Nonlinearity correction enabled: false
Boxcar width: 0
XAxis mode: Raman Shifts
Number of Pixels in Spectrum: 1044
>>>>>Begin Spectral Data<<<<<
160.701	-33.88
166.742	1.12
172.777	84.12
178.805	354.12
184.826	991.12
190.841	2047.12
196.849	3207.12
202.85	3940.12
208.845	4103.12
214.833	3947.12
220.815	3790.12
226.789	3698.12
232.758	3580.12
238.719	3477.12
244.674	3335.12
250.623	3188.12
256.565	3029.12
262.5	2892.12
268.429	2779.12
274.351	2639.12
280.267	2555.12
286.176	2463.12
292.079	2372.12
297.975	2307.12
303.865	2233.12
309.748	2181.12
315.625	2135.12
321.495	2094.12
327.359	2059.12
333.217	2045.12
339.068	2039.12
344.912	2028.12
350.751	2007.12
356.583	2001.12
362.408	2010.12
368.227	2010.12
374.04	2008.12
379.847	2012.12
385.647	2019.12
391.44	2027.12
397.228	2026.12
403.009	2055.12
408.784	2064.12
414.553	2089.12
420.315	2077.12
426.071	2055.12
431.821	2078.12
437.565	2056.12
443.302	2065.12
449.033	2042.12
454.758	2023.12
460.477	2031.12
466.189	2017.12
471.896	1994.12
477.596	1980.12
483.29	1990.12
488.978	1970.12
494.66	1967.12
500.335	1931.12
506.005	1909.12
511.668	1851.12
517.325	1808.12
522.977	1788.12
528.622	1763.12
534.261	1750.12
539.894	1716.12
545.521	1733.12
551.141	1722.12
556.756	1686.12
562.365	1672.12
567.968	1679.12
573.565	1654.12
579.155	1649.12
584.74	1642.12
590.319	1613.12
595.892	1622.12
601.459	1581.12
607.02	1573.12
612.575	1565.12
618.124	1555.12
623.667	1546.12
629.204	1510.12
634.735	1520.12
640.261	1494.12
645.781	1487.12
651.294	1469.12
656.802	1468.12
662.304	1463.12
667.8	1453.12
673.29	1437.12
678.775	1435.12
684.254	1427.12
689.726	1445.12
695.193	1413.12
700.655	1408.12
706.11	1411.12
711.56	1393.12
717.004	1374.12
722.442	1370.12
727.874	1346.12
733.301	1351.12
738.722	1337.12
744.137	1340.12
749.547	1322.12
754.951	1325.12
760.349	1315.12
765.741	1319.12
771.128	1314.12
776.509	1321.12
781.885	1319.12
787.254	1306.12
792.618	1309.12
797.977	1295.12
803.33	1278.12
808.677	1272.12
814.019	1255.12
819.355	1223.12
824.686	1228.12
830.011	1213.12
835.33	1210.12
840.644	1201.12
845.952	1201.12
851.255	1187.12
856.552	1171.12
861.844	1172.12
867.13	1160.12
872.41	1153.12
877.686	1150.12
882.955	1133.12
888.219	1093.12
893.478	1076.12
898.731	1060.12
903.979	1052.12
909.221	1044.12
914.458	1025.12
919.69	1033.12
924.916	1032.12
930.136	1011.12
935.351	1028.12
940.561	1015.12
945.766	1003.12
950.965	1007.12
956.158	988.12
961.347	980.12
966.529	958.12
971.707	954.12
976.879	931.12
982.046	921.12
987.208	930.12
992.364	925.12
997.515	918.12
1002.66	923.12
1007.801	946.12
1012.936	933.12
1018.066	954.12
1023.19	949.12
1028.309	954.12
1033.423	943.12
1038.532	939.12
1043.636	940.12
1048.734	927.12
1053.827	918.12
1058.915	905.12
1063.998	903.12
1069.075	903.12
1074.147	898.12
1079.214	900.12
1084.276	910.12
1089.333	920.12
1094.385	923.12
1099.431	925.12
1104.472	913.12
1109.509	925.12
1114.54	897.12
1119.565	892.12
1124.586	881.12
1129.602	877.12
1134.613	872.12
1139.618	867.12
1144.619	875.12
1149.614	883.12
1154.604	882.12
1159.589	887.12
1164.57	868.12
1169.545	880.12
1174.515	886.12
1179.48	877.12
1184.44	871.12
1189.395	862.12
1194.345	857.12
1199.29	866.12
1204.23	860.12
1209.165	864.12
1214.095	870.12
1219.021	881.12
1223.941	873.12
1228.856	891.12
1233.766	896.12
1238.672	877.12
1243.572	887.12
1248.467	886.12
1253.358	869.12
1258.244	862.12
1263.124	851.12
1268	840.12
1272.871	829.12
1277.737	826.12
1282.599	809.12
1287.455	806.12
1292.306	822.12
1297.153	818.12
1301.995	829.12
1306.832	829.12
1311.664	828.12
1316.491	824.12
1321.314	831.12
1326.132	816.12
1330.945	797.12
1335.753	779.12
1340.556	773.12
1345.354	757.12
1350.148	731.12
1354.937	731.12
1359.722	738.12
1364.501	753.12
1369.276	750.12
1374.046	776.12
1378.811	776.12
1383.572	788.12
1388.327	774.12
1393.079	767.12
1397.825	764.12
1402.567	749.12
1407.304	732.12
1412.036	715.12
1416.764	712.12
1421.487	711.12
1426.205	705.12
1430.919	717.12
1435.628	726.12
1440.333	718.12
1445.032	733.12
1449.727	739.12
1454.418	744.12
1459.104	733.12
1463.785	726.12
1468.462	723.12
1473.134	711.12
1477.802	706.12
1482.465	715.12
1487.123	701.12
1491.777	713.12
1496.426	715.12
1501.071	736.12
1505.711	755.12
1510.347	759.12
1514.978	760.12
1519.604	785.12
1524.226	792.12
1528.844	789.12
1533.457	781.12
1538.065	799.12
1542.669	806.12
1547.269	795.12
1551.864	798.12
1556.454	800.12
1561.041	812.12
1565.622	819.12
1570.199	821.12
1574.772	839.12
1579.34	855.12
1583.904	866.12
1588.464	873.12
1593.019	899.12
1597.569	911.12
1602.115	909.12
1606.657	931.12
1611.195	943.12
1615.728	952.12
1620.256	976.12
1624.78	984.12
1629.3	992.12
1633.816	1016.12
1638.327	1026.12
1642.834	1043.12
1647.336	1056.12
1651.834	1041.12
1656.328	1051.12
1660.817	1043.12
1665.302	1013.12
1669.783	987.12
1674.259	964.12
1678.732	930.12
1683.199	899.12
1687.663	855.12
1692.122	811.12
1696.577	781.12
1701.028	770.12
1705.474	758.12
1709.917	746.12
1714.355	721.12
1718.788	683.12
1723.218	677.12
1727.643	652.12
1732.064	627.12
1736.481	600.12
1740.893	587.12
1745.301	568.12
1749.705	547.12
1754.105	538.12
1758.501	510.12
1762.893	497.12
1767.28	486.12
1771.663	474.12
1776.042	474.12
1780.417	476.12
1784.787	480.12
1789.154	483.12
1793.516	478.12
1797.874	492.12
1802.228	486.12
1806.578	486.12
1810.924	485.12
1815.266	487.12
1819.603	465.12
1823.937	443.12
1828.266	438.12
1832.591	446.12
1836.913	430.12
1841.23	439.12
1845.543	437.12
1849.852	425.12
1854.156	431.12
1858.457	416.12
1862.754	424.12
1867.047	419.12
1871.335	422.12
1875.62	426.12
1879.9	431.12
1884.177	436.12
1888.449	430.12
1892.718	419.12
1896.982	429.12
1901.243	426.12
1905.499	418.12
1909.752	425.12
1914	420.12
1918.245	428.12
1922.485	430.12
1926.722	426.12
1930.954	442.12
1935.183	428.12
1939.408	441.12
1943.628	442.12
1947.845	442.12
1952.058	443.12
1956.267	435.12
1960.472	441.12
1964.673	432.12
1968.87	421.12
1973.063	429.12
1977.252	429.12
1981.438	421.12
1985.619	419.12
1989.797	410.12
1993.971	419.12
1998.14	425.12
2002.306	410.12
2006.469	419.12
2010.627	428.12
2014.781	423.12
2018.932	421.12
2023.078	419.12
2027.221	422.12
2031.36	413.12
2035.495	420.12
2039.627	403.12
2043.754	415.12
2047.878	395.12
2051.998	409.12
2056.114	413.12
2060.226	421.12
2064.334	417.12
2068.439	421.12
2072.54	417.12
2076.637	425.12
2080.73	427.12
2084.82	426.12
2088.906	431.12
2092.988	434.12
2097.066	429.12
2101.14	422.12
2105.211	416.12
2109.278	416.12
2113.342	414.12
2117.401	405.12
2121.457	411.12
2125.509	405.12
2129.558	417.12
2133.602	410.12
2137.643	400.12
2141.681	407.12
2145.714	402.12
2149.744	398.12
2153.77	401.12
2157.793	393.12
2161.812	387.12
2165.827	377.12
2169.838	361.12
2173.846	365.12
2177.851	349.12
2181.851	355.12
2185.848	346.12
2189.841	344.12
2193.831	338.12
2197.817	333.12
2201.799	335.12
2205.778	322.12
2209.753	336.12
2213.725	323.12
2217.693	330.12
2221.657	322.12
2225.618	325.12
2229.575	320.12
2233.529	319.12
2237.479	302.12
2241.425	307.12
2245.368	297.12
2249.307	303.12
2253.243	299.12
2257.175	290.12
2261.104	293.12
2265.029	287.12
2268.95	288.12
2272.868	279.12
2276.783	273.12
2280.694	261.12
2284.601	262.12
2288.505	256.12
2292.405	253.12
2296.302	251.12
2300.195	245.12
2304.085	238.12
2307.971	235.12
2311.854	238.12
2315.734	235.12
2319.609	227.12
2323.482	222.12
2327.351	222.12
2331.216	221.12
2335.078	213.12
2338.937	218.12
2342.792	201.12
2346.643	213.12
2350.492	205.12
2354.336	208.12
2358.178	198.12
2362.015	191.12
2365.85	206.12
2369.681	204.12
2373.508	202.12
2377.333	203.12
2381.153	203.12
2384.971	196.12
2388.785	194.12
2392.595	190.12
2396.402	188.12
2400.206	184.12
2404.007	185.12
2407.804	181.12
2411.597	185.12
2415.388	186.12
2419.174	185.12
2422.958	177.12
2426.738	183.12
2430.515	178.12
2434.289	181.12
2438.059	175.12
2441.825	174.12
2445.589	177.12
2449.349	173.12
2453.106	171.12
2456.859	166.12
2460.61	160.12
2464.356	159.12
2468.1	156.12
2471.84	156.12
2475.577	156.12
2479.311	160.12
2483.041	159.12
2486.768	162.12
2490.492	161.12
2494.213	154.12
2497.93	155.12
2501.644	156.12
2505.355	150.12
2509.062	153.12
2512.766	148.12
2516.467	154.12
2520.165	157.12
2523.859	152.12
2527.551	147.12
2531.239	146.12
2534.923	148.12
2538.605	142.12
2542.283	140.12
2545.958	138.12
2549.63	140.12
2553.299	138.12
2556.964	135.12
2560.626	141.12
2564.285	133.12
2567.941	136.12
2571.594	140.12
2575.243	137.12
2578.89	127.12
2582.533	133.12
2586.173	130.12
2589.809	124.12
2593.443	128.12
2597.073	128.12
2600.701	125.12
2604.325	123.12
2607.946	119.12
2611.564	125.12
2615.178	119.12
2618.79	121.12
2622.398	123.12
2626.004	121.12
2629.606	114.12
2633.205	116.12
2636.801	116.12
2640.394	125.12
2643.983	111.12
2647.57	115.12
2651.153	104.12
2654.734	106.12
2658.311	108.12
2661.885	101.12
2665.456	111.12
2669.025	95.12
2672.589	110.12
2676.151	101.12
2679.71	105.12
2683.266	102.12
2686.819	99.12
2690.368	92.12
2693.915	90.12
2697.458	92.12
2700.999	87.12
2704.536	87.12
2708.071	90.12
2711.602	92.12
2715.13	93.12
2718.656	91.12
2722.178	87.12
2725.697	82.12
2729.214	81.12
2732.727	88.12
2736.237	93.12
2739.744	95.12
2743.249	91.12
2746.75	85.12
2750.248	99.12
2753.743	99.12
2757.236	95.12
2760.725	99.12
2764.211	93.12
2767.695	104.12
2771.175	99.12
2774.652	94.12
2778.127	103.12
2781.598	101.12
2785.067	97.12
2788.532	99.12
2791.995	100.12
2795.455	99.12
2798.911	99.12
2802.365	100.12
2805.816	106.12
2809.264	97.12
2812.709	108.12
2816.151	107.12
2819.59	105.12
2823.026	113.12
2826.46	106.12
2829.89	111.12
2833.318	111.12
2836.742	109.12
2840.164	101.12
2843.583	106.12
2846.999	115.12
2850.412	118.12
2853.822	119.12
2857.229	123.12
2860.634	129.12
2864.035	125.12
2867.434	134.12
2870.83	137.12
2874.223	136.12
2877.613	134.12
2881	137.12
2884.385	143.12
2887.766	135.12
2891.145	142.12
2894.521	146.12
2897.894	148.12
2901.264	152.12
2904.631	165.12
2907.996	153.12
2911.358	157.12
2914.717	156.12
2918.073	160.12
2921.426	168.12
2924.777	172.12
2928.124	165.12
2931.469	178.12
2934.811	183.12
2938.15	187.12
2941.487	198.12
2944.821	191.12
2948.152	200.12
2951.48	209.12
2954.805	207.12
2958.128	211.12
2961.447	215.12
2964.765	230.12
2968.079	226.12
2971.39	235.12
2974.699	241.12
2978.005	254.12
2981.308	264.12
2984.609	274.12
2987.907	278.12
2991.202	291.12
2994.494	298.12
2997.784	310.12
3001.07	318.12
3004.355	344.12
3007.636	343.12
3010.915	351.12
3014.191	356.12
3017.464	366.12
3020.734	376.12
3024.002	379.12
3027.267	380.12
3030.53	399.12
3033.789	403.12
3037.046	406.12
3040.301	434.12
3043.552	432.12
3046.801	454.12
3050.048	468.12
3053.291	476.12
3056.532	487.12
3059.771	505.12
3063.006	528.12
3066.239	536.12
3069.469	559.12
3072.697	568.12
3075.922	593.12
3079.144	606.12
3082.364	621.12
3085.581	658.12
3088.795	657.12
3092.007	675.12
3095.216	698.12
3098.423	706.12
3101.627	722.12
3104.828	747.12
3108.026	757.12
3111.222	778.12
3114.416	801.12
3117.607	823.12
3120.795	838.12
3123.98	863.12
3127.163	893.12
3130.344	908.12
3133.521	925.12
3136.696	947.12
3139.869	967.12
3143.039	979.12
3146.206	995.12
3149.371	1013.12
3152.533	1023.12
3155.693	1030.12
3158.85	1028.12
3162.005	1046.12
3165.157	1034.12
3168.306	1054.12
3171.453	1041.12
3174.597	1077.12
3177.739	1071.12
3180.878	1070.12
3184.014	1081.12
3187.149	1091.12
3190.28	1093.12
3193.409	1088.12
3196.536	1084.12
3199.659	1101.12
3202.781	1109.12
3205.9	1109.12
3209.016	1100.12
3212.13	1105.12
3215.241	1099.12
3218.35	1101.12
3221.456	1089.12
3224.56	1087.12
3227.661	1060.12
3230.76	1056.12
3233.856	1036.12
3236.95	1047.12
3240.041	1041.12
3243.13	1018.12
3246.216	1023.12
3249.3	1030.12
3252.382	1013.12
3255.46	1007.12
3258.537	993.12
3261.611	1002.12
3264.682	985.12
3267.751	973.12
3270.818	995.12
3273.882	972.12
3276.943	979.12
3280.002	976.12
3283.059	970.12
3286.113	965.12
3289.165	931.12
3292.214	931.12
3295.261	898.12
3298.306	884.12
3301.348	886.12
3304.387	874.12
3307.425	847.12
3310.459	848.12
3313.492	833.12
3316.521	832.12
3319.549	811.12
3322.574	804.12
3325.597	804.12
3328.617	794.12
3331.635	785.12
3334.65	789.12
3337.663	775.12
3340.674	771.12
3343.682	773.12
3346.688	769.12
3349.691	775.12
3352.692	766.12
3355.691	751.12
3358.687	753.12
3361.681	743.12
3364.673	730.12
3367.662	731.12
3370.649	706.12
3373.633	708.12
3376.615	700.12
3379.595	693.12
3382.572	668.12
3385.547	677.12
3388.52	657.12
3391.49	656.12
3394.458	641.12
3397.424	644.12
3400.387	634.12
3403.348	621.12
3406.307	624.12
3409.263	613.12
3412.217	602.12
3415.168	595.12
3418.118	583.12
3421.065	586.12
3424.009	582.12
3426.951	579.12
3429.891	569.12
3432.829	551.12
3435.764	539.12
3438.697	526.12
3441.628	514.12
3444.557	493.12
3447.483	496.12
3450.407	474.12
3453.328	459.12
3456.247	449.12
3459.164	442.12
3462.079	428.12
3464.991	411.12
3467.902	400.12
3470.809	382.12
3473.715	383.12
3476.618	364.12
3479.519	359.12
3482.418	347.12
3485.315	339.12
3488.209	336.12
3491.101	316.12
3493.99	306.12
3496.878	294.12
3499.763	289.12
3502.646	273.12
3505.527	273.12
3508.405	258.12
3511.281	255.12
3514.155	247.12
3517.027	232.12
3519.897	218.12
3522.764	205.12
3525.629	189.12
3528.492	188.12
3531.352	175.12
3534.211	160.12
3537.067	159.12
3539.921	151.12
3542.773	136.12
3545.622	130.12
3548.469	119.12
3551.315	109.12
3554.157	109.12
3556.998	96.12
3559.837	94.12
3562.673	87.12
3565.507	81.12
3568.339	84.12
3571.169	73.12
3573.996	67.12
3576.822	61.12
3579.645	58.12
3582.466	46.12
3585.285	43.12
3588.101	33.12
3590.916	30.12
3593.728	26.12
3596.538	24.12
3599.346	22.12
3602.152	17.12
3604.956	13.12
3607.757	5.12
3610.556	1.12
3613.354	-3.88
3616.149	-2.88
3618.942	-10.88
3621.732	-12.88
3624.521	-21.88
3627.307	-16.88
3630.092	-15.88
3632.874	-19.88
3635.654	-20.88
3638.432	-26.88
3641.208	-28.88
3643.982	-28.88
3646.753	-32.88
3649.523	-33.88
3652.29	-32.88
3655.055	-40.88
3657.818	-43.88
3660.579	-44.88
3663.338	-49.88
3666.095	-51.88
3668.849	-53.88
3671.602	-58.88
3674.352	-54.88
3677.101	-58.88
3679.847	-56.88
3682.591	-59.88
3685.333	-60.88
3688.073	-67.88
3690.811	-69.88
3693.547	-72.88
3696.281	-68.88
3699.013	-72.88
3701.742	-73.88
3704.47	-74.88
3707.195	-72.88
3709.919	-72.88
3712.64	-66.88
3715.359	-73.88
3718.076	-72.88
3720.792	-73.88
3723.505	-77.88
3726.216	-81.88
3728.925	-82.88
3731.632	-81.88
3734.336	-80.88
3737.039	-81.88
3739.74	-85.88
3742.439	-78.88
3745.136	-81.88
3747.83	-84.88
3750.523	-82.88
3753.213	-84.88
3755.902	-84.88
3758.589	-84.88
3761.273	-84.88
3763.956	-87.88
3766.636	-84.88
3769.315	-87.88
3771.991	-85.88
3774.665	-90.88
3777.338	-89.88
3780.008	-93.88
3782.677	-89.88
3785.343	-88.88
3788.007	-88.88
3790.67	-86.88
3793.33	-84.88
3795.989	-89.88
3798.645	-89.88
3801.299	-89.88
3803.952	-93.88
3806.602	-94.88
3809.251	-93.88
3811.897	-94.88
3814.542	-93.88
3817.184	-90.88
3819.825	-91.88
3822.463	-91.88
3825.1	-88.88
3827.735	-91.88
3830.367	-94.88
3832.998	-95.88
3835.627	-93.88
3838.253	-94.88
3840.878	-96.88
3843.501	-95.88
3846.122	-94.88
3848.741	-94.88
3851.358	-92.88
3853.973	-92.88
3856.586	-95.88
3859.197	-95.88
3861.806	-95.88
3864.414	-95.88
3867.019	-95.88
3869.622	-92.88
3872.224	-91.88
3874.823	-93.88
3877.421	-90.88
3880.016	-91.88
3882.61	-83.88
3885.202	-85.88
3887.792	-87.88
3890.38	-90.88
3892.966	-88.88
3895.55	-94.88
3898.132	-93.88
3900.713	-92.88
3903.291	-96.88
3905.868	-97.88
3908.442	-96.88
3911.015	-97.88
3913.586	-98.88
3916.155	-101.88
3918.722	-94.88
3921.287	-98.88
3923.85	-94.88
3926.411	-98.88
3928.971	-99.88
3931.528	-96.88
3934.084	-99.88
3936.638	-100.88
3939.19	-100.88
3941.74	-97.88
3944.288	-102.88
3946.834	-100.88
3949.378	-100.88
3951.921	-98.88
3954.462	-95.88
3957	-97.88
3959.537	-99.88
3962.072	-95.88
3964.606	-96.88
3967.137	-98.88
3969.667	-100.88
3972.194	-100.88
3974.72	-95.88
3977.244	-97.88
3979.766	-98.88
3982.286	-96.88
3984.805	-102.88
3987.321	-94.88
3989.836	-97.88
3992.349	-95.88
3994.86	-98.88
3997.369	-96.88
3999.877	-96.88
4002.382	-94.88
4004.886	-94.88
4007.388	-96.88
4009.888	-98.88
4012.386	-100.88
4014.883	-97.88
4017.377	-101.88
4019.87	-97.88
4022.361	-98.88
4024.85	-94.88
4027.338	-97.88
4029.823	-94.88
4032.307	-95.88
4034.789	-94.88
4037.269	-97.88
4039.747	-95.88
4042.224	-98.88
4044.699	-99.88
4047.172	-103.88
4049.643	-98.88
4052.112	-98.88
4054.58	-96.88
4057.046	-92.88
4059.51	-96.88
4061.972	-99.88
4064.432	-92.88
4066.891	-97.88
4069.348	-95.88
4071.803	-101.88
4074.256	-102.88
4076.708	-102.88
4079.158	-96.88
4081.606	-97.88
4084.052	-100.88
4086.497	-94.88
4088.939	-93.88
4091.38	-91.88
4093.819	-93.88
4096.257	-101.88
4098.693	-101.88
4101.127	-100.88
4103.559	-99.88
4105.989	-65.88
4108.418	-61.88
4110.845	-58.88
4113.27	-57.88
4115.694	-53.88
4118.115	-42.88
4120.535	-96.88
4122.954	-97.88
4125.37	-100.88
4127.785	-98.88
4130.198	-97.88
4132.609	-95.88
4135.019	-102.88
4137.427	-101.88
4139.833	-102.88
4142.237	-97.88
