Data from B.sub_water_10000CFUB1_RamanShift_1.txt Node
Date: Wed Mar 08 16:00:31 IST 2017
User: aro
Spectrometer: QEPB0276
Trigger mode: 0
Integration Time (sec): 5.000000E0
Scans to average: 1
Electric dark correction enabled: true
Nonlinearity correction enabled: false
Boxcar width: 0
XAxis mode: Raman Shifts
Number of Pixels in Spectrum: 1044
>>>>>Begin Spectral Data<<<<<
160.701	-30.88
166.742	-3.88
172.777	81.12
178.805	345.12
184.826	951.12
190.841	1969.12
196.849	3085.12
202.85	3800.12
208.845	3962.12
214.833	3850.12
220.815	3700.12
226.789	3600.12
232.758	3514.12
238.719	3412.12
244.674	3296.12
250.623	3143.12
256.565	3043.12
262.5	2874.12
268.429	2794.12
274.351	2669.12
280.267	2580.12
286.176	2505.12
292.079	2418.12
297.975	2337.12
303.865	2286.12
309.748	2230.12
315.625	2195.12
321.495	2157.12
327.359	2151.12
333.217	2116.12
339.068	2093.12
344.912	2092.12
350.751	2085.12
356.583	2077.12
362.408	2069.12
368.227	2063.12
374.04	2075.12
379.847	2084.12
385.647	2096.12
391.44	2106.12
397.228	2117.12
403.009	2140.12
408.784	2115.12
414.553	2140.12
420.315	2134.12
426.071	2142.12
431.821	2128.12
437.565	2149.12
443.302	2132.12
449.033	2162.12
454.758	2120.12
460.477	2115.12
466.189	2098.12
471.896	2096.12
477.596	2070.12
483.29	2081.12
488.978	2075.12
494.66	2050.12
500.335	2039.12
506.005	1991.12
511.668	1956.12
517.325	1928.12
522.977	1888.12
528.622	1881.12
534.261	1872.12
539.894	1836.12
545.521	1833.12
551.141	1834.12
556.756	1813.12
562.365	1805.12
567.968	1801.12
573.565	1768.12
579.155	1764.12
584.74	1758.12
590.319	1751.12
595.892	1738.12
601.459	1730.12
607.02	1711.12
612.575	1719.12
618.124	1692.12
623.667	1672.12
629.204	1659.12
634.735	1656.12
640.261	1636.12
645.781	1631.12
651.294	1625.12
656.802	1611.12
662.304	1610.12
667.8	1607.12
673.29	1601.12
678.775	1589.12
684.254	1583.12
689.726	1581.12
695.193	1569.12
700.655	1566.12
706.11	1553.12
711.56	1525.12
717.004	1518.12
722.442	1509.12
727.874	1503.12
733.301	1498.12
738.722	1494.12
744.137	1491.12
749.547	1487.12
754.951	1482.12
760.349	1472.12
765.741	1483.12
771.128	1493.12
776.509	1486.12
781.885	1467.12
787.254	1469.12
792.618	1473.12
797.977	1452.12
803.33	1443.12
808.677	1423.12
814.019	1432.12
819.355	1395.12
824.686	1388.12
830.011	1389.12
835.33	1379.12
840.644	1377.12
845.952	1368.12
851.255	1364.12
856.552	1363.12
861.844	1358.12
867.13	1368.12
872.41	1346.12
877.686	1328.12
882.955	1309.12
888.219	1282.12
893.478	1276.12
898.731	1247.12
903.979	1223.12
909.221	1216.12
914.458	1212.12
919.69	1200.12
924.916	1231.12
930.136	1219.12
935.351	1210.12
940.561	1211.12
945.766	1216.12
950.965	1206.12
956.158	1193.12
961.347	1191.12
966.529	1170.12
971.707	1152.12
976.879	1127.12
982.046	1126.12
987.208	1119.12
992.364	1123.12
997.515	1129.12
1002.66	1131.12
1007.801	1146.12
1012.936	1147.12
1018.066	1169.12
1023.19	1186.12
1028.309	1167.12
1033.423	1162.12
1038.532	1154.12
1043.636	1144.12
1048.734	1136.12
1053.827	1115.12
1058.915	1124.12
1063.998	1102.12
1069.075	1102.12
1074.147	1118.12
1079.214	1125.12
1084.276	1125.12
1089.333	1145.12
1094.385	1162.12
1099.431	1134.12
1104.472	1144.12
1109.509	1134.12
1114.54	1119.12
1119.565	1114.12
1124.586	1085.12
1129.602	1086.12
1134.613	1103.12
1139.618	1088.12
1144.619	1100.12
1149.614	1071.12
1154.604	1091.12
1159.589	1105.12
1164.57	1090.12
1169.545	1093.12
1174.515	1124.12
1179.48	1094.12
1184.44	1098.12
1189.395	1076.12
1194.345	1081.12
1199.29	1061.12
1204.23	1067.12
1209.165	1090.12
1214.095	1102.12
1219.021	1087.12
1223.941	1100.12
1228.856	1108.12
1233.766	1121.12
1238.672	1111.12
1243.572	1118.12
1248.467	1101.12
1253.358	1085.12
1258.244	1077.12
1263.124	1056.12
1268	1059.12
1272.871	1030.12
1277.737	1016.12
1282.599	1034.12
1287.455	1031.12
1292.306	1030.12
1297.153	1035.12
1301.995	1037.12
1306.832	1041.12
1311.664	1049.12
1316.491	1054.12
1321.314	1057.12
1326.132	1044.12
1330.945	1017.12
1335.753	997.12
1340.556	978.12
1345.354	967.12
1350.148	951.12
1354.937	934.12
1359.722	948.12
1364.501	987.12
1369.276	980.12
1374.046	1018.12
1378.811	1014.12
1383.572	1014.12
1388.327	1007.12
1393.079	990.12
1397.825	974.12
1402.567	959.12
1407.304	937.12
1412.036	926.12
1416.764	922.12
1421.487	920.12
1426.205	922.12
1430.919	923.12
1435.628	936.12
1440.333	948.12
1445.032	940.12
1449.727	958.12
1454.418	950.12
1459.104	944.12
1463.785	937.12
1468.462	918.12
1473.134	921.12
1477.802	904.12
1482.465	904.12
1487.123	911.12
1491.777	920.12
1496.426	918.12
1501.071	934.12
1505.711	958.12
1510.347	984.12
1514.978	976.12
1519.604	987.12
1524.226	1002.12
1528.844	994.12
1533.457	1001.12
1538.065	1019.12
1542.669	999.12
1547.269	1006.12
1551.864	1014.12
1556.454	1005.12
1561.041	1012.12
1565.622	1022.12
1570.199	1028.12
1574.772	1037.12
1579.34	1045.12
1583.904	1064.12
1588.464	1080.12
1593.019	1087.12
1597.569	1095.12
1602.115	1109.12
1606.657	1116.12
1611.195	1114.12
1615.728	1123.12
1620.256	1135.12
1624.78	1150.12
1629.3	1162.12
1633.816	1173.12
1638.327	1188.12
1642.834	1206.12
1647.336	1208.12
1651.834	1222.12
1656.328	1215.12
1660.817	1207.12
1665.302	1199.12
1669.783	1168.12
1674.259	1138.12
1678.732	1101.12
1683.199	1069.12
1687.663	1018.12
1692.122	992.12
1696.577	970.12
1701.028	941.12
1705.474	923.12
1709.917	943.12
1714.355	917.12
1718.788	888.12
1723.218	863.12
1727.643	832.12
1732.064	814.12
1736.481	806.12
1740.893	783.12
1745.301	750.12
1749.705	737.12
1754.105	712.12
1758.501	701.12
1762.893	677.12
1767.28	666.12
1771.663	670.12
1776.042	666.12
1780.417	658.12
1784.787	673.12
1789.154	668.12
1793.516	684.12
1797.874	683.12
1802.228	691.12
1806.578	692.12
1810.924	683.12
1815.266	669.12
1819.603	661.12
1823.937	658.12
1828.266	639.12
1832.591	625.12
1836.913	625.12
1841.23	612.12
1845.543	622.12
1849.852	609.12
1854.156	604.12
1858.457	616.12
1862.754	613.12
1867.047	616.12
1871.335	617.12
1875.62	609.12
1879.9	613.12
1884.177	620.12
1888.449	608.12
1892.718	606.12
1896.982	607.12
1901.243	600.12
1905.499	605.12
1909.752	604.12
1914	609.12
1918.245	596.12
1922.485	605.12
1926.722	613.12
1930.954	626.12
1935.183	619.12
1939.408	634.12
1943.628	625.12
1947.845	626.12
1952.058	625.12
1956.267	629.12
1960.472	621.12
1964.673	617.12
1968.87	606.12
1973.063	600.12
1977.252	603.12
1981.438	589.12
1985.619	589.12
1989.797	579.12
1993.971	587.12
1998.14	587.12
2002.306	594.12
2006.469	595.12
2010.627	599.12
2014.781	592.12
2018.932	593.12
2023.078	575.12
2027.221	582.12
2031.36	572.12
2035.495	575.12
2039.627	557.12
2043.754	554.12
2047.878	561.12
2051.998	563.12
2056.114	556.12
2060.226	561.12
2064.334	568.12
2068.439	573.12
2072.54	571.12
2076.637	586.12
2080.73	569.12
2084.82	581.12
2088.906	582.12
2092.988	576.12
2097.066	579.12
2101.14	569.12
2105.211	570.12
2109.278	567.12
2113.342	568.12
2117.401	557.12
2121.457	562.12
2125.509	560.12
2129.558	562.12
2133.602	548.12
2137.643	551.12
2141.681	543.12
2145.714	546.12
2149.744	542.12
2153.77	533.12
2157.793	540.12
2161.812	520.12
2165.827	520.12
2169.838	511.12
2173.846	500.12
2177.851	484.12
2181.851	492.12
2185.848	487.12
2189.841	476.12
2193.831	463.12
2197.817	466.12
2201.799	469.12
2205.778	466.12
2209.753	466.12
2213.725	460.12
2217.693	466.12
2221.657	460.12
2225.618	461.12
2229.575	446.12
2233.529	448.12
2237.479	461.12
2241.425	447.12
2245.368	432.12
2249.307	433.12
2253.243	428.12
2257.175	431.12
2261.104	414.12
2265.029	412.12
2268.95	411.12
2272.868	395.12
2276.783	398.12
2280.694	387.12
2284.601	381.12
2288.505	373.12
2292.405	383.12
2296.302	373.12
2300.195	371.12
2304.085	364.12
2307.971	357.12
2311.854	358.12
2315.734	341.12
2319.609	335.12
2323.482	320.12
2327.351	325.12
2331.216	329.12
2335.078	333.12
2338.937	324.12
2342.792	311.12
2346.643	321.12
2350.492	309.12
2354.336	308.12
2358.178	318.12
2362.015	319.12
2365.85	310.12
2369.681	313.12
2373.508	307.12
2377.333	309.12
2381.153	307.12
2384.971	306.12
2388.785	307.12
2392.595	294.12
2396.402	296.12
2400.206	304.12
2404.007	285.12
2407.804	292.12
2411.597	287.12
2415.388	294.12
2419.174	286.12
2422.958	299.12
2426.738	288.12
2430.515	282.12
2434.289	284.12
2438.059	278.12
2441.825	276.12
2445.589	280.12
2449.349	277.12
2453.106	276.12
2456.859	264.12
2460.61	254.12
2464.356	262.12
2468.1	258.12
2471.84	259.12
2475.577	254.12
2479.311	251.12
2483.041	253.12
2486.768	262.12
2490.492	261.12
2494.213	265.12
2497.93	257.12
2501.644	250.12
2505.355	251.12
2509.062	255.12
2512.766	254.12
2516.467	248.12
2520.165	253.12
2523.859	250.12
2527.551	242.12
2531.239	240.12
2534.923	241.12
2538.605	239.12
2542.283	242.12
2545.958	238.12
2549.63	246.12
2553.299	231.12
2556.964	229.12
2560.626	238.12
2564.285	231.12
2567.941	224.12
2571.594	232.12
2575.243	223.12
2578.89	215.12
2582.533	215.12
2586.173	224.12
2589.809	224.12
2593.443	220.12
2597.073	218.12
2600.701	224.12
2604.325	214.12
2607.946	217.12
2611.564	214.12
2615.178	216.12
2618.79	211.12
2622.398	216.12
2626.004	207.12
2629.606	205.12
2633.205	206.12
2636.801	207.12
2640.394	199.12
2643.983	193.12
2647.57	195.12
2651.153	186.12
2654.734	186.12
2658.311	179.12
2661.885	185.12
2665.456	185.12
2669.025	181.12
2672.589	187.12
2676.151	184.12
2679.71	186.12
2683.266	177.12
2686.819	173.12
2690.368	168.12
2693.915	170.12
2697.458	156.12
2700.999	158.12
2704.536	161.12
2708.071	157.12
2711.602	160.12
2715.13	157.12
2718.656	155.12
2722.178	150.12
2725.697	148.12
2729.214	157.12
2732.727	157.12
2736.237	157.12
2739.744	157.12
2743.249	165.12
2746.75	163.12
2750.248	166.12
2753.743	172.12
2757.236	170.12
2760.725	161.12
2764.211	168.12
2767.695	168.12
2771.175	166.12
2774.652	163.12
2778.127	157.12
2781.598	167.12
2785.067	163.12
2788.532	161.12
2791.995	163.12
2795.455	161.12
2798.911	157.12
2802.365	150.12
2805.816	160.12
2809.264	163.12
2812.709	163.12
2816.151	165.12
2819.59	161.12
2823.026	165.12
2826.46	162.12
2829.89	171.12
2833.318	159.12
2836.742	156.12
2840.164	162.12
2843.583	163.12
2846.999	170.12
2850.412	169.12
2853.822	179.12
2857.229	180.12
2860.634	180.12
2864.035	190.12
2867.434	190.12
2870.83	191.12
2874.223	187.12
2877.613	188.12
2881	195.12
2884.385	188.12
2887.766	188.12
2891.145	191.12
2894.521	182.12
2897.894	193.12
2901.264	194.12
2904.631	202.12
2907.996	196.12
2911.358	200.12
2914.717	196.12
2918.073	202.12
2921.426	211.12
2924.777	209.12
2928.124	215.12
2931.469	229.12
2934.811	225.12
2938.15	222.12
2941.487	227.12
2944.821	230.12
2948.152	224.12
2951.48	235.12
2954.805	235.12
2958.128	241.12
2961.447	248.12
2964.765	250.12
2968.079	256.12
2971.39	263.12
2974.699	263.12
2978.005	269.12
2981.308	276.12
2984.609	286.12
2987.907	301.12
2991.202	312.12
2994.494	321.12
2997.784	330.12
3001.07	326.12
3004.355	346.12
3007.636	360.12
3010.915	360.12
3014.191	368.12
3017.464	375.12
3020.734	375.12
3024.002	390.12
3027.267	392.12
3030.53	396.12
3033.789	402.12
3037.046	422.12
3040.301	424.12
3043.552	443.12
3046.801	442.12
3050.048	455.12
3053.291	465.12
3056.532	490.12
3059.771	489.12
3063.006	514.12
3066.239	528.12
3069.469	543.12
3072.697	558.12
3075.922	581.12
3079.144	590.12
3082.364	603.12
3085.581	617.12
3088.795	646.12
3092.007	648.12
3095.216	673.12
3098.423	676.12
3101.627	696.12
3104.828	710.12
3108.026	724.12
3111.222	755.12
3114.416	761.12
3117.607	779.12
3120.795	784.12
3123.98	804.12
3127.163	835.12
3130.344	854.12
3133.521	874.12
3136.696	890.12
3139.869	900.12
3143.039	935.12
3146.206	931.12
3149.371	950.12
3152.533	941.12
3155.693	969.12
3158.85	970.12
3162.005	995.12
3165.157	988.12
3168.306	984.12
3171.453	982.12
3174.597	1007.12
3177.739	1011.12
3180.878	1016.12
3184.014	1004.12
3187.149	1000.12
3190.28	1015.12
3193.409	1011.12
3196.536	1011.12
3199.659	1024.12
3202.781	1038.12
3205.9	1025.12
3209.016	1030.12
3212.13	1027.12
3215.241	1028.12
3218.35	1033.12
3221.456	992.12
3224.56	995.12
3227.661	998.12
3230.76	979.12
3233.856	981.12
3236.95	974.12
3240.041	962.12
3243.13	953.12
3246.216	938.12
3249.3	942.12
3252.382	939.12
3255.46	934.12
3258.537	933.12
3261.611	917.12
3264.682	913.12
3267.751	909.12
3270.818	907.12
3273.882	905.12
3276.943	903.12
3280.002	890.12
3283.059	897.12
3286.113	875.12
3289.165	865.12
3292.214	847.12
3295.261	837.12
3298.306	823.12
3301.348	821.12
3304.387	813.12
3307.425	788.12
3310.459	791.12
3313.492	769.12
3316.521	758.12
3319.549	758.12
3322.574	743.12
3325.597	725.12
3328.617	730.12
3331.635	734.12
3334.65	728.12
3337.663	727.12
3340.674	724.12
3343.682	726.12
3346.688	702.12
3349.691	709.12
3352.692	717.12
3355.691	685.12
3358.687	690.12
3361.681	696.12
3364.673	678.12
3367.662	670.12
3370.649	654.12
3373.633	646.12
3376.615	638.12
3379.595	638.12
3382.572	625.12
3385.547	612.12
3388.52	610.12
3391.49	600.12
3394.458	586.12
3397.424	591.12
3400.387	580.12
3403.348	578.12
3406.307	570.12
3409.263	565.12
3412.217	557.12
3415.168	547.12
3418.118	531.12
3421.065	541.12
3424.009	527.12
3426.951	518.12
3429.891	526.12
3432.829	513.12
3435.764	493.12
3438.697	496.12
3441.628	464.12
3444.557	465.12
3447.483	456.12
3450.407	439.12
3453.328	434.12
3456.247	412.12
3459.164	404.12
3462.079	391.12
3464.991	385.12
3467.902	361.12
3470.809	356.12
3473.715	338.12
3476.618	338.12
3479.519	324.12
3482.418	314.12
3485.315	298.12
3488.209	307.12
3491.101	296.12
3493.99	274.12
3496.878	267.12
3499.763	257.12
3502.646	248.12
3505.527	243.12
3508.405	230.12
3511.281	220.12
3514.155	215.12
3517.027	207.12
3519.897	202.12
3522.764	182.12
3525.629	176.12
3528.492	164.12
3531.352	163.12
3534.211	149.12
3537.067	140.12
3539.921	129.12
3542.773	119.12
3545.622	115.12
3548.469	108.12
3551.315	101.12
3554.157	91.12
3556.998	76.12
3559.837	80.12
3562.673	75.12
3565.507	73.12
3568.339	69.12
3571.169	58.12
3573.996	59.12
3576.822	56.12
3579.645	48.12
3582.466	43.12
3585.285	32.12
3588.101	26.12
3590.916	24.12
3593.728	22.12
3596.538	14.12
3599.346	11.12
3602.152	8.12
3604.956	3.12
3607.757	2.12
3610.556	-0.88
3613.354	-2.88
3616.149	-6.88
3618.942	-10.88
3621.732	-11.88
3624.521	-19.88
3627.307	-14.88
3630.092	-19.88
3632.874	-22.88
3635.654	-24.88
3638.432	-23.88
3641.208	-30.88
3643.982	-32.88
3646.753	-35.88
3649.523	-37.88
3652.29	-30.88
3655.055	-37.88
3657.818	-39.88
3660.579	-43.88
3663.338	-45.88
3666.095	-46.88
3668.849	-54.88
3671.602	-56.88
3674.352	-51.88
3677.101	-57.88
3679.847	-61.88
3682.591	-60.88
3685.333	-62.88
3688.073	-63.88
3690.811	-62.88
3693.547	-63.88
3696.281	-66.88
3699.013	-70.88
3701.742	-66.88
3704.47	-69.88
3707.195	-69.88
3709.919	-66.88
3712.64	-72.88
3715.359	-76.88
3718.076	-72.88
3720.792	-78.88
3723.505	-74.88
3726.216	-80.88
3728.925	-79.88
3731.632	-77.88
3734.336	-81.88
3737.039	-80.88
3739.74	-79.88
3742.439	-74.88
3745.136	-76.88
3747.83	-78.88
3750.523	-80.88
3753.213	-83.88
3755.902	-81.88
3758.589	-83.88
3761.273	-81.88
3763.956	-83.88
3766.636	-79.88
3769.315	-84.88
3771.991	-82.88
3774.665	-84.88
3777.338	-88.88
3780.008	-89.88
3782.677	-84.88
3785.343	-88.88
3788.007	-83.88
3790.67	-85.88
3793.33	-83.88
3795.989	-87.88
3798.645	-85.88
3801.299	-88.88
3803.952	-89.88
3806.602	-88.88
3809.251	-90.88
3811.897	-89.88
3814.542	-88.88
3817.184	-89.88
3819.825	-86.88
3822.463	-90.88
3825.1	-86.88
3827.735	-87.88
3830.367	-92.88
3832.998	-93.88
3835.627	-89.88
3838.253	-90.88
3840.878	-89.88
3843.501	-90.88
3846.122	-91.88
3848.741	-87.88
3851.358	-90.88
3853.973	-92.88
3856.586	-91.88
3859.197	-96.88
3861.806	-94.88
3864.414	-91.88
3867.019	-92.88
3869.622	-86.88
3872.224	-89.88
3874.823	-84.88
3877.421	-83.88
3880.016	-87.88
3882.61	-84.88
3885.202	-85.88
3887.792	-85.88
3890.38	-90.88
3892.966	-89.88
3895.55	-97.88
3898.132	-95.88
3900.713	-90.88
3903.291	-93.88
3905.868	-98.88
3908.442	-95.88
3911.015	-92.88
3913.586	-92.88
3916.155	-93.88
3918.722	-92.88
3921.287	-87.88
3923.85	-88.88
3926.411	-91.88
3928.971	-94.88
3931.528	-92.88
3934.084	-96.88
3936.638	-96.88
3939.19	-96.88
3941.74	-95.88
3944.288	-95.88
3946.834	-94.88
3949.378	-94.88
3951.921	-94.88
3954.462	-92.88
3957	-93.88
3959.537	-97.88
3962.072	-94.88
3964.606	-94.88
3967.137	-96.88
3969.667	-93.88
3972.194	-93.88
3974.72	-93.88
3977.244	-91.88
3979.766	-91.88
3982.286	-93.88
3984.805	-96.88
3987.321	-87.88
3989.836	-91.88
3992.349	-93.88
3994.86	-96.88
3997.369	-96.88
3999.877	-96.88
4002.382	-95.88
4004.886	-90.88
4007.388	-93.88
4009.888	-94.88
4012.386	-96.88
4014.883	-91.88
4017.377	-94.88
4019.87	-90.88
4022.361	-93.88
4024.85	-94.88
4027.338	-92.88
4029.823	-93.88
4032.307	-97.88
4034.789	-94.88
4037.269	-94.88
4039.747	-94.88
4042.224	-96.88
4044.699	-94.88
4047.172	-96.88
4049.643	-91.88
4052.112	-93.88
4054.58	-92.88
4057.046	-89.88
4059.51	-95.88
4061.972	-95.88
4064.432	-90.88
4066.891	-91.88
4069.348	-95.88
4071.803	-98.88
4074.256	-94.88
4076.708	-96.88
4079.158	-94.88
4081.606	-93.88
4084.052	-93.88
4086.497	-90.88
4088.939	-88.88
4091.38	-91.88
4093.819	-92.88
4096.257	-98.88
4098.693	-101.88
4101.127	-98.88
4103.559	-98.88
4105.989	-64.88
4108.418	-57.88
4110.845	-52.88
4113.27	-47.88
4115.694	-48.88
4118.115	-37.88
4120.535	-91.88
4122.954	-90.88
4125.37	-93.88
4127.785	-98.88
4130.198	-93.88
4132.609	-93.88
4135.019	-97.88
4137.427	-96.88
4139.833	-98.88
4142.237	-97.88
