Data from B.sub_water_1000CFUA1_RamanShift_1.txt Node
Date: Wed Mar 08 15:00:32 IST 2017
User: aro
Spectrometer: QEPB0276
Trigger mode: 0
Integration Time (sec): 5.000000E0
Scans to average: 1
Electric dark correction enabled: true
Nonlinearity correction enabled: false
Boxcar width: 0
XAxis mode: Raman Shifts
Number of Pixels in Spectrum: 1044
>>>>>Begin Spectral Data<<<<<
160.701	-32.75
166.742	2.25
172.777	85.25
178.805	363.25
184.826	997.25
190.841	2079.25
196.849	3279.25
202.85	4012.25
208.845	4179.25
214.833	4036.25
220.815	3850.25
226.789	3745.25
232.758	3626.25
238.719	3498.25
244.674	3363.25
250.623	3232.25
256.565	3071.25
262.5	2913.25
268.429	2803.25
274.351	2651.25
280.267	2576.25
286.176	2448.25
292.079	2376.25
297.975	2300.25
303.865	2219.25
309.748	2172.25
315.625	2113.25
321.495	2063.25
327.359	2041.25
333.217	2008.25
339.068	2010.25
344.912	2013.25
350.751	1969.25
356.583	1974.25
362.408	1960.25
368.227	1975.25
374.04	1986.25
379.847	1990.25
385.647	1994.25
391.44	2020.25
397.228	2035.25
403.009	2049.25
408.784	2033.25
414.553	2045.25
420.315	2038.25
426.071	2046.25
431.821	2042.25
437.565	2048.25
443.302	2027.25
449.033	2029.25
454.758	1996.25
460.477	2006.25
466.189	1988.25
471.896	1976.25
477.596	1950.25
483.29	1958.25
488.978	1925.25
494.66	1937.25
500.335	1913.25
506.005	1884.25
511.668	1816.25
517.325	1771.25
522.977	1762.25
528.622	1717.25
534.261	1696.25
539.894	1674.25
545.521	1666.25
551.141	1652.25
556.756	1645.25
562.365	1629.25
567.968	1615.25
573.565	1591.25
579.155	1597.25
584.74	1569.25
590.319	1558.25
595.892	1551.25
601.459	1535.25
607.02	1518.25
612.575	1519.25
618.124	1493.25
623.667	1491.25
629.204	1456.25
634.735	1447.25
640.261	1429.25
645.781	1406.25
651.294	1424.25
656.802	1404.25
662.304	1389.25
667.8	1381.25
673.29	1381.25
678.775	1370.25
684.254	1366.25
689.726	1359.25
695.193	1338.25
700.655	1343.25
706.11	1330.25
711.56	1306.25
717.004	1308.25
722.442	1281.25
727.874	1280.25
733.301	1274.25
738.722	1268.25
744.137	1259.25
749.547	1259.25
754.951	1246.25
760.349	1248.25
765.741	1226.25
771.128	1243.25
776.509	1230.25
781.885	1231.25
787.254	1219.25
792.618	1215.25
797.977	1196.25
803.33	1198.25
808.677	1178.25
814.019	1173.25
819.355	1156.25
824.686	1155.25
830.011	1131.25
835.33	1126.25
840.644	1104.25
845.952	1113.25
851.255	1102.25
856.552	1086.25
861.844	1078.25
867.13	1070.25
872.41	1059.25
877.686	1054.25
882.955	1032.25
888.219	1004.25
893.478	987.25
898.731	976.25
903.979	961.25
909.221	947.25
914.458	936.25
919.69	935.25
924.916	912.25
930.136	934.25
935.351	919.25
940.561	921.25
945.766	912.25
950.965	902.25
956.158	898.25
961.347	871.25
966.529	862.25
971.707	853.25
976.879	835.25
982.046	823.25
987.208	829.25
992.364	813.25
997.515	835.25
1002.66	823.25
1007.801	836.25
1012.936	856.25
1018.066	843.25
1023.19	841.25
1028.309	849.25
1033.423	849.25
1038.532	847.25
1043.636	823.25
1048.734	829.25
1053.827	823.25
1058.915	799.25
1063.998	796.25
1069.075	793.25
1074.147	801.25
1079.214	800.25
1084.276	811.25
1089.333	815.25
1094.385	815.25
1099.431	821.25
1104.472	816.25
1109.509	807.25
1114.54	800.25
1119.565	793.25
1124.586	779.25
1129.602	764.25
1134.613	790.25
1139.618	766.25
1144.619	765.25
1149.614	769.25
1154.604	778.25
1159.589	767.25
1164.57	764.25
1169.545	775.25
1174.515	776.25
1179.48	768.25
1184.44	771.25
1189.395	760.25
1194.345	775.25
1199.29	741.25
1204.23	761.25
1209.165	751.25
1214.095	764.25
1219.021	761.25
1223.941	765.25
1228.856	770.25
1233.766	792.25
1238.672	783.25
1243.572	774.25
1248.467	762.25
1253.358	758.25
1258.244	753.25
1263.124	726.25
1268	723.25
1272.871	713.25
1277.737	709.25
1282.599	709.25
1287.455	716.25
1292.306	711.25
1297.153	719.25
1301.995	723.25
1306.832	725.25
1311.664	735.25
1316.491	726.25
1321.314	714.25
1326.132	718.25
1330.945	684.25
1335.753	694.25
1340.556	667.25
1345.354	654.25
1350.148	646.25
1354.937	645.25
1359.722	642.25
1364.501	654.25
1369.276	658.25
1374.046	665.25
1378.811	670.25
1383.572	675.25
1388.327	667.25
1393.079	651.25
1397.825	637.25
1402.567	643.25
1407.304	635.25
1412.036	632.25
1416.764	618.25
1421.487	622.25
1426.205	619.25
1430.919	622.25
1435.628	622.25
1440.333	633.25
1445.032	636.25
1449.727	638.25
1454.418	629.25
1459.104	643.25
1463.785	636.25
1468.462	626.25
1473.134	622.25
1477.802	617.25
1482.465	614.25
1487.123	616.25
1491.777	624.25
1496.426	631.25
1501.071	636.25
1505.711	653.25
1510.347	673.25
1514.978	674.25
1519.604	678.25
1524.226	687.25
1528.844	689.25
1533.457	682.25
1538.065	681.25
1542.669	687.25
1547.269	695.25
1551.864	704.25
1556.454	713.25
1561.041	722.25
1565.622	731.25
1570.199	729.25
1574.772	746.25
1579.34	747.25
1583.904	776.25
1588.464	780.25
1593.019	804.25
1597.569	809.25
1602.115	838.25
1606.657	841.25
1611.195	867.25
1615.728	867.25
1620.256	897.25
1624.78	901.25
1629.3	916.25
1633.816	941.25
1638.327	954.25
1642.834	961.25
1647.336	982.25
1651.834	975.25
1656.328	971.25
1660.817	953.25
1665.302	932.25
1669.783	925.25
1674.259	904.25
1678.732	851.25
1683.199	821.25
1687.663	789.25
1692.122	728.25
1696.577	707.25
1701.028	684.25
1705.474	674.25
1709.917	650.25
1714.355	621.25
1718.788	596.25
1723.218	577.25
1727.643	551.25
1732.064	542.25
1736.481	511.25
1740.893	499.25
1745.301	469.25
1749.705	469.25
1754.105	438.25
1758.501	427.25
1762.893	414.25
1767.28	404.25
1771.663	405.25
1776.042	385.25
1780.417	388.25
1784.787	388.25
1789.154	392.25
1793.516	374.25
1797.874	401.25
1802.228	393.25
1806.578	387.25
1810.924	387.25
1815.266	378.25
1819.603	373.25
1823.937	358.25
1828.266	356.25
1832.591	348.25
1836.913	342.25
1841.23	344.25
1845.543	338.25
1849.852	338.25
1854.156	338.25
1858.457	334.25
1862.754	335.25
1867.047	349.25
1871.335	339.25
1875.62	342.25
1879.9	354.25
1884.177	342.25
1888.449	342.25
1892.718	349.25
1896.982	341.25
1901.243	340.25
1905.499	336.25
1909.752	333.25
1914	341.25
1918.245	342.25
1922.485	349.25
1926.722	351.25
1930.954	346.25
1935.183	352.25
1939.408	361.25
1943.628	360.25
1947.845	359.25
1952.058	361.25
1956.267	359.25
1960.472	358.25
1964.673	354.25
1968.87	345.25
1973.063	348.25
1977.252	347.25
1981.438	337.25
1985.619	336.25
1989.797	340.25
1993.971	337.25
1998.14	333.25
2002.306	351.25
2006.469	348.25
2010.627	355.25
2014.781	345.25
2018.932	340.25
2023.078	341.25
2027.221	354.25
2031.36	334.25
2035.495	345.25
2039.627	335.25
2043.754	335.25
2047.878	332.25
2051.998	329.25
2056.114	335.25
2060.226	339.25
2064.334	346.25
2068.439	348.25
2072.54	349.25
2076.637	347.25
2080.73	355.25
2084.82	356.25
2088.906	351.25
2092.988	360.25
2097.066	358.25
2101.14	360.25
2105.211	353.25
2109.278	355.25
2113.342	348.25
2117.401	335.25
2121.457	352.25
2125.509	347.25
2129.558	352.25
2133.602	341.25
2137.643	347.25
2141.681	334.25
2145.714	339.25
2149.744	326.25
2153.77	322.25
2157.793	328.25
2161.812	318.25
2165.827	307.25
2169.838	309.25
2173.846	295.25
2177.851	292.25
2181.851	298.25
2185.848	282.25
2189.841	282.25
2193.831	274.25
2197.817	280.25
2201.799	275.25
2205.778	274.25
2209.753	270.25
2213.725	260.25
2217.693	266.25
2221.657	266.25
2225.618	271.25
2229.575	253.25
2233.529	256.25
2237.479	251.25
2241.425	247.25
2245.368	242.25
2249.307	242.25
2253.243	236.25
2257.175	236.25
2261.104	226.25
2265.029	226.25
2268.95	223.25
2272.868	218.25
2276.783	209.25
2280.694	207.25
2284.601	203.25
2288.505	200.25
2292.405	208.25
2296.302	199.25
2300.195	193.25
2304.085	194.25
2307.971	189.25
2311.854	181.25
2315.734	174.25
2319.609	173.25
2323.482	170.25
2327.351	167.25
2331.216	171.25
2335.078	171.25
2338.937	163.25
2342.792	161.25
2346.643	160.25
2350.492	153.25
2354.336	156.25
2358.178	153.25
2362.015	154.25
2365.85	152.25
2369.681	154.25
2373.508	151.25
2377.333	161.25
2381.153	148.25
2384.971	140.25
2388.785	147.25
2392.595	137.25
2396.402	137.25
2400.206	136.25
2404.007	129.25
2407.804	134.25
2411.597	140.25
2415.388	138.25
2419.174	137.25
2422.958	136.25
2426.738	132.25
2430.515	124.25
2434.289	124.25
2438.059	127.25
2441.825	124.25
2445.589	120.25
2449.349	121.25
2453.106	124.25
2456.859	120.25
2460.61	118.25
2464.356	113.25
2468.1	116.25
2471.84	113.25
2475.577	116.25
2479.311	112.25
2483.041	112.25
2486.768	114.25
2490.492	114.25
2494.213	114.25
2497.93	112.25
2501.644	108.25
2505.355	110.25
2509.062	104.25
2512.766	111.25
2516.467	109.25
2520.165	112.25
2523.859	109.25
2527.551	112.25
2531.239	106.25
2534.923	98.25
2538.605	101.25
2542.283	101.25
2545.958	96.25
2549.63	97.25
2553.299	96.25
2556.964	95.25
2560.626	98.25
2564.285	95.25
2567.941	89.25
2571.594	94.25
2575.243	94.25
2578.89	87.25
2582.533	95.25
2586.173	87.25
2589.809	87.25
2593.443	83.25
2597.073	94.25
2600.701	83.25
2604.325	86.25
2607.946	86.25
2611.564	86.25
2615.178	82.25
2618.79	85.25
2622.398	82.25
2626.004	83.25
2629.606	81.25
2633.205	80.25
2636.801	79.25
2640.394	77.25
2643.983	75.25
2647.57	69.25
2651.153	68.25
2654.734	69.25
2658.311	64.25
2661.885	69.25
2665.456	68.25
2669.025	68.25
2672.589	70.25
2676.151	68.25
2679.71	70.25
2683.266	69.25
2686.819	62.25
2690.368	65.25
2693.915	60.25
2697.458	55.25
2700.999	57.25
2704.536	52.25
2708.071	51.25
2711.602	66.25
2715.13	59.25
2718.656	59.25
2722.178	57.25
2725.697	62.25
2729.214	57.25
2732.727	53.25
2736.237	54.25
2739.744	56.25
2743.249	66.25
2746.75	62.25
2750.248	64.25
2753.743	65.25
2757.236	65.25
2760.725	63.25
2764.211	62.25
2767.695	61.25
2771.175	65.25
2774.652	68.25
2778.127	63.25
2781.598	67.25
2785.067	70.25
2788.532	61.25
2791.995	69.25
2795.455	61.25
2798.911	75.25
2802.365	66.25
2805.816	75.25
2809.264	76.25
2812.709	79.25
2816.151	77.25
2819.59	81.25
2823.026	86.25
2826.46	74.25
2829.89	79.25
2833.318	90.25
2836.742	84.25
2840.164	90.25
2843.583	75.25
2846.999	84.25
2850.412	86.25
2853.822	94.25
2857.229	101.25
2860.634	102.25
2864.035	101.25
2867.434	111.25
2870.83	120.25
2874.223	117.25
2877.613	116.25
2881	120.25
2884.385	118.25
2887.766	119.25
2891.145	118.25
2894.521	126.25
2897.894	131.25
2901.264	136.25
2904.631	132.25
2907.996	143.25
2911.358	138.25
2914.717	139.25
2918.073	143.25
2921.426	150.25
2924.777	160.25
2928.124	162.25
2931.469	163.25
2934.811	165.25
2938.15	175.25
2941.487	186.25
2944.821	183.25
2948.152	183.25
2951.48	188.25
2954.805	195.25
2958.128	202.25
2961.447	207.25
2964.765	219.25
2968.079	214.25
2971.39	225.25
2974.699	226.25
2978.005	240.25
2981.308	244.25
2984.609	260.25
2987.907	266.25
2991.202	278.25
2994.494	294.25
2997.784	304.25
3001.07	321.25
3004.355	331.25
3007.636	339.25
3010.915	352.25
3014.191	348.25
3017.464	363.25
3020.734	377.25
3024.002	366.25
3027.267	380.25
3030.53	393.25
3033.789	399.25
3037.046	416.25
3040.301	427.25
3043.552	437.25
3046.801	453.25
3050.048	476.25
3053.291	476.25
3056.532	498.25
3059.771	509.25
3063.006	533.25
3066.239	561.25
3069.469	562.25
3072.697	588.25
3075.922	603.25
3079.144	629.25
3082.364	637.25
3085.581	664.25
3088.795	669.25
3092.007	698.25
3095.216	712.25
3098.423	722.25
3101.627	754.25
3104.828	769.25
3108.026	782.25
3111.222	806.25
3114.416	831.25
3117.607	842.25
3120.795	864.25
3123.98	887.25
3127.163	902.25
3130.344	937.25
3133.521	953.25
3136.696	979.25
3139.869	1008.25
3143.039	1024.25
3146.206	1047.25
3149.371	1053.25
3152.533	1068.25
3155.693	1073.25
3158.85	1082.25
3162.005	1073.25
3165.157	1090.25
3168.306	1088.25
3171.453	1097.25
3174.597	1112.25
3177.739	1104.25
3180.878	1115.25
3184.014	1115.25
3187.149	1119.25
3190.28	1134.25
3193.409	1115.25
3196.536	1140.25
3199.659	1134.25
3202.781	1148.25
3205.9	1150.25
3209.016	1152.25
3212.13	1148.25
3215.241	1135.25
3218.35	1136.25
3221.456	1121.25
3224.56	1108.25
3227.661	1114.25
3230.76	1088.25
3233.856	1084.25
3236.95	1080.25
3240.041	1062.25
3243.13	1065.25
3246.216	1064.25
3249.3	1059.25
3252.382	1047.25
3255.46	1050.25
3258.537	1042.25
3261.611	1034.25
3264.682	1036.25
3267.751	1021.25
3270.818	1021.25
3273.882	1018.25
3276.943	1010.25
3280.002	998.25
3283.059	993.25
3286.113	971.25
3289.165	963.25
3292.214	956.25
3295.261	936.25
3298.306	919.25
3301.348	916.25
3304.387	893.25
3307.425	880.25
3310.459	861.25
3313.492	854.25
3316.521	855.25
3319.549	831.25
3322.574	839.25
3325.597	831.25
3328.617	827.25
3331.635	824.25
3334.65	820.25
3337.663	802.25
3340.674	804.25
3343.682	803.25
3346.688	800.25
3349.691	801.25
3352.692	786.25
3355.691	786.25
3358.687	780.25
3361.681	766.25
3364.673	760.25
3367.662	749.25
3370.649	747.25
3373.633	728.25
3376.615	718.25
3379.595	725.25
3382.572	717.25
3385.547	701.25
3388.52	688.25
3391.49	685.25
3394.458	663.25
3397.424	657.25
3400.387	653.25
3403.348	654.25
3406.307	641.25
3409.263	630.25
3412.217	624.25
3415.168	624.25
3418.118	605.25
3421.065	601.25
3424.009	607.25
3426.951	592.25
3429.891	578.25
3432.829	575.25
3435.764	560.25
3438.697	558.25
3441.628	533.25
3444.557	524.25
3447.483	503.25
3450.407	497.25
3453.328	484.25
3456.247	468.25
3459.164	444.25
3462.079	439.25
3464.991	432.25
3467.902	415.25
3470.809	397.25
3473.715	387.25
3476.618	372.25
3479.519	363.25
3482.418	356.25
3485.315	336.25
3488.209	337.25
3491.101	333.25
3493.99	317.25
3496.878	305.25
3499.763	284.25
3502.646	273.25
3505.527	280.25
3508.405	263.25
3511.281	248.25
3514.155	249.25
3517.027	235.25
3519.897	217.25
3522.764	205.25
3525.629	203.25
3528.492	197.25
3531.352	177.25
3534.211	161.25
3537.067	163.25
3539.921	139.25
3542.773	138.25
3545.622	129.25
3548.469	126.25
3551.315	115.25
3554.157	106.25
3556.998	99.25
3559.837	91.25
3562.673	79.25
3565.507	74.25
3568.339	75.25
3571.169	68.25
3573.996	54.25
3576.822	59.25
3579.645	47.25
3582.466	40.25
3585.285	39.25
3588.101	25.25
3590.916	24.25
3593.728	24.25
3596.538	21.25
3599.346	13.25
3602.152	13.25
3604.956	6.25
3607.757	-1.75
3610.556	-0.75
3613.354	-5.75
3616.149	-8.75
3618.942	-10.75
3621.732	-17.75
3624.521	-18.75
3627.307	-16.75
3630.092	-19.75
3632.874	-23.75
3635.654	-28.75
3638.432	-27.75
3641.208	-34.75
3643.982	-34.75
3646.753	-41.75
3649.523	-37.75
3652.29	-40.75
3655.055	-46.75
3657.818	-49.75
3660.579	-47.75
3663.338	-52.75
3666.095	-53.75
3668.849	-56.75
3671.602	-60.75
3674.352	-57.75
3677.101	-62.75
3679.847	-61.75
3682.591	-65.75
3685.333	-66.75
3688.073	-71.75
3690.811	-71.75
3693.547	-74.75
3696.281	-73.75
3699.013	-76.75
3701.742	-75.75
3704.47	-79.75
3707.195	-76.75
3709.919	-75.75
3712.64	-75.75
3715.359	-79.75
3718.076	-78.75
3720.792	-81.75
3723.505	-81.75
3726.216	-86.75
3728.925	-84.75
3731.632	-83.75
3734.336	-87.75
3737.039	-87.75
3739.74	-87.75
3742.439	-84.75
3745.136	-86.75
3747.83	-87.75
3750.523	-90.75
3753.213	-90.75
3755.902	-90.75
3758.589	-89.75
3761.273	-89.75
3763.956	-89.75
3766.636	-89.75
3769.315	-92.75
3771.991	-91.75
3774.665	-96.75
3777.338	-96.75
3780.008	-95.75
3782.677	-95.75
3785.343	-93.75
3788.007	-91.75
3790.67	-90.75
3793.33	-89.75
3795.989	-91.75
3798.645	-98.75
3801.299	-92.75
3803.952	-98.75
3806.602	-97.75
3809.251	-97.75
3811.897	-98.75
3814.542	-96.75
3817.184	-96.75
3819.825	-93.75
3822.463	-97.75
3825.1	-94.75
3827.735	-95.75
3830.367	-101.75
3832.998	-98.75
3835.627	-95.75
3838.253	-99.75
3840.878	-102.75
3843.501	-98.75
3846.122	-102.75
3848.741	-98.75
3851.358	-97.75
3853.973	-95.75
3856.586	-94.75
3859.197	-101.75
3861.806	-99.75
3864.414	-99.75
3867.019	-97.75
3869.622	-94.75
3872.224	-99.75
3874.823	-98.75
3877.421	-93.75
3880.016	-93.75
3882.61	-90.75
3885.202	-88.75
3887.792	-92.75
3890.38	-94.75
3892.966	-95.75
3895.55	-99.75
3898.132	-98.75
3900.713	-96.75
3903.291	-100.75
3905.868	-103.75
3908.442	-100.75
3911.015	-103.75
3913.586	-103.75
3916.155	-105.75
3918.722	-103.75
3921.287	-98.75
3923.85	-96.75
3926.411	-102.75
3928.971	-102.75
3931.528	-99.75
3934.084	-103.75
3936.638	-104.75
3939.19	-102.75
3941.74	-100.75
3944.288	-104.75
3946.834	-104.75
3949.378	-105.75
3951.921	-105.75
3954.462	-99.75
3957	-103.75
3959.537	-102.75
3962.072	-102.75
3964.606	-100.75
3967.137	-105.75
3969.667	-102.75
3972.194	-102.75
3974.72	-100.75
3977.244	-100.75
3979.766	-101.75
3982.286	-100.75
3984.805	-104.75
3987.321	-97.75
3989.836	-97.75
3992.349	-101.75
3994.86	-103.75
3997.369	-102.75
3999.877	-100.75
4002.382	-102.75
4004.886	-97.75
4007.388	-98.75
4009.888	-98.75
4012.386	-102.75
4014.883	-101.75
4017.377	-105.75
4019.87	-102.75
4022.361	-104.75
4024.85	-101.75
4027.338	-99.75
4029.823	-99.75
4032.307	-102.75
4034.789	-98.75
4037.269	-100.75
4039.747	-98.75
4042.224	-101.75
4044.699	-103.75
4047.172	-106.75
4049.643	-102.75
4052.112	-104.75
4054.58	-101.75
4057.046	-102.75
4059.51	-102.75
4061.972	-102.75
4064.432	-96.75
4066.891	-98.75
4069.348	-99.75
4071.803	-103.75
4074.256	-105.75
4076.708	-104.75
4079.158	-103.75
4081.606	-103.75
4084.052	-103.75
4086.497	-99.75
4088.939	-98.75
4091.38	-97.75
4093.819	-100.75
4096.257	-105.75
4098.693	-107.75
4101.127	-106.75
4103.559	-109.75
4105.989	-71.75
4108.418	-62.75
4110.845	-62.75
4113.27	-58.75
4115.694	-55.75
4118.115	-44.75
4120.535	-102.75
4122.954	-101.75
4125.37	-101.75
4127.785	-105.75
4130.198	-98.75
4132.609	-99.75
4135.019	-104.75
4137.427	-103.75
4139.833	-104.75
4142.237	-104.75
