Data from B.sub_water_100000CFUA1_RamanShift_1.txt Node
Date: Wed Mar 08 15:14:32 IST 2017
User: aro
Spectrometer: QEPB0276
Trigger mode: 0
Integration Time (sec): 5.000000E0
Scans to average: 1
Electric dark correction enabled: true
Nonlinearity correction enabled: false
Boxcar width: 0
XAxis mode: Raman Shifts
Number of Pixels in Spectrum: 1044
>>>>>Begin Spectral Data<<<<<
160.701	-29.62
166.742	-4.62
172.777	79.38
178.805	327.38
184.826	917.38
190.841	1893.38
196.849	2976.38
202.85	3686.38
208.845	3846.38
214.833	3671.38
220.815	3548.38
226.789	3424.38
232.758	3358.38
238.719	3216.38
244.674	3071.38
250.623	2952.38
256.565	2817.38
262.5	2686.38
268.429	2555.38
274.351	2463.38
280.267	2342.38
286.176	2255.38
292.079	2167.38
297.975	2079.38
303.865	2041.38
309.748	1990.38
315.625	1927.38
321.495	1912.38
327.359	1878.38
333.217	1877.38
339.068	1839.38
344.912	1832.38
350.751	1808.38
356.583	1827.38
362.408	1824.38
368.227	1828.38
374.04	1827.38
379.847	1828.38
385.647	1841.38
391.44	1853.38
397.228	1885.38
403.009	1858.38
408.784	1853.38
414.553	1882.38
420.315	1882.38
426.071	1891.38
431.821	1897.38
437.565	1894.38
443.302	1864.38
449.033	1873.38
454.758	1849.38
460.477	1833.38
466.189	1828.38
471.896	1827.38
477.596	1810.38
483.29	1807.38
488.978	1777.38
494.66	1780.38
500.335	1758.38
506.005	1714.38
511.668	1683.38
517.325	1619.38
522.977	1611.38
528.622	1591.38
534.261	1551.38
539.894	1550.38
545.521	1531.38
551.141	1524.38
556.756	1514.38
562.365	1503.38
567.968	1484.38
573.565	1461.38
579.155	1470.38
584.74	1460.38
590.319	1436.38
595.892	1430.38
601.459	1414.38
607.02	1408.38
612.575	1396.38
618.124	1368.38
623.667	1343.38
629.204	1341.38
634.735	1335.38
640.261	1325.38
645.781	1305.38
651.294	1294.38
656.802	1286.38
662.304	1291.38
667.8	1269.38
673.29	1264.38
678.775	1260.38
684.254	1258.38
689.726	1252.38
695.193	1238.38
700.655	1231.38
706.11	1214.38
711.56	1206.38
717.004	1197.38
722.442	1184.38
727.874	1166.38
733.301	1168.38
738.722	1158.38
744.137	1147.38
749.547	1149.38
754.951	1138.38
760.349	1135.38
765.741	1133.38
771.128	1135.38
776.509	1136.38
781.885	1127.38
787.254	1128.38
792.618	1110.38
797.977	1111.38
803.33	1090.38
808.677	1092.38
814.019	1070.38
819.355	1056.38
824.686	1046.38
830.011	1029.38
835.33	1042.38
840.644	1024.38
845.952	1022.38
851.255	1006.38
856.552	1000.38
861.844	1006.38
867.13	982.38
872.41	975.38
877.686	960.38
882.955	945.38
888.219	938.38
893.478	904.38
898.731	891.38
903.979	874.38
909.221	871.38
914.458	860.38
919.69	853.38
924.916	848.38
930.136	840.38
935.351	840.38
940.561	846.38
945.766	829.38
950.965	824.38
956.158	827.38
961.347	806.38
966.529	790.38
971.707	783.38
976.879	766.38
982.046	761.38
987.208	748.38
992.364	736.38
997.515	755.38
1002.66	744.38
1007.801	763.38
1012.936	761.38
1018.066	778.38
1023.19	780.38
1028.309	783.38
1033.423	769.38
1038.532	781.38
1043.636	757.38
1048.734	758.38
1053.827	744.38
1058.915	735.38
1063.998	735.38
1069.075	730.38
1074.147	727.38
1079.214	726.38
1084.276	731.38
1089.333	735.38
1094.385	741.38
1099.431	743.38
1104.472	748.38
1109.509	747.38
1114.54	732.38
1119.565	727.38
1124.586	705.38
1129.602	705.38
1134.613	698.38
1139.618	686.38
1144.619	698.38
1149.614	692.38
1154.604	709.38
1159.589	702.38
1164.57	709.38
1169.545	706.38
1174.515	706.38
1179.48	700.38
1184.44	699.38
1189.395	698.38
1194.345	703.38
1199.29	686.38
1204.23	690.38
1209.165	683.38
1214.095	698.38
1219.021	693.38
1223.941	705.38
1228.856	700.38
1233.766	711.38
1238.672	711.38
1243.572	713.38
1248.467	698.38
1253.358	698.38
1258.244	680.38
1263.124	682.38
1268	661.38
1272.871	657.38
1277.737	643.38
1282.599	646.38
1287.455	631.38
1292.306	644.38
1297.153	652.38
1301.995	651.38
1306.832	653.38
1311.664	659.38
1316.491	665.38
1321.314	659.38
1326.132	634.38
1330.945	622.38
1335.753	618.38
1340.556	596.38
1345.354	585.38
1350.148	578.38
1354.937	576.38
1359.722	586.38
1364.501	580.38
1369.276	592.38
1374.046	607.38
1378.811	624.38
1383.572	612.38
1388.327	620.38
1393.079	596.38
1397.825	590.38
1402.567	579.38
1407.304	572.38
1412.036	567.38
1416.764	560.38
1421.487	565.38
1426.205	554.38
1430.919	557.38
1435.628	561.38
1440.333	565.38
1445.032	575.38
1449.727	575.38
1454.418	572.38
1459.104	577.38
1463.785	569.38
1468.462	563.38
1473.134	567.38
1477.802	548.38
1482.465	545.38
1487.123	555.38
1491.777	551.38
1496.426	565.38
1501.071	572.38
1505.711	583.38
1510.347	601.38
1514.978	609.38
1519.604	604.38
1524.226	621.38
1528.844	628.38
1533.457	621.38
1538.065	625.38
1542.669	611.38
1547.269	621.38
1551.864	619.38
1556.454	645.38
1561.041	644.38
1565.622	651.38
1570.199	654.38
1574.772	665.38
1579.34	681.38
1583.904	698.38
1588.464	714.38
1593.019	734.38
1597.569	747.38
1602.115	753.38
1606.657	760.38
1611.195	774.38
1615.728	779.38
1620.256	807.38
1624.78	811.38
1629.3	815.38
1633.816	847.38
1638.327	860.38
1642.834	867.38
1647.336	870.38
1651.834	881.38
1656.328	869.38
1660.817	874.38
1665.302	849.38
1669.783	821.38
1674.259	794.38
1678.732	763.38
1683.199	726.38
1687.663	685.38
1692.122	647.38
1696.577	627.38
1701.028	613.38
1705.474	608.38
1709.917	596.38
1714.355	560.38
1718.788	548.38
1723.218	520.38
1727.643	496.38
1732.064	484.38
1736.481	464.38
1740.893	449.38
1745.301	424.38
1749.705	409.38
1754.105	386.38
1758.501	380.38
1762.893	378.38
1767.28	359.38
1771.663	351.38
1776.042	346.38
1780.417	350.38
1784.787	341.38
1789.154	345.38
1793.516	348.38
1797.874	352.38
1802.228	352.38
1806.578	350.38
1810.924	343.38
1815.266	345.38
1819.603	323.38
1823.937	325.38
1828.266	316.38
1832.591	311.38
1836.913	311.38
1841.23	307.38
1845.543	303.38
1849.852	301.38
1854.156	302.38
1858.457	304.38
1862.754	291.38
1867.047	298.38
1871.335	307.38
1875.62	303.38
1879.9	296.38
1884.177	310.38
1888.449	297.38
1892.718	303.38
1896.982	292.38
1901.243	301.38
1905.499	302.38
1909.752	292.38
1914	288.38
1918.245	292.38
1922.485	297.38
1926.722	306.38
1930.954	303.38
1935.183	309.38
1939.408	320.38
1943.628	309.38
1947.845	315.38
1952.058	317.38
1956.267	317.38
1960.472	315.38
1964.673	312.38
1968.87	300.38
1973.063	300.38
1977.252	306.38
1981.438	297.38
1985.619	297.38
1989.797	288.38
1993.971	298.38
1998.14	299.38
2002.306	307.38
2006.469	305.38
2010.627	292.38
2014.781	301.38
2018.932	307.38
2023.078	300.38
2027.221	309.38
2031.36	298.38
2035.495	296.38
2039.627	294.38
2043.754	299.38
2047.878	296.38
2051.998	294.38
2056.114	291.38
2060.226	304.38
2064.334	297.38
2068.439	304.38
2072.54	305.38
2076.637	310.38
2080.73	305.38
2084.82	304.38
2088.906	305.38
2092.988	316.38
2097.066	311.38
2101.14	314.38
2105.211	310.38
2109.278	300.38
2113.342	297.38
2117.401	295.38
2121.457	298.38
2125.509	301.38
2129.558	299.38
2133.602	296.38
2137.643	294.38
2141.681	298.38
2145.714	294.38
2149.744	286.38
2153.77	287.38
2157.793	278.38
2161.812	272.38
2165.827	275.38
2169.838	271.38
2173.846	265.38
2177.851	243.38
2181.851	249.38
2185.848	246.38
2189.841	249.38
2193.831	245.38
2197.817	246.38
2201.799	226.38
2205.778	230.38
2209.753	229.38
2213.725	232.38
2217.693	232.38
2221.657	226.38
2225.618	237.38
2229.575	222.38
2233.529	222.38
2237.479	217.38
2241.425	211.38
2245.368	202.38
2249.307	217.38
2253.243	202.38
2257.175	209.38
2261.104	201.38
2265.029	193.38
2268.95	192.38
2272.868	183.38
2276.783	183.38
2280.694	179.38
2284.601	181.38
2288.505	168.38
2292.405	170.38
2296.302	163.38
2300.195	167.38
2304.085	164.38
2307.971	158.38
2311.854	163.38
2315.734	156.38
2319.609	147.38
2323.482	137.38
2327.351	138.38
2331.216	140.38
2335.078	137.38
2338.937	139.38
2342.792	130.38
2346.643	129.38
2350.492	131.38
2354.336	121.38
2358.178	135.38
2362.015	118.38
2365.85	125.38
2369.681	129.38
2373.508	125.38
2377.333	127.38
2381.153	125.38
2384.971	123.38
2388.785	115.38
2392.595	117.38
2396.402	116.38
2400.206	107.38
2404.007	114.38
2407.804	113.38
2411.597	108.38
2415.388	108.38
2419.174	112.38
2422.958	109.38
2426.738	103.38
2430.515	106.38
2434.289	112.38
2438.059	101.38
2441.825	111.38
2445.589	103.38
2449.349	106.38
2453.106	93.38
2456.859	94.38
2460.61	90.38
2464.356	92.38
2468.1	86.38
2471.84	90.38
2475.577	90.38
2479.311	91.38
2483.041	96.38
2486.768	89.38
2490.492	93.38
2494.213	98.38
2497.93	91.38
2501.644	92.38
2505.355	88.38
2509.062	90.38
2512.766	85.38
2516.467	82.38
2520.165	75.38
2523.859	88.38
2527.551	83.38
2531.239	85.38
2534.923	80.38
2538.605	82.38
2542.283	77.38
2545.958	72.38
2549.63	74.38
2553.299	77.38
2556.964	77.38
2560.626	77.38
2564.285	77.38
2567.941	78.38
2571.594	76.38
2575.243	71.38
2578.89	70.38
2582.533	77.38
2586.173	71.38
2589.809	69.38
2593.443	66.38
2597.073	68.38
2600.701	69.38
2604.325	68.38
2607.946	68.38
2611.564	62.38
2615.178	66.38
2618.79	59.38
2622.398	66.38
2626.004	70.38
2629.606	58.38
2633.205	64.38
2636.801	61.38
2640.394	57.38
2643.983	60.38
2647.57	52.38
2651.153	54.38
2654.734	54.38
2658.311	52.38
2661.885	56.38
2665.456	54.38
2669.025	52.38
2672.589	53.38
2676.151	54.38
2679.71	50.38
2683.266	51.38
2686.819	50.38
2690.368	42.38
2693.915	42.38
2697.458	48.38
2700.999	36.38
2704.536	41.38
2708.071	42.38
2711.602	39.38
2715.13	42.38
2718.656	45.38
2722.178	43.38
2725.697	42.38
2729.214	41.38
2732.727	48.38
2736.237	43.38
2739.744	45.38
2743.249	43.38
2746.75	48.38
2750.248	53.38
2753.743	50.38
2757.236	43.38
2760.725	46.38
2764.211	48.38
2767.695	48.38
2771.175	53.38
2774.652	56.38
2778.127	53.38
2781.598	55.38
2785.067	55.38
2788.532	56.38
2791.995	60.38
2795.455	54.38
2798.911	53.38
2802.365	52.38
2805.816	58.38
2809.264	55.38
2812.709	64.38
2816.151	62.38
2819.59	63.38
2823.026	65.38
2826.46	66.38
2829.89	64.38
2833.318	71.38
2836.742	62.38
2840.164	70.38
2843.583	70.38
2846.999	69.38
2850.412	79.38
2853.822	79.38
2857.229	84.38
2860.634	80.38
2864.035	88.38
2867.434	91.38
2870.83	89.38
2874.223	106.38
2877.613	100.38
2881	106.38
2884.385	101.38
2887.766	99.38
2891.145	112.38
2894.521	106.38
2897.894	108.38
2901.264	107.38
2904.631	118.38
2907.996	116.38
2911.358	121.38
2914.717	116.38
2918.073	118.38
2921.426	131.38
2924.777	125.38
2928.124	128.38
2931.469	146.38
2934.811	145.38
2938.15	149.38
2941.487	155.38
2944.821	157.38
2948.152	158.38
2951.48	165.38
2954.805	170.38
2958.128	171.38
2961.447	185.38
2964.765	187.38
2968.079	188.38
2971.39	199.38
2974.699	202.38
2978.005	213.38
2981.308	220.38
2984.609	225.38
2987.907	240.38
2991.202	252.38
2994.494	264.38
2997.784	267.38
3001.07	280.38
3004.355	300.38
3007.636	308.38
3010.915	311.38
3014.191	315.38
3017.464	329.38
3020.734	338.38
3024.002	334.38
3027.267	339.38
3030.53	354.38
3033.789	354.38
3037.046	374.38
3040.301	385.38
3043.552	397.38
3046.801	403.38
3050.048	417.38
3053.291	433.38
3056.532	434.38
3059.771	466.38
3063.006	478.38
3066.239	493.38
3069.469	502.38
3072.697	531.38
3075.922	538.38
3079.144	550.38
3082.364	566.38
3085.581	578.38
3088.795	600.38
3092.007	618.38
3095.216	640.38
3098.423	640.38
3101.627	673.38
3104.828	690.38
3108.026	692.38
3111.222	715.38
3114.416	741.38
3117.607	751.38
3120.795	769.38
3123.98	785.38
3127.163	799.38
3130.344	843.38
3133.521	851.38
3136.696	874.38
3139.869	903.38
3143.039	911.38
3146.206	926.38
3149.371	943.38
3152.533	954.38
3155.693	958.38
3158.85	958.38
3162.005	958.38
3165.157	973.38
3168.306	981.38
3171.453	971.38
3174.597	984.38
3177.739	987.38
3180.878	1004.38
3184.014	1004.38
3187.149	1005.38
3190.28	1002.38
3193.409	1008.38
3196.536	1025.38
3199.659	1022.38
3202.781	1017.38
3205.9	1021.38
3209.016	1032.38
3212.13	1027.38
3215.241	1014.38
3218.35	1012.38
3221.456	1022.38
3224.56	998.38
3227.661	982.38
3230.76	996.38
3233.856	985.38
3236.95	972.38
3240.041	976.38
3243.13	961.38
3246.216	959.38
3249.3	949.38
3252.382	953.38
3255.46	941.38
3258.537	923.38
3261.611	936.38
3264.682	929.38
3267.751	915.38
3270.818	926.38
3273.882	934.38
3276.943	913.38
3280.002	913.38
3283.059	899.38
3286.113	881.38
3289.165	875.38
3292.214	862.38
3295.261	850.38
3298.306	830.38
3301.348	829.38
3304.387	822.38
3307.425	805.38
3310.459	785.38
3313.492	773.38
3316.521	771.38
3319.549	760.38
3322.574	747.38
3325.597	752.38
3328.617	743.38
3331.635	740.38
3334.65	734.38
3337.663	740.38
3340.674	736.38
3343.682	721.38
3346.688	735.38
3349.691	723.38
3352.692	702.38
3355.691	704.38
3358.687	705.38
3361.681	700.38
3364.673	682.38
3367.662	687.38
3370.649	683.38
3373.633	658.38
3376.615	664.38
3379.595	641.38
3382.572	650.38
3385.547	633.38
3388.52	619.38
3391.49	602.38
3394.458	597.38
3397.424	599.38
3400.387	591.38
3403.348	590.38
3406.307	578.38
3409.263	578.38
3412.217	564.38
3415.168	571.38
3418.118	559.38
3421.065	549.38
3424.009	546.38
3426.951	534.38
3429.891	513.38
3432.829	521.38
3435.764	507.38
3438.697	505.38
3441.628	479.38
3444.557	476.38
3447.483	462.38
3450.407	445.38
3453.328	439.38
3456.247	425.38
3459.164	416.38
3462.079	396.38
3464.991	392.38
3467.902	385.38
3470.809	363.38
3473.715	350.38
3476.618	336.38
3479.519	341.38
3482.418	331.38
3485.315	304.38
3488.209	299.38
3491.101	301.38
3493.99	286.38
3496.878	280.38
3499.763	268.38
3502.646	257.38
3505.527	253.38
3508.405	242.38
3511.281	234.38
3514.155	222.38
3517.027	217.38
3519.897	199.38
3522.764	197.38
3525.629	180.38
3528.492	170.38
3531.352	165.38
3534.211	146.38
3537.067	143.38
3539.921	133.38
3542.773	133.38
3545.622	123.38
3548.469	119.38
3551.315	105.38
3554.157	98.38
3556.998	91.38
3559.837	81.38
3562.673	76.38
3565.507	72.38
3568.339	72.38
3571.169	68.38
3573.996	61.38
3576.822	55.38
3579.645	50.38
3582.466	44.38
3585.285	43.38
3588.101	35.38
3590.916	31.38
3593.728	25.38
3596.538	26.38
3599.346	21.38
3602.152	12.38
3604.956	6.38
3607.757	6.38
3610.556	-2.62
3613.354	-3.62
3616.149	-6.62
3618.942	-8.62
3621.732	-11.62
3624.521	-12.62
3627.307	-17.62
3630.092	-14.62
3632.874	-19.62
3635.654	-19.62
3638.432	-22.62
3641.208	-28.62
3643.982	-35.62
3646.753	-36.62
3649.523	-32.62
3652.29	-37.62
3655.055	-38.62
3657.818	-39.62
3660.579	-41.62
3663.338	-45.62
3666.095	-49.62
3668.849	-48.62
3671.602	-54.62
3674.352	-51.62
3677.101	-56.62
3679.847	-60.62
3682.591	-57.62
3685.333	-59.62
3688.073	-63.62
3690.811	-66.62
3693.547	-67.62
3696.281	-65.62
3699.013	-68.62
3701.742	-69.62
3704.47	-70.62
3707.195	-69.62
3709.919	-67.62
3712.64	-68.62
3715.359	-70.62
3718.076	-72.62
3720.792	-74.62
3723.505	-74.62
3726.216	-77.62
3728.925	-76.62
3731.632	-77.62
3734.336	-81.62
3737.039	-77.62
3739.74	-77.62
3742.439	-77.62
3745.136	-79.62
3747.83	-80.62
3750.523	-80.62
3753.213	-81.62
3755.902	-82.62
3758.589	-82.62
3761.273	-81.62
3763.956	-85.62
3766.636	-83.62
3769.315	-85.62
3771.991	-83.62
3774.665	-88.62
3777.338	-89.62
3780.008	-89.62
3782.677	-84.62
3785.343	-83.62
3788.007	-82.62
3790.67	-80.62
3793.33	-81.62
3795.989	-85.62
3798.645	-84.62
3801.299	-87.62
3803.952	-88.62
3806.602	-88.62
3809.251	-90.62
3811.897	-92.62
3814.542	-89.62
3817.184	-87.62
3819.825	-85.62
3822.463	-89.62
3825.1	-86.62
3827.735	-86.62
3830.367	-90.62
3832.998	-88.62
3835.627	-87.62
3838.253	-90.62
3840.878	-88.62
3843.501	-88.62
3846.122	-88.62
3848.741	-89.62
3851.358	-88.62
3853.973	-90.62
3856.586	-91.62
3859.197	-95.62
3861.806	-89.62
3864.414	-91.62
3867.019	-91.62
3869.622	-83.62
3872.224	-87.62
3874.823	-84.62
3877.421	-81.62
3880.016	-86.62
3882.61	-78.62
3885.202	-79.62
3887.792	-84.62
3890.38	-85.62
3892.966	-88.62
3895.55	-95.62
3898.132	-91.62
3900.713	-90.62
3903.291	-92.62
3905.868	-94.62
3908.442	-93.62
3911.015	-90.62
3913.586	-91.62
3916.155	-91.62
3918.722	-92.62
3921.287	-89.62
3923.85	-89.62
3926.411	-93.62
3928.971	-94.62
3931.528	-90.62
3934.084	-91.62
3936.638	-96.62
3939.19	-97.62
3941.74	-92.62
3944.288	-98.62
3946.834	-95.62
3949.378	-94.62
3951.921	-93.62
3954.462	-89.62
3957	-90.62
3959.537	-91.62
3962.072	-91.62
3964.606	-92.62
3967.137	-92.62
3969.667	-94.62
3972.194	-92.62
3974.72	-91.62
3977.244	-91.62
3979.766	-93.62
3982.286	-91.62
3984.805	-94.62
3987.321	-89.62
3989.836	-88.62
3992.349	-91.62
3994.86	-92.62
3997.369	-92.62
3999.877	-92.62
4002.382	-90.62
4004.886	-89.62
4007.388	-92.62
4009.888	-91.62
4012.386	-93.62
4014.883	-93.62
4017.377	-97.62
4019.87	-91.62
4022.361	-92.62
4024.85	-90.62
4027.338	-89.62
4029.823	-88.62
4032.307	-92.62
4034.789	-86.62
4037.269	-89.62
4039.747	-90.62
4042.224	-91.62
4044.699	-92.62
4047.172	-94.62
4049.643	-94.62
4052.112	-93.62
4054.58	-93.62
4057.046	-94.62
4059.51	-94.62
4061.972	-94.62
4064.432	-89.62
4066.891	-89.62
4069.348	-90.62
4071.803	-95.62
4074.256	-93.62
4076.708	-94.62
4079.158	-92.62
4081.606	-90.62
4084.052	-93.62
4086.497	-90.62
4088.939	-89.62
4091.38	-90.62
4093.819	-93.62
4096.257	-97.62
4098.693	-95.62
4101.127	-94.62
4103.559	-97.62
4105.989	-59.62
4108.418	-56.62
4110.845	-58.62
4113.27	-53.62
4115.694	-45.62
4118.115	-38.62
4120.535	-94.62
4122.954	-95.62
4125.37	-94.62
4127.785	-94.62
4130.198	-90.62
4132.609	-89.62
4135.019	-93.62
4137.427	-91.62
4139.833	-94.62
4142.237	-92.62
