Data from B.sub_water_100000CFUB1_RamanShift_1.txt Node
Date: Wed Mar 08 16:02:56 IST 2017
User: aro
Spectrometer: QEPB0276
Trigger mode: 0
Integration Time (sec): 5.000000E0
Scans to average: 1
Electric dark correction enabled: true
Nonlinearity correction enabled: false
Boxcar width: 0
XAxis mode: Raman Shifts
Number of Pixels in Spectrum: 1044
>>>>>Begin Spectral Data<<<<<
160.701	-33.75
166.742	-3.75
172.777	79.25
178.805	351.25
184.826	959.25
190.841	1987.25
196.849	3108.25
202.85	3848.25
208.845	3995.25
214.833	3830.25
220.815	3689.25
226.789	3583.25
232.758	3457.25
238.719	3344.25
244.674	3196.25
250.623	3041.25
256.565	2896.25
262.5	2725.25
268.429	2641.25
274.351	2498.25
280.267	2386.25
286.176	2289.25
292.079	2204.25
297.975	2122.25
303.865	2042.25
309.748	2021.25
315.625	1948.25
321.495	1911.25
327.359	1881.25
333.217	1864.25
339.068	1847.25
344.912	1833.25
350.751	1838.25
356.583	1827.25
362.408	1837.25
368.227	1830.25
374.04	1828.25
379.847	1836.25
385.647	1855.25
391.44	1825.25
397.228	1874.25
403.009	1864.25
408.784	1875.25
414.553	1889.25
420.315	1890.25
426.071	1881.25
431.821	1892.25
437.565	1855.25
443.302	1874.25
449.033	1855.25
454.758	1869.25
460.477	1852.25
466.189	1828.25
471.896	1823.25
477.596	1791.25
483.29	1803.25
488.978	1805.25
494.66	1781.25
500.335	1762.25
506.005	1708.25
511.668	1659.25
517.325	1625.25
522.977	1575.25
528.622	1582.25
534.261	1554.25
539.894	1542.25
545.521	1511.25
551.141	1513.25
556.756	1496.25
562.365	1481.25
567.968	1472.25
573.565	1446.25
579.155	1438.25
584.74	1424.25
590.319	1409.25
595.892	1413.25
601.459	1391.25
607.02	1380.25
612.575	1362.25
618.124	1337.25
623.667	1323.25
629.204	1338.25
634.735	1311.25
640.261	1301.25
645.781	1268.25
651.294	1289.25
656.802	1259.25
662.304	1260.25
667.8	1238.25
673.29	1249.25
678.775	1233.25
684.254	1219.25
689.726	1216.25
695.193	1207.25
700.655	1179.25
706.11	1192.25
711.56	1174.25
717.004	1159.25
722.442	1150.25
727.874	1128.25
733.301	1139.25
738.722	1123.25
744.137	1115.25
749.547	1119.25
754.951	1105.25
760.349	1117.25
765.741	1101.25
771.128	1109.25
776.509	1101.25
781.885	1099.25
787.254	1091.25
792.618	1081.25
797.977	1073.25
803.33	1067.25
808.677	1046.25
814.019	1023.25
819.355	1017.25
824.686	1008.25
830.011	994.25
835.33	990.25
840.644	965.25
845.952	967.25
851.255	966.25
856.552	951.25
861.844	939.25
867.13	943.25
872.41	946.25
877.686	898.25
882.955	905.25
888.219	880.25
893.478	851.25
898.731	838.25
903.979	814.25
909.221	800.25
914.458	789.25
919.69	791.25
924.916	797.25
930.136	783.25
935.351	783.25
940.561	772.25
945.766	769.25
950.965	755.25
956.158	746.25
961.347	732.25
966.529	728.25
971.707	713.25
976.879	699.25
982.046	683.25
987.208	688.25
992.364	688.25
997.515	678.25
1002.66	688.25
1007.801	697.25
1012.936	699.25
1018.066	715.25
1023.19	713.25
1028.309	703.25
1033.423	691.25
1038.532	705.25
1043.636	684.25
1048.734	688.25
1053.827	675.25
1058.915	669.25
1063.998	665.25
1069.075	657.25
1074.147	664.25
1079.214	655.25
1084.276	656.25
1089.333	671.25
1094.385	690.25
1099.431	682.25
1104.472	669.25
1109.509	671.25
1114.54	662.25
1119.565	647.25
1124.586	640.25
1129.602	627.25
1134.613	628.25
1139.618	628.25
1144.619	623.25
1149.614	637.25
1154.604	630.25
1159.589	638.25
1164.57	631.25
1169.545	635.25
1174.515	637.25
1179.48	633.25
1184.44	629.25
1189.395	623.25
1194.345	621.25
1199.29	614.25
1204.23	622.25
1209.165	628.25
1214.095	625.25
1219.021	629.25
1223.941	634.25
1228.856	625.25
1233.766	645.25
1238.672	631.25
1243.572	626.25
1248.467	634.25
1253.358	607.25
1258.244	610.25
1263.124	600.25
1268	598.25
1272.871	576.25
1277.737	567.25
1282.599	579.25
1287.455	576.25
1292.306	587.25
1297.153	580.25
1301.995	589.25
1306.832	592.25
1311.664	589.25
1316.491	581.25
1321.314	583.25
1326.132	572.25
1330.945	565.25
1335.753	540.25
1340.556	526.25
1345.354	522.25
1350.148	514.25
1354.937	511.25
1359.722	513.25
1364.501	525.25
1369.276	526.25
1374.046	536.25
1378.811	544.25
1383.572	537.25
1388.327	520.25
1393.079	530.25
1397.825	523.25
1402.567	509.25
1407.304	494.25
1412.036	492.25
1416.764	486.25
1421.487	487.25
1426.205	482.25
1430.919	490.25
1435.628	501.25
1440.333	498.25
1445.032	507.25
1449.727	520.25
1454.418	501.25
1459.104	516.25
1463.785	512.25
1468.462	501.25
1473.134	493.25
1477.802	482.25
1482.465	483.25
1487.123	489.25
1491.777	491.25
1496.426	512.25
1501.071	510.25
1505.711	521.25
1510.347	521.25
1514.978	540.25
1519.604	537.25
1524.226	556.25
1528.844	554.25
1533.457	551.25
1538.065	549.25
1542.669	562.25
1547.269	564.25
1551.864	569.25
1556.454	577.25
1561.041	579.25
1565.622	574.25
1570.199	596.25
1574.772	604.25
1579.34	622.25
1583.904	642.25
1588.464	656.25
1593.019	667.25
1597.569	683.25
1602.115	699.25
1606.657	712.25
1611.195	731.25
1615.728	744.25
1620.256	761.25
1624.78	772.25
1629.3	780.25
1633.816	805.25
1638.327	818.25
1642.834	821.25
1647.336	840.25
1651.834	832.25
1656.328	833.25
1660.817	821.25
1665.302	795.25
1669.783	788.25
1674.259	743.25
1678.732	714.25
1683.199	686.25
1687.663	650.25
1692.122	611.25
1696.577	575.25
1701.028	557.25
1705.474	547.25
1709.917	528.25
1714.355	508.25
1718.788	485.25
1723.218	454.25
1727.643	434.25
1732.064	413.25
1736.481	398.25
1740.893	379.25
1745.301	355.25
1749.705	355.25
1754.105	323.25
1758.501	319.25
1762.893	319.25
1767.28	290.25
1771.663	287.25
1776.042	290.25
1780.417	271.25
1784.787	281.25
1789.154	281.25
1793.516	271.25
1797.874	281.25
1802.228	283.25
1806.578	278.25
1810.924	275.25
1815.266	278.25
1819.603	262.25
1823.937	252.25
1828.266	250.25
1832.591	250.25
1836.913	245.25
1841.23	235.25
1845.543	245.25
1849.852	225.25
1854.156	235.25
1858.457	231.25
1862.754	228.25
1867.047	246.25
1871.335	227.25
1875.62	237.25
1879.9	237.25
1884.177	234.25
1888.449	234.25
1892.718	238.25
1896.982	231.25
1901.243	234.25
1905.499	231.25
1909.752	232.25
1914	225.25
1918.245	229.25
1922.485	233.25
1926.722	243.25
1930.954	238.25
1935.183	247.25
1939.408	253.25
1943.628	240.25
1947.845	249.25
1952.058	258.25
1956.267	244.25
1960.472	250.25
1964.673	245.25
1968.87	250.25
1973.063	243.25
1977.252	241.25
1981.438	237.25
1985.619	232.25
1989.797	228.25
1993.971	237.25
1998.14	236.25
2002.306	233.25
2006.469	239.25
2010.627	245.25
2014.781	256.25
2018.932	249.25
2023.078	249.25
2027.221	248.25
2031.36	246.25
2035.495	239.25
2039.627	241.25
2043.754	237.25
2047.878	239.25
2051.998	241.25
2056.114	243.25
2060.226	244.25
2064.334	245.25
2068.439	257.25
2072.54	253.25
2076.637	255.25
2080.73	258.25
2084.82	254.25
2088.906	257.25
2092.988	267.25
2097.066	261.25
2101.14	261.25
2105.211	257.25
2109.278	251.25
2113.342	259.25
2117.401	250.25
2121.457	251.25
2125.509	251.25
2129.558	243.25
2133.602	250.25
2137.643	248.25
2141.681	246.25
2145.714	237.25
2149.744	237.25
2153.77	231.25
2157.793	237.25
2161.812	230.25
2165.827	218.25
2169.838	233.25
2173.846	212.25
2177.851	214.25
2181.851	201.25
2185.848	197.25
2189.841	197.25
2193.831	194.25
2197.817	193.25
2201.799	191.25
2205.778	186.25
2209.753	186.25
2213.725	189.25
2217.693	192.25
2221.657	186.25
2225.618	187.25
2229.575	180.25
2233.529	175.25
2237.479	168.25
2241.425	169.25
2245.368	164.25
2249.307	162.25
2253.243	155.25
2257.175	155.25
2261.104	147.25
2265.029	150.25
2268.95	143.25
2272.868	144.25
2276.783	145.25
2280.694	135.25
2284.601	136.25
2288.505	123.25
2292.405	133.25
2296.302	126.25
2300.195	122.25
2304.085	124.25
2307.971	113.25
2311.854	111.25
2315.734	101.25
2319.609	97.25
2323.482	99.25
2327.351	103.25
2331.216	101.25
2335.078	104.25
2338.937	99.25
2342.792	97.25
2346.643	94.25
2350.492	90.25
2354.336	94.25
2358.178	91.25
2362.015	81.25
2365.85	87.25
2369.681	83.25
2373.508	86.25
2377.333	80.25
2381.153	80.25
2384.971	82.25
2388.785	75.25
2392.595	78.25
2396.402	75.25
2400.206	77.25
2404.007	65.25
2407.804	74.25
2411.597	75.25
2415.388	75.25
2419.174	73.25
2422.958	64.25
2426.738	66.25
2430.515	66.25
2434.289	59.25
2438.059	63.25
2441.825	60.25
2445.589	62.25
2449.349	66.25
2453.106	59.25
2456.859	57.25
2460.61	56.25
2464.356	59.25
2468.1	52.25
2471.84	53.25
2475.577	58.25
2479.311	52.25
2483.041	55.25
2486.768	52.25
2490.492	52.25
2494.213	55.25
2497.93	51.25
2501.644	50.25
2505.355	54.25
2509.062	47.25
2512.766	46.25
2516.467	46.25
2520.165	51.25
2523.859	50.25
2527.551	50.25
2531.239	40.25
2534.923	44.25
2538.605	46.25
2542.283	43.25
2545.958	48.25
2549.63	48.25
2553.299	43.25
2556.964	42.25
2560.626	45.25
2564.285	41.25
2567.941	42.25
2571.594	39.25
2575.243	41.25
2578.89	34.25
2582.533	37.25
2586.173	31.25
2589.809	38.25
2593.443	37.25
2597.073	39.25
2600.701	35.25
2604.325	35.25
2607.946	35.25
2611.564	37.25
2615.178	32.25
2618.79	31.25
2622.398	30.25
2626.004	29.25
2629.606	31.25
2633.205	29.25
2636.801	30.25
2640.394	34.25
2643.983	27.25
2647.57	26.25
2651.153	18.25
2654.734	22.25
2658.311	19.25
2661.885	24.25
2665.456	24.25
2669.025	21.25
2672.589	29.25
2676.151	20.25
2679.71	27.25
2683.266	25.25
2686.819	20.25
2690.368	20.25
2693.915	20.25
2697.458	12.25
2700.999	14.25
2704.536	16.25
2708.071	18.25
2711.602	10.25
2715.13	17.25
2718.656	18.25
2722.178	16.25
2725.697	17.25
2729.214	15.25
2732.727	16.25
2736.237	19.25
2739.744	20.25
2743.249	26.25
2746.75	22.25
2750.248	30.25
2753.743	25.25
2757.236	25.25
2760.725	23.25
2764.211	18.25
2767.695	32.25
2771.175	28.25
2774.652	25.25
2778.127	35.25
2781.598	29.25
2785.067	37.25
2788.532	31.25
2791.995	36.25
2795.455	33.25
2798.911	36.25
2802.365	32.25
2805.816	38.25
2809.264	35.25
2812.709	43.25
2816.151	40.25
2819.59	41.25
2823.026	44.25
2826.46	42.25
2829.89	42.25
2833.318	52.25
2836.742	53.25
2840.164	47.25
2843.583	54.25
2846.999	64.25
2850.412	59.25
2853.822	74.25
2857.229	67.25
2860.634	69.25
2864.035	71.25
2867.434	69.25
2870.83	79.25
2874.223	83.25
2877.613	81.25
2881	84.25
2884.385	91.25
2887.766	88.25
2891.145	91.25
2894.521	95.25
2897.894	98.25
2901.264	102.25
2904.631	107.25
2907.996	107.25
2911.358	106.25
2914.717	109.25
2918.073	116.25
2921.426	125.25
2924.777	121.25
2928.124	131.25
2931.469	138.25
2934.811	143.25
2938.15	144.25
2941.487	153.25
2944.821	154.25
2948.152	160.25
2951.48	166.25
2954.805	171.25
2958.128	178.25
2961.447	181.25
2964.765	189.25
2968.079	199.25
2971.39	197.25
2974.699	202.25
2978.005	215.25
2981.308	221.25
2984.609	235.25
2987.907	248.25
2991.202	251.25
2994.494	261.25
2997.784	273.25
3001.07	286.25
3004.355	302.25
3007.636	304.25
3010.915	318.25
3014.191	320.25
3017.464	338.25
3020.734	342.25
3024.002	355.25
3027.267	357.25
3030.53	374.25
3033.789	376.25
3037.046	387.25
3040.301	393.25
3043.552	419.25
3046.801	415.25
3050.048	436.25
3053.291	450.25
3056.532	466.25
3059.771	485.25
3063.006	500.25
3066.239	518.25
3069.469	538.25
3072.697	554.25
3075.922	570.25
3079.144	596.25
3082.364	609.25
3085.581	614.25
3088.795	652.25
3092.007	657.25
3095.216	671.25
3098.423	687.25
3101.627	707.25
3104.828	733.25
3108.026	754.25
3111.222	767.25
3114.416	786.25
3117.607	815.25
3120.795	834.25
3123.98	849.25
3127.163	874.25
3130.344	900.25
3133.521	916.25
3136.696	927.25
3139.869	939.25
3143.039	986.25
3146.206	998.25
3149.371	1015.25
3152.533	1026.25
3155.693	1023.25
3158.85	1038.25
3162.005	1054.25
3165.157	1046.25
3168.306	1061.25
3171.453	1061.25
3174.597	1072.25
3177.739	1077.25
3180.878	1072.25
3184.014	1085.25
3187.149	1101.25
3190.28	1085.25
3193.409	1088.25
3196.536	1106.25
3199.659	1105.25
3202.781	1087.25
3205.9	1121.25
3209.016	1113.25
3212.13	1094.25
3215.241	1096.25
3218.35	1104.25
3221.456	1084.25
3224.56	1082.25
3227.661	1064.25
3230.76	1065.25
3233.856	1049.25
3236.95	1041.25
3240.041	1035.25
3243.13	1033.25
3246.216	1020.25
3249.3	1016.25
3252.382	1013.25
3255.46	1009.25
3258.537	988.25
3261.611	1000.25
3264.682	997.25
3267.751	983.25
3270.818	994.25
3273.882	996.25
3276.943	989.25
3280.002	975.25
3283.059	956.25
3286.113	955.25
3289.165	928.25
3292.214	929.25
3295.261	913.25
3298.306	892.25
3301.348	869.25
3304.387	869.25
3307.425	862.25
3310.459	841.25
3313.492	832.25
3316.521	817.25
3319.549	817.25
3322.574	811.25
3325.597	796.25
3328.617	798.25
3331.635	783.25
3334.65	792.25
3337.663	778.25
3340.674	778.25
3343.682	763.25
3346.688	765.25
3349.691	763.25
3352.692	762.25
3355.691	756.25
3358.687	755.25
3361.681	730.25
3364.673	743.25
3367.662	728.25
3370.649	710.25
3373.633	699.25
3376.615	688.25
3379.595	691.25
3382.572	686.25
3385.547	676.25
3388.52	662.25
3391.49	657.25
3394.458	643.25
3397.424	653.25
3400.387	641.25
3403.348	615.25
3406.307	621.25
3409.263	608.25
3412.217	605.25
3415.168	603.25
3418.118	587.25
3421.065	590.25
3424.009	578.25
3426.951	573.25
3429.891	563.25
3432.829	562.25
3435.764	549.25
3438.697	531.25
3441.628	514.25
3444.557	501.25
3447.483	493.25
3450.407	474.25
3453.328	469.25
3456.247	454.25
3459.164	438.25
3462.079	436.25
3464.991	412.25
3467.902	413.25
3470.809	387.25
3473.715	372.25
3476.618	365.25
3479.519	350.25
3482.418	344.25
3485.315	331.25
3488.209	326.25
3491.101	319.25
3493.99	306.25
3496.878	291.25
3499.763	279.25
3502.646	273.25
3505.527	271.25
3508.405	260.25
3511.281	250.25
3514.155	246.25
3517.027	230.25
3519.897	213.25
3522.764	200.25
3525.629	188.25
3528.492	183.25
3531.352	160.25
3534.211	157.25
3537.067	149.25
3539.921	144.25
3542.773	134.25
3545.622	125.25
3548.469	123.25
3551.315	108.25
3554.157	106.25
3556.998	92.25
3559.837	93.25
3562.673	85.25
3565.507	81.25
3568.339	74.25
3571.169	70.25
3573.996	64.25
3576.822	59.25
3579.645	53.25
3582.466	44.25
3585.285	34.25
3588.101	34.25
3590.916	31.25
3593.728	28.25
3596.538	20.25
3599.346	21.25
3602.152	11.25
3604.956	13.25
3607.757	4.25
3610.556	3.25
3613.354	-3.75
3616.149	-7.75
3618.942	-7.75
3621.732	-7.75
3624.521	-22.75
3627.307	-20.75
3630.092	-21.75
3632.874	-21.75
3635.654	-28.75
3638.432	-26.75
3641.208	-34.75
3643.982	-31.75
3646.753	-32.75
3649.523	-37.75
3652.29	-32.75
3655.055	-37.75
3657.818	-38.75
3660.579	-44.75
3663.338	-47.75
3666.095	-47.75
3668.849	-56.75
3671.602	-57.75
3674.352	-56.75
3677.101	-65.75
3679.847	-62.75
3682.591	-62.75
3685.333	-62.75
3688.073	-63.75
3690.811	-65.75
3693.547	-67.75
3696.281	-65.75
3699.013	-70.75
3701.742	-70.75
3704.47	-70.75
3707.195	-74.75
3709.919	-70.75
3712.64	-74.75
3715.359	-78.75
3718.076	-78.75
3720.792	-78.75
3723.505	-81.75
3726.216	-83.75
3728.925	-78.75
3731.632	-80.75
3734.336	-81.75
3737.039	-78.75
3739.74	-77.75
3742.439	-81.75
3745.136	-83.75
3747.83	-83.75
3750.523	-86.75
3753.213	-86.75
3755.902	-85.75
3758.589	-86.75
3761.273	-85.75
3763.956	-87.75
3766.636	-85.75
3769.315	-87.75
3771.991	-83.75
3774.665	-90.75
3777.338	-90.75
3780.008	-91.75
3782.677	-89.75
3785.343	-87.75
3788.007	-87.75
3790.67	-89.75
3793.33	-82.75
3795.989	-86.75
3798.645	-92.75
3801.299	-90.75
3803.952	-92.75
3806.602	-92.75
3809.251	-92.75
3811.897	-94.75
3814.542	-91.75
3817.184	-92.75
3819.825	-89.75
3822.463	-94.75
3825.1	-93.75
3827.735	-90.75
3830.367	-93.75
3832.998	-92.75
3835.627	-91.75
3838.253	-94.75
3840.878	-90.75
3843.501	-89.75
3846.122	-90.75
3848.741	-89.75
3851.358	-93.75
3853.973	-90.75
3856.586	-93.75
3859.197	-97.75
3861.806	-96.75
3864.414	-96.75
3867.019	-96.75
3869.622	-92.75
3872.224	-94.75
3874.823	-90.75
3877.421	-87.75
3880.016	-89.75
3882.61	-83.75
3885.202	-82.75
3887.792	-88.75
3890.38	-90.75
3892.966	-91.75
3895.55	-92.75
3898.132	-93.75
3900.713	-94.75
3903.291	-95.75
3905.868	-98.75
3908.442	-96.75
3911.015	-93.75
3913.586	-95.75
3916.155	-94.75
3918.722	-95.75
3921.287	-93.75
3923.85	-93.75
3926.411	-94.75
3928.971	-97.75
3931.528	-96.75
3934.084	-97.75
3936.638	-100.75
3939.19	-100.75
3941.74	-94.75
3944.288	-99.75
3946.834	-101.75
3949.378	-97.75
3951.921	-97.75
3954.462	-92.75
3957	-94.75
3959.537	-95.75
3962.072	-96.75
3964.606	-97.75
3967.137	-98.75
3969.667	-93.75
3972.194	-96.75
3974.72	-96.75
3977.244	-95.75
3979.766	-93.75
3982.286	-95.75
3984.805	-99.75
3987.321	-94.75
3989.836	-96.75
3992.349	-99.75
3994.86	-98.75
3997.369	-98.75
3999.877	-98.75
4002.382	-96.75
4004.886	-91.75
4007.388	-93.75
4009.888	-94.75
4012.386	-92.75
4014.883	-93.75
4017.377	-98.75
4019.87	-92.75
4022.361	-94.75
4024.85	-95.75
4027.338	-96.75
4029.823	-96.75
4032.307	-96.75
4034.789	-95.75
4037.269	-97.75
4039.747	-94.75
4042.224	-98.75
4044.699	-95.75
4047.172	-98.75
4049.643	-95.75
4052.112	-96.75
4054.58	-95.75
4057.046	-91.75
4059.51	-95.75
4061.972	-96.75
4064.432	-96.75
4066.891	-94.75
4069.348	-93.75
4071.803	-100.75
4074.256	-99.75
4076.708	-100.75
4079.158	-98.75
4081.606	-97.75
4084.052	-95.75
4086.497	-94.75
4088.939	-92.75
4091.38	-93.75
4093.819	-94.75
4096.257	-95.75
4098.693	-100.75
4101.127	-96.75
4103.559	-99.75
4105.989	-66.75
4108.418	-58.75
4110.845	-59.75
4113.27	-54.75
4115.694	-50.75
4118.115	-45.75
4120.535	-95.75
4122.954	-96.75
4125.37	-94.75
4127.785	-97.75
4130.198	-95.75
4132.609	-94.75
4135.019	-98.75
4137.427	-96.75
4139.833	-100.75
4142.237	-96.75
