Data from B.sub_water_10CFUA1_RamanShift_1.txt Node
Date: Wed Mar 08 14:46:32 IST 2017
User: aro
Spectrometer: QEPB0276
Trigger mode: 0
Integration Time (sec): 5.000000E0
Scans to average: 1
Electric dark correction enabled: true
Nonlinearity correction enabled: false
Boxcar width: 0
XAxis mode: Raman Shifts
Number of Pixels in Spectrum: 1044
>>>>>Begin Spectral Data<<<<<
160.701	-33.75
166.742	-2.75
172.777	83.25
178.805	371.25
184.826	1005.25
190.841	2085.25
196.849	3276.25
202.85	4013.25
208.845	4165.25
214.833	4000.25
220.815	3868.25
226.789	3731.25
232.758	3618.25
238.719	3480.25
244.674	3330.25
250.623	3173.25
256.565	3027.25
262.5	2874.25
268.429	2728.25
274.351	2610.25
280.267	2489.25
286.176	2389.25
292.079	2295.25
297.975	2228.25
303.865	2155.25
309.748	2092.25
315.625	2023.25
321.495	2003.25
327.359	1965.25
333.217	1925.25
339.068	1924.25
344.912	1911.25
350.751	1901.25
356.583	1902.25
362.408	1901.25
368.227	1911.25
374.04	1895.25
379.847	1917.25
385.647	1911.25
391.44	1931.25
397.228	1939.25
403.009	1956.25
408.784	1949.25
414.553	1952.25
420.315	1943.25
426.071	1969.25
431.821	1960.25
437.565	1972.25
443.302	1948.25
449.033	1935.25
454.758	1927.25
460.477	1931.25
466.189	1897.25
471.896	1893.25
477.596	1884.25
483.29	1869.25
488.978	1866.25
494.66	1832.25
500.335	1812.25
506.005	1780.25
511.668	1746.25
517.325	1700.25
522.977	1683.25
528.622	1652.25
534.261	1622.25
539.894	1616.25
545.521	1587.25
551.141	1585.25
556.756	1563.25
562.365	1559.25
567.968	1544.25
573.565	1528.25
579.155	1531.25
584.74	1485.25
590.319	1488.25
595.892	1467.25
601.459	1437.25
607.02	1455.25
612.575	1408.25
618.124	1414.25
623.667	1396.25
629.204	1395.25
634.735	1387.25
640.261	1351.25
645.781	1345.25
651.294	1360.25
656.802	1342.25
662.304	1319.25
667.8	1302.25
673.29	1297.25
678.775	1301.25
684.254	1288.25
689.726	1285.25
695.193	1259.25
700.655	1265.25
706.11	1266.25
711.56	1240.25
717.004	1228.25
722.442	1211.25
727.874	1219.25
733.301	1197.25
738.722	1201.25
744.137	1203.25
749.547	1186.25
754.951	1181.25
760.349	1177.25
765.741	1175.25
771.128	1167.25
776.509	1163.25
781.885	1160.25
787.254	1151.25
792.618	1160.25
797.977	1142.25
803.33	1127.25
808.677	1107.25
814.019	1085.25
819.355	1071.25
824.686	1068.25
830.011	1054.25
835.33	1053.25
840.644	1025.25
845.952	1025.25
851.255	1019.25
856.552	1006.25
861.844	990.25
867.13	988.25
872.41	986.25
877.686	972.25
882.955	957.25
888.219	952.25
893.478	914.25
898.731	904.25
903.979	878.25
909.221	881.25
914.458	856.25
919.69	850.25
924.916	850.25
930.136	840.25
935.351	837.25
940.561	827.25
945.766	816.25
950.965	825.25
956.158	822.25
961.347	808.25
966.529	784.25
971.707	774.25
976.879	746.25
982.046	750.25
987.208	744.25
992.364	742.25
997.515	737.25
1002.66	742.25
1007.801	759.25
1012.936	750.25
1018.066	758.25
1023.19	770.25
1028.309	762.25
1033.423	775.25
1038.532	757.25
1043.636	737.25
1048.734	726.25
1053.827	726.25
1058.915	730.25
1063.998	722.25
1069.075	711.25
1074.147	721.25
1079.214	730.25
1084.276	728.25
1089.333	731.25
1094.385	737.25
1099.431	725.25
1104.472	714.25
1109.509	725.25
1114.54	726.25
1119.565	710.25
1124.586	695.25
1129.602	691.25
1134.613	684.25
1139.618	682.25
1144.619	687.25
1149.614	689.25
1154.604	687.25
1159.589	688.25
1164.57	693.25
1169.545	688.25
1174.515	699.25
1179.48	685.25
1184.44	686.25
1189.395	679.25
1194.345	680.25
1199.29	675.25
1204.23	677.25
1209.165	675.25
1214.095	692.25
1219.021	686.25
1223.941	686.25
1228.856	687.25
1233.766	695.25
1238.672	692.25
1243.572	681.25
1248.467	683.25
1253.358	678.25
1258.244	666.25
1263.124	652.25
1268	649.25
1272.871	639.25
1277.737	627.25
1282.599	625.25
1287.455	631.25
1292.306	632.25
1297.153	632.25
1301.995	638.25
1306.832	646.25
1311.664	650.25
1316.491	646.25
1321.314	638.25
1326.132	621.25
1330.945	619.25
1335.753	580.25
1340.556	595.25
1345.354	578.25
1350.148	557.25
1354.937	546.25
1359.722	563.25
1364.501	576.25
1369.276	583.25
1374.046	591.25
1378.811	606.25
1383.572	593.25
1388.327	596.25
1393.079	583.25
1397.825	572.25
1402.567	561.25
1407.304	546.25
1412.036	538.25
1416.764	548.25
1421.487	535.25
1426.205	540.25
1430.919	547.25
1435.628	549.25
1440.333	559.25
1445.032	558.25
1449.727	560.25
1454.418	558.25
1459.104	550.25
1463.785	553.25
1468.462	542.25
1473.134	542.25
1477.802	521.25
1482.465	529.25
1487.123	541.25
1491.777	541.25
1496.426	542.25
1501.071	569.25
1505.711	580.25
1510.347	586.25
1514.978	581.25
1519.604	599.25
1524.226	609.25
1528.844	614.25
1533.457	616.25
1538.065	613.25
1542.669	611.25
1547.269	611.25
1551.864	628.25
1556.454	626.25
1561.041	629.25
1565.622	645.25
1570.199	648.25
1574.772	664.25
1579.34	675.25
1583.904	686.25
1588.464	711.25
1593.019	723.25
1597.569	738.25
1602.115	753.25
1606.657	775.25
1611.195	781.25
1615.728	775.25
1620.256	816.25
1624.78	826.25
1629.3	837.25
1633.816	868.25
1638.327	876.25
1642.834	892.25
1647.336	898.25
1651.834	893.25
1656.328	884.25
1660.817	889.25
1665.302	863.25
1669.783	838.25
1674.259	799.25
1678.732	775.25
1683.199	732.25
1687.663	699.25
1692.122	661.25
1696.577	623.25
1701.028	615.25
1705.474	593.25
1709.917	579.25
1714.355	553.25
1718.788	543.25
1723.218	503.25
1727.643	493.25
1732.064	462.25
1736.481	446.25
1740.893	417.25
1745.301	405.25
1749.705	382.25
1754.105	386.25
1758.501	359.25
1762.893	353.25
1767.28	331.25
1771.663	338.25
1776.042	322.25
1780.417	324.25
1784.787	317.25
1789.154	320.25
1793.516	320.25
1797.874	334.25
1802.228	329.25
1806.578	321.25
1810.924	310.25
1815.266	310.25
1819.603	301.25
1823.937	288.25
1828.266	293.25
1832.591	278.25
1836.913	280.25
1841.23	280.25
1845.543	276.25
1849.852	277.25
1854.156	266.25
1858.457	273.25
1862.754	264.25
1867.047	274.25
1871.335	279.25
1875.62	276.25
1879.9	281.25
1884.177	269.25
1888.449	273.25
1892.718	270.25
1896.982	269.25
1901.243	273.25
1905.499	265.25
1909.752	269.25
1914	266.25
1918.245	272.25
1922.485	260.25
1926.722	276.25
1930.954	286.25
1935.183	286.25
1939.408	289.25
1943.628	293.25
1947.845	290.25
1952.058	291.25
1956.267	288.25
1960.472	286.25
1964.673	281.25
1968.87	286.25
1973.063	274.25
1977.252	286.25
1981.438	277.25
1985.619	274.25
1989.797	271.25
1993.971	282.25
1998.14	272.25
2002.306	278.25
2006.469	283.25
2010.627	285.25
2014.781	278.25
2018.932	273.25
2023.078	281.25
2027.221	277.25
2031.36	271.25
2035.495	271.25
2039.627	271.25
2043.754	282.25
2047.878	268.25
2051.998	279.25
2056.114	277.25
2060.226	280.25
2064.334	284.25
2068.439	299.25
2072.54	290.25
2076.637	287.25
2080.73	283.25
2084.82	291.25
2088.906	295.25
2092.988	293.25
2097.066	295.25
2101.14	300.25
2105.211	293.25
2109.278	287.25
2113.342	286.25
2117.401	290.25
2121.457	282.25
2125.509	281.25
2129.558	287.25
2133.602	285.25
2137.643	281.25
2141.681	280.25
2145.714	286.25
2149.744	265.25
2153.77	274.25
2157.793	266.25
2161.812	257.25
2165.827	258.25
2169.838	259.25
2173.846	246.25
2177.851	238.25
2181.851	234.25
2185.848	230.25
2189.841	225.25
2193.831	217.25
2197.817	214.25
2201.799	207.25
2205.778	215.25
2209.753	213.25
2213.725	209.25
2217.693	215.25
2221.657	218.25
2225.618	210.25
2229.575	202.25
2233.529	205.25
2237.479	206.25
2241.425	192.25
2245.368	193.25
2249.307	185.25
2253.243	190.25
2257.175	179.25
2261.104	173.25
2265.029	172.25
2268.95	170.25
2272.868	169.25
2276.783	169.25
2280.694	161.25
2284.601	147.25
2288.505	148.25
2292.405	147.25
2296.302	146.25
2300.195	146.25
2304.085	140.25
2307.971	142.25
2311.854	137.25
2315.734	131.25
2319.609	121.25
2323.482	120.25
2327.351	118.25
2331.216	123.25
2335.078	121.25
2338.937	114.25
2342.792	108.25
2346.643	109.25
2350.492	105.25
2354.336	102.25
2358.178	106.25
2362.015	107.25
2365.85	108.25
2369.681	104.25
2373.508	107.25
2377.333	109.25
2381.153	102.25
2384.971	99.25
2388.785	99.25
2392.595	99.25
2396.402	91.25
2400.206	92.25
2404.007	88.25
2407.804	88.25
2411.597	94.25
2415.388	92.25
2419.174	89.25
2422.958	86.25
2426.738	83.25
2430.515	78.25
2434.289	86.25
2438.059	81.25
2441.825	78.25
2445.589	87.25
2449.349	85.25
2453.106	80.25
2456.859	86.25
2460.61	80.25
2464.356	80.25
2468.1	70.25
2471.84	72.25
2475.577	77.25
2479.311	76.25
2483.041	66.25
2486.768	73.25
2490.492	67.25
2494.213	73.25
2497.93	69.25
2501.644	67.25
2505.355	69.25
2509.062	67.25
2512.766	69.25
2516.467	63.25
2520.165	69.25
2523.859	66.25
2527.551	60.25
2531.239	67.25
2534.923	56.25
2538.605	62.25
2542.283	64.25
2545.958	58.25
2549.63	67.25
2553.299	57.25
2556.964	58.25
2560.626	59.25
2564.285	57.25
2567.941	53.25
2571.594	57.25
2575.243	55.25
2578.89	49.25
2582.533	54.25
2586.173	55.25
2589.809	50.25
2593.443	50.25
2597.073	51.25
2600.701	55.25
2604.325	48.25
2607.946	49.25
2611.564	38.25
2615.178	47.25
2618.79	50.25
2622.398	47.25
2626.004	45.25
2629.606	45.25
2633.205	46.25
2636.801	44.25
2640.394	43.25
2643.983	43.25
2647.57	42.25
2651.153	38.25
2654.734	38.25
2658.311	32.25
2661.885	36.25
2665.456	40.25
2669.025	35.25
2672.589	34.25
2676.151	33.25
2679.71	37.25
2683.266	36.25
2686.819	31.25
2690.368	32.25
2693.915	27.25
2697.458	28.25
2700.999	20.25
2704.536	25.25
2708.071	29.25
2711.602	32.25
2715.13	29.25
2718.656	32.25
2722.178	24.25
2725.697	30.25
2729.214	34.25
2732.727	27.25
2736.237	29.25
2739.744	28.25
2743.249	35.25
2746.75	35.25
2750.248	35.25
2753.743	34.25
2757.236	36.25
2760.725	29.25
2764.211	39.25
2767.695	41.25
2771.175	35.25
2774.652	40.25
2778.127	37.25
2781.598	40.25
2785.067	40.25
2788.532	42.25
2791.995	40.25
2795.455	46.25
2798.911	41.25
2802.365	47.25
2805.816	48.25
2809.264	45.25
2812.709	54.25
2816.151	51.25
2819.59	48.25
2823.026	53.25
2826.46	55.25
2829.89	57.25
2833.318	60.25
2836.742	59.25
2840.164	64.25
2843.583	68.25
2846.999	67.25
2850.412	66.25
2853.822	74.25
2857.229	75.25
2860.634	76.25
2864.035	80.25
2867.434	85.25
2870.83	86.25
2874.223	92.25
2877.613	92.25
2881	97.25
2884.385	96.25
2887.766	97.25
2891.145	99.25
2894.521	100.25
2897.894	110.25
2901.264	109.25
2904.631	116.25
2907.996	113.25
2911.358	121.25
2914.717	116.25
2918.073	120.25
2921.426	129.25
2924.777	136.25
2928.124	134.25
2931.469	142.25
2934.811	160.25
2938.15	148.25
2941.487	159.25
2944.821	156.25
2948.152	163.25
2951.48	179.25
2954.805	175.25
2958.128	181.25
2961.447	191.25
2964.765	199.25
2968.079	196.25
2971.39	209.25
2974.699	212.25
2978.005	222.25
2981.308	237.25
2984.609	240.25
2987.907	258.25
2991.202	266.25
2994.494	272.25
2997.784	293.25
3001.07	296.25
3004.355	316.25
3007.636	322.25
3010.915	330.25
3014.191	338.25
3017.464	345.25
3020.734	358.25
3024.002	354.25
3027.267	375.25
3030.53	378.25
3033.789	385.25
3037.046	401.25
3040.301	422.25
3043.552	430.25
3046.801	439.25
3050.048	441.25
3053.291	467.25
3056.532	478.25
3059.771	509.25
3063.006	517.25
3066.239	534.25
3069.469	550.25
3072.697	581.25
3075.922	599.25
3079.144	606.25
3082.364	618.25
3085.581	652.25
3088.795	662.25
3092.007	682.25
3095.216	698.25
3098.423	714.25
3101.627	736.25
3104.828	755.25
3108.026	760.25
3111.222	797.25
3114.416	819.25
3117.607	834.25
3120.795	862.25
3123.98	882.25
3127.163	901.25
3130.344	919.25
3133.521	951.25
3136.696	973.25
3139.869	990.25
3143.039	1012.25
3146.206	1033.25
3149.371	1044.25
3152.533	1058.25
3155.693	1067.25
3158.85	1071.25
3162.005	1079.25
3165.157	1092.25
3168.306	1097.25
3171.453	1092.25
3174.597	1097.25
3177.739	1095.25
3180.878	1109.25
3184.014	1107.25
3187.149	1127.25
3190.28	1123.25
3193.409	1127.25
3196.536	1130.25
3199.659	1132.25
3202.781	1130.25
3205.9	1141.25
3209.016	1137.25
3212.13	1144.25
3215.241	1139.25
3218.35	1136.25
3221.456	1105.25
3224.56	1117.25
3227.661	1107.25
3230.76	1093.25
3233.856	1069.25
3236.95	1063.25
3240.041	1064.25
3243.13	1050.25
3246.216	1040.25
3249.3	1047.25
3252.382	1040.25
3255.46	1044.25
3258.537	1022.25
3261.611	1035.25
3264.682	1022.25
3267.751	1019.25
3270.818	1028.25
3273.882	1016.25
3276.943	1012.25
3280.002	1001.25
3283.059	995.25
3286.113	976.25
3289.165	962.25
3292.214	955.25
3295.261	930.25
3298.306	929.25
3301.348	904.25
3304.387	899.25
3307.425	878.25
3310.459	863.25
3313.492	855.25
3316.521	845.25
3319.549	844.25
3322.574	824.25
3325.597	810.25
3328.617	812.25
3331.635	807.25
3334.65	802.25
3337.663	801.25
3340.674	808.25
3343.682	792.25
3346.688	794.25
3349.691	800.25
3352.692	790.25
3355.691	782.25
3358.687	771.25
3361.681	768.25
3364.673	766.25
3367.662	752.25
3370.649	732.25
3373.633	721.25
3376.615	730.25
3379.595	719.25
3382.572	707.25
3385.547	686.25
3388.52	678.25
3391.49	682.25
3394.458	671.25
3397.424	668.25
3400.387	651.25
3403.348	652.25
3406.307	637.25
3409.263	632.25
3412.217	615.25
3415.168	617.25
3418.118	606.25
3421.065	595.25
3424.009	602.25
3426.951	584.25
3429.891	568.25
3432.829	578.25
3435.764	567.25
3438.697	549.25
3441.628	532.25
3444.557	517.25
3447.483	504.25
3450.407	491.25
3453.328	476.25
3456.247	462.25
3459.164	452.25
3462.079	440.25
3464.991	422.25
3467.902	420.25
3470.809	399.25
3473.715	382.25
3476.618	381.25
3479.519	364.25
3482.418	354.25
3485.315	344.25
3488.209	338.25
3491.101	329.25
3493.99	321.25
3496.878	303.25
3499.763	288.25
3502.646	277.25
3505.527	276.25
3508.405	256.25
3511.281	251.25
3514.155	239.25
3517.027	235.25
3519.897	218.25
3522.764	206.25
3525.629	201.25
3528.492	183.25
3531.352	175.25
3534.211	161.25
3537.067	155.25
3539.921	143.25
3542.773	136.25
3545.622	130.25
3548.469	116.25
3551.315	115.25
3554.157	107.25
3556.998	96.25
3559.837	85.25
3562.673	86.25
3565.507	75.25
3568.339	71.25
3571.169	62.25
3573.996	68.25
3576.822	62.25
3579.645	49.25
3582.466	55.25
3585.285	39.25
3588.101	35.25
3590.916	32.25
3593.728	22.25
3596.538	24.25
3599.346	14.25
3602.152	14.25
3604.956	7.25
3607.757	2.25
3610.556	-3.75
3613.354	-4.75
3616.149	-5.75
3618.942	-6.75
3621.732	-12.75
3624.521	-15.75
3627.307	-15.75
3630.092	-17.75
3632.874	-20.75
3635.654	-28.75
3638.432	-27.75
3641.208	-35.75
3643.982	-36.75
3646.753	-41.75
3649.523	-43.75
3652.29	-38.75
3655.055	-41.75
3657.818	-46.75
3660.579	-44.75
3663.338	-52.75
3666.095	-55.75
3668.849	-59.75
3671.602	-62.75
3674.352	-62.75
3677.101	-63.75
3679.847	-67.75
3682.591	-68.75
3685.333	-68.75
3688.073	-70.75
3690.811	-69.75
3693.547	-71.75
3696.281	-72.75
3699.013	-76.75
3701.742	-75.75
3704.47	-79.75
3707.195	-75.75
3709.919	-78.75
3712.64	-78.75
3715.359	-82.75
3718.076	-81.75
3720.792	-81.75
3723.505	-83.75
3726.216	-83.75
3728.925	-83.75
3731.632	-82.75
3734.336	-88.75
3737.039	-83.75
3739.74	-89.75
3742.439	-86.75
3745.136	-90.75
3747.83	-92.75
3750.523	-89.75
3753.213	-91.75
3755.902	-91.75
3758.589	-89.75
3761.273	-88.75
3763.956	-90.75
3766.636	-90.75
3769.315	-94.75
3771.991	-89.75
3774.665	-96.75
3777.338	-97.75
3780.008	-97.75
3782.677	-95.75
3785.343	-93.75
3788.007	-91.75
3790.67	-91.75
3793.33	-89.75
3795.989	-92.75
3798.645	-95.75
3801.299	-92.75
3803.952	-99.75
3806.602	-100.75
3809.251	-96.75
3811.897	-101.75
3814.542	-95.75
3817.184	-94.75
3819.825	-95.75
3822.463	-98.75
3825.1	-93.75
3827.735	-97.75
3830.367	-98.75
3832.998	-100.75
3835.627	-99.75
3838.253	-98.75
3840.878	-100.75
3843.501	-100.75
3846.122	-98.75
3848.741	-98.75
3851.358	-98.75
3853.973	-96.75
3856.586	-96.75
3859.197	-98.75
3861.806	-97.75
3864.414	-98.75
3867.019	-99.75
3869.622	-97.75
3872.224	-100.75
3874.823	-98.75
3877.421	-94.75
3880.016	-93.75
3882.61	-90.75
3885.202	-84.75
3887.792	-94.75
3890.38	-97.75
3892.966	-95.75
3895.55	-103.75
3898.132	-100.75
3900.713	-101.75
3903.291	-102.75
3905.868	-104.75
3908.442	-101.75
3911.015	-102.75
3913.586	-100.75
3916.155	-96.75
3918.722	-102.75
3921.287	-95.75
3923.85	-96.75
3926.411	-100.75
3928.971	-103.75
3931.528	-101.75
3934.084	-105.75
3936.638	-106.75
3939.19	-103.75
3941.74	-100.75
3944.288	-102.75
3946.834	-100.75
3949.378	-102.75
3951.921	-100.75
3954.462	-98.75
3957	-101.75
3959.537	-103.75
3962.072	-103.75
3964.606	-103.75
3967.137	-105.75
3969.667	-100.75
3972.194	-102.75
3974.72	-98.75
3977.244	-99.75
3979.766	-98.75
3982.286	-98.75
3984.805	-102.75
3987.321	-100.75
3989.836	-98.75
3992.349	-104.75
3994.86	-102.75
3997.369	-103.75
3999.877	-104.75
4002.382	-101.75
4004.886	-99.75
4007.388	-98.75
4009.888	-96.75
4012.386	-100.75
4014.883	-98.75
4017.377	-105.75
4019.87	-102.75
4022.361	-102.75
4024.85	-102.75
4027.338	-102.75
4029.823	-102.75
4032.307	-99.75
4034.789	-98.75
4037.269	-97.75
4039.747	-100.75
4042.224	-100.75
4044.699	-101.75
4047.172	-107.75
4049.643	-102.75
4052.112	-102.75
4054.58	-102.75
4057.046	-100.75
4059.51	-103.75
4061.972	-102.75
4064.432	-94.75
4066.891	-98.75
4069.348	-98.75
4071.803	-105.75
4074.256	-104.75
4076.708	-107.75
4079.158	-105.75
4081.606	-101.75
4084.052	-104.75
4086.497	-100.75
4088.939	-99.75
4091.38	-100.75
4093.819	-97.75
4096.257	-105.75
4098.693	-106.75
4101.127	-108.75
4103.559	-108.75
4105.989	-69.75
4108.418	-60.75
4110.845	-59.75
4113.27	-53.75
4115.694	-53.75
4118.115	-43.75
4120.535	-101.75
4122.954	-104.75
4125.37	-101.75
4127.785	-106.75
4130.198	-104.75
4132.609	-102.75
4135.019	-106.75
4137.427	-104.75
4139.833	-104.75
4142.237	-101.75
