Data from B.sub_water_100CFUB1_RamanShift_1.txt Node
Date: Wed Mar 08 15:54:07 IST 2017
User: aro
Spectrometer: QEPB0276
Trigger mode: 0
Integration Time (sec): 5.000000E0
Scans to average: 1
Electric dark correction enabled: true
Nonlinearity correction enabled: false
Boxcar width: 0
XAxis mode: Raman Shifts
Number of Pixels in Spectrum: 1044
>>>>>Begin Spectral Data<<<<<
160.701	-37.88
166.742	-3.88
172.777	88.12
178.805	368.12
184.826	1004.12
190.841	2090.12
196.849	3307.12
202.85	4081.12
208.845	4206.12
214.833	4047.12
220.815	3905.12
226.789	3747.12
232.758	3646.12
238.719	3532.12
244.674	3390.12
250.623	3218.12
256.565	3079.12
262.5	2906.12
268.429	2772.12
274.351	2640.12
280.267	2542.12
286.176	2424.12
292.079	2334.12
297.975	2248.12
303.865	2189.12
309.748	2115.12
315.625	2057.12
321.495	2019.12
327.359	1990.12
333.217	1962.12
339.068	1960.12
344.912	1957.12
350.751	1937.12
356.583	1938.12
362.408	1924.12
368.227	1948.12
374.04	1924.12
379.847	1946.12
385.647	1947.12
391.44	1958.12
397.228	1977.12
403.009	1982.12
408.784	1988.12
414.553	1992.12
420.315	1983.12
426.071	1988.12
431.821	2023.12
437.565	1997.12
443.302	1988.12
449.033	1957.12
454.758	1973.12
460.477	1951.12
466.189	1935.12
471.896	1910.12
477.596	1907.12
483.29	1884.12
488.978	1894.12
494.66	1858.12
500.335	1837.12
506.005	1808.12
511.668	1761.12
517.325	1714.12
522.977	1690.12
528.622	1655.12
534.261	1630.12
539.894	1621.12
545.521	1605.12
551.141	1593.12
556.756	1565.12
562.365	1540.12
567.968	1545.12
573.565	1538.12
579.155	1508.12
584.74	1511.12
590.319	1503.12
595.892	1479.12
601.459	1473.12
607.02	1463.12
612.575	1457.12
618.124	1427.12
623.667	1423.12
629.204	1404.12
634.735	1388.12
640.261	1366.12
645.781	1358.12
651.294	1345.12
656.802	1343.12
662.304	1329.12
667.8	1319.12
673.29	1318.12
678.775	1312.12
684.254	1293.12
689.726	1299.12
695.193	1266.12
700.655	1261.12
706.11	1266.12
711.56	1249.12
717.004	1229.12
722.442	1219.12
727.874	1196.12
733.301	1193.12
738.722	1199.12
744.137	1191.12
749.547	1178.12
754.951	1173.12
760.349	1158.12
765.741	1168.12
771.128	1176.12
776.509	1160.12
781.885	1162.12
787.254	1154.12
792.618	1142.12
797.977	1138.12
803.33	1120.12
808.677	1116.12
814.019	1098.12
819.355	1090.12
824.686	1082.12
830.011	1059.12
835.33	1048.12
840.644	1036.12
845.952	1029.12
851.255	1039.12
856.552	999.12
861.844	993.12
867.13	993.12
872.41	965.12
877.686	958.12
882.955	943.12
888.219	932.12
893.478	899.12
898.731	891.12
903.979	875.12
909.221	869.12
914.458	858.12
919.69	855.12
924.916	840.12
930.136	838.12
935.351	820.12
940.561	821.12
945.766	821.12
950.965	815.12
956.158	807.12
961.347	782.12
966.529	786.12
971.707	762.12
976.879	743.12
982.046	744.12
987.208	732.12
992.364	735.12
997.515	741.12
1002.66	747.12
1007.801	751.12
1012.936	752.12
1018.066	748.12
1023.19	755.12
1028.309	752.12
1033.423	743.12
1038.532	751.12
1043.636	739.12
1048.734	734.12
1053.827	716.12
1058.915	702.12
1063.998	702.12
1069.075	699.12
1074.147	710.12
1079.214	706.12
1084.276	717.12
1089.333	727.12
1094.385	722.12
1099.431	714.12
1104.472	721.12
1109.509	712.12
1114.54	705.12
1119.565	695.12
1124.586	698.12
1129.602	683.12
1134.613	684.12
1139.618	668.12
1144.619	657.12
1149.614	672.12
1154.604	674.12
1159.589	681.12
1164.57	688.12
1169.545	677.12
1174.515	677.12
1179.48	673.12
1184.44	682.12
1189.395	675.12
1194.345	665.12
1199.29	663.12
1204.23	662.12
1209.165	672.12
1214.095	660.12
1219.021	672.12
1223.941	672.12
1228.856	682.12
1233.766	677.12
1238.672	679.12
1243.572	683.12
1248.467	669.12
1253.358	671.12
1258.244	663.12
1263.124	636.12
1268	634.12
1272.871	618.12
1277.737	618.12
1282.599	621.12
1287.455	627.12
1292.306	624.12
1297.153	618.12
1301.995	629.12
1306.832	628.12
1311.664	650.12
1316.491	770.12
1321.314	643.12
1326.132	622.12
1330.945	598.12
1335.753	590.12
1340.556	577.12
1345.354	569.12
1350.148	546.12
1354.937	554.12
1359.722	555.12
1364.501	553.12
1369.276	574.12
1374.046	577.12
1378.811	579.12
1383.572	582.12
1388.327	573.12
1393.079	562.12
1397.825	553.12
1402.567	543.12
1407.304	545.12
1412.036	526.12
1416.764	524.12
1421.487	522.12
1426.205	528.12
1430.919	523.12
1435.628	538.12
1440.333	534.12
1445.032	536.12
1449.727	545.12
1454.418	540.12
1459.104	539.12
1463.785	538.12
1468.462	540.12
1473.134	520.12
1477.802	511.12
1482.465	538.12
1487.123	530.12
1491.777	529.12
1496.426	533.12
1501.071	544.12
1505.711	559.12
1510.347	574.12
1514.978	577.12
1519.604	587.12
1524.226	586.12
1528.844	599.12
1533.457	595.12
1538.065	598.12
1542.669	599.12
1547.269	608.12
1551.864	604.12
1556.454	602.12
1561.041	634.12
1565.622	639.12
1570.199	642.12
1574.772	641.12
1579.34	675.12
1583.904	695.12
1588.464	704.12
1593.019	729.12
1597.569	746.12
1602.115	758.12
1606.657	756.12
1611.195	771.12
1615.728	788.12
1620.256	804.12
1624.78	831.12
1629.3	835.12
1633.816	859.12
1638.327	880.12
1642.834	879.12
1647.336	900.12
1651.834	904.12
1656.328	884.12
1660.817	896.12
1665.302	868.12
1669.783	833.12
1674.259	798.12
1678.732	774.12
1683.199	737.12
1687.663	693.12
1692.122	656.12
1696.577	622.12
1701.028	602.12
1705.474	607.12
1709.917	575.12
1714.355	547.12
1718.788	529.12
1723.218	488.12
1727.643	477.12
1732.064	453.12
1736.481	428.12
1740.893	414.12
1745.301	396.12
1749.705	384.12
1754.105	364.12
1758.501	345.12
1762.893	334.12
1767.28	322.12
1771.663	313.12
1776.042	311.12
1780.417	314.12
1784.787	310.12
1789.154	308.12
1793.516	306.12
1797.874	318.12
1802.228	314.12
1806.578	309.12
1810.924	303.12
1815.266	295.12
1819.603	291.12
1823.937	283.12
1828.266	274.12
1832.591	277.12
1836.913	270.12
1841.23	264.12
1845.543	264.12
1849.852	259.12
1854.156	267.12
1858.457	255.12
1862.754	250.12
1867.047	253.12
1871.335	249.12
1875.62	261.12
1879.9	261.12
1884.177	262.12
1888.449	260.12
1892.718	263.12
1896.982	251.12
1901.243	255.12
1905.499	249.12
1909.752	260.12
1914	261.12
1918.245	248.12
1922.485	261.12
1926.722	272.12
1930.954	273.12
1935.183	268.12
1939.408	272.12
1943.628	276.12
1947.845	276.12
1952.058	280.12
1956.267	279.12
1960.472	279.12
1964.673	282.12
1968.87	271.12
1973.063	271.12
1977.252	274.12
1981.438	265.12
1985.619	256.12
1989.797	256.12
1993.971	262.12
1998.14	267.12
2002.306	262.12
2006.469	272.12
2010.627	274.12
2014.781	274.12
2018.932	272.12
2023.078	274.12
2027.221	270.12
2031.36	273.12
2035.495	267.12
2039.627	268.12
2043.754	264.12
2047.878	263.12
2051.998	264.12
2056.114	270.12
2060.226	274.12
2064.334	281.12
2068.439	281.12
2072.54	274.12
2076.637	277.12
2080.73	284.12
2084.82	285.12
2088.906	296.12
2092.988	293.12
2097.066	288.12
2101.14	298.12
2105.211	289.12
2109.278	282.12
2113.342	281.12
2117.401	283.12
2121.457	281.12
2125.509	270.12
2129.558	278.12
2133.602	264.12
2137.643	263.12
2141.681	269.12
2145.714	268.12
2149.744	265.12
2153.77	269.12
2157.793	258.12
2161.812	251.12
2165.827	245.12
2169.838	243.12
2173.846	240.12
2177.851	229.12
2181.851	226.12
2185.848	219.12
2189.841	218.12
2193.831	216.12
2197.817	213.12
2201.799	213.12
2205.778	213.12
2209.753	204.12
2213.725	208.12
2217.693	204.12
2221.657	203.12
2225.618	214.12
2229.575	202.12
2233.529	195.12
2237.479	193.12
2241.425	190.12
2245.368	183.12
2249.307	180.12
2253.243	179.12
2257.175	174.12
2261.104	174.12
2265.029	156.12
2268.95	164.12
2272.868	159.12
2276.783	157.12
2280.694	146.12
2284.601	149.12
2288.505	140.12
2292.405	146.12
2296.302	145.12
2300.195	139.12
2304.085	139.12
2307.971	128.12
2311.854	127.12
2315.734	120.12
2319.609	118.12
2323.482	111.12
2327.351	114.12
2331.216	114.12
2335.078	115.12
2338.937	112.12
2342.792	98.12
2346.643	104.12
2350.492	105.12
2354.336	103.12
2358.178	105.12
2362.015	98.12
2365.85	98.12
2369.681	99.12
2373.508	95.12
2377.333	91.12
2381.153	86.12
2384.971	95.12
2388.785	96.12
2392.595	86.12
2396.402	87.12
2400.206	84.12
2404.007	85.12
2407.804	86.12
2411.597	87.12
2415.388	81.12
2419.174	82.12
2422.958	76.12
2426.738	82.12
2430.515	76.12
2434.289	77.12
2438.059	75.12
2441.825	77.12
2445.589	79.12
2449.349	68.12
2453.106	72.12
2456.859	70.12
2460.61	66.12
2464.356	70.12
2468.1	59.12
2471.84	60.12
2475.577	69.12
2479.311	64.12
2483.041	58.12
2486.768	61.12
2490.492	64.12
2494.213	73.12
2497.93	61.12
2501.644	65.12
2505.355	55.12
2509.062	58.12
2512.766	59.12
2516.467	57.12
2520.165	54.12
2523.859	60.12
2527.551	54.12
2531.239	51.12
2534.923	50.12
2538.605	56.12
2542.283	54.12
2545.958	53.12
2549.63	47.12
2553.299	54.12
2556.964	57.12
2560.626	52.12
2564.285	54.12
2567.941	49.12
2571.594	50.12
2575.243	46.12
2578.89	44.12
2582.533	52.12
2586.173	42.12
2589.809	45.12
2593.443	45.12
2597.073	48.12
2600.701	47.12
2604.325	42.12
2607.946	45.12
2611.564	43.12
2615.178	42.12
2618.79	41.12
2622.398	37.12
2626.004	35.12
2629.606	37.12
2633.205	38.12
2636.801	36.12
2640.394	37.12
2643.983	33.12
2647.57	37.12
2651.153	32.12
2654.734	34.12
2658.311	33.12
2661.885	29.12
2665.456	41.12
2669.025	33.12
2672.589	34.12
2676.151	28.12
2679.71	25.12
2683.266	30.12
2686.819	25.12
2690.368	20.12
2693.915	20.12
2697.458	21.12
2700.999	23.12
2704.536	20.12
2708.071	23.12
2711.602	26.12
2715.13	26.12
2718.656	24.12
2722.178	23.12
2725.697	21.12
2729.214	22.12
2732.727	22.12
2736.237	26.12
2739.744	23.12
2743.249	26.12
2746.75	28.12
2750.248	32.12
2753.743	26.12
2757.236	28.12
2760.725	23.12
2764.211	28.12
2767.695	34.12
2771.175	33.12
2774.652	32.12
2778.127	32.12
2781.598	40.12
2785.067	44.12
2788.532	42.12
2791.995	40.12
2795.455	42.12
2798.911	40.12
2802.365	38.12
2805.816	45.12
2809.264	38.12
2812.709	48.12
2816.151	46.12
2819.59	41.12
2823.026	54.12
2826.46	51.12
2829.89	58.12
2833.318	56.12
2836.742	50.12
2840.164	54.12
2843.583	58.12
2846.999	64.12
2850.412	63.12
2853.822	68.12
2857.229	67.12
2860.634	72.12
2864.035	78.12
2867.434	81.12
2870.83	89.12
2874.223	85.12
2877.613	90.12
2881	89.12
2884.385	99.12
2887.766	90.12
2891.145	102.12
2894.521	98.12
2897.894	104.12
2901.264	107.12
2904.631	114.12
2907.996	117.12
2911.358	116.12
2914.717	119.12
2918.073	118.12
2921.426	132.12
2924.777	129.12
2928.124	131.12
2931.469	137.12
2934.811	146.12
2938.15	155.12
2941.487	155.12
2944.821	164.12
2948.152	169.12
2951.48	176.12
2954.805	177.12
2958.128	179.12
2961.447	192.12
2964.765	201.12
2968.079	205.12
2971.39	216.12
2974.699	212.12
2978.005	228.12
2981.308	241.12
2984.609	238.12
2987.907	258.12
2991.202	265.12
2994.494	285.12
2997.784	293.12
3001.07	306.12
3004.355	310.12
3007.636	327.12
3010.915	334.12
3014.191	342.12
3017.464	356.12
3020.734	364.12
3024.002	371.12
3027.267	389.12
3030.53	392.12
3033.789	393.12
3037.046	411.12
3040.301	424.12
3043.552	442.12
3046.801	435.12
3050.048	462.12
3053.291	480.12
3056.532	498.12
3059.771	525.12
3063.006	534.12
3066.239	543.12
3069.469	571.12
3072.697	587.12
3075.922	617.12
3079.144	634.12
3082.364	653.12
3085.581	663.12
3088.795	668.12
3092.007	710.12
3095.216	719.12
3098.423	735.12
3101.627	761.12
3104.828	785.12
3108.026	793.12
3111.222	820.12
3114.416	839.12
3117.607	865.12
3120.795	881.12
3123.98	911.12
3127.163	922.12
3130.344	952.12
3133.521	962.12
3136.696	1001.12
3139.869	1021.12
3143.039	1039.12
3146.206	1062.12
3149.371	1070.12
3152.533	1087.12
3155.693	1098.12
3158.85	1107.12
3162.005	1107.12
3165.157	1116.12
3168.306	1126.12
3171.453	1126.12
3174.597	1126.12
3177.739	1138.12
3180.878	1141.12
3184.014	1147.12
3187.149	1155.12
3190.28	1158.12
3193.409	1156.12
3196.536	1162.12
3199.659	1172.12
3202.781	1181.12
3205.9	1188.12
3209.016	1184.12
3212.13	1172.12
3215.241	1172.12
3218.35	1168.12
3221.456	1154.12
3224.56	1151.12
3227.661	1129.12
3230.76	1115.12
3233.856	1114.12
3236.95	1114.12
3240.041	1101.12
3243.13	1089.12
3246.216	1095.12
3249.3	1079.12
3252.382	1080.12
3255.46	1069.12
3258.537	1059.12
3261.611	1057.12
3264.682	1047.12
3267.751	1056.12
3270.818	1049.12
3273.882	1051.12
3276.943	1039.12
3280.002	1024.12
3283.059	1007.12
3286.113	1006.12
3289.165	982.12
3292.214	981.12
3295.261	954.12
3298.306	937.12
3301.348	935.12
3304.387	932.12
3307.425	916.12
3310.459	905.12
3313.492	885.12
3316.521	873.12
3319.549	866.12
3322.574	864.12
3325.597	855.12
3328.617	845.12
3331.635	837.12
3334.65	830.12
3337.663	834.12
3340.674	819.12
3343.682	822.12
3346.688	816.12
3349.691	803.12
3352.692	811.12
3355.691	807.12
3358.687	793.12
3361.681	802.12
3364.673	783.12
3367.662	775.12
3370.649	763.12
3373.633	765.12
3376.615	748.12
3379.595	728.12
3382.572	724.12
3385.547	707.12
3388.52	712.12
3391.49	703.12
3394.458	675.12
3397.424	681.12
3400.387	681.12
3403.348	673.12
3406.307	661.12
3409.263	654.12
3412.217	639.12
3415.168	634.12
3418.118	621.12
3421.065	618.12
3424.009	611.12
3426.951	609.12
3429.891	591.12
3432.829	596.12
3435.764	583.12
3438.697	567.12
3441.628	556.12
3444.557	539.12
3447.483	525.12
3450.407	518.12
3453.328	504.12
3456.247	477.12
3459.164	461.12
3462.079	460.12
3464.991	433.12
3467.902	435.12
3470.809	413.12
3473.715	391.12
3476.618	387.12
3479.519	378.12
3482.418	372.12
3485.315	349.12
3488.209	353.12
3491.101	342.12
3493.99	335.12
3496.878	316.12
3499.763	302.12
3502.646	287.12
3505.527	286.12
3508.405	272.12
3511.281	264.12
3514.155	256.12
3517.027	242.12
3519.897	233.12
3522.764	211.12
3525.629	203.12
3528.492	203.12
3531.352	182.12
3534.211	175.12
3537.067	159.12
3539.921	155.12
3542.773	141.12
3545.622	140.12
3548.469	127.12
3551.315	114.12
3554.157	112.12
3556.998	101.12
3559.837	93.12
3562.673	89.12
3565.507	82.12
3568.339	76.12
3571.169	80.12
3573.996	69.12
3576.822	66.12
3579.645	55.12
3582.466	48.12
3585.285	38.12
3588.101	35.12
3590.916	32.12
3593.728	22.12
3596.538	18.12
3599.346	14.12
3602.152	13.12
3604.956	11.12
3607.757	3.12
3610.556	-0.88
3613.354	-6.88
3616.149	-3.88
3618.942	-9.88
3621.732	-12.88
3624.521	-16.88
3627.307	-16.88
3630.092	-19.88
3632.874	-22.88
3635.654	-22.88
3638.432	-28.88
3641.208	-30.88
3643.982	-36.88
3646.753	-37.88
3649.523	-40.88
3652.29	-43.88
3655.055	-42.88
3657.818	-42.88
3660.579	-46.88
3663.338	-49.88
3666.095	-55.88
3668.849	-57.88
3671.602	-60.88
3674.352	-60.88
3677.101	-63.88
3679.847	-64.88
3682.591	-64.88
3685.333	-70.88
3688.073	-72.88
3690.811	-71.88
3693.547	-74.88
3696.281	-76.88
3699.013	-75.88
3701.742	-75.88
3704.47	-76.88
3707.195	-77.88
3709.919	-75.88
3712.64	-78.88
3715.359	-77.88
3718.076	-81.88
3720.792	-82.88
3723.505	-81.88
3726.216	-85.88
3728.925	-85.88
3731.632	-88.88
3734.336	-87.88
3737.039	-86.88
3739.74	-84.88
3742.439	-86.88
3745.136	-93.88
3747.83	-91.88
3750.523	-89.88
3753.213	-92.88
3755.902	-90.88
3758.589	-90.88
3761.273	-88.88
3763.956	-92.88
3766.636	-89.88
3769.315	-92.88
3771.991	-89.88
3774.665	-96.88
3777.338	-94.88
3780.008	-97.88
3782.677	-99.88
3785.343	-95.88
3788.007	-92.88
3790.67	-96.88
3793.33	-93.88
3795.989	-95.88
3798.645	-99.88
3801.299	-95.88
3803.952	-97.88
3806.602	-98.88
3809.251	-96.88
3811.897	-97.88
3814.542	-94.88
3817.184	-93.88
3819.825	-94.88
3822.463	-97.88
3825.1	-93.88
3827.735	-99.88
3830.367	-100.88
3832.998	-99.88
3835.627	-98.88
3838.253	-100.88
3840.878	-101.88
3843.501	-101.88
3846.122	-98.88
3848.741	-97.88
3851.358	-97.88
3853.973	-97.88
3856.586	-99.88
3859.197	-102.88
3861.806	-99.88
3864.414	-97.88
3867.019	-99.88
3869.622	-97.88
3872.224	-99.88
3874.823	-101.88
3877.421	-95.88
3880.016	-98.88
3882.61	-93.88
3885.202	-92.88
3887.792	-93.88
3890.38	-97.88
3892.966	-96.88
3895.55	-97.88
3898.132	-102.88
3900.713	-98.88
3903.291	-100.88
3905.868	-102.88
3908.442	-101.88
3911.015	-104.88
3913.586	-105.88
3916.155	-102.88
3918.722	-104.88
3921.287	-98.88
3923.85	-98.88
3926.411	-102.88
3928.971	-104.88
3931.528	-101.88
3934.084	-104.88
3936.638	-105.88
3939.19	-105.88
3941.74	-102.88
3944.288	-103.88
3946.834	-104.88
3949.378	-103.88
3951.921	-102.88
3954.462	-103.88
3957	-102.88
3959.537	-104.88
3962.072	-106.88
3964.606	-107.88
3967.137	-106.88
3969.667	-100.88
3972.194	-103.88
3974.72	-98.88
3977.244	-101.88
3979.766	-98.88
3982.286	-97.88
3984.805	-103.88
3987.321	-96.88
3989.836	-99.88
3992.349	-103.88
3994.86	-103.88
3997.369	-105.88
3999.877	-104.88
4002.382	-105.88
4004.886	-98.88
4007.388	-103.88
4009.888	-101.88
4012.386	-104.88
4014.883	-100.88
4017.377	-100.88
4019.87	-100.88
4022.361	-99.88
4024.85	-101.88
4027.338	-101.88
4029.823	-101.88
4032.307	-103.88
4034.789	-97.88
4037.269	-101.88
4039.747	-102.88
4042.224	-102.88
4044.699	-103.88
4047.172	-108.88
4049.643	-102.88
4052.112	-102.88
4054.58	-98.88
4057.046	-98.88
4059.51	-103.88
4061.972	-103.88
4064.432	-99.88
4066.891	-99.88
4069.348	-100.88
4071.803	-105.88
4074.256	-105.88
4076.708	-104.88
4079.158	-104.88
4081.606	-103.88
4084.052	-105.88
4086.497	-102.88
4088.939	-100.88
4091.38	-100.88
4093.819	-102.88
4096.257	-103.88
4098.693	-106.88
4101.127	-105.88
4103.559	-107.88
4105.989	-73.88
4108.418	-62.88
4110.845	-60.88
4113.27	-59.88
4115.694	-57.88
4118.115	-48.88
4120.535	-104.88
4122.954	-102.88
4125.37	-102.88
4127.785	-104.88
4130.198	-101.88
4132.609	-101.88
4135.019	-104.88
4137.427	-100.88
4139.833	-104.88
4142.237	-103.88
