Data from B.sub_water_1000000CFUB2_RamanShift_1.txt Node
Date: Wed Mar 08 16:06:51 IST 2017
User: aro
Spectrometer: QEPB0276
Trigger mode: 0
Integration Time (sec): 5.000000E0
Scans to average: 1
Electric dark correction enabled: true
Nonlinearity correction enabled: false
Boxcar width: 0
XAxis mode: Raman Shifts
Number of Pixels in Spectrum: 1044
>>>>>Begin Spectral Data<<<<<
160.701	-26.75
166.742	-4.75
172.777	70.25
178.805	316.25
184.826	853.25
190.841	1773.25
196.849	2831.25
202.85	3497.25
208.845	3602.25
214.833	3496.25
220.815	3356.25
226.789	3238.25
232.758	3154.25
238.719	3036.25
244.674	2921.25
250.623	2781.25
256.565	2676.25
262.5	2518.25
268.429	2410.25
274.351	2299.25
280.267	2220.25
286.176	2131.25
292.079	2059.25
297.975	1977.25
303.865	1947.25
309.748	1865.25
315.625	1829.25
321.495	1806.25
327.359	1761.25
333.217	1727.25
339.068	1751.25
344.912	1736.25
350.751	1724.25
356.583	1722.25
362.408	1721.25
368.227	1692.25
374.04	1727.25
379.847	1724.25
385.647	1736.25
391.44	1747.25
397.228	1754.25
403.009	1754.25
408.784	1765.25
414.553	1785.25
420.315	1771.25
426.071	1771.25
431.821	1788.25
437.565	1792.25
443.302	1760.25
449.033	1770.25
454.758	1748.25
460.477	1739.25
466.189	1728.25
471.896	1706.25
477.596	1700.25
483.29	1703.25
488.978	1714.25
494.66	1657.25
500.335	1660.25
506.005	1625.25
511.668	1577.25
517.325	1538.25
522.977	1506.25
528.622	1483.25
534.261	1469.25
539.894	1457.25
545.521	1447.25
551.141	1433.25
556.756	1416.25
562.365	1408.25
567.968	1383.25
573.565	1390.25
579.155	1370.25
584.74	1361.25
590.319	1334.25
595.892	1333.25
601.459	1335.25
607.02	1316.25
612.575	1328.25
618.124	1303.25
623.667	1279.25
629.204	1256.25
634.735	1266.25
640.261	1245.25
645.781	1226.25
651.294	1232.25
656.802	1211.25
662.304	1202.25
667.8	1203.25
673.29	1188.25
678.775	1181.25
684.254	1167.25
689.726	1170.25
695.193	1177.25
700.655	1176.25
706.11	1131.25
711.56	1141.25
717.004	1136.25
722.442	1120.25
727.874	1116.25
733.301	1099.25
738.722	1092.25
744.137	1082.25
749.547	1094.25
754.951	1088.25
760.349	1065.25
765.741	1066.25
771.128	1070.25
776.509	1073.25
781.885	1077.25
787.254	1056.25
792.618	1062.25
797.977	1043.25
803.33	1039.25
808.677	1031.25
814.019	1024.25
819.355	1001.25
824.686	993.25
830.011	986.25
835.33	970.25
840.644	966.25
845.952	964.25
851.255	951.25
856.552	930.25
861.844	939.25
867.13	935.25
872.41	938.25
877.686	926.25
882.955	908.25
888.219	888.25
893.478	871.25
898.731	862.25
903.979	830.25
909.221	810.25
914.458	802.25
919.69	804.25
924.916	792.25
930.136	797.25
935.351	791.25
940.561	783.25
945.766	780.25
950.965	779.25
956.158	763.25
961.347	754.25
966.529	748.25
971.707	729.25
976.879	720.25
982.046	706.25
987.208	718.25
992.364	717.25
997.515	712.25
1002.66	716.25
1007.801	727.25
1012.936	728.25
1018.066	730.25
1023.19	722.25
1028.309	741.25
1033.423	732.25
1038.532	721.25
1043.636	715.25
1048.734	721.25
1053.827	712.25
1058.915	693.25
1063.998	696.25
1069.075	692.25
1074.147	694.25
1079.214	698.25
1084.276	702.25
1089.333	703.25
1094.385	710.25
1099.431	707.25
1104.472	703.25
1109.509	702.25
1114.54	693.25
1119.565	681.25
1124.586	672.25
1129.602	662.25
1134.613	653.25
1139.618	662.25
1144.619	661.25
1149.614	663.25
1154.604	669.25
1159.589	661.25
1164.57	668.25
1169.545	677.25
1174.515	674.25
1179.48	663.25
1184.44	655.25
1189.395	657.25
1194.345	646.25
1199.29	649.25
1204.23	654.25
1209.165	661.25
1214.095	662.25
1219.021	663.25
1223.941	668.25
1228.856	666.25
1233.766	674.25
1238.672	672.25
1243.572	667.25
1248.467	659.25
1253.358	644.25
1258.244	651.25
1263.124	621.25
1268	629.25
1272.871	610.25
1277.737	615.25
1282.599	606.25
1287.455	608.25
1292.306	616.25
1297.153	613.25
1301.995	622.25
1306.832	619.25
1311.664	611.25
1316.491	630.25
1321.314	626.25
1326.132	614.25
1330.945	597.25
1335.753	594.25
1340.556	572.25
1345.354	559.25
1350.148	541.25
1354.937	546.25
1359.722	553.25
1364.501	552.25
1369.276	562.25
1374.046	573.25
1378.811	570.25
1383.572	569.25
1388.327	580.25
1393.079	562.25
1397.825	549.25
1402.567	552.25
1407.304	530.25
1412.036	538.25
1416.764	523.25
1421.487	531.25
1426.205	512.25
1430.919	529.25
1435.628	538.25
1440.333	535.25
1445.032	545.25
1449.727	556.25
1454.418	561.25
1459.104	558.25
1463.785	550.25
1468.462	536.25
1473.134	531.25
1477.802	523.25
1482.465	524.25
1487.123	526.25
1491.777	520.25
1496.426	529.25
1501.071	545.25
1505.711	555.25
1510.347	563.25
1514.978	584.25
1519.604	579.25
1524.226	595.25
1528.844	592.25
1533.457	593.25
1538.065	583.25
1542.669	589.25
1547.269	586.25
1551.864	590.25
1556.454	600.25
1561.041	611.25
1565.622	609.25
1570.199	609.25
1574.772	631.25
1579.34	643.25
1583.904	649.25
1588.464	680.25
1593.019	679.25
1597.569	701.25
1602.115	711.25
1606.657	714.25
1611.195	731.25
1615.728	739.25
1620.256	764.25
1624.78	767.25
1629.3	778.25
1633.816	794.25
1638.327	811.25
1642.834	813.25
1647.336	821.25
1651.834	830.25
1656.328	816.25
1660.817	821.25
1665.302	809.25
1669.783	781.25
1674.259	749.25
1678.732	727.25
1683.199	693.25
1687.663	654.25
1692.122	624.25
1696.577	601.25
1701.028	571.25
1705.474	564.25
1709.917	548.25
1714.355	525.25
1718.788	514.25
1723.218	486.25
1727.643	455.25
1732.064	443.25
1736.481	438.25
1740.893	415.25
1745.301	397.25
1749.705	377.25
1754.105	370.25
1758.501	346.25
1762.893	342.25
1767.28	324.25
1771.663	322.25
1776.042	315.25
1780.417	312.25
1784.787	316.25
1789.154	319.25
1793.516	317.25
1797.874	322.25
1802.228	318.25
1806.578	313.25
1810.924	310.25
1815.266	316.25
1819.603	305.25
1823.937	289.25
1828.266	283.25
1832.591	284.25
1836.913	280.25
1841.23	278.25
1845.543	273.25
1849.852	270.25
1854.156	269.25
1858.457	271.25
1862.754	274.25
1867.047	267.25
1871.335	273.25
1875.62	283.25
1879.9	273.25
1884.177	276.25
1888.449	268.25
1892.718	270.25
1896.982	270.25
1901.243	268.25
1905.499	262.25
1909.752	260.25
1914	267.25
1918.245	270.25
1922.485	269.25
1926.722	276.25
1930.954	278.25
1935.183	290.25
1939.408	294.25
1943.628	279.25
1947.845	286.25
1952.058	284.25
1956.267	285.25
1960.472	282.25
1964.673	280.25
1968.87	279.25
1973.063	272.25
1977.252	278.25
1981.438	278.25
1985.619	267.25
1989.797	272.25
1993.971	267.25
1998.14	274.25
2002.306	259.25
2006.469	275.25
2010.627	275.25
2014.781	274.25
2018.932	281.25
2023.078	280.25
2027.221	268.25
2031.36	273.25
2035.495	264.25
2039.627	267.25
2043.754	274.25
2047.878	259.25
2051.998	269.25
2056.114	267.25
2060.226	266.25
2064.334	277.25
2068.439	272.25
2072.54	269.25
2076.637	275.25
2080.73	265.25
2084.82	287.25
2088.906	280.25
2092.988	283.25
2097.066	285.25
2101.14	285.25
2105.211	281.25
2109.278	280.25
2113.342	276.25
2117.401	275.25
2121.457	275.25
2125.509	272.25
2129.558	270.25
2133.602	274.25
2137.643	271.25
2141.681	274.25
2145.714	259.25
2149.744	262.25
2153.77	256.25
2157.793	260.25
2161.812	250.25
2165.827	252.25
2169.838	241.25
2173.846	237.25
2177.851	237.25
2181.851	234.25
2185.848	229.25
2189.841	224.25
2193.831	217.25
2197.817	221.25
2201.799	207.25
2205.778	205.25
2209.753	208.25
2213.725	207.25
2217.693	210.25
2221.657	209.25
2225.618	200.25
2229.575	201.25
2233.529	211.25
2237.479	199.25
2241.425	194.25
2245.368	194.25
2249.307	186.25
2253.243	192.25
2257.175	182.25
2261.104	178.25
2265.029	170.25
2268.95	177.25
2272.868	166.25
2276.783	159.25
2280.694	155.25
2284.601	155.25
2288.505	157.25
2292.405	150.25
2296.302	146.25
2300.195	145.25
2304.085	149.25
2307.971	141.25
2311.854	145.25
2315.734	133.25
2319.609	128.25
2323.482	126.25
2327.351	129.25
2331.216	130.25
2335.078	120.25
2338.937	125.25
2342.792	120.25
2346.643	116.25
2350.492	106.25
2354.336	107.25
2358.178	114.25
2362.015	109.25
2365.85	109.25
2369.681	114.25
2373.508	108.25
2377.333	113.25
2381.153	111.25
2384.971	109.25
2388.785	109.25
2392.595	108.25
2396.402	96.25
2400.206	96.25
2404.007	99.25
2407.804	99.25
2411.597	100.25
2415.388	102.25
2419.174	104.25
2422.958	93.25
2426.738	93.25
2430.515	89.25
2434.289	89.25
2438.059	94.25
2441.825	91.25
2445.589	94.25
2449.349	95.25
2453.106	88.25
2456.859	87.25
2460.61	84.25
2464.356	85.25
2468.1	76.25
2471.84	78.25
2475.577	76.25
2479.311	83.25
2483.041	76.25
2486.768	74.25
2490.492	75.25
2494.213	80.25
2497.93	80.25
2501.644	75.25
2505.355	74.25
2509.062	73.25
2512.766	71.25
2516.467	73.25
2520.165	71.25
2523.859	79.25
2527.551	72.25
2531.239	70.25
2534.923	70.25
2538.605	70.25
2542.283	72.25
2545.958	58.25
2549.63	68.25
2553.299	66.25
2556.964	68.25
2560.626	64.25
2564.285	58.25
2567.941	65.25
2571.594	63.25
2575.243	60.25
2578.89	58.25
2582.533	63.25
2586.173	58.25
2589.809	61.25
2593.443	65.25
2597.073	61.25
2600.701	59.25
2604.325	54.25
2607.946	59.25
2611.564	54.25
2615.178	51.25
2618.79	51.25
2622.398	50.25
2626.004	50.25
2629.606	52.25
2633.205	50.25
2636.801	53.25
2640.394	52.25
2643.983	52.25
2647.57	49.25
2651.153	48.25
2654.734	41.25
2658.311	46.25
2661.885	48.25
2665.456	46.25
2669.025	42.25
2672.589	43.25
2676.151	40.25
2679.71	39.25
2683.266	39.25
2686.819	41.25
2690.368	35.25
2693.915	37.25
2697.458	34.25
2700.999	34.25
2704.536	40.25
2708.071	34.25
2711.602	38.25
2715.13	37.25
2718.656	38.25
2722.178	37.25
2725.697	31.25
2729.214	31.25
2732.727	32.25
2736.237	38.25
2739.744	37.25
2743.249	39.25
2746.75	48.25
2750.248	43.25
2753.743	43.25
2757.236	47.25
2760.725	44.25
2764.211	39.25
2767.695	42.25
2771.175	49.25
2774.652	43.25
2778.127	47.25
2781.598	46.25
2785.067	49.25
2788.532	53.25
2791.995	50.25
2795.455	43.25
2798.911	45.25
2802.365	53.25
2805.816	49.25
2809.264	52.25
2812.709	55.25
2816.151	50.25
2819.59	51.25
2823.026	55.25
2826.46	60.25
2829.89	65.25
2833.318	64.25
2836.742	57.25
2840.164	57.25
2843.583	66.25
2846.999	68.25
2850.412	69.25
2853.822	71.25
2857.229	73.25
2860.634	84.25
2864.035	83.25
2867.434	86.25
2870.83	93.25
2874.223	93.25
2877.613	96.25
2881	100.25
2884.385	97.25
2887.766	99.25
2891.145	102.25
2894.521	101.25
2897.894	105.25
2901.264	107.25
2904.631	111.25
2907.996	116.25
2911.358	114.25
2914.717	113.25
2918.073	118.25
2921.426	130.25
2924.777	134.25
2928.124	129.25
2931.469	146.25
2934.811	149.25
2938.15	156.25
2941.487	158.25
2944.821	157.25
2948.152	162.25
2951.48	164.25
2954.805	166.25
2958.128	166.25
2961.447	179.25
2964.765	181.25
2968.079	179.25
2971.39	196.25
2974.699	205.25
2978.005	215.25
2981.308	216.25
2984.609	229.25
2987.907	229.25
2991.202	247.25
2994.494	254.25
2997.784	268.25
3001.07	266.25
3004.355	279.25
3007.636	291.25
3010.915	301.25
3014.191	306.25
3017.464	313.25
3020.734	330.25
3024.002	323.25
3027.267	327.25
3030.53	332.25
3033.789	345.25
3037.046	354.25
3040.301	370.25
3043.552	376.25
3046.801	392.25
3050.048	403.25
3053.291	408.25
3056.532	433.25
3059.771	439.25
3063.006	463.25
3066.239	473.25
3069.469	493.25
3072.697	512.25
3075.922	533.25
3079.144	552.25
3082.364	560.25
3085.581	576.25
3088.795	582.25
3092.007	608.25
3095.216	623.25
3098.423	629.25
3101.627	650.25
3104.828	669.25
3108.026	677.25
3111.222	708.25
3114.416	714.25
3117.607	736.25
3120.795	751.25
3123.98	767.25
3127.163	792.25
3130.344	816.25
3133.521	839.25
3136.696	845.25
3139.869	875.25
3143.039	900.25
3146.206	918.25
3149.371	933.25
3152.533	930.25
3155.693	936.25
3158.85	933.25
3162.005	945.25
3165.157	957.25
3168.306	961.25
3171.453	964.25
3174.597	959.25
3177.739	973.25
3180.878	979.25
3184.014	976.25
3187.149	978.25
3190.28	984.25
3193.409	984.25
3196.536	985.25
3199.659	996.25
3202.781	995.25
3205.9	1014.25
3209.016	1006.25
3212.13	1004.25
3215.241	1003.25
3218.35	1008.25
3221.456	989.25
3224.56	970.25
3227.661	968.25
3230.76	963.25
3233.856	946.25
3236.95	943.25
3240.041	930.25
3243.13	925.25
3246.216	920.25
3249.3	906.25
3252.382	920.25
3255.46	904.25
3258.537	914.25
3261.611	902.25
3264.682	907.25
3267.751	897.25
3270.818	905.25
3273.882	898.25
3276.943	878.25
3280.002	884.25
3283.059	873.25
3286.113	858.25
3289.165	852.25
3292.214	828.25
3295.261	811.25
3298.306	804.25
3301.348	798.25
3304.387	782.25
3307.425	779.25
3310.459	764.25
3313.492	753.25
3316.521	753.25
3319.549	737.25
3322.574	732.25
3325.597	728.25
3328.617	725.25
3331.635	713.25
3334.65	712.25
3337.663	707.25
3340.674	700.25
3343.682	701.25
3346.688	710.25
3349.691	701.25
3352.692	687.25
3355.691	682.25
3358.687	676.25
3361.681	665.25
3364.673	666.25
3367.662	658.25
3370.649	640.25
3373.633	651.25
3376.615	642.25
3379.595	631.25
3382.572	622.25
3385.547	611.25
3388.52	602.25
3391.49	593.25
3394.458	589.25
3397.424	590.25
3400.387	578.25
3403.348	559.25
3406.307	555.25
3409.263	548.25
3412.217	556.25
3415.168	547.25
3418.118	535.25
3421.065	520.25
3424.009	523.25
3426.951	518.25
3429.891	519.25
3432.829	503.25
3435.764	495.25
3438.697	475.25
3441.628	461.25
3444.557	453.25
3447.483	448.25
3450.407	436.25
3453.328	410.25
3456.247	420.25
3459.164	392.25
3462.079	380.25
3464.991	370.25
3467.902	362.25
3470.809	345.25
3473.715	333.25
3476.618	338.25
3479.519	320.25
3482.418	306.25
3485.315	307.25
3488.209	299.25
3491.101	294.25
3493.99	280.25
3496.878	261.25
3499.763	263.25
3502.646	241.25
3505.527	243.25
3508.405	228.25
3511.281	226.25
3514.155	214.25
3517.027	196.25
3519.897	194.25
3522.764	180.25
3525.629	166.25
3528.492	159.25
3531.352	152.25
3534.211	143.25
3537.067	134.25
3539.921	124.25
3542.773	128.25
3545.622	112.25
3548.469	106.25
3551.315	101.25
3554.157	94.25
3556.998	85.25
3559.837	88.25
3562.673	74.25
3565.507	61.25
3568.339	64.25
3571.169	60.25
3573.996	58.25
3576.822	46.25
3579.645	47.25
3582.466	43.25
3585.285	35.25
3588.101	24.25
3590.916	24.25
3593.728	22.25
3596.538	20.25
3599.346	18.25
3602.152	13.25
3604.956	8.25
3607.757	3.25
3610.556	-1.75
3613.354	-7.75
3616.149	-11.75
3618.942	-13.75
3621.732	-13.75
3624.521	-16.75
3627.307	-15.75
3630.092	-17.75
3632.874	-15.75
3635.654	-21.75
3638.432	-20.75
3641.208	-30.75
3643.982	-28.75
3646.753	-33.75
3649.523	-37.75
3652.29	-35.75
3655.055	-37.75
3657.818	-41.75
3660.579	-40.75
3663.338	-44.75
3666.095	-47.75
3668.849	-53.75
3671.602	-56.75
3674.352	-53.75
3677.101	-54.75
3679.847	-54.75
3682.591	-57.75
3685.333	-58.75
3688.073	-58.75
3690.811	-62.75
3693.547	-64.75
3696.281	-63.75
3699.013	-64.75
3701.742	-66.75
3704.47	-70.75
3707.195	-68.75
3709.919	-65.75
3712.64	-67.75
3715.359	-71.75
3718.076	-69.75
3720.792	-70.75
3723.505	-68.75
3726.216	-70.75
3728.925	-70.75
3731.632	-72.75
3734.336	-74.75
3737.039	-70.75
3739.74	-73.75
3742.439	-71.75
3745.136	-74.75
3747.83	-76.75
3750.523	-79.75
3753.213	-77.75
3755.902	-81.75
3758.589	-77.75
3761.273	-79.75
3763.956	-80.75
3766.636	-78.75
3769.315	-79.75
3771.991	-75.75
3774.665	-79.75
3777.338	-79.75
3780.008	-81.75
3782.677	-80.75
3785.343	-81.75
3788.007	-80.75
3790.67	-82.75
3793.33	-76.75
3795.989	-82.75
3798.645	-83.75
3801.299	-81.75
3803.952	-84.75
3806.602	-86.75
3809.251	-83.75
3811.897	-85.75
3814.542	-84.75
3817.184	-78.75
3819.825	-81.75
3822.463	-84.75
3825.1	-81.75
3827.735	-82.75
3830.367	-87.75
3832.998	-85.75
3835.627	-80.75
3838.253	-87.75
3840.878	-84.75
3843.501	-85.75
3846.122	-84.75
3848.741	-84.75
3851.358	-85.75
3853.973	-85.75
3856.586	-85.75
3859.197	-90.75
3861.806	-83.75
3864.414	-84.75
3867.019	-81.75
3869.622	-81.75
3872.224	-80.75
3874.823	-82.75
3877.421	-80.75
3880.016	-80.75
3882.61	-79.75
3885.202	-78.75
3887.792	-83.75
3890.38	-84.75
3892.966	-86.75
3895.55	-88.75
3898.132	-85.75
3900.713	-83.75
3903.291	-85.75
3905.868	-89.75
3908.442	-87.75
3911.015	-85.75
3913.586	-86.75
3916.155	-87.75
3918.722	-89.75
3921.287	-85.75
3923.85	-82.75
3926.411	-86.75
3928.971	-91.75
3931.528	-86.75
3934.084	-90.75
3936.638	-92.75
3939.19	-89.75
3941.74	-87.75
3944.288	-89.75
3946.834	-89.75
3949.378	-89.75
3951.921	-88.75
3954.462	-88.75
3957	-84.75
3959.537	-87.75
3962.072	-88.75
3964.606	-88.75
3967.137	-88.75
3969.667	-89.75
3972.194	-90.75
3974.72	-88.75
3977.244	-88.75
3979.766	-88.75
3982.286	-87.75
3984.805	-89.75
3987.321	-84.75
3989.836	-85.75
3992.349	-85.75
3994.86	-89.75
3997.369	-87.75
3999.877	-91.75
4002.382	-88.75
4004.886	-84.75
4007.388	-89.75
4009.888	-87.75
4012.386	-88.75
4014.883	-87.75
4017.377	-90.75
4019.87	-87.75
4022.361	-89.75
4024.85	-85.75
4027.338	-86.75
4029.823	-83.75
4032.307	-88.75
4034.789	-83.75
4037.269	-85.75
4039.747	-86.75
4042.224	-87.75
4044.699	-89.75
4047.172	-92.75
4049.643	-87.75
4052.112	-89.75
4054.58	-87.75
4057.046	-87.75
4059.51	-88.75
4061.972	-89.75
4064.432	-83.75
4066.891	-86.75
4069.348	-85.75
4071.803	-90.75
4074.256	-87.75
4076.708	-88.75
4079.158	-84.75
4081.606	-87.75
4084.052	-86.75
4086.497	-85.75
4088.939	-84.75
4091.38	-85.75
4093.819	-88.75
4096.257	-91.75
4098.693	-94.75
4101.127	-93.75
4103.559	-92.75
4105.989	-64.75
4108.418	-54.75
4110.845	-53.75
4113.27	-50.75
4115.694	-46.75
4118.115	-40.75
4120.535	-91.75
4122.954	-88.75
4125.37	-88.75
4127.785	-88.75
4130.198	-88.75
4132.609	-87.75
4135.019	-89.75
4137.427	-86.75
4139.833	-91.75
4142.237	-86.75
