Data from 100000000CFU1_A_ramanshift_RamanShift_14-30-25-398.txt Node
Date: Sun Dec 25 14:30:25 IST 2016
User: aro
Spectrometer: QEPB0276
Trigger mode: 0
Integration Time (sec): 5.000000E0
Scans to average: 1
Electric dark correction enabled: true
Nonlinearity correction enabled: false
Boxcar width: 0
XAxis mode: Raman Shifts
Number of Pixels in Spectrum: 1044
>>>>>Begin Spectral Data<<<<<
160.701	7
166.742	19
172.777	49
178.805	152
184.826	445
190.841	1033
196.849	1896
202.85	2686
208.845	3098
214.833	3092
220.815	2998
226.789	2895
232.758	2817
238.719	2758
244.674	2691
250.623	2573
256.565	2464
262.5	2367
268.429	2259
274.351	2153
280.267	2100
286.176	2017
292.079	1956
297.975	1904
303.865	1830
309.748	1776
315.625	1737
321.495	1707
327.359	1666
333.217	1658
339.068	1659
344.912	1636
350.751	1631
356.583	1594
362.408	1623
368.227	1620
374.04	1609
379.847	1629
385.647	1635
391.44	1654
397.228	1660
403.009	1680
408.784	1678
414.553	1666
420.315	1662
426.071	1671
431.821	1667
437.565	1691
443.302	1687
449.033	1686
454.758	1690
460.477	1678
466.189	1668
471.896	1664
477.596	1664
483.29	1645
488.978	1635
494.66	1629
500.335	1638
506.005	1603
511.668	1563
517.325	1532
522.977	1508
528.622	1482
534.261	1460
539.894	1462
545.521	1445
551.141	1426
556.756	1417
562.365	1413
567.968	1411
573.565	1404
579.155	1382
584.74	1384
590.319	1373
595.892	1374
601.459	1375
607.02	1347
612.575	1349
618.124	1333
623.667	1321
629.204	1309
634.735	1306
640.261	1291
645.781	1257
651.294	1276
656.802	1262
662.304	1268
667.8	1251
673.29	1268
678.775	1262
684.254	1244
689.726	1249
695.193	1232
700.655	1235
706.11	1235
711.56	1205
717.004	1213
722.442	1222
727.874	1190
733.301	1199
738.722	1199
744.137	1173
749.547	1179
754.951	1182
760.349	1178
765.741	1173
771.128	1171
776.509	1154
781.885	1186
787.254	1178
792.618	1174
797.977	1179
803.33	1158
808.677	1146
814.019	1154
819.355	1133
824.686	1110
830.011	1106
835.33	1114
840.644	1107
845.952	1103
851.255	1091
856.552	1085
861.844	1093
867.13	1092
872.41	1083
877.686	1061
882.955	1068
888.219	1051
893.478	1036
898.731	1029
903.979	1014
909.221	997
914.458	988
919.69	975
924.916	978
930.136	980
935.351	988
940.561	962
945.766	973
950.965	962
956.158	969
961.347	957
966.529	949
971.707	919
976.879	911
982.046	905
987.208	898
992.364	893
997.515	899
1002.66	897
1007.801	922
1012.936	927
1018.066	929
1023.19	938
1028.309	945
1033.423	941
1038.532	932
1043.636	931
1048.734	921
1053.827	927
1058.915	904
1063.998	900
1069.075	893
1074.147	897
1079.214	898
1084.276	904
1089.333	908
1094.385	917
1099.431	935
1104.472	933
1109.509	924
1114.54	905
1119.565	902
1124.586	896
1129.602	883
1134.613	878
1139.618	873
1144.619	866
1149.614	867
1154.604	877
1159.589	880
1164.57	885
1169.545	885
1174.515	893
1179.48	900
1184.44	895
1189.395	877
1194.345	871
1199.29	865
1204.23	867
1209.165	863
1214.095	880
1219.021	881
1223.941	901
1228.856	892
1233.766	904
1238.672	910
1243.572	903
1248.467	898
1253.358	891
1258.244	874
1263.124	879
1268	861
1272.871	850
1277.737	827
1282.599	847
1287.455	840
1292.306	836
1297.153	849
1301.995	852
1306.832	847
1311.664	861
1316.491	860
1321.314	860
1326.132	860
1330.945	829
1335.753	821
1340.556	812
1345.354	803
1350.148	800
1354.937	788
1359.722	790
1364.501	779
1369.276	792
1374.046	796
1378.811	795
1383.572	808
1388.327	800
1393.079	801
1397.825	788
1402.567	792
1407.304	774
1412.036	777
1416.764	752
1421.487	749
1426.205	742
1430.919	766
1435.628	762
1440.333	776
1445.032	769
1449.727	801
1454.418	788
1459.104	797
1463.785	785
1468.462	778
1473.134	758
1477.802	769
1482.465	756
1487.123	761
1491.777	754
1496.426	746
1501.071	751
1505.711	757
1510.347	767
1514.978	786
1519.604	795
1524.226	810
1528.844	803
1533.457	802
1538.065	814
1542.669	807
1547.269	801
1551.864	794
1556.454	806
1561.041	822
1565.622	808
1570.199	823
1574.772	819
1579.34	842
1583.904	846
1588.464	860
1593.019	873
1597.569	883
1602.115	887
1606.657	890
1611.195	894
1615.728	903
1620.256	915
1624.78	925
1629.3	936
1633.816	939
1638.327	951
1642.834	969
1647.336	965
1651.834	974
1656.328	974
1660.817	993
1665.302	973
1669.783	951
1674.259	940
1678.732	913
1683.199	883
1687.663	841
1692.122	814
1696.577	814
1701.028	770
1705.474	752
1709.917	758
1714.355	721
1718.788	712
1723.218	700
1727.643	693
1732.064	671
1736.481	661
1740.893	640
1745.301	627
1749.705	606
1754.105	600
1758.501	578
1762.893	556
1767.28	560
1771.663	554
1776.042	540
1780.417	539
1784.787	550
1789.154	557
1793.516	561
1797.874	553
1802.228	554
1806.578	546
1810.924	554
1815.266	553
1819.603	541
1823.937	533
1828.266	532
1832.591	518
1836.913	514
1841.23	508
1845.543	512
1849.852	510
1854.156	517
1858.457	509
1862.754	504
1867.047	515
1871.335	510
1875.62	513
1879.9	515
1884.177	512
1888.449	514
1892.718	510
1896.982	501
1901.243	502
1905.499	505
1909.752	509
1914	499
1918.245	493
1922.485	492
1926.722	501
1930.954	501
1935.183	512
1939.408	510
1943.628	516
1947.845	514
1952.058	515
1956.267	514
1960.472	500
1964.673	498
1968.87	507
1973.063	501
1977.252	491
1981.438	495
1985.619	480
1989.797	492
1993.971	476
1998.14	485
2002.306	496
2006.469	487
2010.627	492
2014.781	493
2018.932	489
2023.078	486
2027.221	490
2031.36	479
2035.495	479
2039.627	476
2043.754	477
2047.878	471
2051.998	474
2056.114	469
2060.226	472
2064.334	471
2068.439	482
2072.54	483
2076.637	479
2080.73	482
2084.82	484
2088.906	485
2092.988	485
2097.066	491
2101.14	480
2105.211	480
2109.278	480
2113.342	481
2117.401	483
2121.457	475
2125.509	478
2129.558	466
2133.602	466
2137.643	479
2141.681	465
2145.714	470
2149.744	459
2153.77	467
2157.793	458
2161.812	449
2165.827	449
2169.838	443
2173.846	432
2177.851	431
2181.851	426
2185.848	422
2189.841	411
2193.831	425
2197.817	401
2201.799	400
2205.778	409
2209.753	407
2213.725	410
2217.693	394
2221.657	400
2225.618	405
2229.575	402
2233.529	398
2237.479	396
2241.425	399
2245.368	399
2249.307	374
2253.243	376
2257.175	372
2261.104	376
2265.029	361
2268.95	367
2272.868	354
2276.783	344
2280.694	353
2284.601	343
2288.505	348
2292.405	335
2296.302	339
2300.195	331
2304.085	330
2307.971	315
2311.854	314
2315.734	316
2319.609	305
2323.482	315
2327.351	311
2331.216	297
2335.078	291
2338.937	289
2342.792	285
2346.643	294
2350.492	279
2354.336	292
2358.178	292
2362.015	300
2365.85	290
2369.681	290
2373.508	299
2377.333	293
2381.153	287
2384.971	289
2388.785	291
2392.595	294
2396.402	283
2400.206	285
2404.007	279
2407.804	276
2411.597	279
2415.388	271
2419.174	272
2422.958	276
2426.738	277
2430.515	272
2434.289	270
2438.059	271
2441.825	268
2445.589	263
2449.349	266
2453.106	266
2456.859	264
2460.61	251
2464.356	259
2468.1	247
2471.84	251
2475.577	243
2479.311	250
2483.041	251
2486.768	247
2490.492	251
2494.213	244
2497.93	255
2501.644	251
2505.355	242
2509.062	253
2512.766	253
2516.467	252
2520.165	241
2523.859	244
2527.551	242
2531.239	236
2534.923	228
2538.605	236
2542.283	237
2545.958	231
2549.63	235
2553.299	228
2556.964	234
2560.626	232
2564.285	231
2567.941	225
2571.594	224
2575.243	224
2578.89	221
2582.533	218
2586.173	215
2589.809	224
2593.443	216
2597.073	214
2600.701	216
2604.325	212
2607.946	211
2611.564	209
2615.178	214
2618.79	217
2622.398	209
2626.004	206
2629.606	206
2633.205	201
2636.801	196
2640.394	206
2643.983	205
2647.57	198
2651.153	195
2654.734	198
2658.311	197
2661.885	189
2665.456	190
2669.025	195
2672.589	180
2676.151	179
2679.71	187
2683.266	182
2686.819	183
2690.368	186
2693.915	178
2697.458	175
2700.999	169
2704.536	165
2708.071	171
2711.602	174
2715.13	170
2718.656	166
2722.178	164
2725.697	164
2729.214	166
2732.727	166
2736.237	163
2739.744	173
2743.249	169
2746.75	169
2750.248	167
2753.743	170
2757.236	172
2760.725	172
2764.211	167
2767.695	166
2771.175	162
2774.652	162
2778.127	166
2781.598	168
2785.067	171
2788.532	165
2791.995	173
2795.455	160
2798.911	158
2802.365	164
2805.816	161
2809.264	172
2812.709	168
2816.151	169
2819.59	168
2823.026	161
2826.46	168
2829.89	167
2833.318	174
2836.742	172
2840.164	165
2843.583	165
2846.999	165
2850.412	172
2853.822	177
2857.229	174
2860.634	189
2864.035	179
2867.434	183
2870.83	184
2874.223	182
2877.613	186
2881	192
2884.385	190
2887.766	190
2891.145	196
2894.521	189
2897.894	193
2901.264	202
2904.631	197
2907.996	197
2911.358	189
2914.717	195
2918.073	205
2921.426	199
2924.777	209
2928.124	214
2931.469	213
2934.811	208
2938.15	219
2941.487	226
2944.821	218
2948.152	223
2951.48	228
2954.805	226
2958.128	238
2961.447	235
2964.765	239
2968.079	240
2971.39	253
2974.699	247
2978.005	253
2981.308	258
2984.609	271
2987.907	269
2991.202	280
2994.494	284
2997.784	295
3001.07	298
3004.355	311
3007.636	323
3010.915	318
3014.191	327
3017.464	338
3020.734	342
3024.002	336
3027.267	344
3030.53	350
3033.789	369
3037.046	373
3040.301	381
3043.552	384
3046.801	395
3050.048	401
3053.291	407
3056.532	415
3059.771	433
3063.006	450
3066.239	455
3069.469	481
3072.697	488
3075.922	499
3079.144	507
3082.364	519
3085.581	527
3088.795	555
3092.007	557
3095.216	570
3098.423	583
3101.627	594
3104.828	595
3108.026	613
3111.222	630
3114.416	640
3117.607	657
3120.795	664
3123.98	695
3127.163	702
3130.344	718
3133.521	732
3136.696	754
3139.869	770
3143.039	777
3146.206	784
3149.371	800
3152.533	803
3155.693	814
3158.85	816
3162.005	828
3165.157	829
3168.306	834
3171.453	829
3174.597	840
3177.739	841
3180.878	846
3184.014	837
3187.149	844
3190.28	839
3193.409	851
3196.536	848
3199.659	850
3202.781	846
3205.9	859
3209.016	861
3212.13	857
3215.241	858
3218.35	836
3221.456	831
3224.56	837
3227.661	820
3230.76	811
3233.856	810
3236.95	796
3240.041	793
3243.13	775
3246.216	778
3249.3	768
3252.382	779
3255.46	759
3258.537	766
3261.611	754
3264.682	756
3267.751	759
3270.818	754
3273.882	741
3276.943	747
3280.002	736
3283.059	732
3286.113	716
3289.165	713
3292.214	700
3295.261	708
3298.306	687
3301.348	684
3304.387	665
3307.425	645
3310.459	639
3313.492	646
3316.521	643
3319.549	624
3322.574	610
3325.597	611
3328.617	601
3331.635	606
3334.65	598
3337.663	583
3340.674	595
3343.682	595
3346.688	585
3349.691	590
3352.692	583
3355.691	582
3358.687	576
3361.681	559
3364.673	567
3367.662	547
3370.649	553
3373.633	541
3376.615	530
3379.595	531
3382.572	521
3385.547	513
3388.52	507
3391.49	506
3394.458	494
3397.424	478
3400.387	478
3403.348	472
3406.307	469
3409.263	468
3412.217	458
3415.168	452
3418.118	451
3421.065	448
3424.009	436
3426.951	434
3429.891	427
3432.829	422
3435.764	417
3438.697	405
3441.628	400
3444.557	388
3447.483	385
3450.407	366
3453.328	353
3456.247	361
3459.164	340
3462.079	334
3464.991	333
3467.902	313
3470.809	303
3473.715	296
3476.618	285
3479.519	275
3482.418	276
3485.315	269
3488.209	251
3491.101	256
3493.99	238
3496.878	238
3499.763	241
3502.646	227
3505.527	224
3508.405	206
3511.281	206
3514.155	194
3517.027	186
3519.897	179
3522.764	179
3525.629	173
3528.492	159
3531.352	156
3534.211	144
3537.067	128
3539.921	126
3542.773	125
3545.622	120
3548.469	115
3551.315	103
3554.157	97
3556.998	94
3559.837	82
3562.673	84
3565.507	82
3568.339	80
3571.169	76
3573.996	67
3576.822	60
3579.645	58
3582.466	61
3585.285	57
3588.101	49
3590.916	46
3593.728	47
3596.538	47
3599.346	38
3602.152	33
3604.956	30
3607.757	26
3610.556	25
3613.354	21
3616.149	16
3618.942	16
3621.732	14
3624.521	15
3627.307	7
3630.092	6
3632.874	7
3635.654	4
3638.432	5
3641.208	0
3643.982	2
3646.753	1
3649.523	2
3652.29	-7
3655.055	-9
3657.818	-10
3660.579	-15
3663.338	-13
3666.095	-13
3668.849	-15
3671.602	-16
3674.352	-22
3677.101	-27
3679.847	-27
3682.591	-26
3685.333	-22
3688.073	-23
3690.811	-26
3693.547	-28
3696.281	-29
3699.013	-32
3701.742	-32
3704.47	-33
3707.195	-32
3709.919	-34
3712.64	-36
3715.359	-28
3718.076	-36
3720.792	-40
3723.505	-37
3726.216	-41
3728.925	-40
3731.632	-43
3734.336	-37
3737.039	-39
3739.74	-39
3742.439	-37
3745.136	-39
3747.83	-41
3750.523	-42
3753.213	-46
3755.902	-43
3758.589	-43
3761.273	-44
3763.956	-42
3766.636	-40
3769.315	-41
3771.991	-46
3774.665	-49
3777.338	-46
3780.008	-42
3782.677	-45
3785.343	-42
3788.007	-43
3790.67	-43
3793.33	-47
3795.989	-50
3798.645	-47
3801.299	-50
3803.952	-44
3806.602	-47
3809.251	-44
3811.897	-46
3814.542	-49
3817.184	-46
3819.825	-46
3822.463	-47
3825.1	-51
3827.735	-48
3830.367	-52
3832.998	-45
3835.627	-49
3838.253	-47
3840.878	-52
3843.501	-50
3846.122	-50
3848.741	-52
3851.358	-52
3853.973	-48
3856.586	-46
3859.197	-47
3861.806	-49
3864.414	-52
3867.019	-51
3869.622	-50
3872.224	-48
3874.823	-50
3877.421	-46
3880.016	-49
3882.61	-50
3885.202	-45
3887.792	-44
3890.38	-47
3892.966	-49
3895.55	-52
3898.132	-54
3900.713	-51
3903.291	-55
3905.868	-48
3908.442	-51
3911.015	-52
3913.586	-55
3916.155	-54
3918.722	-54
3921.287	-50
3923.85	-54
3926.411	-51
3928.971	-50
3931.528	-52
3934.084	-55
3936.638	-56
3939.19	-55
3941.74	-54
3944.288	-55
3946.834	-52
3949.378	-51
3951.921	-51
3954.462	-52
3957	-51
3959.537	-54
3962.072	-53
3964.606	-54
3967.137	-55
3969.667	-55
3972.194	-52
3974.72	-53
3977.244	-48
3979.766	-52
3982.286	-50
3984.805	-56
3987.321	-58
3989.836	-54
3992.349	-52
3994.86	-48
3997.369	-47
3999.877	-51
4002.382	-50
4004.886	-53
4007.388	-52
4009.888	-53
4012.386	-51
4014.883	-52
4017.377	-51
4019.87	-49
4022.361	-51
4024.85	-52
4027.338	-50
4029.823	-49
4032.307	-49
4034.789	-52
4037.269	-53
4039.747	-56
4042.224	-54
4044.699	-50
4047.172	-55
4049.643	-53
4052.112	-51
4054.58	-56
4057.046	-53
4059.51	-55
4061.972	-50
4064.432	-50
4066.891	-51
4069.348	-53
4071.803	-55
4074.256	-54
4076.708	-54
4079.158	-53
4081.606	-47
4084.052	-50
4086.497	-54
4088.939	-54
4091.38	-57
4093.819	-53
4096.257	-54
4098.693	-53
4101.127	-56
4103.559	-54
4105.989	-13
4108.418	-11
4110.845	-10
4113.27	-12
4115.694	-3
4118.115	-6
4120.535	-53
4122.954	-48
4125.37	-53
4127.785	-52
4130.198	-50
4132.609	-52
4135.019	-61
4137.427	-55
4139.833	-56
4142.237	-55
