Data from 10000000CFU2_A_ramanshift_RamanShift_14-28-25-410.txt Node
Date: Sun Dec 25 14:28:25 IST 2016
User: aro
Spectrometer: QEPB0276
Trigger mode: 0
Integration Time (sec): 5.000000E0
Scans to average: 1
Electric dark correction enabled: true
Nonlinearity correction enabled: false
Boxcar width: 0
XAxis mode: Raman Shifts
Number of Pixels in Spectrum: 1044
>>>>>Begin Spectral Data<<<<<
160.701	3.25
166.742	22.25
172.777	61.25
178.805	199.25
184.826	612.25
190.841	1459.25
196.849	2654.25
202.85	3830.25
208.845	4397.25
214.833	4454.25
220.815	4272.25
226.789	4119.25
232.758	4002.25
238.719	3892.25
244.674	3773.25
250.623	3637.25
256.565	3427.25
262.5	3328.25
268.429	3146.25
274.351	3022.25
280.267	2879.25
286.176	2803.25
292.079	2719.25
297.975	2618.25
303.865	2508.25
309.748	2448.25
315.625	2365.25
321.495	2337.25
327.359	2283.25
333.217	2231.25
339.068	2234.25
344.912	2198.25
350.751	2187.25
356.583	2181.25
362.408	2176.25
368.227	2182.25
374.04	2186.25
379.847	2173.25
385.647	2194.25
391.44	2223.25
397.228	2217.25
403.009	2227.25
408.784	2255.25
414.553	2247.25
420.315	2260.25
426.071	2246.25
431.821	2247.25
437.565	2268.25
443.302	2271.25
449.033	2278.25
454.758	2245.25
460.477	2233.25
466.189	2224.25
471.896	2240.25
477.596	2224.25
483.29	2203.25
488.978	2216.25
494.66	2213.25
500.335	2179.25
506.005	2142.25
511.668	2104.25
517.325	2070.25
522.977	2055.25
528.622	2028.25
534.261	2041.25
539.894	1998.25
545.521	1966.25
551.141	1966.25
556.756	1968.25
562.365	1953.25
567.968	1941.25
573.565	1938.25
579.155	1927.25
584.74	1904.25
590.319	1898.25
595.892	1884.25
601.459	1875.25
607.02	1881.25
612.575	1860.25
618.124	1832.25
623.667	1826.25
629.204	1797.25
634.735	1783.25
640.261	1773.25
645.781	1763.25
651.294	1748.25
656.802	1731.25
662.304	1766.25
667.8	1726.25
673.29	1745.25
678.775	1735.25
684.254	1730.25
689.726	1714.25
695.193	1717.25
700.655	1700.25
706.11	1676.25
711.56	1680.25
717.004	1667.25
722.442	1661.25
727.874	1655.25
733.301	1647.25
738.722	1630.25
744.137	1628.25
749.547	1629.25
754.951	1622.25
760.349	1597.25
765.741	1624.25
771.128	1625.25
776.509	1625.25
781.885	1611.25
787.254	1627.25
792.618	1624.25
797.977	1600.25
803.33	1603.25
808.677	1594.25
814.019	1584.25
819.355	1562.25
824.686	1546.25
830.011	1552.25
835.33	1527.25
840.644	1513.25
845.952	1512.25
851.255	1509.25
856.552	1500.25
861.844	1489.25
867.13	1491.25
872.41	1478.25
877.686	1484.25
882.955	1481.25
888.219	1450.25
893.478	1433.25
898.731	1425.25
903.979	1391.25
909.221	1382.25
914.458	1366.25
919.69	1357.25
924.916	1355.25
930.136	1350.25
935.351	1367.25
940.561	1348.25
945.766	1346.25
950.965	1355.25
956.158	1336.25
961.347	1318.25
966.529	1302.25
971.707	1284.25
976.879	1277.25
982.046	1260.25
987.208	1270.25
992.364	1271.25
997.515	1271.25
1002.66	1265.25
1007.801	1263.25
1012.936	1282.25
1018.066	1290.25
1023.19	1289.25
1028.309	1306.25
1033.423	1312.25
1038.532	1292.25
1043.636	1287.25
1048.734	1278.25
1053.827	1275.25
1058.915	1262.25
1063.998	1252.25
1069.075	1247.25
1074.147	1245.25
1079.214	1251.25
1084.276	1274.25
1089.333	1265.25
1094.385	1278.25
1099.431	1286.25
1104.472	1291.25
1109.509	1267.25
1114.54	1268.25
1119.565	1256.25
1124.586	1249.25
1129.602	1225.25
1134.613	1217.25
1139.618	1236.25
1144.619	1213.25
1149.614	1219.25
1154.604	1219.25
1159.589	1235.25
1164.57	1239.25
1169.545	1236.25
1174.515	1245.25
1179.48	1254.25
1184.44	1246.25
1189.395	1223.25
1194.345	1227.25
1199.29	1230.25
1204.23	1218.25
1209.165	1215.25
1214.095	1224.25
1219.021	1230.25
1223.941	1252.25
1228.856	1247.25
1233.766	1270.25
1238.672	1249.25
1243.572	1262.25
1248.467	1257.25
1253.358	1264.25
1258.244	1258.25
1263.124	1226.25
1268	1213.25
1272.871	1206.25
1277.737	1189.25
1282.599	1169.25
1287.455	1182.25
1292.306	1188.25
1297.153	1195.25
1301.995	1190.25
1306.832	1194.25
1311.664	1208.25
1316.491	1215.25
1321.314	1217.25
1326.132	1200.25
1330.945	1198.25
1335.753	1192.25
1340.556	1161.25
1345.354	1165.25
1350.148	1153.25
1354.937	1155.25
1359.722	1150.25
1364.501	1143.25
1369.276	1136.25
1374.046	1100.25
1378.811	1090.25
1383.572	1100.25
1388.327	1092.25
1393.079	1085.25
1397.825	1093.25
1402.567	1084.25
1407.304	1080.25
1412.036	1067.25
1416.764	1052.25
1421.487	1054.25
1426.205	1064.25
1430.919	1086.25
1435.628	1094.25
1440.333	1099.25
1445.032	1118.25
1449.727	1128.25
1454.418	1118.25
1459.104	1146.25
1463.785	1137.25
1468.462	1114.25
1473.134	1117.25
1477.802	1089.25
1482.465	1093.25
1487.123	1088.25
1491.777	1081.25
1496.426	1089.25
1501.071	1086.25
1505.711	1106.25
1510.347	1120.25
1514.978	1124.25
1519.604	1147.25
1524.226	1133.25
1528.844	1145.25
1533.457	1128.25
1538.065	1137.25
1542.669	1123.25
1547.269	1122.25
1551.864	1126.25
1556.454	1124.25
1561.041	1139.25
1565.622	1145.25
1570.199	1167.25
1574.772	1173.25
1579.34	1193.25
1583.904	1208.25
1588.464	1220.25
1593.019	1243.25
1597.569	1249.25
1602.115	1263.25
1606.657	1272.25
1611.195	1287.25
1615.728	1294.25
1620.256	1307.25
1624.78	1313.25
1629.3	1335.25
1633.816	1348.25
1638.327	1352.25
1642.834	1375.25
1647.336	1407.25
1651.834	1403.25
1656.328	1397.25
1660.817	1409.25
1665.302	1384.25
1669.783	1372.25
1674.259	1329.25
1678.732	1294.25
1683.199	1294.25
1687.663	1229.25
1692.122	1215.25
1696.577	1155.25
1701.028	1125.25
1705.474	1079.25
1709.917	1040.25
1714.355	1011.25
1718.788	991.25
1723.218	985.25
1727.643	981.25
1732.064	962.25
1736.481	923.25
1740.893	914.25
1745.301	890.25
1749.705	861.25
1754.105	856.25
1758.501	840.25
1762.893	817.25
1767.28	805.25
1771.663	803.25
1776.042	803.25
1780.417	784.25
1784.787	798.25
1789.154	797.25
1793.516	804.25
1797.874	791.25
1802.228	807.25
1806.578	785.25
1810.924	760.25
1815.266	762.25
1819.603	751.25
1823.937	736.25
1828.266	739.25
1832.591	735.25
1836.913	736.25
1841.23	727.25
1845.543	725.25
1849.852	725.25
1854.156	725.25
1858.457	721.25
1862.754	731.25
1867.047	717.25
1871.335	734.25
1875.62	731.25
1879.9	751.25
1884.177	742.25
1888.449	737.25
1892.718	724.25
1896.982	716.25
1901.243	716.25
1905.499	734.25
1909.752	734.25
1914	725.25
1918.245	718.25
1922.485	727.25
1926.722	728.25
1930.954	727.25
1935.183	722.25
1939.408	736.25
1943.628	752.25
1947.845	719.25
1952.058	730.25
1956.267	730.25
1960.472	721.25
1964.673	707.25
1968.87	719.25
1973.063	696.25
1977.252	695.25
1981.438	702.25
1985.619	700.25
1989.797	687.25
1993.971	701.25
1998.14	692.25
2002.306	697.25
2006.469	706.25
2010.627	714.25
2014.781	699.25
2018.932	708.25
2023.078	714.25
2027.221	698.25
2031.36	698.25
2035.495	691.25
2039.627	685.25
2043.754	688.25
2047.878	687.25
2051.998	688.25
2056.114	678.25
2060.226	681.25
2064.334	688.25
2068.439	686.25
2072.54	701.25
2076.637	686.25
2080.73	697.25
2084.82	694.25
2088.906	699.25
2092.988	697.25
2097.066	704.25
2101.14	687.25
2105.211	694.25
2109.278	686.25
2113.342	691.25
2117.401	675.25
2121.457	683.25
2125.509	683.25
2129.558	679.25
2133.602	674.25
2137.643	665.25
2141.681	664.25
2145.714	669.25
2149.744	654.25
2153.77	670.25
2157.793	653.25
2161.812	655.25
2165.827	647.25
2169.838	639.25
2173.846	626.25
2177.851	627.25
2181.851	620.25
2185.848	614.25
2189.841	607.25
2193.831	597.25
2197.817	591.25
2201.799	591.25
2205.778	589.25
2209.753	578.25
2213.725	585.25
2217.693	573.25
2221.657	580.25
2225.618	581.25
2229.575	580.25
2233.529	577.25
2237.479	579.25
2241.425	573.25
2245.368	569.25
2249.307	556.25
2253.243	554.25
2257.175	546.25
2261.104	548.25
2265.029	523.25
2268.95	533.25
2272.868	519.25
2276.783	518.25
2280.694	516.25
2284.601	504.25
2288.505	497.25
2292.405	491.25
2296.302	485.25
2300.195	476.25
2304.085	492.25
2307.971	468.25
2311.854	461.25
2315.734	460.25
2319.609	445.25
2323.482	443.25
2327.351	438.25
2331.216	441.25
2335.078	435.25
2338.937	433.25
2342.792	423.25
2346.643	425.25
2350.492	430.25
2354.336	427.25
2358.178	419.25
2362.015	426.25
2365.85	422.25
2369.681	428.25
2373.508	426.25
2377.333	439.25
2381.153	421.25
2384.971	432.25
2388.785	427.25
2392.595	423.25
2396.402	428.25
2400.206	420.25
2404.007	417.25
2407.804	423.25
2411.597	419.25
2415.388	416.25
2419.174	413.25
2422.958	408.25
2426.738	409.25
2430.515	406.25
2434.289	405.25
2438.059	404.25
2441.825	410.25
2445.589	397.25
2449.349	399.25
2453.106	390.25
2456.859	391.25
2460.61	393.25
2464.356	392.25
2468.1	382.25
2471.84	385.25
2475.577	389.25
2479.311	380.25
2483.041	381.25
2486.768	383.25
2490.492	380.25
2494.213	371.25
2497.93	374.25
2501.644	380.25
2505.355	378.25
2509.062	384.25
2512.766	380.25
2516.467	371.25
2520.165	370.25
2523.859	377.25
2527.551	361.25
2531.239	362.25
2534.923	354.25
2538.605	363.25
2542.283	363.25
2545.958	350.25
2549.63	356.25
2553.299	352.25
2556.964	352.25
2560.626	340.25
2564.285	346.25
2567.941	348.25
2571.594	337.25
2575.243	343.25
2578.89	344.25
2582.533	336.25
2586.173	327.25
2589.809	338.25
2593.443	324.25
2597.073	328.25
2600.701	325.25
2604.325	323.25
2607.946	319.25
2611.564	333.25
2615.178	317.25
2618.79	324.25
2622.398	323.25
2626.004	318.25
2629.606	314.25
2633.205	302.25
2636.801	307.25
2640.394	312.25
2643.983	296.25
2647.57	298.25
2651.153	295.25
2654.734	296.25
2658.311	294.25
2661.885	288.25
2665.456	289.25
2669.025	286.25
2672.589	287.25
2676.151	281.25
2679.71	279.25
2683.266	276.25
2686.819	275.25
2690.368	282.25
2693.915	275.25
2697.458	270.25
2700.999	270.25
2704.536	257.25
2708.071	259.25
2711.602	263.25
2715.13	261.25
2718.656	253.25
2722.178	262.25
2725.697	258.25
2729.214	259.25
2732.727	258.25
2736.237	259.25
2739.744	258.25
2743.249	257.25
2746.75	255.25
2750.248	259.25
2753.743	258.25
2757.236	267.25
2760.725	262.25
2764.211	252.25
2767.695	253.25
2771.175	246.25
2774.652	245.25
2778.127	242.25
2781.598	247.25
2785.067	250.25
2788.532	252.25
2791.995	255.25
2795.455	246.25
2798.911	248.25
2802.365	251.25
2805.816	246.25
2809.264	249.25
2812.709	253.25
2816.151	250.25
2819.59	252.25
2823.026	252.25
2826.46	251.25
2829.89	256.25
2833.318	251.25
2836.742	250.25
2840.164	258.25
2843.583	259.25
2846.999	258.25
2850.412	258.25
2853.822	265.25
2857.229	266.25
2860.634	266.25
2864.035	266.25
2867.434	272.25
2870.83	269.25
2874.223	276.25
2877.613	281.25
2881	283.25
2884.385	285.25
2887.766	281.25
2891.145	277.25
2894.521	281.25
2897.894	269.25
2901.264	284.25
2904.631	286.25
2907.996	296.25
2911.358	284.25
2914.717	293.25
2918.073	294.25
2921.426	297.25
2924.777	313.25
2928.124	302.25
2931.469	303.25
2934.811	313.25
2938.15	327.25
2941.487	323.25
2944.821	327.25
2948.152	328.25
2951.48	330.25
2954.805	333.25
2958.128	332.25
2961.447	338.25
2964.765	348.25
2968.079	353.25
2971.39	361.25
2974.699	358.25
2978.005	378.25
2981.308	371.25
2984.609	387.25
2987.907	395.25
2991.202	404.25
2994.494	407.25
2997.784	427.25
3001.07	444.25
3004.355	442.25
3007.636	457.25
3010.915	460.25
3014.191	472.25
3017.464	481.25
3020.734	486.25
3024.002	492.25
3027.267	498.25
3030.53	503.25
3033.789	507.25
3037.046	531.25
3040.301	522.25
3043.552	548.25
3046.801	569.25
3050.048	569.25
3053.291	591.25
3056.532	601.25
3059.771	626.25
3063.006	642.25
3066.239	648.25
3069.469	669.25
3072.697	692.25
3075.922	708.25
3079.144	726.25
3082.364	745.25
3085.581	755.25
3088.795	769.25
3092.007	792.25
3095.216	815.25
3098.423	829.25
3101.627	841.25
3104.828	852.25
3108.026	872.25
3111.222	892.25
3114.416	911.25
3117.607	938.25
3120.795	941.25
3123.98	982.25
3127.163	990.25
3130.344	1020.25
3133.521	1020.25
3136.696	1066.25
3139.869	1081.25
3143.039	1095.25
3146.206	1125.25
3149.371	1122.25
3152.533	1134.25
3155.693	1156.25
3158.85	1169.25
3162.005	1176.25
3165.157	1181.25
3168.306	1173.25
3171.453	1170.25
3174.597	1182.25
3177.739	1203.25
3180.878	1190.25
3184.014	1185.25
3187.149	1187.25
3190.28	1190.25
3193.409	1210.25
3196.536	1199.25
3199.659	1201.25
3202.781	1208.25
3205.9	1213.25
3209.016	1213.25
3212.13	1204.25
3215.241	1186.25
3218.35	1187.25
3221.456	1189.25
3224.56	1179.25
3227.661	1157.25
3230.76	1150.25
3233.856	1164.25
3236.95	1132.25
3240.041	1118.25
3243.13	1114.25
3246.216	1110.25
3249.3	1099.25
3252.382	1089.25
3255.46	1074.25
3258.537	1071.25
3261.611	1068.25
3264.682	1065.25
3267.751	1056.25
3270.818	1039.25
3273.882	1049.25
3276.943	1043.25
3280.002	1035.25
3283.059	1007.25
3286.113	1000.25
3289.165	1005.25
3292.214	989.25
3295.261	983.25
3298.306	946.25
3301.348	946.25
3304.387	948.25
3307.425	920.25
3310.459	908.25
3313.492	904.25
3316.521	874.25
3319.549	869.25
3322.574	870.25
3325.597	847.25
3328.617	859.25
3331.635	847.25
3334.65	840.25
3337.663	825.25
3340.674	829.25
3343.682	822.25
3346.688	827.25
3349.691	819.25
3352.692	821.25
3355.691	814.25
3358.687	802.25
3361.681	800.25
3364.673	783.25
3367.662	785.25
3370.649	767.25
3373.633	757.25
3376.615	748.25
3379.595	735.25
3382.572	736.25
3385.547	736.25
3388.52	712.25
3391.49	692.25
3394.458	691.25
3397.424	694.25
3400.387	679.25
3403.348	663.25
3406.307	671.25
3409.263	658.25
3412.217	644.25
3415.168	653.25
3418.118	632.25
3421.065	628.25
3424.009	619.25
3426.951	604.25
3429.891	609.25
3432.829	601.25
3435.764	588.25
3438.697	570.25
3441.628	567.25
3444.557	549.25
3447.483	533.25
3450.407	526.25
3453.328	506.25
3456.247	496.25
3459.164	484.25
3462.079	462.25
3464.991	457.25
3467.902	442.25
3470.809	425.25
3473.715	416.25
3476.618	405.25
3479.519	390.25
3482.418	385.25
3485.315	371.25
3488.209	353.25
3491.101	352.25
3493.99	344.25
3496.878	327.25
3499.763	324.25
3502.646	319.25
3505.527	313.25
3508.405	296.25
3511.281	285.25
3514.155	266.25
3517.027	259.25
3519.897	246.25
3522.764	239.25
3525.629	235.25
3528.492	218.25
3531.352	213.25
3534.211	198.25
3537.067	193.25
3539.921	185.25
3542.773	171.25
3545.622	161.25
3548.469	145.25
3551.315	149.25
3554.157	141.25
3556.998	129.25
3559.837	124.25
3562.673	124.25
3565.507	114.25
3568.339	112.25
3571.169	105.25
3573.996	96.25
3576.822	93.25
3579.645	90.25
3582.466	84.25
3585.285	84.25
3588.101	75.25
3590.916	65.25
3593.728	62.25
3596.538	56.25
3599.346	54.25
3602.152	50.25
3604.956	52.25
3607.757	46.25
3610.556	39.25
3613.354	32.25
3616.149	29.25
3618.942	24.25
3621.732	20.25
3624.521	19.25
3627.307	19.25
3630.092	15.25
3632.874	18.25
3635.654	7.25
3638.432	8.25
3641.208	1.25
3643.982	4.25
3646.753	0.25
3649.523	2.25
3652.29	-5.75
3655.055	-6.75
3657.818	-8.75
3660.579	-10.75
3663.338	-10.75
3666.095	-13.75
3668.849	-18.75
3671.602	-21.75
3674.352	-27.75
3677.101	-19.75
3679.847	-26.75
3682.591	-24.75
3685.333	-29.75
3688.073	-33.75
3690.811	-30.75
3693.547	-34.75
3696.281	-38.75
3699.013	-33.75
3701.742	-34.75
3704.47	-37.75
3707.195	-34.75
3709.919	-37.75
3712.64	-46.75
3715.359	-44.75
3718.076	-45.75
3720.792	-47.75
3723.505	-45.75
3726.216	-45.75
3728.925	-48.75
3731.632	-49.75
3734.336	-42.75
3737.039	-49.75
3739.74	-49.75
3742.439	-50.75
3745.136	-50.75
3747.83	-47.75
3750.523	-48.75
3753.213	-51.75
3755.902	-51.75
3758.589	-51.75
3761.273	-52.75
3763.956	-52.75
3766.636	-53.75
3769.315	-53.75
3771.991	-55.75
3774.665	-55.75
3777.338	-52.75
3780.008	-53.75
3782.677	-56.75
3785.343	-58.75
3788.007	-59.75
3790.67	-58.75
3793.33	-58.75
3795.989	-57.75
3798.645	-55.75
3801.299	-58.75
3803.952	-57.75
3806.602	-59.75
3809.251	-59.75
3811.897	-62.75
3814.542	-63.75
3817.184	-54.75
3819.825	-60.75
3822.463	-59.75
3825.1	-64.75
3827.735	-61.75
3830.367	-66.75
3832.998	-64.75
3835.627	-61.75
3838.253	-62.75
3840.878	-62.75
3843.501	-61.75
3846.122	-61.75
3848.741	-68.75
3851.358	-67.75
3853.973	-64.75
3856.586	-63.75
3859.197	-66.75
3861.806	-61.75
3864.414	-66.75
3867.019	-60.75
3869.622	-63.75
3872.224	-61.75
3874.823	-62.75
3877.421	-66.75
3880.016	-65.75
3882.61	-61.75
3885.202	-59.75
3887.792	-61.75
3890.38	-57.75
3892.966	-63.75
3895.55	-64.75
3898.132	-70.75
3900.713	-69.75
3903.291	-67.75
3905.868	-66.75
3908.442	-64.75
3911.015	-70.75
3913.586	-65.75
3916.155	-64.75
3918.722	-68.75
3921.287	-68.75
3923.85	-71.75
3926.411	-67.75
3928.971	-65.75
3931.528	-68.75
3934.084	-68.75
3936.638	-70.75
3939.19	-67.75
3941.74	-68.75
3944.288	-70.75
3946.834	-69.75
3949.378	-66.75
3951.921	-67.75
3954.462	-68.75
3957	-66.75
3959.537	-67.75
3962.072	-66.75
3964.606	-68.75
3967.137	-70.75
3969.667	-67.75
3972.194	-68.75
3974.72	-69.75
3977.244	-65.75
3979.766	-69.75
3982.286	-65.75
3984.805	-68.75
3987.321	-69.75
3989.836	-69.75
3992.349	-67.75
3994.86	-62.75
3997.369	-60.75
3999.877	-67.75
4002.382	-70.75
4004.886	-68.75
4007.388	-69.75
4009.888	-62.75
4012.386	-64.75
4014.883	-67.75
4017.377	-67.75
4019.87	-66.75
4022.361	-62.75
4024.85	-66.75
4027.338	-65.75
4029.823	-61.75
4032.307	-64.75
4034.789	-67.75
4037.269	-69.75
4039.747	-70.75
4042.224	-69.75
4044.699	-63.75
4047.172	-66.75
4049.643	-64.75
4052.112	-70.75
4054.58	-70.75
4057.046	-68.75
4059.51	-66.75
4061.972	-65.75
4064.432	-63.75
4066.891	-66.75
4069.348	-65.75
4071.803	-68.75
4074.256	-72.75
4076.708	-72.75
4079.158	-68.75
4081.606	-66.75
4084.052	-67.75
4086.497	-65.75
4088.939	-67.75
4091.38	-68.75
4093.819	-70.75
4096.257	-69.75
4098.693	-69.75
4101.127	-74.75
4103.559	-73.75
4105.989	-18.75
4108.418	-15.75
4110.845	-13.75
4113.27	-10.75
4115.694	-6.75
4118.115	-8.75
4120.535	-70.75
4122.954	-69.75
4125.37	-67.75
4127.785	-68.75
4130.198	-66.75
4132.609	-66.75
4135.019	-72.75
4137.427	-68.75
4139.833	-71.75
4142.237	-72.75
