Data from 1000000CFU3_FROM15TH_ramanshift_RamanShift_13-44-30-657.txt Node
Date: Sun Dec 25 13:44:30 IST 2016
User: aro
Spectrometer: QEPB0276
Trigger mode: 0
Integration Time (sec): 5.000000E0
Scans to average: 1
Electric dark correction enabled: true
Nonlinearity correction enabled: false
Boxcar width: 0
XAxis mode: Raman Shifts
Number of Pixels in Spectrum: 1044
>>>>>Begin Spectral Data<<<<<
160.701	2.25
166.742	22.25
172.777	63.25
178.805	201.25
184.826	582.25
190.841	1417.25
196.849	2610.25
202.85	3725.25
208.845	4289.25
214.833	4325.25
220.815	4185.25
226.789	4012.25
232.758	3907.25
238.719	3788.25
244.674	3685.25
250.623	3543.25
256.565	3400.25
262.5	3238.25
268.429	3090.25
274.351	2990.25
280.267	2863.25
286.176	2785.25
292.079	2658.25
297.975	2573.25
303.865	2499.25
309.748	2411.25
315.625	2368.25
321.495	2304.25
327.359	2285.25
333.217	2244.25
339.068	2222.25
344.912	2185.25
350.751	2196.25
356.583	2186.25
362.408	2180.25
368.227	2171.25
374.04	2173.25
379.847	2180.25
385.647	2186.25
391.44	2195.25
397.228	2202.25
403.009	2235.25
408.784	2247.25
414.553	2256.25
420.315	2265.25
426.071	2257.25
431.821	2253.25
437.565	2261.25
443.302	2251.25
449.033	2244.25
454.758	2249.25
460.477	2264.25
466.189	2227.25
471.896	2227.25
477.596	2215.25
483.29	2214.25
488.978	2200.25
494.66	2197.25
500.335	2182.25
506.005	2150.25
511.668	2122.25
517.325	2087.25
522.977	2064.25
528.622	2040.25
534.261	2033.25
539.894	2012.25
545.521	1996.25
551.141	1968.25
556.756	1941.25
562.365	1941.25
567.968	1952.25
573.565	1928.25
579.155	1920.25
584.74	1924.25
590.319	1898.25
595.892	1884.25
601.459	1871.25
607.02	1870.25
612.575	1847.25
618.124	1846.25
623.667	1829.25
629.204	1815.25
634.735	1789.25
640.261	1805.25
645.781	1786.25
651.294	1771.25
656.802	1753.25
662.304	1754.25
667.8	1764.25
673.29	1747.25
678.775	1739.25
684.254	1737.25
689.726	1724.25
695.193	1732.25
700.655	1715.25
706.11	1693.25
711.56	1693.25
717.004	1673.25
722.442	1672.25
727.874	1660.25
733.301	1652.25
738.722	1657.25
744.137	1650.25
749.547	1639.25
754.951	1648.25
760.349	1640.25
765.741	1648.25
771.128	1633.25
776.509	1641.25
781.885	1638.25
787.254	1622.25
792.618	1612.25
797.977	1619.25
803.33	1609.25
808.677	1590.25
814.019	1604.25
819.355	1575.25
824.686	1548.25
830.011	1554.25
835.33	1531.25
840.644	1536.25
845.952	1545.25
851.255	1526.25
856.552	1520.25
861.844	1514.25
867.13	1536.25
872.41	1512.25
877.686	1505.25
882.955	1497.25
888.219	1491.25
893.478	1471.25
898.731	1422.25
903.979	1420.25
909.221	1388.25
914.458	1393.25
919.69	1381.25
924.916	1364.25
930.136	1365.25
935.351	1366.25
940.561	1367.25
945.766	1367.25
950.965	1373.25
956.158	1377.25
961.347	1368.25
966.529	1315.25
971.707	1312.25
976.879	1305.25
982.046	1276.25
987.208	1277.25
992.364	1274.25
997.515	1281.25
1002.66	1290.25
1007.801	1280.25
1012.936	1293.25
1018.066	1316.25
1023.19	1333.25
1028.309	1341.25
1033.423	1329.25
1038.532	1326.25
1043.636	1340.25
1048.734	1308.25
1053.827	1283.25
1058.915	1281.25
1063.998	1274.25
1069.075	1267.25
1074.147	1259.25
1079.214	1259.25
1084.276	1279.25
1089.333	1283.25
1094.385	1300.25
1099.431	1313.25
1104.472	1313.25
1109.509	1301.25
1114.54	1294.25
1119.565	1289.25
1124.586	1274.25
1129.602	1254.25
1134.613	1248.25
1139.618	1243.25
1144.619	1253.25
1149.614	1242.25
1154.604	1246.25
1159.589	1244.25
1164.57	1255.25
1169.545	1273.25
1174.515	1279.25
1179.48	1273.25
1184.44	1267.25
1189.395	1268.25
1194.345	1248.25
1199.29	1245.25
1204.23	1251.25
1209.165	1243.25
1214.095	1255.25
1219.021	1252.25
1223.941	1272.25
1228.856	1272.25
1233.766	1284.25
1238.672	1293.25
1243.572	1291.25
1248.467	1278.25
1253.358	1268.25
1258.244	1256.25
1263.124	1250.25
1268	1239.25
1272.871	1211.25
1277.737	1204.25
1282.599	1218.25
1287.455	1196.25
1292.306	1200.25
1297.153	1208.25
1301.995	1228.25
1306.832	1224.25
1311.664	1239.25
1316.491	1232.25
1321.314	1235.25
1326.132	1225.25
1330.945	1223.25
1335.753	1205.25
1340.556	1191.25
1345.354	1177.25
1350.148	1184.25
1354.937	1162.25
1359.722	1157.25
1364.501	1156.25
1369.276	1145.25
1374.046	1137.25
1378.811	1113.25
1383.572	1112.25
1388.327	1108.25
1393.079	1109.25
1397.825	1112.25
1402.567	1111.25
1407.304	1091.25
1412.036	1120.25
1416.764	1089.25
1421.487	1085.25
1426.205	1069.25
1430.919	1098.25
1435.628	1108.25
1440.333	1128.25
1445.032	1131.25
1449.727	1130.25
1454.418	1137.25
1459.104	1147.25
1463.785	1141.25
1468.462	1132.25
1473.134	1123.25
1477.802	1121.25
1482.465	1103.25
1487.123	1100.25
1491.777	1104.25
1496.426	1088.25
1501.071	1098.25
1505.711	1113.25
1510.347	1118.25
1514.978	1129.25
1519.604	1131.25
1524.226	1147.25
1528.844	1147.25
1533.457	1142.25
1538.065	1141.25
1542.669	1131.25
1547.269	1146.25
1551.864	1135.25
1556.454	1137.25
1561.041	1150.25
1565.622	1161.25
1570.199	1167.25
1574.772	1184.25
1579.34	1200.25
1583.904	1226.25
1588.464	1235.25
1593.019	1239.25
1597.569	1268.25
1602.115	1273.25
1606.657	1275.25
1611.195	1278.25
1615.728	1305.25
1620.256	1291.25
1624.78	1312.25
1629.3	1320.25
1633.816	1360.25
1638.327	1353.25
1642.834	1381.25
1647.336	1393.25
1651.834	1397.25
1656.328	1388.25
1660.817	1405.25
1665.302	1377.25
1669.783	1378.25
1674.259	1335.25
1678.732	1295.25
1683.199	1271.25
1687.663	1237.25
1692.122	1184.25
1696.577	1151.25
1701.028	1118.25
1705.474	1076.25
1709.917	1032.25
1714.355	1003.25
1718.788	997.25
1723.218	978.25
1727.643	980.25
1732.064	967.25
1736.481	936.25
1740.893	914.25
1745.301	891.25
1749.705	875.25
1754.105	849.25
1758.501	843.25
1762.893	829.25
1767.28	818.25
1771.663	805.25
1776.042	803.25
1780.417	809.25
1784.787	806.25
1789.154	806.25
1793.516	803.25
1797.874	804.25
1802.228	802.25
1806.578	795.25
1810.924	789.25
1815.266	754.25
1819.603	753.25
1823.937	740.25
1828.266	746.25
1832.591	732.25
1836.913	730.25
1841.23	736.25
1845.543	725.25
1849.852	725.25
1854.156	739.25
1858.457	735.25
1862.754	721.25
1867.047	750.25
1871.335	737.25
1875.62	738.25
1879.9	740.25
1884.177	736.25
1888.449	733.25
1892.718	736.25
1896.982	720.25
1901.243	726.25
1905.499	726.25
1909.752	727.25
1914	732.25
1918.245	716.25
1922.485	723.25
1926.722	722.25
1930.954	718.25
1935.183	723.25
1939.408	722.25
1943.628	720.25
1947.845	728.25
1952.058	728.25
1956.267	722.25
1960.472	706.25
1964.673	711.25
1968.87	720.25
1973.063	697.25
1977.252	689.25
1981.438	679.25
1985.619	694.25
1989.797	680.25
1993.971	694.25
1998.14	697.25
2002.306	699.25
2006.469	693.25
2010.627	699.25
2014.781	708.25
2018.932	691.25
2023.078	707.25
2027.221	692.25
2031.36	694.25
2035.495	678.25
2039.627	685.25
2043.754	677.25
2047.878	677.25
2051.998	678.25
2056.114	671.25
2060.226	675.25
2064.334	686.25
2068.439	693.25
2072.54	688.25
2076.637	681.25
2080.73	694.25
2084.82	691.25
2088.906	694.25
2092.988	683.25
2097.066	691.25
2101.14	691.25
2105.211	671.25
2109.278	670.25
2113.342	672.25
2117.401	666.25
2121.457	674.25
2125.509	664.25
2129.558	661.25
2133.602	666.25
2137.643	641.25
2141.681	663.25
2145.714	652.25
2149.744	649.25
2153.77	644.25
2157.793	642.25
2161.812	652.25
2165.827	642.25
2169.838	629.25
2173.846	622.25
2177.851	604.25
2181.851	606.25
2185.848	604.25
2189.841	597.25
2193.831	596.25
2197.817	588.25
2201.799	582.25
2205.778	581.25
2209.753	580.25
2213.725	578.25
2217.693	581.25
2221.657	564.25
2225.618	571.25
2229.575	576.25
2233.529	581.25
2237.479	565.25
2241.425	573.25
2245.368	563.25
2249.307	552.25
2253.243	540.25
2257.175	531.25
2261.104	529.25
2265.029	516.25
2268.95	516.25
2272.868	510.25
2276.783	510.25
2280.694	508.25
2284.601	494.25
2288.505	498.25
2292.405	483.25
2296.302	482.25
2300.195	471.25
2304.085	480.25
2307.971	461.25
2311.854	449.25
2315.734	450.25
2319.609	441.25
2323.482	446.25
2327.351	441.25
2331.216	420.25
2335.078	433.25
2338.937	420.25
2342.792	423.25
2346.643	420.25
2350.492	418.25
2354.336	416.25
2358.178	416.25
2362.015	434.25
2365.85	420.25
2369.681	424.25
2373.508	430.25
2377.333	420.25
2381.153	422.25
2384.971	420.25
2388.785	418.25
2392.595	429.25
2396.402	424.25
2400.206	408.25
2404.007	415.25
2407.804	409.25
2411.597	412.25
2415.388	408.25
2419.174	403.25
2422.958	400.25
2426.738	406.25
2430.515	398.25
2434.289	407.25
2438.059	399.25
2441.825	404.25
2445.589	394.25
2449.349	393.25
2453.106	393.25
2456.859	393.25
2460.61	390.25
2464.356	382.25
2468.1	371.25
2471.84	379.25
2475.577	367.25
2479.311	371.25
2483.041	378.25
2486.768	372.25
2490.492	378.25
2494.213	377.25
2497.93	380.25
2501.644	363.25
2505.355	365.25
2509.062	364.25
2512.766	368.25
2516.467	373.25
2520.165	374.25
2523.859	358.25
2527.551	354.25
2531.239	357.25
2534.923	349.25
2538.605	351.25
2542.283	350.25
2545.958	344.25
2549.63	349.25
2553.299	340.25
2556.964	337.25
2560.626	342.25
2564.285	332.25
2567.941	340.25
2571.594	331.25
2575.243	327.25
2578.89	330.25
2582.533	333.25
2586.173	324.25
2589.809	324.25
2593.443	333.25
2597.073	313.25
2600.701	318.25
2604.325	316.25
2607.946	314.25
2611.564	322.25
2615.178	317.25
2618.79	312.25
2622.398	310.25
2626.004	310.25
2629.606	317.25
2633.205	312.25
2636.801	293.25
2640.394	296.25
2643.983	299.25
2647.57	299.25
2651.153	290.25
2654.734	286.25
2658.311	289.25
2661.885	281.25
2665.456	289.25
2669.025	275.25
2672.589	277.25
2676.151	277.25
2679.71	278.25
2683.266	271.25
2686.819	271.25
2690.368	279.25
2693.915	273.25
2697.458	260.25
2700.999	258.25
2704.536	250.25
2708.071	258.25
2711.602	255.25
2715.13	256.25
2718.656	251.25
2722.178	254.25
2725.697	243.25
2729.214	246.25
2732.727	251.25
2736.237	250.25
2739.744	245.25
2743.249	251.25
2746.75	253.25
2750.248	252.25
2753.743	247.25
2757.236	245.25
2760.725	246.25
2764.211	249.25
2767.695	234.25
2771.175	243.25
2774.652	240.25
2778.127	233.25
2781.598	240.25
2785.067	240.25
2788.532	235.25
2791.995	233.25
2795.455	235.25
2798.911	233.25
2802.365	242.25
2805.816	237.25
2809.264	240.25
2812.709	243.25
2816.151	239.25
2819.59	238.25
2823.026	231.25
2826.46	241.25
2829.89	241.25
2833.318	242.25
2836.742	245.25
2840.164	245.25
2843.583	236.25
2846.999	245.25
2850.412	244.25
2853.822	257.25
2857.229	258.25
2860.634	261.25
2864.035	250.25
2867.434	257.25
2870.83	265.25
2874.223	268.25
2877.613	271.25
2881	272.25
2884.385	272.25
2887.766	265.25
2891.145	270.25
2894.521	269.25
2897.894	268.25
2901.264	276.25
2904.631	272.25
2907.996	283.25
2911.358	278.25
2914.717	271.25
2918.073	281.25
2921.426	285.25
2924.777	289.25
2928.124	288.25
2931.469	300.25
2934.811	298.25
2938.15	294.25
2941.487	308.25
2944.821	313.25
2948.152	317.25
2951.48	313.25
2954.805	316.25
2958.128	319.25
2961.447	329.25
2964.765	322.25
2968.079	333.25
2971.39	332.25
2974.699	333.25
2978.005	356.25
2981.308	355.25
2984.609	355.25
2987.907	377.25
2991.202	378.25
2994.494	390.25
2997.784	402.25
3001.07	418.25
3004.355	422.25
3007.636	431.25
3010.915	437.25
3014.191	450.25
3017.464	457.25
3020.734	456.25
3024.002	457.25
3027.267	469.25
3030.53	485.25
3033.789	491.25
3037.046	496.25
3040.301	505.25
3043.552	520.25
3046.801	529.25
3050.048	543.25
3053.291	550.25
3056.532	570.25
3059.771	582.25
3063.006	607.25
3066.239	607.25
3069.469	637.25
3072.697	657.25
3075.922	657.25
3079.144	677.25
3082.364	692.25
3085.581	713.25
3088.795	737.25
3092.007	754.25
3095.216	760.25
3098.423	783.25
3101.627	805.25
3104.828	805.25
3108.026	839.25
3111.222	846.25
3114.416	852.25
3117.607	870.25
3120.795	898.25
3123.98	917.25
3127.163	947.25
3130.344	968.25
3133.521	985.25
3136.696	998.25
3139.869	1020.25
3143.039	1017.25
3146.206	1052.25
3149.371	1064.25
3152.533	1067.25
3155.693	1078.25
3158.85	1088.25
3162.005	1092.25
3165.157	1090.25
3168.306	1099.25
3171.453	1120.25
3174.597	1122.25
3177.739	1122.25
3180.878	1117.25
3184.014	1118.25
3187.149	1119.25
3190.28	1126.25
3193.409	1120.25
3196.536	1120.25
3199.659	1126.25
3202.781	1121.25
3205.9	1152.25
3209.016	1135.25
3212.13	1133.25
3215.241	1136.25
3218.35	1126.25
3221.456	1118.25
3224.56	1112.25
3227.661	1110.25
3230.76	1083.25
3233.856	1072.25
3236.95	1056.25
3240.041	1052.25
3243.13	1051.25
3246.216	1039.25
3249.3	1029.25
3252.382	1020.25
3255.46	1016.25
3258.537	1008.25
3261.611	1011.25
3264.682	1004.25
3267.751	995.25
3270.818	1001.25
3273.882	997.25
3276.943	994.25
3280.002	977.25
3283.059	964.25
3286.113	966.25
3289.165	955.25
3292.214	952.25
3295.261	925.25
3298.306	895.25
3301.348	905.25
3304.387	875.25
3307.425	885.25
3310.459	856.25
3313.492	839.25
3316.521	838.25
3319.549	829.25
3322.574	812.25
3325.597	820.25
3328.617	808.25
3331.635	797.25
3334.65	809.25
3337.663	799.25
3340.674	783.25
3343.682	787.25
3346.688	779.25
3349.691	785.25
3352.692	786.25
3355.691	770.25
3358.687	764.25
3361.681	760.25
3364.673	748.25
3367.662	745.25
3370.649	730.25
3373.633	725.25
3376.615	709.25
3379.595	699.25
3382.572	688.25
3385.547	684.25
3388.52	671.25
3391.49	665.25
3394.458	655.25
3397.424	642.25
3400.387	642.25
3403.348	630.25
3406.307	627.25
3409.263	618.25
3412.217	600.25
3415.168	603.25
3418.118	614.25
3421.065	592.25
3424.009	590.25
3426.951	586.25
3429.891	571.25
3432.829	557.25
3435.764	549.25
3438.697	550.25
3441.628	531.25
3444.557	522.25
3447.483	500.25
3450.407	484.25
3453.328	473.25
3456.247	464.25
3459.164	440.25
3462.079	446.25
3464.991	423.25
3467.902	406.25
3470.809	392.25
3473.715	394.25
3476.618	379.25
3479.519	380.25
3482.418	364.25
3485.315	347.25
3488.209	342.25
3491.101	330.25
3493.99	322.25
3496.878	314.25
3499.763	305.25
3502.646	295.25
3505.527	282.25
3508.405	263.25
3511.281	268.25
3514.155	259.25
3517.027	248.25
3519.897	238.25
3522.764	234.25
3525.629	215.25
3528.492	206.25
3531.352	201.25
3534.211	192.25
3537.067	175.25
3539.921	164.25
3542.773	166.25
3545.622	154.25
3548.469	142.25
3551.315	137.25
3554.157	130.25
3556.998	121.25
3559.837	120.25
3562.673	110.25
3565.507	103.25
3568.339	107.25
3571.169	97.25
3573.996	92.25
3576.822	82.25
3579.645	77.25
3582.466	68.25
3585.285	72.25
3588.101	69.25
3590.916	60.25
3593.728	56.25
3596.538	53.25
3599.346	44.25
3602.152	40.25
3604.956	36.25
3607.757	32.25
3610.556	30.25
3613.354	29.25
3616.149	26.25
3618.942	25.25
3621.732	20.25
3624.521	12.25
3627.307	15.25
3630.092	10.25
3632.874	12.25
3635.654	5.25
3638.432	8.25
3641.208	3.25
3643.982	0.25
3646.753	-5.75
3649.523	-5.75
3652.29	-11.75
3655.055	-16.75
3657.818	-8.75
3660.579	-10.75
3663.338	-14.75
3666.095	-16.75
3668.849	-21.75
3671.602	-27.75
3674.352	-29.75
3677.101	-30.75
3679.847	-26.75
3682.591	-33.75
3685.333	-31.75
3688.073	-29.75
3690.811	-31.75
3693.547	-31.75
3696.281	-37.75
3699.013	-39.75
3701.742	-37.75
3704.47	-39.75
3707.195	-37.75
3709.919	-38.75
3712.64	-44.75
3715.359	-44.75
3718.076	-46.75
3720.792	-49.75
3723.505	-49.75
3726.216	-47.75
3728.925	-48.75
3731.632	-49.75
3734.336	-49.75
3737.039	-53.75
3739.74	-49.75
3742.439	-49.75
3745.136	-56.75
3747.83	-55.75
3750.523	-55.75
3753.213	-53.75
3755.902	-55.75
3758.589	-53.75
3761.273	-52.75
3763.956	-53.75
3766.636	-53.75
3769.315	-54.75
3771.991	-59.75
3774.665	-59.75
3777.338	-55.75
3780.008	-56.75
3782.677	-53.75
3785.343	-55.75
3788.007	-59.75
3790.67	-59.75
3793.33	-62.75
3795.989	-59.75
3798.645	-59.75
3801.299	-58.75
3803.952	-58.75
3806.602	-59.75
3809.251	-56.75
3811.897	-60.75
3814.542	-62.75
3817.184	-61.75
3819.825	-63.75
3822.463	-62.75
3825.1	-60.75
3827.735	-61.75
3830.367	-61.75
3832.998	-59.75
3835.627	-64.75
3838.253	-64.75
3840.878	-68.75
3843.501	-64.75
3846.122	-66.75
3848.741	-63.75
3851.358	-67.75
3853.973	-61.75
3856.586	-61.75
3859.197	-65.75
3861.806	-65.75
3864.414	-66.75
3867.019	-68.75
3869.622	-62.75
3872.224	-62.75
3874.823	-62.75
3877.421	-62.75
3880.016	-65.75
3882.61	-60.75
3885.202	-56.75
3887.792	-62.75
3890.38	-64.75
3892.966	-64.75
3895.55	-64.75
3898.132	-65.75
3900.713	-67.75
3903.291	-72.75
3905.868	-64.75
3908.442	-70.75
3911.015	-71.75
3913.586	-70.75
3916.155	-64.75
3918.722	-65.75
3921.287	-64.75
3923.85	-70.75
3926.411	-66.75
3928.971	-69.75
3931.528	-71.75
3934.084	-70.75
3936.638	-71.75
3939.19	-69.75
3941.74	-69.75
3944.288	-70.75
3946.834	-70.75
3949.378	-70.75
3951.921	-68.75
3954.462	-73.75
3957	-67.75
3959.537	-66.75
3962.072	-64.75
3964.606	-67.75
3967.137	-68.75
3969.667	-67.75
3972.194	-70.75
3974.72	-72.75
3977.244	-67.75
3979.766	-69.75
3982.286	-63.75
3984.805	-68.75
3987.321	-69.75
3989.836	-69.75
3992.349	-69.75
3994.86	-65.75
3997.369	-64.75
3999.877	-68.75
4002.382	-68.75
4004.886	-69.75
4007.388	-65.75
4009.888	-65.75
4012.386	-65.75
4014.883	-66.75
4017.377	-71.75
4019.87	-72.75
4022.361	-68.75
4024.85	-68.75
4027.338	-65.75
4029.823	-62.75
4032.307	-62.75
4034.789	-64.75
4037.269	-71.75
4039.747	-71.75
4042.224	-72.75
4044.699	-68.75
4047.172	-70.75
4049.643	-63.75
4052.112	-64.75
4054.58	-71.75
4057.046	-66.75
4059.51	-71.75
4061.972	-67.75
4064.432	-67.75
4066.891	-69.75
4069.348	-69.75
4071.803	-66.75
4074.256	-71.75
4076.708	-71.75
4079.158	-67.75
4081.606	-67.75
4084.052	-70.75
4086.497	-69.75
4088.939	-69.75
4091.38	-71.75
4093.819	-68.75
4096.257	-70.75
4098.693	-74.75
4101.127	-74.75
4103.559	-73.75
4105.989	-20.75
4108.418	-15.75
4110.845	-14.75
4113.27	-12.75
4115.694	-8.75
4118.115	-10.75
4120.535	-67.75
4122.954	-70.75
4125.37	-69.75
4127.785	-71.75
4130.198	-70.75
4132.609	-72.75
4135.019	-74.75
4137.427	-70.75
4139.833	-70.75
4142.237	-72.75
