Data from 100000000CFU3_C_ramanshift_RamanShift_15-38-42-467.txt Node
Date: Sun Dec 25 15:38:42 IST 2016
User: aro
Spectrometer: QEPB0276
Trigger mode: 0
Integration Time (sec): 5.000000E0
Scans to average: 1
Electric dark correction enabled: true
Nonlinearity correction enabled: false
Boxcar width: 0
XAxis mode: Raman Shifts
Number of Pixels in Spectrum: 1044
>>>>>Begin Spectral Data<<<<<
160.701	3.25
166.742	16.25
172.777	51.25
178.805	150.25
184.826	446.25
190.841	1059.25
196.849	1940.25
202.85	2745.25
208.845	3154.25
214.833	3152.25
220.815	3042.25
226.789	2935.25
232.758	2839.25
238.719	2772.25
244.674	2690.25
250.623	2570.25
256.565	2481.25
262.5	2366.25
268.429	2232.25
274.351	2174.25
280.267	2067.25
286.176	1991.25
292.079	1920.25
297.975	1865.25
303.865	1803.25
309.748	1746.25
315.625	1703.25
321.495	1663.25
327.359	1641.25
333.217	1616.25
339.068	1577.25
344.912	1589.25
350.751	1586.25
356.583	1556.25
362.408	1574.25
368.227	1573.25
374.04	1573.25
379.847	1591.25
385.647	1580.25
391.44	1578.25
397.228	1609.25
403.009	1592.25
408.784	1617.25
414.553	1622.25
420.315	1636.25
426.071	1653.25
431.821	1652.25
437.565	1632.25
443.302	1639.25
449.033	1631.25
454.758	1610.25
460.477	1614.25
466.189	1616.25
471.896	1601.25
477.596	1597.25
483.29	1590.25
488.978	1596.25
494.66	1585.25
500.335	1591.25
506.005	1536.25
511.668	1524.25
517.325	1482.25
522.977	1460.25
528.622	1440.25
534.261	1420.25
539.894	1397.25
545.521	1382.25
551.141	1381.25
556.756	1388.25
562.365	1348.25
567.968	1355.25
573.565	1356.25
579.155	1349.25
584.74	1322.25
590.319	1324.25
595.892	1332.25
601.459	1303.25
607.02	1305.25
612.575	1291.25
618.124	1287.25
623.667	1280.25
629.204	1266.25
634.735	1248.25
640.261	1234.25
645.781	1238.25
651.294	1229.25
656.802	1223.25
662.304	1217.25
667.8	1196.25
673.29	1200.25
678.775	1205.25
684.254	1199.25
689.726	1217.25
695.193	1182.25
700.655	1178.25
706.11	1187.25
711.56	1174.25
717.004	1148.25
722.442	1155.25
727.874	1143.25
733.301	1138.25
738.722	1141.25
744.137	1132.25
749.547	1122.25
754.951	1131.25
760.349	1125.25
765.741	1138.25
771.128	1121.25
776.509	1128.25
781.885	1121.25
787.254	1135.25
792.618	1124.25
797.977	1116.25
803.33	1105.25
808.677	1097.25
814.019	1093.25
819.355	1071.25
824.686	1085.25
830.011	1069.25
835.33	1068.25
840.644	1051.25
845.952	1049.25
851.255	1047.25
856.552	1050.25
861.844	1037.25
867.13	1035.25
872.41	1025.25
877.686	1020.25
882.955	1017.25
888.219	995.25
893.478	987.25
898.731	973.25
903.979	959.25
909.221	948.25
914.458	940.25
919.69	914.25
924.916	922.25
930.136	917.25
935.351	935.25
940.561	928.25
945.766	936.25
950.965	912.25
956.158	911.25
961.347	903.25
966.529	874.25
971.707	880.25
976.879	875.25
982.046	862.25
987.208	850.25
992.364	839.25
997.515	843.25
1002.66	850.25
1007.801	863.25
1012.936	873.25
1018.066	869.25
1023.19	877.25
1028.309	884.25
1033.423	876.25
1038.532	882.25
1043.636	880.25
1048.734	866.25
1053.827	857.25
1058.915	857.25
1063.998	849.25
1069.075	829.25
1074.147	826.25
1079.214	841.25
1084.276	854.25
1089.333	847.25
1094.385	840.25
1099.431	866.25
1104.472	869.25
1109.509	870.25
1114.54	862.25
1119.565	845.25
1124.586	843.25
1129.602	827.25
1134.613	820.25
1139.618	819.25
1144.619	811.25
1149.614	815.25
1154.604	814.25
1159.589	833.25
1164.57	826.25
1169.545	826.25
1174.515	837.25
1179.48	825.25
1184.44	830.25
1189.395	830.25
1194.345	804.25
1199.29	815.25
1204.23	809.25
1209.165	811.25
1214.095	811.25
1219.021	827.25
1223.941	831.25
1228.856	825.25
1233.766	831.25
1238.672	839.25
1243.572	857.25
1248.467	841.25
1253.358	834.25
1258.244	828.25
1263.124	828.25
1268	797.25
1272.871	777.25
1277.737	788.25
1282.599	777.25
1287.455	775.25
1292.306	786.25
1297.153	794.25
1301.995	793.25
1306.832	803.25
1311.664	795.25
1316.491	799.25
1321.314	806.25
1326.132	782.25
1330.945	793.25
1335.753	782.25
1340.556	761.25
1345.354	766.25
1350.148	752.25
1354.937	749.25
1359.722	741.25
1364.501	749.25
1369.276	743.25
1374.046	741.25
1378.811	731.25
1383.572	732.25
1388.327	735.25
1393.079	742.25
1397.825	722.25
1402.567	710.25
1407.304	710.25
1412.036	704.25
1416.764	693.25
1421.487	701.25
1426.205	700.25
1430.919	713.25
1435.628	715.25
1440.333	723.25
1445.032	718.25
1449.727	722.25
1454.418	726.25
1459.104	739.25
1463.785	737.25
1468.462	732.25
1473.134	723.25
1477.802	719.25
1482.465	714.25
1487.123	701.25
1491.777	720.25
1496.426	706.25
1501.071	703.25
1505.711	713.25
1510.347	721.25
1514.978	736.25
1519.604	736.25
1524.226	755.25
1528.844	752.25
1533.457	748.25
1538.065	744.25
1542.669	750.25
1547.269	751.25
1551.864	747.25
1556.454	749.25
1561.041	767.25
1565.622	770.25
1570.199	766.25
1574.772	773.25
1579.34	780.25
1583.904	801.25
1588.464	827.25
1593.019	831.25
1597.569	837.25
1602.115	852.25
1606.657	854.25
1611.195	851.25
1615.728	861.25
1620.256	871.25
1624.78	883.25
1629.3	891.25
1633.816	908.25
1638.327	930.25
1642.834	930.25
1647.336	942.25
1651.834	938.25
1656.328	951.25
1660.817	936.25
1665.302	930.25
1669.783	916.25
1674.259	879.25
1678.732	878.25
1683.199	846.25
1687.663	824.25
1692.122	800.25
1696.577	776.25
1701.028	743.25
1705.474	715.25
1709.917	689.25
1714.355	672.25
1718.788	657.25
1723.218	656.25
1727.643	651.25
1732.064	626.25
1736.481	611.25
1740.893	595.25
1745.301	574.25
1749.705	570.25
1754.105	560.25
1758.501	542.25
1762.893	533.25
1767.28	530.25
1771.663	516.25
1776.042	510.25
1780.417	506.25
1784.787	508.25
1789.154	507.25
1793.516	509.25
1797.874	520.25
1802.228	513.25
1806.578	503.25
1810.924	500.25
1815.266	488.25
1819.603	480.25
1823.937	485.25
1828.266	479.25
1832.591	471.25
1836.913	468.25
1841.23	461.25
1845.543	462.25
1849.852	461.25
1854.156	466.25
1858.457	457.25
1862.754	471.25
1867.047	462.25
1871.335	464.25
1875.62	467.25
1879.9	470.25
1884.177	479.25
1888.449	469.25
1892.718	460.25
1896.982	456.25
1901.243	464.25
1905.499	465.25
1909.752	464.25
1914	481.25
1918.245	455.25
1922.485	460.25
1926.722	451.25
1930.954	466.25
1935.183	477.25
1939.408	485.25
1943.628	473.25
1947.845	482.25
1952.058	477.25
1956.267	464.25
1960.472	471.25
1964.673	463.25
1968.87	459.25
1973.063	450.25
1977.252	448.25
1981.438	446.25
1985.619	439.25
1989.797	446.25
1993.971	445.25
1998.14	449.25
2002.306	440.25
2006.469	451.25
2010.627	453.25
2014.781	448.25
2018.932	456.25
2023.078	449.25
2027.221	462.25
2031.36	446.25
2035.495	442.25
2039.627	431.25
2043.754	438.25
2047.878	436.25
2051.998	436.25
2056.114	433.25
2060.226	440.25
2064.334	442.25
2068.439	437.25
2072.54	447.25
2076.637	453.25
2080.73	446.25
2084.82	449.25
2088.906	449.25
2092.988	451.25
2097.066	451.25
2101.14	454.25
2105.211	443.25
2109.278	450.25
2113.342	447.25
2117.401	434.25
2121.457	448.25
2125.509	443.25
2129.558	441.25
2133.602	434.25
2137.643	425.25
2141.681	427.25
2145.714	427.25
2149.744	419.25
2153.77	435.25
2157.793	424.25
2161.812	424.25
2165.827	409.25
2169.838	415.25
2173.846	409.25
2177.851	395.25
2181.851	392.25
2185.848	393.25
2189.841	388.25
2193.831	378.25
2197.817	376.25
2201.799	378.25
2205.778	377.25
2209.753	372.25
2213.725	374.25
2217.693	376.25
2221.657	372.25
2225.618	373.25
2229.575	366.25
2233.529	372.25
2237.479	366.25
2241.425	370.25
2245.368	363.25
2249.307	350.25
2253.243	359.25
2257.175	335.25
2261.104	349.25
2265.029	332.25
2268.95	334.25
2272.868	329.25
2276.783	325.25
2280.694	321.25
2284.601	311.25
2288.505	317.25
2292.405	314.25
2296.302	311.25
2300.195	303.25
2304.085	303.25
2307.971	291.25
2311.854	292.25
2315.734	288.25
2319.609	289.25
2323.482	284.25
2327.351	279.25
2331.216	275.25
2335.078	280.25
2338.937	267.25
2342.792	269.25
2346.643	258.25
2350.492	266.25
2354.336	267.25
2358.178	267.25
2362.015	266.25
2365.85	264.25
2369.681	266.25
2373.508	268.25
2377.333	269.25
2381.153	262.25
2384.971	265.25
2388.785	257.25
2392.595	260.25
2396.402	259.25
2400.206	260.25
2404.007	257.25
2407.804	259.25
2411.597	263.25
2415.388	255.25
2419.174	258.25
2422.958	249.25
2426.738	255.25
2430.515	249.25
2434.289	244.25
2438.059	257.25
2441.825	250.25
2445.589	240.25
2449.349	243.25
2453.106	241.25
2456.859	236.25
2460.61	243.25
2464.356	234.25
2468.1	230.25
2471.84	232.25
2475.577	230.25
2479.311	235.25
2483.041	223.25
2486.768	232.25
2490.492	229.25
2494.213	231.25
2497.93	228.25
2501.644	230.25
2505.355	228.25
2509.062	231.25
2512.766	229.25
2516.467	228.25
2520.165	223.25
2523.859	228.25
2527.551	223.25
2531.239	226.25
2534.923	217.25
2538.605	217.25
2542.283	223.25
2545.958	208.25
2549.63	217.25
2553.299	220.25
2556.964	219.25
2560.626	213.25
2564.285	210.25
2567.941	212.25
2571.594	210.25
2575.243	210.25
2578.89	209.25
2582.533	204.25
2586.173	197.25
2589.809	202.25
2593.443	196.25
2597.073	199.25
2600.701	197.25
2604.325	189.25
2607.946	189.25
2611.564	198.25
2615.178	200.25
2618.79	198.25
2622.398	194.25
2626.004	187.25
2629.606	196.25
2633.205	189.25
2636.801	189.25
2640.394	190.25
2643.983	185.25
2647.57	184.25
2651.153	176.25
2654.734	179.25
2658.311	181.25
2661.885	178.25
2665.456	172.25
2669.025	177.25
2672.589	167.25
2676.151	163.25
2679.71	169.25
2683.266	171.25
2686.819	163.25
2690.368	161.25
2693.915	164.25
2697.458	165.25
2700.999	156.25
2704.536	159.25
2708.071	153.25
2711.602	165.25
2715.13	161.25
2718.656	156.25
2722.178	151.25
2725.697	159.25
2729.214	153.25
2732.727	156.25
2736.237	155.25
2739.744	164.25
2743.249	155.25
2746.75	155.25
2750.248	150.25
2753.743	160.25
2757.236	153.25
2760.725	160.25
2764.211	160.25
2767.695	156.25
2771.175	154.25
2774.652	156.25
2778.127	146.25
2781.598	153.25
2785.067	151.25
2788.532	147.25
2791.995	154.25
2795.455	145.25
2798.911	144.25
2802.365	157.25
2805.816	149.25
2809.264	162.25
2812.709	156.25
2816.151	158.25
2819.59	153.25
2823.026	158.25
2826.46	155.25
2829.89	159.25
2833.318	155.25
2836.742	158.25
2840.164	160.25
2843.583	153.25
2846.999	163.25
2850.412	163.25
2853.822	166.25
2857.229	177.25
2860.634	172.25
2864.035	165.25
2867.434	171.25
2870.83	178.25
2874.223	176.25
2877.613	174.25
2881	181.25
2884.385	186.25
2887.766	186.25
2891.145	181.25
2894.521	179.25
2897.894	188.25
2901.264	186.25
2904.631	185.25
2907.996	192.25
2911.358	196.25
2914.717	185.25
2918.073	192.25
2921.426	189.25
2924.777	202.25
2928.124	208.25
2931.469	205.25
2934.811	201.25
2938.15	213.25
2941.487	212.25
2944.821	217.25
2948.152	222.25
2951.48	225.25
2954.805	227.25
2958.128	226.25
2961.447	225.25
2964.765	232.25
2968.079	238.25
2971.39	251.25
2974.699	261.25
2978.005	250.25
2981.308	260.25
2984.609	268.25
2987.907	276.25
2991.202	281.25
2994.494	285.25
2997.784	299.25
3001.07	310.25
3004.355	316.25
3007.636	322.25
3010.915	319.25
3014.191	328.25
3017.464	339.25
3020.734	341.25
3024.002	353.25
3027.267	351.25
3030.53	356.25
3033.789	369.25
3037.046	361.25
3040.301	377.25
3043.552	393.25
3046.801	399.25
3050.048	407.25
3053.291	419.25
3056.532	431.25
3059.771	447.25
3063.006	457.25
3066.239	471.25
3069.469	485.25
3072.697	499.25
3075.922	504.25
3079.144	525.25
3082.364	533.25
3085.581	547.25
3088.795	571.25
3092.007	577.25
3095.216	584.25
3098.423	595.25
3101.627	608.25
3104.828	621.25
3108.026	645.25
3111.222	657.25
3114.416	676.25
3117.607	681.25
3120.795	696.25
3123.98	712.25
3127.163	733.25
3130.344	740.25
3133.521	770.25
3136.696	771.25
3139.869	796.25
3143.039	809.25
3146.206	822.25
3149.371	832.25
3152.533	833.25
3155.693	842.25
3158.85	846.25
3162.005	858.25
3165.157	864.25
3168.306	864.25
3171.453	867.25
3174.597	862.25
3177.739	865.25
3180.878	866.25
3184.014	871.25
3187.149	865.25
3190.28	888.25
3193.409	880.25
3196.536	879.25
3199.659	879.25
3202.781	897.25
3205.9	895.25
3209.016	896.25
3212.13	890.25
3215.241	885.25
3218.35	879.25
3221.456	868.25
3224.56	863.25
3227.661	838.25
3230.76	843.25
3233.856	843.25
3236.95	828.25
3240.041	821.25
3243.13	824.25
3246.216	814.25
3249.3	801.25
3252.382	791.25
3255.46	792.25
3258.537	789.25
3261.611	782.25
3264.682	787.25
3267.751	783.25
3270.818	775.25
3273.882	774.25
3276.943	776.25
3280.002	756.25
3283.059	750.25
3286.113	749.25
3289.165	721.25
3292.214	722.25
3295.261	715.25
3298.306	702.25
3301.348	693.25
3304.387	692.25
3307.425	668.25
3310.459	650.25
3313.492	660.25
3316.521	648.25
3319.549	645.25
3322.574	638.25
3325.597	632.25
3328.617	626.25
3331.635	620.25
3334.65	619.25
3337.663	615.25
3340.674	606.25
3343.682	613.25
3346.688	604.25
3349.691	606.25
3352.692	605.25
3355.691	601.25
3358.687	600.25
3361.681	578.25
3364.673	581.25
3367.662	566.25
3370.649	570.25
3373.633	559.25
3376.615	552.25
3379.595	549.25
3382.572	527.25
3385.547	525.25
3388.52	518.25
3391.49	508.25
3394.458	502.25
3397.424	496.25
3400.387	501.25
3403.348	490.25
3406.307	480.25
3409.263	471.25
3412.217	479.25
3415.168	469.25
3418.118	472.25
3421.065	461.25
3424.009	456.25
3426.951	448.25
3429.891	452.25
3432.829	433.25
3435.764	429.25
3438.697	416.25
3441.628	407.25
3444.557	402.25
3447.483	387.25
3450.407	383.25
3453.328	370.25
3456.247	363.25
3459.164	347.25
3462.079	343.25
3464.991	336.25
3467.902	322.25
3470.809	313.25
3473.715	299.25
3476.618	296.25
3479.519	283.25
3482.418	282.25
3485.315	280.25
3488.209	253.25
3491.101	258.25
3493.99	244.25
3496.878	249.25
3499.763	236.25
3502.646	224.25
3505.527	223.25
3508.405	215.25
3511.281	198.25
3514.155	197.25
3517.027	185.25
3519.897	182.25
3522.764	179.25
3525.629	169.25
3528.492	158.25
3531.352	153.25
3534.211	150.25
3537.067	134.25
3539.921	125.25
3542.773	123.25
3545.622	118.25
3548.469	108.25
3551.315	108.25
3554.157	98.25
3556.998	93.25
3559.837	85.25
3562.673	87.25
3565.507	82.25
3568.339	79.25
3571.169	79.25
3573.996	71.25
3576.822	67.25
3579.645	57.25
3582.466	52.25
3585.285	55.25
3588.101	51.25
3590.916	42.25
3593.728	43.25
3596.538	45.25
3599.346	36.25
3602.152	34.25
3604.956	35.25
3607.757	25.25
3610.556	21.25
3613.354	20.25
3616.149	15.25
3618.942	17.25
3621.732	12.25
3624.521	16.25
3627.307	12.25
3630.092	6.25
3632.874	8.25
3635.654	2.25
3638.432	0.25
3641.208	1.25
3643.982	0.25
3646.753	1.25
3649.523	-0.75
3652.29	-4.75
3655.055	-7.75
3657.818	-13.75
3660.579	-9.75
3663.338	-15.75
3666.095	-12.75
3668.849	-19.75
3671.602	-16.75
3674.352	-23.75
3677.101	-22.75
3679.847	-25.75
3682.591	-23.75
3685.333	-26.75
3688.073	-27.75
3690.811	-27.75
3693.547	-25.75
3696.281	-29.75
3699.013	-30.75
3701.742	-28.75
3704.47	-30.75
3707.195	-30.75
3709.919	-32.75
3712.64	-40.75
3715.359	-34.75
3718.076	-36.75
3720.792	-36.75
3723.505	-36.75
3726.216	-39.75
3728.925	-42.75
3731.632	-44.75
3734.336	-39.75
3737.039	-40.75
3739.74	-42.75
3742.439	-36.75
3745.136	-38.75
3747.83	-41.75
3750.523	-42.75
3753.213	-44.75
3755.902	-45.75
3758.589	-44.75
3761.273	-44.75
3763.956	-39.75
3766.636	-40.75
3769.315	-39.75
3771.991	-48.75
3774.665	-46.75
3777.338	-47.75
3780.008	-46.75
3782.677	-46.75
3785.343	-42.75
3788.007	-47.75
3790.67	-43.75
3793.33	-46.75
3795.989	-47.75
3798.645	-47.75
3801.299	-48.75
3803.952	-45.75
3806.602	-45.75
3809.251	-47.75
3811.897	-49.75
3814.542	-49.75
3817.184	-45.75
3819.825	-49.75
3822.463	-47.75
3825.1	-54.75
3827.735	-48.75
3830.367	-53.75
3832.998	-47.75
3835.627	-48.75
3838.253	-46.75
3840.878	-51.75
3843.501	-49.75
3846.122	-52.75
3848.741	-53.75
3851.358	-55.75
3853.973	-47.75
3856.586	-43.75
3859.197	-50.75
3861.806	-50.75
3864.414	-55.75
3867.019	-53.75
3869.622	-47.75
3872.224	-52.75
3874.823	-51.75
3877.421	-46.75
3880.016	-50.75
3882.61	-48.75
3885.202	-42.75
3887.792	-45.75
3890.38	-51.75
3892.966	-50.75
3895.55	-51.75
3898.132	-54.75
3900.713	-52.75
3903.291	-54.75
3905.868	-50.75
3908.442	-53.75
3911.015	-55.75
3913.586	-56.75
3916.155	-51.75
3918.722	-52.75
3921.287	-49.75
3923.85	-53.75
3926.411	-51.75
3928.971	-52.75
3931.528	-55.75
3934.084	-57.75
3936.638	-56.75
3939.19	-56.75
3941.74	-51.75
3944.288	-55.75
3946.834	-53.75
3949.378	-52.75
3951.921	-52.75
3954.462	-55.75
3957	-53.75
3959.537	-53.75
3962.072	-52.75
3964.606	-50.75
3967.137	-54.75
3969.667	-52.75
3972.194	-55.75
3974.72	-58.75
3977.244	-53.75
3979.766	-52.75
3982.286	-49.75
3984.805	-53.75
3987.321	-53.75
3989.836	-54.75
3992.349	-55.75
3994.86	-50.75
3997.369	-49.75
3999.877	-54.75
4002.382	-53.75
4004.886	-55.75
4007.388	-52.75
4009.888	-51.75
4012.386	-51.75
4014.883	-50.75
4017.377	-54.75
4019.87	-55.75
4022.361	-53.75
4024.85	-55.75
4027.338	-51.75
4029.823	-45.75
4032.307	-48.75
4034.789	-52.75
4037.269	-51.75
4039.747	-57.75
4042.224	-56.75
4044.699	-56.75
4047.172	-51.75
4049.643	-51.75
4052.112	-53.75
4054.58	-53.75
4057.046	-52.75
4059.51	-56.75
4061.972	-51.75
4064.432	-52.75
4066.891	-54.75
4069.348	-52.75
4071.803	-50.75
4074.256	-53.75
4076.708	-56.75
4079.158	-53.75
4081.606	-52.75
4084.052	-57.75
4086.497	-54.75
4088.939	-54.75
4091.38	-56.75
4093.819	-52.75
4096.257	-54.75
4098.693	-57.75
4101.127	-57.75
4103.559	-56.75
4105.989	-13.75
4108.418	-9.75
4110.845	-6.75
4113.27	-10.75
4115.694	-9.75
4118.115	-4.75
4120.535	-53.75
4122.954	-52.75
4125.37	-54.75
4127.785	-55.75
4130.198	-55.75
4132.609	-56.75
4135.019	-58.75
4137.427	-53.75
4139.833	-53.75
4142.237	-54.75
