Data from 1000000CFU3_A_ramanshift_RamanShift_14-26-30-421.txt Node
Date: Sun Dec 25 14:26:30 IST 2016
User: aro
Spectrometer: QEPB0276
Trigger mode: 0
Integration Time (sec): 5.000000E0
Scans to average: 1
Electric dark correction enabled: true
Nonlinearity correction enabled: false
Boxcar width: 0
XAxis mode: Raman Shifts
Number of Pixels in Spectrum: 1044
>>>>>Begin Spectral Data<<<<<
160.701	5.12
166.742	18.12
172.777	67.12
178.805	210.12
184.826	620.12
190.841	1485.12
196.849	2766.12
202.85	3977.12
208.845	4594.12
214.833	4649.12
220.815	4479.12
226.789	4311.12
232.758	4204.12
238.719	4091.12
244.674	3990.12
250.623	3826.12
256.565	3683.12
262.5	3496.12
268.429	3381.12
274.351	3221.12
280.267	3121.12
286.176	3002.12
292.079	2925.12
297.975	2835.12
303.865	2735.12
309.748	2653.12
315.625	2603.12
321.495	2534.12
327.359	2480.12
333.217	2479.12
339.068	2458.12
344.912	2425.12
350.751	2434.12
356.583	2401.12
362.408	2402.12
368.227	2393.12
374.04	2410.12
379.847	2407.12
385.647	2431.12
391.44	2428.12
397.228	2470.12
403.009	2483.12
408.784	2487.12
414.553	2479.12
420.315	2510.12
426.071	2492.12
431.821	2515.12
437.565	2524.12
443.302	2531.12
449.033	2523.12
454.758	2505.12
460.477	2510.12
466.189	2491.12
471.896	2476.12
477.596	2454.12
483.29	2483.12
488.978	2468.12
494.66	2474.12
500.335	2443.12
506.005	2400.12
511.668	2377.12
517.325	2343.12
522.977	2338.12
528.622	2299.12
534.261	2260.12
539.894	2267.12
545.521	2231.12
551.141	2216.12
556.756	2199.12
562.365	2190.12
567.968	2177.12
573.565	2175.12
579.155	2166.12
584.74	2128.12
590.319	2145.12
595.892	2124.12
601.459	2117.12
607.02	2120.12
612.575	2082.12
618.124	2082.12
623.667	2061.12
629.204	2033.12
634.735	2029.12
640.261	2014.12
645.781	2003.12
651.294	1998.12
656.802	1997.12
662.304	1968.12
667.8	1990.12
673.29	1979.12
678.775	1970.12
684.254	1967.12
689.726	1949.12
695.193	1967.12
700.655	1951.12
706.11	1942.12
711.56	1913.12
717.004	1913.12
722.442	1910.12
727.874	1889.12
733.301	1894.12
738.722	1884.12
744.137	1853.12
749.547	1861.12
754.951	1860.12
760.349	1865.12
765.741	1849.12
771.128	1869.12
776.509	1859.12
781.885	1865.12
787.254	1855.12
792.618	1851.12
797.977	1859.12
803.33	1846.12
808.677	1824.12
814.019	1819.12
819.355	1803.12
824.686	1775.12
830.011	1773.12
835.33	1769.12
840.644	1765.12
845.952	1749.12
851.255	1750.12
856.552	1748.12
861.844	1741.12
867.13	1760.12
872.41	1760.12
877.686	1756.12
882.955	1770.12
888.219	1786.12
893.478	1741.12
898.731	1685.12
903.979	1644.12
909.221	1620.12
914.458	1613.12
919.69	1599.12
924.916	1580.12
930.136	1580.12
935.351	1574.12
940.561	1567.12
945.766	1573.12
950.965	1571.12
956.158	1577.12
961.347	1552.12
966.529	1520.12
971.707	1499.12
976.879	1501.12
982.046	1473.12
987.208	1465.12
992.364	1458.12
997.515	1468.12
1002.66	1477.12
1007.801	1500.12
1012.936	1498.12
1018.066	1505.12
1023.19	1521.12
1028.309	1515.12
1033.423	1515.12
1038.532	1534.12
1043.636	1520.12
1048.734	1522.12
1053.827	1519.12
1058.915	1494.12
1063.998	1474.12
1069.075	1469.12
1074.147	1458.12
1079.214	1477.12
1084.276	1488.12
1089.333	1492.12
1094.385	1509.12
1099.431	1526.12
1104.472	1517.12
1109.509	1484.12
1114.54	1496.12
1119.565	1463.12
1124.586	1450.12
1129.602	1448.12
1134.613	1435.12
1139.618	1409.12
1144.619	1408.12
1149.614	1416.12
1154.604	1421.12
1159.589	1423.12
1164.57	1434.12
1169.545	1439.12
1174.515	1446.12
1179.48	1456.12
1184.44	1425.12
1189.395	1426.12
1194.345	1424.12
1199.29	1404.12
1204.23	1406.12
1209.165	1398.12
1214.095	1411.12
1219.021	1423.12
1223.941	1425.12
1228.856	1442.12
1233.766	1453.12
1238.672	1451.12
1243.572	1457.12
1248.467	1452.12
1253.358	1432.12
1258.244	1412.12
1263.124	1395.12
1268	1386.12
1272.871	1366.12
1277.737	1343.12
1282.599	1338.12
1287.455	1359.12
1292.306	1343.12
1297.153	1356.12
1301.995	1361.12
1306.832	1373.12
1311.664	1374.12
1316.491	1383.12
1321.314	1386.12
1326.132	1361.12
1330.945	1358.12
1335.753	1348.12
1340.556	1315.12
1345.354	1307.12
1350.148	1315.12
1354.937	1272.12
1359.722	1269.12
1364.501	1271.12
1369.276	1268.12
1374.046	1241.12
1378.811	1221.12
1383.572	1224.12
1388.327	1210.12
1393.079	1239.12
1397.825	1225.12
1402.567	1222.12
1407.304	1227.12
1412.036	1206.12
1416.764	1190.12
1421.487	1219.12
1426.205	1205.12
1430.919	1210.12
1435.628	1209.12
1440.333	1238.12
1445.032	1240.12
1449.727	1267.12
1454.418	1259.12
1459.104	1298.12
1463.785	1289.12
1468.462	1259.12
1473.134	1243.12
1477.802	1222.12
1482.465	1207.12
1487.123	1210.12
1491.777	1208.12
1496.426	1206.12
1501.071	1202.12
1505.711	1214.12
1510.347	1223.12
1514.978	1230.12
1519.604	1218.12
1524.226	1247.12
1528.844	1236.12
1533.457	1249.12
1538.065	1236.12
1542.669	1223.12
1547.269	1230.12
1551.864	1213.12
1556.454	1225.12
1561.041	1237.12
1565.622	1240.12
1570.199	1245.12
1574.772	1268.12
1579.34	1290.12
1583.904	1300.12
1588.464	1318.12
1593.019	1338.12
1597.569	1361.12
1602.115	1361.12
1606.657	1378.12
1611.195	1364.12
1615.728	1379.12
1620.256	1383.12
1624.78	1389.12
1629.3	1416.12
1633.816	1441.12
1638.327	1451.12
1642.834	1474.12
1647.336	1478.12
1651.834	1470.12
1656.328	1497.12
1660.817	1488.12
1665.302	1482.12
1669.783	1453.12
1674.259	1440.12
1678.732	1399.12
1683.199	1368.12
1687.663	1322.12
1692.122	1293.12
1696.577	1233.12
1701.028	1192.12
1705.474	1137.12
1709.917	1103.12
1714.355	1075.12
1718.788	1059.12
1723.218	1050.12
1727.643	1044.12
1732.064	1027.12
1736.481	997.12
1740.893	989.12
1745.301	968.12
1749.705	942.12
1754.105	913.12
1758.501	899.12
1762.893	879.12
1767.28	873.12
1771.663	857.12
1776.042	835.12
1780.417	848.12
1784.787	843.12
1789.154	853.12
1793.516	851.12
1797.874	844.12
1802.228	849.12
1806.578	819.12
1810.924	825.12
1815.266	794.12
1819.603	806.12
1823.937	782.12
1828.266	792.12
1832.591	772.12
1836.913	773.12
1841.23	781.12
1845.543	775.12
1849.852	778.12
1854.156	774.12
1858.457	772.12
1862.754	780.12
1867.047	777.12
1871.335	791.12
1875.62	793.12
1879.9	788.12
1884.177	782.12
1888.449	781.12
1892.718	780.12
1896.982	772.12
1901.243	780.12
1905.499	767.12
1909.752	770.12
1914	777.12
1918.245	770.12
1922.485	779.12
1926.722	766.12
1930.954	765.12
1935.183	771.12
1939.408	773.12
1943.628	784.12
1947.845	774.12
1952.058	770.12
1956.267	769.12
1960.472	755.12
1964.673	751.12
1968.87	756.12
1973.063	750.12
1977.252	736.12
1981.438	725.12
1985.619	725.12
1989.797	729.12
1993.971	713.12
1998.14	738.12
2002.306	729.12
2006.469	729.12
2010.627	738.12
2014.781	732.12
2018.932	737.12
2023.078	729.12
2027.221	730.12
2031.36	736.12
2035.495	724.12
2039.627	715.12
2043.754	715.12
2047.878	709.12
2051.998	708.12
2056.114	711.12
2060.226	714.12
2064.334	702.12
2068.439	718.12
2072.54	716.12
2076.637	720.12
2080.73	734.12
2084.82	721.12
2088.906	727.12
2092.988	727.12
2097.066	727.12
2101.14	723.12
2105.211	710.12
2109.278	713.12
2113.342	709.12
2117.401	706.12
2121.457	709.12
2125.509	700.12
2129.558	687.12
2133.602	688.12
2137.643	690.12
2141.681	678.12
2145.714	680.12
2149.744	680.12
2153.77	680.12
2157.793	678.12
2161.812	672.12
2165.827	665.12
2169.838	659.12
2173.846	644.12
2177.851	644.12
2181.851	635.12
2185.848	633.12
2189.841	630.12
2193.831	618.12
2197.817	609.12
2201.799	605.12
2205.778	600.12
2209.753	610.12
2213.725	609.12
2217.693	597.12
2221.657	599.12
2225.618	599.12
2229.575	599.12
2233.529	593.12
2237.479	597.12
2241.425	593.12
2245.368	574.12
2249.307	566.12
2253.243	566.12
2257.175	558.12
2261.104	549.12
2265.029	544.12
2268.95	541.12
2272.868	544.12
2276.783	526.12
2280.694	521.12
2284.601	512.12
2288.505	510.12
2292.405	506.12
2296.302	504.12
2300.195	499.12
2304.085	498.12
2307.971	480.12
2311.854	471.12
2315.734	470.12
2319.609	469.12
2323.482	462.12
2327.351	452.12
2331.216	447.12
2335.078	450.12
2338.937	451.12
2342.792	442.12
2346.643	436.12
2350.492	445.12
2354.336	436.12
2358.178	435.12
2362.015	443.12
2365.85	443.12
2369.681	431.12
2373.508	441.12
2377.333	453.12
2381.153	441.12
2384.971	440.12
2388.785	433.12
2392.595	435.12
2396.402	429.12
2400.206	422.12
2404.007	431.12
2407.804	433.12
2411.597	419.12
2415.388	422.12
2419.174	420.12
2422.958	408.12
2426.738	428.12
2430.515	411.12
2434.289	418.12
2438.059	419.12
2441.825	419.12
2445.589	414.12
2449.349	400.12
2453.106	413.12
2456.859	398.12
2460.61	394.12
2464.356	395.12
2468.1	400.12
2471.84	395.12
2475.577	394.12
2479.311	390.12
2483.041	391.12
2486.768	389.12
2490.492	387.12
2494.213	386.12
2497.93	392.12
2501.644	389.12
2505.355	390.12
2509.062	397.12
2512.766	386.12
2516.467	379.12
2520.165	381.12
2523.859	382.12
2527.551	368.12
2531.239	361.12
2534.923	364.12
2538.605	368.12
2542.283	367.12
2545.958	362.12
2549.63	364.12
2553.299	344.12
2556.964	352.12
2560.626	340.12
2564.285	352.12
2567.941	343.12
2571.594	352.12
2575.243	351.12
2578.89	336.12
2582.533	344.12
2586.173	325.12
2589.809	329.12
2593.443	339.12
2597.073	332.12
2600.701	323.12
2604.325	324.12
2607.946	321.12
2611.564	323.12
2615.178	316.12
2618.79	317.12
2622.398	313.12
2626.004	311.12
2629.606	314.12
2633.205	309.12
2636.801	309.12
2640.394	313.12
2643.983	306.12
2647.57	301.12
2651.153	298.12
2654.734	298.12
2658.311	290.12
2661.885	292.12
2665.456	284.12
2669.025	288.12
2672.589	282.12
2676.151	286.12
2679.71	281.12
2683.266	285.12
2686.819	278.12
2690.368	274.12
2693.915	272.12
2697.458	275.12
2700.999	271.12
2704.536	265.12
2708.071	253.12
2711.602	260.12
2715.13	263.12
2718.656	257.12
2722.178	256.12
2725.697	257.12
2729.214	260.12
2732.727	265.12
2736.237	260.12
2739.744	259.12
2743.249	260.12
2746.75	268.12
2750.248	261.12
2753.743	259.12
2757.236	257.12
2760.725	258.12
2764.211	262.12
2767.695	245.12
2771.175	250.12
2774.652	247.12
2778.127	238.12
2781.598	249.12
2785.067	250.12
2788.532	245.12
2791.995	243.12
2795.455	249.12
2798.911	241.12
2802.365	249.12
2805.816	250.12
2809.264	251.12
2812.709	250.12
2816.151	249.12
2819.59	249.12
2823.026	243.12
2826.46	244.12
2829.89	257.12
2833.318	259.12
2836.742	254.12
2840.164	257.12
2843.583	244.12
2846.999	260.12
2850.412	255.12
2853.822	263.12
2857.229	267.12
2860.634	272.12
2864.035	270.12
2867.434	282.12
2870.83	281.12
2874.223	290.12
2877.613	293.12
2881	293.12
2884.385	312.12
2887.766	299.12
2891.145	298.12
2894.521	296.12
2897.894	296.12
2901.264	306.12
2904.631	297.12
2907.996	305.12
2911.358	297.12
2914.717	297.12
2918.073	300.12
2921.426	308.12
2924.777	315.12
2928.124	328.12
2931.469	320.12
2934.811	346.12
2938.15	341.12
2941.487	350.12
2944.821	340.12
2948.152	350.12
2951.48	360.12
2954.805	361.12
2958.128	359.12
2961.447	356.12
2964.765	355.12
2968.079	366.12
2971.39	369.12
2974.699	371.12
2978.005	382.12
2981.308	385.12
2984.609	397.12
2987.907	397.12
2991.202	419.12
2994.494	433.12
2997.784	428.12
3001.07	432.12
3004.355	447.12
3007.636	460.12
3010.915	457.12
3014.191	464.12
3017.464	477.12
3020.734	488.12
3024.002	481.12
3027.267	495.12
3030.53	510.12
3033.789	516.12
3037.046	513.12
3040.301	539.12
3043.552	554.12
3046.801	561.12
3050.048	571.12
3053.291	589.12
3056.532	599.12
3059.771	630.12
3063.006	629.12
3066.239	653.12
3069.469	678.12
3072.697	677.12
3075.922	708.12
3079.144	716.12
3082.364	732.12
3085.581	752.12
3088.795	778.12
3092.007	784.12
3095.216	812.12
3098.423	817.12
3101.627	841.12
3104.828	847.12
3108.026	886.12
3111.222	894.12
3114.416	916.12
3117.607	923.12
3120.795	936.12
3123.98	965.12
3127.163	998.12
3130.344	1011.12
3133.521	1030.12
3136.696	1056.12
3139.869	1079.12
3143.039	1091.12
3146.206	1119.12
3149.371	1115.12
3152.533	1137.12
3155.693	1145.12
3158.85	1160.12
3162.005	1156.12
3165.157	1157.12
3168.306	1165.12
3171.453	1162.12
3174.597	1180.12
3177.739	1182.12
3180.878	1184.12
3184.014	1187.12
3187.149	1195.12
3190.28	1185.12
3193.409	1198.12
3196.536	1185.12
3199.659	1198.12
3202.781	1204.12
3205.9	1208.12
3209.016	1206.12
3212.13	1211.12
3215.241	1193.12
3218.35	1179.12
3221.456	1187.12
3224.56	1170.12
3227.661	1159.12
3230.76	1137.12
3233.856	1133.12
3236.95	1112.12
3240.041	1111.12
3243.13	1099.12
3246.216	1094.12
3249.3	1097.12
3252.382	1075.12
3255.46	1066.12
3258.537	1046.12
3261.611	1056.12
3264.682	1049.12
3267.751	1053.12
3270.818	1042.12
3273.882	1044.12
3276.943	1038.12
3280.002	1027.12
3283.059	1008.12
3286.113	991.12
3289.165	986.12
3292.214	984.12
3295.261	954.12
3298.306	943.12
3301.348	948.12
3304.387	936.12
3307.425	920.12
3310.459	904.12
3313.492	900.12
3316.521	879.12
3319.549	863.12
3322.574	875.12
3325.597	862.12
3328.617	858.12
3331.635	851.12
3334.65	841.12
3337.663	835.12
3340.674	826.12
3343.682	826.12
3346.688	817.12
3349.691	815.12
3352.692	825.12
3355.691	810.12
3358.687	807.12
3361.681	802.12
3364.673	786.12
3367.662	787.12
3370.649	769.12
3373.633	759.12
3376.615	747.12
3379.595	745.12
3382.572	722.12
3385.547	716.12
3388.52	710.12
3391.49	702.12
3394.458	692.12
3397.424	672.12
3400.387	668.12
3403.348	653.12
3406.307	657.12
3409.263	651.12
3412.217	646.12
3415.168	633.12
3418.118	628.12
3421.065	625.12
3424.009	618.12
3426.951	612.12
3429.891	600.12
3432.829	584.12
3435.764	573.12
3438.697	570.12
3441.628	551.12
3444.557	547.12
3447.483	532.12
3450.407	513.12
3453.328	491.12
3456.247	486.12
3459.164	472.12
3462.079	465.12
3464.991	445.12
3467.902	429.12
3470.809	417.12
3473.715	412.12
3476.618	400.12
3479.519	378.12
3482.418	380.12
3485.315	365.12
3488.209	356.12
3491.101	347.12
3493.99	340.12
3496.878	335.12
3499.763	321.12
3502.646	309.12
3505.527	301.12
3508.405	298.12
3511.281	275.12
3514.155	266.12
3517.027	245.12
3519.897	243.12
3522.764	235.12
3525.629	221.12
3528.492	217.12
3531.352	206.12
3534.211	193.12
3537.067	179.12
3539.921	163.12
3542.773	170.12
3545.622	152.12
3548.469	149.12
3551.315	133.12
3554.157	129.12
3556.998	125.12
3559.837	120.12
3562.673	117.12
3565.507	112.12
3568.339	102.12
3571.169	91.12
3573.996	87.12
3576.822	87.12
3579.645	77.12
3582.466	83.12
3585.285	76.12
3588.101	71.12
3590.916	56.12
3593.728	57.12
3596.538	52.12
3599.346	40.12
3602.152	41.12
3604.956	40.12
3607.757	38.12
3610.556	34.12
3613.354	29.12
3616.149	23.12
3618.942	22.12
3621.732	21.12
3624.521	13.12
3627.307	14.12
3630.092	8.12
3632.874	10.12
3635.654	6.12
3638.432	7.12
3641.208	-2.88
3643.982	-0.88
3646.753	-5.88
3649.523	-1.88
3652.29	-11.88
3655.055	-12.88
3657.818	-18.88
3660.579	-9.88
3663.338	-16.88
3666.095	-16.88
3668.849	-25.88
3671.602	-23.88
3674.352	-33.88
3677.101	-28.88
3679.847	-32.88
3682.591	-33.88
3685.333	-31.88
3688.073	-34.88
3690.811	-36.88
3693.547	-37.88
3696.281	-41.88
3699.013	-43.88
3701.742	-41.88
3704.47	-39.88
3707.195	-44.88
3709.919	-43.88
3712.64	-45.88
3715.359	-47.88
3718.076	-50.88
3720.792	-52.88
3723.505	-49.88
3726.216	-51.88
3728.925	-52.88
3731.632	-52.88
3734.336	-48.88
3737.039	-54.88
3739.74	-55.88
3742.439	-53.88
3745.136	-57.88
3747.83	-54.88
3750.523	-58.88
3753.213	-58.88
3755.902	-53.88
3758.589	-56.88
3761.273	-59.88
3763.956	-57.88
3766.636	-59.88
3769.315	-59.88
3771.991	-61.88
3774.665	-61.88
3777.338	-57.88
3780.008	-57.88
3782.677	-58.88
3785.343	-61.88
3788.007	-64.88
3790.67	-59.88
3793.33	-64.88
3795.989	-60.88
3798.645	-63.88
3801.299	-61.88
3803.952	-61.88
3806.602	-62.88
3809.251	-63.88
3811.897	-68.88
3814.542	-67.88
3817.184	-61.88
3819.825	-64.88
3822.463	-62.88
3825.1	-63.88
3827.735	-63.88
3830.367	-69.88
3832.998	-67.88
3835.627	-67.88
3838.253	-66.88
3840.878	-70.88
3843.501	-67.88
3846.122	-69.88
3848.741	-70.88
3851.358	-71.88
3853.973	-65.88
3856.586	-69.88
3859.197	-72.88
3861.806	-71.88
3864.414	-70.88
3867.019	-70.88
3869.622	-62.88
3872.224	-68.88
3874.823	-70.88
3877.421	-69.88
3880.016	-72.88
3882.61	-65.88
3885.202	-63.88
3887.792	-63.88
3890.38	-64.88
3892.966	-66.88
3895.55	-67.88
3898.132	-70.88
3900.713	-74.88
3903.291	-74.88
3905.868	-68.88
3908.442	-70.88
3911.015	-72.88
3913.586	-72.88
3916.155	-66.88
3918.722	-71.88
3921.287	-70.88
3923.85	-73.88
3926.411	-74.88
3928.971	-73.88
3931.528	-72.88
3934.084	-72.88
3936.638	-73.88
3939.19	-74.88
3941.74	-74.88
3944.288	-74.88
3946.834	-74.88
3949.378	-72.88
3951.921	-71.88
3954.462	-71.88
3957	-71.88
3959.537	-71.88
3962.072	-70.88
3964.606	-69.88
3967.137	-76.88
3969.667	-75.88
3972.194	-73.88
3974.72	-75.88
3977.244	-69.88
3979.766	-71.88
3982.286	-66.88
3984.805	-71.88
3987.321	-73.88
3989.836	-72.88
3992.349	-72.88
3994.86	-70.88
3997.369	-64.88
3999.877	-70.88
4002.382	-70.88
4004.886	-73.88
4007.388	-70.88
4009.888	-69.88
4012.386	-69.88
4014.883	-72.88
4017.377	-72.88
4019.87	-72.88
4022.361	-70.88
4024.85	-71.88
4027.338	-68.88
4029.823	-67.88
4032.307	-67.88
4034.789	-71.88
4037.269	-75.88
4039.747	-74.88
4042.224	-75.88
4044.699	-70.88
4047.172	-69.88
4049.643	-68.88
4052.112	-68.88
4054.58	-72.88
4057.046	-73.88
4059.51	-75.88
4061.972	-70.88
4064.432	-67.88
4066.891	-68.88
4069.348	-71.88
4071.803	-69.88
4074.256	-73.88
4076.708	-73.88
4079.158	-74.88
4081.606	-71.88
4084.052	-72.88
4086.497	-73.88
4088.939	-71.88
4091.38	-69.88
4093.819	-70.88
4096.257	-76.88
4098.693	-77.88
4101.127	-78.88
4103.559	-74.88
4105.989	-18.88
4108.418	-20.88
4110.845	-17.88
4113.27	-14.88
4115.694	-9.88
4118.115	-13.88
4120.535	-73.88
4122.954	-71.88
4125.37	-72.88
4127.785	-72.88
4130.198	-70.88
4132.609	-75.88
4135.019	-76.88
4137.427	-74.88
4139.833	-72.88
4142.237	-75.88
