Data from 100000000CFU1_B_ramanshift_RamanShift_15-10-22-635.txt Node
Date: Sun Dec 25 15:10:22 IST 2016
User: aro
Spectrometer: QEPB0276
Trigger mode: 0
Integration Time (sec): 5.000000E0
Scans to average: 1
Electric dark correction enabled: true
Nonlinearity correction enabled: false
Boxcar width: 0
XAxis mode: Raman Shifts
Number of Pixels in Spectrum: 1044
>>>>>Begin Spectral Data<<<<<
160.701	5.25
166.742	18.25
172.777	54.25
178.805	161.25
184.826	471.25
190.841	1119.25
196.849	2059.25
202.85	2918.25
208.845	3349.25
214.833	3377.25
220.815	3251.25
226.789	3141.25
232.758	3045.25
238.719	2950.25
244.674	2860.25
250.623	2741.25
256.565	2610.25
262.5	2522.25
268.429	2391.25
274.351	2281.25
280.267	2194.25
286.176	2111.25
292.079	2029.25
297.975	1980.25
303.865	1907.25
309.748	1841.25
315.625	1781.25
321.495	1762.25
327.359	1709.25
333.217	1703.25
339.068	1669.25
344.912	1663.25
350.751	1635.25
356.583	1630.25
362.408	1645.25
368.227	1639.25
374.04	1654.25
379.847	1666.25
385.647	1664.25
391.44	1679.25
397.228	1672.25
403.009	1699.25
408.784	1696.25
414.553	1705.25
420.315	1717.25
426.071	1715.25
431.821	1710.25
437.565	1718.25
443.302	1727.25
449.033	1718.25
454.758	1692.25
460.477	1707.25
466.189	1696.25
471.896	1675.25
477.596	1665.25
483.29	1676.25
488.978	1672.25
494.66	1656.25
500.335	1653.25
506.005	1631.25
511.668	1598.25
517.325	1570.25
522.977	1535.25
528.622	1520.25
534.261	1478.25
539.894	1461.25
545.521	1479.25
551.141	1461.25
556.756	1426.25
562.365	1437.25
567.968	1426.25
573.565	1412.25
579.155	1394.25
584.74	1404.25
590.319	1402.25
595.892	1369.25
601.459	1362.25
607.02	1365.25
612.575	1372.25
618.124	1350.25
623.667	1327.25
629.204	1315.25
634.735	1300.25
640.261	1302.25
645.781	1287.25
651.294	1285.25
656.802	1275.25
662.304	1274.25
667.8	1255.25
673.29	1265.25
678.775	1260.25
684.254	1254.25
689.726	1254.25
695.193	1250.25
700.655	1226.25
706.11	1226.25
711.56	1231.25
717.004	1202.25
722.442	1211.25
727.874	1202.25
733.301	1179.25
738.722	1195.25
744.137	1189.25
749.547	1182.25
754.951	1181.25
760.349	1180.25
765.741	1174.25
771.128	1173.25
776.509	1171.25
781.885	1175.25
787.254	1168.25
792.618	1158.25
797.977	1174.25
803.33	1172.25
808.677	1146.25
814.019	1133.25
819.355	1124.25
824.686	1101.25
830.011	1114.25
835.33	1112.25
840.644	1097.25
845.952	1091.25
851.255	1086.25
856.552	1098.25
861.844	1076.25
867.13	1077.25
872.41	1079.25
877.686	1051.25
882.955	1055.25
888.219	1055.25
893.478	1035.25
898.731	1015.25
903.979	987.25
909.221	992.25
914.458	979.25
919.69	966.25
924.916	957.25
930.136	950.25
935.351	951.25
940.561	947.25
945.766	944.25
950.965	946.25
956.158	951.25
961.347	930.25
966.529	922.25
971.707	896.25
976.879	891.25
982.046	868.25
987.208	888.25
992.364	873.25
997.515	878.25
1002.66	881.25
1007.801	893.25
1012.936	888.25
1018.066	903.25
1023.19	916.25
1028.309	911.25
1033.423	898.25
1038.532	903.25
1043.636	897.25
1048.734	900.25
1053.827	897.25
1058.915	879.25
1063.998	876.25
1069.075	866.25
1074.147	880.25
1079.214	860.25
1084.276	881.25
1089.333	877.25
1094.385	902.25
1099.431	900.25
1104.472	897.25
1109.509	888.25
1114.54	889.25
1119.565	867.25
1124.586	858.25
1129.602	863.25
1134.613	857.25
1139.618	849.25
1144.619	843.25
1149.614	847.25
1154.604	849.25
1159.589	854.25
1164.57	861.25
1169.545	867.25
1174.515	861.25
1179.48	864.25
1184.44	862.25
1189.395	856.25
1194.345	840.25
1199.29	839.25
1204.23	838.25
1209.165	850.25
1214.095	838.25
1219.021	858.25
1223.941	863.25
1228.856	870.25
1233.766	880.25
1238.672	874.25
1243.572	888.25
1248.467	876.25
1253.358	851.25
1258.244	854.25
1263.124	857.25
1268	824.25
1272.871	819.25
1277.737	821.25
1282.599	805.25
1287.455	805.25
1292.306	813.25
1297.153	819.25
1301.995	821.25
1306.832	835.25
1311.664	826.25
1316.491	843.25
1321.314	839.25
1326.132	828.25
1330.945	817.25
1335.753	804.25
1340.556	799.25
1345.354	796.25
1350.148	783.25
1354.937	783.25
1359.722	781.25
1364.501	765.25
1369.276	757.25
1374.046	757.25
1378.811	764.25
1383.572	752.25
1388.327	762.25
1393.079	752.25
1397.825	749.25
1402.567	748.25
1407.304	742.25
1412.036	725.25
1416.764	735.25
1421.487	731.25
1426.205	736.25
1430.919	741.25
1435.628	735.25
1440.333	738.25
1445.032	751.25
1449.727	763.25
1454.418	769.25
1459.104	777.25
1463.785	777.25
1468.462	762.25
1473.134	763.25
1477.802	758.25
1482.465	739.25
1487.123	724.25
1491.777	731.25
1496.426	741.25
1501.071	734.25
1505.711	735.25
1510.347	757.25
1514.978	775.25
1519.604	765.25
1524.226	780.25
1528.844	773.25
1533.457	770.25
1538.065	772.25
1542.669	774.25
1547.269	777.25
1551.864	770.25
1556.454	778.25
1561.041	778.25
1565.622	790.25
1570.199	799.25
1574.772	803.25
1579.34	814.25
1583.904	829.25
1588.464	851.25
1593.019	860.25
1597.569	878.25
1602.115	870.25
1606.657	886.25
1611.195	901.25
1615.728	902.25
1620.256	904.25
1624.78	936.25
1629.3	929.25
1633.816	960.25
1638.327	960.25
1642.834	978.25
1647.336	993.25
1651.834	981.25
1656.328	993.25
1660.817	989.25
1665.302	968.25
1669.783	972.25
1674.259	926.25
1678.732	908.25
1683.199	886.25
1687.663	839.25
1692.122	830.25
1696.577	796.25
1701.028	776.25
1705.474	741.25
1709.917	719.25
1714.355	687.25
1718.788	677.25
1723.218	680.25
1727.643	672.25
1732.064	647.25
1736.481	627.25
1740.893	615.25
1745.301	596.25
1749.705	599.25
1754.105	581.25
1758.501	554.25
1762.893	543.25
1767.28	538.25
1771.663	529.25
1776.042	533.25
1780.417	515.25
1784.787	520.25
1789.154	522.25
1793.516	524.25
1797.874	512.25
1802.228	517.25
1806.578	521.25
1810.924	509.25
1815.266	508.25
1819.603	490.25
1823.937	489.25
1828.266	489.25
1832.591	478.25
1836.913	471.25
1841.23	473.25
1845.543	468.25
1849.852	465.25
1854.156	487.25
1858.457	476.25
1862.754	477.25
1867.047	473.25
1871.335	475.25
1875.62	475.25
1879.9	483.25
1884.177	489.25
1888.449	489.25
1892.718	486.25
1896.982	473.25
1901.243	467.25
1905.499	482.25
1909.752	480.25
1914	474.25
1918.245	469.25
1922.485	483.25
1926.722	479.25
1930.954	484.25
1935.183	477.25
1939.408	490.25
1943.628	488.25
1947.845	479.25
1952.058	484.25
1956.267	482.25
1960.472	463.25
1964.673	475.25
1968.87	467.25
1973.063	476.25
1977.252	462.25
1981.438	464.25
1985.619	454.25
1989.797	457.25
1993.971	459.25
1998.14	457.25
2002.306	465.25
2006.469	463.25
2010.627	469.25
2014.781	463.25
2018.932	462.25
2023.078	470.25
2027.221	456.25
2031.36	462.25
2035.495	461.25
2039.627	452.25
2043.754	456.25
2047.878	457.25
2051.998	459.25
2056.114	444.25
2060.226	443.25
2064.334	447.25
2068.439	459.25
2072.54	459.25
2076.637	464.25
2080.73	459.25
2084.82	453.25
2088.906	464.25
2092.988	463.25
2097.066	472.25
2101.14	472.25
2105.211	461.25
2109.278	454.25
2113.342	460.25
2117.401	452.25
2121.457	454.25
2125.509	454.25
2129.558	451.25
2133.602	444.25
2137.643	448.25
2141.681	439.25
2145.714	446.25
2149.744	440.25
2153.77	435.25
2157.793	432.25
2161.812	433.25
2165.827	429.25
2169.838	413.25
2173.846	425.25
2177.851	407.25
2181.851	407.25
2185.848	408.25
2189.841	402.25
2193.831	391.25
2197.817	393.25
2201.799	390.25
2205.778	380.25
2209.753	389.25
2213.725	384.25
2217.693	389.25
2221.657	382.25
2225.618	383.25
2229.575	373.25
2233.529	388.25
2237.479	374.25
2241.425	385.25
2245.368	372.25
2249.307	356.25
2253.243	358.25
2257.175	356.25
2261.104	353.25
2265.029	349.25
2268.95	342.25
2272.868	337.25
2276.783	345.25
2280.694	336.25
2284.601	331.25
2288.505	328.25
2292.405	328.25
2296.302	319.25
2300.195	313.25
2304.085	303.25
2307.971	298.25
2311.854	297.25
2315.734	294.25
2319.609	302.25
2323.482	293.25
2327.351	286.25
2331.216	285.25
2335.078	279.25
2338.937	290.25
2342.792	278.25
2346.643	266.25
2350.492	275.25
2354.336	281.25
2358.178	274.25
2362.015	277.25
2365.85	280.25
2369.681	280.25
2373.508	273.25
2377.333	274.25
2381.153	272.25
2384.971	275.25
2388.785	275.25
2392.595	271.25
2396.402	275.25
2400.206	263.25
2404.007	264.25
2407.804	266.25
2411.597	275.25
2415.388	265.25
2419.174	261.25
2422.958	266.25
2426.738	264.25
2430.515	262.25
2434.289	255.25
2438.059	259.25
2441.825	252.25
2445.589	256.25
2449.349	261.25
2453.106	258.25
2456.859	246.25
2460.61	248.25
2464.356	252.25
2468.1	241.25
2471.84	239.25
2475.577	228.25
2479.311	242.25
2483.041	237.25
2486.768	247.25
2490.492	243.25
2494.213	240.25
2497.93	238.25
2501.644	248.25
2505.355	236.25
2509.062	238.25
2512.766	239.25
2516.467	241.25
2520.165	237.25
2523.859	231.25
2527.551	225.25
2531.239	227.25
2534.923	225.25
2538.605	226.25
2542.283	225.25
2545.958	227.25
2549.63	225.25
2553.299	220.25
2556.964	222.25
2560.626	221.25
2564.285	216.25
2567.941	220.25
2571.594	210.25
2575.243	219.25
2578.89	201.25
2582.533	207.25
2586.173	206.25
2589.809	208.25
2593.443	204.25
2597.073	203.25
2600.701	196.25
2604.325	205.25
2607.946	206.25
2611.564	207.25
2615.178	198.25
2618.79	201.25
2622.398	199.25
2626.004	195.25
2629.606	194.25
2633.205	190.25
2636.801	195.25
2640.394	205.25
2643.983	190.25
2647.57	187.25
2651.153	186.25
2654.734	178.25
2658.311	186.25
2661.885	180.25
2665.456	187.25
2669.025	185.25
2672.589	175.25
2676.151	175.25
2679.71	185.25
2683.266	175.25
2686.819	171.25
2690.368	174.25
2693.915	170.25
2697.458	170.25
2700.999	167.25
2704.536	164.25
2708.071	165.25
2711.602	165.25
2715.13	158.25
2718.656	156.25
2722.178	159.25
2725.697	163.25
2729.214	164.25
2732.727	159.25
2736.237	168.25
2739.744	162.25
2743.249	162.25
2746.75	165.25
2750.248	159.25
2753.743	157.25
2757.236	158.25
2760.725	164.25
2764.211	163.25
2767.695	165.25
2771.175	157.25
2774.652	159.25
2778.127	148.25
2781.598	150.25
2785.067	164.25
2788.532	161.25
2791.995	158.25
2795.455	164.25
2798.911	160.25
2802.365	152.25
2805.816	160.25
2809.264	160.25
2812.709	152.25
2816.151	158.25
2819.59	162.25
2823.026	163.25
2826.46	165.25
2829.89	169.25
2833.318	165.25
2836.742	169.25
2840.164	163.25
2843.583	165.25
2846.999	167.25
2850.412	175.25
2853.822	173.25
2857.229	179.25
2860.634	179.25
2864.035	179.25
2867.434	179.25
2870.83	187.25
2874.223	189.25
2877.613	188.25
2881	191.25
2884.385	196.25
2887.766	189.25
2891.145	199.25
2894.521	198.25
2897.894	192.25
2901.264	189.25
2904.631	197.25
2907.996	202.25
2911.358	199.25
2914.717	196.25
2918.073	213.25
2921.426	211.25
2924.777	210.25
2928.124	216.25
2931.469	219.25
2934.811	222.25
2938.15	230.25
2941.487	230.25
2944.821	236.25
2948.152	238.25
2951.48	234.25
2954.805	244.25
2958.128	244.25
2961.447	252.25
2964.765	247.25
2968.079	253.25
2971.39	260.25
2974.699	266.25
2978.005	265.25
2981.308	273.25
2984.609	277.25
2987.907	288.25
2991.202	299.25
2994.494	301.25
2997.784	309.25
3001.07	317.25
3004.355	329.25
3007.636	337.25
3010.915	340.25
3014.191	352.25
3017.464	358.25
3020.734	365.25
3024.002	369.25
3027.267	366.25
3030.53	387.25
3033.789	386.25
3037.046	393.25
3040.301	403.25
3043.552	416.25
3046.801	415.25
3050.048	436.25
3053.291	441.25
3056.532	455.25
3059.771	466.25
3063.006	476.25
3066.239	494.25
3069.469	520.25
3072.697	528.25
3075.922	535.25
3079.144	548.25
3082.364	564.25
3085.581	583.25
3088.795	599.25
3092.007	608.25
3095.216	631.25
3098.423	632.25
3101.627	644.25
3104.828	662.25
3108.026	675.25
3111.222	694.25
3114.416	715.25
3117.607	728.25
3120.795	742.25
3123.98	743.25
3127.163	776.25
3130.344	785.25
3133.521	797.25
3136.696	810.25
3139.869	839.25
3143.039	853.25
3146.206	862.25
3149.371	866.25
3152.533	886.25
3155.693	896.25
3158.85	897.25
3162.005	897.25
3165.157	915.25
3168.306	912.25
3171.453	909.25
3174.597	925.25
3177.739	921.25
3180.878	923.25
3184.014	917.25
3187.149	925.25
3190.28	936.25
3193.409	938.25
3196.536	942.25
3199.659	940.25
3202.781	933.25
3205.9	932.25
3209.016	935.25
3212.13	940.25
3215.241	945.25
3218.35	912.25
3221.456	921.25
3224.56	916.25
3227.661	903.25
3230.76	892.25
3233.856	881.25
3236.95	873.25
3240.041	877.25
3243.13	859.25
3246.216	852.25
3249.3	844.25
3252.382	831.25
3255.46	833.25
3258.537	826.25
3261.611	826.25
3264.682	812.25
3267.751	823.25
3270.818	813.25
3273.882	822.25
3276.943	806.25
3280.002	798.25
3283.059	801.25
3286.113	787.25
3289.165	770.25
3292.214	763.25
3295.261	749.25
3298.306	747.25
3301.348	732.25
3304.387	726.25
3307.425	710.25
3310.459	698.25
3313.492	694.25
3316.521	688.25
3319.549	671.25
3322.574	665.25
3325.597	665.25
3328.617	665.25
3331.635	667.25
3334.65	649.25
3337.663	636.25
3340.674	655.25
3343.682	648.25
3346.688	634.25
3349.691	641.25
3352.692	636.25
3355.691	637.25
3358.687	632.25
3361.681	621.25
3364.673	596.25
3367.662	609.25
3370.649	597.25
3373.633	594.25
3376.615	589.25
3379.595	570.25
3382.572	569.25
3385.547	559.25
3388.52	554.25
3391.49	546.25
3394.458	534.25
3397.424	527.25
3400.387	527.25
3403.348	526.25
3406.307	516.25
3409.263	515.25
3412.217	503.25
3415.168	495.25
3418.118	494.25
3421.065	496.25
3424.009	479.25
3426.951	481.25
3429.891	468.25
3432.829	450.25
3435.764	452.25
3438.697	440.25
3441.628	435.25
3444.557	428.25
3447.483	410.25
3450.407	399.25
3453.328	390.25
3456.247	376.25
3459.164	374.25
3462.079	363.25
3464.991	341.25
3467.902	339.25
3470.809	319.25
3473.715	321.25
3476.618	304.25
3479.519	306.25
3482.418	305.25
3485.315	291.25
3488.209	277.25
3491.101	282.25
3493.99	259.25
3496.878	251.25
3499.763	252.25
3502.646	241.25
3505.527	234.25
3508.405	223.25
3511.281	222.25
3514.155	210.25
3517.027	196.25
3519.897	188.25
3522.764	179.25
3525.629	177.25
3528.492	167.25
3531.352	162.25
3534.211	156.25
3537.067	135.25
3539.921	136.25
3542.773	129.25
3545.622	120.25
3548.469	113.25
3551.315	109.25
3554.157	106.25
3556.998	98.25
3559.837	90.25
3562.673	86.25
3565.507	85.25
3568.339	79.25
3571.169	74.25
3573.996	77.25
3576.822	65.25
3579.645	63.25
3582.466	63.25
3585.285	63.25
3588.101	51.25
3590.916	44.25
3593.728	37.25
3596.538	38.25
3599.346	40.25
3602.152	32.25
3604.956	31.25
3607.757	32.25
3610.556	22.25
3613.354	20.25
3616.149	17.25
3618.942	12.25
3621.732	15.25
3624.521	12.25
3627.307	17.25
3630.092	6.25
3632.874	8.25
3635.654	0.25
3638.432	2.25
3641.208	-5.75
3643.982	-1.75
3646.753	-3.75
3649.523	-1.75
3652.29	-2.75
3655.055	-9.75
3657.818	-12.75
3660.579	-9.75
3663.338	-20.75
3666.095	-15.75
3668.849	-17.75
3671.602	-16.75
3674.352	-24.75
3677.101	-23.75
3679.847	-23.75
3682.591	-24.75
3685.333	-27.75
3688.073	-26.75
3690.811	-28.75
3693.547	-28.75
3696.281	-31.75
3699.013	-31.75
3701.742	-31.75
3704.47	-32.75
3707.195	-33.75
3709.919	-37.75
3712.64	-40.75
3715.359	-33.75
3718.076	-39.75
3720.792	-42.75
3723.505	-37.75
3726.216	-41.75
3728.925	-40.75
3731.632	-42.75
3734.336	-42.75
3737.039	-46.75
3739.74	-41.75
3742.439	-40.75
3745.136	-42.75
3747.83	-40.75
3750.523	-44.75
3753.213	-45.75
3755.902	-49.75
3758.589	-46.75
3761.273	-48.75
3763.956	-42.75
3766.636	-42.75
3769.315	-44.75
3771.991	-48.75
3774.665	-47.75
3777.338	-51.75
3780.008	-50.75
3782.677	-47.75
3785.343	-43.75
3788.007	-47.75
3790.67	-47.75
3793.33	-46.75
3795.989	-50.75
3798.645	-51.75
3801.299	-49.75
3803.952	-48.75
3806.602	-50.75
3809.251	-48.75
3811.897	-49.75
3814.542	-50.75
3817.184	-49.75
3819.825	-54.75
3822.463	-49.75
3825.1	-53.75
3827.735	-51.75
3830.367	-54.75
3832.998	-49.75
3835.627	-49.75
3838.253	-51.75
3840.878	-50.75
3843.501	-53.75
3846.122	-56.75
3848.741	-57.75
3851.358	-57.75
3853.973	-48.75
3856.586	-51.75
3859.197	-53.75
3861.806	-54.75
3864.414	-54.75
3867.019	-57.75
3869.622	-51.75
3872.224	-52.75
3874.823	-50.75
3877.421	-52.75
3880.016	-52.75
3882.61	-49.75
3885.202	-47.75
3887.792	-51.75
3890.38	-50.75
3892.966	-53.75
3895.55	-52.75
3898.132	-57.75
3900.713	-54.75
3903.291	-56.75
3905.868	-54.75
3908.442	-51.75
3911.015	-59.75
3913.586	-55.75
3916.155	-55.75
3918.722	-54.75
3921.287	-53.75
3923.85	-59.75
3926.411	-54.75
3928.971	-54.75
3931.528	-58.75
3934.084	-58.75
3936.638	-60.75
3939.19	-56.75
3941.74	-55.75
3944.288	-57.75
3946.834	-53.75
3949.378	-55.75
3951.921	-54.75
3954.462	-55.75
3957	-54.75
3959.537	-58.75
3962.072	-55.75
3964.606	-55.75
3967.137	-56.75
3969.667	-53.75
3972.194	-54.75
3974.72	-59.75
3977.244	-54.75
3979.766	-57.75
3982.286	-52.75
3984.805	-55.75
3987.321	-55.75
3989.836	-53.75
3992.349	-54.75
3994.86	-53.75
3997.369	-52.75
3999.877	-56.75
4002.382	-56.75
4004.886	-57.75
4007.388	-54.75
4009.888	-53.75
4012.386	-50.75
4014.883	-54.75
4017.377	-56.75
4019.87	-55.75
4022.361	-59.75
4024.85	-56.75
4027.338	-57.75
4029.823	-50.75
4032.307	-49.75
4034.789	-54.75
4037.269	-57.75
4039.747	-58.75
4042.224	-58.75
4044.699	-60.75
4047.172	-56.75
4049.643	-54.75
4052.112	-55.75
4054.58	-55.75
4057.046	-55.75
4059.51	-56.75
4061.972	-55.75
4064.432	-54.75
4066.891	-56.75
4069.348	-55.75
4071.803	-56.75
4074.256	-56.75
4076.708	-58.75
4079.158	-54.75
4081.606	-52.75
4084.052	-59.75
4086.497	-54.75
4088.939	-59.75
4091.38	-59.75
4093.819	-58.75
4096.257	-58.75
4098.693	-61.75
4101.127	-59.75
4103.559	-56.75
4105.989	-15.75
4108.418	-11.75
4110.845	-8.75
4113.27	-12.75
4115.694	-9.75
4118.115	-9.75
4120.535	-55.75
4122.954	-55.75
4125.37	-53.75
4127.785	-53.75
4130.198	-58.75
4132.609	-60.75
4135.019	-60.75
4137.427	-59.75
4139.833	-59.75
4142.237	-58.75
