Data from 100000CFU1_FROM15TH_ramanshift_RamanShift_13-38-45-687.txt Node
Date: Sun Dec 25 13:38:45 IST 2016
User: aro
Spectrometer: QEPB0276
Trigger mode: 0
Integration Time (sec): 5.000000E0
Scans to average: 1
Electric dark correction enabled: true
Nonlinearity correction enabled: false
Boxcar width: 0
XAxis mode: Raman Shifts
Number of Pixels in Spectrum: 1044
>>>>>Begin Spectral Data<<<<<
160.701	9.25
166.742	25.25
172.777	63.25
178.805	205.25
184.826	608.25
190.841	1426.25
196.849	2649.25
202.85	3789.25
208.845	4346.25
214.833	4402.25
220.815	4227.25
226.789	4095.25
232.758	4026.25
238.719	3901.25
244.674	3804.25
250.623	3626.25
256.565	3486.25
262.5	3355.25
268.429	3204.25
274.351	3073.25
280.267	2988.25
286.176	2895.25
292.079	2789.25
297.975	2714.25
303.865	2643.25
309.748	2556.25
315.625	2485.25
321.495	2433.25
327.359	2394.25
333.217	2395.25
339.068	2361.25
344.912	2338.25
350.751	2306.25
356.583	2304.25
362.408	2303.25
368.227	2330.25
374.04	2320.25
379.847	2307.25
385.647	2321.25
391.44	2342.25
397.228	2351.25
403.009	2373.25
408.784	2394.25
414.553	2393.25
420.315	2393.25
426.071	2405.25
431.821	2399.25
437.565	2402.25
443.302	2429.25
449.033	2430.25
454.758	2411.25
460.477	2402.25
466.189	2379.25
471.896	2377.25
477.596	2378.25
483.29	2350.25
488.978	2355.25
494.66	2356.25
500.335	2311.25
506.005	2286.25
511.668	2264.25
517.325	2234.25
522.977	2192.25
528.622	2202.25
534.261	2133.25
539.894	2146.25
545.521	2118.25
551.141	2108.25
556.756	2092.25
562.365	2074.25
567.968	2085.25
573.565	2089.25
579.155	2060.25
584.74	2077.25
590.319	2032.25
595.892	2026.25
601.459	2020.25
607.02	2011.25
612.575	1993.25
618.124	1991.25
623.667	1986.25
629.204	1967.25
634.735	1942.25
640.261	1914.25
645.781	1903.25
651.294	1914.25
656.802	1919.25
662.304	1899.25
667.8	1905.25
673.29	1903.25
678.775	1876.25
684.254	1875.25
689.726	1873.25
695.193	1860.25
700.655	1868.25
706.11	1846.25
711.56	1855.25
717.004	1829.25
722.442	1824.25
727.874	1806.25
733.301	1795.25
738.722	1779.25
744.137	1775.25
749.547	1770.25
754.951	1780.25
760.349	1783.25
765.741	1769.25
771.128	1779.25
776.509	1761.25
781.885	1769.25
787.254	1773.25
792.618	1776.25
797.977	1768.25
803.33	1744.25
808.677	1760.25
814.019	1732.25
819.355	1683.25
824.686	1697.25
830.011	1692.25
835.33	1685.25
840.644	1676.25
845.952	1670.25
851.255	1657.25
856.552	1671.25
861.844	1663.25
867.13	1657.25
872.41	1667.25
877.686	1672.25
882.955	1672.25
888.219	1684.25
893.478	1637.25
898.731	1609.25
903.979	1559.25
909.221	1542.25
914.458	1535.25
919.69	1512.25
924.916	1500.25
930.136	1502.25
935.351	1513.25
940.561	1508.25
945.766	1498.25
950.965	1490.25
956.158	1512.25
961.347	1489.25
966.529	1476.25
971.707	1437.25
976.879	1422.25
982.046	1407.25
987.208	1399.25
992.364	1387.25
997.515	1404.25
1002.66	1398.25
1007.801	1404.25
1012.936	1421.25
1018.066	1415.25
1023.19	1461.25
1028.309	1449.25
1033.423	1467.25
1038.532	1458.25
1043.636	1456.25
1048.734	1458.25
1053.827	1431.25
1058.915	1432.25
1063.998	1408.25
1069.075	1386.25
1074.147	1402.25
1079.214	1386.25
1084.276	1417.25
1089.333	1415.25
1094.385	1431.25
1099.431	1430.25
1104.472	1439.25
1109.509	1426.25
1114.54	1418.25
1119.565	1399.25
1124.586	1402.25
1129.602	1366.25
1134.613	1365.25
1139.618	1350.25
1144.619	1335.25
1149.614	1354.25
1154.604	1362.25
1159.589	1359.25
1164.57	1379.25
1169.545	1370.25
1174.515	1368.25
1179.48	1364.25
1184.44	1358.25
1189.395	1353.25
1194.345	1344.25
1199.29	1336.25
1204.23	1335.25
1209.165	1334.25
1214.095	1347.25
1219.021	1343.25
1223.941	1359.25
1228.856	1384.25
1233.766	1369.25
1238.672	1387.25
1243.572	1381.25
1248.467	1361.25
1253.358	1368.25
1258.244	1340.25
1263.124	1333.25
1268	1324.25
1272.871	1290.25
1277.737	1291.25
1282.599	1288.25
1287.455	1289.25
1292.306	1289.25
1297.153	1296.25
1301.995	1289.25
1306.832	1313.25
1311.664	1317.25
1316.491	1311.25
1321.314	1312.25
1326.132	1310.25
1330.945	1284.25
1335.753	1284.25
1340.556	1277.25
1345.354	1242.25
1350.148	1250.25
1354.937	1238.25
1359.722	1225.25
1364.501	1220.25
1369.276	1197.25
1374.046	1216.25
1378.811	1208.25
1383.572	1203.25
1388.327	1204.25
1393.079	1197.25
1397.825	1190.25
1402.567	1179.25
1407.304	1170.25
1412.036	1155.25
1416.764	1168.25
1421.487	1150.25
1426.205	1151.25
1430.919	1171.25
1435.628	1184.25
1440.333	1197.25
1445.032	1188.25
1449.727	1204.25
1454.418	1219.25
1459.104	1220.25
1463.785	1228.25
1468.462	1226.25
1473.134	1205.25
1477.802	1179.25
1482.465	1170.25
1487.123	1157.25
1491.777	1156.25
1496.426	1140.25
1501.071	1154.25
1505.711	1165.25
1510.347	1176.25
1514.978	1207.25
1519.604	1206.25
1524.226	1224.25
1528.844	1218.25
1533.457	1206.25
1538.065	1209.25
1542.669	1208.25
1547.269	1196.25
1551.864	1196.25
1556.454	1191.25
1561.041	1214.25
1565.622	1223.25
1570.199	1220.25
1574.772	1235.25
1579.34	1252.25
1583.904	1271.25
1588.464	1290.25
1593.019	1305.25
1597.569	1310.25
1602.115	1309.25
1606.657	1323.25
1611.195	1329.25
1615.728	1320.25
1620.256	1363.25
1624.78	1351.25
1629.3	1366.25
1633.816	1392.25
1638.327	1413.25
1642.834	1411.25
1647.336	1438.25
1651.834	1436.25
1656.328	1428.25
1660.817	1426.25
1665.302	1440.25
1669.783	1413.25
1674.259	1378.25
1678.732	1332.25
1683.199	1304.25
1687.663	1283.25
1692.122	1235.25
1696.577	1195.25
1701.028	1168.25
1705.474	1114.25
1709.917	1088.25
1714.355	1059.25
1718.788	1036.25
1723.218	1024.25
1727.643	1013.25
1732.064	1010.25
1736.481	981.25
1740.893	950.25
1745.301	940.25
1749.705	906.25
1754.105	899.25
1758.501	870.25
1762.893	847.25
1767.28	848.25
1771.663	838.25
1776.042	822.25
1780.417	833.25
1784.787	823.25
1789.154	832.25
1793.516	830.25
1797.874	840.25
1802.228	823.25
1806.578	821.25
1810.924	815.25
1815.266	808.25
1819.603	787.25
1823.937	775.25
1828.266	772.25
1832.591	769.25
1836.913	765.25
1841.23	756.25
1845.543	762.25
1849.852	754.25
1854.156	755.25
1858.457	740.25
1862.754	760.25
1867.047	758.25
1871.335	767.25
1875.62	773.25
1879.9	767.25
1884.177	759.25
1888.449	768.25
1892.718	762.25
1896.982	742.25
1901.243	749.25
1905.499	761.25
1909.752	755.25
1914	747.25
1918.245	748.25
1922.485	745.25
1926.722	752.25
1930.954	753.25
1935.183	744.25
1939.408	767.25
1943.628	757.25
1947.845	756.25
1952.058	765.25
1956.267	751.25
1960.472	730.25
1964.673	742.25
1968.87	742.25
1973.063	729.25
1977.252	735.25
1981.438	718.25
1985.619	714.25
1989.797	714.25
1993.971	705.25
1998.14	711.25
2002.306	720.25
2006.469	723.25
2010.627	730.25
2014.781	722.25
2018.932	724.25
2023.078	724.25
2027.221	722.25
2031.36	712.25
2035.495	707.25
2039.627	710.25
2043.754	708.25
2047.878	713.25
2051.998	695.25
2056.114	696.25
2060.226	701.25
2064.334	702.25
2068.439	698.25
2072.54	705.25
2076.637	714.25
2080.73	702.25
2084.82	713.25
2088.906	709.25
2092.988	716.25
2097.066	716.25
2101.14	719.25
2105.211	711.25
2109.278	689.25
2113.342	682.25
2117.401	694.25
2121.457	689.25
2125.509	690.25
2129.558	690.25
2133.602	685.25
2137.643	665.25
2141.681	682.25
2145.714	673.25
2149.744	666.25
2153.77	672.25
2157.793	670.25
2161.812	662.25
2165.827	660.25
2169.838	651.25
2173.846	632.25
2177.851	631.25
2181.851	624.25
2185.848	620.25
2189.841	614.25
2193.831	599.25
2197.817	604.25
2201.799	596.25
2205.778	606.25
2209.753	597.25
2213.725	604.25
2217.693	588.25
2221.657	598.25
2225.618	593.25
2229.575	582.25
2233.529	596.25
2237.479	589.25
2241.425	583.25
2245.368	577.25
2249.307	563.25
2253.243	549.25
2257.175	552.25
2261.104	542.25
2265.029	537.25
2268.95	533.25
2272.868	534.25
2276.783	517.25
2280.694	509.25
2284.601	506.25
2288.505	499.25
2292.405	504.25
2296.302	477.25
2300.195	488.25
2304.085	496.25
2307.971	471.25
2311.854	472.25
2315.734	461.25
2319.609	462.25
2323.482	449.25
2327.351	448.25
2331.216	448.25
2335.078	442.25
2338.937	436.25
2342.792	442.25
2346.643	427.25
2350.492	428.25
2354.336	425.25
2358.178	428.25
2362.015	427.25
2365.85	433.25
2369.681	433.25
2373.508	442.25
2377.333	433.25
2381.153	432.25
2384.971	429.25
2388.785	423.25
2392.595	425.25
2396.402	424.25
2400.206	418.25
2404.007	415.25
2407.804	420.25
2411.597	410.25
2415.388	417.25
2419.174	417.25
2422.958	410.25
2426.738	412.25
2430.515	412.25
2434.289	419.25
2438.059	408.25
2441.825	402.25
2445.589	398.25
2449.349	390.25
2453.106	393.25
2456.859	388.25
2460.61	382.25
2464.356	387.25
2468.1	388.25
2471.84	391.25
2475.577	376.25
2479.311	384.25
2483.041	385.25
2486.768	384.25
2490.492	374.25
2494.213	384.25
2497.93	386.25
2501.644	372.25
2505.355	381.25
2509.062	376.25
2512.766	370.25
2516.467	376.25
2520.165	379.25
2523.859	364.25
2527.551	365.25
2531.239	362.25
2534.923	356.25
2538.605	357.25
2542.283	357.25
2545.958	345.25
2549.63	353.25
2553.299	344.25
2556.964	349.25
2560.626	351.25
2564.285	344.25
2567.941	341.25
2571.594	339.25
2575.243	334.25
2578.89	326.25
2582.533	332.25
2586.173	329.25
2589.809	333.25
2593.443	336.25
2597.073	326.25
2600.701	328.25
2604.325	320.25
2607.946	313.25
2611.564	320.25
2615.178	319.25
2618.79	322.25
2622.398	319.25
2626.004	313.25
2629.606	311.25
2633.205	311.25
2636.801	304.25
2640.394	315.25
2643.983	301.25
2647.57	297.25
2651.153	292.25
2654.734	294.25
2658.311	291.25
2661.885	283.25
2665.456	284.25
2669.025	290.25
2672.589	273.25
2676.151	274.25
2679.71	277.25
2683.266	279.25
2686.819	274.25
2690.368	270.25
2693.915	264.25
2697.458	267.25
2700.999	259.25
2704.536	262.25
2708.071	261.25
2711.602	263.25
2715.13	251.25
2718.656	247.25
2722.178	250.25
2725.697	246.25
2729.214	245.25
2732.727	242.25
2736.237	254.25
2739.744	254.25
2743.249	253.25
2746.75	249.25
2750.248	251.25
2753.743	253.25
2757.236	248.25
2760.725	252.25
2764.211	257.25
2767.695	249.25
2771.175	248.25
2774.652	245.25
2778.127	239.25
2781.598	242.25
2785.067	243.25
2788.532	238.25
2791.995	238.25
2795.455	233.25
2798.911	233.25
2802.365	237.25
2805.816	249.25
2809.264	252.25
2812.709	244.25
2816.151	245.25
2819.59	245.25
2823.026	243.25
2826.46	247.25
2829.89	238.25
2833.318	244.25
2836.742	250.25
2840.164	243.25
2843.583	243.25
2846.999	254.25
2850.412	255.25
2853.822	262.25
2857.229	256.25
2860.634	259.25
2864.035	262.25
2867.434	269.25
2870.83	272.25
2874.223	270.25
2877.613	279.25
2881	285.25
2884.385	285.25
2887.766	279.25
2891.145	285.25
2894.521	282.25
2897.894	287.25
2901.264	291.25
2904.631	285.25
2907.996	296.25
2911.358	289.25
2914.717	280.25
2918.073	294.25
2921.426	295.25
2924.777	307.25
2928.124	308.25
2931.469	316.25
2934.811	320.25
2938.15	320.25
2941.487	335.25
2944.821	323.25
2948.152	326.25
2951.48	341.25
2954.805	343.25
2958.128	340.25
2961.447	346.25
2964.765	338.25
2968.079	352.25
2971.39	353.25
2974.699	359.25
2978.005	364.25
2981.308	369.25
2984.609	377.25
2987.907	387.25
2991.202	398.25
2994.494	407.25
2997.784	417.25
3001.07	421.25
3004.355	431.25
3007.636	444.25
3010.915	442.25
3014.191	447.25
3017.464	456.25
3020.734	479.25
3024.002	472.25
3027.267	475.25
3030.53	484.25
3033.789	491.25
3037.046	498.25
3040.301	496.25
3043.552	526.25
3046.801	535.25
3050.048	551.25
3053.291	555.25
3056.532	560.25
3059.771	582.25
3063.006	601.25
3066.239	622.25
3069.469	645.25
3072.697	660.25
3075.922	684.25
3079.144	686.25
3082.364	705.25
3085.581	719.25
3088.795	735.25
3092.007	754.25
3095.216	755.25
3098.423	791.25
3101.627	805.25
3104.828	819.25
3108.026	840.25
3111.222	844.25
3114.416	868.25
3117.607	892.25
3120.795	901.25
3123.98	922.25
3127.163	947.25
3130.344	957.25
3133.521	983.25
3136.696	1004.25
3139.869	1028.25
3143.039	1051.25
3146.206	1059.25
3149.371	1073.25
3152.533	1081.25
3155.693	1094.25
3158.85	1101.25
3162.005	1102.25
3165.157	1106.25
3168.306	1106.25
3171.453	1104.25
3174.597	1122.25
3177.739	1117.25
3180.878	1119.25
3184.014	1133.25
3187.149	1137.25
3190.28	1135.25
3193.409	1134.25
3196.536	1132.25
3199.659	1142.25
3202.781	1152.25
3205.9	1152.25
3209.016	1158.25
3212.13	1138.25
3215.241	1158.25
3218.35	1138.25
3221.456	1119.25
3224.56	1122.25
3227.661	1105.25
3230.76	1099.25
3233.856	1082.25
3236.95	1064.25
3240.041	1057.25
3243.13	1034.25
3246.216	1045.25
3249.3	1039.25
3252.382	1022.25
3255.46	1029.25
3258.537	1029.25
3261.611	1020.25
3264.682	1014.25
3267.751	1020.25
3270.818	1001.25
3273.882	1002.25
3276.943	982.25
3280.002	977.25
3283.059	988.25
3286.113	971.25
3289.165	950.25
3292.214	943.25
3295.261	933.25
3298.306	920.25
3301.348	890.25
3304.387	890.25
3307.425	871.25
3310.459	866.25
3313.492	847.25
3316.521	845.25
3319.549	849.25
3322.574	837.25
3325.597	818.25
3328.617	816.25
3331.635	799.25
3334.65	805.25
3337.663	796.25
3340.674	801.25
3343.682	789.25
3346.688	785.25
3349.691	790.25
3352.692	786.25
3355.691	775.25
3358.687	773.25
3361.681	767.25
3364.673	756.25
3367.662	747.25
3370.649	731.25
3373.633	730.25
3376.615	718.25
3379.595	702.25
3382.572	688.25
3385.547	682.25
3388.52	679.25
3391.49	668.25
3394.458	666.25
3397.424	662.25
3400.387	649.25
3403.348	642.25
3406.307	627.25
3409.263	621.25
3412.217	616.25
3415.168	609.25
3418.118	612.25
3421.065	597.25
3424.009	588.25
3426.951	587.25
3429.891	577.25
3432.829	555.25
3435.764	563.25
3438.697	548.25
3441.628	536.25
3444.557	522.25
3447.483	504.25
3450.407	494.25
3453.328	476.25
3456.247	464.25
3459.164	462.25
3462.079	438.25
3464.991	441.25
3467.902	419.25
3470.809	398.25
3473.715	390.25
3476.618	385.25
3479.519	377.25
3482.418	364.25
3485.315	350.25
3488.209	341.25
3491.101	323.25
3493.99	324.25
3496.878	321.25
3499.763	315.25
3502.646	293.25
3505.527	292.25
3508.405	278.25
3511.281	267.25
3514.155	254.25
3517.027	248.25
3519.897	238.25
3522.764	239.25
3525.629	218.25
3528.492	210.25
3531.352	200.25
3534.211	184.25
3537.067	173.25
3539.921	165.25
3542.773	160.25
3545.622	151.25
3548.469	150.25
3551.315	136.25
3554.157	132.25
3556.998	124.25
3559.837	113.25
3562.673	107.25
3565.507	103.25
3568.339	103.25
3571.169	94.25
3573.996	87.25
3576.822	84.25
3579.645	75.25
3582.466	77.25
3585.285	72.25
3588.101	58.25
3590.916	58.25
3593.728	57.25
3596.538	50.25
3599.346	44.25
3602.152	42.25
3604.956	36.25
3607.757	34.25
3610.556	30.25
3613.354	26.25
3616.149	21.25
3618.942	22.25
3621.732	18.25
3624.521	12.25
3627.307	11.25
3630.092	11.25
3632.874	11.25
3635.654	4.25
3638.432	-0.75
3641.208	1.25
3643.982	1.25
3646.753	-0.75
3649.523	-0.75
3652.29	-6.75
3655.055	-13.75
3657.818	-17.75
3660.579	-16.75
3663.338	-19.75
3666.095	-17.75
3668.849	-24.75
3671.602	-26.75
3674.352	-30.75
3677.101	-31.75
3679.847	-30.75
3682.591	-31.75
3685.333	-32.75
3688.073	-32.75
3690.811	-32.75
3693.547	-34.75
3696.281	-39.75
3699.013	-44.75
3701.742	-41.75
3704.47	-41.75
3707.195	-44.75
3709.919	-44.75
3712.64	-52.75
3715.359	-45.75
3718.076	-46.75
3720.792	-50.75
3723.505	-48.75
3726.216	-54.75
3728.925	-54.75
3731.632	-59.75
3734.336	-50.75
3737.039	-55.75
3739.74	-51.75
3742.439	-49.75
3745.136	-52.75
3747.83	-56.75
3750.523	-59.75
3753.213	-57.75
3755.902	-57.75
3758.589	-55.75
3761.273	-57.75
3763.956	-54.75
3766.636	-56.75
3769.315	-57.75
3771.991	-59.75
3774.665	-63.75
3777.338	-59.75
3780.008	-57.75
3782.677	-58.75
3785.343	-58.75
3788.007	-60.75
3790.67	-60.75
3793.33	-63.75
3795.989	-63.75
3798.645	-64.75
3801.299	-61.75
3803.952	-60.75
3806.602	-61.75
3809.251	-60.75
3811.897	-63.75
3814.542	-65.75
3817.184	-62.75
3819.825	-66.75
3822.463	-66.75
3825.1	-66.75
3827.735	-62.75
3830.367	-63.75
3832.998	-62.75
3835.627	-67.75
3838.253	-67.75
3840.878	-67.75
3843.501	-66.75
3846.122	-66.75
3848.741	-68.75
3851.358	-69.75
3853.973	-64.75
3856.586	-61.75
3859.197	-67.75
3861.806	-66.75
3864.414	-71.75
3867.019	-71.75
3869.622	-63.75
3872.224	-65.75
3874.823	-67.75
3877.421	-64.75
3880.016	-68.75
3882.61	-66.75
3885.202	-65.75
3887.792	-64.75
3890.38	-65.75
3892.966	-65.75
3895.55	-71.75
3898.132	-70.75
3900.713	-69.75
3903.291	-72.75
3905.868	-68.75
3908.442	-71.75
3911.015	-72.75
3913.586	-72.75
3916.155	-70.75
3918.722	-69.75
3921.287	-70.75
3923.85	-71.75
3926.411	-71.75
3928.971	-73.75
3931.528	-75.75
3934.084	-74.75
3936.638	-74.75
3939.19	-70.75
3941.74	-70.75
3944.288	-69.75
3946.834	-72.75
3949.378	-71.75
3951.921	-70.75
3954.462	-71.75
3957	-70.75
3959.537	-73.75
3962.072	-68.75
3964.606	-70.75
3967.137	-71.75
3969.667	-69.75
3972.194	-73.75
3974.72	-75.75
3977.244	-73.75
3979.766	-71.75
3982.286	-68.75
3984.805	-70.75
3987.321	-70.75
3989.836	-71.75
3992.349	-68.75
3994.86	-67.75
3997.369	-68.75
3999.877	-70.75
4002.382	-72.75
4004.886	-71.75
4007.388	-69.75
4009.888	-66.75
4012.386	-66.75
4014.883	-69.75
4017.377	-70.75
4019.87	-71.75
4022.361	-73.75
4024.85	-73.75
4027.338	-71.75
4029.823	-63.75
4032.307	-64.75
4034.789	-68.75
4037.269	-74.75
4039.747	-73.75
4042.224	-76.75
4044.699	-69.75
4047.172	-70.75
4049.643	-69.75
4052.112	-69.75
4054.58	-72.75
4057.046	-70.75
4059.51	-72.75
4061.972	-70.75
4064.432	-71.75
4066.891	-73.75
4069.348	-73.75
4071.803	-70.75
4074.256	-70.75
4076.708	-74.75
4079.158	-69.75
4081.606	-67.75
4084.052	-73.75
4086.497	-74.75
4088.939	-72.75
4091.38	-74.75
4093.819	-70.75
4096.257	-76.75
4098.693	-73.75
4101.127	-75.75
4103.559	-74.75
4105.989	-19.75
4108.418	-16.75
4110.845	-16.75
4113.27	-19.75
4115.694	-14.75
4118.115	-5.75
4120.535	-72.75
4122.954	-70.75
4125.37	-68.75
4127.785	-69.75
4130.198	-73.75
4132.609	-75.75
4135.019	-79.75
4137.427	-74.75
4139.833	-72.75
4142.237	-75.75
