Data from 1000CFU1_A_ramanshift_RamanShift_14-11-15-505.txt Node
Date: Sun Dec 25 14:11:15 IST 2016
User: aro
Spectrometer: QEPB0276
Trigger mode: 0
Integration Time (sec): 5.000000E0
Scans to average: 1
Electric dark correction enabled: true
Nonlinearity correction enabled: false
Boxcar width: 0
XAxis mode: Raman Shifts
Number of Pixels in Spectrum: 1044
>>>>>Begin Spectral Data<<<<<
160.701	7.12
166.742	17.12
172.777	64.12
178.805	192.12
184.826	575.12
190.841	1385.12
196.849	2558.12
202.85	3659.12
208.845	4218.12
214.833	4233.12
220.815	4061.12
226.789	3915.12
232.758	3819.12
238.719	3724.12
244.674	3610.12
250.623	3445.12
256.565	3274.12
262.5	3137.12
268.429	3001.12
274.351	2870.12
280.267	2745.12
286.176	2632.12
292.079	2557.12
297.975	2485.12
303.865	2395.12
309.748	2312.12
315.625	2231.12
321.495	2190.12
327.359	2140.12
333.217	2121.12
339.068	2088.12
344.912	2083.12
350.751	2082.12
356.583	2052.12
362.408	2038.12
368.227	2065.12
374.04	2038.12
379.847	2054.12
385.647	2079.12
391.44	2080.12
397.228	2100.12
403.009	2119.12
408.784	2116.12
414.553	2115.12
420.315	2137.12
426.071	2122.12
431.821	2149.12
437.565	2138.12
443.302	2126.12
449.033	2129.12
454.758	2151.12
460.477	2135.12
466.189	2113.12
471.896	2098.12
477.596	2059.12
483.29	2088.12
488.978	2078.12
494.66	2074.12
500.335	2068.12
506.005	2035.12
511.668	1983.12
517.325	1943.12
522.977	1930.12
528.622	1892.12
534.261	1889.12
539.894	1880.12
545.521	1843.12
551.141	1844.12
556.756	1820.12
562.365	1809.12
567.968	1801.12
573.565	1795.12
579.155	1790.12
584.74	1773.12
590.319	1749.12
595.892	1744.12
601.459	1738.12
607.02	1733.12
612.575	1714.12
618.124	1684.12
623.667	1688.12
629.204	1682.12
634.735	1657.12
640.261	1651.12
645.781	1655.12
651.294	1618.12
656.802	1639.12
662.304	1628.12
667.8	1600.12
673.29	1615.12
678.775	1617.12
684.254	1597.12
689.726	1597.12
695.193	1592.12
700.655	1575.12
706.11	1556.12
711.56	1537.12
717.004	1544.12
722.442	1518.12
727.874	1540.12
733.301	1491.12
738.722	1494.12
744.137	1506.12
749.547	1499.12
754.951	1485.12
760.349	1483.12
765.741	1495.12
771.128	1498.12
776.509	1481.12
781.885	1478.12
787.254	1494.12
792.618	1487.12
797.977	1486.12
803.33	1465.12
808.677	1449.12
814.019	1454.12
819.355	1428.12
824.686	1415.12
830.011	1400.12
835.33	1405.12
840.644	1411.12
845.952	1401.12
851.255	1380.12
856.552	1369.12
861.844	1388.12
867.13	1374.12
872.41	1375.12
877.686	1373.12
882.955	1371.12
888.219	1366.12
893.478	1360.12
898.731	1297.12
903.979	1270.12
909.221	1261.12
914.458	1245.12
919.69	1233.12
924.916	1226.12
930.136	1218.12
935.351	1217.12
940.561	1222.12
945.766	1216.12
950.965	1222.12
956.158	1189.12
961.347	1196.12
966.529	1178.12
971.707	1166.12
976.879	1159.12
982.046	1153.12
987.208	1130.12
992.364	1134.12
997.515	1131.12
1002.66	1125.12
1007.801	1125.12
1012.936	1148.12
1018.066	1150.12
1023.19	1178.12
1028.309	1168.12
1033.423	1178.12
1038.532	1176.12
1043.636	1170.12
1048.734	1162.12
1053.827	1154.12
1058.915	1154.12
1063.998	1146.12
1069.075	1133.12
1074.147	1122.12
1079.214	1140.12
1084.276	1132.12
1089.333	1143.12
1094.385	1152.12
1099.431	1156.12
1104.472	1160.12
1109.509	1156.12
1114.54	1141.12
1119.565	1141.12
1124.586	1134.12
1129.602	1107.12
1134.613	1097.12
1139.618	1087.12
1144.619	1096.12
1149.614	1095.12
1154.604	1093.12
1159.589	1099.12
1164.57	1120.12
1169.545	1120.12
1174.515	1113.12
1179.48	1110.12
1184.44	1123.12
1189.395	1106.12
1194.345	1098.12
1199.29	1095.12
1204.23	1083.12
1209.165	1096.12
1214.095	1103.12
1219.021	1102.12
1223.941	1115.12
1228.856	1123.12
1233.766	1125.12
1238.672	1120.12
1243.572	1129.12
1248.467	1121.12
1253.358	1121.12
1258.244	1118.12
1263.124	1093.12
1268	1086.12
1272.871	1071.12
1277.737	1057.12
1282.599	1052.12
1287.455	1057.12
1292.306	1057.12
1297.153	1070.12
1301.995	1072.12
1306.832	1071.12
1311.664	1083.12
1316.491	1092.12
1321.314	1084.12
1326.132	1084.12
1330.945	1080.12
1335.753	1049.12
1340.556	1047.12
1345.354	1045.12
1350.148	1037.12
1354.937	1008.12
1359.722	1019.12
1364.501	1007.12
1369.276	995.12
1374.046	991.12
1378.811	988.12
1383.572	968.12
1388.327	980.12
1393.079	974.12
1397.825	982.12
1402.567	955.12
1407.304	957.12
1412.036	953.12
1416.764	942.12
1421.487	959.12
1426.205	951.12
1430.919	967.12
1435.628	977.12
1440.333	982.12
1445.032	980.12
1449.727	1002.12
1454.418	1011.12
1459.104	1031.12
1463.785	1008.12
1468.462	1006.12
1473.134	982.12
1477.802	973.12
1482.465	976.12
1487.123	954.12
1491.777	961.12
1496.426	958.12
1501.071	980.12
1505.711	964.12
1510.347	979.12
1514.978	990.12
1519.604	1011.12
1524.226	1003.12
1528.844	998.12
1533.457	1005.12
1538.065	1016.12
1542.669	997.12
1547.269	1000.12
1551.864	997.12
1556.454	1003.12
1561.041	1020.12
1565.622	1013.12
1570.199	1026.12
1574.772	1047.12
1579.34	1061.12
1583.904	1084.12
1588.464	1101.12
1593.019	1100.12
1597.569	1129.12
1602.115	1137.12
1606.657	1154.12
1611.195	1135.12
1615.728	1157.12
1620.256	1184.12
1624.78	1180.12
1629.3	1209.12
1633.816	1229.12
1638.327	1213.12
1642.834	1249.12
1647.336	1262.12
1651.834	1265.12
1656.328	1266.12
1660.817	1264.12
1665.302	1250.12
1669.783	1234.12
1674.259	1213.12
1678.732	1170.12
1683.199	1130.12
1687.663	1107.12
1692.122	1084.12
1696.577	1036.12
1701.028	996.12
1705.474	945.12
1709.917	910.12
1714.355	883.12
1718.788	875.12
1723.218	868.12
1727.643	862.12
1732.064	838.12
1736.481	815.12
1740.893	794.12
1745.301	782.12
1749.705	773.12
1754.105	736.12
1758.501	727.12
1762.893	706.12
1767.28	698.12
1771.663	686.12
1776.042	682.12
1780.417	692.12
1784.787	690.12
1789.154	691.12
1793.516	690.12
1797.874	690.12
1802.228	689.12
1806.578	670.12
1810.924	661.12
1815.266	664.12
1819.603	643.12
1823.937	635.12
1828.266	633.12
1832.591	632.12
1836.913	627.12
1841.23	617.12
1845.543	630.12
1849.852	621.12
1854.156	627.12
1858.457	622.12
1862.754	635.12
1867.047	632.12
1871.335	628.12
1875.62	629.12
1879.9	630.12
1884.177	640.12
1888.449	637.12
1892.718	618.12
1896.982	628.12
1901.243	631.12
1905.499	615.12
1909.752	618.12
1914	621.12
1918.245	617.12
1922.485	620.12
1926.722	608.12
1930.954	612.12
1935.183	625.12
1939.408	625.12
1943.628	630.12
1947.845	633.12
1952.058	633.12
1956.267	625.12
1960.472	612.12
1964.673	615.12
1968.87	621.12
1973.063	603.12
1977.252	587.12
1981.438	604.12
1985.619	590.12
1989.797	588.12
1993.971	595.12
1998.14	597.12
2002.306	593.12
2006.469	602.12
2010.627	611.12
2014.781	601.12
2018.932	602.12
2023.078	600.12
2027.221	604.12
2031.36	600.12
2035.495	598.12
2039.627	595.12
2043.754	587.12
2047.878	591.12
2051.998	582.12
2056.114	593.12
2060.226	590.12
2064.334	592.12
2068.439	580.12
2072.54	592.12
2076.637	589.12
2080.73	595.12
2084.82	595.12
2088.906	611.12
2092.988	601.12
2097.066	601.12
2101.14	598.12
2105.211	589.12
2109.278	597.12
2113.342	593.12
2117.401	581.12
2121.457	581.12
2125.509	583.12
2129.558	577.12
2133.602	587.12
2137.643	569.12
2141.681	570.12
2145.714	578.12
2149.744	575.12
2153.77	566.12
2157.793	558.12
2161.812	561.12
2165.827	553.12
2169.838	551.12
2173.846	536.12
2177.851	528.12
2181.851	529.12
2185.848	516.12
2189.841	519.12
2193.831	510.12
2197.817	511.12
2201.799	509.12
2205.778	505.12
2209.753	511.12
2213.725	495.12
2217.693	500.12
2221.657	501.12
2225.618	503.12
2229.575	495.12
2233.529	500.12
2237.479	493.12
2241.425	499.12
2245.368	486.12
2249.307	479.12
2253.243	460.12
2257.175	467.12
2261.104	464.12
2265.029	451.12
2268.95	458.12
2272.868	450.12
2276.783	448.12
2280.694	422.12
2284.601	429.12
2288.505	426.12
2292.405	425.12
2296.302	429.12
2300.195	418.12
2304.085	405.12
2307.971	399.12
2311.854	393.12
2315.734	392.12
2319.609	385.12
2323.482	377.12
2327.351	377.12
2331.216	380.12
2335.078	373.12
2338.937	365.12
2342.792	374.12
2346.643	354.12
2350.492	362.12
2354.336	367.12
2358.178	357.12
2362.015	361.12
2365.85	366.12
2369.681	362.12
2373.508	366.12
2377.333	375.12
2381.153	369.12
2384.971	371.12
2388.785	351.12
2392.595	364.12
2396.402	369.12
2400.206	361.12
2404.007	352.12
2407.804	358.12
2411.597	353.12
2415.388	349.12
2419.174	349.12
2422.958	344.12
2426.738	344.12
2430.515	348.12
2434.289	356.12
2438.059	344.12
2441.825	345.12
2445.589	339.12
2449.349	341.12
2453.106	339.12
2456.859	340.12
2460.61	323.12
2464.356	331.12
2468.1	327.12
2471.84	328.12
2475.577	310.12
2479.311	321.12
2483.041	321.12
2486.768	313.12
2490.492	326.12
2494.213	322.12
2497.93	324.12
2501.644	328.12
2505.355	317.12
2509.062	321.12
2512.766	328.12
2516.467	319.12
2520.165	309.12
2523.859	313.12
2527.551	304.12
2531.239	309.12
2534.923	308.12
2538.605	303.12
2542.283	304.12
2545.958	293.12
2549.63	304.12
2553.299	289.12
2556.964	298.12
2560.626	288.12
2564.285	287.12
2567.941	296.12
2571.594	283.12
2575.243	287.12
2578.89	279.12
2582.533	282.12
2586.173	275.12
2589.809	276.12
2593.443	276.12
2597.073	269.12
2600.701	272.12
2604.325	270.12
2607.946	265.12
2611.564	274.12
2615.178	270.12
2618.79	267.12
2622.398	273.12
2626.004	262.12
2629.606	266.12
2633.205	260.12
2636.801	254.12
2640.394	256.12
2643.983	258.12
2647.57	250.12
2651.153	249.12
2654.734	244.12
2658.311	240.12
2661.885	254.12
2665.456	237.12
2669.025	238.12
2672.589	235.12
2676.151	242.12
2679.71	239.12
2683.266	235.12
2686.819	232.12
2690.368	233.12
2693.915	229.12
2697.458	227.12
2700.999	224.12
2704.536	221.12
2708.071	214.12
2711.602	220.12
2715.13	223.12
2718.656	217.12
2722.178	214.12
2725.697	209.12
2729.214	220.12
2732.727	220.12
2736.237	220.12
2739.744	221.12
2743.249	221.12
2746.75	221.12
2750.248	213.12
2753.743	222.12
2757.236	209.12
2760.725	220.12
2764.211	217.12
2767.695	211.12
2771.175	208.12
2774.652	201.12
2778.127	198.12
2781.598	206.12
2785.067	204.12
2788.532	207.12
2791.995	204.12
2795.455	200.12
2798.911	207.12
2802.365	206.12
2805.816	208.12
2809.264	218.12
2812.709	221.12
2816.151	208.12
2819.59	212.12
2823.026	211.12
2826.46	211.12
2829.89	214.12
2833.318	217.12
2836.742	213.12
2840.164	221.12
2843.583	217.12
2846.999	215.12
2850.412	220.12
2853.822	230.12
2857.229	230.12
2860.634	236.12
2864.035	236.12
2867.434	234.12
2870.83	240.12
2874.223	241.12
2877.613	247.12
2881	250.12
2884.385	245.12
2887.766	255.12
2891.145	251.12
2894.521	253.12
2897.894	262.12
2901.264	254.12
2904.631	259.12
2907.996	255.12
2911.358	256.12
2914.717	257.12
2918.073	266.12
2921.426	273.12
2924.777	275.12
2928.124	275.12
2931.469	287.12
2934.811	285.12
2938.15	283.12
2941.487	295.12
2944.821	294.12
2948.152	302.12
2951.48	316.12
2954.805	314.12
2958.128	318.12
2961.447	318.12
2964.765	318.12
2968.079	318.12
2971.39	328.12
2974.699	339.12
2978.005	342.12
2981.308	342.12
2984.609	362.12
2987.907	369.12
2991.202	380.12
2994.494	383.12
2997.784	387.12
3001.07	393.12
3004.355	400.12
3007.636	409.12
3010.915	417.12
3014.191	428.12
3017.464	444.12
3020.734	449.12
3024.002	447.12
3027.267	454.12
3030.53	468.12
3033.789	478.12
3037.046	482.12
3040.301	497.12
3043.552	501.12
3046.801	519.12
3050.048	532.12
3053.291	540.12
3056.532	551.12
3059.771	577.12
3063.006	595.12
3066.239	610.12
3069.469	626.12
3072.697	635.12
3075.922	643.12
3079.144	665.12
3082.364	684.12
3085.581	707.12
3088.795	721.12
3092.007	743.12
3095.216	752.12
3098.423	772.12
3101.627	779.12
3104.828	811.12
3108.026	819.12
3111.222	843.12
3114.416	853.12
3117.607	868.12
3120.795	880.12
3123.98	907.12
3127.163	927.12
3130.344	957.12
3133.521	958.12
3136.696	985.12
3139.869	1012.12
3143.039	1032.12
3146.206	1037.12
3149.371	1042.12
3152.533	1069.12
3155.693	1095.12
3158.85	1093.12
3162.005	1102.12
3165.157	1098.12
3168.306	1096.12
3171.453	1106.12
3174.597	1094.12
3177.739	1113.12
3180.878	1126.12
3184.014	1119.12
3187.149	1124.12
3190.28	1116.12
3193.409	1132.12
3196.536	1125.12
3199.659	1131.12
3202.781	1133.12
3205.9	1156.12
3209.016	1144.12
3212.13	1134.12
3215.241	1131.12
3218.35	1119.12
3221.456	1115.12
3224.56	1115.12
3227.661	1086.12
3230.76	1082.12
3233.856	1072.12
3236.95	1046.12
3240.041	1046.12
3243.13	1027.12
3246.216	1028.12
3249.3	1022.12
3252.382	1022.12
3255.46	1003.12
3258.537	1001.12
3261.611	987.12
3264.682	995.12
3267.751	999.12
3270.818	985.12
3273.882	993.12
3276.943	970.12
3280.002	966.12
3283.059	970.12
3286.113	955.12
3289.165	934.12
3292.214	921.12
3295.261	919.12
3298.306	905.12
3301.348	886.12
3304.387	877.12
3307.425	861.12
3310.459	859.12
3313.492	843.12
3316.521	833.12
3319.549	827.12
3322.574	807.12
3325.597	804.12
3328.617	810.12
3331.635	795.12
3334.65	807.12
3337.663	789.12
3340.674	778.12
3343.682	787.12
3346.688	772.12
3349.691	776.12
3352.692	773.12
3355.691	773.12
3358.687	769.12
3361.681	761.12
3364.673	739.12
3367.662	739.12
3370.649	735.12
3373.633	721.12
3376.615	708.12
3379.595	695.12
3382.572	698.12
3385.547	677.12
3388.52	681.12
3391.49	651.12
3394.458	642.12
3397.424	637.12
3400.387	627.12
3403.348	630.12
3406.307	628.12
3409.263	622.12
3412.217	602.12
3415.168	607.12
3418.118	601.12
3421.065	593.12
3424.009	594.12
3426.951	575.12
3429.891	564.12
3432.829	552.12
3435.764	539.12
3438.697	546.12
3441.628	522.12
3444.557	519.12
3447.483	503.12
3450.407	484.12
3453.328	483.12
3456.247	472.12
3459.164	453.12
3462.079	452.12
3464.991	410.12
3467.902	428.12
3470.809	404.12
3473.715	392.12
3476.618	372.12
3479.519	370.12
3482.418	355.12
3485.315	344.12
3488.209	336.12
3491.101	321.12
3493.99	314.12
3496.878	312.12
3499.763	302.12
3502.646	299.12
3505.527	286.12
3508.405	276.12
3511.281	260.12
3514.155	257.12
3517.027	230.12
3519.897	236.12
3522.764	228.12
3525.629	218.12
3528.492	205.12
3531.352	192.12
3534.211	187.12
3537.067	175.12
3539.921	159.12
3542.773	164.12
3545.622	149.12
3548.469	136.12
3551.315	134.12
3554.157	129.12
3556.998	120.12
3559.837	112.12
3562.673	108.12
3565.507	106.12
3568.339	101.12
3571.169	92.12
3573.996	88.12
3576.822	84.12
3579.645	80.12
3582.466	76.12
3585.285	69.12
3588.101	64.12
3590.916	55.12
3593.728	52.12
3596.538	54.12
3599.346	48.12
3602.152	46.12
3604.956	42.12
3607.757	35.12
3610.556	37.12
3613.354	28.12
3616.149	22.12
3618.942	21.12
3621.732	15.12
3624.521	17.12
3627.307	15.12
3630.092	9.12
3632.874	9.12
3635.654	4.12
3638.432	10.12
3641.208	7.12
3643.982	-0.88
3646.753	-3.88
3649.523	5.12
3652.29	1.12
3655.055	-9.88
3657.818	-12.88
3660.579	-15.88
3663.338	-16.88
3666.095	-15.88
3668.849	-19.88
3671.602	-20.88
3674.352	-25.88
3677.101	-27.88
3679.847	-29.88
3682.591	-27.88
3685.333	-31.88
3688.073	-29.88
3690.811	-29.88
3693.547	-31.88
3696.281	-37.88
3699.013	-37.88
3701.742	-37.88
3704.47	-39.88
3707.195	-39.88
3709.919	-40.88
3712.64	-42.88
3715.359	-41.88
3718.076	-44.88
3720.792	-43.88
3723.505	-40.88
3726.216	-48.88
3728.925	-49.88
3731.632	-46.88
3734.336	-47.88
3737.039	-52.88
3739.74	-49.88
3742.439	-47.88
3745.136	-48.88
3747.83	-50.88
3750.523	-53.88
3753.213	-52.88
3755.902	-53.88
3758.589	-55.88
3761.273	-53.88
3763.956	-53.88
3766.636	-51.88
3769.315	-49.88
3771.991	-53.88
3774.665	-54.88
3777.338	-55.88
3780.008	-56.88
3782.677	-54.88
3785.343	-56.88
3788.007	-53.88
3790.67	-56.88
3793.33	-54.88
3795.989	-58.88
3798.645	-57.88
3801.299	-58.88
3803.952	-57.88
3806.602	-60.88
3809.251	-57.88
3811.897	-60.88
3814.542	-59.88
3817.184	-55.88
3819.825	-58.88
3822.463	-59.88
3825.1	-64.88
3827.735	-61.88
3830.367	-66.88
3832.998	-58.88
3835.627	-57.88
3838.253	-57.88
3840.878	-58.88
3843.501	-60.88
3846.122	-60.88
3848.741	-67.88
3851.358	-66.88
3853.973	-60.88
3856.586	-58.88
3859.197	-58.88
3861.806	-62.88
3864.414	-64.88
3867.019	-64.88
3869.622	-62.88
3872.224	-60.88
3874.823	-61.88
3877.421	-59.88
3880.016	-60.88
3882.61	-56.88
3885.202	-54.88
3887.792	-57.88
3890.38	-59.88
3892.966	-62.88
3895.55	-65.88
3898.132	-65.88
3900.713	-66.88
3903.291	-64.88
3905.868	-62.88
3908.442	-61.88
3911.015	-66.88
3913.586	-65.88
3916.155	-64.88
3918.722	-63.88
3921.287	-65.88
3923.85	-63.88
3926.411	-65.88
3928.971	-63.88
3931.528	-66.88
3934.084	-66.88
3936.638	-71.88
3939.19	-65.88
3941.74	-70.88
3944.288	-68.88
3946.834	-67.88
3949.378	-64.88
3951.921	-63.88
3954.462	-63.88
3957	-64.88
3959.537	-67.88
3962.072	-64.88
3964.606	-66.88
3967.137	-68.88
3969.667	-67.88
3972.194	-69.88
3974.72	-68.88
3977.244	-63.88
3979.766	-65.88
3982.286	-63.88
3984.805	-66.88
3987.321	-67.88
3989.836	-65.88
3992.349	-64.88
3994.86	-61.88
3997.369	-59.88
3999.877	-64.88
4002.382	-63.88
4004.886	-65.88
4007.388	-69.88
4009.888	-64.88
4012.386	-62.88
4014.883	-63.88
4017.377	-66.88
4019.87	-64.88
4022.361	-64.88
4024.85	-64.88
4027.338	-65.88
4029.823	-61.88
4032.307	-64.88
4034.789	-67.88
4037.269	-65.88
4039.747	-70.88
4042.224	-68.88
4044.699	-64.88
4047.172	-66.88
4049.643	-63.88
4052.112	-62.88
4054.58	-68.88
4057.046	-66.88
4059.51	-66.88
4061.972	-61.88
4064.432	-63.88
4066.891	-64.88
4069.348	-66.88
4071.803	-66.88
4074.256	-67.88
4076.708	-69.88
4079.158	-65.88
4081.606	-60.88
4084.052	-67.88
4086.497	-64.88
4088.939	-63.88
4091.38	-68.88
4093.819	-66.88
4096.257	-67.88
4098.693	-68.88
4101.127	-69.88
4103.559	-69.88
4105.989	-18.88
4108.418	-17.88
4110.845	-11.88
4113.27	-10.88
4115.694	-5.88
4118.115	-2.88
4120.535	-68.88
4122.954	-68.88
4125.37	-65.88
4127.785	-66.88
4130.198	-64.88
4132.609	-65.88
4135.019	-71.88
4137.427	-68.88
4139.833	-69.88
4142.237	-69.88
