Data from 100CFU2_FROM15TH_ramanshift_RamanShift_13-29-40-748.txt Node
Date: Sun Dec 25 13:29:40 IST 2016
User: aro
Spectrometer: QEPB0276
Trigger mode: 0
Integration Time (sec): 5.000000E0
Scans to average: 1
Electric dark correction enabled: true
Nonlinearity correction enabled: false
Boxcar width: 0
XAxis mode: Raman Shifts
Number of Pixels in Spectrum: 1044
>>>>>Begin Spectral Data<<<<<
160.701	8.25
166.742	20.25
172.777	72.25
178.805	205.25
184.826	626.25
190.841	1510.25
196.849	2796.25
202.85	3964.25
208.845	4564.25
214.833	4588.25
220.815	4402.25
226.789	4274.25
232.758	4127.25
238.719	4035.25
244.674	3878.25
250.623	3764.25
256.565	3588.25
262.5	3471.25
268.429	3311.25
274.351	3177.25
280.267	3039.25
286.176	2948.25
292.079	2833.25
297.975	2744.25
303.865	2680.25
309.748	2594.25
315.625	2522.25
321.495	2493.25
327.359	2419.25
333.217	2385.25
339.068	2391.25
344.912	2348.25
350.751	2344.25
356.583	2349.25
362.408	2346.25
368.227	2310.25
374.04	2346.25
379.847	2333.25
385.647	2355.25
391.44	2368.25
397.228	2360.25
403.009	2398.25
408.784	2410.25
414.553	2415.25
420.315	2417.25
426.071	2442.25
431.821	2417.25
437.565	2440.25
443.302	2439.25
449.033	2423.25
454.758	2414.25
460.477	2399.25
466.189	2403.25
471.896	2397.25
477.596	2373.25
483.29	2358.25
488.978	2376.25
494.66	2370.25
500.335	2323.25
506.005	2314.25
511.668	2258.25
517.325	2251.25
522.977	2201.25
528.622	2163.25
534.261	2161.25
539.894	2138.25
545.521	2134.25
551.141	2086.25
556.756	2093.25
562.365	2093.25
567.968	2093.25
573.565	2039.25
579.155	2043.25
584.74	2041.25
590.319	2031.25
595.892	2014.25
601.459	2005.25
607.02	2000.25
612.575	1972.25
618.124	1960.25
623.667	1954.25
629.204	1915.25
634.735	1926.25
640.261	1895.25
645.781	1900.25
651.294	1891.25
656.802	1858.25
662.304	1876.25
667.8	1847.25
673.29	1875.25
678.775	1839.25
684.254	1858.25
689.726	1839.25
695.193	1815.25
700.655	1826.25
706.11	1805.25
711.56	1777.25
717.004	1791.25
722.442	1774.25
727.874	1766.25
733.301	1769.25
738.722	1738.25
744.137	1744.25
749.547	1755.25
754.951	1731.25
760.349	1721.25
765.741	1736.25
771.128	1723.25
776.509	1726.25
781.885	1722.25
787.254	1741.25
792.618	1722.25
797.977	1721.25
803.33	1683.25
808.677	1684.25
814.019	1664.25
819.355	1654.25
824.686	1648.25
830.011	1652.25
835.33	1634.25
840.644	1611.25
845.952	1626.25
851.255	1605.25
856.552	1587.25
861.844	1609.25
867.13	1590.25
872.41	1592.25
877.686	1575.25
882.955	1584.25
888.219	1557.25
893.478	1542.25
898.731	1507.25
903.979	1487.25
909.221	1469.25
914.458	1469.25
919.69	1463.25
924.916	1443.25
930.136	1447.25
935.351	1424.25
940.561	1444.25
945.766	1439.25
950.965	1437.25
956.158	1417.25
961.347	1408.25
966.529	1407.25
971.707	1385.25
976.879	1357.25
982.046	1356.25
987.208	1327.25
992.364	1333.25
997.515	1327.25
1002.66	1342.25
1007.801	1349.25
1012.936	1359.25
1018.066	1373.25
1023.19	1376.25
1028.309	1374.25
1033.423	1389.25
1038.532	1384.25
1043.636	1366.25
1048.734	1362.25
1053.827	1359.25
1058.915	1349.25
1063.998	1333.25
1069.075	1318.25
1074.147	1316.25
1079.214	1319.25
1084.276	1333.25
1089.333	1356.25
1094.385	1352.25
1099.431	1360.25
1104.472	1354.25
1109.509	1360.25
1114.54	1351.25
1119.565	1322.25
1124.586	1328.25
1129.602	1332.25
1134.613	1296.25
1139.618	1289.25
1144.619	1273.25
1149.614	1305.25
1154.604	1295.25
1159.589	1296.25
1164.57	1293.25
1169.545	1311.25
1174.515	1325.25
1179.48	1308.25
1184.44	1308.25
1189.395	1309.25
1194.345	1308.25
1199.29	1283.25
1204.23	1288.25
1209.165	1265.25
1214.095	1284.25
1219.021	1307.25
1223.941	1303.25
1228.856	1311.25
1233.766	1333.25
1238.672	1323.25
1243.572	1327.25
1248.467	1335.25
1253.358	1317.25
1258.244	1310.25
1263.124	1285.25
1268	1278.25
1272.871	1254.25
1277.737	1229.25
1282.599	1229.25
1287.455	1230.25
1292.306	1229.25
1297.153	1238.25
1301.995	1257.25
1306.832	1259.25
1311.664	1251.25
1316.491	1253.25
1321.314	1269.25
1326.132	1254.25
1330.945	1256.25
1335.753	1237.25
1340.556	1221.25
1345.354	1194.25
1350.148	1191.25
1354.937	1187.25
1359.722	1161.25
1364.501	1170.25
1369.276	1147.25
1374.046	1150.25
1378.811	1148.25
1383.572	1150.25
1388.327	1140.25
1393.079	1148.25
1397.825	1134.25
1402.567	1131.25
1407.304	1119.25
1412.036	1116.25
1416.764	1096.25
1421.487	1101.25
1426.205	1110.25
1430.919	1102.25
1435.628	1115.25
1440.333	1153.25
1445.032	1142.25
1449.727	1148.25
1454.418	1159.25
1459.104	1160.25
1463.785	1162.25
1468.462	1139.25
1473.134	1142.25
1477.802	1122.25
1482.465	1131.25
1487.123	1111.25
1491.777	1102.25
1496.426	1112.25
1501.071	1115.25
1505.711	1112.25
1510.347	1135.25
1514.978	1135.25
1519.604	1147.25
1524.226	1150.25
1528.844	1164.25
1533.457	1167.25
1538.065	1159.25
1542.669	1164.25
1547.269	1159.25
1551.864	1163.25
1556.454	1160.25
1561.041	1167.25
1565.622	1182.25
1570.199	1183.25
1574.772	1201.25
1579.34	1217.25
1583.904	1233.25
1588.464	1265.25
1593.019	1257.25
1597.569	1283.25
1602.115	1288.25
1606.657	1304.25
1611.195	1310.25
1615.728	1333.25
1620.256	1321.25
1624.78	1362.25
1629.3	1351.25
1633.816	1380.25
1638.327	1394.25
1642.834	1419.25
1647.336	1409.25
1651.834	1432.25
1656.328	1433.25
1660.817	1428.25
1665.302	1414.25
1669.783	1394.25
1674.259	1361.25
1678.732	1324.25
1683.199	1291.25
1687.663	1246.25
1692.122	1212.25
1696.577	1172.25
1701.028	1128.25
1705.474	1080.25
1709.917	1053.25
1714.355	1022.25
1718.788	1019.25
1723.218	1001.25
1727.643	980.25
1732.064	968.25
1736.481	943.25
1740.893	913.25
1745.301	889.25
1749.705	887.25
1754.105	852.25
1758.501	846.25
1762.893	828.25
1767.28	820.25
1771.663	795.25
1776.042	798.25
1780.417	799.25
1784.787	801.25
1789.154	793.25
1793.516	792.25
1797.874	801.25
1802.228	793.25
1806.578	785.25
1810.924	786.25
1815.266	768.25
1819.603	764.25
1823.937	752.25
1828.266	732.25
1832.591	738.25
1836.913	734.25
1841.23	736.25
1845.543	726.25
1849.852	733.25
1854.156	737.25
1858.457	728.25
1862.754	722.25
1867.047	730.25
1871.335	738.25
1875.62	723.25
1879.9	739.25
1884.177	744.25
1888.449	722.25
1892.718	721.25
1896.982	714.25
1901.243	720.25
1905.499	716.25
1909.752	725.25
1914	729.25
1918.245	707.25
1922.485	705.25
1926.722	703.25
1930.954	709.25
1935.183	714.25
1939.408	720.25
1943.628	722.25
1947.845	733.25
1952.058	715.25
1956.267	712.25
1960.472	704.25
1964.673	704.25
1968.87	696.25
1973.063	696.25
1977.252	698.25
1981.438	692.25
1985.619	687.25
1989.797	688.25
1993.971	683.25
1998.14	691.25
2002.306	693.25
2006.469	697.25
2010.627	702.25
2014.781	690.25
2018.932	698.25
2023.078	698.25
2027.221	689.25
2031.36	691.25
2035.495	684.25
2039.627	679.25
2043.754	675.25
2047.878	679.25
2051.998	671.25
2056.114	676.25
2060.226	671.25
2064.334	679.25
2068.439	668.25
2072.54	679.25
2076.637	685.25
2080.73	688.25
2084.82	681.25
2088.906	680.25
2092.988	684.25
2097.066	683.25
2101.14	675.25
2105.211	671.25
2109.278	676.25
2113.342	670.25
2117.401	662.25
2121.457	668.25
2125.509	669.25
2129.558	654.25
2133.602	657.25
2137.643	646.25
2141.681	645.25
2145.714	652.25
2149.744	644.25
2153.77	648.25
2157.793	636.25
2161.812	633.25
2165.827	626.25
2169.838	633.25
2173.846	613.25
2177.851	615.25
2181.851	602.25
2185.848	601.25
2189.841	582.25
2193.831	582.25
2197.817	570.25
2201.799	567.25
2205.778	563.25
2209.753	567.25
2213.725	569.25
2217.693	574.25
2221.657	560.25
2225.618	572.25
2229.575	570.25
2233.529	558.25
2237.479	550.25
2241.425	564.25
2245.368	546.25
2249.307	544.25
2253.243	531.25
2257.175	533.25
2261.104	512.25
2265.029	515.25
2268.95	498.25
2272.868	510.25
2276.783	504.25
2280.694	500.25
2284.601	490.25
2288.505	475.25
2292.405	485.25
2296.302	468.25
2300.195	465.25
2304.085	459.25
2307.971	452.25
2311.854	443.25
2315.734	444.25
2319.609	445.25
2323.482	432.25
2327.351	429.25
2331.216	426.25
2335.078	415.25
2338.937	417.25
2342.792	413.25
2346.643	401.25
2350.492	412.25
2354.336	412.25
2358.178	419.25
2362.015	421.25
2365.85	414.25
2369.681	424.25
2373.508	411.25
2377.333	419.25
2381.153	415.25
2384.971	416.25
2388.785	409.25
2392.595	398.25
2396.402	401.25
2400.206	389.25
2404.007	395.25
2407.804	398.25
2411.597	404.25
2415.388	392.25
2419.174	395.25
2422.958	393.25
2426.738	401.25
2430.515	394.25
2434.289	387.25
2438.059	385.25
2441.825	381.25
2445.589	391.25
2449.349	375.25
2453.106	371.25
2456.859	373.25
2460.61	374.25
2464.356	368.25
2468.1	361.25
2471.84	361.25
2475.577	361.25
2479.311	350.25
2483.041	360.25
2486.768	352.25
2490.492	355.25
2494.213	357.25
2497.93	360.25
2501.644	356.25
2505.355	355.25
2509.062	357.25
2512.766	351.25
2516.467	354.25
2520.165	354.25
2523.859	349.25
2527.551	336.25
2531.239	336.25
2534.923	341.25
2538.605	340.25
2542.283	334.25
2545.958	326.25
2549.63	332.25
2553.299	329.25
2556.964	322.25
2560.626	325.25
2564.285	328.25
2567.941	325.25
2571.594	315.25
2575.243	317.25
2578.89	315.25
2582.533	311.25
2586.173	312.25
2589.809	310.25
2593.443	301.25
2597.073	308.25
2600.701	294.25
2604.325	296.25
2607.946	300.25
2611.564	305.25
2615.178	297.25
2618.79	298.25
2622.398	288.25
2626.004	293.25
2629.606	291.25
2633.205	288.25
2636.801	292.25
2640.394	289.25
2643.983	282.25
2647.57	288.25
2651.153	273.25
2654.734	272.25
2658.311	274.25
2661.885	272.25
2665.456	272.25
2669.025	271.25
2672.589	264.25
2676.151	260.25
2679.71	264.25
2683.266	265.25
2686.819	256.25
2690.368	253.25
2693.915	254.25
2697.458	251.25
2700.999	250.25
2704.536	246.25
2708.071	243.25
2711.602	247.25
2715.13	241.25
2718.656	246.25
2722.178	238.25
2725.697	246.25
2729.214	234.25
2732.727	240.25
2736.237	250.25
2739.744	251.25
2743.249	241.25
2746.75	236.25
2750.248	233.25
2753.743	235.25
2757.236	235.25
2760.725	249.25
2764.211	235.25
2767.695	230.25
2771.175	226.25
2774.652	231.25
2778.127	224.25
2781.598	224.25
2785.067	229.25
2788.532	228.25
2791.995	225.25
2795.455	232.25
2798.911	237.25
2802.365	236.25
2805.816	229.25
2809.264	237.25
2812.709	232.25
2816.151	234.25
2819.59	234.25
2823.026	238.25
2826.46	230.25
2829.89	236.25
2833.318	230.25
2836.742	237.25
2840.164	240.25
2843.583	236.25
2846.999	230.25
2850.412	241.25
2853.822	248.25
2857.229	253.25
2860.634	246.25
2864.035	242.25
2867.434	250.25
2870.83	250.25
2874.223	261.25
2877.613	265.25
2881	263.25
2884.385	268.25
2887.766	268.25
2891.145	268.25
2894.521	261.25
2897.894	257.25
2901.264	270.25
2904.631	269.25
2907.996	282.25
2911.358	268.25
2914.717	277.25
2918.073	278.25
2921.426	283.25
2924.777	294.25
2928.124	298.25
2931.469	296.25
2934.811	302.25
2938.15	309.25
2941.487	310.25
2944.821	318.25
2948.152	313.25
2951.48	323.25
2954.805	327.25
2958.128	327.25
2961.447	320.25
2964.765	325.25
2968.079	344.25
2971.39	349.25
2974.699	352.25
2978.005	363.25
2981.308	360.25
2984.609	369.25
2987.907	372.25
2991.202	381.25
2994.494	400.25
2997.784	410.25
3001.07	425.25
3004.355	429.25
3007.636	434.25
3010.915	436.25
3014.191	462.25
3017.464	460.25
3020.734	467.25
3024.002	473.25
3027.267	482.25
3030.53	494.25
3033.789	486.25
3037.046	510.25
3040.301	517.25
3043.552	523.25
3046.801	532.25
3050.048	549.25
3053.291	564.25
3056.532	585.25
3059.771	600.25
3063.006	618.25
3066.239	629.25
3069.469	654.25
3072.697	670.25
3075.922	693.25
3079.144	707.25
3082.364	719.25
3085.581	732.25
3088.795	747.25
3092.007	766.25
3095.216	786.25
3098.423	797.25
3101.627	815.25
3104.828	837.25
3108.026	849.25
3111.222	865.25
3114.416	882.25
3117.607	907.25
3120.795	915.25
3123.98	944.25
3127.163	955.25
3130.344	995.25
3133.521	1014.25
3136.696	1022.25
3139.869	1048.25
3143.039	1073.25
3146.206	1085.25
3149.371	1105.25
3152.533	1113.25
3155.693	1121.25
3158.85	1126.25
3162.005	1131.25
3165.157	1136.25
3168.306	1151.25
3171.453	1150.25
3174.597	1144.25
3177.739	1169.25
3180.878	1160.25
3184.014	1164.25
3187.149	1160.25
3190.28	1179.25
3193.409	1159.25
3196.536	1179.25
3199.659	1182.25
3202.781	1188.25
3205.9	1186.25
3209.016	1180.25
3212.13	1166.25
3215.241	1177.25
3218.35	1168.25
3221.456	1160.25
3224.56	1145.25
3227.661	1140.25
3230.76	1120.25
3233.856	1120.25
3236.95	1101.25
3240.041	1103.25
3243.13	1075.25
3246.216	1068.25
3249.3	1069.25
3252.382	1085.25
3255.46	1053.25
3258.537	1046.25
3261.611	1051.25
3264.682	1034.25
3267.751	1026.25
3270.818	1048.25
3273.882	1032.25
3276.943	1024.25
3280.002	1010.25
3283.059	1023.25
3286.113	993.25
3289.165	989.25
3292.214	970.25
3295.261	959.25
3298.306	946.25
3301.348	927.25
3304.387	915.25
3307.425	900.25
3310.459	899.25
3313.492	891.25
3316.521	883.25
3319.549	868.25
3322.574	860.25
3325.597	848.25
3328.617	844.25
3331.635	837.25
3334.65	831.25
3337.663	833.25
3340.674	834.25
3343.682	822.25
3346.688	806.25
3349.691	811.25
3352.692	807.25
3355.691	812.25
3358.687	803.25
3361.681	794.25
3364.673	777.25
3367.662	768.25
3370.649	762.25
3373.633	754.25
3376.615	753.25
3379.595	741.25
3382.572	735.25
3385.547	727.25
3388.52	702.25
3391.49	702.25
3394.458	684.25
3397.424	682.25
3400.387	677.25
3403.348	659.25
3406.307	648.25
3409.263	650.25
3412.217	643.25
3415.168	637.25
3418.118	630.25
3421.065	626.25
3424.009	621.25
3426.951	603.25
3429.891	607.25
3432.829	583.25
3435.764	582.25
3438.697	572.25
3441.628	557.25
3444.557	548.25
3447.483	532.25
3450.407	520.25
3453.328	490.25
3456.247	490.25
3459.164	482.25
3462.079	469.25
3464.991	444.25
3467.902	441.25
3470.809	422.25
3473.715	414.25
3476.618	396.25
3479.519	385.25
3482.418	374.25
3485.315	370.25
3488.209	347.25
3491.101	348.25
3493.99	337.25
3496.878	329.25
3499.763	317.25
3502.646	308.25
3505.527	300.25
3508.405	288.25
3511.281	279.25
3514.155	268.25
3517.027	256.25
3519.897	252.25
3522.764	239.25
3525.629	225.25
3528.492	220.25
3531.352	207.25
3534.211	190.25
3537.067	175.25
3539.921	170.25
3542.773	166.25
3545.622	158.25
3548.469	151.25
3551.315	137.25
3554.157	127.25
3556.998	129.25
3559.837	114.25
3562.673	111.25
3565.507	120.25
3568.339	103.25
3571.169	99.25
3573.996	95.25
3576.822	85.25
3579.645	79.25
3582.466	80.25
3585.285	76.25
3588.101	69.25
3590.916	59.25
3593.728	55.25
3596.538	55.25
3599.346	48.25
3602.152	43.25
3604.956	39.25
3607.757	33.25
3610.556	31.25
3613.354	27.25
3616.149	24.25
3618.942	25.25
3621.732	19.25
3624.521	15.25
3627.307	14.25
3630.092	10.25
3632.874	10.25
3635.654	1.25
3638.432	1.25
3641.208	1.25
3643.982	-2.75
3646.753	-1.75
3649.523	-3.75
3652.29	-10.75
3655.055	-16.75
3657.818	-15.75
3660.579	-15.75
3663.338	-19.75
3666.095	-18.75
3668.849	-19.75
3671.602	-25.75
3674.352	-29.75
3677.101	-29.75
3679.847	-33.75
3682.591	-37.75
3685.333	-35.75
3688.073	-38.75
3690.811	-38.75
3693.547	-35.75
3696.281	-41.75
3699.013	-42.75
3701.742	-41.75
3704.47	-43.75
3707.195	-44.75
3709.919	-45.75
3712.64	-52.75
3715.359	-45.75
3718.076	-50.75
3720.792	-49.75
3723.505	-51.75
3726.216	-53.75
3728.925	-57.75
3731.632	-55.75
3734.336	-50.75
3737.039	-55.75
3739.74	-53.75
3742.439	-51.75
3745.136	-56.75
3747.83	-57.75
3750.523	-60.75
3753.213	-60.75
3755.902	-57.75
3758.589	-58.75
3761.273	-56.75
3763.956	-56.75
3766.636	-61.75
3769.315	-58.75
3771.991	-61.75
3774.665	-64.75
3777.338	-63.75
3780.008	-60.75
3782.677	-60.75
3785.343	-58.75
3788.007	-63.75
3790.67	-61.75
3793.33	-63.75
3795.989	-66.75
3798.645	-66.75
3801.299	-64.75
3803.952	-63.75
3806.602	-67.75
3809.251	-60.75
3811.897	-64.75
3814.542	-67.75
3817.184	-66.75
3819.825	-68.75
3822.463	-68.75
3825.1	-71.75
3827.735	-65.75
3830.367	-70.75
3832.998	-63.75
3835.627	-67.75
3838.253	-67.75
3840.878	-72.75
3843.501	-67.75
3846.122	-70.75
3848.741	-73.75
3851.358	-73.75
3853.973	-65.75
3856.586	-68.75
3859.197	-69.75
3861.806	-71.75
3864.414	-71.75
3867.019	-73.75
3869.622	-66.75
3872.224	-69.75
3874.823	-69.75
3877.421	-69.75
3880.016	-68.75
3882.61	-68.75
3885.202	-65.75
3887.792	-66.75
3890.38	-71.75
3892.966	-70.75
3895.55	-65.75
3898.132	-72.75
3900.713	-72.75
3903.291	-75.75
3905.868	-71.75
3908.442	-73.75
3911.015	-77.75
3913.586	-75.75
3916.155	-70.75
3918.722	-72.75
3921.287	-65.75
3923.85	-74.75
3926.411	-72.75
3928.971	-73.75
3931.528	-76.75
3934.084	-74.75
3936.638	-77.75
3939.19	-70.75
3941.74	-70.75
3944.288	-73.75
3946.834	-73.75
3949.378	-72.75
3951.921	-74.75
3954.462	-74.75
3957	-71.75
3959.537	-73.75
3962.072	-70.75
3964.606	-71.75
3967.137	-74.75
3969.667	-75.75
3972.194	-74.75
3974.72	-77.75
3977.244	-75.75
3979.766	-74.75
3982.286	-71.75
3984.805	-72.75
3987.321	-70.75
3989.836	-73.75
3992.349	-73.75
3994.86	-71.75
3997.369	-70.75
3999.877	-76.75
4002.382	-71.75
4004.886	-71.75
4007.388	-73.75
4009.888	-70.75
4012.386	-69.75
4014.883	-73.75
4017.377	-75.75
4019.87	-75.75
4022.361	-74.75
4024.85	-71.75
4027.338	-69.75
4029.823	-67.75
4032.307	-68.75
4034.789	-72.75
4037.269	-73.75
4039.747	-77.75
4042.224	-75.75
4044.699	-71.75
4047.172	-69.75
4049.643	-70.75
4052.112	-74.75
4054.58	-74.75
4057.046	-72.75
4059.51	-76.75
4061.972	-69.75
4064.432	-74.75
4066.891	-71.75
4069.348	-76.75
4071.803	-72.75
4074.256	-75.75
4076.708	-78.75
4079.158	-73.75
4081.606	-72.75
4084.052	-73.75
4086.497	-75.75
4088.939	-75.75
4091.38	-76.75
4093.819	-74.75
4096.257	-75.75
4098.693	-74.75
4101.127	-76.75
4103.559	-74.75
4105.989	-23.75
4108.418	-20.75
4110.845	-20.75
4113.27	-17.75
4115.694	-9.75
4118.115	-7.75
4120.535	-74.75
4122.954	-73.75
4125.37	-73.75
4127.785	-74.75
4130.198	-74.75
4132.609	-77.75
4135.019	-76.75
4137.427	-75.75
4139.833	-75.75
4142.237	-77.75
