Data from 100CFU3_FROM15TH_ramanshift_RamanShift_13-30-45-741.txt Node
Date: Sun Dec 25 13:30:45 IST 2016
User: aro
Spectrometer: QEPB0276
Trigger mode: 0
Integration Time (sec): 5.000000E0
Scans to average: 1
Electric dark correction enabled: true
Nonlinearity correction enabled: false
Boxcar width: 0
XAxis mode: Raman Shifts
Number of Pixels in Spectrum: 1044
>>>>>Begin Spectral Data<<<<<
160.701	1.25
166.742	20.25
172.777	66.25
178.805	207.25
184.826	627.25
190.841	1488.25
196.849	2719.25
202.85	3914.25
208.845	4469.25
214.833	4493.25
220.815	4300.25
226.789	4180.25
232.758	4061.25
238.719	3960.25
244.674	3831.25
250.623	3661.25
256.565	3524.25
262.5	3373.25
268.429	3211.25
274.351	3054.25
280.267	2947.25
286.176	2848.25
292.079	2755.25
297.975	2647.25
303.865	2587.25
309.748	2504.25
315.625	2443.25
321.495	2390.25
327.359	2363.25
333.217	2315.25
339.068	2267.25
344.912	2273.25
350.751	2256.25
356.583	2256.25
362.408	2243.25
368.227	2261.25
374.04	2230.25
379.847	2251.25
385.647	2272.25
391.44	2275.25
397.228	2280.25
403.009	2302.25
408.784	2291.25
414.553	2323.25
420.315	2334.25
426.071	2332.25
431.821	2322.25
437.565	2322.25
443.302	2333.25
449.033	2322.25
454.758	2319.25
460.477	2308.25
466.189	2297.25
471.896	2297.25
477.596	2282.25
483.29	2272.25
488.978	2277.25
494.66	2265.25
500.335	2236.25
506.005	2220.25
511.668	2194.25
517.325	2153.25
522.977	2105.25
528.622	2092.25
534.261	2074.25
539.894	2052.25
545.521	2032.25
551.141	2012.25
556.756	2005.25
562.365	1990.25
567.968	1984.25
573.565	1965.25
579.155	1952.25
584.74	1948.25
590.319	1928.25
595.892	1913.25
601.459	1913.25
607.02	1915.25
612.575	1898.25
618.124	1887.25
623.667	1878.25
629.204	1844.25
634.735	1837.25
640.261	1815.25
645.781	1801.25
651.294	1811.25
656.802	1793.25
662.304	1792.25
667.8	1783.25
673.29	1774.25
678.775	1747.25
684.254	1775.25
689.726	1750.25
695.193	1742.25
700.655	1732.25
706.11	1730.25
711.56	1719.25
717.004	1691.25
722.442	1680.25
727.874	1680.25
733.301	1693.25
738.722	1669.25
744.137	1675.25
749.547	1649.25
754.951	1640.25
760.349	1646.25
765.741	1650.25
771.128	1655.25
776.509	1653.25
781.885	1658.25
787.254	1633.25
792.618	1633.25
797.977	1632.25
803.33	1614.25
808.677	1604.25
814.019	1610.25
819.355	1573.25
824.686	1564.25
830.011	1562.25
835.33	1560.25
840.644	1565.25
845.952	1544.25
851.255	1523.25
856.552	1530.25
861.844	1526.25
867.13	1507.25
872.41	1507.25
877.686	1493.25
882.955	1498.25
888.219	1494.25
893.478	1471.25
898.731	1436.25
903.979	1405.25
909.221	1381.25
914.458	1378.25
919.69	1368.25
924.916	1382.25
930.136	1378.25
935.351	1378.25
940.561	1366.25
945.766	1355.25
950.965	1370.25
956.158	1341.25
961.347	1332.25
966.529	1323.25
971.707	1304.25
976.879	1278.25
982.046	1281.25
987.208	1257.25
992.364	1274.25
997.515	1258.25
1002.66	1284.25
1007.801	1277.25
1012.936	1291.25
1018.066	1302.25
1023.19	1308.25
1028.309	1321.25
1033.423	1321.25
1038.532	1306.25
1043.636	1287.25
1048.734	1299.25
1053.827	1290.25
1058.915	1290.25
1063.998	1272.25
1069.075	1260.25
1074.147	1267.25
1079.214	1250.25
1084.276	1249.25
1089.333	1275.25
1094.385	1280.25
1099.431	1282.25
1104.472	1299.25
1109.509	1283.25
1114.54	1277.25
1119.565	1264.25
1124.586	1248.25
1129.602	1228.25
1134.613	1224.25
1139.618	1245.25
1144.619	1216.25
1149.614	1235.25
1154.604	1229.25
1159.589	1223.25
1164.57	1235.25
1169.545	1247.25
1174.515	1247.25
1179.48	1248.25
1184.44	1246.25
1189.395	1235.25
1194.345	1236.25
1199.29	1235.25
1204.23	1217.25
1209.165	1205.25
1214.095	1241.25
1219.021	1243.25
1223.941	1246.25
1228.856	1257.25
1233.766	1264.25
1238.672	1255.25
1243.572	1243.25
1248.467	1256.25
1253.358	1244.25
1258.244	1232.25
1263.124	1212.25
1268	1209.25
1272.871	1188.25
1277.737	1180.25
1282.599	1176.25
1287.455	1172.25
1292.306	1163.25
1297.153	1187.25
1301.995	1183.25
1306.832	1199.25
1311.664	1216.25
1316.491	1209.25
1321.314	1211.25
1326.132	1208.25
1330.945	1207.25
1335.753	1163.25
1340.556	1145.25
1345.354	1135.25
1350.148	1135.25
1354.937	1132.25
1359.722	1132.25
1364.501	1117.25
1369.276	1105.25
1374.046	1082.25
1378.811	1103.25
1383.572	1080.25
1388.327	1096.25
1393.079	1106.25
1397.825	1086.25
1402.567	1077.25
1407.304	1065.25
1412.036	1065.25
1416.764	1051.25
1421.487	1054.25
1426.205	1051.25
1430.919	1065.25
1435.628	1074.25
1440.333	1083.25
1445.032	1095.25
1449.727	1090.25
1454.418	1091.25
1459.104	1117.25
1463.785	1110.25
1468.462	1108.25
1473.134	1086.25
1477.802	1077.25
1482.465	1078.25
1487.123	1048.25
1491.777	1063.25
1496.426	1063.25
1501.071	1068.25
1505.711	1072.25
1510.347	1088.25
1514.978	1086.25
1519.604	1099.25
1524.226	1106.25
1528.844	1121.25
1533.457	1108.25
1538.065	1116.25
1542.669	1104.25
1547.269	1098.25
1551.864	1116.25
1556.454	1114.25
1561.041	1111.25
1565.622	1132.25
1570.199	1136.25
1574.772	1164.25
1579.34	1175.25
1583.904	1199.25
1588.464	1212.25
1593.019	1224.25
1597.569	1248.25
1602.115	1241.25
1606.657	1253.25
1611.195	1260.25
1615.728	1263.25
1620.256	1284.25
1624.78	1309.25
1629.3	1325.25
1633.816	1345.25
1638.327	1347.25
1642.834	1368.25
1647.336	1367.25
1651.834	1392.25
1656.328	1380.25
1660.817	1393.25
1665.302	1349.25
1669.783	1324.25
1674.259	1314.25
1678.732	1267.25
1683.199	1242.25
1687.663	1202.25
1692.122	1166.25
1696.577	1124.25
1701.028	1080.25
1705.474	1025.25
1709.917	1007.25
1714.355	983.25
1718.788	978.25
1723.218	963.25
1727.643	944.25
1732.064	923.25
1736.481	914.25
1740.893	883.25
1745.301	864.25
1749.705	850.25
1754.105	832.25
1758.501	813.25
1762.893	795.25
1767.28	787.25
1771.663	773.25
1776.042	759.25
1780.417	754.25
1784.787	755.25
1789.154	772.25
1793.516	763.25
1797.874	771.25
1802.228	767.25
1806.578	752.25
1810.924	743.25
1815.266	740.25
1819.603	715.25
1823.937	719.25
1828.266	713.25
1832.591	715.25
1836.913	695.25
1841.23	692.25
1845.543	702.25
1849.852	691.25
1854.156	696.25
1858.457	699.25
1862.754	705.25
1867.047	701.25
1871.335	688.25
1875.62	697.25
1879.9	700.25
1884.177	716.25
1888.449	704.25
1892.718	696.25
1896.982	700.25
1901.243	682.25
1905.499	682.25
1909.752	688.25
1914	701.25
1918.245	685.25
1922.485	684.25
1926.722	691.25
1930.954	688.25
1935.183	682.25
1939.408	703.25
1943.628	705.25
1947.845	705.25
1952.058	701.25
1956.267	686.25
1960.472	684.25
1964.673	686.25
1968.87	678.25
1973.063	679.25
1977.252	671.25
1981.438	656.25
1985.619	665.25
1989.797	658.25
1993.971	656.25
1998.14	672.25
2002.306	659.25
2006.469	678.25
2010.627	677.25
2014.781	670.25
2018.932	674.25
2023.078	678.25
2027.221	665.25
2031.36	662.25
2035.495	677.25
2039.627	657.25
2043.754	659.25
2047.878	645.25
2051.998	648.25
2056.114	647.25
2060.226	660.25
2064.334	644.25
2068.439	656.25
2072.54	655.25
2076.637	649.25
2080.73	655.25
2084.82	664.25
2088.906	658.25
2092.988	660.25
2097.066	661.25
2101.14	663.25
2105.211	647.25
2109.278	657.25
2113.342	649.25
2117.401	649.25
2121.457	653.25
2125.509	641.25
2129.558	641.25
2133.602	638.25
2137.643	629.25
2141.681	629.25
2145.714	625.25
2149.744	627.25
2153.77	628.25
2157.793	622.25
2161.812	627.25
2165.827	603.25
2169.838	620.25
2173.846	601.25
2177.851	592.25
2181.851	591.25
2185.848	572.25
2189.841	564.25
2193.831	562.25
2197.817	560.25
2201.799	551.25
2205.778	566.25
2209.753	557.25
2213.725	568.25
2217.693	556.25
2221.657	555.25
2225.618	553.25
2229.575	543.25
2233.529	548.25
2237.479	549.25
2241.425	538.25
2245.368	525.25
2249.307	533.25
2253.243	516.25
2257.175	505.25
2261.104	510.25
2265.029	501.25
2268.95	504.25
2272.868	489.25
2276.783	491.25
2280.694	476.25
2284.601	484.25
2288.505	467.25
2292.405	457.25
2296.302	468.25
2300.195	453.25
2304.085	450.25
2307.971	441.25
2311.854	439.25
2315.734	428.25
2319.609	428.25
2323.482	421.25
2327.351	420.25
2331.216	414.25
2335.078	410.25
2338.937	400.25
2342.792	413.25
2346.643	390.25
2350.492	403.25
2354.336	396.25
2358.178	398.25
2362.015	402.25
2365.85	405.25
2369.681	416.25
2373.508	406.25
2377.333	404.25
2381.153	401.25
2384.971	399.25
2388.785	395.25
2392.595	386.25
2396.402	387.25
2400.206	396.25
2404.007	388.25
2407.804	384.25
2411.597	394.25
2415.388	386.25
2419.174	372.25
2422.958	374.25
2426.738	383.25
2430.515	382.25
2434.289	374.25
2438.059	382.25
2441.825	370.25
2445.589	372.25
2449.349	370.25
2453.106	367.25
2456.859	360.25
2460.61	369.25
2464.356	367.25
2468.1	351.25
2471.84	350.25
2475.577	349.25
2479.311	358.25
2483.041	348.25
2486.768	353.25
2490.492	348.25
2494.213	346.25
2497.93	349.25
2501.644	350.25
2505.355	347.25
2509.062	351.25
2512.766	348.25
2516.467	346.25
2520.165	340.25
2523.859	333.25
2527.551	328.25
2531.239	341.25
2534.923	332.25
2538.605	334.25
2542.283	329.25
2545.958	323.25
2549.63	314.25
2553.299	324.25
2556.964	322.25
2560.626	315.25
2564.285	326.25
2567.941	318.25
2571.594	315.25
2575.243	306.25
2578.89	304.25
2582.533	301.25
2586.173	298.25
2589.809	300.25
2593.443	294.25
2597.073	299.25
2600.701	295.25
2604.325	294.25
2607.946	297.25
2611.564	294.25
2615.178	288.25
2618.79	293.25
2622.398	297.25
2626.004	281.25
2629.606	290.25
2633.205	284.25
2636.801	279.25
2640.394	277.25
2643.983	273.25
2647.57	271.25
2651.153	267.25
2654.734	271.25
2658.311	267.25
2661.885	265.25
2665.456	262.25
2669.025	261.25
2672.589	262.25
2676.151	261.25
2679.71	256.25
2683.266	259.25
2686.819	254.25
2690.368	252.25
2693.915	247.25
2697.458	254.25
2700.999	240.25
2704.536	237.25
2708.071	241.25
2711.602	232.25
2715.13	241.25
2718.656	238.25
2722.178	231.25
2725.697	234.25
2729.214	234.25
2732.727	238.25
2736.237	232.25
2739.744	240.25
2743.249	240.25
2746.75	228.25
2750.248	236.25
2753.743	229.25
2757.236	224.25
2760.725	238.25
2764.211	240.25
2767.695	230.25
2771.175	229.25
2774.652	233.25
2778.127	219.25
2781.598	219.25
2785.067	222.25
2788.532	227.25
2791.995	225.25
2795.455	228.25
2798.911	225.25
2802.365	223.25
2805.816	217.25
2809.264	238.25
2812.709	228.25
2816.151	227.25
2819.59	227.25
2823.026	226.25
2826.46	226.25
2829.89	236.25
2833.318	235.25
2836.742	232.25
2840.164	232.25
2843.583	230.25
2846.999	230.25
2850.412	234.25
2853.822	232.25
2857.229	252.25
2860.634	250.25
2864.035	245.25
2867.434	242.25
2870.83	255.25
2874.223	249.25
2877.613	256.25
2881	258.25
2884.385	262.25
2887.766	270.25
2891.145	267.25
2894.521	259.25
2897.894	261.25
2901.264	273.25
2904.631	267.25
2907.996	274.25
2911.358	268.25
2914.717	266.25
2918.073	275.25
2921.426	279.25
2924.777	281.25
2928.124	288.25
2931.469	291.25
2934.811	295.25
2938.15	300.25
2941.487	301.25
2944.821	304.25
2948.152	317.25
2951.48	310.25
2954.805	318.25
2958.128	315.25
2961.447	321.25
2964.765	331.25
2968.079	337.25
2971.39	344.25
2974.699	343.25
2978.005	340.25
2981.308	360.25
2984.609	360.25
2987.907	372.25
2991.202	383.25
2994.494	388.25
2997.784	396.25
3001.07	406.25
3004.355	425.25
3007.636	430.25
3010.915	436.25
3014.191	458.25
3017.464	457.25
3020.734	462.25
3024.002	464.25
3027.267	469.25
3030.53	486.25
3033.789	488.25
3037.046	497.25
3040.301	509.25
3043.552	526.25
3046.801	528.25
3050.048	553.25
3053.291	552.25
3056.532	584.25
3059.771	595.25
3063.006	617.25
3066.239	618.25
3069.469	647.25
3072.697	668.25
3075.922	673.25
3079.144	690.25
3082.364	703.25
3085.581	737.25
3088.795	748.25
3092.007	769.25
3095.216	767.25
3098.423	795.25
3101.627	808.25
3104.828	811.25
3108.026	840.25
3111.222	869.25
3114.416	874.25
3117.607	891.25
3120.795	914.25
3123.98	931.25
3127.163	962.25
3130.344	978.25
3133.521	1013.25
3136.696	1031.25
3139.869	1040.25
3143.039	1047.25
3146.206	1069.25
3149.371	1086.25
3152.533	1095.25
3155.693	1119.25
3158.85	1115.25
3162.005	1109.25
3165.157	1128.25
3168.306	1125.25
3171.453	1127.25
3174.597	1123.25
3177.739	1140.25
3180.878	1134.25
3184.014	1152.25
3187.149	1149.25
3190.28	1172.25
3193.409	1161.25
3196.536	1161.25
3199.659	1165.25
3202.781	1176.25
3205.9	1176.25
3209.016	1176.25
3212.13	1159.25
3215.241	1160.25
3218.35	1152.25
3221.456	1145.25
3224.56	1139.25
3227.661	1134.25
3230.76	1114.25
3233.856	1111.25
3236.95	1098.25
3240.041	1061.25
3243.13	1082.25
3246.216	1060.25
3249.3	1070.25
3252.382	1060.25
3255.46	1049.25
3258.537	1037.25
3261.611	1037.25
3264.682	1024.25
3267.751	1023.25
3270.818	1018.25
3273.882	1023.25
3276.943	1009.25
3280.002	1002.25
3283.059	1000.25
3286.113	995.25
3289.165	978.25
3292.214	952.25
3295.261	945.25
3298.306	936.25
3301.348	919.25
3304.387	899.25
3307.425	889.25
3310.459	891.25
3313.492	877.25
3316.521	860.25
3319.549	869.25
3322.574	841.25
3325.597	838.25
3328.617	837.25
3331.635	828.25
3334.65	828.25
3337.663	823.25
3340.674	819.25
3343.682	808.25
3346.688	802.25
3349.691	801.25
3352.692	796.25
3355.691	798.25
3358.687	793.25
3361.681	785.25
3364.673	775.25
3367.662	768.25
3370.649	759.25
3373.633	754.25
3376.615	734.25
3379.595	720.25
3382.572	718.25
3385.547	706.25
3388.52	704.25
3391.49	695.25
3394.458	672.25
3397.424	665.25
3400.387	654.25
3403.348	652.25
3406.307	658.25
3409.263	636.25
3412.217	642.25
3415.168	626.25
3418.118	615.25
3421.065	615.25
3424.009	609.25
3426.951	607.25
3429.891	592.25
3432.829	578.25
3435.764	569.25
3438.697	558.25
3441.628	545.25
3444.557	548.25
3447.483	516.25
3450.407	504.25
3453.328	497.25
3456.247	482.25
3459.164	471.25
3462.079	465.25
3464.991	443.25
3467.902	430.25
3470.809	421.25
3473.715	399.25
3476.618	391.25
3479.519	382.25
3482.418	375.25
3485.315	367.25
3488.209	354.25
3491.101	342.25
3493.99	335.25
3496.878	332.25
3499.763	311.25
3502.646	311.25
3505.527	293.25
3508.405	289.25
3511.281	272.25
3514.155	264.25
3517.027	248.25
3519.897	245.25
3522.764	231.25
3525.629	226.25
3528.492	214.25
3531.352	197.25
3534.211	195.25
3537.067	181.25
3539.921	177.25
3542.773	160.25
3545.622	159.25
3548.469	146.25
3551.315	147.25
3554.157	130.25
3556.998	122.25
3559.837	120.25
3562.673	115.25
3565.507	111.25
3568.339	108.25
3571.169	99.25
3573.996	91.25
3576.822	84.25
3579.645	80.25
3582.466	78.25
3585.285	73.25
3588.101	66.25
3590.916	60.25
3593.728	62.25
3596.538	50.25
3599.346	48.25
3602.152	44.25
3604.956	40.25
3607.757	40.25
3610.556	38.25
3613.354	28.25
3616.149	21.25
3618.942	23.25
3621.732	20.25
3624.521	13.25
3627.307	15.25
3630.092	12.25
3632.874	9.25
3635.654	3.25
3638.432	5.25
3641.208	-0.75
3643.982	1.25
3646.753	-3.75
3649.523	-1.75
3652.29	-9.75
3655.055	-17.75
3657.818	-11.75
3660.579	-11.75
3663.338	-14.75
3666.095	-18.75
3668.849	-24.75
3671.602	-25.75
3674.352	-29.75
3677.101	-30.75
3679.847	-34.75
3682.591	-29.75
3685.333	-29.75
3688.073	-33.75
3690.811	-34.75
3693.547	-37.75
3696.281	-41.75
3699.013	-40.75
3701.742	-45.75
3704.47	-42.75
3707.195	-40.75
3709.919	-43.75
3712.64	-48.75
3715.359	-44.75
3718.076	-48.75
3720.792	-53.75
3723.505	-49.75
3726.216	-53.75
3728.925	-50.75
3731.632	-53.75
3734.336	-50.75
3737.039	-51.75
3739.74	-56.75
3742.439	-52.75
3745.136	-55.75
3747.83	-57.75
3750.523	-56.75
3753.213	-57.75
3755.902	-57.75
3758.589	-54.75
3761.273	-56.75
3763.956	-56.75
3766.636	-54.75
3769.315	-61.75
3771.991	-61.75
3774.665	-63.75
3777.338	-58.75
3780.008	-60.75
3782.677	-59.75
3785.343	-60.75
3788.007	-63.75
3790.67	-62.75
3793.33	-65.75
3795.989	-64.75
3798.645	-62.75
3801.299	-60.75
3803.952	-59.75
3806.602	-60.75
3809.251	-61.75
3811.897	-66.75
3814.542	-68.75
3817.184	-61.75
3819.825	-64.75
3822.463	-65.75
3825.1	-65.75
3827.735	-62.75
3830.367	-66.75
3832.998	-63.75
3835.627	-67.75
3838.253	-67.75
3840.878	-69.75
3843.501	-67.75
3846.122	-68.75
3848.741	-68.75
3851.358	-69.75
3853.973	-67.75
3856.586	-63.75
3859.197	-70.75
3861.806	-69.75
3864.414	-67.75
3867.019	-68.75
3869.622	-65.75
3872.224	-66.75
3874.823	-67.75
3877.421	-66.75
3880.016	-71.75
3882.61	-66.75
3885.202	-64.75
3887.792	-65.75
3890.38	-63.75
3892.966	-65.75
3895.55	-69.75
3898.132	-71.75
3900.713	-73.75
3903.291	-74.75
3905.868	-67.75
3908.442	-68.75
3911.015	-72.75
3913.586	-70.75
3916.155	-68.75
3918.722	-71.75
3921.287	-68.75
3923.85	-74.75
3926.411	-70.75
3928.971	-69.75
3931.528	-70.75
3934.084	-72.75
3936.638	-74.75
3939.19	-72.75
3941.74	-72.75
3944.288	-77.75
3946.834	-74.75
3949.378	-70.75
3951.921	-73.75
3954.462	-70.75
3957	-69.75
3959.537	-69.75
3962.072	-71.75
3964.606	-68.75
3967.137	-74.75
3969.667	-73.75
3972.194	-73.75
3974.72	-73.75
3977.244	-66.75
3979.766	-68.75
3982.286	-68.75
3984.805	-71.75
3987.321	-73.75
3989.836	-73.75
3992.349	-75.75
3994.86	-72.75
3997.369	-65.75
3999.877	-69.75
4002.382	-71.75
4004.886	-70.75
4007.388	-73.75
4009.888	-70.75
4012.386	-68.75
4014.883	-71.75
4017.377	-72.75
4019.87	-70.75
4022.361	-68.75
4024.85	-67.75
4027.338	-67.75
4029.823	-65.75
4032.307	-66.75
4034.789	-72.75
4037.269	-73.75
4039.747	-73.75
4042.224	-73.75
4044.699	-70.75
4047.172	-68.75
4049.643	-69.75
4052.112	-72.75
4054.58	-72.75
4057.046	-72.75
4059.51	-74.75
4061.972	-68.75
4064.432	-68.75
4066.891	-69.75
4069.348	-68.75
4071.803	-75.75
4074.256	-73.75
4076.708	-75.75
4079.158	-72.75
4081.606	-71.75
4084.052	-68.75
4086.497	-69.75
4088.939	-70.75
4091.38	-72.75
4093.819	-71.75
4096.257	-77.75
4098.693	-74.75
4101.127	-74.75
4103.559	-73.75
4105.989	-20.75
4108.418	-24.75
4110.845	-19.75
4113.27	-15.75
4115.694	-12.75
4118.115	-6.75
4120.535	-73.75
4122.954	-72.75
4125.37	-72.75
4127.785	-70.75
4130.198	-70.75
4132.609	-71.75
4135.019	-73.75
4137.427	-74.75
4139.833	-72.75
4142.237	-73.75
