Data from 10CFU1_FROM15TH_ramanshift_RamanShift_13-24-40-769.txt Node
Date: Sun Dec 25 13:24:40 IST 2016
User: aro
Spectrometer: QEPB0276
Trigger mode: 0
Integration Time (sec): 5.000000E0
Scans to average: 1
Electric dark correction enabled: true
Nonlinearity correction enabled: false
Boxcar width: 0
XAxis mode: Raman Shifts
Number of Pixels in Spectrum: 1044
>>>>>Begin Spectral Data<<<<<
160.701	3.25
166.742	19.25
172.777	65.25
178.805	211.25
184.826	605.25
190.841	1476.25
196.849	2702.25
202.85	3881.25
208.845	4422.25
214.833	4452.25
220.815	4296.25
226.789	4159.25
232.758	4060.25
238.719	3964.25
244.674	3842.25
250.623	3728.25
256.565	3569.25
262.5	3457.25
268.429	3262.25
274.351	3171.25
280.267	3075.25
286.176	2949.25
292.079	2871.25
297.975	2791.25
303.865	2710.25
309.748	2632.25
315.625	2566.25
321.495	2525.25
327.359	2485.25
333.217	2443.25
339.068	2430.25
344.912	2394.25
350.751	2397.25
356.583	2390.25
362.408	2389.25
368.227	2379.25
374.04	2358.25
379.847	2410.25
385.647	2413.25
391.44	2413.25
397.228	2406.25
403.009	2443.25
408.784	2456.25
414.553	2448.25
420.315	2478.25
426.071	2476.25
431.821	2484.25
437.565	2485.25
443.302	2482.25
449.033	2457.25
454.758	2468.25
460.477	2464.25
466.189	2452.25
471.896	2444.25
477.596	2442.25
483.29	2411.25
488.978	2407.25
494.66	2441.25
500.335	2403.25
506.005	2387.25
511.668	2321.25
517.325	2302.25
522.977	2289.25
528.622	2260.25
534.261	2242.25
539.894	2209.25
545.521	2200.25
551.141	2194.25
556.756	2185.25
562.365	2175.25
567.968	2150.25
573.565	2145.25
579.155	2128.25
584.74	2124.25
590.319	2106.25
595.892	2096.25
601.459	2083.25
607.02	2084.25
612.575	2075.25
618.124	2066.25
623.667	2040.25
629.204	2035.25
634.735	2006.25
640.261	2007.25
645.781	1993.25
651.294	1981.25
656.802	1965.25
662.304	1962.25
667.8	1963.25
673.29	1948.25
678.775	1964.25
684.254	1951.25
689.726	1931.25
695.193	1940.25
700.655	1919.25
706.11	1916.25
711.56	1910.25
717.004	1894.25
722.442	1880.25
727.874	1874.25
733.301	1858.25
738.722	1847.25
744.137	1844.25
749.547	1849.25
754.951	1837.25
760.349	1844.25
765.741	1849.25
771.128	1852.25
776.509	1856.25
781.885	1850.25
787.254	1851.25
792.618	1838.25
797.977	1848.25
803.33	1817.25
808.677	1803.25
814.019	1799.25
819.355	1783.25
824.686	1783.25
830.011	1763.25
835.33	1760.25
840.644	1752.25
845.952	1757.25
851.255	1756.25
856.552	1746.25
861.844	1742.25
867.13	1741.25
872.41	1731.25
877.686	1717.25
882.955	1700.25
888.219	1671.25
893.478	1681.25
898.731	1635.25
903.979	1632.25
909.221	1614.25
914.458	1621.25
919.69	1596.25
924.916	1582.25
930.136	1595.25
935.351	1600.25
940.561	1606.25
945.766	1595.25
950.965	1604.25
956.158	1578.25
961.347	1575.25
966.529	1555.25
971.707	1539.25
976.879	1523.25
982.046	1519.25
987.208	1498.25
992.364	1472.25
997.515	1500.25
1002.66	1504.25
1007.801	1524.25
1012.936	1514.25
1018.066	1538.25
1023.19	1560.25
1028.309	1567.25
1033.423	1557.25
1038.532	1547.25
1043.636	1557.25
1048.734	1530.25
1053.827	1529.25
1058.915	1503.25
1063.998	1492.25
1069.075	1484.25
1074.147	1486.25
1079.214	1490.25
1084.276	1506.25
1089.333	1531.25
1094.385	1526.25
1099.431	1533.25
1104.472	1531.25
1109.509	1536.25
1114.54	1518.25
1119.565	1504.25
1124.586	1503.25
1129.602	1496.25
1134.613	1466.25
1139.618	1461.25
1144.619	1463.25
1149.614	1450.25
1154.604	1467.25
1159.589	1475.25
1164.57	1487.25
1169.545	1493.25
1174.515	1490.25
1179.48	1492.25
1184.44	1495.25
1189.395	1468.25
1194.345	1473.25
1199.29	1472.25
1204.23	1461.25
1209.165	1471.25
1214.095	1471.25
1219.021	1491.25
1223.941	1490.25
1228.856	1502.25
1233.766	1507.25
1238.672	1506.25
1243.572	1519.25
1248.467	1501.25
1253.358	1510.25
1258.244	1478.25
1263.124	1459.25
1268	1432.25
1272.871	1433.25
1277.737	1415.25
1282.599	1391.25
1287.455	1404.25
1292.306	1418.25
1297.153	1420.25
1301.995	1427.25
1306.832	1441.25
1311.664	1448.25
1316.491	1439.25
1321.314	1446.25
1326.132	1430.25
1330.945	1419.25
1335.753	1416.25
1340.556	1375.25
1345.354	1350.25
1350.148	1344.25
1354.937	1328.25
1359.722	1332.25
1364.501	1327.25
1369.276	1333.25
1374.046	1331.25
1378.811	1327.25
1383.572	1333.25
1388.327	1334.25
1393.079	1336.25
1397.825	1317.25
1402.567	1296.25
1407.304	1274.25
1412.036	1286.25
1416.764	1263.25
1421.487	1271.25
1426.205	1269.25
1430.919	1288.25
1435.628	1282.25
1440.333	1291.25
1445.032	1300.25
1449.727	1306.25
1454.418	1317.25
1459.104	1321.25
1463.785	1323.25
1468.462	1309.25
1473.134	1304.25
1477.802	1278.25
1482.465	1273.25
1487.123	1265.25
1491.777	1257.25
1496.426	1259.25
1501.071	1258.25
1505.711	1279.25
1510.347	1296.25
1514.978	1289.25
1519.604	1311.25
1524.226	1325.25
1528.844	1321.25
1533.457	1322.25
1538.065	1344.25
1542.669	1324.25
1547.269	1320.25
1551.864	1315.25
1556.454	1323.25
1561.041	1329.25
1565.622	1351.25
1570.199	1339.25
1574.772	1363.25
1579.34	1384.25
1583.904	1383.25
1588.464	1407.25
1593.019	1419.25
1597.569	1445.25
1602.115	1437.25
1606.657	1439.25
1611.195	1450.25
1615.728	1440.25
1620.256	1466.25
1624.78	1471.25
1629.3	1497.25
1633.816	1496.25
1638.327	1516.25
1642.834	1534.25
1647.336	1545.25
1651.834	1561.25
1656.328	1553.25
1660.817	1546.25
1665.302	1528.25
1669.783	1513.25
1674.259	1475.25
1678.732	1456.25
1683.199	1395.25
1687.663	1388.25
1692.122	1330.25
1696.577	1287.25
1701.028	1243.25
1705.474	1236.25
1709.917	1201.25
1714.355	1170.25
1718.788	1152.25
1723.218	1140.25
1727.643	1117.25
1732.064	1107.25
1736.481	1093.25
1740.893	1067.25
1745.301	1029.25
1749.705	1011.25
1754.105	1012.25
1758.501	979.25
1762.893	959.25
1767.28	953.25
1771.663	938.25
1776.042	926.25
1780.417	926.25
1784.787	924.25
1789.154	937.25
1793.516	920.25
1797.874	940.25
1802.228	932.25
1806.578	921.25
1810.924	922.25
1815.266	925.25
1819.603	906.25
1823.937	903.25
1828.266	888.25
1832.591	883.25
1836.913	857.25
1841.23	864.25
1845.543	861.25
1849.852	861.25
1854.156	872.25
1858.457	877.25
1862.754	876.25
1867.047	865.25
1871.335	867.25
1875.62	868.25
1879.9	859.25
1884.177	869.25
1888.449	868.25
1892.718	861.25
1896.982	841.25
1901.243	849.25
1905.499	857.25
1909.752	845.25
1914	844.25
1918.245	837.25
1922.485	839.25
1926.722	849.25
1930.954	847.25
1935.183	845.25
1939.408	856.25
1943.628	863.25
1947.845	852.25
1952.058	854.25
1956.267	847.25
1960.472	842.25
1964.673	842.25
1968.87	832.25
1973.063	827.25
1977.252	829.25
1981.438	821.25
1985.619	812.25
1989.797	801.25
1993.971	808.25
1998.14	812.25
2002.306	810.25
2006.469	836.25
2010.627	829.25
2014.781	819.25
2018.932	816.25
2023.078	811.25
2027.221	805.25
2031.36	812.25
2035.495	795.25
2039.627	784.25
2043.754	790.25
2047.878	790.25
2051.998	794.25
2056.114	775.25
2060.226	775.25
2064.334	790.25
2068.439	777.25
2072.54	791.25
2076.637	791.25
2080.73	792.25
2084.82	784.25
2088.906	794.25
2092.988	788.25
2097.066	785.25
2101.14	784.25
2105.211	775.25
2109.278	783.25
2113.342	767.25
2117.401	770.25
2121.457	772.25
2125.509	762.25
2129.558	764.25
2133.602	757.25
2137.643	760.25
2141.681	759.25
2145.714	757.25
2149.744	755.25
2153.77	755.25
2157.793	741.25
2161.812	738.25
2165.827	720.25
2169.838	724.25
2173.846	720.25
2177.851	704.25
2181.851	711.25
2185.848	689.25
2189.841	675.25
2193.831	666.25
2197.817	667.25
2201.799	678.25
2205.778	660.25
2209.753	668.25
2213.725	665.25
2217.693	666.25
2221.657	662.25
2225.618	658.25
2229.575	652.25
2233.529	661.25
2237.479	651.25
2241.425	656.25
2245.368	645.25
2249.307	635.25
2253.243	628.25
2257.175	621.25
2261.104	596.25
2265.029	612.25
2268.95	602.25
2272.868	582.25
2276.783	594.25
2280.694	587.25
2284.601	575.25
2288.505	563.25
2292.405	568.25
2296.302	575.25
2300.195	561.25
2304.085	551.25
2307.971	535.25
2311.854	531.25
2315.734	513.25
2319.609	517.25
2323.482	511.25
2327.351	506.25
2331.216	495.25
2335.078	497.25
2338.937	492.25
2342.792	486.25
2346.643	484.25
2350.492	487.25
2354.336	489.25
2358.178	489.25
2362.015	489.25
2365.85	482.25
2369.681	494.25
2373.508	495.25
2377.333	487.25
2381.153	501.25
2384.971	490.25
2388.785	490.25
2392.595	479.25
2396.402	467.25
2400.206	469.25
2404.007	484.25
2407.804	471.25
2411.597	471.25
2415.388	466.25
2419.174	470.25
2422.958	472.25
2426.738	462.25
2430.515	460.25
2434.289	465.25
2438.059	455.25
2441.825	450.25
2445.589	445.25
2449.349	452.25
2453.106	448.25
2456.859	437.25
2460.61	435.25
2464.356	431.25
2468.1	432.25
2471.84	419.25
2475.577	418.25
2479.311	432.25
2483.041	422.25
2486.768	432.25
2490.492	423.25
2494.213	427.25
2497.93	424.25
2501.644	418.25
2505.355	423.25
2509.062	421.25
2512.766	423.25
2516.467	416.25
2520.165	413.25
2523.859	408.25
2527.551	408.25
2531.239	403.25
2534.923	397.25
2538.605	400.25
2542.283	392.25
2545.958	394.25
2549.63	397.25
2553.299	386.25
2556.964	392.25
2560.626	390.25
2564.285	395.25
2567.941	387.25
2571.594	383.25
2575.243	380.25
2578.89	375.25
2582.533	376.25
2586.173	363.25
2589.809	368.25
2593.443	367.25
2597.073	366.25
2600.701	363.25
2604.325	363.25
2607.946	363.25
2611.564	357.25
2615.178	354.25
2618.79	357.25
2622.398	351.25
2626.004	349.25
2629.606	347.25
2633.205	346.25
2636.801	347.25
2640.394	351.25
2643.983	343.25
2647.57	335.25
2651.153	333.25
2654.734	328.25
2658.311	325.25
2661.885	330.25
2665.456	319.25
2669.025	321.25
2672.589	319.25
2676.151	314.25
2679.71	310.25
2683.266	310.25
2686.819	309.25
2690.368	308.25
2693.915	303.25
2697.458	294.25
2700.999	296.25
2704.536	287.25
2708.071	290.25
2711.602	287.25
2715.13	284.25
2718.656	276.25
2722.178	283.25
2725.697	284.25
2729.214	274.25
2732.727	285.25
2736.237	287.25
2739.744	286.25
2743.249	287.25
2746.75	281.25
2750.248	271.25
2753.743	290.25
2757.236	283.25
2760.725	282.25
2764.211	278.25
2767.695	281.25
2771.175	273.25
2774.652	271.25
2778.127	265.25
2781.598	279.25
2785.067	276.25
2788.532	274.25
2791.995	273.25
2795.455	267.25
2798.911	260.25
2802.365	271.25
2805.816	266.25
2809.264	274.25
2812.709	267.25
2816.151	275.25
2819.59	267.25
2823.026	268.25
2826.46	261.25
2829.89	271.25
2833.318	258.25
2836.742	269.25
2840.164	264.25
2843.583	265.25
2846.999	270.25
2850.412	271.25
2853.822	282.25
2857.229	285.25
2860.634	278.25
2864.035	273.25
2867.434	278.25
2870.83	285.25
2874.223	288.25
2877.613	291.25
2881	293.25
2884.385	293.25
2887.766	294.25
2891.145	282.25
2894.521	287.25
2897.894	287.25
2901.264	293.25
2904.631	300.25
2907.996	293.25
2911.358	294.25
2914.717	298.25
2918.073	296.25
2921.426	293.25
2924.777	306.25
2928.124	310.25
2931.469	312.25
2934.811	323.25
2938.15	325.25
2941.487	318.25
2944.821	317.25
2948.152	328.25
2951.48	337.25
2954.805	324.25
2958.128	342.25
2961.447	339.25
2964.765	347.25
2968.079	345.25
2971.39	349.25
2974.699	349.25
2978.005	370.25
2981.308	367.25
2984.609	378.25
2987.907	397.25
2991.202	400.25
2994.494	407.25
2997.784	414.25
3001.07	430.25
3004.355	425.25
3007.636	444.25
3010.915	459.25
3014.191	459.25
3017.464	472.25
3020.734	481.25
3024.002	476.25
3027.267	473.25
3030.53	489.25
3033.789	491.25
3037.046	505.25
3040.301	514.25
3043.552	526.25
3046.801	537.25
3050.048	540.25
3053.291	562.25
3056.532	569.25
3059.771	592.25
3063.006	604.25
3066.239	611.25
3069.469	638.25
3072.697	657.25
3075.922	671.25
3079.144	682.25
3082.364	688.25
3085.581	716.25
3088.795	726.25
3092.007	757.25
3095.216	750.25
3098.423	771.25
3101.627	776.25
3104.828	817.25
3108.026	834.25
3111.222	830.25
3114.416	858.25
3117.607	866.25
3120.795	887.25
3123.98	905.25
3127.163	920.25
3130.344	962.25
3133.521	964.25
3136.696	998.25
3139.869	1023.25
3143.039	1023.25
3146.206	1038.25
3149.371	1059.25
3152.533	1068.25
3155.693	1071.25
3158.85	1079.25
3162.005	1074.25
3165.157	1080.25
3168.306	1107.25
3171.453	1113.25
3174.597	1099.25
3177.739	1110.25
3180.878	1102.25
3184.014	1106.25
3187.149	1099.25
3190.28	1127.25
3193.409	1109.25
3196.536	1124.25
3199.659	1117.25
3202.781	1137.25
3205.9	1137.25
3209.016	1142.25
3212.13	1130.25
3215.241	1138.25
3218.35	1116.25
3221.456	1116.25
3224.56	1112.25
3227.661	1099.25
3230.76	1086.25
3233.856	1055.25
3236.95	1057.25
3240.041	1040.25
3243.13	1030.25
3246.216	1030.25
3249.3	1013.25
3252.382	1016.25
3255.46	1014.25
3258.537	1007.25
3261.611	979.25
3264.682	997.25
3267.751	977.25
3270.818	992.25
3273.882	986.25
3276.943	989.25
3280.002	970.25
3283.059	966.25
3286.113	959.25
3289.165	938.25
3292.214	931.25
3295.261	926.25
3298.306	910.25
3301.348	902.25
3304.387	888.25
3307.425	882.25
3310.459	834.25
3313.492	850.25
3316.521	840.25
3319.549	836.25
3322.574	829.25
3325.597	811.25
3328.617	816.25
3331.635	792.25
3334.65	801.25
3337.663	788.25
3340.674	783.25
3343.682	778.25
3346.688	783.25
3349.691	782.25
3352.692	780.25
3355.691	782.25
3358.687	761.25
3361.681	764.25
3364.673	748.25
3367.662	739.25
3370.649	724.25
3373.633	725.25
3376.615	708.25
3379.595	700.25
3382.572	697.25
3385.547	682.25
3388.52	678.25
3391.49	665.25
3394.458	649.25
3397.424	651.25
3400.387	646.25
3403.348	632.25
3406.307	622.25
3409.263	617.25
3412.217	614.25
3415.168	602.25
3418.118	607.25
3421.065	587.25
3424.009	585.25
3426.951	581.25
3429.891	574.25
3432.829	566.25
3435.764	547.25
3438.697	543.25
3441.628	535.25
3444.557	516.25
3447.483	504.25
3450.407	488.25
3453.328	479.25
3456.247	461.25
3459.164	450.25
3462.079	440.25
3464.991	428.25
3467.902	417.25
3470.809	397.25
3473.715	392.25
3476.618	381.25
3479.519	370.25
3482.418	362.25
3485.315	350.25
3488.209	339.25
3491.101	336.25
3493.99	310.25
3496.878	305.25
3499.763	313.25
3502.646	292.25
3505.527	297.25
3508.405	278.25
3511.281	265.25
3514.155	244.25
3517.027	244.25
3519.897	235.25
3522.764	229.25
3525.629	223.25
3528.492	202.25
3531.352	197.25
3534.211	190.25
3537.067	169.25
3539.921	165.25
3542.773	169.25
3545.622	151.25
3548.469	146.25
3551.315	137.25
3554.157	130.25
3556.998	122.25
3559.837	110.25
3562.673	109.25
3565.507	102.25
3568.339	103.25
3571.169	96.25
3573.996	89.25
3576.822	88.25
3579.645	78.25
3582.466	70.25
3585.285	67.25
3588.101	63.25
3590.916	56.25
3593.728	54.25
3596.538	47.25
3599.346	47.25
3602.152	41.25
3604.956	40.25
3607.757	33.25
3610.556	30.25
3613.354	28.25
3616.149	22.25
3618.942	19.25
3621.732	19.25
3624.521	13.25
3627.307	16.25
3630.092	8.25
3632.874	9.25
3635.654	2.25
3638.432	2.25
3641.208	2.25
3643.982	0.25
3646.753	-6.75
3649.523	-3.75
3652.29	-3.75
3655.055	-11.75
3657.818	-17.75
3660.579	-16.75
3663.338	-14.75
3666.095	-16.75
3668.849	-26.75
3671.602	-26.75
3674.352	-28.75
3677.101	-29.75
3679.847	-35.75
3682.591	-34.75
3685.333	-35.75
3688.073	-34.75
3690.811	-35.75
3693.547	-36.75
3696.281	-40.75
3699.013	-44.75
3701.742	-44.75
3704.47	-41.75
3707.195	-41.75
3709.919	-45.75
3712.64	-48.75
3715.359	-47.75
3718.076	-50.75
3720.792	-49.75
3723.505	-52.75
3726.216	-51.75
3728.925	-55.75
3731.632	-55.75
3734.336	-50.75
3737.039	-52.75
3739.74	-53.75
3742.439	-49.75
3745.136	-53.75
3747.83	-55.75
3750.523	-59.75
3753.213	-59.75
3755.902	-58.75
3758.589	-54.75
3761.273	-55.75
3763.956	-54.75
3766.636	-56.75
3769.315	-57.75
3771.991	-61.75
3774.665	-63.75
3777.338	-58.75
3780.008	-60.75
3782.677	-57.75
3785.343	-61.75
3788.007	-62.75
3790.67	-59.75
3793.33	-64.75
3795.989	-63.75
3798.645	-66.75
3801.299	-64.75
3803.952	-61.75
3806.602	-60.75
3809.251	-63.75
3811.897	-63.75
3814.542	-66.75
3817.184	-61.75
3819.825	-65.75
3822.463	-66.75
3825.1	-70.75
3827.735	-64.75
3830.367	-69.75
3832.998	-65.75
3835.627	-63.75
3838.253	-64.75
3840.878	-70.75
3843.501	-68.75
3846.122	-70.75
3848.741	-71.75
3851.358	-72.75
3853.973	-66.75
3856.586	-67.75
3859.197	-67.75
3861.806	-69.75
3864.414	-73.75
3867.019	-71.75
3869.622	-65.75
3872.224	-68.75
3874.823	-66.75
3877.421	-65.75
3880.016	-66.75
3882.61	-64.75
3885.202	-65.75
3887.792	-67.75
3890.38	-66.75
3892.966	-67.75
3895.55	-67.75
3898.132	-70.75
3900.713	-70.75
3903.291	-73.75
3905.868	-68.75
3908.442	-74.75
3911.015	-72.75
3913.586	-71.75
3916.155	-69.75
3918.722	-69.75
3921.287	-66.75
3923.85	-72.75
3926.411	-67.75
3928.971	-71.75
3931.528	-75.75
3934.084	-76.75
3936.638	-76.75
3939.19	-73.75
3941.74	-72.75
3944.288	-72.75
3946.834	-71.75
3949.378	-72.75
3951.921	-70.75
3954.462	-77.75
3957	-71.75
3959.537	-73.75
3962.072	-68.75
3964.606	-72.75
3967.137	-71.75
3969.667	-70.75
3972.194	-71.75
3974.72	-75.75
3977.244	-71.75
3979.766	-73.75
3982.286	-68.75
3984.805	-72.75
3987.321	-73.75
3989.836	-70.75
3992.349	-71.75
3994.86	-67.75
3997.369	-65.75
3999.877	-73.75
4002.382	-73.75
4004.886	-70.75
4007.388	-73.75
4009.888	-71.75
4012.386	-66.75
4014.883	-70.75
4017.377	-71.75
4019.87	-70.75
4022.361	-73.75
4024.85	-73.75
4027.338	-69.75
4029.823	-67.75
4032.307	-66.75
4034.789	-69.75
4037.269	-72.75
4039.747	-77.75
4042.224	-76.75
4044.699	-74.75
4047.172	-72.75
4049.643	-66.75
4052.112	-69.75
4054.58	-68.75
4057.046	-69.75
4059.51	-74.75
4061.972	-71.75
4064.432	-72.75
4066.891	-72.75
4069.348	-72.75
4071.803	-72.75
4074.256	-73.75
4076.708	-74.75
4079.158	-70.75
4081.606	-68.75
4084.052	-70.75
4086.497	-72.75
4088.939	-73.75
4091.38	-73.75
4093.819	-71.75
4096.257	-74.75
4098.693	-77.75
4101.127	-77.75
4103.559	-74.75
4105.989	-22.75
4108.418	-17.75
4110.845	-16.75
4113.27	-10.75
4115.694	-11.75
4118.115	-9.75
4120.535	-71.75
4122.954	-71.75
4125.37	-73.75
4127.785	-73.75
4130.198	-72.75
4132.609	-78.75
4135.019	-76.75
4137.427	-75.75
4139.833	-72.75
4142.237	-73.75
