Data from 1CFU1_C_ramanshift_RamanShift_15-15-22-606.txt Node
Date: Sun Dec 25 15:15:22 IST 2016
User: aro
Spectrometer: QEPB0276
Trigger mode: 0
Integration Time (sec): 5.000000E0
Scans to average: 1
Electric dark correction enabled: true
Nonlinearity correction enabled: false
Boxcar width: 0
XAxis mode: Raman Shifts
Number of Pixels in Spectrum: 1044
>>>>>Begin Spectral Data<<<<<
160.701	2.25
166.742	22.25
172.777	66.25
178.805	197.25
184.826	604.25
190.841	1447.25
196.849	2711.25
202.85	3855.25
208.845	4463.25
214.833	4443.25
220.815	4264.25
226.789	4126.25
232.758	4019.25
238.719	3915.25
244.674	3791.25
250.623	3609.25
256.565	3477.25
262.5	3288.25
268.429	3129.25
274.351	2976.25
280.267	2873.25
286.176	2746.25
292.079	2683.25
297.975	2579.25
303.865	2476.25
309.748	2382.25
315.625	2317.25
321.495	2253.25
327.359	2217.25
333.217	2178.25
339.068	2166.25
344.912	2143.25
350.751	2143.25
356.583	2113.25
362.408	2122.25
368.227	2127.25
374.04	2140.25
379.847	2122.25
385.647	2138.25
391.44	2180.25
397.228	2160.25
403.009	2176.25
408.784	2198.25
414.553	2198.25
420.315	2201.25
426.071	2230.25
431.821	2205.25
437.565	2197.25
443.302	2209.25
449.033	2223.25
454.758	2196.25
460.477	2209.25
466.189	2184.25
471.896	2157.25
477.596	2174.25
483.29	2154.25
488.978	2135.25
494.66	2147.25
500.335	2140.25
506.005	2090.25
511.668	2063.25
517.325	2007.25
522.977	1984.25
528.622	1972.25
534.261	1926.25
539.894	1911.25
545.521	1907.25
551.141	1890.25
556.756	1880.25
562.365	1884.25
567.968	1848.25
573.565	1848.25
579.155	1828.25
584.74	1820.25
590.319	1807.25
595.892	1793.25
601.459	1795.25
607.02	1777.25
612.575	1776.25
618.124	1751.25
623.667	1727.25
629.204	1695.25
634.735	1705.25
640.261	1690.25
645.781	1679.25
651.294	1683.25
656.802	1651.25
662.304	1653.25
667.8	1653.25
673.29	1641.25
678.775	1652.25
684.254	1628.25
689.726	1629.25
695.193	1614.25
700.655	1625.25
706.11	1588.25
711.56	1578.25
717.004	1589.25
722.442	1572.25
727.874	1558.25
733.301	1575.25
738.722	1535.25
744.137	1522.25
749.547	1533.25
754.951	1522.25
760.349	1539.25
765.741	1542.25
771.128	1529.25
776.509	1514.25
781.885	1534.25
787.254	1525.25
792.618	1521.25
797.977	1514.25
803.33	1500.25
808.677	1487.25
814.019	1500.25
819.355	1474.25
824.686	1458.25
830.011	1454.25
835.33	1435.25
840.644	1433.25
845.952	1419.25
851.255	1418.25
856.552	1393.25
861.844	1409.25
867.13	1423.25
872.41	1414.25
877.686	1412.25
882.955	1429.25
888.219	1422.25
893.478	1377.25
898.731	1343.25
903.979	1311.25
909.221	1290.25
914.458	1260.25
919.69	1253.25
924.916	1236.25
930.136	1248.25
935.351	1242.25
940.561	1257.25
945.766	1237.25
950.965	1239.25
956.158	1223.25
961.347	1203.25
966.529	1198.25
971.707	1166.25
976.879	1165.25
982.046	1159.25
987.208	1124.25
992.364	1136.25
997.515	1134.25
1002.66	1150.25
1007.801	1150.25
1012.936	1151.25
1018.066	1188.25
1023.19	1182.25
1028.309	1204.25
1033.423	1185.25
1038.532	1192.25
1043.636	1197.25
1048.734	1189.25
1053.827	1191.25
1058.915	1155.25
1063.998	1153.25
1069.075	1138.25
1074.147	1124.25
1079.214	1143.25
1084.276	1166.25
1089.333	1173.25
1094.385	1183.25
1099.431	1185.25
1104.472	1185.25
1109.509	1171.25
1114.54	1169.25
1119.565	1145.25
1124.586	1137.25
1129.602	1130.25
1134.613	1106.25
1139.618	1103.25
1144.619	1094.25
1149.614	1109.25
1154.604	1114.25
1159.589	1097.25
1164.57	1121.25
1169.545	1130.25
1174.515	1135.25
1179.48	1131.25
1184.44	1122.25
1189.395	1117.25
1194.345	1118.25
1199.29	1115.25
1204.23	1096.25
1209.165	1099.25
1214.095	1116.25
1219.021	1117.25
1223.941	1129.25
1228.856	1132.25
1233.766	1145.25
1238.672	1135.25
1243.572	1143.25
1248.467	1131.25
1253.358	1124.25
1258.244	1118.25
1263.124	1111.25
1268	1098.25
1272.871	1062.25
1277.737	1072.25
1282.599	1064.25
1287.455	1079.25
1292.306	1070.25
1297.153	1078.25
1301.995	1084.25
1306.832	1078.25
1311.664	1083.25
1316.491	1109.25
1321.314	1090.25
1326.132	1093.25
1330.945	1078.25
1335.753	1072.25
1340.556	1053.25
1345.354	1045.25
1350.148	1038.25
1354.937	1034.25
1359.722	1033.25
1364.501	1019.25
1369.276	1006.25
1374.046	992.25
1378.811	981.25
1383.572	980.25
1388.327	970.25
1393.079	975.25
1397.825	976.25
1402.567	973.25
1407.304	973.25
1412.036	966.25
1416.764	944.25
1421.487	969.25
1426.205	955.25
1430.919	980.25
1435.628	984.25
1440.333	1000.25
1445.032	999.25
1449.727	1021.25
1454.418	1027.25
1459.104	1036.25
1463.785	1036.25
1468.462	1019.25
1473.134	1000.25
1477.802	987.25
1482.465	979.25
1487.123	975.25
1491.777	967.25
1496.426	974.25
1501.071	981.25
1505.711	971.25
1510.347	989.25
1514.978	1009.25
1519.604	1015.25
1524.226	1013.25
1528.844	1015.25
1533.457	1009.25
1538.065	1020.25
1542.669	1027.25
1547.269	1006.25
1551.864	1001.25
1556.454	1008.25
1561.041	1032.25
1565.622	1016.25
1570.199	1037.25
1574.772	1062.25
1579.34	1074.25
1583.904	1089.25
1588.464	1101.25
1593.019	1128.25
1597.569	1142.25
1602.115	1139.25
1606.657	1171.25
1611.195	1162.25
1615.728	1181.25
1620.256	1201.25
1624.78	1212.25
1629.3	1241.25
1633.816	1264.25
1638.327	1262.25
1642.834	1275.25
1647.336	1274.25
1651.834	1294.25
1656.328	1294.25
1660.817	1315.25
1665.302	1288.25
1669.783	1267.25
1674.259	1240.25
1678.732	1214.25
1683.199	1165.25
1687.663	1126.25
1692.122	1092.25
1696.577	1063.25
1701.028	1009.25
1705.474	958.25
1709.917	930.25
1714.355	890.25
1718.788	903.25
1723.218	883.25
1727.643	845.25
1732.064	843.25
1736.481	818.25
1740.893	810.25
1745.301	792.25
1749.705	760.25
1754.105	759.25
1758.501	727.25
1762.893	714.25
1767.28	707.25
1771.663	694.25
1776.042	689.25
1780.417	691.25
1784.787	678.25
1789.154	690.25
1793.516	688.25
1797.874	687.25
1802.228	683.25
1806.578	672.25
1810.924	663.25
1815.266	652.25
1819.603	639.25
1823.937	627.25
1828.266	629.25
1832.591	623.25
1836.913	605.25
1841.23	602.25
1845.543	614.25
1849.852	605.25
1854.156	624.25
1858.457	622.25
1862.754	619.25
1867.047	618.25
1871.335	619.25
1875.62	627.25
1879.9	630.25
1884.177	636.25
1888.449	626.25
1892.718	626.25
1896.982	622.25
1901.243	622.25
1905.499	623.25
1909.752	621.25
1914	617.25
1918.245	611.25
1922.485	614.25
1926.722	617.25
1930.954	618.25
1935.183	619.25
1939.408	626.25
1943.628	624.25
1947.845	627.25
1952.058	608.25
1956.267	620.25
1960.472	614.25
1964.673	608.25
1968.87	613.25
1973.063	605.25
1977.252	596.25
1981.438	589.25
1985.619	576.25
1989.797	586.25
1993.971	589.25
1998.14	597.25
2002.306	606.25
2006.469	610.25
2010.627	595.25
2014.781	603.25
2018.932	598.25
2023.078	598.25
2027.221	605.25
2031.36	593.25
2035.495	595.25
2039.627	591.25
2043.754	589.25
2047.878	586.25
2051.998	593.25
2056.114	579.25
2060.226	584.25
2064.334	595.25
2068.439	586.25
2072.54	598.25
2076.637	606.25
2080.73	610.25
2084.82	600.25
2088.906	614.25
2092.988	605.25
2097.066	614.25
2101.14	609.25
2105.211	601.25
2109.278	601.25
2113.342	597.25
2117.401	593.25
2121.457	594.25
2125.509	592.25
2129.558	577.25
2133.602	585.25
2137.643	578.25
2141.681	575.25
2145.714	576.25
2149.744	576.25
2153.77	575.25
2157.793	579.25
2161.812	568.25
2165.827	568.25
2169.838	550.25
2173.846	549.25
2177.851	527.25
2181.851	525.25
2185.848	529.25
2189.841	523.25
2193.831	512.25
2197.817	510.25
2201.799	518.25
2205.778	506.25
2209.753	506.25
2213.725	511.25
2217.693	500.25
2221.657	492.25
2225.618	502.25
2229.575	503.25
2233.529	498.25
2237.479	494.25
2241.425	491.25
2245.368	494.25
2249.307	478.25
2253.243	471.25
2257.175	480.25
2261.104	455.25
2265.029	462.25
2268.95	449.25
2272.868	444.25
2276.783	435.25
2280.694	430.25
2284.601	430.25
2288.505	418.25
2292.405	426.25
2296.302	428.25
2300.195	405.25
2304.085	414.25
2307.971	397.25
2311.854	401.25
2315.734	383.25
2319.609	389.25
2323.482	379.25
2327.351	382.25
2331.216	379.25
2335.078	372.25
2338.937	367.25
2342.792	361.25
2346.643	363.25
2350.492	364.25
2354.336	369.25
2358.178	369.25
2362.015	369.25
2365.85	362.25
2369.681	359.25
2373.508	360.25
2377.333	364.25
2381.153	362.25
2384.971	364.25
2388.785	360.25
2392.595	357.25
2396.402	362.25
2400.206	354.25
2404.007	359.25
2407.804	349.25
2411.597	355.25
2415.388	359.25
2419.174	352.25
2422.958	348.25
2426.738	355.25
2430.515	353.25
2434.289	349.25
2438.059	342.25
2441.825	342.25
2445.589	335.25
2449.349	339.25
2453.106	336.25
2456.859	327.25
2460.61	336.25
2464.356	338.25
2468.1	327.25
2471.84	324.25
2475.577	316.25
2479.311	327.25
2483.041	319.25
2486.768	323.25
2490.492	317.25
2494.213	324.25
2497.93	325.25
2501.644	319.25
2505.355	317.25
2509.062	324.25
2512.766	329.25
2516.467	320.25
2520.165	315.25
2523.859	313.25
2527.551	312.25
2531.239	303.25
2534.923	312.25
2538.605	299.25
2542.283	301.25
2545.958	301.25
2549.63	298.25
2553.299	295.25
2556.964	296.25
2560.626	297.25
2564.285	286.25
2567.941	291.25
2571.594	290.25
2575.243	289.25
2578.89	276.25
2582.533	282.25
2586.173	272.25
2589.809	284.25
2593.443	280.25
2597.073	278.25
2600.701	273.25
2604.325	275.25
2607.946	273.25
2611.564	268.25
2615.178	269.25
2618.79	269.25
2622.398	271.25
2626.004	262.25
2629.606	257.25
2633.205	263.25
2636.801	265.25
2640.394	257.25
2643.983	257.25
2647.57	246.25
2651.153	243.25
2654.734	243.25
2658.311	245.25
2661.885	247.25
2665.456	245.25
2669.025	246.25
2672.589	243.25
2676.151	238.25
2679.71	235.25
2683.266	240.25
2686.819	231.25
2690.368	233.25
2693.915	227.25
2697.458	234.25
2700.999	229.25
2704.536	226.25
2708.071	221.25
2711.602	215.25
2715.13	218.25
2718.656	230.25
2722.178	216.25
2725.697	213.25
2729.214	224.25
2732.727	218.25
2736.237	228.25
2739.744	227.25
2743.249	217.25
2746.75	228.25
2750.248	216.25
2753.743	222.25
2757.236	219.25
2760.725	222.25
2764.211	220.25
2767.695	218.25
2771.175	214.25
2774.652	207.25
2778.127	201.25
2781.598	205.25
2785.067	209.25
2788.532	212.25
2791.995	209.25
2795.455	224.25
2798.911	213.25
2802.365	209.25
2805.816	214.25
2809.264	216.25
2812.709	218.25
2816.151	215.25
2819.59	226.25
2823.026	219.25
2826.46	226.25
2829.89	225.25
2833.318	216.25
2836.742	224.25
2840.164	223.25
2843.583	233.25
2846.999	223.25
2850.412	229.25
2853.822	245.25
2857.229	246.25
2860.634	240.25
2864.035	241.25
2867.434	245.25
2870.83	247.25
2874.223	251.25
2877.613	263.25
2881	265.25
2884.385	279.25
2887.766	270.25
2891.145	269.25
2894.521	268.25
2897.894	276.25
2901.264	270.25
2904.631	280.25
2907.996	278.25
2911.358	281.25
2914.717	270.25
2918.073	287.25
2921.426	290.25
2924.777	301.25
2928.124	300.25
2931.469	302.25
2934.811	308.25
2938.15	326.25
2941.487	323.25
2944.821	336.25
2948.152	331.25
2951.48	335.25
2954.805	335.25
2958.128	335.25
2961.447	337.25
2964.765	338.25
2968.079	349.25
2971.39	356.25
2974.699	359.25
2978.005	371.25
2981.308	376.25
2984.609	376.25
2987.907	395.25
2991.202	400.25
2994.494	413.25
2997.784	422.25
3001.07	434.25
3004.355	443.25
3007.636	447.25
3010.915	456.25
3014.191	463.25
3017.464	466.25
3020.734	473.25
3024.002	488.25
3027.267	497.25
3030.53	494.25
3033.789	502.25
3037.046	529.25
3040.301	526.25
3043.552	542.25
3046.801	564.25
3050.048	563.25
3053.291	579.25
3056.532	604.25
3059.771	618.25
3063.006	646.25
3066.239	651.25
3069.469	673.25
3072.697	698.25
3075.922	714.25
3079.144	725.25
3082.364	744.25
3085.581	775.25
3088.795	793.25
3092.007	797.25
3095.216	825.25
3098.423	833.25
3101.627	851.25
3104.828	879.25
3108.026	903.25
3111.222	904.25
3114.416	937.25
3117.607	947.25
3120.795	969.25
3123.98	975.25
3127.163	1008.25
3130.344	1044.25
3133.521	1050.25
3136.696	1083.25
3139.869	1097.25
3143.039	1120.25
3146.206	1120.25
3149.371	1155.25
3152.533	1177.25
3155.693	1169.25
3158.85	1176.25
3162.005	1201.25
3165.157	1188.25
3168.306	1200.25
3171.453	1208.25
3174.597	1212.25
3177.739	1211.25
3180.878	1207.25
3184.014	1215.25
3187.149	1205.25
3190.28	1232.25
3193.409	1230.25
3196.536	1216.25
3199.659	1228.25
3202.781	1230.25
3205.9	1225.25
3209.016	1230.25
3212.13	1225.25
3215.241	1232.25
3218.35	1220.25
3221.456	1211.25
3224.56	1200.25
3227.661	1175.25
3230.76	1181.25
3233.856	1154.25
3236.95	1145.25
3240.041	1137.25
3243.13	1135.25
3246.216	1115.25
3249.3	1113.25
3252.382	1109.25
3255.46	1103.25
3258.537	1089.25
3261.611	1077.25
3264.682	1089.25
3267.751	1071.25
3270.818	1062.25
3273.882	1060.25
3276.943	1063.25
3280.002	1058.25
3283.059	1029.25
3286.113	1034.25
3289.165	1015.25
3292.214	1008.25
3295.261	987.25
3298.306	973.25
3301.348	959.25
3304.387	937.25
3307.425	933.25
3310.459	915.25
3313.492	919.25
3316.521	895.25
3319.549	884.25
3322.574	877.25
3325.597	881.25
3328.617	869.25
3331.635	864.25
3334.65	860.25
3337.663	850.25
3340.674	843.25
3343.682	849.25
3346.688	847.25
3349.691	852.25
3352.692	842.25
3355.691	836.25
3358.687	826.25
3361.681	825.25
3364.673	807.25
3367.662	796.25
3370.649	796.25
3373.633	781.25
3376.615	766.25
3379.595	763.25
3382.572	745.25
3385.547	733.25
3388.52	728.25
3391.49	726.25
3394.458	713.25
3397.424	718.25
3400.387	693.25
3403.348	687.25
3406.307	680.25
3409.263	668.25
3412.217	659.25
3415.168	667.25
3418.118	650.25
3421.065	647.25
3424.009	629.25
3426.951	628.25
3429.891	615.25
3432.829	602.25
3435.764	602.25
3438.697	587.25
3441.628	580.25
3444.557	560.25
3447.483	546.25
3450.407	527.25
3453.328	515.25
3456.247	503.25
3459.164	484.25
3462.079	474.25
3464.991	461.25
3467.902	456.25
3470.809	434.25
3473.715	424.25
3476.618	412.25
3479.519	395.25
3482.418	390.25
3485.315	381.25
3488.209	368.25
3491.101	359.25
3493.99	345.25
3496.878	336.25
3499.763	327.25
3502.646	317.25
3505.527	314.25
3508.405	296.25
3511.281	282.25
3514.155	276.25
3517.027	261.25
3519.897	258.25
3522.764	248.25
3525.629	232.25
3528.492	217.25
3531.352	205.25
3534.211	196.25
3537.067	187.25
3539.921	174.25
3542.773	177.25
3545.622	161.25
3548.469	155.25
3551.315	143.25
3554.157	144.25
3556.998	132.25
3559.837	125.25
3562.673	119.25
3565.507	111.25
3568.339	107.25
3571.169	105.25
3573.996	93.25
3576.822	95.25
3579.645	91.25
3582.466	83.25
3585.285	83.25
3588.101	70.25
3590.916	62.25
3593.728	62.25
3596.538	54.25
3599.346	49.25
3602.152	50.25
3604.956	45.25
3607.757	43.25
3610.556	42.25
3613.354	31.25
3616.149	28.25
3618.942	24.25
3621.732	23.25
3624.521	19.25
3627.307	20.25
3630.092	18.25
3632.874	15.25
3635.654	6.25
3638.432	6.25
3641.208	3.25
3643.982	5.25
3646.753	1.25
3649.523	-0.75
3652.29	-2.75
3655.055	-6.75
3657.818	-6.75
3660.579	-6.75
3663.338	-17.75
3666.095	-11.75
3668.849	-14.75
3671.602	-18.75
3674.352	-19.75
3677.101	-24.75
3679.847	-29.75
3682.591	-28.75
3685.333	-32.75
3688.073	-31.75
3690.811	-30.75
3693.547	-30.75
3696.281	-35.75
3699.013	-37.75
3701.742	-36.75
3704.47	-37.75
3707.195	-39.75
3709.919	-38.75
3712.64	-45.75
3715.359	-41.75
3718.076	-42.75
3720.792	-48.75
3723.505	-45.75
3726.216	-50.75
3728.925	-48.75
3731.632	-53.75
3734.336	-45.75
3737.039	-50.75
3739.74	-46.75
3742.439	-44.75
3745.136	-46.75
3747.83	-49.75
3750.523	-54.75
3753.213	-54.75
3755.902	-52.75
3758.589	-56.75
3761.273	-51.75
3763.956	-51.75
3766.636	-48.75
3769.315	-50.75
3771.991	-57.75
3774.665	-56.75
3777.338	-59.75
3780.008	-55.75
3782.677	-54.75
3785.343	-52.75
3788.007	-57.75
3790.67	-57.75
3793.33	-58.75
3795.989	-57.75
3798.645	-61.75
3801.299	-59.75
3803.952	-61.75
3806.602	-57.75
3809.251	-55.75
3811.897	-61.75
3814.542	-64.75
3817.184	-57.75
3819.825	-62.75
3822.463	-60.75
3825.1	-63.75
3827.735	-58.75
3830.367	-63.75
3832.998	-59.75
3835.627	-61.75
3838.253	-61.75
3840.878	-65.75
3843.501	-63.75
3846.122	-62.75
3848.741	-66.75
3851.358	-67.75
3853.973	-62.75
3856.586	-60.75
3859.197	-63.75
3861.806	-64.75
3864.414	-66.75
3867.019	-67.75
3869.622	-64.75
3872.224	-61.75
3874.823	-61.75
3877.421	-60.75
3880.016	-62.75
3882.61	-61.75
3885.202	-57.75
3887.792	-58.75
3890.38	-60.75
3892.966	-64.75
3895.55	-63.75
3898.132	-65.75
3900.713	-67.75
3903.291	-67.75
3905.868	-64.75
3908.442	-66.75
3911.015	-69.75
3913.586	-69.75
3916.155	-63.75
3918.722	-68.75
3921.287	-65.75
3923.85	-65.75
3926.411	-64.75
3928.971	-66.75
3931.528	-68.75
3934.084	-70.75
3936.638	-73.75
3939.19	-70.75
3941.74	-63.75
3944.288	-68.75
3946.834	-68.75
3949.378	-67.75
3951.921	-67.75
3954.462	-67.75
3957	-69.75
3959.537	-69.75
3962.072	-67.75
3964.606	-65.75
3967.137	-66.75
3969.667	-67.75
3972.194	-65.75
3974.72	-72.75
3977.244	-65.75
3979.766	-70.75
3982.286	-67.75
3984.805	-67.75
3987.321	-66.75
3989.836	-65.75
3992.349	-64.75
3994.86	-59.75
3997.369	-59.75
3999.877	-67.75
4002.382	-69.75
4004.886	-67.75
4007.388	-67.75
4009.888	-63.75
4012.386	-61.75
4014.883	-63.75
4017.377	-65.75
4019.87	-68.75
4022.361	-68.75
4024.85	-66.75
4027.338	-63.75
4029.823	-61.75
4032.307	-61.75
4034.789	-67.75
4037.269	-68.75
4039.747	-70.75
4042.224	-72.75
4044.699	-70.75
4047.172	-64.75
4049.643	-66.75
4052.112	-64.75
4054.58	-68.75
4057.046	-66.75
4059.51	-68.75
4061.972	-62.75
4064.432	-67.75
4066.891	-68.75
4069.348	-68.75
4071.803	-67.75
4074.256	-68.75
4076.708	-68.75
4079.158	-66.75
4081.606	-63.75
4084.052	-66.75
4086.497	-68.75
4088.939	-67.75
4091.38	-69.75
4093.819	-68.75
4096.257	-70.75
4098.693	-69.75
4101.127	-68.75
4103.559	-71.75
4105.989	-18.75
4108.418	-17.75
4110.845	-11.75
4113.27	-9.75
4115.694	-6.75
4118.115	-7.75
4120.535	-68.75
4122.954	-63.75
4125.37	-65.75
4127.785	-68.75
4130.198	-68.75
4132.609	-70.75
4135.019	-75.75
4137.427	-72.75
4139.833	-69.75
4142.237	-69.75
