Data from 1CFU3_FROM15TH_ramanshift_RamanShift_13-23-15-782.txt Node
Date: Sun Dec 25 13:23:15 IST 2016
User: aro
Spectrometer: QEPB0276
Trigger mode: 0
Integration Time (sec): 5.000000E0
Scans to average: 1
Electric dark correction enabled: true
Nonlinearity correction enabled: false
Boxcar width: 0
XAxis mode: Raman Shifts
Number of Pixels in Spectrum: 1044
>>>>>Begin Spectral Data<<<<<
160.701	0
166.742	22
172.777	72
178.805	214
184.826	625
190.841	1462
196.849	2705
202.85	3834
208.845	4403
214.833	4435
220.815	4271
226.789	4131
232.758	4051
238.719	3943
244.674	3820
250.623	3684
256.565	3526
262.5	3408
268.429	3256
274.351	3152
280.267	3052
286.176	2937
292.079	2855
297.975	2769
303.865	2691
309.748	2629
315.625	2570
321.495	2512
327.359	2477
333.217	2442
339.068	2409
344.912	2405
350.751	2392
356.583	2377
362.408	2399
368.227	2370
374.04	2393
379.847	2387
385.647	2409
391.44	2413
397.228	2419
403.009	2438
408.784	2440
414.553	2464
420.315	2459
426.071	2483
431.821	2489
437.565	2460
443.302	2474
449.033	2462
454.758	2462
460.477	2451
466.189	2438
471.896	2442
477.596	2451
483.29	2417
488.978	2439
494.66	2414
500.335	2400
506.005	2377
511.668	2340
517.325	2284
522.977	2278
528.622	2265
534.261	2265
539.894	2236
545.521	2197
551.141	2204
556.756	2166
562.365	2182
567.968	2156
573.565	2158
579.155	2140
584.74	2124
590.319	2126
595.892	2105
601.459	2099
607.02	2092
612.575	2078
618.124	2083
623.667	2053
629.204	2020
634.735	2019
640.261	2008
645.781	2010
651.294	1999
656.802	1980
662.304	1987
667.8	1961
673.29	1979
678.775	1953
684.254	1957
689.726	1973
695.193	1944
700.655	1939
706.11	1939
711.56	1933
717.004	1931
722.442	1903
727.874	1886
733.301	1883
738.722	1875
744.137	1884
749.547	1862
754.951	1856
760.349	1868
765.741	1882
771.128	1873
776.509	1867
781.885	1867
787.254	1859
792.618	1856
797.977	1865
803.33	1844
808.677	1834
814.019	1823
819.355	1804
824.686	1790
830.011	1777
835.33	1782
840.644	1784
845.952	1764
851.255	1783
856.552	1768
861.844	1771
867.13	1780
872.41	1751
877.686	1734
882.955	1750
888.219	1715
893.478	1686
898.731	1677
903.979	1658
909.221	1659
914.458	1641
919.69	1624
924.916	1628
930.136	1622
935.351	1623
940.561	1617
945.766	1607
950.965	1631
956.158	1606
961.347	1594
966.529	1595
971.707	1560
976.879	1546
982.046	1509
987.208	1524
992.364	1503
997.515	1522
1002.66	1538
1007.801	1537
1012.936	1550
1018.066	1577
1023.19	1582
1028.309	1591
1033.423	1592
1038.532	1587
1043.636	1571
1048.734	1571
1053.827	1557
1058.915	1546
1063.998	1536
1069.075	1508
1074.147	1516
1079.214	1515
1084.276	1535
1089.333	1553
1094.385	1558
1099.431	1567
1104.472	1579
1109.509	1586
1114.54	1552
1119.565	1541
1124.586	1553
1129.602	1540
1134.613	1503
1139.618	1493
1144.619	1469
1149.614	1490
1154.604	1499
1159.589	1500
1164.57	1506
1169.545	1511
1174.515	1530
1179.48	1536
1184.44	1524
1189.395	1501
1194.345	1495
1199.29	1502
1204.23	1502
1209.165	1493
1214.095	1499
1219.021	1524
1223.941	1536
1228.856	1544
1233.766	1541
1238.672	1546
1243.572	1554
1248.467	1537
1253.358	1551
1258.244	1517
1263.124	1495
1268	1475
1272.871	1457
1277.737	1454
1282.599	1443
1287.455	1454
1292.306	1451
1297.153	1475
1301.995	1460
1306.832	1464
1311.664	1473
1316.491	1491
1321.314	1477
1326.132	1478
1330.945	1464
1335.753	1431
1340.556	1423
1345.354	1393
1350.148	1378
1354.937	1378
1359.722	1368
1364.501	1373
1369.276	1367
1374.046	1370
1378.811	1379
1383.572	1377
1388.327	1370
1393.079	1371
1397.825	1351
1402.567	1353
1407.304	1332
1412.036	1305
1416.764	1300
1421.487	1295
1426.205	1314
1430.919	1307
1435.628	1333
1440.333	1337
1445.032	1354
1449.727	1364
1454.418	1356
1459.104	1368
1463.785	1356
1468.462	1341
1473.134	1333
1477.802	1308
1482.465	1299
1487.123	1295
1491.777	1312
1496.426	1291
1501.071	1327
1505.711	1316
1510.347	1331
1514.978	1334
1519.604	1353
1524.226	1365
1528.844	1379
1533.457	1383
1538.065	1376
1542.669	1363
1547.269	1356
1551.864	1353
1556.454	1368
1561.041	1379
1565.622	1379
1570.199	1392
1574.772	1399
1579.34	1427
1583.904	1426
1588.464	1462
1593.019	1459
1597.569	1473
1602.115	1475
1606.657	1504
1611.195	1485
1615.728	1471
1620.256	1481
1624.78	1508
1629.3	1533
1633.816	1534
1638.327	1538
1642.834	1556
1647.336	1577
1651.834	1593
1656.328	1586
1660.817	1592
1665.302	1567
1669.783	1560
1674.259	1526
1678.732	1474
1683.199	1443
1687.663	1402
1692.122	1360
1696.577	1326
1701.028	1280
1705.474	1240
1709.917	1234
1714.355	1213
1718.788	1187
1723.218	1172
1727.643	1165
1732.064	1148
1736.481	1122
1740.893	1110
1745.301	1085
1749.705	1053
1754.105	1033
1758.501	1027
1762.893	1000
1767.28	995
1771.663	975
1776.042	970
1780.417	958
1784.787	956
1789.154	972
1793.516	974
1797.874	984
1802.228	978
1806.578	969
1810.924	971
1815.266	949
1819.603	954
1823.937	943
1828.266	920
1832.591	927
1836.913	912
1841.23	915
1845.543	911
1849.852	909
1854.156	897
1858.457	906
1862.754	891
1867.047	901
1871.335	915
1875.62	916
1879.9	919
1884.177	908
1888.449	912
1892.718	906
1896.982	898
1901.243	891
1905.499	885
1909.752	894
1914	895
1918.245	882
1922.485	870
1926.722	888
1930.954	896
1935.183	884
1939.408	892
1943.628	898
1947.845	894
1952.058	895
1956.267	900
1960.472	889
1964.673	888
1968.87	893
1973.063	867
1977.252	863
1981.438	855
1985.619	860
1989.797	851
1993.971	850
1998.14	867
2002.306	857
2006.469	861
2010.627	858
2014.781	862
2018.932	868
2023.078	854
2027.221	843
2031.36	851
2035.495	843
2039.627	835
2043.754	836
2047.878	813
2051.998	814
2056.114	816
2060.226	823
2064.334	817
2068.439	833
2072.54	834
2076.637	830
2080.73	838
2084.82	837
2088.906	823
2092.988	827
2097.066	823
2101.14	822
2105.211	816
2109.278	832
2113.342	821
2117.401	816
2121.457	815
2125.509	801
2129.558	802
2133.602	804
2137.643	814
2141.681	796
2145.714	803
2149.744	794
2153.77	786
2157.793	782
2161.812	770
2165.827	767
2169.838	757
2173.846	752
2177.851	737
2181.851	743
2185.848	722
2189.841	717
2193.831	713
2197.817	699
2201.799	705
2205.778	708
2209.753	706
2213.725	702
2217.693	699
2221.657	711
2225.618	702
2229.575	704
2233.529	705
2237.479	682
2241.425	687
2245.368	681
2249.307	677
2253.243	662
2257.175	667
2261.104	639
2265.029	643
2268.95	630
2272.868	633
2276.783	619
2280.694	609
2284.601	614
2288.505	606
2292.405	614
2296.302	597
2300.195	586
2304.085	584
2307.971	572
2311.854	564
2315.734	560
2319.609	558
2323.482	555
2327.351	534
2331.216	536
2335.078	533
2338.937	524
2342.792	526
2346.643	522
2350.492	519
2354.336	524
2358.178	521
2362.015	527
2365.85	526
2369.681	527
2373.508	518
2377.333	528
2381.153	525
2384.971	533
2388.785	518
2392.595	523
2396.402	511
2400.206	511
2404.007	506
2407.804	507
2411.597	505
2415.388	498
2419.174	505
2422.958	498
2426.738	504
2430.515	494
2434.289	493
2438.059	496
2441.825	483
2445.589	483
2449.349	479
2453.106	482
2456.859	480
2460.61	481
2464.356	477
2468.1	475
2471.84	448
2475.577	463
2479.311	457
2483.041	468
2486.768	460
2490.492	475
2494.213	461
2497.93	460
2501.644	454
2505.355	453
2509.062	455
2512.766	451
2516.467	459
2520.165	454
2523.859	449
2527.551	445
2531.239	433
2534.923	438
2538.605	434
2542.283	432
2545.958	421
2549.63	432
2553.299	421
2556.964	418
2560.626	413
2564.285	422
2567.941	414
2571.594	414
2575.243	404
2578.89	404
2582.533	413
2586.173	405
2589.809	409
2593.443	398
2597.073	401
2600.701	399
2604.325	394
2607.946	397
2611.564	403
2615.178	402
2618.79	390
2622.398	401
2626.004	381
2629.606	381
2633.205	370
2636.801	369
2640.394	369
2643.983	372
2647.57	374
2651.153	359
2654.734	357
2658.311	362
2661.885	352
2665.456	356
2669.025	353
2672.589	348
2676.151	351
2679.71	345
2683.266	340
2686.819	340
2690.368	337
2693.915	331
2697.458	332
2700.999	330
2704.536	321
2708.071	320
2711.602	311
2715.13	307
2718.656	305
2722.178	307
2725.697	308
2729.214	296
2732.727	309
2736.237	297
2739.744	313
2743.249	311
2746.75	310
2750.248	301
2753.743	309
2757.236	300
2760.725	305
2764.211	309
2767.695	303
2771.175	303
2774.652	301
2778.127	297
2781.598	297
2785.067	296
2788.532	297
2791.995	302
2795.455	298
2798.911	293
2802.365	285
2805.816	298
2809.264	303
2812.709	294
2816.151	297
2819.59	291
2823.026	291
2826.46	287
2829.89	295
2833.318	292
2836.742	303
2840.164	290
2843.583	295
2846.999	299
2850.412	290
2853.822	306
2857.229	308
2860.634	294
2864.035	297
2867.434	303
2870.83	307
2874.223	309
2877.613	314
2881	310
2884.385	322
2887.766	307
2891.145	310
2894.521	303
2897.894	315
2901.264	320
2904.631	324
2907.996	324
2911.358	313
2914.717	309
2918.073	315
2921.426	319
2924.777	321
2928.124	329
2931.469	330
2934.811	334
2938.15	329
2941.487	336
2944.821	335
2948.152	347
2951.48	353
2954.805	349
2958.128	354
2961.447	350
2964.765	365
2968.079	361
2971.39	363
2974.699	372
2978.005	375
2981.308	379
2984.609	392
2987.907	390
2991.202	403
2994.494	422
2997.784	425
3001.07	435
3004.355	427
3007.636	439
3010.915	455
3014.191	464
3017.464	476
3020.734	478
3024.002	484
3027.267	493
3030.53	489
3033.789	495
3037.046	516
3040.301	512
3043.552	518
3046.801	542
3050.048	548
3053.291	565
3056.532	580
3059.771	585
3063.006	609
3066.239	628
3069.469	638
3072.697	660
3075.922	663
3079.144	682
3082.364	698
3085.581	707
3088.795	730
3092.007	731
3095.216	748
3098.423	780
3101.627	783
3104.828	795
3108.026	817
3111.222	816
3114.416	844
3117.607	867
3120.795	880
3123.98	905
3127.163	906
3130.344	954
3133.521	954
3136.696	978
3139.869	985
3143.039	1007
3146.206	1019
3149.371	1017
3152.533	1037
3155.693	1038
3158.85	1062
3162.005	1064
3165.157	1068
3168.306	1074
3171.453	1094
3174.597	1083
3177.739	1077
3180.878	1083
3184.014	1086
3187.149	1081
3190.28	1099
3193.409	1096
3196.536	1093
3199.659	1099
3202.781	1091
3205.9	1105
3209.016	1100
3212.13	1097
3215.241	1098
3218.35	1093
3221.456	1087
3224.56	1071
3227.661	1061
3230.76	1058
3233.856	1038
3236.95	1033
3240.041	1015
3243.13	1013
3246.216	1009
3249.3	1007
3252.382	991
3255.46	983
3258.537	979
3261.611	979
3264.682	973
3267.751	975
3270.818	965
3273.882	973
3276.943	962
3280.002	947
3283.059	940
3286.113	935
3289.165	917
3292.214	902
3295.261	901
3298.306	883
3301.348	871
3304.387	863
3307.425	842
3310.459	825
3313.492	834
3316.521	830
3319.549	812
3322.574	811
3325.597	800
3328.617	777
3331.635	782
3334.65	785
3337.663	768
3340.674	765
3343.682	758
3346.688	770
3349.691	761
3352.692	761
3355.691	753
3358.687	737
3361.681	732
3364.673	730
3367.662	729
3370.649	716
3373.633	703
3376.615	695
3379.595	677
3382.572	673
3385.547	670
3388.52	655
3391.49	643
3394.458	637
3397.424	641
3400.387	626
3403.348	613
3406.307	610
3409.263	604
3412.217	597
3415.168	589
3418.118	572
3421.065	584
3424.009	576
3426.951	565
3429.891	560
3432.829	546
3435.764	533
3438.697	527
3441.628	514
3444.557	497
3447.483	488
3450.407	481
3453.328	463
3456.247	446
3459.164	436
3462.079	430
3464.991	421
3467.902	407
3470.809	389
3473.715	381
3476.618	372
3479.519	357
3482.418	356
3485.315	338
3488.209	323
3491.101	320
3493.99	310
3496.878	301
3499.763	306
3502.646	293
3505.527	287
3508.405	265
3511.281	260
3514.155	243
3517.027	240
3519.897	235
3522.764	224
3525.629	206
3528.492	193
3531.352	195
3534.211	188
3537.067	163
3539.921	157
3542.773	155
3545.622	147
3548.469	142
3551.315	132
3554.157	124
3556.998	120
3559.837	112
3562.673	102
3565.507	102
3568.339	95
3571.169	92
3573.996	81
3576.822	85
3579.645	75
3582.466	73
3585.285	69
3588.101	60
3590.916	56
3593.728	47
3596.538	45
3599.346	45
3602.152	40
3604.956	38
3607.757	32
3610.556	31
3613.354	25
3616.149	20
3618.942	13
3621.732	11
3624.521	13
3627.307	14
3630.092	7
3632.874	11
3635.654	8
3638.432	-1
3641.208	-1
3643.982	-5
3646.753	-5
3649.523	-3
3652.29	-8
3655.055	-13
3657.818	-14
3660.579	-22
3663.338	-17
3666.095	-23
3668.849	-26
3671.602	-24
3674.352	-30
3677.101	-33
3679.847	-34
3682.591	-34
3685.333	-32
3688.073	-37
3690.811	-39
3693.547	-42
3696.281	-40
3699.013	-40
3701.742	-40
3704.47	-40
3707.195	-40
3709.919	-45
3712.64	-51
3715.359	-48
3718.076	-47
3720.792	-53
3723.505	-46
3726.216	-52
3728.925	-51
3731.632	-55
3734.336	-49
3737.039	-55
3739.74	-52
3742.439	-51
3745.136	-57
3747.83	-57
3750.523	-55
3753.213	-57
3755.902	-58
3758.589	-57
3761.273	-58
3763.956	-60
3766.636	-57
3769.315	-57
3771.991	-61
3774.665	-60
3777.338	-61
3780.008	-60
3782.677	-60
3785.343	-64
3788.007	-63
3790.67	-59
3793.33	-63
3795.989	-64
3798.645	-62
3801.299	-61
3803.952	-62
3806.602	-64
3809.251	-63
3811.897	-65
3814.542	-65
3817.184	-62
3819.825	-67
3822.463	-64
3825.1	-68
3827.735	-67
3830.367	-71
3832.998	-67
3835.627	-65
3838.253	-68
3840.878	-70
3843.501	-69
3846.122	-68
3848.741	-72
3851.358	-74
3853.973	-68
3856.586	-66
3859.197	-69
3861.806	-67
3864.414	-70
3867.019	-67
3869.622	-68
3872.224	-69
3874.823	-72
3877.421	-69
3880.016	-70
3882.61	-65
3885.202	-64
3887.792	-62
3890.38	-65
3892.966	-67
3895.55	-72
3898.132	-75
3900.713	-76
3903.291	-74
3905.868	-69
3908.442	-71
3911.015	-72
3913.586	-71
3916.155	-72
3918.722	-74
3921.287	-71
3923.85	-77
3926.411	-70
3928.971	-72
3931.528	-73
3934.084	-73
3936.638	-76
3939.19	-74
3941.74	-75
3944.288	-73
3946.834	-73
3949.378	-74
3951.921	-71
3954.462	-73
3957	-70
3959.537	-69
3962.072	-73
3964.606	-71
3967.137	-73
3969.667	-71
3972.194	-72
3974.72	-74
3977.244	-72
3979.766	-71
3982.286	-69
3984.805	-75
3987.321	-73
3989.836	-72
3992.349	-74
3994.86	-69
3997.369	-67
3999.877	-73
4002.382	-73
4004.886	-76
4007.388	-73
4009.888	-69
4012.386	-65
4014.883	-70
4017.377	-72
4019.87	-72
4022.361	-74
4024.85	-75
4027.338	-74
4029.823	-66
4032.307	-68
4034.789	-70
4037.269	-73
4039.747	-73
4042.224	-76
4044.699	-71
4047.172	-75
4049.643	-71
4052.112	-71
4054.58	-74
4057.046	-70
4059.51	-76
4061.972	-74
4064.432	-73
4066.891	-71
4069.348	-73
4071.803	-73
4074.256	-75
4076.708	-79
4079.158	-73
4081.606	-70
4084.052	-73
4086.497	-74
4088.939	-73
4091.38	-76
4093.819	-73
4096.257	-74
4098.693	-79
4101.127	-78
4103.559	-77
4105.989	-28
4108.418	-21
4110.845	-19
4113.27	-15
4115.694	-16
4118.115	-14
4120.535	-76
4122.954	-72
4125.37	-72
4127.785	-73
4130.198	-75
4132.609	-75
4135.019	-78
4137.427	-76
4139.833	-76
4142.237	-78
