Data from 1CFU2_FROM15TH_ramanshift_RamanShift_13-22-05-790.txt Node
Date: Sun Dec 25 13:22:05 IST 2016
User: aro
Spectrometer: QEPB0276
Trigger mode: 0
Integration Time (sec): 5.000000E0
Scans to average: 1
Electric dark correction enabled: true
Nonlinearity correction enabled: false
Boxcar width: 0
XAxis mode: Raman Shifts
Number of Pixels in Spectrum: 1044
>>>>>Begin Spectral Data<<<<<
160.701	8.25
166.742	20.25
172.777	72.25
178.805	216.25
184.826	655.25
190.841	1557.25
196.849	2836.25
202.85	4013.25
208.845	4636.25
214.833	4659.25
220.815	4496.25
226.789	4317.25
232.758	4275.25
238.719	4166.25
244.674	4044.25
250.623	3933.25
256.565	3773.25
262.5	3598.25
268.429	3456.25
274.351	3322.25
280.267	3235.25
286.176	3126.25
292.079	3038.25
297.975	2948.25
303.865	2870.25
309.748	2817.25
315.625	2765.25
321.495	2683.25
327.359	2646.25
333.217	2603.25
339.068	2577.25
344.912	2575.25
350.751	2556.25
356.583	2573.25
362.408	2566.25
368.227	2553.25
374.04	2576.25
379.847	2577.25
385.647	2583.25
391.44	2572.25
397.228	2599.25
403.009	2633.25
408.784	2643.25
414.553	2642.25
420.315	2654.25
426.071	2665.25
431.821	2645.25
437.565	2628.25
443.302	2666.25
449.033	2643.25
454.758	2653.25
460.477	2653.25
466.189	2615.25
471.896	2620.25
477.596	2630.25
483.29	2612.25
488.978	2596.25
494.66	2588.25
500.335	2591.25
506.005	2584.25
511.668	2517.25
517.325	2504.25
522.977	2451.25
528.622	2437.25
534.261	2401.25
539.894	2396.25
545.521	2403.25
551.141	2362.25
556.756	2368.25
562.365	2348.25
567.968	2352.25
573.565	2328.25
579.155	2314.25
584.74	2317.25
590.319	2301.25
595.892	2304.25
601.459	2282.25
607.02	2283.25
612.575	2239.25
618.124	2250.25
623.667	2236.25
629.204	2221.25
634.735	2199.25
640.261	2177.25
645.781	2162.25
651.294	2170.25
656.802	2140.25
662.304	2166.25
667.8	2135.25
673.29	2128.25
678.775	2130.25
684.254	2124.25
689.726	2128.25
695.193	2106.25
700.655	2112.25
706.11	2078.25
711.56	2080.25
717.004	2088.25
722.442	2065.25
727.874	2049.25
733.301	2050.25
738.722	2050.25
744.137	2035.25
749.547	2038.25
754.951	2026.25
760.349	2027.25
765.741	2040.25
771.128	2033.25
776.509	2029.25
781.885	2042.25
787.254	2037.25
792.618	2028.25
797.977	2032.25
803.33	2041.25
808.677	2005.25
814.019	2004.25
819.355	1995.25
824.686	1965.25
830.011	1946.25
835.33	1935.25
840.644	1936.25
845.952	1944.25
851.255	1927.25
856.552	1923.25
861.844	1922.25
867.13	1919.25
872.41	1926.25
877.686	1893.25
882.955	1888.25
888.219	1864.25
893.478	1855.25
898.731	1841.25
903.979	1819.25
909.221	1792.25
914.458	1787.25
919.69	1765.25
924.916	1762.25
930.136	1780.25
935.351	1778.25
940.561	1793.25
945.766	1791.25
950.965	1773.25
956.158	1781.25
961.347	1738.25
966.529	1735.25
971.707	1731.25
976.879	1699.25
982.046	1670.25
987.208	1667.25
992.364	1670.25
997.515	1663.25
1002.66	1676.25
1007.801	1688.25
1012.936	1711.25
1018.066	1718.25
1023.19	1727.25
1028.309	1738.25
1033.423	1738.25
1038.532	1746.25
1043.636	1725.25
1048.734	1719.25
1053.827	1702.25
1058.915	1688.25
1063.998	1682.25
1069.075	1648.25
1074.147	1677.25
1079.214	1672.25
1084.276	1694.25
1089.333	1718.25
1094.385	1718.25
1099.431	1723.25
1104.472	1721.25
1109.509	1711.25
1114.54	1709.25
1119.565	1690.25
1124.586	1672.25
1129.602	1658.25
1134.613	1651.25
1139.618	1640.25
1144.619	1653.25
1149.614	1654.25
1154.604	1659.25
1159.589	1659.25
1164.57	1670.25
1169.545	1683.25
1174.515	1687.25
1179.48	1687.25
1184.44	1657.25
1189.395	1653.25
1194.345	1647.25
1199.29	1638.25
1204.23	1640.25
1209.165	1645.25
1214.095	1670.25
1219.021	1670.25
1223.941	1680.25
1228.856	1692.25
1233.766	1696.25
1238.672	1695.25
1243.572	1697.25
1248.467	1687.25
1253.358	1688.25
1258.244	1657.25
1263.124	1664.25
1268	1632.25
1272.871	1621.25
1277.737	1593.25
1282.599	1584.25
1287.455	1596.25
1292.306	1590.25
1297.153	1593.25
1301.995	1600.25
1306.832	1623.25
1311.664	1629.25
1316.491	1633.25
1321.314	1631.25
1326.132	1635.25
1330.945	1597.25
1335.753	1595.25
1340.556	1564.25
1345.354	1545.25
1350.148	1535.25
1354.937	1520.25
1359.722	1528.25
1364.501	1497.25
1369.276	1503.25
1374.046	1504.25
1378.811	1499.25
1383.572	1499.25
1388.327	1476.25
1393.079	1492.25
1397.825	1483.25
1402.567	1469.25
1407.304	1456.25
1412.036	1448.25
1416.764	1425.25
1421.487	1439.25
1426.205	1444.25
1430.919	1452.25
1435.628	1453.25
1440.333	1482.25
1445.032	1470.25
1449.727	1503.25
1454.418	1509.25
1459.104	1497.25
1463.785	1495.25
1468.462	1486.25
1473.134	1458.25
1477.802	1455.25
1482.465	1434.25
1487.123	1419.25
1491.777	1418.25
1496.426	1430.25
1501.071	1433.25
1505.711	1440.25
1510.347	1446.25
1514.978	1454.25
1519.604	1472.25
1524.226	1486.25
1528.844	1481.25
1533.457	1475.25
1538.065	1511.25
1542.669	1480.25
1547.269	1480.25
1551.864	1460.25
1556.454	1469.25
1561.041	1489.25
1565.622	1486.25
1570.199	1516.25
1574.772	1512.25
1579.34	1530.25
1583.904	1556.25
1588.464	1576.25
1593.019	1580.25
1597.569	1585.25
1602.115	1592.25
1606.657	1621.25
1611.195	1609.25
1615.728	1610.25
1620.256	1636.25
1624.78	1621.25
1629.3	1653.25
1633.816	1639.25
1638.327	1681.25
1642.834	1694.25
1647.336	1722.25
1651.834	1726.25
1656.328	1715.25
1660.817	1721.25
1665.302	1703.25
1669.783	1673.25
1674.259	1635.25
1678.732	1609.25
1683.199	1567.25
1687.663	1537.25
1692.122	1487.25
1696.577	1440.25
1701.028	1397.25
1705.474	1350.25
1709.917	1314.25
1714.355	1299.25
1718.788	1267.25
1723.218	1266.25
1727.643	1275.25
1732.064	1235.25
1736.481	1220.25
1740.893	1188.25
1745.301	1158.25
1749.705	1141.25
1754.105	1118.25
1758.501	1089.25
1762.893	1090.25
1767.28	1074.25
1771.663	1055.25
1776.042	1057.25
1780.417	1050.25
1784.787	1050.25
1789.154	1034.25
1793.516	1035.25
1797.874	1050.25
1802.228	1049.25
1806.578	1037.25
1810.924	1044.25
1815.266	1019.25
1819.603	1018.25
1823.937	1013.25
1828.266	992.25
1832.591	998.25
1836.913	974.25
1841.23	975.25
1845.543	970.25
1849.852	962.25
1854.156	972.25
1858.457	973.25
1862.754	970.25
1867.047	970.25
1871.335	997.25
1875.62	981.25
1879.9	988.25
1884.177	973.25
1888.449	990.25
1892.718	981.25
1896.982	958.25
1901.243	949.25
1905.499	956.25
1909.752	951.25
1914	955.25
1918.245	936.25
1922.485	944.25
1926.722	947.25
1930.954	938.25
1935.183	934.25
1939.408	959.25
1943.628	966.25
1947.845	965.25
1952.058	953.25
1956.267	962.25
1960.472	944.25
1964.673	943.25
1968.87	934.25
1973.063	923.25
1977.252	918.25
1981.438	916.25
1985.619	908.25
1989.797	902.25
1993.971	908.25
1998.14	915.25
2002.306	913.25
2006.469	921.25
2010.627	919.25
2014.781	925.25
2018.932	915.25
2023.078	918.25
2027.221	910.25
2031.36	906.25
2035.495	886.25
2039.627	881.25
2043.754	868.25
2047.878	880.25
2051.998	873.25
2056.114	865.25
2060.226	875.25
2064.334	875.25
2068.439	887.25
2072.54	868.25
2076.637	878.25
2080.73	884.25
2084.82	892.25
2088.906	884.25
2092.988	887.25
2097.066	885.25
2101.14	883.25
2105.211	868.25
2109.278	875.25
2113.342	856.25
2117.401	860.25
2121.457	856.25
2125.509	854.25
2129.558	846.25
2133.602	852.25
2137.643	842.25
2141.681	846.25
2145.714	832.25
2149.744	829.25
2153.77	825.25
2157.793	827.25
2161.812	817.25
2165.827	815.25
2169.838	812.25
2173.846	793.25
2177.851	779.25
2181.851	774.25
2185.848	775.25
2189.841	758.25
2193.831	759.25
2197.817	754.25
2201.799	742.25
2205.778	740.25
2209.753	748.25
2213.725	737.25
2217.693	737.25
2221.657	736.25
2225.618	736.25
2229.575	736.25
2233.529	747.25
2237.479	725.25
2241.425	728.25
2245.368	715.25
2249.307	708.25
2253.243	696.25
2257.175	687.25
2261.104	669.25
2265.029	672.25
2268.95	668.25
2272.868	661.25
2276.783	664.25
2280.694	651.25
2284.601	647.25
2288.505	635.25
2292.405	642.25
2296.302	621.25
2300.195	620.25
2304.085	611.25
2307.971	605.25
2311.854	597.25
2315.734	587.25
2319.609	580.25
2323.482	566.25
2327.351	561.25
2331.216	564.25
2335.078	558.25
2338.937	556.25
2342.792	549.25
2346.643	548.25
2350.492	550.25
2354.336	547.25
2358.178	549.25
2362.015	543.25
2365.85	546.25
2369.681	542.25
2373.508	558.25
2377.333	550.25
2381.153	546.25
2384.971	545.25
2388.785	540.25
2392.595	544.25
2396.402	526.25
2400.206	541.25
2404.007	531.25
2407.804	536.25
2411.597	518.25
2415.388	523.25
2419.174	525.25
2422.958	518.25
2426.738	521.25
2430.515	520.25
2434.289	517.25
2438.059	519.25
2441.825	508.25
2445.589	508.25
2449.349	493.25
2453.106	503.25
2456.859	493.25
2460.61	499.25
2464.356	487.25
2468.1	491.25
2471.84	479.25
2475.577	479.25
2479.311	478.25
2483.041	479.25
2486.768	468.25
2490.492	475.25
2494.213	483.25
2497.93	479.25
2501.644	478.25
2505.355	469.25
2509.062	475.25
2512.766	468.25
2516.467	472.25
2520.165	454.25
2523.859	460.25
2527.551	448.25
2531.239	456.25
2534.923	453.25
2538.605	444.25
2542.283	451.25
2545.958	442.25
2549.63	435.25
2553.299	431.25
2556.964	432.25
2560.626	437.25
2564.285	429.25
2567.941	432.25
2571.594	427.25
2575.243	417.25
2578.89	421.25
2582.533	420.25
2586.173	415.25
2589.809	417.25
2593.443	411.25
2597.073	416.25
2600.701	412.25
2604.325	394.25
2607.946	404.25
2611.564	400.25
2615.178	398.25
2618.79	404.25
2622.398	398.25
2626.004	393.25
2629.606	394.25
2633.205	385.25
2636.801	391.25
2640.394	390.25
2643.983	368.25
2647.57	373.25
2651.153	364.25
2654.734	367.25
2658.311	370.25
2661.885	361.25
2665.456	363.25
2669.025	358.25
2672.589	370.25
2676.151	359.25
2679.71	351.25
2683.266	356.25
2686.819	340.25
2690.368	344.25
2693.915	342.25
2697.458	340.25
2700.999	333.25
2704.536	326.25
2708.071	327.25
2711.602	320.25
2715.13	325.25
2718.656	312.25
2722.178	315.25
2725.697	305.25
2729.214	315.25
2732.727	321.25
2736.237	316.25
2739.744	315.25
2743.249	314.25
2746.75	308.25
2750.248	318.25
2753.743	320.25
2757.236	315.25
2760.725	315.25
2764.211	315.25
2767.695	307.25
2771.175	300.25
2774.652	298.25
2778.127	297.25
2781.598	297.25
2785.067	307.25
2788.532	305.25
2791.995	294.25
2795.455	296.25
2798.911	296.25
2802.365	302.25
2805.816	298.25
2809.264	293.25
2812.709	295.25
2816.151	299.25
2819.59	292.25
2823.026	293.25
2826.46	295.25
2829.89	302.25
2833.318	294.25
2836.742	294.25
2840.164	289.25
2843.583	297.25
2846.999	304.25
2850.412	299.25
2853.822	309.25
2857.229	305.25
2860.634	302.25
2864.035	301.25
2867.434	316.25
2870.83	317.25
2874.223	317.25
2877.613	321.25
2881	325.25
2884.385	324.25
2887.766	321.25
2891.145	321.25
2894.521	323.25
2897.894	316.25
2901.264	321.25
2904.631	324.25
2907.996	329.25
2911.358	329.25
2914.717	314.25
2918.073	323.25
2921.426	318.25
2924.777	329.25
2928.124	332.25
2931.469	333.25
2934.811	339.25
2938.15	349.25
2941.487	355.25
2944.821	348.25
2948.152	350.25
2951.48	353.25
2954.805	357.25
2958.128	359.25
2961.447	372.25
2964.765	371.25
2968.079	377.25
2971.39	381.25
2974.699	389.25
2978.005	375.25
2981.308	387.25
2984.609	396.25
2987.907	410.25
2991.202	421.25
2994.494	428.25
2997.784	441.25
3001.07	448.25
3004.355	467.25
3007.636	472.25
3010.915	476.25
3014.191	487.25
3017.464	498.25
3020.734	505.25
3024.002	499.25
3027.267	509.25
3030.53	513.25
3033.789	517.25
3037.046	525.25
3040.301	538.25
3043.552	552.25
3046.801	564.25
3050.048	585.25
3053.291	591.25
3056.532	603.25
3059.771	619.25
3063.006	641.25
3066.239	643.25
3069.469	668.25
3072.697	693.25
3075.922	708.25
3079.144	717.25
3082.364	732.25
3085.581	754.25
3088.795	766.25
3092.007	777.25
3095.216	804.25
3098.423	810.25
3101.627	816.25
3104.828	845.25
3108.026	865.25
3111.222	875.25
3114.416	899.25
3117.607	911.25
3120.795	931.25
3123.98	947.25
3127.163	971.25
3130.344	993.25
3133.521	1004.25
3136.696	1022.25
3139.869	1047.25
3143.039	1060.25
3146.206	1087.25
3149.371	1090.25
3152.533	1106.25
3155.693	1112.25
3158.85	1134.25
3162.005	1118.25
3165.157	1143.25
3168.306	1126.25
3171.453	1136.25
3174.597	1127.25
3177.739	1140.25
3180.878	1157.25
3184.014	1165.25
3187.149	1162.25
3190.28	1143.25
3193.409	1157.25
3196.536	1178.25
3199.659	1168.25
3202.781	1176.25
3205.9	1173.25
3209.016	1182.25
3212.13	1167.25
3215.241	1183.25
3218.35	1171.25
3221.456	1149.25
3224.56	1143.25
3227.661	1113.25
3230.76	1108.25
3233.856	1107.25
3236.95	1087.25
3240.041	1092.25
3243.13	1072.25
3246.216	1070.25
3249.3	1065.25
3252.382	1047.25
3255.46	1042.25
3258.537	1027.25
3261.611	1023.25
3264.682	1029.25
3267.751	1017.25
3270.818	1020.25
3273.882	1023.25
3276.943	1011.25
3280.002	1008.25
3283.059	990.25
3286.113	986.25
3289.165	963.25
3292.214	961.25
3295.261	946.25
3298.306	933.25
3301.348	914.25
3304.387	916.25
3307.425	893.25
3310.459	883.25
3313.492	874.25
3316.521	866.25
3319.549	859.25
3322.574	853.25
3325.597	844.25
3328.617	827.25
3331.635	831.25
3334.65	831.25
3337.663	812.25
3340.674	820.25
3343.682	816.25
3346.688	805.25
3349.691	806.25
3352.692	810.25
3355.691	789.25
3358.687	792.25
3361.681	786.25
3364.673	771.25
3367.662	762.25
3370.649	757.25
3373.633	752.25
3376.615	735.25
3379.595	715.25
3382.572	711.25
3385.547	707.25
3388.52	698.25
3391.49	694.25
3394.458	683.25
3397.424	678.25
3400.387	660.25
3403.348	643.25
3406.307	642.25
3409.263	645.25
3412.217	633.25
3415.168	626.25
3418.118	625.25
3421.065	612.25
3424.009	608.25
3426.951	605.25
3429.891	588.25
3432.829	570.25
3435.764	579.25
3438.697	565.25
3441.628	547.25
3444.557	527.25
3447.483	511.25
3450.407	513.25
3453.328	489.25
3456.247	481.25
3459.164	464.25
3462.079	454.25
3464.991	441.25
3467.902	433.25
3470.809	417.25
3473.715	403.25
3476.618	388.25
3479.519	390.25
3482.418	371.25
3485.315	355.25
3488.209	353.25
3491.101	344.25
3493.99	326.25
3496.878	320.25
3499.763	316.25
3502.646	306.25
3505.527	299.25
3508.405	284.25
3511.281	275.25
3514.155	263.25
3517.027	244.25
3519.897	238.25
3522.764	242.25
3525.629	222.25
3528.492	211.25
3531.352	201.25
3534.211	193.25
3537.067	177.25
3539.921	174.25
3542.773	166.25
3545.622	160.25
3548.469	153.25
3551.315	138.25
3554.157	126.25
3556.998	126.25
3559.837	112.25
3562.673	114.25
3565.507	108.25
3568.339	113.25
3571.169	98.25
3573.996	87.25
3576.822	89.25
3579.645	80.25
3582.466	77.25
3585.285	76.25
3588.101	62.25
3590.916	60.25
3593.728	59.25
3596.538	53.25
3599.346	51.25
3602.152	46.25
3604.956	39.25
3607.757	37.25
3610.556	29.25
3613.354	28.25
3616.149	20.25
3618.942	22.25
3621.732	17.25
3624.521	14.25
3627.307	16.25
3630.092	7.25
3632.874	12.25
3635.654	6.25
3638.432	3.25
3641.208	1.25
3643.982	2.25
3646.753	-0.75
3649.523	-2.75
3652.29	-4.75
3655.055	-14.75
3657.818	-15.75
3660.579	-15.75
3663.338	-16.75
3666.095	-14.75
3668.849	-20.75
3671.602	-25.75
3674.352	-34.75
3677.101	-29.75
3679.847	-34.75
3682.591	-34.75
3685.333	-33.75
3688.073	-33.75
3690.811	-34.75
3693.547	-41.75
3696.281	-40.75
3699.013	-41.75
3701.742	-44.75
3704.47	-47.75
3707.195	-44.75
3709.919	-47.75
3712.64	-49.75
3715.359	-48.75
3718.076	-49.75
3720.792	-52.75
3723.505	-49.75
3726.216	-55.75
3728.925	-57.75
3731.632	-57.75
3734.336	-52.75
3737.039	-56.75
3739.74	-54.75
3742.439	-50.75
3745.136	-53.75
3747.83	-58.75
3750.523	-59.75
3753.213	-60.75
3755.902	-62.75
3758.589	-56.75
3761.273	-55.75
3763.956	-59.75
3766.636	-54.75
3769.315	-58.75
3771.991	-63.75
3774.665	-66.75
3777.338	-62.75
3780.008	-62.75
3782.677	-60.75
3785.343	-63.75
3788.007	-64.75
3790.67	-62.75
3793.33	-64.75
3795.989	-64.75
3798.645	-66.75
3801.299	-64.75
3803.952	-62.75
3806.602	-62.75
3809.251	-62.75
3811.897	-65.75
3814.542	-67.75
3817.184	-65.75
3819.825	-66.75
3822.463	-66.75
3825.1	-70.75
3827.735	-66.75
3830.367	-67.75
3832.998	-67.75
3835.627	-66.75
3838.253	-65.75
3840.878	-72.75
3843.501	-67.75
3846.122	-71.75
3848.741	-73.75
3851.358	-69.75
3853.973	-68.75
3856.586	-65.75
3859.197	-69.75
3861.806	-69.75
3864.414	-73.75
3867.019	-70.75
3869.622	-68.75
3872.224	-69.75
3874.823	-72.75
3877.421	-67.75
3880.016	-68.75
3882.61	-66.75
3885.202	-64.75
3887.792	-65.75
3890.38	-68.75
3892.966	-70.75
3895.55	-73.75
3898.132	-71.75
3900.713	-74.75
3903.291	-75.75
3905.868	-73.75
3908.442	-69.75
3911.015	-76.75
3913.586	-72.75
3916.155	-70.75
3918.722	-73.75
3921.287	-73.75
3923.85	-74.75
3926.411	-69.75
3928.971	-72.75
3931.528	-76.75
3934.084	-78.75
3936.638	-76.75
3939.19	-78.75
3941.74	-76.75
3944.288	-75.75
3946.834	-73.75
3949.378	-72.75
3951.921	-72.75
3954.462	-74.75
3957	-74.75
3959.537	-75.75
3962.072	-75.75
3964.606	-74.75
3967.137	-77.75
3969.667	-73.75
3972.194	-73.75
3974.72	-77.75
3977.244	-74.75
3979.766	-74.75
3982.286	-71.75
3984.805	-76.75
3987.321	-74.75
3989.836	-74.75
3992.349	-70.75
3994.86	-69.75
3997.369	-66.75
3999.877	-72.75
4002.382	-72.75
4004.886	-76.75
4007.388	-76.75
4009.888	-72.75
4012.386	-68.75
4014.883	-70.75
4017.377	-71.75
4019.87	-75.75
4022.361	-72.75
4024.85	-71.75
4027.338	-71.75
4029.823	-70.75
4032.307	-69.75
4034.789	-73.75
4037.269	-75.75
4039.747	-74.75
4042.224	-75.75
4044.699	-73.75
4047.172	-73.75
4049.643	-70.75
4052.112	-72.75
4054.58	-72.75
4057.046	-73.75
4059.51	-73.75
4061.972	-72.75
4064.432	-73.75
4066.891	-72.75
4069.348	-75.75
4071.803	-74.75
4074.256	-76.75
4076.708	-76.75
4079.158	-72.75
4081.606	-71.75
4084.052	-73.75
4086.497	-77.75
4088.939	-75.75
4091.38	-77.75
4093.819	-73.75
4096.257	-78.75
4098.693	-79.75
4101.127	-78.75
4103.559	-78.75
4105.989	-29.75
4108.418	-23.75
4110.845	-17.75
4113.27	-14.75
4115.694	-11.75
4118.115	-15.75
4120.535	-73.75
4122.954	-74.75
4125.37	-74.75
4127.785	-72.75
4130.198	-73.75
4132.609	-79.75
4135.019	-83.75
4137.427	-77.75
4139.833	-77.75
4142.237	-77.75
