Data from 1CFU3_C_ramanshift_RamanShift_15-13-42-616.txt Node
Date: Sun Dec 25 15:13:42 IST 2016
User: aro
Spectrometer: QEPB0276
Trigger mode: 0
Integration Time (sec): 5.000000E0
Scans to average: 1
Electric dark correction enabled: true
Nonlinearity correction enabled: false
Boxcar width: 0
XAxis mode: Raman Shifts
Number of Pixels in Spectrum: 1044
>>>>>Begin Spectral Data<<<<<
160.701	2.25
166.742	23.25
172.777	70.25
178.805	218.25
184.826	651.25
190.841	1557.25
196.849	2873.25
202.85	4085.25
208.845	4721.25
214.833	4721.25
220.815	4565.25
226.789	4383.25
232.758	4305.25
238.719	4169.25
244.674	4030.25
250.623	3888.25
256.565	3716.25
262.5	3556.25
268.429	3374.25
274.351	3259.25
280.267	3093.25
286.176	2972.25
292.079	2865.25
297.975	2792.25
303.865	2702.25
309.748	2599.25
315.625	2524.25
321.495	2463.25
327.359	2417.25
333.217	2354.25
339.068	2358.25
344.912	2344.25
350.751	2319.25
356.583	2316.25
362.408	2314.25
368.227	2318.25
374.04	2328.25
379.847	2303.25
385.647	2328.25
391.44	2314.25
397.228	2334.25
403.009	2372.25
408.784	2374.25
414.553	2394.25
420.315	2393.25
426.071	2408.25
431.821	2404.25
437.565	2388.25
443.302	2404.25
449.033	2387.25
454.758	2401.25
460.477	2364.25
466.189	2366.25
471.896	2369.25
477.596	2349.25
483.29	2349.25
488.978	2317.25
494.66	2359.25
500.335	2328.25
506.005	2279.25
511.668	2257.25
517.325	2195.25
522.977	2171.25
528.622	2166.25
534.261	2149.25
539.894	2111.25
545.521	2098.25
551.141	2080.25
556.756	2075.25
562.365	2066.25
567.968	2063.25
573.565	2036.25
579.155	2012.25
584.74	2008.25
590.319	1991.25
595.892	2002.25
601.459	1986.25
607.02	1984.25
612.575	1953.25
618.124	1936.25
623.667	1915.25
629.204	1919.25
634.735	1894.25
640.261	1879.25
645.781	1883.25
651.294	1879.25
656.802	1867.25
662.304	1856.25
667.8	1838.25
673.29	1847.25
678.775	1832.25
684.254	1818.25
689.726	1821.25
695.193	1822.25
700.655	1821.25
706.11	1788.25
711.56	1778.25
717.004	1781.25
722.442	1768.25
727.874	1769.25
733.301	1743.25
738.722	1747.25
744.137	1730.25
749.547	1722.25
754.951	1711.25
760.349	1725.25
765.741	1733.25
771.128	1724.25
776.509	1717.25
781.885	1726.25
787.254	1730.25
792.618	1710.25
797.977	1710.25
803.33	1688.25
808.677	1682.25
814.019	1662.25
819.355	1659.25
824.686	1649.25
830.011	1626.25
835.33	1616.25
840.644	1622.25
845.952	1626.25
851.255	1605.25
856.552	1624.25
861.844	1605.25
867.13	1596.25
872.41	1583.25
877.686	1561.25
882.955	1553.25
888.219	1538.25
893.478	1520.25
898.731	1507.25
903.979	1475.25
909.221	1453.25
914.458	1463.25
919.69	1444.25
924.916	1440.25
930.136	1453.25
935.351	1449.25
940.561	1439.25
945.766	1446.25
950.965	1424.25
956.158	1441.25
961.347	1394.25
966.529	1396.25
971.707	1388.25
976.879	1368.25
982.046	1359.25
987.208	1322.25
992.364	1317.25
997.515	1346.25
1002.66	1342.25
1007.801	1353.25
1012.936	1358.25
1018.066	1374.25
1023.19	1379.25
1028.309	1394.25
1033.423	1385.25
1038.532	1386.25
1043.636	1371.25
1048.734	1379.25
1053.827	1351.25
1058.915	1344.25
1063.998	1335.25
1069.075	1324.25
1074.147	1328.25
1079.214	1326.25
1084.276	1350.25
1089.333	1334.25
1094.385	1360.25
1099.431	1368.25
1104.472	1355.25
1109.509	1376.25
1114.54	1351.25
1119.565	1340.25
1124.586	1330.25
1129.602	1325.25
1134.613	1314.25
1139.618	1284.25
1144.619	1291.25
1149.614	1285.25
1154.604	1299.25
1159.589	1305.25
1164.57	1298.25
1169.545	1313.25
1174.515	1337.25
1179.48	1321.25
1184.44	1310.25
1189.395	1318.25
1194.345	1292.25
1199.29	1307.25
1204.23	1317.25
1209.165	1303.25
1214.095	1307.25
1219.021	1318.25
1223.941	1327.25
1228.856	1348.25
1233.766	1361.25
1238.672	1350.25
1243.572	1338.25
1248.467	1357.25
1253.358	1341.25
1258.244	1328.25
1263.124	1288.25
1268	1290.25
1272.871	1266.25
1277.737	1276.25
1282.599	1255.25
1287.455	1264.25
1292.306	1262.25
1297.153	1270.25
1301.995	1274.25
1306.832	1280.25
1311.664	1275.25
1316.491	1300.25
1321.314	1301.25
1326.132	1274.25
1330.945	1279.25
1335.753	1259.25
1340.556	1245.25
1345.354	1232.25
1350.148	1226.25
1354.937	1227.25
1359.722	1212.25
1364.501	1196.25
1369.276	1182.25
1374.046	1160.25
1378.811	1171.25
1383.572	1165.25
1388.327	1169.25
1393.079	1176.25
1397.825	1172.25
1402.567	1155.25
1407.304	1159.25
1412.036	1149.25
1416.764	1130.25
1421.487	1137.25
1426.205	1135.25
1430.919	1145.25
1435.628	1162.25
1440.333	1170.25
1445.032	1192.25
1449.727	1201.25
1454.418	1199.25
1459.104	1202.25
1463.785	1196.25
1468.462	1182.25
1473.134	1168.25
1477.802	1166.25
1482.465	1163.25
1487.123	1140.25
1491.777	1145.25
1496.426	1145.25
1501.071	1144.25
1505.711	1155.25
1510.347	1158.25
1514.978	1174.25
1519.604	1190.25
1524.226	1201.25
1528.844	1205.25
1533.457	1184.25
1538.065	1190.25
1542.669	1194.25
1547.269	1185.25
1551.864	1185.25
1556.454	1187.25
1561.041	1208.25
1565.622	1207.25
1570.199	1218.25
1574.772	1237.25
1579.34	1265.25
1583.904	1267.25
1588.464	1295.25
1593.019	1326.25
1597.569	1343.25
1602.115	1341.25
1606.657	1356.25
1611.195	1360.25
1615.728	1371.25
1620.256	1387.25
1624.78	1410.25
1629.3	1408.25
1633.816	1441.25
1638.327	1440.25
1642.834	1461.25
1647.336	1490.25
1651.834	1491.25
1656.328	1491.25
1660.817	1488.25
1665.302	1478.25
1669.783	1464.25
1674.259	1426.25
1678.732	1375.25
1683.199	1335.25
1687.663	1318.25
1692.122	1274.25
1696.577	1244.25
1701.028	1181.25
1705.474	1130.25
1709.917	1097.25
1714.355	1069.25
1718.788	1051.25
1723.218	1046.25
1727.643	1026.25
1732.064	1020.25
1736.481	1008.25
1740.893	964.25
1745.301	940.25
1749.705	927.25
1754.105	907.25
1758.501	899.25
1762.893	879.25
1767.28	862.25
1771.663	853.25
1776.042	841.25
1780.417	838.25
1784.787	829.25
1789.154	843.25
1793.516	850.25
1797.874	844.25
1802.228	846.25
1806.578	823.25
1810.924	818.25
1815.266	809.25
1819.603	785.25
1823.937	789.25
1828.266	769.25
1832.591	781.25
1836.913	776.25
1841.23	766.25
1845.543	769.25
1849.852	779.25
1854.156	778.25
1858.457	769.25
1862.754	772.25
1867.047	785.25
1871.335	780.25
1875.62	779.25
1879.9	782.25
1884.177	789.25
1888.449	787.25
1892.718	782.25
1896.982	773.25
1901.243	756.25
1905.499	771.25
1909.752	778.25
1914	770.25
1918.245	754.25
1922.485	767.25
1926.722	764.25
1930.954	765.25
1935.183	769.25
1939.408	782.25
1943.628	779.25
1947.845	771.25
1952.058	772.25
1956.267	766.25
1960.472	771.25
1964.673	761.25
1968.87	758.25
1973.063	743.25
1977.252	736.25
1981.438	735.25
1985.619	737.25
1989.797	722.25
1993.971	743.25
1998.14	750.25
2002.306	734.25
2006.469	747.25
2010.627	755.25
2014.781	747.25
2018.932	750.25
2023.078	747.25
2027.221	753.25
2031.36	737.25
2035.495	727.25
2039.627	725.25
2043.754	722.25
2047.878	729.25
2051.998	723.25
2056.114	714.25
2060.226	727.25
2064.334	728.25
2068.439	737.25
2072.54	741.25
2076.637	730.25
2080.73	735.25
2084.82	743.25
2088.906	735.25
2092.988	749.25
2097.066	738.25
2101.14	742.25
2105.211	737.25
2109.278	736.25
2113.342	729.25
2117.401	722.25
2121.457	724.25
2125.509	709.25
2129.558	711.25
2133.602	714.25
2137.643	708.25
2141.681	709.25
2145.714	712.25
2149.744	712.25
2153.77	695.25
2157.793	696.25
2161.812	691.25
2165.827	684.25
2169.838	672.25
2173.846	670.25
2177.851	655.25
2181.851	642.25
2185.848	647.25
2189.841	643.25
2193.831	644.25
2197.817	632.25
2201.799	637.25
2205.778	623.25
2209.753	626.25
2213.725	622.25
2217.693	621.25
2221.657	616.25
2225.618	629.25
2229.575	619.25
2233.529	620.25
2237.479	610.25
2241.425	606.25
2245.368	599.25
2249.307	591.25
2253.243	583.25
2257.175	586.25
2261.104	572.25
2265.029	559.25
2268.95	564.25
2272.868	556.25
2276.783	545.25
2280.694	544.25
2284.601	531.25
2288.505	534.25
2292.405	525.25
2296.302	528.25
2300.195	514.25
2304.085	511.25
2307.971	494.25
2311.854	493.25
2315.734	486.25
2319.609	482.25
2323.482	484.25
2327.351	468.25
2331.216	470.25
2335.078	468.25
2338.937	454.25
2342.792	477.25
2346.643	456.25
2350.492	463.25
2354.336	456.25
2358.178	458.25
2362.015	453.25
2365.85	462.25
2369.681	455.25
2373.508	457.25
2377.333	469.25
2381.153	468.25
2384.971	462.25
2388.785	451.25
2392.595	458.25
2396.402	437.25
2400.206	453.25
2404.007	447.25
2407.804	440.25
2411.597	439.25
2415.388	442.25
2419.174	448.25
2422.958	439.25
2426.738	434.25
2430.515	432.25
2434.289	441.25
2438.059	436.25
2441.825	436.25
2445.589	423.25
2449.349	430.25
2453.106	423.25
2456.859	421.25
2460.61	417.25
2464.356	419.25
2468.1	400.25
2471.84	399.25
2475.577	406.25
2479.311	401.25
2483.041	410.25
2486.768	400.25
2490.492	416.25
2494.213	408.25
2497.93	407.25
2501.644	399.25
2505.355	395.25
2509.062	403.25
2512.766	403.25
2516.467	400.25
2520.165	395.25
2523.859	402.25
2527.551	381.25
2531.239	390.25
2534.923	392.25
2538.605	375.25
2542.283	379.25
2545.958	371.25
2549.63	372.25
2553.299	376.25
2556.964	377.25
2560.626	365.25
2564.285	377.25
2567.941	362.25
2571.594	351.25
2575.243	369.25
2578.89	358.25
2582.533	360.25
2586.173	348.25
2589.809	358.25
2593.443	354.25
2597.073	341.25
2600.701	341.25
2604.325	346.25
2607.946	336.25
2611.564	351.25
2615.178	338.25
2618.79	338.25
2622.398	339.25
2626.004	334.25
2629.606	332.25
2633.205	328.25
2636.801	330.25
2640.394	329.25
2643.983	322.25
2647.57	318.25
2651.153	307.25
2654.734	321.25
2658.311	314.25
2661.885	310.25
2665.456	312.25
2669.025	308.25
2672.589	304.25
2676.151	306.25
2679.71	300.25
2683.266	306.25
2686.819	297.25
2690.368	298.25
2693.915	294.25
2697.458	283.25
2700.999	290.25
2704.536	283.25
2708.071	281.25
2711.602	277.25
2715.13	282.25
2718.656	277.25
2722.178	276.25
2725.697	276.25
2729.214	271.25
2732.727	275.25
2736.237	280.25
2739.744	288.25
2743.249	275.25
2746.75	284.25
2750.248	273.25
2753.743	280.25
2757.236	269.25
2760.725	277.25
2764.211	268.25
2767.695	260.25
2771.175	263.25
2774.652	267.25
2778.127	253.25
2781.598	264.25
2785.067	264.25
2788.532	263.25
2791.995	260.25
2795.455	252.25
2798.911	258.25
2802.365	262.25
2805.816	265.25
2809.264	276.25
2812.709	264.25
2816.151	263.25
2819.59	261.25
2823.026	261.25
2826.46	266.25
2829.89	270.25
2833.318	265.25
2836.742	278.25
2840.164	273.25
2843.583	270.25
2846.999	270.25
2850.412	265.25
2853.822	283.25
2857.229	283.25
2860.634	284.25
2864.035	281.25
2867.434	283.25
2870.83	295.25
2874.223	299.25
2877.613	298.25
2881	302.25
2884.385	298.25
2887.766	297.25
2891.145	296.25
2894.521	301.25
2897.894	299.25
2901.264	306.25
2904.631	297.25
2907.996	310.25
2911.358	302.25
2914.717	303.25
2918.073	307.25
2921.426	306.25
2924.777	321.25
2928.124	322.25
2931.469	325.25
2934.811	329.25
2938.15	329.25
2941.487	334.25
2944.821	344.25
2948.152	349.25
2951.48	354.25
2954.805	355.25
2958.128	360.25
2961.447	359.25
2964.765	368.25
2968.079	363.25
2971.39	387.25
2974.699	384.25
2978.005	386.25
2981.308	403.25
2984.609	414.25
2987.907	415.25
2991.202	428.25
2994.494	437.25
2997.784	446.25
3001.07	467.25
3004.355	471.25
3007.636	474.25
3010.915	493.25
3014.191	505.25
3017.464	517.25
3020.734	514.25
3024.002	521.25
3027.267	517.25
3030.53	540.25
3033.789	547.25
3037.046	557.25
3040.301	573.25
3043.552	580.25
3046.801	595.25
3050.048	604.25
3053.291	626.25
3056.532	630.25
3059.771	660.25
3063.006	671.25
3066.239	690.25
3069.469	715.25
3072.697	731.25
3075.922	751.25
3079.144	756.25
3082.364	798.25
3085.581	803.25
3088.795	825.25
3092.007	838.25
3095.216	865.25
3098.423	875.25
3101.627	884.25
3104.828	918.25
3108.026	922.25
3111.222	947.25
3114.416	951.25
3117.607	986.25
3120.795	1004.25
3123.98	1020.25
3127.163	1067.25
3130.344	1062.25
3133.521	1118.25
3136.696	1120.25
3139.869	1149.25
3143.039	1162.25
3146.206	1177.25
3149.371	1200.25
3152.533	1198.25
3155.693	1198.25
3158.85	1215.25
3162.005	1237.25
3165.157	1243.25
3168.306	1225.25
3171.453	1233.25
3174.597	1247.25
3177.739	1258.25
3180.878	1248.25
3184.014	1257.25
3187.149	1245.25
3190.28	1264.25
3193.409	1257.25
3196.536	1267.25
3199.659	1265.25
3202.781	1276.25
3205.9	1262.25
3209.016	1266.25
3212.13	1276.25
3215.241	1267.25
3218.35	1258.25
3221.456	1240.25
3224.56	1238.25
3227.661	1215.25
3230.76	1217.25
3233.856	1189.25
3236.95	1175.25
3240.041	1164.25
3243.13	1158.25
3246.216	1143.25
3249.3	1157.25
3252.382	1145.25
3255.46	1137.25
3258.537	1136.25
3261.611	1120.25
3264.682	1124.25
3267.751	1110.25
3270.818	1112.25
3273.882	1108.25
3276.943	1091.25
3280.002	1095.25
3283.059	1076.25
3286.113	1075.25
3289.165	1057.25
3292.214	1051.25
3295.261	1022.25
3298.306	1005.25
3301.348	991.25
3304.387	972.25
3307.425	963.25
3310.459	951.25
3313.492	942.25
3316.521	922.25
3319.549	922.25
3322.574	918.25
3325.597	905.25
3328.617	893.25
3331.635	905.25
3334.65	882.25
3337.663	876.25
3340.674	880.25
3343.682	874.25
3346.688	859.25
3349.691	861.25
3352.692	851.25
3355.691	858.25
3358.687	859.25
3361.681	858.25
3364.673	841.25
3367.662	825.25
3370.649	811.25
3373.633	796.25
3376.615	783.25
3379.595	764.25
3382.572	762.25
3385.547	749.25
3388.52	754.25
3391.49	743.25
3394.458	729.25
3397.424	724.25
3400.387	712.25
3403.348	704.25
3406.307	690.25
3409.263	689.25
3412.217	685.25
3415.168	675.25
3418.118	675.25
3421.065	653.25
3424.009	654.25
3426.951	653.25
3429.891	632.25
3432.829	623.25
3435.764	617.25
3438.697	591.25
3441.628	597.25
3444.557	579.25
3447.483	560.25
3450.407	544.25
3453.328	519.25
3456.247	519.25
3459.164	493.25
3462.079	497.25
3464.991	480.25
3467.902	475.25
3470.809	448.25
3473.715	431.25
3476.618	418.25
3479.519	415.25
3482.418	402.25
3485.315	390.25
3488.209	381.25
3491.101	370.25
3493.99	368.25
3496.878	351.25
3499.763	338.25
3502.646	330.25
3505.527	310.25
3508.405	312.25
3511.281	298.25
3514.155	286.25
3517.027	276.25
3519.897	265.25
3522.764	254.25
3525.629	242.25
3528.492	228.25
3531.352	220.25
3534.211	208.25
3537.067	197.25
3539.921	187.25
3542.773	188.25
3545.622	176.25
3548.469	159.25
3551.315	155.25
3554.157	142.25
3556.998	140.25
3559.837	136.25
3562.673	130.25
3565.507	119.25
3568.339	118.25
3571.169	106.25
3573.996	98.25
3576.822	97.25
3579.645	85.25
3582.466	84.25
3585.285	86.25
3588.101	74.25
3590.916	71.25
3593.728	63.25
3596.538	56.25
3599.346	50.25
3602.152	50.25
3604.956	50.25
3607.757	43.25
3610.556	42.25
3613.354	34.25
3616.149	29.25
3618.942	22.25
3621.732	18.25
3624.521	16.25
3627.307	15.25
3630.092	14.25
3632.874	15.25
3635.654	8.25
3638.432	9.25
3641.208	4.25
3643.982	-0.75
3646.753	-2.75
3649.523	-2.75
3652.29	-3.75
3655.055	-11.75
3657.818	-14.75
3660.579	-13.75
3663.338	-17.75
3666.095	-12.75
3668.849	-23.75
3671.602	-26.75
3674.352	-27.75
3677.101	-25.75
3679.847	-30.75
3682.591	-27.75
3685.333	-26.75
3688.073	-30.75
3690.811	-36.75
3693.547	-34.75
3696.281	-40.75
3699.013	-41.75
3701.742	-37.75
3704.47	-41.75
3707.195	-41.75
3709.919	-42.75
3712.64	-47.75
3715.359	-45.75
3718.076	-48.75
3720.792	-53.75
3723.505	-48.75
3726.216	-53.75
3728.925	-53.75
3731.632	-54.75
3734.336	-51.75
3737.039	-55.75
3739.74	-52.75
3742.439	-54.75
3745.136	-54.75
3747.83	-52.75
3750.523	-58.75
3753.213	-53.75
3755.902	-60.75
3758.589	-58.75
3761.273	-62.75
3763.956	-59.75
3766.636	-60.75
3769.315	-58.75
3771.991	-64.75
3774.665	-61.75
3777.338	-60.75
3780.008	-58.75
3782.677	-61.75
3785.343	-62.75
3788.007	-65.75
3790.67	-61.75
3793.33	-61.75
3795.989	-64.75
3798.645	-61.75
3801.299	-63.75
3803.952	-64.75
3806.602	-64.75
3809.251	-66.75
3811.897	-67.75
3814.542	-67.75
3817.184	-62.75
3819.825	-67.75
3822.463	-63.75
3825.1	-66.75
3827.735	-65.75
3830.367	-73.75
3832.998	-69.75
3835.627	-68.75
3838.253	-66.75
3840.878	-70.75
3843.501	-66.75
3846.122	-69.75
3848.741	-72.75
3851.358	-71.75
3853.973	-68.75
3856.586	-66.75
3859.197	-68.75
3861.806	-69.75
3864.414	-69.75
3867.019	-68.75
3869.622	-64.75
3872.224	-69.75
3874.823	-72.75
3877.421	-71.75
3880.016	-70.75
3882.61	-67.75
3885.202	-62.75
3887.792	-67.75
3890.38	-66.75
3892.966	-70.75
3895.55	-66.75
3898.132	-72.75
3900.713	-77.75
3903.291	-76.75
3905.868	-70.75
3908.442	-72.75
3911.015	-74.75
3913.586	-74.75
3916.155	-73.75
3918.722	-76.75
3921.287	-74.75
3923.85	-75.75
3926.411	-73.75
3928.971	-71.75
3931.528	-72.75
3934.084	-75.75
3936.638	-77.75
3939.19	-75.75
3941.74	-74.75
3944.288	-77.75
3946.834	-75.75
3949.378	-75.75
3951.921	-72.75
3954.462	-74.75
3957	-70.75
3959.537	-74.75
3962.072	-70.75
3964.606	-75.75
3967.137	-76.75
3969.667	-74.75
3972.194	-73.75
3974.72	-75.75
3977.244	-69.75
3979.766	-74.75
3982.286	-71.75
3984.805	-73.75
3987.321	-72.75
3989.836	-76.75
3992.349	-73.75
3994.86	-69.75
3997.369	-66.75
3999.877	-71.75
4002.382	-70.75
4004.886	-74.75
4007.388	-73.75
4009.888	-70.75
4012.386	-70.75
4014.883	-78.75
4017.377	-70.75
4019.87	-73.75
4022.361	-71.75
4024.85	-71.75
4027.338	-70.75
4029.823	-68.75
4032.307	-68.75
4034.789	-73.75
4037.269	-77.75
4039.747	-78.75
4042.224	-75.75
4044.699	-71.75
4047.172	-72.75
4049.643	-73.75
4052.112	-73.75
4054.58	-78.75
4057.046	-76.75
4059.51	-74.75
4061.972	-71.75
4064.432	-71.75
4066.891	-72.75
4069.348	-71.75
4071.803	-75.75
4074.256	-77.75
4076.708	-79.75
4079.158	-73.75
4081.606	-69.75
4084.052	-72.75
4086.497	-72.75
4088.939	-72.75
4091.38	-75.75
4093.819	-73.75
4096.257	-77.75
4098.693	-76.75
4101.127	-79.75
4103.559	-77.75
4105.989	-23.75
4108.418	-16.75
4110.845	-16.75
4113.27	-15.75
4115.694	-14.75
4118.115	-9.75
4120.535	-74.75
4122.954	-76.75
4125.37	-70.75
4127.785	-69.75
4130.198	-73.75
4132.609	-76.75
4135.019	-78.75
4137.427	-78.75
4139.833	-77.75
4142.237	-78.75
