Data from DDW_FROM15TH_ramanshift_RamanShift_13-08-08-283.txt Node
Date: Sun Dec 25 13:08:08 IST 2016
User: aro
Spectrometer: QEPB0276
Trigger mode: 0
Integration Time (sec): 5.000000E0
Scans to average: 1
Electric dark correction enabled: true
Nonlinearity correction enabled: false
Boxcar width: 0
XAxis mode: Raman Shifts
Number of Pixels in Spectrum: 1044
>>>>>Begin Spectral Data<<<<<
160.701	3.25
166.742	21.25
172.777	62.25
178.805	209.25
184.826	639.25
190.841	1499.25
196.849	2754.25
202.85	3896.25
208.845	4465.25
214.833	4458.25
220.815	4305.25
226.789	4143.25
232.758	4005.25
238.719	3917.25
244.674	3768.25
250.623	3605.25
256.565	3435.25
262.5	3279.25
268.429	3105.25
274.351	2993.25
280.267	2868.25
286.176	2740.25
292.079	2644.25
297.975	2550.25
303.865	2461.25
309.748	2378.25
315.625	2337.25
321.495	2245.25
327.359	2230.25
333.217	2184.25
339.068	2167.25
344.912	2124.25
350.751	2120.25
356.583	2137.25
362.408	2115.25
368.227	2112.25
374.04	2127.25
379.847	2129.25
385.647	2130.25
391.44	2148.25
397.228	2172.25
403.009	2180.25
408.784	2187.25
414.553	2189.25
420.315	2172.25
426.071	2186.25
431.821	2213.25
437.565	2214.25
443.302	2176.25
449.033	2202.25
454.758	2159.25
460.477	2197.25
466.189	2156.25
471.896	2145.25
477.596	2133.25
483.29	2129.25
488.978	2124.25
494.66	2127.25
500.335	2102.25
506.005	2070.25
511.668	2041.25
517.325	2009.25
522.977	1970.25
528.622	1952.25
534.261	1928.25
539.894	1922.25
545.521	1885.25
551.141	1879.25
556.756	1861.25
562.365	1851.25
567.968	1840.25
573.565	1840.25
579.155	1819.25
584.74	1814.25
590.319	1804.25
595.892	1768.25
601.459	1764.25
607.02	1765.25
612.575	1738.25
618.124	1724.25
623.667	1709.25
629.204	1706.25
634.735	1677.25
640.261	1674.25
645.781	1669.25
651.294	1658.25
656.802	1647.25
662.304	1646.25
667.8	1630.25
673.29	1632.25
678.775	1618.25
684.254	1613.25
689.726	1610.25
695.193	1603.25
700.655	1586.25
706.11	1587.25
711.56	1557.25
717.004	1567.25
722.442	1556.25
727.874	1551.25
733.301	1530.25
738.722	1508.25
744.137	1524.25
749.547	1507.25
754.951	1510.25
760.349	1501.25
765.741	1504.25
771.128	1510.25
776.509	1492.25
781.885	1502.25
787.254	1499.25
792.618	1490.25
797.977	1482.25
803.33	1491.25
808.677	1469.25
814.019	1433.25
819.355	1441.25
824.686	1427.25
830.011	1433.25
835.33	1398.25
840.644	1398.25
845.952	1388.25
851.255	1382.25
856.552	1374.25
861.844	1369.25
867.13	1364.25
872.41	1356.25
877.686	1358.25
882.955	1338.25
888.219	1328.25
893.478	1291.25
898.731	1266.25
903.979	1276.25
909.221	1249.25
914.458	1235.25
919.69	1222.25
924.916	1217.25
930.136	1212.25
935.351	1220.25
940.561	1211.25
945.766	1210.25
950.965	1205.25
956.158	1188.25
961.347	1197.25
966.529	1174.25
971.707	1152.25
976.879	1149.25
982.046	1128.25
987.208	1120.25
992.364	1116.25
997.515	1120.25
1002.66	1128.25
1007.801	1126.25
1012.936	1130.25
1018.066	1154.25
1023.19	1159.25
1028.309	1164.25
1033.423	1141.25
1038.532	1164.25
1043.636	1162.25
1048.734	1138.25
1053.827	1137.25
1058.915	1133.25
1063.998	1110.25
1069.075	1112.25
1074.147	1096.25
1079.214	1119.25
1084.276	1118.25
1089.333	1120.25
1094.385	1140.25
1099.431	1131.25
1104.472	1142.25
1109.509	1158.25
1114.54	1119.25
1119.565	1124.25
1124.586	1110.25
1129.602	1090.25
1134.613	1100.25
1139.618	1087.25
1144.619	1078.25
1149.614	1087.25
1154.604	1086.25
1159.589	1080.25
1164.57	1104.25
1169.545	1087.25
1174.515	1098.25
1179.48	1092.25
1184.44	1092.25
1189.395	1088.25
1194.345	1079.25
1199.29	1081.25
1204.23	1085.25
1209.165	1091.25
1214.095	1083.25
1219.021	1091.25
1223.941	1097.25
1228.856	1109.25
1233.766	1113.25
1238.672	1114.25
1243.572	1116.25
1248.467	1119.25
1253.358	1103.25
1258.244	1094.25
1263.124	1082.25
1268	1056.25
1272.871	1044.25
1277.737	1042.25
1282.599	1038.25
1287.455	1040.25
1292.306	1022.25
1297.153	1058.25
1301.995	1053.25
1306.832	1049.25
1311.664	1065.25
1316.491	1066.25
1321.314	1059.25
1326.132	1056.25
1330.945	1068.25
1335.753	1037.25
1340.556	1019.25
1345.354	1002.25
1350.148	993.25
1354.937	989.25
1359.722	975.25
1364.501	992.25
1369.276	962.25
1374.046	965.25
1378.811	958.25
1383.572	958.25
1388.327	963.25
1393.079	966.25
1397.825	947.25
1402.567	950.25
1407.304	943.25
1412.036	933.25
1416.764	930.25
1421.487	916.25
1426.205	931.25
1430.919	934.25
1435.628	944.25
1440.333	950.25
1445.032	970.25
1449.727	970.25
1454.418	967.25
1459.104	975.25
1463.785	971.25
1468.462	968.25
1473.134	965.25
1477.802	941.25
1482.465	937.25
1487.123	937.25
1491.777	935.25
1496.426	936.25
1501.071	935.25
1505.711	953.25
1510.347	960.25
1514.978	961.25
1519.604	981.25
1524.226	992.25
1528.844	1001.25
1533.457	990.25
1538.065	989.25
1542.669	990.25
1547.269	979.25
1551.864	977.25
1556.454	983.25
1561.041	1004.25
1565.622	1009.25
1570.199	1019.25
1574.772	1029.25
1579.34	1058.25
1583.904	1082.25
1588.464	1093.25
1593.019	1104.25
1597.569	1124.25
1602.115	1139.25
1606.657	1137.25
1611.195	1159.25
1615.728	1174.25
1620.256	1183.25
1624.78	1192.25
1629.3	1214.25
1633.816	1228.25
1638.327	1239.25
1642.834	1266.25
1647.336	1266.25
1651.834	1276.25
1656.328	1279.25
1660.817	1286.25
1665.302	1252.25
1669.783	1231.25
1674.259	1203.25
1678.732	1158.25
1683.199	1150.25
1687.663	1097.25
1692.122	1068.25
1696.577	1029.25
1701.028	992.25
1705.474	936.25
1709.917	913.25
1714.355	883.25
1718.788	874.25
1723.218	870.25
1727.643	857.25
1732.064	829.25
1736.481	802.25
1740.893	790.25
1745.301	770.25
1749.705	750.25
1754.105	720.25
1758.501	706.25
1762.893	699.25
1767.28	685.25
1771.663	683.25
1776.042	663.25
1780.417	665.25
1784.787	655.25
1789.154	651.25
1793.516	669.25
1797.874	663.25
1802.228	677.25
1806.578	656.25
1810.924	660.25
1815.266	648.25
1819.603	636.25
1823.937	628.25
1828.266	630.25
1832.591	620.25
1836.913	605.25
1841.23	609.25
1845.543	613.25
1849.852	600.25
1854.156	620.25
1858.457	611.25
1862.754	601.25
1867.047	608.25
1871.335	618.25
1875.62	611.25
1879.9	618.25
1884.177	613.25
1888.449	618.25
1892.718	617.25
1896.982	613.25
1901.243	595.25
1905.499	605.25
1909.752	611.25
1914	604.25
1918.245	598.25
1922.485	601.25
1926.722	600.25
1930.954	596.25
1935.183	602.25
1939.408	616.25
1943.628	614.25
1947.845	605.25
1952.058	606.25
1956.267	615.25
1960.472	610.25
1964.673	600.25
1968.87	598.25
1973.063	582.25
1977.252	580.25
1981.438	580.25
1985.619	589.25
1989.797	584.25
1993.971	581.25
1998.14	587.25
2002.306	597.25
2006.469	604.25
2010.627	603.25
2014.781	582.25
2018.932	601.25
2023.078	600.25
2027.221	592.25
2031.36	592.25
2035.495	585.25
2039.627	580.25
2043.754	587.25
2047.878	578.25
2051.998	572.25
2056.114	571.25
2060.226	585.25
2064.334	585.25
2068.439	587.25
2072.54	589.25
2076.637	593.25
2080.73	592.25
2084.82	590.25
2088.906	595.25
2092.988	597.25
2097.066	595.25
2101.14	589.25
2105.211	591.25
2109.278	592.25
2113.342	586.25
2117.401	580.25
2121.457	573.25
2125.509	570.25
2129.558	579.25
2133.602	572.25
2137.643	571.25
2141.681	565.25
2145.714	570.25
2149.744	570.25
2153.77	550.25
2157.793	552.25
2161.812	550.25
2165.827	545.25
2169.838	529.25
2173.846	533.25
2177.851	524.25
2181.851	513.25
2185.848	517.25
2189.841	506.25
2193.831	504.25
2197.817	486.25
2201.799	498.25
2205.778	491.25
2209.753	497.25
2213.725	497.25
2217.693	500.25
2221.657	493.25
2225.618	485.25
2229.575	471.25
2233.529	491.25
2237.479	476.25
2241.425	482.25
2245.368	476.25
2249.307	470.25
2253.243	459.25
2257.175	448.25
2261.104	449.25
2265.029	446.25
2268.95	436.25
2272.868	428.25
2276.783	433.25
2280.694	431.25
2284.601	420.25
2288.505	418.25
2292.405	409.25
2296.302	405.25
2300.195	398.25
2304.085	402.25
2307.971	392.25
2311.854	385.25
2315.734	375.25
2319.609	381.25
2323.482	364.25
2327.351	357.25
2331.216	354.25
2335.078	350.25
2338.937	353.25
2342.792	353.25
2346.643	345.25
2350.492	347.25
2354.336	351.25
2358.178	343.25
2362.015	355.25
2365.85	351.25
2369.681	348.25
2373.508	344.25
2377.333	342.25
2381.153	357.25
2384.971	353.25
2388.785	338.25
2392.595	335.25
2396.402	341.25
2400.206	336.25
2404.007	339.25
2407.804	338.25
2411.597	338.25
2415.388	333.25
2419.174	333.25
2422.958	330.25
2426.738	335.25
2430.515	323.25
2434.289	338.25
2438.059	330.25
2441.825	334.25
2445.589	327.25
2449.349	320.25
2453.106	330.25
2456.859	320.25
2460.61	321.25
2464.356	315.25
2468.1	314.25
2471.84	311.25
2475.577	307.25
2479.311	308.25
2483.041	309.25
2486.768	304.25
2490.492	303.25
2494.213	305.25
2497.93	296.25
2501.644	302.25
2505.355	293.25
2509.062	304.25
2512.766	304.25
2516.467	305.25
2520.165	306.25
2523.859	299.25
2527.551	285.25
2531.239	293.25
2534.923	288.25
2538.605	289.25
2542.283	288.25
2545.958	285.25
2549.63	283.25
2553.299	275.25
2556.964	285.25
2560.626	281.25
2564.285	277.25
2567.941	274.25
2571.594	266.25
2575.243	275.25
2578.89	270.25
2582.533	272.25
2586.173	256.25
2589.809	261.25
2593.443	265.25
2597.073	257.25
2600.701	263.25
2604.325	253.25
2607.946	252.25
2611.564	257.25
2615.178	248.25
2618.79	260.25
2622.398	249.25
2626.004	248.25
2629.606	251.25
2633.205	248.25
2636.801	251.25
2640.394	245.25
2643.983	244.25
2647.57	243.25
2651.153	236.25
2654.734	233.25
2658.311	231.25
2661.885	227.25
2665.456	228.25
2669.025	233.25
2672.589	230.25
2676.151	219.25
2679.71	229.25
2683.266	224.25
2686.819	226.25
2690.368	219.25
2693.915	222.25
2697.458	211.25
2700.999	211.25
2704.536	216.25
2708.071	211.25
2711.602	206.25
2715.13	207.25
2718.656	204.25
2722.178	198.25
2725.697	203.25
2729.214	201.25
2732.727	205.25
2736.237	207.25
2739.744	209.25
2743.249	207.25
2746.75	205.25
2750.248	200.25
2753.743	200.25
2757.236	206.25
2760.725	207.25
2764.211	214.25
2767.695	196.25
2771.175	201.25
2774.652	201.25
2778.127	200.25
2781.598	201.25
2785.067	197.25
2788.532	201.25
2791.995	200.25
2795.455	200.25
2798.911	200.25
2802.365	200.25
2805.816	207.25
2809.264	202.25
2812.709	210.25
2816.151	205.25
2819.59	205.25
2823.026	202.25
2826.46	206.25
2829.89	201.25
2833.318	210.25
2836.742	211.25
2840.164	204.25
2843.583	202.25
2846.999	213.25
2850.412	204.25
2853.822	221.25
2857.229	228.25
2860.634	228.25
2864.035	219.25
2867.434	230.25
2870.83	229.25
2874.223	233.25
2877.613	234.25
2881	232.25
2884.385	246.25
2887.766	242.25
2891.145	240.25
2894.521	243.25
2897.894	239.25
2901.264	244.25
2904.631	246.25
2907.996	248.25
2911.358	250.25
2914.717	248.25
2918.073	254.25
2921.426	264.25
2924.777	270.25
2928.124	272.25
2931.469	266.25
2934.811	274.25
2938.15	277.25
2941.487	280.25
2944.821	289.25
2948.152	302.25
2951.48	295.25
2954.805	299.25
2958.128	300.25
2961.447	300.25
2964.765	312.25
2968.079	314.25
2971.39	327.25
2974.699	330.25
2978.005	339.25
2981.308	347.25
2984.609	352.25
2987.907	363.25
2991.202	375.25
2994.494	386.25
2997.784	390.25
3001.07	399.25
3004.355	407.25
3007.636	423.25
3010.915	429.25
3014.191	439.25
3017.464	459.25
3020.734	453.25
3024.002	462.25
3027.267	469.25
3030.53	481.25
3033.789	492.25
3037.046	505.25
3040.301	512.25
3043.552	519.25
3046.801	527.25
3050.048	530.25
3053.291	550.25
3056.532	575.25
3059.771	588.25
3063.006	610.25
3066.239	626.25
3069.469	643.25
3072.697	658.25
3075.922	679.25
3079.144	693.25
3082.364	702.25
3085.581	730.25
3088.795	742.25
3092.007	750.25
3095.216	775.25
3098.423	796.25
3101.627	810.25
3104.828	820.25
3108.026	839.25
3111.222	868.25
3114.416	876.25
3117.607	904.25
3120.795	932.25
3123.98	939.25
3127.163	964.25
3130.344	988.25
3133.521	1001.25
3136.696	1024.25
3139.869	1048.25
3143.039	1070.25
3146.206	1079.25
3149.371	1100.25
3152.533	1126.25
3155.693	1129.25
3158.85	1126.25
3162.005	1122.25
3165.157	1136.25
3168.306	1151.25
3171.453	1154.25
3174.597	1150.25
3177.739	1178.25
3180.878	1166.25
3184.014	1161.25
3187.149	1157.25
3190.28	1171.25
3193.409	1172.25
3196.536	1171.25
3199.659	1192.25
3202.781	1171.25
3205.9	1183.25
3209.016	1193.25
3212.13	1193.25
3215.241	1183.25
3218.35	1165.25
3221.456	1167.25
3224.56	1155.25
3227.661	1146.25
3230.76	1138.25
3233.856	1120.25
3236.95	1114.25
3240.041	1091.25
3243.13	1087.25
3246.216	1091.25
3249.3	1061.25
3252.382	1065.25
3255.46	1047.25
3258.537	1044.25
3261.611	1048.25
3264.682	1046.25
3267.751	1043.25
3270.818	1047.25
3273.882	1033.25
3276.943	1029.25
3280.002	1027.25
3283.059	1021.25
3286.113	995.25
3289.165	991.25
3292.214	976.25
3295.261	960.25
3298.306	942.25
3301.348	940.25
3304.387	934.25
3307.425	910.25
3310.459	894.25
3313.492	883.25
3316.521	873.25
3319.549	870.25
3322.574	865.25
3325.597	857.25
3328.617	847.25
3331.635	846.25
3334.65	843.25
3337.663	826.25
3340.674	813.25
3343.682	821.25
3346.688	826.25
3349.691	812.25
3352.692	819.25
3355.691	815.25
3358.687	809.25
3361.681	792.25
3364.673	790.25
3367.662	771.25
3370.649	769.25
3373.633	750.25
3376.615	745.25
3379.595	734.25
3382.572	732.25
3385.547	726.25
3388.52	695.25
3391.49	701.25
3394.458	691.25
3397.424	685.25
3400.387	660.25
3403.348	671.25
3406.307	657.25
3409.263	658.25
3412.217	656.25
3415.168	644.25
3418.118	637.25
3421.065	626.25
3424.009	613.25
3426.951	606.25
3429.891	602.25
3432.829	589.25
3435.764	590.25
3438.697	577.25
3441.628	560.25
3444.557	535.25
3447.483	532.25
3450.407	499.25
3453.328	497.25
3456.247	495.25
3459.164	478.25
3462.079	462.25
3464.991	448.25
3467.902	441.25
3470.809	417.25
3473.715	414.25
3476.618	395.25
3479.519	380.25
3482.418	374.25
3485.315	373.25
3488.209	359.25
3491.101	360.25
3493.99	331.25
3496.878	333.25
3499.763	317.25
3502.646	311.25
3505.527	304.25
3508.405	294.25
3511.281	286.25
3514.155	259.25
3517.027	260.25
3519.897	245.25
3522.764	242.25
3525.629	229.25
3528.492	218.25
3531.352	205.25
3534.211	199.25
3537.067	182.25
3539.921	180.25
3542.773	168.25
3545.622	170.25
3548.469	154.25
3551.315	147.25
3554.157	136.25
3556.998	132.25
3559.837	125.25
3562.673	116.25
3565.507	116.25
3568.339	108.25
3571.169	91.25
3573.996	90.25
3576.822	86.25
3579.645	80.25
3582.466	81.25
3585.285	76.25
3588.101	67.25
3590.916	60.25
3593.728	56.25
3596.538	53.25
3599.346	50.25
3602.152	46.25
3604.956	43.25
3607.757	42.25
3610.556	37.25
3613.354	31.25
3616.149	27.25
3618.942	20.25
3621.732	20.25
3624.521	13.25
3627.307	17.25
3630.092	9.25
3632.874	13.25
3635.654	9.25
3638.432	6.25
3641.208	-0.75
3643.982	3.25
3646.753	-5.75
3649.523	-2.75
3652.29	-8.75
3655.055	-9.75
3657.818	-8.75
3660.579	-11.75
3663.338	-23.75
3666.095	-20.75
3668.849	-29.75
3671.602	-27.75
3674.352	-29.75
3677.101	-30.75
3679.847	-30.75
3682.591	-32.75
3685.333	-30.75
3688.073	-35.75
3690.811	-34.75
3693.547	-38.75
3696.281	-40.75
3699.013	-38.75
3701.742	-37.75
3704.47	-41.75
3707.195	-38.75
3709.919	-42.75
3712.64	-44.75
3715.359	-47.75
3718.076	-48.75
3720.792	-51.75
3723.505	-48.75
3726.216	-50.75
3728.925	-51.75
3731.632	-53.75
3734.336	-47.75
3737.039	-54.75
3739.74	-51.75
3742.439	-52.75
3745.136	-55.75
3747.83	-55.75
3750.523	-58.75
3753.213	-56.75
3755.902	-55.75
3758.589	-56.75
3761.273	-57.75
3763.956	-60.75
3766.636	-58.75
3769.315	-58.75
3771.991	-60.75
3774.665	-60.75
3777.338	-60.75
3780.008	-59.75
3782.677	-60.75
3785.343	-61.75
3788.007	-64.75
3790.67	-62.75
3793.33	-64.75
3795.989	-60.75
3798.645	-58.75
3801.299	-62.75
3803.952	-63.75
3806.602	-62.75
3809.251	-63.75
3811.897	-66.75
3814.542	-67.75
3817.184	-61.75
3819.825	-62.75
3822.463	-63.75
3825.1	-65.75
3827.735	-64.75
3830.367	-71.75
3832.998	-67.75
3835.627	-69.75
3838.253	-68.75
3840.878	-64.75
3843.501	-67.75
3846.122	-64.75
3848.741	-70.75
3851.358	-72.75
3853.973	-67.75
3856.586	-66.75
3859.197	-69.75
3861.806	-67.75
3864.414	-70.75
3867.019	-68.75
3869.622	-67.75
3872.224	-65.75
3874.823	-66.75
3877.421	-69.75
3880.016	-69.75
3882.61	-66.75
3885.202	-63.75
3887.792	-61.75
3890.38	-65.75
3892.966	-64.75
3895.55	-65.75
3898.132	-71.75
3900.713	-72.75
3903.291	-73.75
3905.868	-69.75
3908.442	-68.75
3911.015	-73.75
3913.586	-71.75
3916.155	-71.75
3918.722	-72.75
3921.287	-70.75
3923.85	-70.75
3926.411	-70.75
3928.971	-71.75
3931.528	-74.75
3934.084	-72.75
3936.638	-75.75
3939.19	-70.75
3941.74	-73.75
3944.288	-73.75
3946.834	-72.75
3949.378	-70.75
3951.921	-73.75
3954.462	-71.75
3957	-70.75
3959.537	-71.75
3962.072	-68.75
3964.606	-70.75
3967.137	-75.75
3969.667	-69.75
3972.194	-73.75
3974.72	-74.75
3977.244	-68.75
3979.766	-69.75
3982.286	-66.75
3984.805	-69.75
3987.321	-71.75
3989.836	-71.75
3992.349	-73.75
3994.86	-70.75
3997.369	-65.75
3999.877	-70.75
4002.382	-67.75
4004.886	-72.75
4007.388	-70.75
4009.888	-69.75
4012.386	-67.75
4014.883	-71.75
4017.377	-72.75
4019.87	-70.75
4022.361	-70.75
4024.85	-72.75
4027.338	-66.75
4029.823	-64.75
4032.307	-64.75
4034.789	-69.75
4037.269	-73.75
4039.747	-74.75
4042.224	-75.75
4044.699	-70.75
4047.172	-72.75
4049.643	-70.75
4052.112	-74.75
4054.58	-71.75
4057.046	-72.75
4059.51	-74.75
4061.972	-72.75
4064.432	-67.75
4066.891	-73.75
4069.348	-70.75
4071.803	-71.75
4074.256	-72.75
4076.708	-72.75
4079.158	-69.75
4081.606	-69.75
4084.052	-73.75
4086.497	-74.75
4088.939	-72.75
4091.38	-72.75
4093.819	-69.75
4096.257	-73.75
4098.693	-72.75
4101.127	-72.75
4103.559	-73.75
4105.989	-23.75
4108.418	-19.75
4110.845	-17.75
4113.27	-15.75
4115.694	-9.75
4118.115	-7.75
4120.535	-72.75
4122.954	-70.75
4125.37	-72.75
4127.785	-70.75
4130.198	-70.75
4132.609	-74.75
4135.019	-74.75
4137.427	-70.75
4139.833	-73.75
4142.237	-76.75
