Data from SERS-DW_RamanShift_4.txt Node
Date: Tue Nov 07 11:13:47 IST 2017
User: aro
Spectrometer: QEPB0276
Trigger mode: 0
Integration Time (sec): 1.500000E1
Scans to average: 3
Electric dark correction enabled: true
Nonlinearity correction enabled: false
Boxcar width: 0
XAxis mode: Raman Shifts
Number of Pixels in Spectrum: 1044
>>>>>Begin Spectral Data<<<<<
160.701	-3.33
166.742	14
172.777	63
178.805	207.33
184.826	579.33
190.841	1281
196.849	2170.67
202.85	2859.67
208.845	3074
214.833	3015.67
220.815	3009.33
226.789	3061.67
232.758	3122.33
238.719	3207.33
244.674	3253.33
250.623	3299.67
256.565	3367.67
262.5	3424.33
268.429	3525
274.351	3661.33
280.267	3790.33
286.176	3842
292.079	3787
297.975	3680.67
303.865	3615.33
309.748	3603
315.625	3570
321.495	3556.67
327.359	3545.67
333.217	3524.33
339.068	3543.33
344.912	3546.67
350.751	3560
356.583	3581.67
362.408	3612.67
368.227	3674.33
374.04	3793
379.847	4014.33
385.647	4314.67
391.44	4686.67
397.228	5002.67
403.009	5076.33
408.784	4833.33
414.553	4479.33
420.315	4256.67
426.071	4041.33
431.821	3822.67
437.565	3635
443.302	3553
449.033	3499
454.758	3487
460.477	3460.33
466.189	3435
471.896	3428.67
477.596	3421.67
483.29	3440.67
488.978	3485.67
494.66	3536.67
500.335	3657.67
506.005	3839.33
511.668	4135.67
517.325	4378.33
522.977	4393
528.622	4165
534.261	3857.33
539.894	3603.33
545.521	3409.33
551.141	3296
556.756	3208.67
562.365	3158.33
567.968	3122.33
573.565	3118
579.155	3110.67
584.74	3099.67
590.319	3074.67
595.892	3071.67
601.459	3116.67
607.02	3175.67
612.575	3296.33
618.124	3480.33
623.667	3898.33
629.204	4622.67
634.735	5652.33
640.261	6367
645.781	6270.33
651.294	5552.67
656.802	4732
662.304	4049
667.8	3604
673.29	3326.67
678.775	3147.33
684.254	3025.67
689.726	2938.33
695.193	2892.33
700.655	2911.33
706.11	2945
711.56	2911.67
717.004	2773
722.442	2660
727.874	2601
733.301	2577.67
738.722	2556.33
744.137	2549.67
749.547	2559.33
754.951	2543.67
760.349	2542.67
765.741	2536.67
771.128	2539.67
776.509	2551.67
781.885	2590
787.254	2629.33
792.618	2701
797.977	2823.67
803.33	2820.33
808.677	2724
814.019	2669.67
819.355	2630
824.686	2639.67
830.011	2644.67
835.33	2672.33
840.644	2694.33
845.952	2788
851.255	3001
856.552	3382.33
861.844	3733.67
867.13	3690.33
872.41	3249.67
877.686	2835.67
882.955	2665.67
888.219	2594
893.478	2537
898.731	2474
903.979	2418
909.221	2364.67
914.458	2330.67
919.69	2303.67
924.916	2303.67
930.136	2308
935.351	2294
940.561	2286.33
945.766	2283.33
950.965	2274.33
956.158	2257.67
961.347	2250.67
966.529	2229.33
971.707	2218.67
976.879	2215.33
982.046	2217.33
987.208	2250.33
992.364	2286.67
997.515	2396.33
1002.66	2453.67
1007.801	2462.67
1012.936	2406.33
1018.066	2354
1023.19	2334.67
1028.309	2332.67
1033.423	2317
1038.532	2294
1043.636	2264.67
1048.734	2245
1053.827	2213.67
1058.915	2191.33
1063.998	2194
1069.075	2193.67
1074.147	2209.33
1079.214	2260.33
1084.276	2342
1089.333	2494
1094.385	2721
1099.431	2909.33
1104.472	2884.67
1109.509	2738.33
1114.54	2640.67
1119.565	2630.67
1124.586	2581
1129.602	2464.33
1134.613	2344.67
1139.618	2234.67
1144.619	2182
1149.614	2160.67
1154.604	2148.33
1159.589	2126.67
1164.57	2145.67
1169.545	2160.67
1174.515	2215.67
1179.48	2317
1184.44	2388.33
1189.395	2407
1194.345	2341
1199.29	2247
1204.23	2170
1209.165	2128.33
1214.095	2101.67
1219.021	2088.33
1223.941	2103
1228.856	2124.33
1233.766	2153.67
1238.672	2175.67
1243.572	2212
1248.467	2227
1253.358	2232.33
1258.244	2232.67
1263.124	2263
1268	2345.33
1272.871	2465
1277.737	2682.67
1282.599	2963.67
1287.455	3189
1292.306	3305.67
1297.153	3306
1301.995	3120.33
1306.832	2837.33
1311.664	2654.67
1316.491	2535.33
1321.314	2452
1326.132	2336
1330.945	2239.33
1335.753	2185.67
1340.556	2136.33
1345.354	2095.33
1350.148	2080.67
1354.937	2043.67
1359.722	2021.33
1364.501	2001.33
1369.276	1991.33
1374.046	1989
1378.811	1975
1383.572	1960
1388.327	1927.33
1393.079	1905.33
1397.825	1901.33
1402.567	1904
1407.304	1910
1412.036	1940.67
1416.764	2003
1421.487	2048.33
1426.205	2020
1430.919	1963.67
1435.628	1948.33
1440.333	1976.33
1445.032	2000
1449.727	2043.67
1454.418	2076.67
1459.104	2087
1463.785	2112.67
1468.462	2082.67
1473.134	2007.33
1477.802	1928.67
1482.465	1870.33
1487.123	1835.67
1491.777	1821.67
1496.426	1816
1501.071	1819.67
1505.711	1821.67
1510.347	1807.67
1514.978	1803
1519.604	1785.33
1524.226	1773
1528.844	1743
1533.457	1711
1538.065	1693.33
1542.669	1685
1547.269	1673.33
1551.864	1681.33
1556.454	1668.67
1561.041	1675.67
1565.622	1665.33
1570.199	1661.33
1574.772	1678.33
1579.34	1706.67
1583.904	1742
1588.464	1755.67
1593.019	1788.33
1597.569	1889.67
1602.115	2085.67
1606.657	2474.33
1611.195	3142
1615.728	4130.67
1620.256	4641.67
1624.78	3912.67
1629.3	2678.67
1633.816	2025.33
1638.327	1768.33
1642.834	1680.67
1647.336	1629.33
1651.834	1596.33
1656.328	1588.33
1660.817	1582.67
1665.302	1569.33
1669.783	1567.33
1674.259	1555
1678.732	1550
1683.199	1547
1687.663	1548
1692.122	1537.33
1696.577	1523
1701.028	1512.33
1705.474	1529
1709.917	1566.33
1714.355	1703.67
1718.788	1954.67
1723.218	2350.67
1727.643	2904.33
1732.064	3270.67
1736.481	3112.33
1740.893	2615
1745.301	2184.33
1749.705	1829.67
1754.105	1575.33
1758.501	1421.33
1762.893	1332
1767.28	1279.33
1771.663	1237.33
1776.042	1214.33
1780.417	1213
1784.787	1204
1789.154	1194
1793.516	1183
1797.874	1174
1802.228	1155.67
1806.578	1137
1810.924	1112
1815.266	1083.33
1819.603	1072.33
1823.937	1054.67
1828.266	1043.33
1832.591	1035
1836.913	1031.67
1841.23	1023.33
1845.543	1029
1849.852	1025.33
1854.156	1024
1858.457	1022.33
1862.754	1030.67
1867.047	1030.33
1871.335	1046.67
1875.62	1040.33
1879.9	1041.67
1884.177	1035
1888.449	1034.67
1892.718	1024
1896.982	1024.33
1901.243	1020.33
1905.499	1016.67
1909.752	1016.67
1914	1022.67
1918.245	1016
1922.485	1024.33
1926.722	1019
1930.954	1017
1935.183	1014
1939.408	1017.67
1943.628	1009
1947.845	989
1952.058	960
1956.267	955
1960.472	911.67
1964.673	886
1968.87	859
1973.063	841
1977.252	823.67
1981.438	809.67
1985.619	802
1989.797	793
1993.971	786
1998.14	775.33
2002.306	770.67
2006.469	762
2010.627	759.67
2014.781	754.67
2018.932	746.33
2023.078	739.67
2027.221	725.67
2031.36	716
2035.495	705.33
2039.627	694.33
2043.754	696.33
2047.878	698
2051.998	687.33
2056.114	682
2060.226	685.67
2064.334	688
2068.439	688
2072.54	686
2076.637	693
2080.73	704
2084.82	694.33
2088.906	707.33
2092.988	688
2097.066	689.67
2101.14	680
2105.211	663.33
2109.278	650.33
2113.342	641.67
2117.401	629.67
2121.457	622
2125.509	612
2129.558	600.67
2133.602	593
2137.643	590.33
2141.681	581
2145.714	579.67
2149.744	576.67
2153.77	571.67
2157.793	562
2161.812	554.67
2165.827	540.33
2169.838	543
2173.846	528.67
2177.851	520.33
2181.851	515.67
2185.848	510.33
2189.841	498.67
2193.831	500
2197.817	492
2201.799	495
2205.778	491
2209.753	481.33
2213.725	482
2217.693	482.67
2221.657	484
2225.618	487
2229.575	480.67
2233.529	474.33
2237.479	476.33
2241.425	469
2245.368	460.67
2249.307	456.33
2253.243	447.67
2257.175	442.67
2261.104	431.67
2265.029	425.33
2268.95	422
2272.868	416.67
2276.783	417
2280.694	410.33
2284.601	406
2288.505	396.67
2292.405	393
2296.302	388.33
2300.195	390.67
2304.085	377.67
2307.971	367
2311.854	363.67
2315.734	361.33
2319.609	353
2323.482	350.67
2327.351	356.33
2331.216	371.67
2335.078	378.67
2338.937	353
2342.792	338.67
2346.643	333.33
2350.492	332.67
2354.336	335.67
2358.178	330.67
2362.015	333.67
2365.85	336
2369.681	334.67
2373.508	334.33
2377.333	336
2381.153	335
2384.971	331.67
2388.785	327.67
2392.595	327
2396.402	318.33
2400.206	321.33
2404.007	318.33
2407.804	324
2411.597	318.67
2415.388	318.33
2419.174	315.67
2422.958	314
2426.738	308
2430.515	306.33
2434.289	303.33
2438.059	302.67
2441.825	299.33
2445.589	298.67
2449.349	295
2453.106	289.67
2456.859	292.33
2460.61	289.67
2464.356	281.33
2468.1	288.33
2471.84	278
2475.577	275.67
2479.311	275.67
2483.041	277.33
2486.768	275.67
2490.492	276.33
2494.213	275
2497.93	272.67
2501.644	272.33
2505.355	276.33
2509.062	276
2512.766	273
2516.467	273
2520.165	273.67
2523.859	271
2527.551	271
2531.239	265.67
2534.923	265
2538.605	260.67
2542.283	261.67
2545.958	267.67
2549.63	267.33
2553.299	261.67
2556.964	261
2560.626	259.33
2564.285	258.67
2567.941	251.33
2571.594	254.33
2575.243	249
2578.89	241.67
2582.533	238.67
2586.173	242.33
2589.809	232
2593.443	238.67
2597.073	231
2600.701	227.33
2604.325	226
2607.946	225.33
2611.564	226.33
2615.178	222.67
2618.79	220.33
2622.398	214.33
2626.004	215.33
2629.606	210.67
2633.205	203.67
2636.801	196
2640.394	188.33
2643.983	190.33
2647.57	184
2651.153	178
2654.734	174
2658.311	170
2661.885	169.33
2665.456	164.33
2669.025	158.33
2672.589	162
2676.151	155.67
2679.71	155.33
2683.266	152
2686.819	147.67
2690.368	146.33
2693.915	146.33
2697.458	144
2700.999	140.33
2704.536	132.33
2708.071	137.33
2711.602	132.67
2715.13	129.33
2718.656	127.67
2722.178	130
2725.697	127.67
2729.214	125
2732.727	126
2736.237	129
2739.744	125.67
2743.249	127
2746.75	125.33
2750.248	128.33
2753.743	119.67
2757.236	116.33
2760.725	115.33
2764.211	115
2767.695	113
2771.175	108.67
2774.652	110
2778.127	111.33
2781.598	104.67
2785.067	105
2788.532	105.33
2791.995	105.33
2795.455	107.33
2798.911	105.67
2802.365	108.67
2805.816	104.67
2809.264	104
2812.709	106.67
2816.151	108
2819.59	109.67
2823.026	102.67
2826.46	104
2829.89	100
2833.318	99.33
2836.742	95.67
2840.164	94.67
2843.583	93
2846.999	94.33
2850.412	91
2853.822	94
2857.229	92.67
2860.634	96.67
2864.035	92.33
2867.434	96.67
2870.83	100.67
2874.223	99
2877.613	101
2881	101
2884.385	100.33
2887.766	101.67
2891.145	100
2894.521	100
2897.894	103
2901.264	102.33
2904.631	109.33
2907.996	110.33
2911.358	114
2914.717	116
2918.073	115.67
2921.426	109.67
2924.777	107.67
2928.124	103
2931.469	100
2934.811	103.67
2938.15	108.33
2941.487	104.67
2944.821	109.67
2948.152	114.33
2951.48	116.33
2954.805	121
2958.128	130.67
2961.447	136
2964.765	148.33
2968.079	156.67
2971.39	159.67
2974.699	150.33
2978.005	139
2981.308	132
2984.609	124
2987.907	116.67
2991.202	110.33
2994.494	108.67
2997.784	106.67
3001.07	105
3004.355	103.33
3007.636	92.67
3010.915	86.33
3014.191	78.67
3017.464	70.67
3020.734	62
3024.002	55.33
3027.267	48.67
3030.53	47.67
3033.789	44.33
3037.046	38
3040.301	37.67
3043.552	35.67
3046.801	35
3050.048	38.67
3053.291	41
3056.532	38
3059.771	45.67
3063.006	51.33
3066.239	63
3069.469	70.67
3072.697	80.33
3075.922	93
3079.144	106
3082.364	122.67
3085.581	137.67
3088.795	134.67
3092.007	111.67
3095.216	90.33
3098.423	65
3101.627	57
3104.828	46
3108.026	40
3111.222	32
3114.416	27
3117.607	25
3120.795	19.67
3123.98	15.67
3127.163	14.33
3130.344	14
3133.521	13.67
3136.696	10
3139.869	9
3143.039	7.33
3146.206	5.33
3149.371	5.67
3152.533	-0.33
3155.693	2
3158.85	-3.67
3162.005	-5.33
3165.157	-4.33
3168.306	-7
3171.453	-9.33
3174.597	-9.67
3177.739	-12
3180.878	-13.33
3184.014	-13
3187.149	-13.67
3190.28	-12
3193.409	-15
3196.536	-17.33
3199.659	-14.67
3202.781	-18.67
3205.9	-14.67
3209.016	-15.67
3212.13	-16.67
3215.241	-18
3218.35	-18
3221.456	-19
3224.56	-17.67
3227.661	-17.67
3230.76	-16.67
3233.856	-19.33
3236.95	-22
3240.041	-20.67
3243.13	-20.33
3246.216	-20.33
3249.3	-19.67
3252.382	-21.33
3255.46	-21.33
3258.537	-19.33
3261.611	-23
3264.682	-22.67
3267.751	-23
3270.818	-20.67
3273.882	-20
3276.943	-23
3280.002	-24
3283.059	-23.67
3286.113	-26
3289.165	-24
3292.214	-27.67
3295.261	-26.67
3298.306	-29.33
3301.348	-31
3304.387	-33
3307.425	-28
3310.459	-29.67
3313.492	-33
3316.521	-31
3319.549	-30.67
3322.574	-31.33
3325.597	-32.67
3328.617	-34.33
3331.635	-32.33
3334.65	-34.67
3337.663	-32.67
3340.674	-31.67
3343.682	-29.33
3346.688	-35.67
3349.691	-32.67
3352.692	-33.33
3355.691	-30.67
3358.687	-36
3361.681	-36
3364.673	-36.67
3367.662	-36.33
3370.649	-38
3373.633	-40
3376.615	-37
3379.595	-38.67
3382.572	-40.33
3385.547	-41.33
3388.52	-42
3391.49	-43
3394.458	-46
3397.424	-44.67
3400.387	-48.67
3403.348	-46.33
3406.307	-44.33
3409.263	-46.67
3412.217	-46.67
3415.168	-48.33
3418.118	-47
3421.065	-47.33
3424.009	-46.33
3426.951	-48.67
3429.891	-51.33
3432.829	-46.33
3435.764	-48
3438.697	-51.33
3441.628	-53.33
3444.557	-47.33
3447.483	-50.33
3450.407	-51.33
3453.328	-52.33
3456.247	-53
3459.164	-51
3462.079	-52.33
3464.991	-52.33
3467.902	-53.67
3470.809	-54
3473.715	-52.67
3476.618	-55.67
3479.519	-56.67
3482.418	-57
3485.315	-54.33
3488.209	-54
3491.101	-53.67
3493.99	-52
3496.878	-56.33
3499.763	-57.67
3502.646	-57
3505.527	-55.33
3508.405	-57.33
3511.281	-55
3514.155	-57
3517.027	-55
3519.897	-56.33
3522.764	-56.67
3525.629	-58.33
3528.492	-58.67
3531.352	-57
3534.211	-59
3537.067	-57.67
3539.921	-58.33
3542.773	-57.67
3545.622	-58
3548.469	-61
3551.315	-58
3554.157	-61.67
3556.998	-58
3559.837	-60
3562.673	-57.33
3565.507	-59
3568.339	-57
3571.169	-60.33
3573.996	-60.33
3576.822	-59.33
3579.645	-58
3582.466	-63.33
3585.285	-60
3588.101	-60.33
3590.916	-61.67
3593.728	-62.33
3596.538	-61
3599.346	-60.33
3602.152	-61.67
3604.956	-63.33
3607.757	-60.67
3610.556	-63
3613.354	-62.33
3616.149	-63.67
3618.942	-62.67
3621.732	-63.33
3624.521	-62
3627.307	-60.33
3630.092	-63.67
3632.874	-62
3635.654	-61
3638.432	-60
3641.208	-62
3643.982	-62
3646.753	-60.67
3649.523	-64
3652.29	-61.67
3655.055	-64
3657.818	-64.33
3660.579	-64.67
3663.338	-63
3666.095	-62.67
3668.849	-64.33
3671.602	-66
3674.352	-64
3677.101	-66
3679.847	-64.33
3682.591	-65
3685.333	-64
3688.073	-66.67
3690.811	-63.33
3693.547	-64.33
3696.281	-66
3699.013	-63.33
3701.742	-64.33
3704.47	-64
3707.195	-65.67
3709.919	-66
3712.64	-65.67
3715.359	-64
3718.076	-64
3720.792	-64.33
3723.505	-64.67
3726.216	-64
3728.925	-64
3731.632	-63.67
3734.336	-64.33
3737.039	-64
3739.74	-62.67
3742.439	-65
3745.136	-66.33
3747.83	-65.33
3750.523	-64.67
3753.213	-62.67
3755.902	-62.67
3758.589	-65.67
3761.273	-62.67
3763.956	-64
3766.636	-63.33
3769.315	-64.33
3771.991	-64.67
3774.665	-64.67
3777.338	-61.33
3780.008	-63
3782.677	-62.67
3785.343	-63.33
3788.007	-65.67
3790.67	-67.33
3793.33	-62.33
3795.989	-63.67
3798.645	-64.67
3801.299	-64.33
3803.952	-64
3806.602	-67.67
3809.251	-67
3811.897	-65.67
3814.542	-64
3817.184	-64
3819.825	-64.33
3822.463	-65.67
3825.1	-64
3827.735	-64.33
3830.367	-65.67
3832.998	-65.67
3835.627	-60.67
3838.253	-62
3840.878	-66.67
3843.501	-65
3846.122	-64.67
3848.741	-64.67
3851.358	-67
3853.973	-67.33
3856.586	-69.67
3859.197	-67.67
3861.806	-66
3864.414	-65.33
3867.019	-66
3869.622	-67.67
3872.224	-60.33
3874.823	-61.67
3877.421	-58.67
3880.016	-54
3882.61	-52.33
3885.202	-50.33
3887.792	-55
3890.38	-60.33
3892.966	-64.33
3895.55	-64
3898.132	-66.67
3900.713	-64.67
3903.291	-66.33
3905.868	-66
3908.442	-64.67
3911.015	-66.67
3913.586	-68.67
3916.155	-66
3918.722	-67
3921.287	-66.67
3923.85	-65.67
3926.411	-66.67
3928.971	-67.67
3931.528	-65.67
3934.084	-63.67
3936.638	-66.33
3939.19	-70.67
3941.74	-65.67
3944.288	-64.67
3946.834	-68.67
3949.378	-67.33
3951.921	-65.67
3954.462	-67
3957	-67.33
3959.537	-67.33
3962.072	-65.33
3964.606	-64.33
3967.137	-67.33
3969.667	-64.33
3972.194	-63.33
3974.72	-65.67
3977.244	-67.33
3979.766	-64.33
3982.286	-62.67
3984.805	-65.67
3987.321	-65.67
3989.836	-63
3992.349	-64.33
3994.86	-65
3997.369	-65
3999.877	-63.33
4002.382	-64
4004.886	-63.67
4007.388	-66.33
4009.888	-64
4012.386	-62.67
4014.883	-62.33
4017.377	-65
4019.87	-61.67
4022.361	-63
4024.85	-64.33
4027.338	-63.67
4029.823	-60.67
4032.307	-64
4034.789	-63
4037.269	-65
4039.747	-63
4042.224	-64.67
4044.699	-63
4047.172	-65.67
4049.643	-64
4052.112	-63.33
4054.58	-65.33
4057.046	-64.67
4059.51	-63.67
4061.972	-65.33
4064.432	-58
4066.891	-61.67
4069.348	-60
4071.803	-62
4074.256	-61.67
4076.708	-60.67
4079.158	-63
4081.606	-62.67
4084.052	-61.33
4086.497	-63
4088.939	-62
4091.38	-59
4093.819	-64
4096.257	-69.33
4098.693	-69.33
4101.127	-68.33
4103.559	-69.33
4105.989	-27.67
4108.418	-24.67
4110.845	-25.33
4113.27	-18.33
4115.694	-17
4118.115	-11.33
4120.535	-63.33
4122.954	-64
4125.37	-64.33
4127.785	-65
4130.198	-64.67
4132.609	-63.67
4135.019	-70
4137.427	-71
4139.833	-70
4142.237	-70
