Data from SERS-ec10_RamanShift_1.txt Node
Date: Tue Nov 07 11:17:32 IST 2017
User: aro
Spectrometer: QEPB0276
Trigger mode: 0
Integration Time (sec): 1.500000E1
Scans to average: 3
Electric dark correction enabled: true
Nonlinearity correction enabled: false
Boxcar width: 0
XAxis mode: Raman Shifts
Number of Pixels in Spectrum: 1044
>>>>>Begin Spectral Data<<<<<
160.701	-13.29
166.742	19.71
172.777	108.04
178.805	385.71
184.826	1073.38
190.841	2357.37
196.849	3973.71
202.85	5164.04
208.845	5553.38
214.833	5450.71
220.815	5451.04
226.789	5547.38
232.758	5720.04
238.719	5870.04
244.674	6017.71
250.623	6190.04
256.565	6332.04
262.5	6479.04
268.429	6649.71
274.351	6830.38
280.267	7005.71
286.176	7081.38
292.079	6932.71
297.975	6750.04
303.865	6583.71
309.748	6494.04
315.625	6391.04
321.495	6305.04
327.359	6227.71
333.217	6182.71
339.068	6118.71
344.912	6081.71
350.751	6067.71
356.583	6071.71
362.408	6108.71
368.227	6174.71
374.04	6357.04
379.847	6660.71
385.647	7096.71
391.44	7667.71
397.228	8125.04
403.009	8221.71
408.784	7813.04
414.553	7256.71
420.315	6842.38
426.071	6549.04
431.821	6255.71
437.565	6060.71
443.302	5946.04
449.033	5873.38
454.758	5794.38
460.477	5768.04
466.189	5743.38
471.896	5726.71
477.596	5718.04
483.29	5761.04
488.978	5851.71
494.66	5944.71
500.335	6125.04
506.005	6442.71
511.668	6865.38
517.325	7197.71
522.977	7233.04
528.622	6883.04
534.261	6443.71
539.894	6070.04
545.521	5812.71
551.141	5642.71
556.756	5530.38
562.365	5438.38
567.968	5372.71
573.565	5348.38
579.155	5340.04
584.74	5305.04
590.319	5277.04
595.892	5308.04
601.459	5384.38
607.02	5494.04
612.575	5643.38
618.124	5943.38
623.667	6537.38
629.204	7659.71
634.735	9151.38
640.261	10174.04
645.781	9996.04
651.294	8901.04
656.802	7725.04
662.304	6722.38
667.8	6058.71
673.29	5648.04
678.775	5392.38
684.254	5179.71
689.726	5045.71
695.193	4961.04
700.655	4974.38
706.11	5043.04
711.56	5000.71
717.004	4786.04
722.442	4613.04
727.874	4509.71
733.301	4469.71
738.722	4445.04
744.137	4412.38
749.547	4399.38
754.951	4408.71
760.349	4411.04
765.741	4393.04
771.128	4409.71
776.509	4449.04
781.885	4488.04
787.254	4574.71
792.618	4692.71
797.977	4874.38
803.33	4871.04
808.677	4733.04
814.019	4627.04
819.355	4612.38
824.686	4599.71
830.011	4609.38
835.33	4670.71
840.644	4739.38
845.952	4876.04
851.255	5270.04
856.552	5850.38
861.844	6389.71
867.13	6301.38
872.41	5630.71
877.686	5051.38
882.955	4823.71
888.219	4737.04
893.478	4633.04
898.731	4521.71
903.979	4401.38
909.221	4284.38
914.458	4179.38
919.69	4126.38
924.916	4112.38
930.136	4103.04
935.351	4102.04
940.561	4100.38
945.766	4097.38
950.965	4117.04
956.158	4132.38
961.347	4151.38
966.529	4130.71
971.707	4121.04
976.879	4104.71
982.046	4078.38
987.208	4109.71
992.364	4242.04
997.515	4414.71
1002.66	4569.38
1007.801	4645.38
1012.936	4643.38
1018.066	4636.04
1023.19	4624.71
1028.309	4530.38
1033.423	4382.04
1038.532	4243.38
1043.636	4130.38
1048.734	4071.38
1053.827	4028.37
1058.915	4015.71
1063.998	4059.04
1069.075	4112.38
1074.147	4189.04
1079.214	4261.38
1084.276	4362.04
1089.333	4549.04
1094.385	4874.38
1099.431	5119.04
1104.472	5043.38
1109.509	4812.71
1114.54	4667.71
1119.565	4632.04
1124.586	4570.38
1129.602	4443.71
1134.613	4318.04
1139.618	4313.04
1144.619	4416.04
1149.614	4439.04
1154.604	4287.04
1159.589	4034.04
1164.57	3909.71
1169.545	3886.04
1174.515	4002.04
1179.48	4126.71
1184.44	4299.71
1189.395	4444.71
1194.345	4577.04
1199.29	4736.04
1204.23	4806.04
1209.165	4664.04
1214.095	4383.38
1219.021	4155.71
1223.941	4049.38
1228.856	3987.71
1233.766	3969.71
1238.672	4005.04
1243.572	4075.04
1248.467	4168.38
1253.358	4269.71
1258.244	4459.71
1263.124	4872.04
1268	5387.04
1272.871	5653.38
1277.737	5635.71
1282.599	5648.38
1287.455	5740.38
1292.306	5791.04
1297.153	5701.38
1301.995	5384.38
1306.832	4958.04
1311.664	4642.38
1316.491	4455.71
1321.314	4307.71
1326.132	4143.71
1330.945	4036.04
1335.753	4056.71
1340.556	4118.71
1345.354	4152.04
1350.148	4062.04
1354.937	3951.71
1359.722	3813.04
1364.501	3681.71
1369.276	3612.71
1374.046	3631.04
1378.811	3616.38
1383.572	3573.38
1388.327	3472.04
1393.079	3376.04
1397.825	3328.71
1402.567	3295.38
1407.304	3322.71
1412.036	3411.04
1416.764	3580.71
1421.487	3709.38
1426.205	3748.71
1430.919	3703.71
1435.628	3666.38
1440.333	3722.71
1445.032	3865.04
1449.727	3997.04
1454.418	4109.71
1459.104	4121.38
1463.785	4064.04
1468.462	3965.04
1473.134	3813.38
1477.802	3732.38
1482.465	3768.04
1487.123	3950.37
1491.777	4186.04
1496.426	4296.04
1501.071	4251.04
1505.711	4038.04
1510.347	3814.71
1514.978	3661.71
1519.604	3543.71
1524.226	3470.04
1528.844	3403.37
1533.457	3343.71
1538.065	3351.04
1542.669	3331.04
1547.269	3297.04
1551.864	3261.04
1556.454	3187.38
1561.041	3139.71
1565.622	3073.37
1570.199	3058.38
1574.772	3107.71
1579.34	3170.38
1583.904	3240.38
1588.464	3345.37
1593.019	3514.71
1597.569	3879.04
1602.115	4604.04
1606.657	5628.71
1611.195	6949.71
1615.728	8480.38
1620.256	8972.71
1624.78	7626.38
1629.3	5874.38
1633.816	5055.04
1638.327	4779.38
1642.834	4488.38
1647.336	4108.04
1651.834	3678.04
1656.328	3356.38
1660.817	3177.71
1665.302	3079.38
1669.783	3034.04
1674.259	3009.37
1678.732	2994.71
1683.199	2997.04
1687.663	2986.37
1692.122	2982.71
1696.577	2958.71
1701.028	2942.38
1705.474	2949.71
1709.917	3007.37
1714.355	3204.71
1718.788	3591.71
1723.218	4248.71
1727.643	5128.38
1732.064	5734.04
1736.481	5431.38
1740.893	4618.38
1745.301	3905.38
1749.705	3322.37
1754.105	2916.71
1758.501	2658.04
1762.893	2498.38
1767.28	2422.37
1771.663	2377.04
1776.042	2351.04
1780.417	2350.37
1784.787	2348.71
1789.154	2355.04
1793.516	2339.38
1797.874	2330.04
1802.228	2292.04
1806.578	2267.38
1810.924	2205.04
1815.266	2142.04
1819.603	2089.04
1823.937	2046.37
1828.266	2021.71
1832.591	2004.38
1836.913	1980.04
1841.23	1964.71
1845.543	1966.71
1849.852	1983.04
1854.156	1979.04
1858.457	1979.71
1862.754	1997.38
1867.047	2012.04
1871.335	2025.04
1875.62	2033.04
1879.9	2046.37
1884.177	2042.04
1888.449	2047.38
1892.718	2042.37
1896.982	2040.04
1901.243	2034.37
1905.499	2043.37
1909.752	2058.71
1914	2064.04
1918.245	2080.04
1922.485	2102.38
1926.722	2112.04
1930.954	2123.71
1935.183	2130.04
1939.408	2120.71
1943.628	2112.37
1947.845	2083.04
1952.058	2039.71
1956.267	1994.04
1960.472	1936.38
1964.673	1877.38
1968.87	1818.71
1973.063	1765.71
1977.252	1735.38
1981.438	1699.71
1985.619	1669.04
1989.797	1636.71
1993.971	1623.38
1998.14	1614.71
2002.306	1607.04
2006.469	1595.04
2010.627	1579.71
2014.781	1577.38
2018.932	1574.38
2023.078	1559.71
2027.221	1532.38
2031.36	1516.71
2035.495	1506.04
2039.627	1495.71
2043.754	1482.71
2047.878	1478.71
2051.998	1479.38
2056.114	1482.04
2060.226	1488.04
2064.334	1500.71
2068.439	1515.71
2072.54	1536.04
2076.637	1546.04
2080.73	1558.04
2084.82	1568.04
2088.906	1572.71
2092.988	1562.38
2097.066	1553.04
2101.14	1531.38
2105.211	1517.71
2109.278	1487.38
2113.342	1476.71
2117.401	1448.38
2121.457	1435.04
2125.509	1421.38
2129.558	1404.38
2133.602	1389.04
2137.643	1370.04
2141.681	1349.71
2145.714	1343.04
2149.744	1322.04
2153.77	1303.38
2157.793	1286.04
2161.812	1254.71
2165.827	1239.71
2169.838	1220.38
2173.846	1198.38
2177.851	1177.71
2181.851	1155.04
2185.848	1149.04
2189.841	1132.38
2193.831	1132.04
2197.817	1123.04
2201.799	1120.71
2205.778	1110.71
2209.753	1109.71
2213.725	1110.71
2217.693	1102.38
2221.657	1116.04
2225.618	1114.04
2229.575	1105.71
2233.529	1094.71
2237.479	1088.71
2241.425	1072.04
2245.368	1055.71
2249.307	1049.38
2253.243	1030.04
2257.175	1018.38
2261.104	1001.38
2265.029	987.71
2268.95	972.38
2272.868	963.04
2276.783	948.38
2280.694	943.71
2284.601	927.38
2288.505	916.71
2292.405	894.38
2296.302	891.04
2300.195	874.04
2304.085	858.71
2307.971	847.04
2311.854	838.04
2315.734	813.71
2319.609	798.04
2323.482	797.71
2327.351	796.71
2331.216	805.71
2335.078	808.71
2338.937	780.04
2342.792	759.71
2346.643	748.38
2350.492	748.04
2354.336	744.71
2358.178	752.71
2362.015	746.71
2365.85	751.71
2369.681	743.38
2373.508	742.71
2377.333	744.71
2381.153	744.38
2384.971	744.04
2388.785	734.04
2392.595	734.38
2396.402	728.71
2400.206	720.04
2404.007	715.71
2407.804	721.71
2411.597	712.38
2415.388	707.38
2419.174	712.04
2422.958	707.04
2426.738	702.71
2430.515	704.04
2434.289	698.04
2438.059	692.71
2441.825	690.38
2445.589	685.38
2449.349	680.38
2453.106	679.04
2456.859	675.71
2460.61	665.38
2464.356	662.38
2468.1	661.04
2471.84	653.71
2475.577	648.04
2479.311	652.38
2483.041	653.71
2486.768	651.04
2490.492	657.04
2494.213	658.71
2497.93	658.38
2501.644	665.38
2505.355	658.38
2509.062	659.04
2512.766	659.71
2516.467	654.04
2520.165	658.38
2523.859	661.38
2527.551	649.71
2531.239	663.38
2534.923	656.38
2538.605	647.71
2542.283	657.04
2545.958	662.71
2549.63	664.71
2553.299	658.04
2556.964	659.04
2560.626	657.04
2564.285	652.38
2567.941	639.71
2571.594	647.71
2575.243	640.71
2578.89	628.38
2582.533	627.38
2586.173	621.71
2589.809	614.71
2593.443	601.04
2597.073	604.38
2600.701	597.71
2604.325	580.71
2607.946	584.71
2611.564	576.04
2615.178	576.71
2618.79	563.71
2622.398	558.71
2626.004	550.04
2629.606	541.04
2633.205	527.71
2636.801	521.38
2640.394	500.71
2643.983	491.38
2647.57	480.04
2651.153	470.71
2654.734	456.71
2658.311	452.71
2661.885	449.71
2665.456	444.38
2669.025	437.38
2672.589	435.38
2676.151	429.38
2679.71	428.04
2683.266	426.04
2686.819	418.71
2690.368	410.38
2693.915	402.38
2697.458	400.71
2700.999	393.38
2704.536	393.04
2708.071	384.04
2711.602	385.38
2715.13	388.04
2718.656	384.71
2722.178	388.38
2725.697	392.38
2729.214	402.38
2732.727	412.04
2736.237	411.04
2739.744	417.71
2743.249	420.04
2746.75	425.04
2750.248	422.38
2753.743	421.71
2757.236	413.38
2760.725	413.71
2764.211	407.04
2767.695	393.38
2771.175	387.38
2774.652	378.04
2778.127	382.04
2781.598	373.71
2785.067	378.71
2788.532	370.71
2791.995	373.04
2795.455	377.38
2798.911	382.38
2802.365	388.04
2805.816	386.38
2809.264	393.04
2812.709	398.71
2816.151	406.71
2819.59	407.71
2823.026	407.38
2826.46	414.04
2829.89	422.71
2833.318	422.71
2836.742	434.38
2840.164	437.04
2843.583	448.38
2846.999	459.04
2850.412	468.38
2853.822	483.38
2857.229	501.71
2860.634	513.04
2864.035	525.04
2867.434	540.04
2870.83	549.38
2874.223	557.71
2877.613	559.04
2881	567.04
2884.385	567.71
2887.766	574.71
2891.145	573.71
2894.521	578.71
2897.894	591.38
2901.264	595.71
2904.631	613.38
2907.996	611.38
2911.358	637.71
2914.717	647.38
2918.073	666.38
2921.426	678.38
2924.777	678.71
2928.124	683.71
2931.469	662.38
2934.811	638.04
2938.15	604.71
2941.487	572.71
2944.821	548.38
2948.152	522.71
2951.48	503.71
2954.805	505.38
2958.128	500.71
2961.447	505.38
2964.765	511.38
2968.079	510.71
2971.39	504.04
2974.699	493.04
2978.005	467.71
2981.308	448.38
2984.609	432.04
2987.907	410.71
2991.202	396.04
2994.494	381.38
2997.784	365.71
3001.07	356.71
3004.355	353.71
3007.636	322.71
3010.915	304.71
3014.191	280.71
3017.464	262.04
3020.734	235.71
3024.002	218.04
3027.267	199.38
3030.53	192.71
3033.789	182.04
3037.046	172.04
3040.301	165.71
3043.552	166.04
3046.801	164.04
3050.048	167.38
3053.291	169.04
3056.532	168.71
3059.771	172.71
3063.006	176.38
3066.239	187.38
3069.469	206.38
3072.697	220.04
3075.922	242.71
3079.144	259.71
3082.364	287.38
3085.581	303.04
3088.795	292.38
3092.007	256.71
3095.216	212.71
3098.423	183.38
3101.627	161.71
3104.828	137.71
3108.026	132.38
3111.222	116.38
3114.416	108.38
3117.607	103.71
3120.795	95.04
3123.98	90.38
3127.163	86.04
3130.344	79.38
3133.521	80.04
3136.696	71.38
3139.869	74.04
3143.039	62.38
3146.206	60.38
3149.371	59.38
3152.533	53.38
3155.693	49.04
3158.85	47.04
3162.005	43.71
3165.157	40.38
3168.306	34.38
3171.453	31.38
3174.597	27.71
3177.739	23.71
3180.878	17.38
3184.014	20.04
3187.149	15.04
3190.28	16.71
3193.409	11.04
3196.536	8.38
3199.659	10.04
3202.781	7.04
3205.9	6.71
3209.016	7.04
3212.13	4.04
3215.241	4.04
3218.35	1.38
3221.456	-1.62
3224.56	-3.62
3227.661	-0.96
3230.76	-3.62
3233.856	-7.62
3236.95	-5.96
3240.041	-11.29
3243.13	-13.29
3246.216	-14.62
3249.3	-12.62
3252.382	-14.62
3255.46	-17.29
3258.537	-14.96
3261.611	-16.29
3264.682	-18.62
3267.751	-20.29
3270.818	-21.96
3273.882	-19.62
3276.943	-26.29
3280.002	-24.29
3283.059	-25.96
3286.113	-27.29
3289.165	-29.96
3292.214	-33.62
3295.261	-34.96
3298.306	-37.96
3301.348	-40.29
3304.387	-41.96
3307.425	-40.62
3310.459	-40.29
3313.492	-45.62
3316.521	-46.96
3319.549	-44.96
3322.574	-48.62
3325.597	-50.62
3328.617	-48.29
3331.635	-47.96
3334.65	-53.62
3337.663	-51.62
3340.674	-52.62
3343.682	-50.96
3346.688	-50.96
3349.691	-54.96
3352.692	-55.62
3355.691	-52.29
3358.687	-56.29
3361.681	-55.62
3364.673	-59.29
3367.662	-62.62
3370.649	-61.62
3373.633	-62.62
3376.615	-63.29
3379.595	-61.96
3382.572	-62.96
3385.547	-64.96
3388.52	-64.96
3391.49	-68.29
3394.458	-68.96
3397.424	-69.62
3400.387	-70.29
3403.348	-70.29
3406.307	-70.29
3409.263	-72.62
3412.217	-71.96
3415.168	-73.62
3418.118	-74.29
3421.065	-73.96
3424.009	-75.29
3426.951	-75.62
3429.891	-78.62
3432.829	-72.96
3435.764	-75.96
3438.697	-76.96
3441.628	-79.29
3444.557	-77.96
3447.483	-78.29
3450.407	-78.96
3453.328	-81.62
3456.247	-80.29
3459.164	-82.96
3462.079	-83.29
3464.991	-83.62
3467.902	-85.29
3470.809	-85.62
3473.715	-83.29
3476.618	-87.96
3479.519	-88.96
3482.418	-89.96
3485.315	-88.62
3488.209	-85.29
3491.101	-88.62
3493.99	-85.96
3496.878	-90.62
3499.763	-89.62
3502.646	-89.62
3505.527	-86.62
3508.405	-91.29
3511.281	-93.29
3514.155	-90.62
3517.027	-91.62
3519.897	-91.62
3522.764	-91.29
3525.629	-95.62
3528.492	-95.96
3531.352	-95.96
3534.211	-95.62
3537.067	-97.96
3539.921	-95.62
3542.773	-96.96
3545.622	-100.62
3548.469	-98.96
3551.315	-98.96
3554.157	-98.29
3556.998	-97.29
3559.837	-100.62
3562.673	-96.62
3565.507	-99.96
3568.339	-100.62
3571.169	-102.96
3573.996	-102.62
3576.822	-101.29
3579.645	-99.62
3582.466	-100.62
3585.285	-102.29
3588.101	-101.96
3590.916	-104.29
3593.728	-104.29
3596.538	-106.29
3599.346	-105.62
3602.152	-102.29
3604.956	-104.96
3607.757	-105.62
3610.556	-107.29
3613.354	-110.29
3616.149	-110.29
3618.942	-108.96
3621.732	-112.96
3624.521	-109.29
3627.307	-108.62
3630.092	-112.62
3632.874	-110.29
3635.654	-109.29
3638.432	-107.62
3641.208	-110.29
3643.982	-109.62
3646.753	-109.62
3649.523	-108.96
3652.29	-108.96
3655.055	-110.96
3657.818	-110.29
3660.579	-113.29
3663.338	-108.29
3666.095	-110.96
3668.849	-111.29
3671.602	-113.62
3674.352	-111.96
3677.101	-113.96
3679.847	-110.96
3682.591	-112.96
3685.333	-110.96
3688.073	-112.96
3690.811	-111.29
3693.547	-110.62
3696.281	-113.62
3699.013	-111.29
3701.742	-112.96
3704.47	-110.62
3707.195	-116.29
3709.919	-112.96
3712.64	-114.62
3715.359	-112.96
3718.076	-115.62
3720.792	-115.29
3723.505	-115.29
3726.216	-115.62
3728.925	-116.62
3731.632	-116.96
3734.336	-115.96
3737.039	-115.62
3739.74	-116.29
3742.439	-115.96
3745.136	-119.62
3747.83	-117.96
3750.523	-115.62
3753.213	-115.29
3755.902	-114.62
3758.589	-115.96
3761.273	-113.62
3763.956	-115.29
3766.636	-115.29
3769.315	-115.29
3771.991	-114.29
3774.665	-112.96
3777.338	-114.29
3780.008	-113.96
3782.677	-112.29
3785.343	-112.29
3788.007	-112.29
3790.67	-115.29
3793.33	-112.62
3795.989	-114.96
3798.645	-113.62
3801.299	-115.29
3803.952	-110.29
3806.602	-117.96
3809.251	-116.96
3811.897	-115.29
3814.542	-117.96
3817.184	-113.96
3819.825	-113.62
3822.463	-117.29
3825.1	-115.29
3827.735	-118.29
3830.367	-117.29
3832.998	-118.96
3835.627	-113.96
3838.253	-115.29
3840.878	-119.96
3843.501	-117.29
3846.122	-118.96
3848.741	-116.96
3851.358	-119.62
3853.973	-117.96
3856.586	-123.96
3859.197	-120.62
3861.806	-117.62
3864.414	-119.96
3867.019	-119.96
3869.622	-119.62
3872.224	-113.29
3874.823	-114.96
3877.421	-110.29
3880.016	-107.96
3882.61	-103.62
3885.202	-101.29
3887.792	-105.62
3890.38	-111.96
3892.966	-114.29
3895.55	-117.62
3898.132	-117.96
3900.713	-115.62
3903.291	-118.96
3905.868	-116.96
3908.442	-115.62
3911.015	-118.29
3913.586	-121.96
3916.155	-119.62
3918.722	-118.29
3921.287	-118.29
3923.85	-114.62
3926.411	-120.96
3928.971	-119.62
3931.528	-116.62
3934.084	-119.96
3936.638	-119.96
3939.19	-120.96
3941.74	-118.29
3944.288	-117.96
3946.834	-121.62
3949.378	-119.62
3951.921	-122.29
3954.462	-122.29
3957	-120.96
3959.537	-117.96
3962.072	-116.62
3964.606	-121.62
3967.137	-119.96
3969.667	-119.29
3972.194	-121.96
3974.72	-119.29
3977.244	-123.62
3979.766	-116.62
3982.286	-116.96
3984.805	-117.62
3987.321	-118.29
3989.836	-116.29
3992.349	-116.96
3994.86	-115.62
3997.369	-115.62
3999.877	-115.29
4002.382	-117.29
4004.886	-116.29
4007.388	-116.96
4009.888	-115.62
4012.386	-114.62
4014.883	-113.29
4017.377	-112.62
4019.87	-112.62
4022.361	-114.62
4024.85	-114.62
4027.338	-115.96
4029.823	-112.29
4032.307	-114.29
4034.789	-112.96
4037.269	-115.29
4039.747	-114.29
4042.224	-113.29
4044.699	-115.29
4047.172	-118.29
4049.643	-114.29
4052.112	-115.62
4054.58	-116.29
4057.046	-116.96
4059.51	-117.62
4061.972	-118.62
4064.432	-115.96
4066.891	-115.96
4069.348	-114.29
4071.803	-113.96
4074.256	-112.62
4076.708	-112.62
4079.158	-114.96
4081.606	-115.29
4084.052	-113.96
4086.497	-115.62
4088.939	-112.96
4091.38	-114.29
4093.819	-114.62
4096.257	-123.96
4098.693	-124.62
4101.127	-124.29
4103.559	-124.96
4105.989	-61.62
4108.418	-54.96
4110.845	-50.96
4113.27	-44.62
4115.694	-36.62
4118.115	-26.62
4120.535	-115.62
4122.954	-114.62
4125.37	-117.62
4127.785	-117.29
4130.198	-115.29
4132.609	-113.96
4135.019	-124.29
4137.427	-125.96
4139.833	-124.29
4142.237	-125.62
