Data from 10000CFU1_B_RamanShift_1.txt Node
Date: Tue Jan 31 14:29:57 IST 2017
User: aro
Spectrometer: QEPB0276
Trigger mode: 0
Integration Time (sec): 5.000000E0
Scans to average: 1
Electric dark correction enabled: true
Nonlinearity correction enabled: false
Boxcar width: 0
XAxis mode: Raman Shifts
Number of Pixels in Spectrum: 1044
>>>>>Begin Spectral Data<<<<<
160.701	-36.75
166.742	2.25
172.777	102.25
178.805	414.25
184.826	1149.25
190.841	2357.25
196.849	3667.25
202.85	4487.25
208.845	4713.25
214.833	4546.25
220.815	4428.25
226.789	4240.25
232.758	4159.25
238.719	4031.25
244.674	3902.25
250.623	3729.25
256.565	3562.25
262.5	3406.25
268.429	3225.25
274.351	3131.25
280.267	3004.25
286.176	2900.25
292.079	2822.25
297.975	2716.25
303.865	2623.25
309.748	2575.25
315.625	2504.25
321.495	2459.25
327.359	2428.25
333.217	2391.25
339.068	2377.25
344.912	2355.25
350.751	2353.25
356.583	2326.25
362.408	2321.25
368.227	2372.25
374.04	2352.25
379.847	2376.25
385.647	2377.25
391.44	2381.25
397.228	2401.25
403.009	2410.25
408.784	2432.25
414.553	2430.25
420.315	2447.25
426.071	2425.25
431.821	2429.25
437.565	2451.25
443.302	2440.25
449.033	2411.25
454.758	2422.25
460.477	2404.25
466.189	2403.25
471.896	2379.25
477.596	2374.25
483.29	2358.25
488.978	2349.25
494.66	2350.25
500.335	2324.25
506.005	2270.25
511.668	2230.25
517.325	2202.25
522.977	2168.25
528.622	2138.25
534.261	2115.25
539.894	2088.25
545.521	2073.25
551.141	2086.25
556.756	2054.25
562.365	2055.25
567.968	2023.25
573.565	2011.25
579.155	2004.25
584.74	1990.25
590.319	1997.25
595.892	1969.25
601.459	1976.25
607.02	1966.25
612.575	1944.25
618.124	1919.25
623.667	1910.25
629.204	1902.25
634.735	1865.25
640.261	1875.25
645.781	1853.25
651.294	1836.25
656.802	1826.25
662.304	1827.25
667.8	1801.25
673.29	1797.25
678.775	1798.25
684.254	1806.25
689.726	1803.25
695.193	1780.25
700.655	1782.25
706.11	1776.25
711.56	1759.25
717.004	1742.25
722.442	1741.25
727.874	1724.25
733.301	1725.25
738.722	1697.25
744.137	1701.25
749.547	1709.25
754.951	1687.25
760.349	1704.25
765.741	1685.25
771.128	1685.25
776.509	1695.25
781.885	1681.25
787.254	1700.25
792.618	1715.25
797.977	1680.25
803.33	1679.25
808.677	1660.25
814.019	1631.25
819.355	1625.25
824.686	1607.25
830.011	1606.25
835.33	1596.25
840.644	1581.25
845.952	1586.25
851.255	1556.25
856.552	1557.25
861.844	1549.25
867.13	1555.25
872.41	1560.25
877.686	1524.25
882.955	1529.25
888.219	1502.25
893.478	1495.25
898.731	1463.25
903.979	1459.25
909.221	1423.25
914.458	1411.25
919.69	1403.25
924.916	1391.25
930.136	1385.25
935.351	1407.25
940.561	1399.25
945.766	1388.25
950.965	1389.25
956.158	1397.25
961.347	1370.25
966.529	1359.25
971.707	1338.25
976.879	1333.25
982.046	1313.25
987.208	1318.25
992.364	1298.25
997.515	1298.25
1002.66	1303.25
1007.801	1326.25
1012.936	1328.25
1018.066	1346.25
1023.19	1359.25
1028.309	1362.25
1033.423	1349.25
1038.532	1368.25
1043.636	1351.25
1048.734	1342.25
1053.827	1326.25
1058.915	1321.25
1063.998	1319.25
1069.075	1305.25
1074.147	1302.25
1079.214	1305.25
1084.276	1295.25
1089.333	1310.25
1094.385	1328.25
1099.431	1350.25
1104.472	1349.25
1109.509	1351.25
1114.54	1326.25
1119.565	1326.25
1124.586	1320.25
1129.602	1306.25
1134.613	1268.25
1139.618	1272.25
1144.619	1278.25
1149.614	1280.25
1154.604	1297.25
1159.589	1291.25
1164.57	1289.25
1169.545	1301.25
1174.515	1300.25
1179.48	1296.25
1184.44	1296.25
1189.395	1292.25
1194.345	1297.25
1199.29	1291.25
1204.23	1301.25
1209.165	1282.25
1214.095	1289.25
1219.021	1306.25
1223.941	1308.25
1228.856	1309.25
1233.766	1318.25
1238.672	1324.25
1243.572	1331.25
1248.467	1320.25
1253.358	1319.25
1258.244	1306.25
1263.124	1283.25
1268	1248.25
1272.871	1235.25
1277.737	1235.25
1282.599	1224.25
1287.455	1235.25
1292.306	1234.25
1297.153	1242.25
1301.995	1248.25
1306.832	1265.25
1311.664	1266.25
1316.491	1271.25
1321.314	1264.25
1326.132	1282.25
1330.945	1271.25
1335.753	1239.25
1340.556	1230.25
1345.354	1220.25
1350.148	1214.25
1354.937	1192.25
1359.722	1179.25
1364.501	1178.25
1369.276	1148.25
1374.046	1141.25
1378.811	1138.25
1383.572	1141.25
1388.327	1152.25
1393.079	1139.25
1397.825	1135.25
1402.567	1137.25
1407.304	1136.25
1412.036	1126.25
1416.764	1122.25
1421.487	1123.25
1426.205	1124.25
1430.919	1122.25
1435.628	1144.25
1440.333	1147.25
1445.032	1157.25
1449.727	1154.25
1454.418	1172.25
1459.104	1181.25
1463.785	1184.25
1468.462	1160.25
1473.134	1164.25
1477.802	1152.25
1482.465	1133.25
1487.123	1139.25
1491.777	1149.25
1496.426	1142.25
1501.071	1154.25
1505.711	1163.25
1510.347	1175.25
1514.978	1185.25
1519.604	1183.25
1524.226	1204.25
1528.844	1200.25
1533.457	1194.25
1538.065	1213.25
1542.669	1188.25
1547.269	1201.25
1551.864	1201.25
1556.454	1198.25
1561.041	1207.25
1565.622	1212.25
1570.199	1227.25
1574.772	1252.25
1579.34	1283.25
1583.904	1283.25
1588.464	1328.25
1593.019	1345.25
1597.569	1348.25
1602.115	1360.25
1606.657	1371.25
1611.195	1390.25
1615.728	1408.25
1620.256	1428.25
1624.78	1434.25
1629.3	1442.25
1633.816	1448.25
1638.327	1481.25
1642.834	1493.25
1647.336	1502.25
1651.834	1509.25
1656.328	1515.25
1660.817	1503.25
1665.302	1485.25
1669.783	1464.25
1674.259	1422.25
1678.732	1408.25
1683.199	1354.25
1687.663	1296.25
1692.122	1262.25
1696.577	1202.25
1701.028	1162.25
1705.474	1123.25
1709.917	1089.25
1714.355	1074.25
1718.788	1039.25
1723.218	1042.25
1727.643	1019.25
1732.064	1009.25
1736.481	994.25
1740.893	963.25
1745.301	935.25
1749.705	917.25
1754.105	888.25
1758.501	883.25
1762.893	865.25
1767.28	846.25
1771.663	834.25
1776.042	845.25
1780.417	840.25
1784.787	840.25
1789.154	841.25
1793.516	847.25
1797.874	842.25
1802.228	829.25
1806.578	824.25
1810.924	815.25
1815.266	801.25
1819.603	806.25
1823.937	783.25
1828.266	788.25
1832.591	768.25
1836.913	778.25
1841.23	766.25
1845.543	766.25
1849.852	784.25
1854.156	759.25
1858.457	776.25
1862.754	765.25
1867.047	779.25
1871.335	781.25
1875.62	783.25
1879.9	779.25
1884.177	799.25
1888.449	785.25
1892.718	781.25
1896.982	776.25
1901.243	781.25
1905.499	782.25
1909.752	776.25
1914	778.25
1918.245	775.25
1922.485	767.25
1926.722	781.25
1930.954	775.25
1935.183	789.25
1939.408	793.25
1943.628	787.25
1947.845	788.25
1952.058	782.25
1956.267	789.25
1960.472	777.25
1964.673	770.25
1968.87	765.25
1973.063	760.25
1977.252	759.25
1981.438	742.25
1985.619	744.25
1989.797	730.25
1993.971	750.25
1998.14	743.25
2002.306	743.25
2006.469	748.25
2010.627	741.25
2014.781	745.25
2018.932	755.25
2023.078	759.25
2027.221	762.25
2031.36	746.25
2035.495	738.25
2039.627	735.25
2043.754	726.25
2047.878	731.25
2051.998	721.25
2056.114	728.25
2060.226	732.25
2064.334	741.25
2068.439	728.25
2072.54	746.25
2076.637	741.25
2080.73	745.25
2084.82	751.25
2088.906	757.25
2092.988	745.25
2097.066	764.25
2101.14	740.25
2105.211	738.25
2109.278	750.25
2113.342	748.25
2117.401	738.25
2121.457	735.25
2125.509	725.25
2129.558	710.25
2133.602	697.25
2137.643	709.25
2141.681	706.25
2145.714	700.25
2149.744	690.25
2153.77	703.25
2157.793	697.25
2161.812	681.25
2165.827	678.25
2169.838	671.25
2173.846	666.25
2177.851	650.25
2181.851	638.25
2185.848	638.25
2189.841	629.25
2193.831	637.25
2197.817	622.25
2201.799	604.25
2205.778	612.25
2209.753	603.25
2213.725	618.25
2217.693	617.25
2221.657	621.25
2225.618	620.25
2229.575	606.25
2233.529	606.25
2237.479	610.25
2241.425	600.25
2245.368	604.25
2249.307	578.25
2253.243	576.25
2257.175	568.25
2261.104	560.25
2265.029	551.25
2268.95	538.25
2272.868	521.25
2276.783	534.25
2280.694	516.25
2284.601	520.25
2288.505	503.25
2292.405	506.25
2296.302	504.25
2300.195	500.25
2304.085	494.25
2307.971	486.25
2311.854	474.25
2315.734	463.25
2319.609	465.25
2323.482	453.25
2327.351	444.25
2331.216	451.25
2335.078	455.25
2338.937	440.25
2342.792	436.25
2346.643	437.25
2350.492	438.25
2354.336	438.25
2358.178	436.25
2362.015	438.25
2365.85	450.25
2369.681	443.25
2373.508	434.25
2377.333	435.25
2381.153	434.25
2384.971	447.25
2388.785	430.25
2392.595	433.25
2396.402	437.25
2400.206	429.25
2404.007	432.25
2407.804	410.25
2411.597	425.25
2415.388	429.25
2419.174	409.25
2422.958	413.25
2426.738	415.25
2430.515	425.25
2434.289	414.25
2438.059	409.25
2441.825	419.25
2445.589	407.25
2449.349	409.25
2453.106	403.25
2456.859	402.25
2460.61	390.25
2464.356	400.25
2468.1	384.25
2471.84	387.25
2475.577	387.25
2479.311	390.25
2483.041	387.25
2486.768	389.25
2490.492	383.25
2494.213	381.25
2497.93	387.25
2501.644	383.25
2505.355	385.25
2509.062	386.25
2512.766	373.25
2516.467	381.25
2520.165	371.25
2523.859	375.25
2527.551	377.25
2531.239	368.25
2534.923	366.25
2538.605	366.25
2542.283	357.25
2545.958	355.25
2549.63	351.25
2553.299	358.25
2556.964	348.25
2560.626	350.25
2564.285	351.25
2567.941	340.25
2571.594	342.25
2575.243	349.25
2578.89	335.25
2582.533	342.25
2586.173	333.25
2589.809	331.25
2593.443	332.25
2597.073	332.25
2600.701	325.25
2604.325	323.25
2607.946	320.25
2611.564	324.25
2615.178	332.25
2618.79	314.25
2622.398	314.25
2626.004	318.25
2629.606	309.25
2633.205	312.25
2636.801	304.25
2640.394	311.25
2643.983	311.25
2647.57	294.25
2651.153	298.25
2654.734	300.25
2658.311	291.25
2661.885	287.25
2665.456	284.25
2669.025	286.25
2672.589	292.25
2676.151	277.25
2679.71	273.25
2683.266	280.25
2686.819	276.25
2690.368	270.25
2693.915	266.25
2697.458	274.25
2700.999	267.25
2704.536	269.25
2708.071	258.25
2711.602	252.25
2715.13	256.25
2718.656	251.25
2722.178	258.25
2725.697	249.25
2729.214	258.25
2732.727	255.25
2736.237	259.25
2739.744	262.25
2743.249	265.25
2746.75	259.25
2750.248	259.25
2753.743	261.25
2757.236	260.25
2760.725	259.25
2764.211	256.25
2767.695	258.25
2771.175	244.25
2774.652	250.25
2778.127	246.25
2781.598	250.25
2785.067	248.25
2788.532	245.25
2791.995	248.25
2795.455	249.25
2798.911	250.25
2802.365	246.25
2805.816	252.25
2809.264	253.25
2812.709	250.25
2816.151	258.25
2819.59	263.25
2823.026	252.25
2826.46	265.25
2829.89	260.25
2833.318	254.25
2836.742	250.25
2840.164	260.25
2843.583	258.25
2846.999	264.25
2850.412	252.25
2853.822	265.25
2857.229	267.25
2860.634	275.25
2864.035	270.25
2867.434	277.25
2870.83	280.25
2874.223	282.25
2877.613	276.25
2881	279.25
2884.385	283.25
2887.766	281.25
2891.145	280.25
2894.521	286.25
2897.894	270.25
2901.264	285.25
2904.631	299.25
2907.996	287.25
2911.358	291.25
2914.717	293.25
2918.073	305.25
2921.426	298.25
2924.777	307.25
2928.124	305.25
2931.469	312.25
2934.811	335.25
2938.15	330.25
2941.487	342.25
2944.821	325.25
2948.152	339.25
2951.48	350.25
2954.805	342.25
2958.128	348.25
2961.447	352.25
2964.765	364.25
2968.079	380.25
2971.39	374.25
2974.699	392.25
2978.005	392.25
2981.308	411.25
2984.609	415.25
2987.907	421.25
2991.202	435.25
2994.494	452.25
2997.784	448.25
3001.07	458.25
3004.355	483.25
3007.636	495.25
3010.915	509.25
3014.191	512.25
3017.464	521.25
3020.734	534.25
3024.002	549.25
3027.267	545.25
3030.53	543.25
3033.789	563.25
3037.046	575.25
3040.301	593.25
3043.552	588.25
3046.801	609.25
3050.048	643.25
3053.291	648.25
3056.532	663.25
3059.771	675.25
3063.006	703.25
3066.239	716.25
3069.469	738.25
3072.697	761.25
3075.922	779.25
3079.144	810.25
3082.364	823.25
3085.581	850.25
3088.795	867.25
3092.007	895.25
3095.216	913.25
3098.423	928.25
3101.627	942.25
3104.828	960.25
3108.026	990.25
3111.222	1013.25
3114.416	1038.25
3117.607	1055.25
3120.795	1076.25
3123.98	1097.25
3127.163	1126.25
3130.344	1142.25
3133.521	1170.25
3136.696	1187.25
3139.869	1235.25
3143.039	1237.25
3146.206	1261.25
3149.371	1279.25
3152.533	1306.25
3155.693	1332.25
3158.85	1317.25
3162.005	1321.25
3165.157	1351.25
3168.306	1336.25
3171.453	1337.25
3174.597	1351.25
3177.739	1355.25
3180.878	1343.25
3184.014	1367.25
3187.149	1365.25
3190.28	1363.25
3193.409	1364.25
3196.536	1381.25
3199.659	1389.25
3202.781	1388.25
3205.9	1393.25
3209.016	1390.25
3212.13	1384.25
3215.241	1388.25
3218.35	1381.25
3221.456	1382.25
3224.56	1380.25
3227.661	1363.25
3230.76	1344.25
3233.856	1335.25
3236.95	1328.25
3240.041	1299.25
3243.13	1287.25
3246.216	1267.25
3249.3	1265.25
3252.382	1260.25
3255.46	1247.25
3258.537	1264.25
3261.611	1246.25
3264.682	1228.25
3267.751	1238.25
3270.818	1224.25
3273.882	1231.25
3276.943	1212.25
3280.002	1192.25
3283.059	1188.25
3286.113	1184.25
3289.165	1171.25
3292.214	1159.25
3295.261	1138.25
3298.306	1105.25
3301.348	1103.25
3304.387	1092.25
3307.425	1059.25
3310.459	1048.25
3313.492	1026.25
3316.521	1035.25
3319.549	1033.25
3322.574	994.25
3325.597	992.25
3328.617	1001.25
3331.635	986.25
3334.65	985.25
3337.663	967.25
3340.674	974.25
3343.682	961.25
3346.688	961.25
3349.691	954.25
3352.692	952.25
3355.691	945.25
3358.687	938.25
3361.681	919.25
3364.673	934.25
3367.662	911.25
3370.649	908.25
3373.633	893.25
3376.615	891.25
3379.595	871.25
3382.572	857.25
3385.547	848.25
3388.52	843.25
3391.49	817.25
3394.458	803.25
3397.424	799.25
3400.387	777.25
3403.348	791.25
3406.307	771.25
3409.263	761.25
3412.217	756.25
3415.168	756.25
3418.118	753.25
3421.065	735.25
3424.009	721.25
3426.951	711.25
3429.891	698.25
3432.829	697.25
3435.764	679.25
3438.697	669.25
3441.628	649.25
3444.557	643.25
3447.483	625.25
3450.407	601.25
3453.328	603.25
3456.247	570.25
3459.164	558.25
3462.079	540.25
3464.991	521.25
3467.902	501.25
3470.809	502.25
3473.715	478.25
3476.618	460.25
3479.519	447.25
3482.418	448.25
3485.315	430.25
3488.209	420.25
3491.101	405.25
3493.99	391.25
3496.878	390.25
3499.763	374.25
3502.646	353.25
3505.527	343.25
3508.405	336.25
3511.281	308.25
3514.155	306.25
3517.027	297.25
3519.897	277.25
3522.764	275.25
3525.629	256.25
3528.492	242.25
3531.352	228.25
3534.211	221.25
3537.067	203.25
3539.921	191.25
3542.773	175.25
3545.622	171.25
3548.469	162.25
3551.315	148.25
3554.157	140.25
3556.998	136.25
3559.837	129.25
3562.673	123.25
3565.507	110.25
3568.339	102.25
3571.169	92.25
3573.996	92.25
3576.822	86.25
3579.645	77.25
3582.466	78.25
3585.285	69.25
3588.101	55.25
3590.916	55.25
3593.728	49.25
3596.538	40.25
3599.346	42.25
3602.152	33.25
3604.956	24.25
3607.757	18.25
3610.556	20.25
3613.354	16.25
3616.149	10.25
3618.942	8.25
3621.732	1.25
3624.521	-2.75
3627.307	-6.75
3630.092	-15.75
3632.874	-11.75
3635.654	-22.75
3638.432	-26.75
3641.208	-26.75
3643.982	-25.75
3646.753	-28.75
3649.523	-25.75
3652.29	-33.75
3655.055	-31.75
3657.818	-40.75
3660.579	-39.75
3663.338	-48.75
3666.095	-49.75
3668.849	-51.75
3671.602	-54.75
3674.352	-60.75
3677.101	-62.75
3679.847	-61.75
3682.591	-66.75
3685.333	-62.75
3688.073	-63.75
3690.811	-65.75
3693.547	-75.75
3696.281	-73.75
3699.013	-77.75
3701.742	-77.75
3704.47	-83.75
3707.195	-83.75
3709.919	-78.75
3712.64	-85.75
3715.359	-86.75
3718.076	-83.75
3720.792	-83.75
3723.505	-85.75
3726.216	-85.75
3728.925	-91.75
3731.632	-86.75
3734.336	-90.75
3737.039	-91.75
3739.74	-96.75
3742.439	-94.75
3745.136	-94.75
3747.83	-95.75
3750.523	-95.75
3753.213	-92.75
3755.902	-97.75
3758.589	-93.75
3761.273	-93.75
3763.956	-95.75
3766.636	-99.75
3769.315	-99.75
3771.991	-100.75
3774.665	-92.75
3777.338	-102.75
3780.008	-101.75
3782.677	-102.75
3785.343	-102.75
3788.007	-98.75
3790.67	-103.75
3793.33	-102.75
3795.989	-102.75
3798.645	-103.75
3801.299	-101.75
3803.952	-107.75
3806.602	-104.75
3809.251	-106.75
3811.897	-104.75
3814.542	-103.75
3817.184	-104.75
3819.825	-101.75
3822.463	-99.75
3825.1	-105.75
3827.735	-106.75
3830.367	-109.75
3832.998	-108.75
3835.627	-106.75
3838.253	-107.75
3840.878	-107.75
3843.501	-107.75
3846.122	-104.75
3848.741	-102.75
3851.358	-107.75
3853.973	-108.75
3856.586	-105.75
3859.197	-108.75
3861.806	-111.75
3864.414	-107.75
3867.019	-115.75
3869.622	-110.75
3872.224	-112.75
3874.823	-108.75
3877.421	-104.75
3880.016	-97.75
3882.61	-98.75
3885.202	-101.75
3887.792	-100.75
3890.38	-107.75
3892.966	-106.75
3895.55	-112.75
3898.132	-115.75
3900.713	-112.75
3903.291	-111.75
3905.868	-108.75
3908.442	-109.75
3911.015	-105.75
3913.586	-115.75
3916.155	-109.75
3918.722	-115.75
3921.287	-112.75
3923.85	-116.75
3926.411	-117.75
3928.971	-112.75
3931.528	-113.75
3934.084	-109.75
3936.638	-109.75
3939.19	-113.75
3941.74	-109.75
3944.288	-115.75
3946.834	-110.75
3949.378	-113.75
3951.921	-113.75
3954.462	-114.75
3957	-113.75
3959.537	-115.75
3962.072	-110.75
3964.606	-109.75
3967.137	-109.75
3969.667	-110.75
3972.194	-111.75
3974.72	-107.75
3977.244	-112.75
3979.766	-115.75
3982.286	-113.75
3984.805	-113.75
3987.321	-111.75
3989.836	-117.75
3992.349	-114.75
3994.86	-110.75
3997.369	-109.75
3999.877	-115.75
4002.382	-107.75
4004.886	-109.75
4007.388	-114.75
4009.888	-115.75
4012.386	-118.75
4014.883	-110.75
4017.377	-114.75
4019.87	-111.75
4022.361	-115.75
4024.85	-112.75
4027.338	-116.75
4029.823	-112.75
4032.307	-112.75
4034.789	-111.75
4037.269	-113.75
4039.747	-111.75
4042.224	-112.75
4044.699	-116.75
4047.172	-116.75
4049.643	-114.75
4052.112	-114.75
4054.58	-116.75
4057.046	-114.75
4059.51	-118.75
4061.972	-117.75
4064.432	-113.75
4066.891	-116.75
4069.348	-112.75
4071.803	-116.75
4074.256	-113.75
4076.708	-111.75
4079.158	-117.75
4081.606	-116.75
4084.052	-110.75
4086.497	-117.75
4088.939	-115.75
4091.38	-113.75
4093.819	-118.75
4096.257	-119.75
4098.693	-119.75
4101.127	-115.75
4103.559	-120.75
4105.989	-78.75
4108.418	-77.75
4110.845	-68.75
4113.27	-64.75
4115.694	-61.75
4118.115	-48.75
4120.535	-112.75
4122.954	-116.75
4125.37	-110.75
4127.785	-115.75
4130.198	-117.75
4132.609	-117.75
4135.019	-121.75
4137.427	-118.75
4139.833	-118.75
4142.237	-122.75
