Data from 10000000CFU1_B_RamanShift_1.txt Node
Date: Tue Jan 31 14:44:32 IST 2017
User: aro
Spectrometer: QEPB0276
Trigger mode: 0
Integration Time (sec): 5.000000E0
Scans to average: 1
Electric dark correction enabled: true
Nonlinearity correction enabled: false
Boxcar width: 0
XAxis mode: Raman Shifts
Number of Pixels in Spectrum: 1044
>>>>>Begin Spectral Data<<<<<
160.701	-34.75
166.742	-2.75
172.777	92.25
178.805	382.25
184.826	1062.25
190.841	2175.25
196.849	3393.25
202.85	4213.25
208.845	4384.25
214.833	4215.25
220.815	4084.25
226.789	3929.25
232.758	3880.25
238.719	3749.25
244.674	3584.25
250.623	3445.25
256.565	3266.25
262.5	3120.25
268.429	2993.25
274.351	2849.25
280.267	2747.25
286.176	2644.25
292.079	2582.25
297.975	2466.25
303.865	2408.25
309.748	2335.25
315.625	2307.25
321.495	2233.25
327.359	2221.25
333.217	2182.25
339.068	2169.25
344.912	2149.25
350.751	2154.25
356.583	2137.25
362.408	2137.25
368.227	2144.25
374.04	2157.25
379.847	2163.25
385.647	2171.25
391.44	2187.25
397.228	2198.25
403.009	2214.25
408.784	2215.25
414.553	2213.25
420.315	2223.25
426.071	2225.25
431.821	2225.25
437.565	2236.25
443.302	2216.25
449.033	2207.25
454.758	2195.25
460.477	2170.25
466.189	2190.25
471.896	2165.25
477.596	2161.25
483.29	2141.25
488.978	2140.25
494.66	2118.25
500.335	2104.25
506.005	2081.25
511.668	2038.25
517.325	1991.25
522.977	1970.25
528.622	1946.25
534.261	1906.25
539.894	1901.25
545.521	1872.25
551.141	1862.25
556.756	1851.25
562.365	1849.25
567.968	1821.25
573.565	1820.25
579.155	1819.25
584.74	1822.25
590.319	1773.25
595.892	1783.25
601.459	1776.25
607.02	1759.25
612.575	1730.25
618.124	1707.25
623.667	1704.25
629.204	1698.25
634.735	1675.25
640.261	1668.25
645.781	1660.25
651.294	1647.25
656.802	1637.25
662.304	1607.25
667.8	1617.25
673.29	1618.25
678.775	1595.25
684.254	1604.25
689.726	1585.25
695.193	1595.25
700.655	1572.25
706.11	1581.25
711.56	1556.25
717.004	1560.25
722.442	1535.25
727.874	1532.25
733.301	1521.25
738.722	1509.25
744.137	1519.25
749.547	1512.25
754.951	1500.25
760.349	1506.25
765.741	1493.25
771.128	1506.25
776.509	1504.25
781.885	1504.25
787.254	1500.25
792.618	1488.25
797.977	1494.25
803.33	1479.25
808.677	1469.25
814.019	1446.25
819.355	1430.25
824.686	1437.25
830.011	1416.25
835.33	1390.25
840.644	1389.25
845.952	1378.25
851.255	1366.25
856.552	1369.25
861.844	1352.25
867.13	1348.25
872.41	1364.25
877.686	1334.25
882.955	1339.25
888.219	1307.25
893.478	1297.25
898.731	1267.25
903.979	1257.25
909.221	1238.25
914.458	1228.25
919.69	1214.25
924.916	1214.25
930.136	1208.25
935.351	1207.25
940.561	1211.25
945.766	1207.25
950.965	1195.25
956.158	1200.25
961.347	1168.25
966.529	1167.25
971.707	1158.25
976.879	1144.25
982.046	1126.25
987.208	1125.25
992.364	1116.25
997.515	1109.25
1002.66	1117.25
1007.801	1131.25
1012.936	1150.25
1018.066	1148.25
1023.19	1168.25
1028.309	1153.25
1033.423	1170.25
1038.532	1168.25
1043.636	1164.25
1048.734	1149.25
1053.827	1134.25
1058.915	1121.25
1063.998	1117.25
1069.075	1110.25
1074.147	1105.25
1079.214	1113.25
1084.276	1114.25
1089.333	1118.25
1094.385	1135.25
1099.431	1142.25
1104.472	1151.25
1109.509	1145.25
1114.54	1121.25
1119.565	1135.25
1124.586	1116.25
1129.602	1090.25
1134.613	1087.25
1139.618	1082.25
1144.619	1090.25
1149.614	1090.25
1154.604	1091.25
1159.589	1097.25
1164.57	1099.25
1169.545	1107.25
1174.515	1106.25
1179.48	1122.25
1184.44	1086.25
1189.395	1095.25
1194.345	1081.25
1199.29	1090.25
1204.23	1098.25
1209.165	1086.25
1214.095	1081.25
1219.021	1103.25
1223.941	1111.25
1228.856	1108.25
1233.766	1104.25
1238.672	1113.25
1243.572	1111.25
1248.467	1114.25
1253.358	1109.25
1258.244	1103.25
1263.124	1076.25
1268	1062.25
1272.871	1049.25
1277.737	1038.25
1282.599	1036.25
1287.455	1027.25
1292.306	1041.25
1297.153	1041.25
1301.995	1060.25
1306.832	1059.25
1311.664	1080.25
1316.491	1074.25
1321.314	1089.25
1326.132	1079.25
1330.945	1062.25
1335.753	1046.25
1340.556	1047.25
1345.354	1026.25
1350.148	1020.25
1354.937	1006.25
1359.722	1001.25
1364.501	986.25
1369.276	965.25
1374.046	966.25
1378.811	980.25
1383.572	970.25
1388.327	951.25
1393.079	960.25
1397.825	958.25
1402.567	957.25
1407.304	950.25
1412.036	944.25
1416.764	937.25
1421.487	931.25
1426.205	946.25
1430.919	937.25
1435.628	954.25
1440.333	968.25
1445.032	986.25
1449.727	987.25
1454.418	974.25
1459.104	994.25
1463.785	982.25
1468.462	985.25
1473.134	984.25
1477.802	963.25
1482.465	961.25
1487.123	973.25
1491.777	954.25
1496.426	965.25
1501.071	971.25
1505.711	977.25
1510.347	977.25
1514.978	982.25
1519.604	1007.25
1524.226	1017.25
1528.844	1010.25
1533.457	1032.25
1538.065	1010.25
1542.669	1008.25
1547.269	1007.25
1551.864	1003.25
1556.454	1004.25
1561.041	1034.25
1565.622	1027.25
1570.199	1052.25
1574.772	1056.25
1579.34	1072.25
1583.904	1100.25
1588.464	1115.25
1593.019	1148.25
1597.569	1150.25
1602.115	1180.25
1606.657	1179.25
1611.195	1185.25
1615.728	1200.25
1620.256	1210.25
1624.78	1234.25
1629.3	1247.25
1633.816	1268.25
1638.327	1286.25
1642.834	1295.25
1647.336	1304.25
1651.834	1310.25
1656.328	1297.25
1660.817	1299.25
1665.302	1290.25
1669.783	1273.25
1674.259	1242.25
1678.732	1186.25
1683.199	1170.25
1687.663	1133.25
1692.122	1089.25
1696.577	1032.25
1701.028	992.25
1705.474	937.25
1709.917	901.25
1714.355	887.25
1718.788	868.25
1723.218	863.25
1727.643	850.25
1732.064	826.25
1736.481	808.25
1740.893	808.25
1745.301	779.25
1749.705	753.25
1754.105	727.25
1758.501	726.25
1762.893	708.25
1767.28	692.25
1771.663	686.25
1776.042	692.25
1780.417	689.25
1784.787	681.25
1789.154	688.25
1793.516	679.25
1797.874	675.25
1802.228	684.25
1806.578	666.25
1810.924	651.25
1815.266	642.25
1819.603	640.25
1823.937	630.25
1828.266	642.25
1832.591	633.25
1836.913	618.25
1841.23	618.25
1845.543	624.25
1849.852	615.25
1854.156	620.25
1858.457	624.25
1862.754	627.25
1867.047	627.25
1871.335	627.25
1875.62	628.25
1879.9	635.25
1884.177	627.25
1888.449	626.25
1892.718	631.25
1896.982	633.25
1901.243	637.25
1905.499	617.25
1909.752	640.25
1914	618.25
1918.245	621.25
1922.485	633.25
1926.722	622.25
1930.954	630.25
1935.183	641.25
1939.408	631.25
1943.628	630.25
1947.845	636.25
1952.058	631.25
1956.267	628.25
1960.472	627.25
1964.673	620.25
1968.87	603.25
1973.063	601.25
1977.252	590.25
1981.438	593.25
1985.619	576.25
1989.797	599.25
1993.971	584.25
1998.14	591.25
2002.306	603.25
2006.469	602.25
2010.627	602.25
2014.781	613.25
2018.932	609.25
2023.078	614.25
2027.221	620.25
2031.36	600.25
2035.495	606.25
2039.627	603.25
2043.754	589.25
2047.878	595.25
2051.998	578.25
2056.114	599.25
2060.226	598.25
2064.334	599.25
2068.439	615.25
2072.54	606.25
2076.637	605.25
2080.73	601.25
2084.82	618.25
2088.906	604.25
2092.988	607.25
2097.066	618.25
2101.14	607.25
2105.211	607.25
2109.278	603.25
2113.342	600.25
2117.401	592.25
2121.457	593.25
2125.509	592.25
2129.558	573.25
2133.602	572.25
2137.643	569.25
2141.681	569.25
2145.714	562.25
2149.744	569.25
2153.77	574.25
2157.793	561.25
2161.812	555.25
2165.827	565.25
2169.838	537.25
2173.846	529.25
2177.851	532.25
2181.851	521.25
2185.848	508.25
2189.841	511.25
2193.831	504.25
2197.817	506.25
2201.799	504.25
2205.778	503.25
2209.753	503.25
2213.725	492.25
2217.693	490.25
2221.657	491.25
2225.618	487.25
2229.575	495.25
2233.529	475.25
2237.479	473.25
2241.425	475.25
2245.368	470.25
2249.307	471.25
2253.243	460.25
2257.175	447.25
2261.104	438.25
2265.029	445.25
2268.95	429.25
2272.868	428.25
2276.783	417.25
2280.694	412.25
2284.601	418.25
2288.505	411.25
2292.405	404.25
2296.302	402.25
2300.195	399.25
2304.085	392.25
2307.971	375.25
2311.854	369.25
2315.734	364.25
2319.609	367.25
2323.482	358.25
2327.351	346.25
2331.216	350.25
2335.078	344.25
2338.937	344.25
2342.792	338.25
2346.643	338.25
2350.492	345.25
2354.336	337.25
2358.178	337.25
2362.015	337.25
2365.85	347.25
2369.681	344.25
2373.508	349.25
2377.333	344.25
2381.153	347.25
2384.971	349.25
2388.785	344.25
2392.595	336.25
2396.402	334.25
2400.206	340.25
2404.007	341.25
2407.804	327.25
2411.597	322.25
2415.388	338.25
2419.174	318.25
2422.958	324.25
2426.738	329.25
2430.515	333.25
2434.289	323.25
2438.059	315.25
2441.825	318.25
2445.589	316.25
2449.349	318.25
2453.106	308.25
2456.859	309.25
2460.61	310.25
2464.356	300.25
2468.1	298.25
2471.84	302.25
2475.577	298.25
2479.311	302.25
2483.041	293.25
2486.768	306.25
2490.492	298.25
2494.213	293.25
2497.93	299.25
2501.644	298.25
2505.355	296.25
2509.062	296.25
2512.766	296.25
2516.467	294.25
2520.165	305.25
2523.859	292.25
2527.551	291.25
2531.239	288.25
2534.923	282.25
2538.605	277.25
2542.283	282.25
2545.958	274.25
2549.63	274.25
2553.299	277.25
2556.964	269.25
2560.626	273.25
2564.285	269.25
2567.941	266.25
2571.594	265.25
2575.243	264.25
2578.89	262.25
2582.533	259.25
2586.173	256.25
2589.809	253.25
2593.443	254.25
2597.073	253.25
2600.701	248.25
2604.325	250.25
2607.946	256.25
2611.564	243.25
2615.178	243.25
2618.79	243.25
2622.398	238.25
2626.004	234.25
2629.606	241.25
2633.205	228.25
2636.801	230.25
2640.394	235.25
2643.983	229.25
2647.57	234.25
2651.153	230.25
2654.734	221.25
2658.311	220.25
2661.885	225.25
2665.456	216.25
2669.025	219.25
2672.589	215.25
2676.151	214.25
2679.71	206.25
2683.266	206.25
2686.819	204.25
2690.368	210.25
2693.915	207.25
2697.458	208.25
2700.999	195.25
2704.536	202.25
2708.071	197.25
2711.602	195.25
2715.13	201.25
2718.656	189.25
2722.178	197.25
2725.697	188.25
2729.214	191.25
2732.727	195.25
2736.237	200.25
2739.744	199.25
2743.249	207.25
2746.75	208.25
2750.248	203.25
2753.743	197.25
2757.236	199.25
2760.725	189.25
2764.211	203.25
2767.695	197.25
2771.175	185.25
2774.652	188.25
2778.127	189.25
2781.598	181.25
2785.067	188.25
2788.532	191.25
2791.995	185.25
2795.455	188.25
2798.911	185.25
2802.365	194.25
2805.816	189.25
2809.264	194.25
2812.709	194.25
2816.151	201.25
2819.59	204.25
2823.026	193.25
2826.46	192.25
2829.89	202.25
2833.318	206.25
2836.742	194.25
2840.164	197.25
2843.583	195.25
2846.999	211.25
2850.412	207.25
2853.822	206.25
2857.229	204.25
2860.634	219.25
2864.035	222.25
2867.434	228.25
2870.83	228.25
2874.223	227.25
2877.613	228.25
2881	235.25
2884.385	234.25
2887.766	229.25
2891.145	235.25
2894.521	231.25
2897.894	229.25
2901.264	238.25
2904.631	240.25
2907.996	244.25
2911.358	248.25
2914.717	246.25
2918.073	248.25
2921.426	247.25
2924.777	243.25
2928.124	260.25
2931.469	262.25
2934.811	277.25
2938.15	276.25
2941.487	284.25
2944.821	284.25
2948.152	293.25
2951.48	302.25
2954.805	307.25
2958.128	299.25
2961.447	310.25
2964.765	321.25
2968.079	329.25
2971.39	336.25
2974.699	342.25
2978.005	360.25
2981.308	352.25
2984.609	364.25
2987.907	375.25
2991.202	376.25
2994.494	393.25
2997.784	399.25
3001.07	415.25
3004.355	437.25
3007.636	441.25
3010.915	455.25
3014.191	456.25
3017.464	467.25
3020.734	470.25
3024.002	477.25
3027.267	500.25
3030.53	501.25
3033.789	503.25
3037.046	519.25
3040.301	543.25
3043.552	543.25
3046.801	560.25
3050.048	572.25
3053.291	590.25
3056.532	601.25
3059.771	626.25
3063.006	638.25
3066.239	675.25
3069.469	699.25
3072.697	707.25
3075.922	717.25
3079.144	742.25
3082.364	781.25
3085.581	785.25
3088.795	810.25
3092.007	831.25
3095.216	847.25
3098.423	858.25
3101.627	878.25
3104.828	908.25
3108.026	933.25
3111.222	944.25
3114.416	975.25
3117.607	986.25
3120.795	1014.25
3123.98	1026.25
3127.163	1060.25
3130.344	1079.25
3133.521	1111.25
3136.696	1111.25
3139.869	1145.25
3143.039	1185.25
3146.206	1193.25
3149.371	1207.25
3152.533	1232.25
3155.693	1233.25
3158.85	1251.25
3162.005	1254.25
3165.157	1247.25
3168.306	1255.25
3171.453	1267.25
3174.597	1266.25
3177.739	1278.25
3180.878	1286.25
3184.014	1283.25
3187.149	1279.25
3190.28	1296.25
3193.409	1302.25
3196.536	1307.25
3199.659	1303.25
3202.781	1338.25
3205.9	1298.25
3209.016	1320.25
3212.13	1328.25
3215.241	1323.25
3218.35	1308.25
3221.456	1293.25
3224.56	1304.25
3227.661	1291.25
3230.76	1284.25
3233.856	1265.25
3236.95	1259.25
3240.041	1221.25
3243.13	1232.25
3246.216	1209.25
3249.3	1212.25
3252.382	1192.25
3255.46	1182.25
3258.537	1195.25
3261.611	1168.25
3264.682	1172.25
3267.751	1154.25
3270.818	1165.25
3273.882	1157.25
3276.943	1146.25
3280.002	1131.25
3283.059	1119.25
3286.113	1100.25
3289.165	1094.25
3292.214	1092.25
3295.261	1077.25
3298.306	1054.25
3301.348	1048.25
3304.387	1026.25
3307.425	1008.25
3310.459	996.25
3313.492	980.25
3316.521	959.25
3319.549	956.25
3322.574	953.25
3325.597	941.25
3328.617	923.25
3331.635	925.25
3334.65	916.25
3337.663	917.25
3340.674	907.25
3343.682	911.25
3346.688	896.25
3349.691	906.25
3352.692	911.25
3355.691	899.25
3358.687	903.25
3361.681	894.25
3364.673	878.25
3367.662	867.25
3370.649	861.25
3373.633	841.25
3376.615	835.25
3379.595	823.25
3382.572	819.25
3385.547	792.25
3388.52	795.25
3391.49	790.25
3394.458	772.25
3397.424	761.25
3400.387	746.25
3403.348	738.25
3406.307	728.25
3409.263	724.25
3412.217	723.25
3415.168	712.25
3418.118	706.25
3421.065	694.25
3424.009	693.25
3426.951	667.25
3429.891	669.25
3432.829	656.25
3435.764	645.25
3438.697	619.25
3441.628	617.25
3444.557	589.25
3447.483	587.25
3450.407	571.25
3453.328	560.25
3456.247	542.25
3459.164	537.25
3462.079	511.25
3464.991	494.25
3467.902	487.25
3470.809	465.25
3473.715	447.25
3476.618	429.25
3479.519	422.25
3482.418	418.25
3485.315	412.25
3488.209	393.25
3491.101	381.25
3493.99	373.25
3496.878	361.25
3499.763	344.25
3502.646	328.25
3505.527	319.25
3508.405	310.25
3511.281	291.25
3514.155	287.25
3517.027	279.25
3519.897	267.25
3522.764	257.25
3525.629	242.25
3528.492	224.25
3531.352	212.25
3534.211	202.25
3537.067	192.25
3539.921	181.25
3542.773	171.25
3545.622	163.25
3548.469	155.25
3551.315	142.25
3554.157	132.25
3556.998	130.25
3559.837	111.25
3562.673	114.25
3565.507	106.25
3568.339	90.25
3571.169	83.25
3573.996	83.25
3576.822	82.25
3579.645	73.25
3582.466	66.25
3585.285	64.25
3588.101	49.25
3590.916	54.25
3593.728	44.25
3596.538	43.25
3599.346	33.25
3602.152	30.25
3604.956	22.25
3607.757	19.25
3610.556	10.25
3613.354	7.25
3616.149	18.25
3618.942	5.25
3621.732	-2.75
3624.521	-2.75
3627.307	-5.75
3630.092	-11.75
3632.874	-14.75
3635.654	-28.75
3638.432	-21.75
3641.208	-19.75
3643.982	-27.75
3646.753	-28.75
3649.523	-29.75
3652.29	-33.75
3655.055	-32.75
3657.818	-35.75
3660.579	-41.75
3663.338	-40.75
3666.095	-51.75
3668.849	-50.75
3671.602	-52.75
3674.352	-52.75
3677.101	-59.75
3679.847	-58.75
3682.591	-62.75
3685.333	-59.75
3688.073	-65.75
3690.811	-61.75
3693.547	-70.75
3696.281	-64.75
3699.013	-69.75
3701.742	-72.75
3704.47	-77.75
3707.195	-72.75
3709.919	-76.75
3712.64	-81.75
3715.359	-80.75
3718.076	-75.75
3720.792	-80.75
3723.505	-82.75
3726.216	-79.75
3728.925	-82.75
3731.632	-84.75
3734.336	-81.75
3737.039	-87.75
3739.74	-94.75
3742.439	-88.75
3745.136	-88.75
3747.83	-88.75
3750.523	-86.75
3753.213	-91.75
3755.902	-86.75
3758.589	-85.75
3761.273	-84.75
3763.956	-83.75
3766.636	-94.75
3769.315	-92.75
3771.991	-95.75
3774.665	-95.75
3777.338	-95.75
3780.008	-93.75
3782.677	-88.75
3785.343	-96.75
3788.007	-92.75
3790.67	-94.75
3793.33	-93.75
3795.989	-96.75
3798.645	-98.75
3801.299	-96.75
3803.952	-99.75
3806.602	-98.75
3809.251	-98.75
3811.897	-99.75
3814.542	-98.75
3817.184	-92.75
3819.825	-95.75
3822.463	-96.75
3825.1	-98.75
3827.735	-101.75
3830.367	-97.75
3832.998	-105.75
3835.627	-99.75
3838.253	-101.75
3840.878	-101.75
3843.501	-98.75
3846.122	-99.75
3848.741	-96.75
3851.358	-100.75
3853.973	-100.75
3856.586	-101.75
3859.197	-103.75
3861.806	-104.75
3864.414	-101.75
3867.019	-104.75
3869.622	-103.75
3872.224	-105.75
3874.823	-101.75
3877.421	-94.75
3880.016	-93.75
3882.61	-89.75
3885.202	-91.75
3887.792	-94.75
3890.38	-97.75
3892.966	-99.75
3895.55	-103.75
3898.132	-106.75
3900.713	-103.75
3903.291	-106.75
3905.868	-102.75
3908.442	-102.75
3911.015	-102.75
3913.586	-105.75
3916.155	-102.75
3918.722	-105.75
3921.287	-107.75
3923.85	-109.75
3926.411	-109.75
3928.971	-102.75
3931.528	-106.75
3934.084	-103.75
3936.638	-103.75
3939.19	-103.75
3941.74	-103.75
3944.288	-108.75
3946.834	-102.75
3949.378	-105.75
3951.921	-109.75
3954.462	-108.75
3957	-108.75
3959.537	-108.75
3962.072	-103.75
3964.606	-105.75
3967.137	-101.75
3969.667	-104.75
3972.194	-105.75
3974.72	-103.75
3977.244	-108.75
3979.766	-106.75
3982.286	-104.75
3984.805	-106.75
3987.321	-107.75
3989.836	-104.75
3992.349	-106.75
3994.86	-103.75
3997.369	-102.75
3999.877	-109.75
4002.382	-104.75
4004.886	-104.75
4007.388	-102.75
4009.888	-104.75
4012.386	-104.75
4014.883	-105.75
4017.377	-107.75
4019.87	-102.75
4022.361	-107.75
4024.85	-103.75
4027.338	-102.75
4029.823	-101.75
4032.307	-101.75
4034.789	-100.75
4037.269	-102.75
4039.747	-105.75
4042.224	-107.75
4044.699	-112.75
4047.172	-107.75
4049.643	-106.75
4052.112	-104.75
4054.58	-107.75
4057.046	-103.75
4059.51	-108.75
4061.972	-110.75
4064.432	-108.75
4066.891	-109.75
4069.348	-104.75
4071.803	-108.75
4074.256	-113.75
4076.708	-105.75
4079.158	-107.75
4081.606	-108.75
4084.052	-98.75
4086.497	-106.75
4088.939	-105.75
4091.38	-103.75
4093.819	-107.75
4096.257	-111.75
4098.693	-105.75
4101.127	-106.75
4103.559	-113.75
4105.989	-70.75
4108.418	-69.75
4110.845	-66.75
4113.27	-60.75
4115.694	-55.75
4118.115	-49.75
4120.535	-104.75
4122.954	-106.75
4125.37	-108.75
4127.785	-107.75
4130.198	-105.75
4132.609	-102.75
4135.019	-108.75
4137.427	-108.75
4139.833	-109.75
4142.237	-109.75
