Data from 100000CFU3_B_RamanShift_1.txt Node
Date: Tue Jan 31 14:39:52 IST 2017
User: aro
Spectrometer: QEPB0276
Trigger mode: 0
Integration Time (sec): 5.000000E0
Scans to average: 1
Electric dark correction enabled: true
Nonlinearity correction enabled: false
Boxcar width: 0
XAxis mode: Raman Shifts
Number of Pixels in Spectrum: 1044
>>>>>Begin Spectral Data<<<<<
160.701	-40.75
166.742	2.25
172.777	92.25
178.805	418.25
184.826	1143.25
190.841	2354.25
196.849	3686.25
202.85	4495.25
208.845	4712.25
214.833	4541.25
220.815	4370.25
226.789	4214.25
232.758	4141.25
238.719	4012.25
244.674	3888.25
250.623	3701.25
256.565	3531.25
262.5	3376.25
268.429	3220.25
274.351	3098.25
280.267	2953.25
286.176	2857.25
292.079	2784.25
297.975	2663.25
303.865	2589.25
309.748	2532.25
315.625	2458.25
321.495	2430.25
327.359	2384.25
333.217	2356.25
339.068	2347.25
344.912	2319.25
350.751	2308.25
356.583	2314.25
362.408	2289.25
368.227	2291.25
374.04	2310.25
379.847	2323.25
385.647	2321.25
391.44	2346.25
397.228	2347.25
403.009	2371.25
408.784	2379.25
414.553	2380.25
420.315	2390.25
426.071	2404.25
431.821	2370.25
437.565	2390.25
443.302	2380.25
449.033	2366.25
454.758	2383.25
460.477	2351.25
466.189	2340.25
471.896	2325.25
477.596	2310.25
483.29	2321.25
488.978	2280.25
494.66	2301.25
500.335	2282.25
506.005	2237.25
511.668	2203.25
517.325	2149.25
522.977	2113.25
528.622	2095.25
534.261	2078.25
539.894	2029.25
545.521	2015.25
551.141	2028.25
556.756	2014.25
562.365	1990.25
567.968	1978.25
573.565	1964.25
579.155	1957.25
584.74	1923.25
590.319	1934.25
595.892	1922.25
601.459	1909.25
607.02	1908.25
612.575	1880.25
618.124	1862.25
623.667	1841.25
629.204	1826.25
634.735	1818.25
640.261	1791.25
645.781	1776.25
651.294	1764.25
656.802	1769.25
662.304	1757.25
667.8	1749.25
673.29	1740.25
678.775	1742.25
684.254	1721.25
689.726	1711.25
695.193	1714.25
700.655	1715.25
706.11	1698.25
711.56	1695.25
717.004	1661.25
722.442	1692.25
727.874	1658.25
733.301	1648.25
738.722	1634.25
744.137	1630.25
749.547	1622.25
754.951	1610.25
760.349	1619.25
765.741	1617.25
771.128	1621.25
776.509	1627.25
781.885	1614.25
787.254	1633.25
792.618	1608.25
797.977	1603.25
803.33	1590.25
808.677	1587.25
814.019	1568.25
819.355	1545.25
824.686	1523.25
830.011	1520.25
835.33	1499.25
840.644	1496.25
845.952	1490.25
851.255	1484.25
856.552	1486.25
861.844	1470.25
867.13	1461.25
872.41	1465.25
877.686	1440.25
882.955	1432.25
888.219	1416.25
893.478	1400.25
898.731	1364.25
903.979	1368.25
909.221	1329.25
914.458	1329.25
919.69	1312.25
924.916	1313.25
930.136	1322.25
935.351	1314.25
940.561	1311.25
945.766	1318.25
950.965	1293.25
956.158	1290.25
961.347	1276.25
966.529	1254.25
971.707	1257.25
976.879	1255.25
982.046	1224.25
987.208	1215.25
992.364	1220.25
997.515	1225.25
1002.66	1215.25
1007.801	1227.25
1012.936	1225.25
1018.066	1252.25
1023.19	1254.25
1028.309	1280.25
1033.423	1261.25
1038.532	1257.25
1043.636	1244.25
1048.734	1247.25
1053.827	1223.25
1058.915	1203.25
1063.998	1209.25
1069.075	1188.25
1074.147	1187.25
1079.214	1204.25
1084.276	1223.25
1089.333	1215.25
1094.385	1224.25
1099.431	1226.25
1104.472	1238.25
1109.509	1242.25
1114.54	1238.25
1119.565	1222.25
1124.586	1210.25
1129.602	1186.25
1134.613	1179.25
1139.618	1168.25
1144.619	1171.25
1149.614	1188.25
1154.604	1187.25
1159.589	1189.25
1164.57	1203.25
1169.545	1193.25
1174.515	1212.25
1179.48	1187.25
1184.44	1204.25
1189.395	1200.25
1194.345	1185.25
1199.29	1194.25
1204.23	1171.25
1209.165	1187.25
1214.095	1176.25
1219.021	1185.25
1223.941	1197.25
1228.856	1205.25
1233.766	1220.25
1238.672	1219.25
1243.572	1220.25
1248.467	1215.25
1253.358	1196.25
1258.244	1192.25
1263.124	1180.25
1268	1161.25
1272.871	1142.25
1277.737	1140.25
1282.599	1130.25
1287.455	1134.25
1292.306	1129.25
1297.153	1136.25
1301.995	1148.25
1306.832	1156.25
1311.664	1172.25
1316.491	1164.25
1321.314	1181.25
1326.132	1165.25
1330.945	1144.25
1335.753	1139.25
1340.556	1127.25
1345.354	1120.25
1350.148	1105.25
1354.937	1089.25
1359.722	1071.25
1364.501	1072.25
1369.276	1061.25
1374.046	1057.25
1378.811	1047.25
1383.572	1054.25
1388.327	1046.25
1393.079	1056.25
1397.825	1052.25
1402.567	1038.25
1407.304	1042.25
1412.036	1031.25
1416.764	1016.25
1421.487	1012.25
1426.205	1034.25
1430.919	1047.25
1435.628	1052.25
1440.333	1062.25
1445.032	1079.25
1449.727	1058.25
1454.418	1076.25
1459.104	1084.25
1463.785	1075.25
1468.462	1059.25
1473.134	1052.25
1477.802	1047.25
1482.465	1040.25
1487.123	1047.25
1491.777	1053.25
1496.426	1040.25
1501.071	1052.25
1505.711	1076.25
1510.347	1065.25
1514.978	1073.25
1519.604	1092.25
1524.226	1091.25
1528.844	1091.25
1533.457	1101.25
1538.065	1112.25
1542.669	1097.25
1547.269	1085.25
1551.864	1092.25
1556.454	1100.25
1561.041	1108.25
1565.622	1116.25
1570.199	1137.25
1574.772	1136.25
1579.34	1170.25
1583.904	1200.25
1588.464	1213.25
1593.019	1222.25
1597.569	1246.25
1602.115	1272.25
1606.657	1285.25
1611.195	1278.25
1615.728	1305.25
1620.256	1327.25
1624.78	1325.25
1629.3	1352.25
1633.816	1363.25
1638.327	1382.25
1642.834	1404.25
1647.336	1416.25
1651.834	1413.25
1656.328	1416.25
1660.817	1413.25
1665.302	1394.25
1669.783	1355.25
1674.259	1340.25
1678.732	1294.25
1683.199	1268.25
1687.663	1211.25
1692.122	1165.25
1696.577	1125.25
1701.028	1082.25
1705.474	1021.25
1709.917	978.25
1714.355	970.25
1718.788	956.25
1723.218	941.25
1727.643	921.25
1732.064	910.25
1736.481	888.25
1740.893	869.25
1745.301	848.25
1749.705	823.25
1754.105	800.25
1758.501	784.25
1762.893	757.25
1767.28	751.25
1771.663	744.25
1776.042	740.25
1780.417	746.25
1784.787	757.25
1789.154	755.25
1793.516	743.25
1797.874	756.25
1802.228	739.25
1806.578	717.25
1810.924	716.25
1815.266	714.25
1819.603	699.25
1823.937	691.25
1828.266	687.25
1832.591	679.25
1836.913	674.25
1841.23	674.25
1845.543	669.25
1849.852	681.25
1854.156	671.25
1858.457	675.25
1862.754	672.25
1867.047	668.25
1871.335	680.25
1875.62	687.25
1879.9	678.25
1884.177	690.25
1888.449	703.25
1892.718	693.25
1896.982	690.25
1901.243	691.25
1905.499	678.25
1909.752	682.25
1914	676.25
1918.245	674.25
1922.485	685.25
1926.722	691.25
1930.954	686.25
1935.183	693.25
1939.408	687.25
1943.628	692.25
1947.845	685.25
1952.058	687.25
1956.267	687.25
1960.472	674.25
1964.673	678.25
1968.87	667.25
1973.063	659.25
1977.252	643.25
1981.438	650.25
1985.619	655.25
1989.797	655.25
1993.971	646.25
1998.14	640.25
2002.306	652.25
2006.469	656.25
2010.627	651.25
2014.781	649.25
2018.932	654.25
2023.078	657.25
2027.221	663.25
2031.36	658.25
2035.495	656.25
2039.627	650.25
2043.754	648.25
2047.878	644.25
2051.998	642.25
2056.114	643.25
2060.226	641.25
2064.334	640.25
2068.439	654.25
2072.54	657.25
2076.637	658.25
2080.73	664.25
2084.82	664.25
2088.906	671.25
2092.988	662.25
2097.066	668.25
2101.14	664.25
2105.211	653.25
2109.278	646.25
2113.342	645.25
2117.401	650.25
2121.457	639.25
2125.509	628.25
2129.558	627.25
2133.602	632.25
2137.643	622.25
2141.681	622.25
2145.714	624.25
2149.744	619.25
2153.77	612.25
2157.793	602.25
2161.812	591.25
2165.827	597.25
2169.838	594.25
2173.846	590.25
2177.851	573.25
2181.851	571.25
2185.848	568.25
2189.841	560.25
2193.831	552.25
2197.817	538.25
2201.799	542.25
2205.778	539.25
2209.753	535.25
2213.725	541.25
2217.693	544.25
2221.657	532.25
2225.618	523.25
2229.575	537.25
2233.529	521.25
2237.479	521.25
2241.425	519.25
2245.368	507.25
2249.307	506.25
2253.243	489.25
2257.175	491.25
2261.104	485.25
2265.029	481.25
2268.95	467.25
2272.868	476.25
2276.783	466.25
2280.694	457.25
2284.601	450.25
2288.505	446.25
2292.405	450.25
2296.302	433.25
2300.195	431.25
2304.085	431.25
2307.971	417.25
2311.854	409.25
2315.734	408.25
2319.609	401.25
2323.482	386.25
2327.351	384.25
2331.216	387.25
2335.078	384.25
2338.937	376.25
2342.792	369.25
2346.643	372.25
2350.492	366.25
2354.336	371.25
2358.178	371.25
2362.015	361.25
2365.85	381.25
2369.681	376.25
2373.508	372.25
2377.333	372.25
2381.153	383.25
2384.971	378.25
2388.785	375.25
2392.595	362.25
2396.402	365.25
2400.206	358.25
2404.007	368.25
2407.804	352.25
2411.597	355.25
2415.388	360.25
2419.174	350.25
2422.958	349.25
2426.738	353.25
2430.515	352.25
2434.289	345.25
2438.059	352.25
2441.825	358.25
2445.589	351.25
2449.349	352.25
2453.106	331.25
2456.859	329.25
2460.61	336.25
2464.356	320.25
2468.1	330.25
2471.84	320.25
2475.577	318.25
2479.311	322.25
2483.041	321.25
2486.768	329.25
2490.492	322.25
2494.213	333.25
2497.93	321.25
2501.644	327.25
2505.355	316.25
2509.062	324.25
2512.766	331.25
2516.467	310.25
2520.165	319.25
2523.859	309.25
2527.551	316.25
2531.239	309.25
2534.923	308.25
2538.605	305.25
2542.283	309.25
2545.958	305.25
2549.63	303.25
2553.299	297.25
2556.964	302.25
2560.626	287.25
2564.285	294.25
2567.941	293.25
2571.594	288.25
2575.243	274.25
2578.89	290.25
2582.533	282.25
2586.173	280.25
2589.809	278.25
2593.443	276.25
2597.073	272.25
2600.701	278.25
2604.325	280.25
2607.946	266.25
2611.564	276.25
2615.178	274.25
2618.79	259.25
2622.398	257.25
2626.004	254.25
2629.606	256.25
2633.205	253.25
2636.801	260.25
2640.394	257.25
2643.983	252.25
2647.57	245.25
2651.153	248.25
2654.734	250.25
2658.311	238.25
2661.885	242.25
2665.456	242.25
2669.025	230.25
2672.589	236.25
2676.151	233.25
2679.71	233.25
2683.266	231.25
2686.819	228.25
2690.368	228.25
2693.915	218.25
2697.458	224.25
2700.999	223.25
2704.536	218.25
2708.071	209.25
2711.602	213.25
2715.13	211.25
2718.656	210.25
2722.178	210.25
2725.697	214.25
2729.214	211.25
2732.727	216.25
2736.237	216.25
2739.744	211.25
2743.249	221.25
2746.75	218.25
2750.248	223.25
2753.743	214.25
2757.236	202.25
2760.725	207.25
2764.211	212.25
2767.695	216.25
2771.175	213.25
2774.652	209.25
2778.127	205.25
2781.598	194.25
2785.067	200.25
2788.532	204.25
2791.995	204.25
2795.455	204.25
2798.911	211.25
2802.365	208.25
2805.816	210.25
2809.264	212.25
2812.709	205.25
2816.151	212.25
2819.59	215.25
2823.026	211.25
2826.46	212.25
2829.89	212.25
2833.318	221.25
2836.742	214.25
2840.164	216.25
2843.583	219.25
2846.999	224.25
2850.412	226.25
2853.822	232.25
2857.229	227.25
2860.634	244.25
2864.035	247.25
2867.434	239.25
2870.83	246.25
2874.223	248.25
2877.613	250.25
2881	246.25
2884.385	253.25
2887.766	251.25
2891.145	250.25
2894.521	245.25
2897.894	247.25
2901.264	256.25
2904.631	257.25
2907.996	258.25
2911.358	254.25
2914.717	266.25
2918.073	267.25
2921.426	267.25
2924.777	269.25
2928.124	278.25
2931.469	285.25
2934.811	290.25
2938.15	296.25
2941.487	300.25
2944.821	310.25
2948.152	315.25
2951.48	322.25
2954.805	319.25
2958.128	328.25
2961.447	337.25
2964.765	332.25
2968.079	339.25
2971.39	360.25
2974.699	366.25
2978.005	364.25
2981.308	377.25
2984.609	389.25
2987.907	402.25
2991.202	408.25
2994.494	421.25
2997.784	437.25
3001.07	444.25
3004.355	462.25
3007.636	479.25
3010.915	480.25
3014.191	484.25
3017.464	499.25
3020.734	503.25
3024.002	511.25
3027.267	527.25
3030.53	534.25
3033.789	541.25
3037.046	559.25
3040.301	566.25
3043.552	577.25
3046.801	579.25
3050.048	613.25
3053.291	630.25
3056.532	646.25
3059.771	671.25
3063.006	690.25
3066.239	719.25
3069.469	736.25
3072.697	755.25
3075.922	770.25
3079.144	805.25
3082.364	827.25
3085.581	842.25
3088.795	856.25
3092.007	885.25
3095.216	900.25
3098.423	913.25
3101.627	941.25
3104.828	971.25
3108.026	993.25
3111.222	999.25
3114.416	1022.25
3117.607	1050.25
3120.795	1074.25
3123.98	1097.25
3127.163	1130.25
3130.344	1158.25
3133.521	1163.25
3136.696	1202.25
3139.869	1216.25
3143.039	1248.25
3146.206	1269.25
3149.371	1276.25
3152.533	1306.25
3155.693	1309.25
3158.85	1326.25
3162.005	1341.25
3165.157	1337.25
3168.306	1333.25
3171.453	1345.25
3174.597	1354.25
3177.739	1357.25
3180.878	1363.25
3184.014	1372.25
3187.149	1363.25
3190.28	1374.25
3193.409	1358.25
3196.536	1374.25
3199.659	1369.25
3202.781	1398.25
3205.9	1410.25
3209.016	1398.25
3212.13	1419.25
3215.241	1391.25
3218.35	1405.25
3221.456	1365.25
3224.56	1383.25
3227.661	1364.25
3230.76	1345.25
3233.856	1348.25
3236.95	1335.25
3240.041	1317.25
3243.13	1297.25
3246.216	1274.25
3249.3	1284.25
3252.382	1261.25
3255.46	1250.25
3258.537	1245.25
3261.611	1243.25
3264.682	1244.25
3267.751	1236.25
3270.818	1222.25
3273.882	1213.25
3276.943	1213.25
3280.002	1205.25
3283.059	1189.25
3286.113	1177.25
3289.165	1158.25
3292.214	1147.25
3295.261	1140.25
3298.306	1118.25
3301.348	1111.25
3304.387	1098.25
3307.425	1093.25
3310.459	1064.25
3313.492	1035.25
3316.521	1022.25
3319.549	1017.25
3322.574	1003.25
3325.597	1000.25
3328.617	985.25
3331.635	989.25
3334.65	974.25
3337.663	967.25
3340.674	967.25
3343.682	976.25
3346.688	962.25
3349.691	968.25
3352.692	966.25
3355.691	959.25
3358.687	958.25
3361.681	930.25
3364.673	936.25
3367.662	920.25
3370.649	913.25
3373.633	881.25
3376.615	890.25
3379.595	861.25
3382.572	858.25
3385.547	851.25
3388.52	853.25
3391.49	822.25
3394.458	809.25
3397.424	809.25
3400.387	801.25
3403.348	780.25
3406.307	778.25
3409.263	766.25
3412.217	761.25
3415.168	755.25
3418.118	743.25
3421.065	741.25
3424.009	718.25
3426.951	715.25
3429.891	694.25
3432.829	703.25
3435.764	680.25
3438.697	658.25
3441.628	646.25
3444.557	640.25
3447.483	625.25
3450.407	600.25
3453.328	603.25
3456.247	569.25
3459.164	552.25
3462.079	540.25
3464.991	521.25
3467.902	517.25
3470.809	499.25
3473.715	486.25
3476.618	459.25
3479.519	455.25
3482.418	431.25
3485.315	425.25
3488.209	408.25
3491.101	393.25
3493.99	402.25
3496.878	370.25
3499.763	373.25
3502.646	349.25
3505.527	341.25
3508.405	328.25
3511.281	320.25
3514.155	303.25
3517.027	296.25
3519.897	270.25
3522.764	266.25
3525.629	250.25
3528.492	237.25
3531.352	228.25
3534.211	215.25
3537.067	196.25
3539.921	191.25
3542.773	181.25
3545.622	166.25
3548.469	157.25
3551.315	151.25
3554.157	147.25
3556.998	133.25
3559.837	118.25
3562.673	119.25
3565.507	114.25
3568.339	98.25
3571.169	93.25
3573.996	84.25
3576.822	93.25
3579.645	78.25
3582.466	72.25
3585.285	65.25
3588.101	54.25
3590.916	51.25
3593.728	44.25
3596.538	42.25
3599.346	33.25
3602.152	30.25
3604.956	21.25
3607.757	12.25
3610.556	16.25
3613.354	10.25
3616.149	11.25
3618.942	5.25
3621.732	-2.75
3624.521	-1.75
3627.307	-12.75
3630.092	-12.75
3632.874	-14.75
3635.654	-26.75
3638.432	-24.75
3641.208	-29.75
3643.982	-33.75
3646.753	-35.75
3649.523	-29.75
3652.29	-34.75
3655.055	-38.75
3657.818	-40.75
3660.579	-46.75
3663.338	-44.75
3666.095	-52.75
3668.849	-56.75
3671.602	-60.75
3674.352	-58.75
3677.101	-63.75
3679.847	-62.75
3682.591	-69.75
3685.333	-64.75
3688.073	-67.75
3690.811	-73.75
3693.547	-76.75
3696.281	-73.75
3699.013	-79.75
3701.742	-82.75
3704.47	-83.75
3707.195	-82.75
3709.919	-84.75
3712.64	-81.75
3715.359	-85.75
3718.076	-85.75
3720.792	-86.75
3723.505	-89.75
3726.216	-84.75
3728.925	-93.75
3731.632	-90.75
3734.336	-93.75
3737.039	-96.75
3739.74	-97.75
3742.439	-96.75
3745.136	-97.75
3747.83	-100.75
3750.523	-96.75
3753.213	-96.75
3755.902	-94.75
3758.589	-95.75
3761.273	-95.75
3763.956	-97.75
3766.636	-105.75
3769.315	-102.75
3771.991	-103.75
3774.665	-101.75
3777.338	-106.75
3780.008	-105.75
3782.677	-101.75
3785.343	-105.75
3788.007	-98.75
3790.67	-105.75
3793.33	-104.75
3795.989	-106.75
3798.645	-107.75
3801.299	-106.75
3803.952	-106.75
3806.602	-110.75
3809.251	-106.75
3811.897	-106.75
3814.542	-110.75
3817.184	-107.75
3819.825	-104.75
3822.463	-104.75
3825.1	-109.75
3827.735	-110.75
3830.367	-108.75
3832.998	-108.75
3835.627	-109.75
3838.253	-110.75
3840.878	-110.75
3843.501	-103.75
3846.122	-109.75
3848.741	-106.75
3851.358	-114.75
3853.973	-109.75
3856.586	-106.75
3859.197	-112.75
3861.806	-111.75
3864.414	-113.75
3867.019	-111.75
3869.622	-107.75
3872.224	-114.75
3874.823	-108.75
3877.421	-105.75
3880.016	-101.75
3882.61	-99.75
3885.202	-102.75
3887.792	-99.75
3890.38	-111.75
3892.966	-112.75
3895.55	-115.75
3898.132	-115.75
3900.713	-111.75
3903.291	-112.75
3905.868	-107.75
3908.442	-110.75
3911.015	-114.75
3913.586	-113.75
3916.155	-112.75
3918.722	-115.75
3921.287	-112.75
3923.85	-118.75
3926.411	-118.75
3928.971	-114.75
3931.528	-117.75
3934.084	-114.75
3936.638	-108.75
3939.19	-114.75
3941.74	-109.75
3944.288	-118.75
3946.834	-112.75
3949.378	-116.75
3951.921	-115.75
3954.462	-117.75
3957	-116.75
3959.537	-120.75
3962.072	-114.75
3964.606	-114.75
3967.137	-114.75
3969.667	-113.75
3972.194	-113.75
3974.72	-114.75
3977.244	-114.75
3979.766	-112.75
3982.286	-112.75
3984.805	-112.75
3987.321	-115.75
3989.836	-117.75
3992.349	-117.75
3994.86	-111.75
3997.369	-112.75
3999.877	-114.75
4002.382	-111.75
4004.886	-109.75
4007.388	-110.75
4009.888	-114.75
4012.386	-113.75
4014.883	-114.75
4017.377	-114.75
4019.87	-115.75
4022.361	-115.75
4024.85	-113.75
4027.338	-115.75
4029.823	-115.75
4032.307	-113.75
4034.789	-114.75
4037.269	-114.75
4039.747	-115.75
4042.224	-117.75
4044.699	-120.75
4047.172	-119.75
4049.643	-117.75
4052.112	-118.75
4054.58	-118.75
4057.046	-113.75
4059.51	-115.75
4061.972	-117.75
4064.432	-110.75
4066.891	-118.75
4069.348	-116.75
4071.803	-117.75
4074.256	-119.75
4076.708	-116.75
4079.158	-121.75
4081.606	-118.75
4084.052	-111.75
4086.497	-115.75
4088.939	-114.75
4091.38	-113.75
4093.819	-117.75
4096.257	-125.75
4098.693	-118.75
4101.127	-116.75
4103.559	-119.75
4105.989	-73.75
4108.418	-70.75
4110.845	-70.75
4113.27	-66.75
4115.694	-60.75
4118.115	-52.75
4120.535	-113.75
4122.954	-121.75
4125.37	-119.75
4127.785	-115.75
4130.198	-114.75
4132.609	-116.75
4135.019	-118.75
4137.427	-117.75
4139.833	-116.75
4142.237	-118.75
