Data from 10000CFU4_B_RamanShift_1.txt Node
Date: Tue Jan 31 14:35:42 IST 2017
User: aro
Spectrometer: QEPB0276
Trigger mode: 0
Integration Time (sec): 5.000000E0
Scans to average: 1
Electric dark correction enabled: true
Nonlinearity correction enabled: false
Boxcar width: 0
XAxis mode: Raman Shifts
Number of Pixels in Spectrum: 1044
>>>>>Begin Spectral Data<<<<<
160.701	-33.88
166.742	0.12
172.777	96.12
178.805	403.12
184.826	1088.12
190.841	2274.12
196.849	3509.12
202.85	4296.12
208.845	4504.12
214.833	4380.12
220.815	4199.12
226.789	4055.12
232.758	3957.12
238.719	3857.12
244.674	3708.12
250.623	3562.12
256.565	3377.12
262.5	3215.12
268.429	3078.12
274.351	2940.12
280.267	2851.12
286.176	2734.12
292.079	2646.12
297.975	2563.12
303.865	2514.12
309.748	2433.12
315.625	2364.12
321.495	2319.12
327.359	2266.12
333.217	2260.12
339.068	2246.12
344.912	2229.12
350.751	2216.12
356.583	2203.12
362.408	2237.12
368.227	2213.12
374.04	2228.12
379.847	2262.12
385.647	2240.12
391.44	2263.12
397.228	2255.12
403.009	2307.12
408.784	2286.12
414.553	2308.12
420.315	2313.12
426.071	2302.12
431.821	2306.12
437.565	2276.12
443.302	2298.12
449.033	2269.12
454.758	2283.12
460.477	2272.12
466.189	2249.12
471.896	2234.12
477.596	2231.12
483.29	2214.12
488.978	2211.12
494.66	2209.12
500.335	2191.12
506.005	2148.12
511.668	2097.12
517.325	2086.12
522.977	2055.12
528.622	2012.12
534.261	1982.12
539.894	1962.12
545.521	1953.12
551.141	1946.12
556.756	1930.12
562.365	1929.12
567.968	1928.12
573.565	1899.12
579.155	1879.12
584.74	1898.12
590.319	1852.12
595.892	1838.12
601.459	1845.12
607.02	1857.12
612.575	1818.12
618.124	1805.12
623.667	1798.12
629.204	1782.12
634.735	1763.12
640.261	1750.12
645.781	1742.12
651.294	1710.12
656.802	1713.12
662.304	1722.12
667.8	1696.12
673.29	1682.12
678.775	1691.12
684.254	1675.12
689.726	1689.12
695.193	1673.12
700.655	1649.12
706.11	1663.12
711.56	1644.12
717.004	1619.12
722.442	1618.12
727.874	1618.12
733.301	1614.12
738.722	1598.12
744.137	1590.12
749.547	1589.12
754.951	1579.12
760.349	1579.12
765.741	1578.12
771.128	1582.12
776.509	1575.12
781.885	1578.12
787.254	1586.12
792.618	1558.12
797.977	1560.12
803.33	1549.12
808.677	1549.12
814.019	1541.12
819.355	1511.12
824.686	1502.12
830.011	1493.12
835.33	1478.12
840.644	1486.12
845.952	1457.12
851.255	1441.12
856.552	1453.12
861.844	1435.12
867.13	1439.12
872.41	1445.12
877.686	1425.12
882.955	1419.12
888.219	1408.12
893.478	1382.12
898.731	1358.12
903.979	1336.12
909.221	1318.12
914.458	1314.12
919.69	1295.12
924.916	1287.12
930.136	1283.12
935.351	1287.12
940.561	1290.12
945.766	1290.12
950.965	1291.12
956.158	1272.12
961.347	1264.12
966.529	1245.12
971.707	1239.12
976.879	1217.12
982.046	1209.12
987.208	1199.12
992.364	1201.12
997.515	1207.12
1002.66	1195.12
1007.801	1215.12
1012.936	1222.12
1018.066	1228.12
1023.19	1253.12
1028.309	1247.12
1033.423	1254.12
1038.532	1250.12
1043.636	1239.12
1048.734	1236.12
1053.827	1226.12
1058.915	1204.12
1063.998	1190.12
1069.075	1183.12
1074.147	1174.12
1079.214	1204.12
1084.276	1224.12
1089.333	1209.12
1094.385	1217.12
1099.431	1214.12
1104.472	1239.12
1109.509	1222.12
1114.54	1223.12
1119.565	1210.12
1124.586	1183.12
1129.602	1171.12
1134.613	1171.12
1139.618	1176.12
1144.619	1166.12
1149.614	1163.12
1154.604	1166.12
1159.589	1181.12
1164.57	1167.12
1169.545	1188.12
1174.515	1185.12
1179.48	1196.12
1184.44	1196.12
1189.395	1198.12
1194.345	1182.12
1199.29	1173.12
1204.23	1174.12
1209.165	1169.12
1214.095	1179.12
1219.021	1173.12
1223.941	1197.12
1228.856	1196.12
1233.766	1196.12
1238.672	1192.12
1243.572	1214.12
1248.467	1208.12
1253.358	1201.12
1258.244	1183.12
1263.124	1170.12
1268	1158.12
1272.871	1146.12
1277.737	1137.12
1282.599	1117.12
1287.455	1123.12
1292.306	1130.12
1297.153	1131.12
1301.995	1128.12
1306.832	1150.12
1311.664	1158.12
1316.491	1155.12
1321.314	1158.12
1326.132	1164.12
1330.945	1156.12
1335.753	1139.12
1340.556	1115.12
1345.354	1105.12
1350.148	1096.12
1354.937	1085.12
1359.722	1095.12
1364.501	1063.12
1369.276	1050.12
1374.046	1047.12
1378.811	1051.12
1383.572	1069.12
1388.327	1042.12
1393.079	1035.12
1397.825	1041.12
1402.567	1019.12
1407.304	1032.12
1412.036	1035.12
1416.764	1014.12
1421.487	1018.12
1426.205	1022.12
1430.919	1028.12
1435.628	1033.12
1440.333	1045.12
1445.032	1053.12
1449.727	1069.12
1454.418	1069.12
1459.104	1079.12
1463.785	1061.12
1468.462	1074.12
1473.134	1054.12
1477.802	1052.12
1482.465	1051.12
1487.123	1057.12
1491.777	1029.12
1496.426	1035.12
1501.071	1059.12
1505.711	1056.12
1510.347	1068.12
1514.978	1070.12
1519.604	1072.12
1524.226	1100.12
1528.844	1102.12
1533.457	1103.12
1538.065	1093.12
1542.669	1097.12
1547.269	1085.12
1551.864	1095.12
1556.454	1098.12
1561.041	1104.12
1565.622	1112.12
1570.199	1117.12
1574.772	1137.12
1579.34	1170.12
1583.904	1183.12
1588.464	1191.12
1593.019	1230.12
1597.569	1252.12
1602.115	1265.12
1606.657	1271.12
1611.195	1268.12
1615.728	1291.12
1620.256	1290.12
1624.78	1307.12
1629.3	1331.12
1633.816	1356.12
1638.327	1367.12
1642.834	1382.12
1647.336	1394.12
1651.834	1392.12
1656.328	1384.12
1660.817	1406.12
1665.302	1377.12
1669.783	1351.12
1674.259	1315.12
1678.732	1283.12
1683.199	1245.12
1687.663	1212.12
1692.122	1161.12
1696.577	1120.12
1701.028	1062.12
1705.474	1021.12
1709.917	983.12
1714.355	974.12
1718.788	961.12
1723.218	937.12
1727.643	931.12
1732.064	917.12
1736.481	886.12
1740.893	865.12
1745.301	843.12
1749.705	823.12
1754.105	808.12
1758.501	795.12
1762.893	766.12
1767.28	755.12
1771.663	754.12
1776.042	747.12
1780.417	759.12
1784.787	744.12
1789.154	749.12
1793.516	754.12
1797.874	757.12
1802.228	743.12
1806.578	740.12
1810.924	723.12
1815.266	715.12
1819.603	704.12
1823.937	696.12
1828.266	686.12
1832.591	686.12
1836.913	686.12
1841.23	681.12
1845.543	688.12
1849.852	679.12
1854.156	693.12
1858.457	685.12
1862.754	680.12
1867.047	679.12
1871.335	696.12
1875.62	708.12
1879.9	700.12
1884.177	706.12
1888.449	703.12
1892.718	699.12
1896.982	701.12
1901.243	709.12
1905.499	692.12
1909.752	694.12
1914	689.12
1918.245	702.12
1922.485	687.12
1926.722	695.12
1930.954	696.12
1935.183	713.12
1939.408	703.12
1943.628	703.12
1947.845	705.12
1952.058	694.12
1956.267	703.12
1960.472	696.12
1964.673	677.12
1968.87	677.12
1973.063	666.12
1977.252	658.12
1981.438	655.12
1985.619	662.12
1989.797	658.12
1993.971	651.12
1998.14	659.12
2002.306	655.12
2006.469	660.12
2010.627	653.12
2014.781	673.12
2018.932	669.12
2023.078	675.12
2027.221	671.12
2031.36	669.12
2035.495	675.12
2039.627	664.12
2043.754	649.12
2047.878	657.12
2051.998	643.12
2056.114	656.12
2060.226	659.12
2064.334	662.12
2068.439	659.12
2072.54	655.12
2076.637	665.12
2080.73	662.12
2084.82	685.12
2088.906	683.12
2092.988	678.12
2097.066	673.12
2101.14	677.12
2105.211	669.12
2109.278	672.12
2113.342	661.12
2117.401	663.12
2121.457	639.12
2125.509	635.12
2129.558	646.12
2133.602	636.12
2137.643	621.12
2141.681	641.12
2145.714	631.12
2149.744	626.12
2153.77	630.12
2157.793	613.12
2161.812	618.12
2165.827	609.12
2169.838	596.12
2173.846	593.12
2177.851	582.12
2181.851	575.12
2185.848	563.12
2189.841	575.12
2193.831	555.12
2197.817	552.12
2201.799	539.12
2205.778	545.12
2209.753	542.12
2213.725	549.12
2217.693	542.12
2221.657	547.12
2225.618	551.12
2229.575	536.12
2233.529	541.12
2237.479	544.12
2241.425	533.12
2245.368	524.12
2249.307	513.12
2253.243	508.12
2257.175	495.12
2261.104	502.12
2265.029	499.12
2268.95	485.12
2272.868	480.12
2276.783	469.12
2280.694	464.12
2284.601	465.12
2288.505	465.12
2292.405	436.12
2296.302	450.12
2300.195	437.12
2304.085	429.12
2307.971	429.12
2311.854	428.12
2315.734	411.12
2319.609	410.12
2323.482	396.12
2327.351	391.12
2331.216	390.12
2335.078	393.12
2338.937	388.12
2342.792	378.12
2346.643	380.12
2350.492	383.12
2354.336	371.12
2358.178	385.12
2362.015	377.12
2365.85	378.12
2369.681	379.12
2373.508	387.12
2377.333	383.12
2381.153	385.12
2384.971	393.12
2388.785	385.12
2392.595	376.12
2396.402	378.12
2400.206	363.12
2404.007	376.12
2407.804	361.12
2411.597	366.12
2415.388	364.12
2419.174	363.12
2422.958	357.12
2426.738	365.12
2430.515	360.12
2434.289	357.12
2438.059	360.12
2441.825	363.12
2445.589	360.12
2449.349	353.12
2453.106	348.12
2456.859	342.12
2460.61	339.12
2464.356	337.12
2468.1	333.12
2471.84	337.12
2475.577	327.12
2479.311	342.12
2483.041	328.12
2486.768	336.12
2490.492	341.12
2494.213	323.12
2497.93	336.12
2501.644	333.12
2505.355	326.12
2509.062	332.12
2512.766	332.12
2516.467	329.12
2520.165	326.12
2523.859	325.12
2527.551	327.12
2531.239	322.12
2534.923	318.12
2538.605	317.12
2542.283	307.12
2545.958	300.12
2549.63	309.12
2553.299	307.12
2556.964	298.12
2560.626	307.12
2564.285	308.12
2567.941	306.12
2571.594	292.12
2575.243	302.12
2578.89	302.12
2582.533	285.12
2586.173	287.12
2589.809	278.12
2593.443	290.12
2597.073	286.12
2600.701	276.12
2604.325	281.12
2607.946	292.12
2611.564	286.12
2615.178	281.12
2618.79	282.12
2622.398	273.12
2626.004	267.12
2629.606	269.12
2633.205	268.12
2636.801	258.12
2640.394	251.12
2643.983	252.12
2647.57	254.12
2651.153	251.12
2654.734	255.12
2658.311	252.12
2661.885	250.12
2665.456	256.12
2669.025	245.12
2672.589	242.12
2676.151	243.12
2679.71	238.12
2683.266	237.12
2686.819	231.12
2690.368	232.12
2693.915	231.12
2697.458	230.12
2700.999	228.12
2704.536	224.12
2708.071	226.12
2711.602	219.12
2715.13	218.12
2718.656	220.12
2722.178	216.12
2725.697	212.12
2729.214	219.12
2732.727	222.12
2736.237	218.12
2739.744	216.12
2743.249	228.12
2746.75	234.12
2750.248	223.12
2753.743	225.12
2757.236	220.12
2760.725	226.12
2764.211	228.12
2767.695	210.12
2771.175	207.12
2774.652	212.12
2778.127	212.12
2781.598	199.12
2785.067	212.12
2788.532	215.12
2791.995	214.12
2795.455	205.12
2798.911	211.12
2802.365	219.12
2805.816	220.12
2809.264	212.12
2812.709	206.12
2816.151	219.12
2819.59	221.12
2823.026	224.12
2826.46	221.12
2829.89	216.12
2833.318	227.12
2836.742	223.12
2840.164	221.12
2843.583	220.12
2846.999	225.12
2850.412	232.12
2853.822	234.12
2857.229	227.12
2860.634	236.12
2864.035	237.12
2867.434	245.12
2870.83	250.12
2874.223	244.12
2877.613	255.12
2881	251.12
2884.385	246.12
2887.766	248.12
2891.145	253.12
2894.521	249.12
2897.894	256.12
2901.264	261.12
2904.631	252.12
2907.996	255.12
2911.358	270.12
2914.717	269.12
2918.073	274.12
2921.426	268.12
2924.777	274.12
2928.124	277.12
2931.469	282.12
2934.811	291.12
2938.15	296.12
2941.487	309.12
2944.821	314.12
2948.152	312.12
2951.48	322.12
2954.805	326.12
2958.128	327.12
2961.447	323.12
2964.765	335.12
2968.079	351.12
2971.39	341.12
2974.699	361.12
2978.005	358.12
2981.308	373.12
2984.609	391.12
2987.907	390.12
2991.202	404.12
2994.494	408.12
2997.784	426.12
3001.07	433.12
3004.355	447.12
3007.636	467.12
3010.915	466.12
3014.191	496.12
3017.464	488.12
3020.734	495.12
3024.002	504.12
3027.267	517.12
3030.53	525.12
3033.789	529.12
3037.046	548.12
3040.301	559.12
3043.552	564.12
3046.801	576.12
3050.048	600.12
3053.291	614.12
3056.532	629.12
3059.771	653.12
3063.006	667.12
3066.239	696.12
3069.469	715.12
3072.697	723.12
3075.922	744.12
3079.144	777.12
3082.364	795.12
3085.581	823.12
3088.795	829.12
3092.007	852.12
3095.216	872.12
3098.423	878.12
3101.627	906.12
3104.828	940.12
3108.026	958.12
3111.222	969.12
3114.416	1000.12
3117.607	1017.12
3120.795	1040.12
3123.98	1070.12
3127.163	1097.12
3130.344	1120.12
3133.521	1134.12
3136.696	1166.12
3139.869	1196.12
3143.039	1214.12
3146.206	1225.12
3149.371	1241.12
3152.533	1279.12
3155.693	1274.12
3158.85	1296.12
3162.005	1275.12
3165.157	1288.12
3168.306	1304.12
3171.453	1298.12
3174.597	1305.12
3177.739	1325.12
3180.878	1332.12
3184.014	1316.12
3187.149	1320.12
3190.28	1324.12
3193.409	1331.12
3196.536	1348.12
3199.659	1335.12
3202.781	1345.12
3205.9	1345.12
3209.016	1355.12
3212.13	1371.12
3215.241	1348.12
3218.35	1354.12
3221.456	1325.12
3224.56	1321.12
3227.661	1317.12
3230.76	1309.12
3233.856	1297.12
3236.95	1294.12
3240.041	1297.12
3243.13	1253.12
3246.216	1241.12
3249.3	1247.12
3252.382	1223.12
3255.46	1227.12
3258.537	1226.12
3261.611	1196.12
3264.682	1203.12
3267.751	1205.12
3270.818	1190.12
3273.882	1180.12
3276.943	1161.12
3280.002	1150.12
3283.059	1140.12
3286.113	1146.12
3289.165	1131.12
3292.214	1115.12
3295.261	1105.12
3298.306	1087.12
3301.348	1080.12
3304.387	1060.12
3307.425	1041.12
3310.459	1019.12
3313.492	1000.12
3316.521	1000.12
3319.549	975.12
3322.574	973.12
3325.597	965.12
3328.617	955.12
3331.635	947.12
3334.65	947.12
3337.663	942.12
3340.674	928.12
3343.682	937.12
3346.688	922.12
3349.691	926.12
3352.692	918.12
3355.691	910.12
3358.687	907.12
3361.681	900.12
3364.673	893.12
3367.662	889.12
3370.649	878.12
3373.633	871.12
3376.615	862.12
3379.595	842.12
3382.572	828.12
3385.547	813.12
3388.52	810.12
3391.49	800.12
3394.458	779.12
3397.424	778.12
3400.387	772.12
3403.348	761.12
3406.307	744.12
3409.263	736.12
3412.217	727.12
3415.168	707.12
3418.118	713.12
3421.065	700.12
3424.009	705.12
3426.951	684.12
3429.891	681.12
3432.829	682.12
3435.764	659.12
3438.697	640.12
3441.628	628.12
3444.557	618.12
3447.483	600.12
3450.407	581.12
3453.328	575.12
3456.247	555.12
3459.164	542.12
3462.079	516.12
3464.991	512.12
3467.902	499.12
3470.809	467.12
3473.715	453.12
3476.618	447.12
3479.519	430.12
3482.418	426.12
3485.315	416.12
3488.209	395.12
3491.101	379.12
3493.99	383.12
3496.878	365.12
3499.763	366.12
3502.646	341.12
3505.527	328.12
3508.405	318.12
3511.281	305.12
3514.155	291.12
3517.027	280.12
3519.897	269.12
3522.764	263.12
3525.629	244.12
3528.492	238.12
3531.352	223.12
3534.211	211.12
3537.067	195.12
3539.921	180.12
3542.773	175.12
3545.622	158.12
3548.469	153.12
3551.315	141.12
3554.157	137.12
3556.998	133.12
3559.837	132.12
3562.673	115.12
3565.507	105.12
3568.339	98.12
3571.169	89.12
3573.996	82.12
3576.822	86.12
3579.645	70.12
3582.466	71.12
3585.285	63.12
3588.101	48.12
3590.916	50.12
3593.728	43.12
3596.538	39.12
3599.346	39.12
3602.152	28.12
3604.956	22.12
3607.757	13.12
3610.556	13.12
3613.354	8.12
3616.149	8.12
3618.942	-2.88
3621.732	-2.88
3624.521	-5.88
3627.307	-4.88
3630.092	-18.88
3632.874	-17.88
3635.654	-22.88
3638.432	-23.88
3641.208	-29.88
3643.982	-30.88
3646.753	-30.88
3649.523	-33.88
3652.29	-34.88
3655.055	-36.88
3657.818	-41.88
3660.579	-42.88
3663.338	-46.88
3666.095	-56.88
3668.849	-54.88
3671.602	-58.88
3674.352	-59.88
3677.101	-60.88
3679.847	-62.88
3682.591	-65.88
3685.333	-64.88
3688.073	-66.88
3690.811	-68.88
3693.547	-75.88
3696.281	-68.88
3699.013	-77.88
3701.742	-74.88
3704.47	-82.88
3707.195	-81.88
3709.919	-76.88
3712.64	-77.88
3715.359	-83.88
3718.076	-80.88
3720.792	-85.88
3723.505	-82.88
3726.216	-82.88
3728.925	-92.88
3731.632	-89.88
3734.336	-91.88
3737.039	-92.88
3739.74	-92.88
3742.439	-92.88
3745.136	-90.88
3747.83	-95.88
3750.523	-95.88
3753.213	-94.88
3755.902	-97.88
3758.589	-92.88
3761.273	-94.88
3763.956	-96.88
3766.636	-99.88
3769.315	-98.88
3771.991	-96.88
3774.665	-97.88
3777.338	-98.88
3780.008	-100.88
3782.677	-100.88
3785.343	-101.88
3788.007	-99.88
3790.67	-104.88
3793.33	-98.88
3795.989	-105.88
3798.645	-98.88
3801.299	-100.88
3803.952	-105.88
3806.602	-101.88
3809.251	-102.88
3811.897	-101.88
3814.542	-105.88
3817.184	-100.88
3819.825	-101.88
3822.463	-100.88
3825.1	-102.88
3827.735	-107.88
3830.367	-107.88
3832.998	-107.88
3835.627	-107.88
3838.253	-105.88
3840.878	-106.88
3843.501	-104.88
3846.122	-107.88
3848.741	-105.88
3851.358	-107.88
3853.973	-105.88
3856.586	-106.88
3859.197	-109.88
3861.806	-107.88
3864.414	-108.88
3867.019	-110.88
3869.622	-108.88
3872.224	-111.88
3874.823	-104.88
3877.421	-100.88
3880.016	-100.88
3882.61	-96.88
3885.202	-98.88
3887.792	-98.88
3890.38	-109.88
3892.966	-103.88
3895.55	-110.88
3898.132	-112.88
3900.713	-109.88
3903.291	-109.88
3905.868	-108.88
3908.442	-105.88
3911.015	-108.88
3913.586	-110.88
3916.155	-105.88
3918.722	-108.88
3921.287	-107.88
3923.85	-114.88
3926.411	-115.88
3928.971	-109.88
3931.528	-116.88
3934.084	-109.88
3936.638	-106.88
3939.19	-110.88
3941.74	-107.88
3944.288	-109.88
3946.834	-111.88
3949.378	-110.88
3951.921	-112.88
3954.462	-113.88
3957	-114.88
3959.537	-114.88
3962.072	-110.88
3964.606	-113.88
3967.137	-108.88
3969.667	-110.88
3972.194	-111.88
3974.72	-109.88
3977.244	-109.88
3979.766	-111.88
3982.286	-106.88
3984.805	-111.88
3987.321	-109.88
3989.836	-114.88
3992.349	-110.88
3994.86	-107.88
3997.369	-108.88
3999.877	-111.88
4002.382	-110.88
4004.886	-109.88
4007.388	-109.88
4009.888	-112.88
4012.386	-113.88
4014.883	-111.88
4017.377	-110.88
4019.87	-111.88
4022.361	-112.88
4024.85	-112.88
4027.338	-111.88
4029.823	-108.88
4032.307	-109.88
4034.789	-108.88
4037.269	-110.88
4039.747	-112.88
4042.224	-111.88
4044.699	-120.88
4047.172	-115.88
4049.643	-111.88
4052.112	-112.88
4054.58	-113.88
4057.046	-111.88
4059.51	-110.88
4061.972	-112.88
4064.432	-113.88
4066.891	-112.88
4069.348	-109.88
4071.803	-112.88
4074.256	-116.88
4076.708	-116.88
4079.158	-115.88
4081.606	-115.88
4084.052	-104.88
4086.497	-113.88
4088.939	-111.88
4091.38	-108.88
4093.819	-111.88
4096.257	-117.88
4098.693	-113.88
4101.127	-113.88
4103.559	-114.88
4105.989	-73.88
4108.418	-73.88
4110.845	-68.88
4113.27	-70.88
4115.694	-63.88
4118.115	-52.88
4120.535	-110.88
4122.954	-114.88
4125.37	-111.88
4127.785	-115.88
4130.198	-114.88
4132.609	-111.88
4135.019	-116.88
4137.427	-114.88
4139.833	-115.88
4142.237	-117.88
