Data from 100000CFU2_B_RamanShift_1.txt Node
Date: Tue Jan 31 14:38:52 IST 2017
User: aro
Spectrometer: QEPB0276
Trigger mode: 0
Integration Time (sec): 5.000000E0
Scans to average: 1
Electric dark correction enabled: true
Nonlinearity correction enabled: false
Boxcar width: 0
XAxis mode: Raman Shifts
Number of Pixels in Spectrum: 1044
>>>>>Begin Spectral Data<<<<<
160.701	-38.75
166.742	1.25
172.777	94.25
178.805	398.25
184.826	1098.25
190.841	2255.25
196.849	3525.25
202.85	4329.25
208.845	4489.25
214.833	4363.25
220.815	4202.25
226.789	4032.25
232.758	3946.25
238.719	3818.25
244.674	3691.25
250.623	3539.25
256.565	3382.25
262.5	3236.25
268.429	3062.25
274.351	2952.25
280.267	2827.25
286.176	2743.25
292.079	2641.25
297.975	2574.25
303.865	2469.25
309.748	2422.25
315.625	2362.25
321.495	2315.25
327.359	2271.25
333.217	2246.25
339.068	2216.25
344.912	2218.25
350.751	2216.25
356.583	2201.25
362.408	2199.25
368.227	2221.25
374.04	2235.25
379.847	2229.25
385.647	2244.25
391.44	2251.25
397.228	2231.25
403.009	2278.25
408.784	2271.25
414.553	2286.25
420.315	2297.25
426.071	2308.25
431.821	2298.25
437.565	2292.25
443.302	2284.25
449.033	2269.25
454.758	2243.25
460.477	2234.25
466.189	2251.25
471.896	2221.25
477.596	2200.25
483.29	2230.25
488.978	2219.25
494.66	2185.25
500.335	2176.25
506.005	2120.25
511.668	2100.25
517.325	2060.25
522.977	2025.25
528.622	1981.25
534.261	1968.25
539.894	1948.25
545.521	1935.25
551.141	1915.25
556.756	1901.25
562.365	1885.25
567.968	1857.25
573.565	1870.25
579.155	1862.25
584.74	1845.25
590.319	1813.25
595.892	1819.25
601.459	1814.25
607.02	1793.25
612.575	1766.25
618.124	1761.25
623.667	1738.25
629.204	1722.25
634.735	1702.25
640.261	1722.25
645.781	1702.25
651.294	1702.25
656.802	1683.25
662.304	1676.25
667.8	1670.25
673.29	1655.25
678.775	1647.25
684.254	1624.25
689.726	1640.25
695.193	1611.25
700.655	1607.25
706.11	1615.25
711.56	1596.25
717.004	1582.25
722.442	1568.25
727.874	1566.25
733.301	1549.25
738.722	1549.25
744.137	1548.25
749.547	1530.25
754.951	1531.25
760.349	1524.25
765.741	1517.25
771.128	1526.25
776.509	1522.25
781.885	1531.25
787.254	1522.25
792.618	1537.25
797.977	1512.25
803.33	1506.25
808.677	1474.25
814.019	1465.25
819.355	1462.25
824.686	1455.25
830.011	1427.25
835.33	1426.25
840.644	1422.25
845.952	1408.25
851.255	1402.25
856.552	1379.25
861.844	1392.25
867.13	1400.25
872.41	1375.25
877.686	1361.25
882.955	1357.25
888.219	1339.25
893.478	1324.25
898.731	1291.25
903.979	1275.25
909.221	1255.25
914.458	1251.25
919.69	1244.25
924.916	1227.25
930.136	1225.25
935.351	1212.25
940.561	1223.25
945.766	1230.25
950.965	1227.25
956.158	1210.25
961.347	1205.25
966.529	1200.25
971.707	1164.25
976.879	1159.25
982.046	1137.25
987.208	1133.25
992.364	1123.25
997.515	1118.25
1002.66	1126.25
1007.801	1149.25
1012.936	1165.25
1018.066	1166.25
1023.19	1169.25
1028.309	1180.25
1033.423	1179.25
1038.532	1175.25
1043.636	1171.25
1048.734	1174.25
1053.827	1144.25
1058.915	1134.25
1063.998	1131.25
1069.075	1130.25
1074.147	1116.25
1079.214	1109.25
1084.276	1143.25
1089.333	1134.25
1094.385	1130.25
1099.431	1145.25
1104.472	1170.25
1109.509	1141.25
1114.54	1150.25
1119.565	1137.25
1124.586	1117.25
1129.602	1097.25
1134.613	1108.25
1139.618	1103.25
1144.619	1094.25
1149.614	1092.25
1154.604	1093.25
1159.589	1101.25
1164.57	1109.25
1169.545	1109.25
1174.515	1124.25
1179.48	1120.25
1184.44	1119.25
1189.395	1109.25
1194.345	1104.25
1199.29	1109.25
1204.23	1110.25
1209.165	1109.25
1214.095	1102.25
1219.021	1115.25
1223.941	1134.25
1228.856	1127.25
1233.766	1116.25
1238.672	1129.25
1243.572	1134.25
1248.467	1125.25
1253.358	1112.25
1258.244	1103.25
1263.124	1091.25
1268	1080.25
1272.871	1062.25
1277.737	1036.25
1282.599	1054.25
1287.455	1053.25
1292.306	1044.25
1297.153	1053.25
1301.995	1063.25
1306.832	1061.25
1311.664	1070.25
1316.491	1076.25
1321.314	1091.25
1326.132	1076.25
1330.945	1066.25
1335.753	1062.25
1340.556	1049.25
1345.354	1033.25
1350.148	1023.25
1354.937	1012.25
1359.722	1001.25
1364.501	996.25
1369.276	993.25
1374.046	988.25
1378.811	972.25
1383.572	986.25
1388.327	984.25
1393.079	969.25
1397.825	959.25
1402.567	964.25
1407.304	964.25
1412.036	952.25
1416.764	943.25
1421.487	949.25
1426.205	962.25
1430.919	956.25
1435.628	963.25
1440.333	982.25
1445.032	989.25
1449.727	1002.25
1454.418	993.25
1459.104	991.25
1463.785	993.25
1468.462	989.25
1473.134	999.25
1477.802	982.25
1482.465	971.25
1487.123	973.25
1491.777	978.25
1496.426	974.25
1501.071	983.25
1505.711	993.25
1510.347	1001.25
1514.978	994.25
1519.604	1015.25
1524.226	1032.25
1528.844	1035.25
1533.457	1023.25
1538.065	1035.25
1542.669	1021.25
1547.269	1021.25
1551.864	1028.25
1556.454	1025.25
1561.041	1024.25
1565.622	1040.25
1570.199	1063.25
1574.772	1079.25
1579.34	1108.25
1583.904	1125.25
1588.464	1130.25
1593.019	1155.25
1597.569	1164.25
1602.115	1193.25
1606.657	1204.25
1611.195	1202.25
1615.728	1220.25
1620.256	1232.25
1624.78	1269.25
1629.3	1261.25
1633.816	1287.25
1638.327	1310.25
1642.834	1318.25
1647.336	1341.25
1651.834	1344.25
1656.328	1336.25
1660.817	1327.25
1665.302	1309.25
1669.783	1289.25
1674.259	1251.25
1678.732	1220.25
1683.199	1186.25
1687.663	1145.25
1692.122	1099.25
1696.577	1046.25
1701.028	993.25
1705.474	959.25
1709.917	919.25
1714.355	905.25
1718.788	891.25
1723.218	873.25
1727.643	863.25
1732.064	855.25
1736.481	826.25
1740.893	814.25
1745.301	782.25
1749.705	752.25
1754.105	740.25
1758.501	720.25
1762.893	702.25
1767.28	707.25
1771.663	700.25
1776.042	689.25
1780.417	694.25
1784.787	695.25
1789.154	699.25
1793.516	693.25
1797.874	702.25
1802.228	682.25
1806.578	675.25
1810.924	656.25
1815.266	657.25
1819.603	643.25
1823.937	631.25
1828.266	621.25
1832.591	638.25
1836.913	626.25
1841.23	633.25
1845.543	628.25
1849.852	615.25
1854.156	623.25
1858.457	617.25
1862.754	617.25
1867.047	622.25
1871.335	630.25
1875.62	638.25
1879.9	647.25
1884.177	646.25
1888.449	643.25
1892.718	647.25
1896.982	638.25
1901.243	632.25
1905.499	617.25
1909.752	631.25
1914	634.25
1918.245	639.25
1922.485	623.25
1926.722	636.25
1930.954	636.25
1935.183	633.25
1939.408	647.25
1943.628	631.25
1947.845	650.25
1952.058	640.25
1956.267	635.25
1960.472	630.25
1964.673	618.25
1968.87	617.25
1973.063	611.25
1977.252	610.25
1981.438	605.25
1985.619	607.25
1989.797	587.25
1993.971	597.25
1998.14	608.25
2002.306	608.25
2006.469	606.25
2010.627	609.25
2014.781	623.25
2018.932	619.25
2023.078	612.25
2027.221	618.25
2031.36	606.25
2035.495	614.25
2039.627	591.25
2043.754	588.25
2047.878	595.25
2051.998	589.25
2056.114	587.25
2060.226	594.25
2064.334	609.25
2068.439	603.25
2072.54	619.25
2076.637	617.25
2080.73	620.25
2084.82	624.25
2088.906	624.25
2092.988	615.25
2097.066	610.25
2101.14	625.25
2105.211	609.25
2109.278	613.25
2113.342	607.25
2117.401	609.25
2121.457	597.25
2125.509	598.25
2129.558	584.25
2133.602	590.25
2137.643	579.25
2141.681	579.25
2145.714	586.25
2149.744	576.25
2153.77	575.25
2157.793	578.25
2161.812	573.25
2165.827	557.25
2169.838	544.25
2173.846	548.25
2177.851	526.25
2181.851	524.25
2185.848	521.25
2189.841	514.25
2193.831	504.25
2197.817	512.25
2201.799	499.25
2205.778	505.25
2209.753	506.25
2213.725	496.25
2217.693	495.25
2221.657	504.25
2225.618	503.25
2229.575	492.25
2233.529	484.25
2237.479	487.25
2241.425	501.25
2245.368	483.25
2249.307	473.25
2253.243	461.25
2257.175	454.25
2261.104	455.25
2265.029	445.25
2268.95	438.25
2272.868	425.25
2276.783	427.25
2280.694	424.25
2284.601	420.25
2288.505	417.25
2292.405	407.25
2296.302	397.25
2300.195	399.25
2304.085	400.25
2307.971	385.25
2311.854	375.25
2315.734	364.25
2319.609	364.25
2323.482	362.25
2327.351	354.25
2331.216	363.25
2335.078	351.25
2338.937	350.25
2342.792	349.25
2346.643	345.25
2350.492	342.25
2354.336	348.25
2358.178	331.25
2362.015	330.25
2365.85	348.25
2369.681	345.25
2373.508	344.25
2377.333	349.25
2381.153	355.25
2384.971	351.25
2388.785	345.25
2392.595	345.25
2396.402	341.25
2400.206	332.25
2404.007	343.25
2407.804	324.25
2411.597	334.25
2415.388	329.25
2419.174	326.25
2422.958	334.25
2426.738	331.25
2430.515	322.25
2434.289	325.25
2438.059	324.25
2441.825	324.25
2445.589	319.25
2449.349	320.25
2453.106	320.25
2456.859	309.25
2460.61	315.25
2464.356	313.25
2468.1	299.25
2471.84	304.25
2475.577	305.25
2479.311	307.25
2483.041	299.25
2486.768	292.25
2490.492	300.25
2494.213	306.25
2497.93	296.25
2501.644	294.25
2505.355	300.25
2509.062	301.25
2512.766	299.25
2516.467	310.25
2520.165	301.25
2523.859	300.25
2527.551	291.25
2531.239	293.25
2534.923	293.25
2538.605	291.25
2542.283	276.25
2545.958	272.25
2549.63	274.25
2553.299	273.25
2556.964	271.25
2560.626	273.25
2564.285	279.25
2567.941	261.25
2571.594	267.25
2575.243	259.25
2578.89	262.25
2582.533	261.25
2586.173	266.25
2589.809	254.25
2593.443	254.25
2597.073	254.25
2600.701	256.25
2604.325	256.25
2607.946	253.25
2611.564	253.25
2615.178	254.25
2618.79	242.25
2622.398	243.25
2626.004	243.25
2629.606	241.25
2633.205	239.25
2636.801	228.25
2640.394	235.25
2643.983	233.25
2647.57	231.25
2651.153	234.25
2654.734	224.25
2658.311	220.25
2661.885	231.25
2665.456	219.25
2669.025	220.25
2672.589	217.25
2676.151	215.25
2679.71	206.25
2683.266	200.25
2686.819	206.25
2690.368	212.25
2693.915	206.25
2697.458	208.25
2700.999	209.25
2704.536	199.25
2708.071	197.25
2711.602	194.25
2715.13	199.25
2718.656	194.25
2722.178	188.25
2725.697	196.25
2729.214	192.25
2732.727	198.25
2736.237	195.25
2739.744	202.25
2743.249	205.25
2746.75	199.25
2750.248	204.25
2753.743	186.25
2757.236	193.25
2760.725	200.25
2764.211	195.25
2767.695	197.25
2771.175	182.25
2774.652	192.25
2778.127	187.25
2781.598	188.25
2785.067	183.25
2788.532	192.25
2791.995	188.25
2795.455	186.25
2798.911	183.25
2802.365	186.25
2805.816	195.25
2809.264	192.25
2812.709	195.25
2816.151	196.25
2819.59	206.25
2823.026	195.25
2826.46	193.25
2829.89	199.25
2833.318	211.25
2836.742	197.25
2840.164	202.25
2843.583	200.25
2846.999	206.25
2850.412	199.25
2853.822	210.25
2857.229	208.25
2860.634	226.25
2864.035	221.25
2867.434	227.25
2870.83	222.25
2874.223	218.25
2877.613	229.25
2881	242.25
2884.385	235.25
2887.766	237.25
2891.145	232.25
2894.521	242.25
2897.894	235.25
2901.264	233.25
2904.631	249.25
2907.996	249.25
2911.358	245.25
2914.717	242.25
2918.073	258.25
2921.426	259.25
2924.777	251.25
2928.124	261.25
2931.469	264.25
2934.811	269.25
2938.15	285.25
2941.487	291.25
2944.821	291.25
2948.152	299.25
2951.48	309.25
2954.805	313.25
2958.128	325.25
2961.447	313.25
2964.765	317.25
2968.079	323.25
2971.39	333.25
2974.699	348.25
2978.005	351.25
2981.308	359.25
2984.609	375.25
2987.907	378.25
2991.202	385.25
2994.494	405.25
2997.784	416.25
3001.07	427.25
3004.355	438.25
3007.636	452.25
3010.915	463.25
3014.191	468.25
3017.464	473.25
3020.734	484.25
3024.002	497.25
3027.267	495.25
3030.53	515.25
3033.789	522.25
3037.046	541.25
3040.301	540.25
3043.552	543.25
3046.801	565.25
3050.048	590.25
3053.291	599.25
3056.532	624.25
3059.771	657.25
3063.006	670.25
3066.239	685.25
3069.469	704.25
3072.697	723.25
3075.922	752.25
3079.144	766.25
3082.364	789.25
3085.581	811.25
3088.795	823.25
3092.007	855.25
3095.216	876.25
3098.423	896.25
3101.627	908.25
3104.828	935.25
3108.026	947.25
3111.222	973.25
3114.416	987.25
3117.607	1031.25
3120.795	1035.25
3123.98	1056.25
3127.163	1087.25
3130.344	1114.25
3133.521	1141.25
3136.696	1150.25
3139.869	1170.25
3143.039	1200.25
3146.206	1230.25
3149.371	1244.25
3152.533	1254.25
3155.693	1267.25
3158.85	1283.25
3162.005	1284.25
3165.157	1304.25
3168.306	1293.25
3171.453	1323.25
3174.597	1316.25
3177.739	1329.25
3180.878	1326.25
3184.014	1323.25
3187.149	1322.25
3190.28	1332.25
3193.409	1324.25
3196.536	1336.25
3199.659	1352.25
3202.781	1351.25
3205.9	1363.25
3209.016	1353.25
3212.13	1347.25
3215.241	1357.25
3218.35	1346.25
3221.456	1340.25
3224.56	1338.25
3227.661	1325.25
3230.76	1319.25
3233.856	1300.25
3236.95	1283.25
3240.041	1266.25
3243.13	1258.25
3246.216	1255.25
3249.3	1243.25
3252.382	1236.25
3255.46	1218.25
3258.537	1217.25
3261.611	1201.25
3264.682	1208.25
3267.751	1199.25
3270.818	1194.25
3273.882	1189.25
3276.943	1176.25
3280.002	1160.25
3283.059	1144.25
3286.113	1145.25
3289.165	1135.25
3292.214	1121.25
3295.261	1095.25
3298.306	1086.25
3301.348	1072.25
3304.387	1059.25
3307.425	1034.25
3310.459	1024.25
3313.492	1014.25
3316.521	1011.25
3319.549	982.25
3322.574	977.25
3325.597	976.25
3328.617	972.25
3331.635	965.25
3334.65	956.25
3337.663	948.25
3340.674	944.25
3343.682	936.25
3346.688	939.25
3349.691	935.25
3352.692	930.25
3355.691	936.25
3358.687	918.25
3361.681	926.25
3364.673	910.25
3367.662	898.25
3370.649	887.25
3373.633	873.25
3376.615	850.25
3379.595	850.25
3382.572	829.25
3385.547	827.25
3388.52	824.25
3391.49	808.25
3394.458	804.25
3397.424	804.25
3400.387	784.25
3403.348	773.25
3406.307	757.25
3409.263	757.25
3412.217	743.25
3415.168	741.25
3418.118	714.25
3421.065	713.25
3424.009	718.25
3426.951	696.25
3429.891	685.25
3432.829	669.25
3435.764	666.25
3438.697	648.25
3441.628	641.25
3444.557	624.25
3447.483	592.25
3450.407	590.25
3453.328	577.25
3456.247	543.25
3459.164	546.25
3462.079	525.25
3464.991	512.25
3467.902	490.25
3470.809	489.25
3473.715	466.25
3476.618	447.25
3479.519	439.25
3482.418	423.25
3485.315	408.25
3488.209	406.25
3491.101	387.25
3493.99	381.25
3496.878	374.25
3499.763	366.25
3502.646	348.25
3505.527	337.25
3508.405	315.25
3511.281	311.25
3514.155	288.25
3517.027	282.25
3519.897	271.25
3522.764	258.25
3525.629	250.25
3528.492	237.25
3531.352	228.25
3534.211	214.25
3537.067	198.25
3539.921	186.25
3542.773	170.25
3545.622	159.25
3548.469	155.25
3551.315	134.25
3554.157	144.25
3556.998	135.25
3559.837	121.25
3562.673	119.25
3565.507	115.25
3568.339	97.25
3571.169	89.25
3573.996	81.25
3576.822	82.25
3579.645	71.25
3582.466	69.25
3585.285	71.25
3588.101	60.25
3590.916	54.25
3593.728	47.25
3596.538	36.25
3599.346	35.25
3602.152	30.25
3604.956	23.25
3607.757	14.25
3610.556	17.25
3613.354	8.25
3616.149	11.25
3618.942	5.25
3621.732	-0.75
3624.521	0.25
3627.307	-5.75
3630.092	-13.75
3632.874	-17.75
3635.654	-25.75
3638.432	-17.75
3641.208	-22.75
3643.982	-28.75
3646.753	-27.75
3649.523	-30.75
3652.29	-34.75
3655.055	-37.75
3657.818	-37.75
3660.579	-45.75
3663.338	-51.75
3666.095	-47.75
3668.849	-54.75
3671.602	-56.75
3674.352	-59.75
3677.101	-61.75
3679.847	-59.75
3682.591	-59.75
3685.333	-62.75
3688.073	-71.75
3690.811	-66.75
3693.547	-71.75
3696.281	-70.75
3699.013	-74.75
3701.742	-79.75
3704.47	-80.75
3707.195	-80.75
3709.919	-80.75
3712.64	-82.75
3715.359	-83.75
3718.076	-78.75
3720.792	-85.75
3723.505	-81.75
3726.216	-83.75
3728.925	-90.75
3731.632	-87.75
3734.336	-90.75
3737.039	-93.75
3739.74	-96.75
3742.439	-89.75
3745.136	-92.75
3747.83	-92.75
3750.523	-90.75
3753.213	-91.75
3755.902	-92.75
3758.589	-90.75
3761.273	-92.75
3763.956	-90.75
3766.636	-95.75
3769.315	-97.75
3771.991	-100.75
3774.665	-95.75
3777.338	-98.75
3780.008	-101.75
3782.677	-99.75
3785.343	-99.75
3788.007	-98.75
3790.67	-104.75
3793.33	-95.75
3795.989	-104.75
3798.645	-100.75
3801.299	-98.75
3803.952	-105.75
3806.602	-107.75
3809.251	-101.75
3811.897	-104.75
3814.542	-106.75
3817.184	-100.75
3819.825	-97.75
3822.463	-97.75
3825.1	-102.75
3827.735	-102.75
3830.367	-101.75
3832.998	-105.75
3835.627	-105.75
3838.253	-105.75
3840.878	-108.75
3843.501	-108.75
3846.122	-106.75
3848.741	-100.75
3851.358	-109.75
3853.973	-105.75
3856.586	-103.75
3859.197	-103.75
3861.806	-106.75
3864.414	-110.75
3867.019	-110.75
3869.622	-108.75
3872.224	-108.75
3874.823	-105.75
3877.421	-96.75
3880.016	-96.75
3882.61	-90.75
3885.202	-95.75
3887.792	-93.75
3890.38	-105.75
3892.966	-104.75
3895.55	-112.75
3898.132	-108.75
3900.713	-109.75
3903.291	-111.75
3905.868	-103.75
3908.442	-107.75
3911.015	-108.75
3913.586	-109.75
3916.155	-105.75
3918.722	-112.75
3921.287	-114.75
3923.85	-113.75
3926.411	-115.75
3928.971	-110.75
3931.528	-113.75
3934.084	-107.75
3936.638	-108.75
3939.19	-110.75
3941.74	-105.75
3944.288	-112.75
3946.834	-109.75
3949.378	-112.75
3951.921	-110.75
3954.462	-113.75
3957	-113.75
3959.537	-114.75
3962.072	-110.75
3964.606	-115.75
3967.137	-107.75
3969.667	-108.75
3972.194	-107.75
3974.72	-107.75
3977.244	-107.75
3979.766	-106.75
3982.286	-108.75
3984.805	-109.75
3987.321	-114.75
3989.836	-113.75
3992.349	-108.75
3994.86	-106.75
3997.369	-108.75
3999.877	-108.75
4002.382	-106.75
4004.886	-107.75
4007.388	-105.75
4009.888	-111.75
4012.386	-110.75
4014.883	-111.75
4017.377	-110.75
4019.87	-112.75
4022.361	-113.75
4024.85	-109.75
4027.338	-112.75
4029.823	-106.75
4032.307	-104.75
4034.789	-108.75
4037.269	-109.75
4039.747	-108.75
4042.224	-111.75
4044.699	-118.75
4047.172	-115.75
4049.643	-112.75
4052.112	-113.75
4054.58	-111.75
4057.046	-112.75
4059.51	-112.75
4061.972	-111.75
4064.432	-111.75
4066.891	-112.75
4069.348	-110.75
4071.803	-113.75
4074.256	-113.75
4076.708	-112.75
4079.158	-116.75
4081.606	-113.75
4084.052	-107.75
4086.497	-109.75
4088.939	-108.75
4091.38	-110.75
4093.819	-111.75
4096.257	-115.75
4098.693	-112.75
4101.127	-113.75
4103.559	-114.75
4105.989	-73.75
4108.418	-69.75
4110.845	-70.75
4113.27	-67.75
4115.694	-59.75
4118.115	-53.75
4120.535	-108.75
4122.954	-114.75
4125.37	-115.75
4127.785	-110.75
4130.198	-114.75
4132.609	-111.75
4135.019	-112.75
4137.427	-115.75
4139.833	-114.75
4142.237	-111.75
