Data from 10000CFU3_B_RamanShift_1.txt Node
Date: Tue Jan 31 14:34:37 IST 2017
User: aro
Spectrometer: QEPB0276
Trigger mode: 0
Integration Time (sec): 5.000000E0
Scans to average: 1
Electric dark correction enabled: true
Nonlinearity correction enabled: false
Boxcar width: 0
XAxis mode: Raman Shifts
Number of Pixels in Spectrum: 1044
>>>>>Begin Spectral Data<<<<<
160.701	-34.88
166.742	-4.88
172.777	98.12
178.805	393.12
184.826	1110.12
190.841	2204.12
196.849	3447.12
202.85	4235.12
208.845	4432.12
214.833	4279.12
220.815	4116.12
226.789	3983.12
232.758	3893.12
238.719	3778.12
244.674	3616.12
250.623	3478.12
256.565	3339.12
262.5	3153.12
268.429	3027.12
274.351	2911.12
280.267	2787.12
286.176	2698.12
292.079	2613.12
297.975	2527.12
303.865	2462.12
309.748	2386.12
315.625	2329.12
321.495	2286.12
327.359	2237.12
333.217	2236.12
339.068	2215.12
344.912	2195.12
350.751	2189.12
356.583	2177.12
362.408	2186.12
368.227	2162.12
374.04	2200.12
379.847	2206.12
385.647	2209.12
391.44	2218.12
397.228	2244.12
403.009	2239.12
408.784	2264.12
414.553	2260.12
420.315	2270.12
426.071	2275.12
431.821	2251.12
437.565	2239.12
443.302	2238.12
449.033	2243.12
454.758	2243.12
460.477	2250.12
466.189	2233.12
471.896	2204.12
477.596	2201.12
483.29	2176.12
488.978	2178.12
494.66	2160.12
500.335	2145.12
506.005	2115.12
511.668	2090.12
517.325	2040.12
522.977	2017.12
528.622	1981.12
534.261	1954.12
539.894	1945.12
545.521	1917.12
551.141	1919.12
556.756	1907.12
562.365	1889.12
567.968	1882.12
573.565	1886.12
579.155	1865.12
584.74	1855.12
590.319	1837.12
595.892	1823.12
601.459	1828.12
607.02	1812.12
612.575	1793.12
618.124	1791.12
623.667	1768.12
629.204	1760.12
634.735	1730.12
640.261	1713.12
645.781	1716.12
651.294	1704.12
656.802	1696.12
662.304	1678.12
667.8	1683.12
673.29	1680.12
678.775	1662.12
684.254	1649.12
689.726	1658.12
695.193	1642.12
700.655	1664.12
706.11	1634.12
711.56	1625.12
717.004	1614.12
722.442	1611.12
727.874	1591.12
733.301	1591.12
738.722	1563.12
744.137	1583.12
749.547	1560.12
754.951	1556.12
760.349	1559.12
765.741	1560.12
771.128	1565.12
776.509	1573.12
781.885	1566.12
787.254	1571.12
792.618	1553.12
797.977	1555.12
803.33	1549.12
808.677	1547.12
814.019	1511.12
819.355	1503.12
824.686	1496.12
830.011	1478.12
835.33	1472.12
840.644	1446.12
845.952	1449.12
851.255	1460.12
856.552	1425.12
861.844	1440.12
867.13	1424.12
872.41	1425.12
877.686	1423.12
882.955	1415.12
888.219	1401.12
893.478	1369.12
898.731	1328.12
903.979	1337.12
909.221	1311.12
914.458	1310.12
919.69	1272.12
924.916	1275.12
930.136	1271.12
935.351	1291.12
940.561	1278.12
945.766	1273.12
950.965	1273.12
956.158	1274.12
961.347	1252.12
966.529	1248.12
971.707	1227.12
976.879	1228.12
982.046	1211.12
987.208	1194.12
992.364	1208.12
997.515	1186.12
1002.66	1205.12
1007.801	1211.12
1012.936	1217.12
1018.066	1230.12
1023.19	1229.12
1028.309	1238.12
1033.423	1249.12
1038.532	1250.12
1043.636	1242.12
1048.734	1214.12
1053.827	1224.12
1058.915	1204.12
1063.998	1185.12
1069.075	1181.12
1074.147	1188.12
1079.214	1193.12
1084.276	1193.12
1089.333	1211.12
1094.385	1198.12
1099.431	1223.12
1104.472	1233.12
1109.509	1230.12
1114.54	1216.12
1119.565	1222.12
1124.586	1201.12
1129.602	1173.12
1134.613	1174.12
1139.618	1159.12
1144.619	1158.12
1149.614	1165.12
1154.604	1148.12
1159.589	1171.12
1164.57	1172.12
1169.545	1185.12
1174.515	1187.12
1179.48	1205.12
1184.44	1190.12
1189.395	1185.12
1194.345	1182.12
1199.29	1176.12
1204.23	1181.12
1209.165	1167.12
1214.095	1179.12
1219.021	1192.12
1223.941	1183.12
1228.856	1203.12
1233.766	1199.12
1238.672	1214.12
1243.572	1206.12
1248.467	1201.12
1253.358	1206.12
1258.244	1184.12
1263.124	1164.12
1268	1158.12
1272.871	1139.12
1277.737	1119.12
1282.599	1093.12
1287.455	1113.12
1292.306	1114.12
1297.153	1126.12
1301.995	1125.12
1306.832	1149.12
1311.664	1145.12
1316.491	1162.12
1321.314	1149.12
1326.132	1173.12
1330.945	1161.12
1335.753	1123.12
1340.556	1123.12
1345.354	1112.12
1350.148	1093.12
1354.937	1092.12
1359.722	1089.12
1364.501	1065.12
1369.276	1048.12
1374.046	1057.12
1378.811	1051.12
1383.572	1044.12
1388.327	1043.12
1393.079	1048.12
1397.825	1036.12
1402.567	1039.12
1407.304	1031.12
1412.036	1022.12
1416.764	1025.12
1421.487	1029.12
1426.205	1025.12
1430.919	1026.12
1435.628	1031.12
1440.333	1041.12
1445.032	1061.12
1449.727	1065.12
1454.418	1064.12
1459.104	1091.12
1463.785	1087.12
1468.462	1063.12
1473.134	1050.12
1477.802	1064.12
1482.465	1046.12
1487.123	1044.12
1491.777	1043.12
1496.426	1032.12
1501.071	1036.12
1505.711	1068.12
1510.347	1065.12
1514.978	1072.12
1519.604	1084.12
1524.226	1101.12
1528.844	1093.12
1533.457	1101.12
1538.065	1091.12
1542.669	1086.12
1547.269	1096.12
1551.864	1085.12
1556.454	1108.12
1561.041	1095.12
1565.622	1109.12
1570.199	1112.12
1574.772	1136.12
1579.34	1172.12
1583.904	1170.12
1588.464	1202.12
1593.019	1211.12
1597.569	1245.12
1602.115	1251.12
1606.657	1273.12
1611.195	1268.12
1615.728	1275.12
1620.256	1303.12
1624.78	1291.12
1629.3	1324.12
1633.816	1367.12
1638.327	1352.12
1642.834	1372.12
1647.336	1387.12
1651.834	1390.12
1656.328	1391.12
1660.817	1382.12
1665.302	1363.12
1669.783	1343.12
1674.259	1293.12
1678.732	1274.12
1683.199	1247.12
1687.663	1186.12
1692.122	1157.12
1696.577	1123.12
1701.028	1059.12
1705.474	1017.12
1709.917	992.12
1714.355	960.12
1718.788	959.12
1723.218	936.12
1727.643	924.12
1732.064	922.12
1736.481	891.12
1740.893	884.12
1745.301	844.12
1749.705	826.12
1754.105	810.12
1758.501	785.12
1762.893	766.12
1767.28	760.12
1771.663	768.12
1776.042	756.12
1780.417	755.12
1784.787	750.12
1789.154	764.12
1793.516	752.12
1797.874	749.12
1802.228	760.12
1806.578	740.12
1810.924	735.12
1815.266	719.12
1819.603	716.12
1823.937	700.12
1828.266	696.12
1832.591	688.12
1836.913	684.12
1841.23	679.12
1845.543	691.12
1849.852	682.12
1854.156	689.12
1858.457	687.12
1862.754	689.12
1867.047	684.12
1871.335	697.12
1875.62	692.12
1879.9	703.12
1884.177	707.12
1888.449	697.12
1892.718	705.12
1896.982	704.12
1901.243	707.12
1905.499	693.12
1909.752	687.12
1914	697.12
1918.245	692.12
1922.485	700.12
1926.722	707.12
1930.954	705.12
1935.183	700.12
1939.408	705.12
1943.628	703.12
1947.845	708.12
1952.058	705.12
1956.267	711.12
1960.472	690.12
1964.673	692.12
1968.87	680.12
1973.063	657.12
1977.252	662.12
1981.438	664.12
1985.619	659.12
1989.797	660.12
1993.971	652.12
1998.14	649.12
2002.306	660.12
2006.469	679.12
2010.627	666.12
2014.781	681.12
2018.932	678.12
2023.078	677.12
2027.221	673.12
2031.36	672.12
2035.495	666.12
2039.627	665.12
2043.754	648.12
2047.878	643.12
2051.998	646.12
2056.114	656.12
2060.226	655.12
2064.334	673.12
2068.439	665.12
2072.54	663.12
2076.637	671.12
2080.73	682.12
2084.82	670.12
2088.906	679.12
2092.988	677.12
2097.066	675.12
2101.14	672.12
2105.211	661.12
2109.278	673.12
2113.342	663.12
2117.401	653.12
2121.457	659.12
2125.509	651.12
2129.558	625.12
2133.602	630.12
2137.643	607.12
2141.681	640.12
2145.714	630.12
2149.744	611.12
2153.77	627.12
2157.793	623.12
2161.812	623.12
2165.827	601.12
2169.838	607.12
2173.846	586.12
2177.851	584.12
2181.851	573.12
2185.848	567.12
2189.841	557.12
2193.831	552.12
2197.817	561.12
2201.799	551.12
2205.778	555.12
2209.753	547.12
2213.725	551.12
2217.693	557.12
2221.657	545.12
2225.618	544.12
2229.575	552.12
2233.529	534.12
2237.479	548.12
2241.425	543.12
2245.368	527.12
2249.307	513.12
2253.243	520.12
2257.175	508.12
2261.104	483.12
2265.029	493.12
2268.95	493.12
2272.868	481.12
2276.783	465.12
2280.694	468.12
2284.601	452.12
2288.505	455.12
2292.405	451.12
2296.302	448.12
2300.195	436.12
2304.085	433.12
2307.971	426.12
2311.854	434.12
2315.734	411.12
2319.609	405.12
2323.482	398.12
2327.351	398.12
2331.216	401.12
2335.078	395.12
2338.937	395.12
2342.792	389.12
2346.643	393.12
2350.492	386.12
2354.336	387.12
2358.178	375.12
2362.015	385.12
2365.85	386.12
2369.681	381.12
2373.508	388.12
2377.333	395.12
2381.153	388.12
2384.971	384.12
2388.785	388.12
2392.595	379.12
2396.402	390.12
2400.206	377.12
2404.007	383.12
2407.804	375.12
2411.597	373.12
2415.388	377.12
2419.174	370.12
2422.958	370.12
2426.738	364.12
2430.515	365.12
2434.289	363.12
2438.059	361.12
2441.825	371.12
2445.589	359.12
2449.349	361.12
2453.106	345.12
2456.859	351.12
2460.61	349.12
2464.356	342.12
2468.1	341.12
2471.84	334.12
2475.577	328.12
2479.311	336.12
2483.041	337.12
2486.768	338.12
2490.492	335.12
2494.213	332.12
2497.93	333.12
2501.644	357.12
2505.355	344.12
2509.062	342.12
2512.766	330.12
2516.467	345.12
2520.165	336.12
2523.859	337.12
2527.551	335.12
2531.239	324.12
2534.923	324.12
2538.605	327.12
2542.283	311.12
2545.958	304.12
2549.63	312.12
2553.299	309.12
2556.964	308.12
2560.626	304.12
2564.285	309.12
2567.941	313.12
2571.594	306.12
2575.243	305.12
2578.89	304.12
2582.533	303.12
2586.173	294.12
2589.809	300.12
2593.443	295.12
2597.073	293.12
2600.701	288.12
2604.325	286.12
2607.946	292.12
2611.564	280.12
2615.178	286.12
2618.79	284.12
2622.398	280.12
2626.004	274.12
2629.606	270.12
2633.205	267.12
2636.801	269.12
2640.394	264.12
2643.983	272.12
2647.57	260.12
2651.153	264.12
2654.734	261.12
2658.311	259.12
2661.885	256.12
2665.456	246.12
2669.025	250.12
2672.589	247.12
2676.151	245.12
2679.71	237.12
2683.266	251.12
2686.819	242.12
2690.368	242.12
2693.915	242.12
2697.458	244.12
2700.999	237.12
2704.536	234.12
2708.071	222.12
2711.602	219.12
2715.13	228.12
2718.656	222.12
2722.178	220.12
2725.697	227.12
2729.214	236.12
2732.727	233.12
2736.237	230.12
2739.744	233.12
2743.249	231.12
2746.75	232.12
2750.248	230.12
2753.743	233.12
2757.236	225.12
2760.725	223.12
2764.211	217.12
2767.695	226.12
2771.175	216.12
2774.652	223.12
2778.127	219.12
2781.598	214.12
2785.067	215.12
2788.532	216.12
2791.995	214.12
2795.455	215.12
2798.911	214.12
2802.365	218.12
2805.816	223.12
2809.264	224.12
2812.709	219.12
2816.151	226.12
2819.59	232.12
2823.026	224.12
2826.46	229.12
2829.89	228.12
2833.318	225.12
2836.742	234.12
2840.164	229.12
2843.583	229.12
2846.999	233.12
2850.412	232.12
2853.822	237.12
2857.229	235.12
2860.634	242.12
2864.035	251.12
2867.434	246.12
2870.83	251.12
2874.223	254.12
2877.613	255.12
2881	262.12
2884.385	262.12
2887.766	258.12
2891.145	260.12
2894.521	258.12
2897.894	259.12
2901.264	256.12
2904.631	268.12
2907.996	271.12
2911.358	270.12
2914.717	264.12
2918.073	269.12
2921.426	276.12
2924.777	270.12
2928.124	284.12
2931.469	287.12
2934.811	292.12
2938.15	307.12
2941.487	313.12
2944.821	314.12
2948.152	319.12
2951.48	324.12
2954.805	331.12
2958.128	328.12
2961.447	339.12
2964.765	343.12
2968.079	346.12
2971.39	345.12
2974.699	360.12
2978.005	368.12
2981.308	380.12
2984.609	400.12
2987.907	392.12
2991.202	403.12
2994.494	413.12
2997.784	428.12
3001.07	427.12
3004.355	443.12
3007.636	457.12
3010.915	464.12
3014.191	478.12
3017.464	485.12
3020.734	484.12
3024.002	509.12
3027.267	498.12
3030.53	518.12
3033.789	528.12
3037.046	535.12
3040.301	552.12
3043.552	549.12
3046.801	575.12
3050.048	584.12
3053.291	605.12
3056.532	627.12
3059.771	647.12
3063.006	657.12
3066.239	682.12
3069.469	707.12
3072.697	716.12
3075.922	744.12
3079.144	759.12
3082.364	777.12
3085.581	795.12
3088.795	822.12
3092.007	830.12
3095.216	862.12
3098.423	873.12
3101.627	898.12
3104.828	911.12
3108.026	935.12
3111.222	956.12
3114.416	977.12
3117.607	999.12
3120.795	1034.12
3123.98	1039.12
3127.163	1064.12
3130.344	1096.12
3133.521	1119.12
3136.696	1145.12
3139.869	1156.12
3143.039	1175.12
3146.206	1193.12
3149.371	1208.12
3152.533	1244.12
3155.693	1242.12
3158.85	1261.12
3162.005	1265.12
3165.157	1283.12
3168.306	1278.12
3171.453	1295.12
3174.597	1283.12
3177.739	1286.12
3180.878	1282.12
3184.014	1304.12
3187.149	1291.12
3190.28	1301.12
3193.409	1303.12
3196.536	1301.12
3199.659	1313.12
3202.781	1319.12
3205.9	1323.12
3209.016	1327.12
3212.13	1326.12
3215.241	1335.12
3218.35	1336.12
3221.456	1326.12
3224.56	1303.12
3227.661	1298.12
3230.76	1277.12
3233.856	1255.12
3236.95	1260.12
3240.041	1253.12
3243.13	1235.12
3246.216	1225.12
3249.3	1200.12
3252.382	1215.12
3255.46	1192.12
3258.537	1197.12
3261.611	1190.12
3264.682	1190.12
3267.751	1171.12
3270.818	1158.12
3273.882	1171.12
3276.943	1129.12
3280.002	1153.12
3283.059	1138.12
3286.113	1118.12
3289.165	1106.12
3292.214	1100.12
3295.261	1086.12
3298.306	1044.12
3301.348	1046.12
3304.387	1040.12
3307.425	1009.12
3310.459	991.12
3313.492	985.12
3316.521	966.12
3319.549	976.12
3322.574	949.12
3325.597	940.12
3328.617	939.12
3331.635	944.12
3334.65	926.12
3337.663	916.12
3340.674	917.12
3343.682	912.12
3346.688	914.12
3349.691	903.12
3352.692	904.12
3355.691	906.12
3358.687	896.12
3361.681	880.12
3364.673	868.12
3367.662	864.12
3370.649	860.12
3373.633	840.12
3376.615	832.12
3379.595	811.12
3382.572	809.12
3385.547	804.12
3388.52	791.12
3391.49	779.12
3394.458	773.12
3397.424	763.12
3400.387	750.12
3403.348	740.12
3406.307	730.12
3409.263	730.12
3412.217	715.12
3415.168	706.12
3418.118	698.12
3421.065	695.12
3424.009	695.12
3426.951	666.12
3429.891	670.12
3432.829	651.12
3435.764	652.12
3438.697	621.12
3441.628	618.12
3444.557	605.12
3447.483	589.12
3450.407	575.12
3453.328	554.12
3456.247	550.12
3459.164	517.12
3462.079	515.12
3464.991	499.12
3467.902	478.12
3470.809	473.12
3473.715	454.12
3476.618	430.12
3479.519	426.12
3482.418	405.12
3485.315	413.12
3488.209	389.12
3491.101	382.12
3493.99	369.12
3496.878	357.12
3499.763	354.12
3502.646	334.12
3505.527	334.12
3508.405	313.12
3511.281	298.12
3514.155	282.12
3517.027	284.12
3519.897	259.12
3522.764	247.12
3525.629	237.12
3528.492	240.12
3531.352	219.12
3534.211	209.12
3537.067	187.12
3539.921	181.12
3542.773	168.12
3545.622	158.12
3548.469	148.12
3551.315	135.12
3554.157	132.12
3556.998	121.12
3559.837	115.12
3562.673	116.12
3565.507	111.12
3568.339	101.12
3571.169	92.12
3573.996	82.12
3576.822	76.12
3579.645	78.12
3582.466	68.12
3585.285	67.12
3588.101	52.12
3590.916	46.12
3593.728	46.12
3596.538	37.12
3599.346	45.12
3602.152	33.12
3604.956	22.12
3607.757	13.12
3610.556	8.12
3613.354	8.12
3616.149	6.12
3618.942	4.12
3621.732	-0.88
3624.521	-0.88
3627.307	-1.88
3630.092	-9.88
3632.874	-8.88
3635.654	-19.88
3638.432	-23.88
3641.208	-28.88
3643.982	-29.88
3646.753	-34.88
3649.523	-31.88
3652.29	-32.88
3655.055	-35.88
3657.818	-34.88
3660.579	-37.88
3663.338	-42.88
3666.095	-46.88
3668.849	-48.88
3671.602	-55.88
3674.352	-61.88
3677.101	-60.88
3679.847	-62.88
3682.591	-67.88
3685.333	-64.88
3688.073	-62.88
3690.811	-68.88
3693.547	-71.88
3696.281	-68.88
3699.013	-72.88
3701.742	-75.88
3704.47	-77.88
3707.195	-77.88
3709.919	-73.88
3712.64	-78.88
3715.359	-79.88
3718.076	-81.88
3720.792	-75.88
3723.505	-79.88
3726.216	-80.88
3728.925	-85.88
3731.632	-85.88
3734.336	-87.88
3737.039	-92.88
3739.74	-96.88
3742.439	-87.88
3745.136	-88.88
3747.83	-88.88
3750.523	-89.88
3753.213	-85.88
3755.902	-89.88
3758.589	-87.88
3761.273	-89.88
3763.956	-90.88
3766.636	-97.88
3769.315	-93.88
3771.991	-90.88
3774.665	-94.88
3777.338	-94.88
3780.008	-96.88
3782.677	-95.88
3785.343	-95.88
3788.007	-94.88
3790.67	-95.88
3793.33	-97.88
3795.989	-97.88
3798.645	-93.88
3801.299	-96.88
3803.952	-103.88
3806.602	-94.88
3809.251	-101.88
3811.897	-101.88
3814.542	-99.88
3817.184	-95.88
3819.825	-99.88
3822.463	-98.88
3825.1	-99.88
3827.735	-100.88
3830.367	-100.88
3832.998	-99.88
3835.627	-100.88
3838.253	-103.88
3840.878	-102.88
3843.501	-102.88
3846.122	-104.88
3848.741	-103.88
3851.358	-108.88
3853.973	-104.88
3856.586	-101.88
3859.197	-103.88
3861.806	-103.88
3864.414	-99.88
3867.019	-102.88
3869.622	-99.88
3872.224	-107.88
3874.823	-103.88
3877.421	-97.88
3880.016	-97.88
3882.61	-94.88
3885.202	-93.88
3887.792	-93.88
3890.38	-101.88
3892.966	-102.88
3895.55	-106.88
3898.132	-109.88
3900.713	-104.88
3903.291	-107.88
3905.868	-105.88
3908.442	-107.88
3911.015	-105.88
3913.586	-110.88
3916.155	-103.88
3918.722	-105.88
3921.287	-107.88
3923.85	-108.88
3926.411	-110.88
3928.971	-108.88
3931.528	-108.88
3934.084	-107.88
3936.638	-105.88
3939.19	-107.88
3941.74	-110.88
3944.288	-109.88
3946.834	-104.88
3949.378	-108.88
3951.921	-109.88
3954.462	-108.88
3957	-108.88
3959.537	-107.88
3962.072	-106.88
3964.606	-110.88
3967.137	-109.88
3969.667	-107.88
3972.194	-110.88
3974.72	-106.88
3977.244	-109.88
3979.766	-106.88
3982.286	-102.88
3984.805	-104.88
3987.321	-104.88
3989.836	-111.88
3992.349	-102.88
3994.86	-107.88
3997.369	-107.88
3999.877	-110.88
4002.382	-103.88
4004.886	-107.88
4007.388	-103.88
4009.888	-104.88
4012.386	-103.88
4014.883	-103.88
4017.377	-107.88
4019.87	-106.88
4022.361	-105.88
4024.85	-111.88
4027.338	-105.88
4029.823	-105.88
4032.307	-108.88
4034.789	-104.88
4037.269	-106.88
4039.747	-105.88
4042.224	-105.88
4044.699	-110.88
4047.172	-107.88
4049.643	-109.88
4052.112	-108.88
4054.58	-109.88
4057.046	-109.88
4059.51	-113.88
4061.972	-110.88
4064.432	-108.88
4066.891	-108.88
4069.348	-107.88
4071.803	-107.88
4074.256	-109.88
4076.708	-107.88
4079.158	-112.88
4081.606	-110.88
4084.052	-106.88
4086.497	-108.88
4088.939	-110.88
4091.38	-109.88
4093.819	-112.88
4096.257	-112.88
4098.693	-113.88
4101.127	-111.88
4103.559	-112.88
4105.989	-72.88
4108.418	-70.88
4110.845	-67.88
4113.27	-62.88
4115.694	-53.88
4118.115	-47.88
4120.535	-107.88
4122.954	-111.88
4125.37	-106.88
4127.785	-105.88
4130.198	-108.88
4132.609	-107.88
4135.019	-112.88
4137.427	-111.88
4139.833	-112.88
4142.237	-113.88
