Data from 100000CFU3_A_RamanShift_1.txt Node
Date: Tue Jan 31 15:29:09 IST 2017
User: aro
Spectrometer: QEPB0276
Trigger mode: 0
Integration Time (sec): 5.000000E0
Scans to average: 1
Electric dark correction enabled: true
Nonlinearity correction enabled: false
Boxcar width: 0
XAxis mode: Raman Shifts
Number of Pixels in Spectrum: 1044
>>>>>Begin Spectral Data<<<<<
160.701	-33.75
166.742	-1.75
172.777	96.25
178.805	401.25
184.826	1089.25
190.841	2271.25
196.849	3532.25
202.85	4349.25
208.845	4541.25
214.833	4406.25
220.815	4220.25
226.789	4109.25
232.758	4007.25
238.719	3856.25
244.674	3715.25
250.623	3576.25
256.565	3382.25
262.5	3249.25
268.429	3108.25
274.351	2988.25
280.267	2869.25
286.176	2770.25
292.079	2665.25
297.975	2588.25
303.865	2492.25
309.748	2426.25
315.625	2357.25
321.495	2323.25
327.359	2298.25
333.217	2269.25
339.068	2248.25
344.912	2228.25
350.751	2222.25
356.583	2222.25
362.408	2242.25
368.227	2225.25
374.04	2237.25
379.847	2244.25
385.647	2243.25
391.44	2255.25
397.228	2302.25
403.009	2291.25
408.784	2294.25
414.553	2279.25
420.315	2304.25
426.071	2277.25
431.821	2321.25
437.565	2320.25
443.302	2296.25
449.033	2288.25
454.758	2281.25
460.477	2275.25
466.189	2250.25
471.896	2242.25
477.596	2238.25
483.29	2243.25
488.978	2215.25
494.66	2194.25
500.335	2195.25
506.005	2153.25
511.668	2103.25
517.325	2083.25
522.977	2026.25
528.622	2009.25
534.261	1985.25
539.894	1968.25
545.521	1942.25
551.141	1938.25
556.756	1932.25
562.365	1917.25
567.968	1904.25
573.565	1880.25
579.155	1886.25
584.74	1858.25
590.319	1873.25
595.892	1843.25
601.459	1832.25
607.02	1818.25
612.575	1805.25
618.124	1797.25
623.667	1769.25
629.204	1759.25
634.735	1761.25
640.261	1749.25
645.781	1704.25
651.294	1711.25
656.802	1709.25
662.304	1706.25
667.8	1672.25
673.29	1674.25
678.775	1682.25
684.254	1652.25
689.726	1665.25
695.193	1665.25
700.655	1627.25
706.11	1651.25
711.56	1638.25
717.004	1624.25
722.442	1616.25
727.874	1600.25
733.301	1581.25
738.722	1555.25
744.137	1561.25
749.547	1559.25
754.951	1572.25
760.349	1567.25
765.741	1564.25
771.128	1565.25
776.509	1571.25
781.885	1578.25
787.254	1573.25
792.618	1552.25
797.977	1550.25
803.33	1531.25
808.677	1537.25
814.019	1519.25
819.355	1490.25
824.686	1477.25
830.011	1466.25
835.33	1451.25
840.644	1458.25
845.952	1440.25
851.255	1430.25
856.552	1429.25
861.844	1430.25
867.13	1419.25
872.41	1414.25
877.686	1396.25
882.955	1387.25
888.219	1368.25
893.478	1356.25
898.731	1330.25
903.979	1313.25
909.221	1285.25
914.458	1281.25
919.69	1277.25
924.916	1264.25
930.136	1265.25
935.351	1259.25
940.561	1264.25
945.766	1269.25
950.965	1248.25
956.158	1249.25
961.347	1251.25
966.529	1234.25
971.707	1223.25
976.879	1210.25
982.046	1171.25
987.208	1164.25
992.364	1176.25
997.515	1175.25
1002.66	1162.25
1007.801	1186.25
1012.936	1187.25
1018.066	1202.25
1023.19	1218.25
1028.309	1223.25
1033.423	1227.25
1038.532	1226.25
1043.636	1223.25
1048.734	1210.25
1053.827	1186.25
1058.915	1174.25
1063.998	1172.25
1069.075	1157.25
1074.147	1166.25
1079.214	1152.25
1084.276	1173.25
1089.333	1180.25
1094.385	1188.25
1099.431	1189.25
1104.472	1204.25
1109.509	1199.25
1114.54	1190.25
1119.565	1177.25
1124.586	1164.25
1129.602	1158.25
1134.613	1134.25
1139.618	1145.25
1144.619	1121.25
1149.614	1130.25
1154.604	1137.25
1159.589	1159.25
1164.57	1139.25
1169.545	1162.25
1174.515	1179.25
1179.48	1148.25
1184.44	1164.25
1189.395	1156.25
1194.345	1156.25
1199.29	1150.25
1204.23	1147.25
1209.165	1152.25
1214.095	1144.25
1219.021	1136.25
1223.941	1155.25
1228.856	1176.25
1233.766	1163.25
1238.672	1169.25
1243.572	1197.25
1248.467	1190.25
1253.358	1150.25
1258.244	1157.25
1263.124	1142.25
1268	1120.25
1272.871	1098.25
1277.737	1103.25
1282.599	1092.25
1287.455	1102.25
1292.306	1089.25
1297.153	1090.25
1301.995	1124.25
1306.832	1124.25
1311.664	1132.25
1316.491	1115.25
1321.314	1140.25
1326.132	1132.25
1330.945	1142.25
1335.753	1110.25
1340.556	1098.25
1345.354	1070.25
1350.148	1080.25
1354.937	1070.25
1359.722	1052.25
1364.501	1042.25
1369.276	1029.25
1374.046	1016.25
1378.811	1028.25
1383.572	1008.25
1388.327	1024.25
1393.079	1012.25
1397.825	1017.25
1402.567	1003.25
1407.304	1007.25
1412.036	989.25
1416.764	989.25
1421.487	978.25
1426.205	987.25
1430.919	1006.25
1435.628	1008.25
1440.333	1020.25
1445.032	1019.25
1449.727	1035.25
1454.418	1026.25
1459.104	1048.25
1463.785	1044.25
1468.462	1035.25
1473.134	1035.25
1477.802	1020.25
1482.465	1018.25
1487.123	1017.25
1491.777	997.25
1496.426	1015.25
1501.071	1028.25
1505.711	1029.25
1510.347	1039.25
1514.978	1046.25
1519.604	1060.25
1524.226	1068.25
1528.844	1073.25
1533.457	1067.25
1538.065	1069.25
1542.669	1073.25
1547.269	1060.25
1551.864	1079.25
1556.454	1066.25
1561.041	1091.25
1565.622	1096.25
1570.199	1101.25
1574.772	1114.25
1579.34	1132.25
1583.904	1152.25
1588.464	1195.25
1593.019	1181.25
1597.569	1207.25
1602.115	1210.25
1606.657	1245.25
1611.195	1253.25
1615.728	1258.25
1620.256	1279.25
1624.78	1292.25
1629.3	1314.25
1633.816	1332.25
1638.327	1349.25
1642.834	1349.25
1647.336	1373.25
1651.834	1374.25
1656.328	1366.25
1660.817	1353.25
1665.302	1347.25
1669.783	1324.25
1674.259	1293.25
1678.732	1253.25
1683.199	1216.25
1687.663	1173.25
1692.122	1135.25
1696.577	1087.25
1701.028	1036.25
1705.474	999.25
1709.917	964.25
1714.355	943.25
1718.788	922.25
1723.218	914.25
1727.643	905.25
1732.064	895.25
1736.481	865.25
1740.893	846.25
1745.301	828.25
1749.705	795.25
1754.105	776.25
1758.501	759.25
1762.893	754.25
1767.28	740.25
1771.663	732.25
1776.042	731.25
1780.417	736.25
1784.787	728.25
1789.154	734.25
1793.516	735.25
1797.874	733.25
1802.228	733.25
1806.578	709.25
1810.924	706.25
1815.266	685.25
1819.603	696.25
1823.937	679.25
1828.266	676.25
1832.591	667.25
1836.913	668.25
1841.23	662.25
1845.543	665.25
1849.852	653.25
1854.156	659.25
1858.457	665.25
1862.754	656.25
1867.047	668.25
1871.335	673.25
1875.62	675.25
1879.9	688.25
1884.177	681.25
1888.449	687.25
1892.718	689.25
1896.982	680.25
1901.243	681.25
1905.499	670.25
1909.752	670.25
1914	665.25
1918.245	661.25
1922.485	658.25
1926.722	679.25
1930.954	666.25
1935.183	681.25
1939.408	674.25
1943.628	678.25
1947.845	681.25
1952.058	682.25
1956.267	684.25
1960.472	659.25
1964.673	651.25
1968.87	655.25
1973.063	654.25
1977.252	641.25
1981.438	642.25
1985.619	637.25
1989.797	638.25
1993.971	618.25
1998.14	625.25
2002.306	648.25
2006.469	639.25
2010.627	647.25
2014.781	654.25
2018.932	661.25
2023.078	655.25
2027.221	658.25
2031.36	646.25
2035.495	639.25
2039.627	646.25
2043.754	625.25
2047.878	635.25
2051.998	628.25
2056.114	636.25
2060.226	628.25
2064.334	636.25
2068.439	645.25
2072.54	644.25
2076.637	644.25
2080.73	653.25
2084.82	658.25
2088.906	660.25
2092.988	655.25
2097.066	647.25
2101.14	654.25
2105.211	655.25
2109.278	644.25
2113.342	636.25
2117.401	645.25
2121.457	636.25
2125.509	611.25
2129.558	620.25
2133.602	626.25
2137.643	612.25
2141.681	609.25
2145.714	613.25
2149.744	608.25
2153.77	604.25
2157.793	607.25
2161.812	596.25
2165.827	590.25
2169.838	578.25
2173.846	581.25
2177.851	555.25
2181.851	546.25
2185.848	545.25
2189.841	547.25
2193.831	542.25
2197.817	544.25
2201.799	535.25
2205.778	543.25
2209.753	530.25
2213.725	519.25
2217.693	534.25
2221.657	525.25
2225.618	530.25
2229.575	528.25
2233.529	520.25
2237.479	524.25
2241.425	520.25
2245.368	510.25
2249.307	501.25
2253.243	501.25
2257.175	496.25
2261.104	485.25
2265.029	478.25
2268.95	473.25
2272.868	457.25
2276.783	456.25
2280.694	450.25
2284.601	440.25
2288.505	439.25
2292.405	437.25
2296.302	432.25
2300.195	414.25
2304.085	423.25
2307.971	406.25
2311.854	407.25
2315.734	398.25
2319.609	396.25
2323.482	384.25
2327.351	390.25
2331.216	386.25
2335.078	380.25
2338.937	376.25
2342.792	369.25
2346.643	369.25
2350.492	369.25
2354.336	362.25
2358.178	363.25
2362.015	363.25
2365.85	373.25
2369.681	375.25
2373.508	379.25
2377.333	371.25
2381.153	378.25
2384.971	385.25
2388.785	365.25
2392.595	362.25
2396.402	358.25
2400.206	359.25
2404.007	370.25
2407.804	352.25
2411.597	352.25
2415.388	355.25
2419.174	347.25
2422.958	361.25
2426.738	340.25
2430.515	353.25
2434.289	345.25
2438.059	342.25
2441.825	350.25
2445.589	347.25
2449.349	354.25
2453.106	331.25
2456.859	341.25
2460.61	335.25
2464.356	330.25
2468.1	324.25
2471.84	319.25
2475.577	318.25
2479.311	324.25
2483.041	338.25
2486.768	323.25
2490.492	319.25
2494.213	318.25
2497.93	326.25
2501.644	323.25
2505.355	318.25
2509.062	320.25
2512.766	314.25
2516.467	316.25
2520.165	316.25
2523.859	325.25
2527.551	314.25
2531.239	314.25
2534.923	311.25
2538.605	302.25
2542.283	299.25
2545.958	295.25
2549.63	298.25
2553.299	299.25
2556.964	296.25
2560.626	291.25
2564.285	287.25
2567.941	296.25
2571.594	282.25
2575.243	287.25
2578.89	287.25
2582.533	286.25
2586.173	275.25
2589.809	272.25
2593.443	270.25
2597.073	269.25
2600.701	271.25
2604.325	272.25
2607.946	272.25
2611.564	268.25
2615.178	272.25
2618.79	266.25
2622.398	260.25
2626.004	255.25
2629.606	265.25
2633.205	257.25
2636.801	255.25
2640.394	248.25
2643.983	257.25
2647.57	252.25
2651.153	240.25
2654.734	244.25
2658.311	244.25
2661.885	241.25
2665.456	241.25
2669.025	237.25
2672.589	236.25
2676.151	223.25
2679.71	224.25
2683.266	229.25
2686.819	227.25
2690.368	232.25
2693.915	214.25
2697.458	224.25
2700.999	231.25
2704.536	221.25
2708.071	208.25
2711.602	212.25
2715.13	210.25
2718.656	214.25
2722.178	210.25
2725.697	211.25
2729.214	211.25
2732.727	218.25
2736.237	219.25
2739.744	213.25
2743.249	219.25
2746.75	220.25
2750.248	218.25
2753.743	205.25
2757.236	218.25
2760.725	219.25
2764.211	217.25
2767.695	208.25
2771.175	205.25
2774.652	208.25
2778.127	207.25
2781.598	206.25
2785.067	207.25
2788.532	204.25
2791.995	208.25
2795.455	204.25
2798.911	201.25
2802.365	206.25
2805.816	199.25
2809.264	209.25
2812.709	205.25
2816.151	219.25
2819.59	216.25
2823.026	212.25
2826.46	214.25
2829.89	219.25
2833.318	220.25
2836.742	213.25
2840.164	215.25
2843.583	206.25
2846.999	218.25
2850.412	223.25
2853.822	233.25
2857.229	226.25
2860.634	236.25
2864.035	240.25
2867.434	230.25
2870.83	244.25
2874.223	247.25
2877.613	249.25
2881	246.25
2884.385	240.25
2887.766	251.25
2891.145	239.25
2894.521	248.25
2897.894	257.25
2901.264	249.25
2904.631	254.25
2907.996	257.25
2911.358	253.25
2914.717	254.25
2918.073	270.25
2921.426	263.25
2924.777	259.25
2928.124	272.25
2931.469	290.25
2934.811	287.25
2938.15	297.25
2941.487	306.25
2944.821	301.25
2948.152	304.25
2951.48	315.25
2954.805	319.25
2958.128	319.25
2961.447	332.25
2964.765	319.25
2968.079	337.25
2971.39	333.25
2974.699	357.25
2978.005	362.25
2981.308	368.25
2984.609	378.25
2987.907	393.25
2991.202	395.25
2994.494	410.25
2997.784	417.25
3001.07	436.25
3004.355	444.25
3007.636	457.25
3010.915	467.25
3014.191	469.25
3017.464	482.25
3020.734	487.25
3024.002	504.25
3027.267	512.25
3030.53	509.25
3033.789	530.25
3037.046	537.25
3040.301	557.25
3043.552	568.25
3046.801	585.25
3050.048	599.25
3053.291	621.25
3056.532	635.25
3059.771	640.25
3063.006	667.25
3066.239	685.25
3069.469	703.25
3072.697	718.25
3075.922	750.25
3079.144	768.25
3082.364	797.25
3085.581	804.25
3088.795	835.25
3092.007	852.25
3095.216	867.25
3098.423	877.25
3101.627	912.25
3104.828	917.25
3108.026	937.25
3111.222	971.25
3114.416	972.25
3117.607	1009.25
3120.795	1031.25
3123.98	1069.25
3127.163	1080.25
3130.344	1118.25
3133.521	1136.25
3136.696	1154.25
3139.869	1186.25
3143.039	1194.25
3146.206	1203.25
3149.371	1243.25
3152.533	1261.25
3155.693	1264.25
3158.85	1259.25
3162.005	1269.25
3165.157	1292.25
3168.306	1289.25
3171.453	1309.25
3174.597	1305.25
3177.739	1324.25
3180.878	1324.25
3184.014	1309.25
3187.149	1305.25
3190.28	1327.25
3193.409	1330.25
3196.536	1328.25
3199.659	1335.25
3202.781	1341.25
3205.9	1353.25
3209.016	1328.25
3212.13	1350.25
3215.241	1330.25
3218.35	1333.25
3221.456	1350.25
3224.56	1321.25
3227.661	1314.25
3230.76	1300.25
3233.856	1291.25
3236.95	1278.25
3240.041	1262.25
3243.13	1257.25
3246.216	1239.25
3249.3	1220.25
3252.382	1223.25
3255.46	1202.25
3258.537	1200.25
3261.611	1193.25
3264.682	1207.25
3267.751	1204.25
3270.818	1181.25
3273.882	1170.25
3276.943	1155.25
3280.002	1153.25
3283.059	1139.25
3286.113	1141.25
3289.165	1128.25
3292.214	1093.25
3295.261	1104.25
3298.306	1069.25
3301.348	1053.25
3304.387	1042.25
3307.425	1018.25
3310.459	1009.25
3313.492	1004.25
3316.521	992.25
3319.549	993.25
3322.574	958.25
3325.597	976.25
3328.617	955.25
3331.635	946.25
3334.65	947.25
3337.663	943.25
3340.674	921.25
3343.682	931.25
3346.688	919.25
3349.691	916.25
3352.692	919.25
3355.691	916.25
3358.687	916.25
3361.681	901.25
3364.673	897.25
3367.662	882.25
3370.649	868.25
3373.633	865.25
3376.615	864.25
3379.595	837.25
3382.572	837.25
3385.547	816.25
3388.52	814.25
3391.49	802.25
3394.458	777.25
3397.424	782.25
3400.387	755.25
3403.348	758.25
3406.307	751.25
3409.263	738.25
3412.217	737.25
3415.168	718.25
3418.118	713.25
3421.065	718.25
3424.009	698.25
3426.951	691.25
3429.891	683.25
3432.829	669.25
3435.764	660.25
3438.697	634.25
3441.628	622.25
3444.557	623.25
3447.483	599.25
3450.407	580.25
3453.328	568.25
3456.247	553.25
3459.164	543.25
3462.079	527.25
3464.991	503.25
3467.902	494.25
3470.809	481.25
3473.715	457.25
3476.618	447.25
3479.519	425.25
3482.418	418.25
3485.315	409.25
3488.209	397.25
3491.101	388.25
3493.99	374.25
3496.878	358.25
3499.763	362.25
3502.646	332.25
3505.527	331.25
3508.405	324.25
3511.281	302.25
3514.155	287.25
3517.027	281.25
3519.897	260.25
3522.764	256.25
3525.629	242.25
3528.492	237.25
3531.352	223.25
3534.211	206.25
3537.067	197.25
3539.921	186.25
3542.773	181.25
3545.622	165.25
3548.469	152.25
3551.315	142.25
3554.157	139.25
3556.998	126.25
3559.837	110.25
3562.673	120.25
3565.507	104.25
3568.339	102.25
3571.169	86.25
3573.996	89.25
3576.822	83.25
3579.645	77.25
3582.466	70.25
3585.285	64.25
3588.101	52.25
3590.916	51.25
3593.728	41.25
3596.538	45.25
3599.346	38.25
3602.152	35.25
3604.956	21.25
3607.757	18.25
3610.556	9.25
3613.354	-0.75
3616.149	7.25
3618.942	6.25
3621.732	0.25
3624.521	-3.75
3627.307	-0.75
3630.092	-9.75
3632.874	-8.75
3635.654	-25.75
3638.432	-20.75
3641.208	-24.75
3643.982	-29.75
3646.753	-28.75
3649.523	-30.75
3652.29	-36.75
3655.055	-36.75
3657.818	-36.75
3660.579	-40.75
3663.338	-43.75
3666.095	-52.75
3668.849	-54.75
3671.602	-56.75
3674.352	-60.75
3677.101	-59.75
3679.847	-58.75
3682.591	-68.75
3685.333	-63.75
3688.073	-67.75
3690.811	-67.75
3693.547	-73.75
3696.281	-70.75
3699.013	-72.75
3701.742	-77.75
3704.47	-77.75
3707.195	-80.75
3709.919	-72.75
3712.64	-82.75
3715.359	-83.75
3718.076	-81.75
3720.792	-80.75
3723.505	-87.75
3726.216	-82.75
3728.925	-89.75
3731.632	-92.75
3734.336	-93.75
3737.039	-92.75
3739.74	-91.75
3742.439	-90.75
3745.136	-90.75
3747.83	-96.75
3750.523	-93.75
3753.213	-93.75
3755.902	-93.75
3758.589	-94.75
3761.273	-92.75
3763.956	-93.75
3766.636	-98.75
3769.315	-94.75
3771.991	-94.75
3774.665	-97.75
3777.338	-101.75
3780.008	-99.75
3782.677	-102.75
3785.343	-104.75
3788.007	-101.75
3790.67	-103.75
3793.33	-100.75
3795.989	-102.75
3798.645	-98.75
3801.299	-98.75
3803.952	-106.75
3806.602	-98.75
3809.251	-101.75
3811.897	-103.75
3814.542	-104.75
3817.184	-105.75
3819.825	-101.75
3822.463	-102.75
3825.1	-104.75
3827.735	-103.75
3830.367	-102.75
3832.998	-104.75
3835.627	-102.75
3838.253	-105.75
3840.878	-106.75
3843.501	-106.75
3846.122	-105.75
3848.741	-103.75
3851.358	-110.75
3853.973	-108.75
3856.586	-103.75
3859.197	-105.75
3861.806	-105.75
3864.414	-104.75
3867.019	-109.75
3869.622	-105.75
3872.224	-111.75
3874.823	-108.75
3877.421	-104.75
3880.016	-100.75
3882.61	-98.75
3885.202	-97.75
3887.792	-96.75
3890.38	-105.75
3892.966	-108.75
3895.55	-110.75
3898.132	-107.75
3900.713	-106.75
3903.291	-110.75
3905.868	-108.75
3908.442	-107.75
3911.015	-110.75
3913.586	-110.75
3916.155	-106.75
3918.722	-112.75
3921.287	-109.75
3923.85	-113.75
3926.411	-113.75
3928.971	-109.75
3931.528	-111.75
3934.084	-109.75
3936.638	-107.75
3939.19	-109.75
3941.74	-108.75
3944.288	-116.75
3946.834	-108.75
3949.378	-109.75
3951.921	-108.75
3954.462	-111.75
3957	-110.75
3959.537	-113.75
3962.072	-109.75
3964.606	-110.75
3967.137	-108.75
3969.667	-111.75
3972.194	-109.75
3974.72	-109.75
3977.244	-109.75
3979.766	-109.75
3982.286	-102.75
3984.805	-107.75
3987.321	-109.75
3989.836	-110.75
3992.349	-111.75
3994.86	-111.75
3997.369	-110.75
3999.877	-114.75
4002.382	-108.75
4004.886	-109.75
4007.388	-108.75
4009.888	-107.75
4012.386	-104.75
4014.883	-107.75
4017.377	-111.75
4019.87	-111.75
4022.361	-113.75
4024.85	-111.75
4027.338	-111.75
4029.823	-109.75
4032.307	-107.75
4034.789	-106.75
4037.269	-108.75
4039.747	-110.75
4042.224	-109.75
4044.699	-111.75
4047.172	-111.75
4049.643	-111.75
4052.112	-114.75
4054.58	-115.75
4057.046	-115.75
4059.51	-111.75
4061.972	-111.75
4064.432	-110.75
4066.891	-112.75
4069.348	-109.75
4071.803	-113.75
4074.256	-112.75
4076.708	-110.75
4079.158	-116.75
4081.606	-115.75
4084.052	-107.75
4086.497	-114.75
4088.939	-110.75
4091.38	-110.75
4093.819	-109.75
4096.257	-118.75
4098.693	-112.75
4101.127	-114.75
4103.559	-115.75
4105.989	-73.75
4108.418	-74.75
4110.845	-74.75
4113.27	-67.75
4115.694	-60.75
4118.115	-49.75
4120.535	-105.75
4122.954	-112.75
4125.37	-114.75
4127.785	-110.75
4130.198	-112.75
4132.609	-114.75
4135.019	-115.75
4137.427	-116.75
4139.833	-112.75
4142.237	-116.75
