Data from 10CFU1_B_RamanShift_1.txt Node
Date: Tue Jan 31 14:20:07 IST 2017
User: aro
Spectrometer: QEPB0276
Trigger mode: 0
Integration Time (sec): 5.000000E0
Scans to average: 1
Electric dark correction enabled: true
Nonlinearity correction enabled: false
Boxcar width: 0
XAxis mode: Raman Shifts
Number of Pixels in Spectrum: 1044
>>>>>Begin Spectral Data<<<<<
160.701	-39.38
166.742	-3.38
172.777	97.62
178.805	405.62
184.826	1099.62
190.841	2234.62
196.849	3526.62
202.85	4290.62
208.845	4461.62
214.833	4346.62
220.815	4195.62
226.789	4019.62
232.758	3971.62
238.719	3801.62
244.674	3684.62
250.623	3495.62
256.565	3348.62
262.5	3193.62
268.429	3055.62
274.351	2908.62
280.267	2781.62
286.176	2700.62
292.079	2617.62
297.975	2513.62
303.865	2437.62
309.748	2359.62
315.625	2328.62
321.495	2267.62
327.359	2213.62
333.217	2202.62
339.068	2202.62
344.912	2188.62
350.751	2173.62
356.583	2173.62
362.408	2146.62
368.227	2166.62
374.04	2167.62
379.847	2204.62
385.647	2206.62
391.44	2208.62
397.228	2212.62
403.009	2239.62
408.784	2236.62
414.553	2265.62
420.315	2249.62
426.071	2271.62
431.821	2243.62
437.565	2227.62
443.302	2234.62
449.033	2229.62
454.758	2219.62
460.477	2207.62
466.189	2200.62
471.896	2177.62
477.596	2173.62
483.29	2165.62
488.978	2157.62
494.66	2168.62
500.335	2113.62
506.005	2067.62
511.668	2047.62
517.325	1993.62
522.977	1992.62
528.622	1960.62
534.261	1920.62
539.894	1896.62
545.521	1896.62
551.141	1878.62
556.756	1867.62
562.365	1864.62
567.968	1832.62
573.565	1834.62
579.155	1819.62
584.74	1802.62
590.319	1787.62
595.892	1790.62
601.459	1758.62
607.02	1761.62
612.575	1758.62
618.124	1713.62
623.667	1724.62
629.204	1715.62
634.735	1690.62
640.261	1666.62
645.781	1660.62
651.294	1656.62
656.802	1642.62
662.304	1624.62
667.8	1625.62
673.29	1623.62
678.775	1618.62
684.254	1603.62
689.726	1601.62
695.193	1594.62
700.655	1588.62
706.11	1571.62
711.56	1553.62
717.004	1546.62
722.442	1554.62
727.874	1523.62
733.301	1524.62
738.722	1507.62
744.137	1497.62
749.547	1489.62
754.951	1485.62
760.349	1488.62
765.741	1478.62
771.128	1486.62
776.509	1495.62
781.885	1505.62
787.254	1482.62
792.618	1496.62
797.977	1489.62
803.33	1451.62
808.677	1461.62
814.019	1432.62
819.355	1425.62
824.686	1413.62
830.011	1410.62
835.33	1389.62
840.644	1376.62
845.952	1383.62
851.255	1354.62
856.552	1351.62
861.844	1351.62
867.13	1346.62
872.41	1331.62
877.686	1298.62
882.955	1317.62
888.219	1290.62
893.478	1273.62
898.731	1256.62
903.979	1247.62
909.221	1221.62
914.458	1207.62
919.69	1194.62
924.916	1187.62
930.136	1175.62
935.351	1192.62
940.561	1190.62
945.766	1194.62
950.965	1166.62
956.158	1174.62
961.347	1179.62
966.529	1143.62
971.707	1150.62
976.879	1128.62
982.046	1124.62
987.208	1100.62
992.364	1095.62
997.515	1087.62
1002.66	1088.62
1007.801	1102.62
1012.936	1129.62
1018.066	1137.62
1023.19	1135.62
1028.309	1134.62
1033.423	1138.62
1038.532	1141.62
1043.636	1142.62
1048.734	1123.62
1053.827	1108.62
1058.915	1106.62
1063.998	1107.62
1069.075	1091.62
1074.147	1090.62
1079.214	1086.62
1084.276	1105.62
1089.333	1094.62
1094.385	1107.62
1099.431	1125.62
1104.472	1133.62
1109.509	1109.62
1114.54	1106.62
1119.565	1102.62
1124.586	1085.62
1129.602	1069.62
1134.613	1063.62
1139.618	1054.62
1144.619	1054.62
1149.614	1077.62
1154.604	1058.62
1159.589	1068.62
1164.57	1064.62
1169.545	1091.62
1174.515	1081.62
1179.48	1081.62
1184.44	1071.62
1189.395	1084.62
1194.345	1077.62
1199.29	1073.62
1204.23	1060.62
1209.165	1069.62
1214.095	1068.62
1219.021	1084.62
1223.941	1085.62
1228.856	1090.62
1233.766	1088.62
1238.672	1100.62
1243.572	1100.62
1248.467	1085.62
1253.358	1097.62
1258.244	1083.62
1263.124	1057.62
1268	1048.62
1272.871	1051.62
1277.737	1014.62
1282.599	1005.62
1287.455	1014.62
1292.306	1017.62
1297.153	1026.62
1301.995	1030.62
1306.832	1049.62
1311.664	1041.62
1316.491	1044.62
1321.314	1051.62
1326.132	1060.62
1330.945	1036.62
1335.753	1027.62
1340.556	999.62
1345.354	1003.62
1350.148	987.62
1354.937	982.62
1359.722	969.62
1364.501	956.62
1369.276	940.62
1374.046	929.62
1378.811	940.62
1383.572	934.62
1388.327	931.62
1393.079	941.62
1397.825	932.62
1402.567	940.62
1407.304	928.62
1412.036	921.62
1416.764	910.62
1421.487	909.62
1426.205	925.62
1430.919	917.62
1435.628	935.62
1440.333	939.62
1445.032	966.62
1449.727	957.62
1454.418	968.62
1459.104	970.62
1463.785	969.62
1468.462	965.62
1473.134	961.62
1477.802	946.62
1482.465	944.62
1487.123	935.62
1491.777	932.62
1496.426	934.62
1501.071	934.62
1505.711	956.62
1510.347	963.62
1514.978	972.62
1519.604	974.62
1524.226	982.62
1528.844	982.62
1533.457	984.62
1538.065	987.62
1542.669	981.62
1547.269	981.62
1551.864	977.62
1556.454	992.62
1561.041	990.62
1565.622	1012.62
1570.199	1030.62
1574.772	1024.62
1579.34	1062.62
1583.904	1086.62
1588.464	1107.62
1593.019	1122.62
1597.569	1126.62
1602.115	1147.62
1606.657	1173.62
1611.195	1154.62
1615.728	1194.62
1620.256	1196.62
1624.78	1207.62
1629.3	1231.62
1633.816	1241.62
1638.327	1262.62
1642.834	1276.62
1647.336	1287.62
1651.834	1293.62
1656.328	1298.62
1660.817	1290.62
1665.302	1283.62
1669.783	1238.62
1674.259	1220.62
1678.732	1173.62
1683.199	1140.62
1687.663	1102.62
1692.122	1064.62
1696.577	1019.62
1701.028	958.62
1705.474	928.62
1709.917	888.62
1714.355	859.62
1718.788	854.62
1723.218	834.62
1727.643	817.62
1732.064	807.62
1736.481	794.62
1740.893	788.62
1745.301	750.62
1749.705	733.62
1754.105	706.62
1758.501	698.62
1762.893	677.62
1767.28	671.62
1771.663	674.62
1776.042	653.62
1780.417	660.62
1784.787	675.62
1789.154	671.62
1793.516	666.62
1797.874	654.62
1802.228	642.62
1806.578	629.62
1810.924	626.62
1815.266	623.62
1819.603	605.62
1823.937	597.62
1828.266	607.62
1832.591	593.62
1836.913	589.62
1841.23	584.62
1845.543	594.62
1849.852	589.62
1854.156	583.62
1858.457	583.62
1862.754	576.62
1867.047	598.62
1871.335	600.62
1875.62	603.62
1879.9	615.62
1884.177	612.62
1888.449	606.62
1892.718	597.62
1896.982	596.62
1901.243	608.62
1905.499	594.62
1909.752	594.62
1914	597.62
1918.245	594.62
1922.485	599.62
1926.722	595.62
1930.954	614.62
1935.183	594.62
1939.408	606.62
1943.628	589.62
1947.845	602.62
1952.058	595.62
1956.267	606.62
1960.472	594.62
1964.673	588.62
1968.87	594.62
1973.063	581.62
1977.252	577.62
1981.438	574.62
1985.619	575.62
1989.797	565.62
1993.971	561.62
1998.14	557.62
2002.306	566.62
2006.469	572.62
2010.627	575.62
2014.781	591.62
2018.932	584.62
2023.078	589.62
2027.221	595.62
2031.36	582.62
2035.495	580.62
2039.627	555.62
2043.754	552.62
2047.878	563.62
2051.998	557.62
2056.114	568.62
2060.226	561.62
2064.334	568.62
2068.439	580.62
2072.54	584.62
2076.637	589.62
2080.73	572.62
2084.82	595.62
2088.906	594.62
2092.988	577.62
2097.066	592.62
2101.14	581.62
2105.211	563.62
2109.278	591.62
2113.342	566.62
2117.401	574.62
2121.457	559.62
2125.509	562.62
2129.558	564.62
2133.602	541.62
2137.643	553.62
2141.681	548.62
2145.714	543.62
2149.744	543.62
2153.77	543.62
2157.793	538.62
2161.812	534.62
2165.827	524.62
2169.838	523.62
2173.846	512.62
2177.851	513.62
2181.851	498.62
2185.848	496.62
2189.841	487.62
2193.831	484.62
2197.817	482.62
2201.799	481.62
2205.778	465.62
2209.753	478.62
2213.725	476.62
2217.693	470.62
2221.657	476.62
2225.618	473.62
2229.575	464.62
2233.529	468.62
2237.479	468.62
2241.425	457.62
2245.368	452.62
2249.307	438.62
2253.243	432.62
2257.175	429.62
2261.104	429.62
2265.029	425.62
2268.95	406.62
2272.868	408.62
2276.783	395.62
2280.694	392.62
2284.601	387.62
2288.505	402.62
2292.405	379.62
2296.302	381.62
2300.195	369.62
2304.085	372.62
2307.971	361.62
2311.854	367.62
2315.734	347.62
2319.609	338.62
2323.482	336.62
2327.351	330.62
2331.216	328.62
2335.078	324.62
2338.937	327.62
2342.792	324.62
2346.643	323.62
2350.492	319.62
2354.336	316.62
2358.178	322.62
2362.015	327.62
2365.85	329.62
2369.681	320.62
2373.508	328.62
2377.333	318.62
2381.153	317.62
2384.971	314.62
2388.785	323.62
2392.595	317.62
2396.402	324.62
2400.206	320.62
2404.007	326.62
2407.804	304.62
2411.597	301.62
2415.388	305.62
2419.174	306.62
2422.958	289.62
2426.738	304.62
2430.515	303.62
2434.289	305.62
2438.059	300.62
2441.825	302.62
2445.589	296.62
2449.349	301.62
2453.106	286.62
2456.859	285.62
2460.61	281.62
2464.356	283.62
2468.1	269.62
2471.84	279.62
2475.577	283.62
2479.311	282.62
2483.041	270.62
2486.768	283.62
2490.492	278.62
2494.213	284.62
2497.93	276.62
2501.644	274.62
2505.355	269.62
2509.062	280.62
2512.766	273.62
2516.467	272.62
2520.165	276.62
2523.859	271.62
2527.551	272.62
2531.239	268.62
2534.923	274.62
2538.605	271.62
2542.283	263.62
2545.958	255.62
2549.63	256.62
2553.299	245.62
2556.964	253.62
2560.626	260.62
2564.285	251.62
2567.941	249.62
2571.594	248.62
2575.243	255.62
2578.89	243.62
2582.533	245.62
2586.173	237.62
2589.809	234.62
2593.443	240.62
2597.073	222.62
2600.701	232.62
2604.325	232.62
2607.946	229.62
2611.564	236.62
2615.178	231.62
2618.79	226.62
2622.398	221.62
2626.004	212.62
2629.606	218.62
2633.205	212.62
2636.801	214.62
2640.394	216.62
2643.983	215.62
2647.57	213.62
2651.153	211.62
2654.734	211.62
2658.311	205.62
2661.885	199.62
2665.456	199.62
2669.025	198.62
2672.589	203.62
2676.151	202.62
2679.71	188.62
2683.266	199.62
2686.819	188.62
2690.368	190.62
2693.915	191.62
2697.458	197.62
2700.999	181.62
2704.536	181.62
2708.071	174.62
2711.602	173.62
2715.13	179.62
2718.656	181.62
2722.178	178.62
2725.697	181.62
2729.214	175.62
2732.727	184.62
2736.237	173.62
2739.744	182.62
2743.249	186.62
2746.75	192.62
2750.248	181.62
2753.743	170.62
2757.236	186.62
2760.725	177.62
2764.211	177.62
2767.695	182.62
2771.175	170.62
2774.652	179.62
2778.127	175.62
2781.598	168.62
2785.067	173.62
2788.532	181.62
2791.995	182.62
2795.455	182.62
2798.911	176.62
2802.365	169.62
2805.816	186.62
2809.264	174.62
2812.709	184.62
2816.151	178.62
2819.59	184.62
2823.026	188.62
2826.46	192.62
2829.89	179.62
2833.318	186.62
2836.742	189.62
2840.164	193.62
2843.583	189.62
2846.999	195.62
2850.412	189.62
2853.822	196.62
2857.229	199.62
2860.634	201.62
2864.035	200.62
2867.434	212.62
2870.83	219.62
2874.223	213.62
2877.613	223.62
2881	217.62
2884.385	219.62
2887.766	218.62
2891.145	216.62
2894.521	218.62
2897.894	228.62
2901.264	217.62
2904.631	235.62
2907.996	231.62
2911.358	233.62
2914.717	238.62
2918.073	229.62
2921.426	242.62
2924.777	245.62
2928.124	248.62
2931.469	256.62
2934.811	261.62
2938.15	276.62
2941.487	277.62
2944.821	283.62
2948.152	290.62
2951.48	297.62
2954.805	293.62
2958.128	292.62
2961.447	299.62
2964.765	308.62
2968.079	306.62
2971.39	314.62
2974.699	335.62
2978.005	339.62
2981.308	351.62
2984.609	369.62
2987.907	364.62
2991.202	375.62
2994.494	384.62
2997.784	394.62
3001.07	410.62
3004.355	422.62
3007.636	435.62
3010.915	448.62
3014.191	450.62
3017.464	469.62
3020.734	471.62
3024.002	483.62
3027.267	492.62
3030.53	497.62
3033.789	509.62
3037.046	524.62
3040.301	530.62
3043.552	550.62
3046.801	557.62
3050.048	575.62
3053.291	596.62
3056.532	611.62
3059.771	619.62
3063.006	640.62
3066.239	666.62
3069.469	687.62
3072.697	717.62
3075.922	740.62
3079.144	755.62
3082.364	761.62
3085.581	795.62
3088.795	813.62
3092.007	822.62
3095.216	846.62
3098.423	863.62
3101.627	887.62
3104.828	920.62
3108.026	927.62
3111.222	950.62
3114.416	956.62
3117.607	1000.62
3120.795	1025.62
3123.98	1034.62
3127.163	1068.62
3130.344	1092.62
3133.521	1112.62
3136.696	1139.62
3139.869	1144.62
3143.039	1193.62
3146.206	1210.62
3149.371	1223.62
3152.533	1227.62
3155.693	1258.62
3158.85	1264.62
3162.005	1262.62
3165.157	1272.62
3168.306	1277.62
3171.453	1268.62
3174.597	1291.62
3177.739	1285.62
3180.878	1287.62
3184.014	1284.62
3187.149	1280.62
3190.28	1321.62
3193.409	1302.62
3196.536	1318.62
3199.659	1332.62
3202.781	1340.62
3205.9	1336.62
3209.016	1339.62
3212.13	1334.62
3215.241	1324.62
3218.35	1322.62
3221.456	1317.62
3224.56	1310.62
3227.661	1301.62
3230.76	1284.62
3233.856	1283.62
3236.95	1271.62
3240.041	1251.62
3243.13	1241.62
3246.216	1222.62
3249.3	1205.62
3252.382	1208.62
3255.46	1197.62
3258.537	1191.62
3261.611	1176.62
3264.682	1191.62
3267.751	1169.62
3270.818	1176.62
3273.882	1159.62
3276.943	1159.62
3280.002	1150.62
3283.059	1123.62
3286.113	1117.62
3289.165	1097.62
3292.214	1092.62
3295.261	1078.62
3298.306	1057.62
3301.348	1053.62
3304.387	1033.62
3307.425	1022.62
3310.459	1002.62
3313.492	985.62
3316.521	994.62
3319.549	964.62
3322.574	957.62
3325.597	956.62
3328.617	953.62
3331.635	930.62
3334.65	942.62
3337.663	937.62
3340.674	919.62
3343.682	919.62
3346.688	933.62
3349.691	921.62
3352.692	917.62
3355.691	916.62
3358.687	903.62
3361.681	897.62
3364.673	891.62
3367.662	864.62
3370.649	857.62
3373.633	857.62
3376.615	839.62
3379.595	829.62
3382.572	830.62
3385.547	813.62
3388.52	803.62
3391.49	787.62
3394.458	781.62
3397.424	763.62
3400.387	763.62
3403.348	756.62
3406.307	742.62
3409.263	730.62
3412.217	730.62
3415.168	713.62
3418.118	706.62
3421.065	713.62
3424.009	694.62
3426.951	680.62
3429.891	665.62
3432.829	668.62
3435.764	644.62
3438.697	636.62
3441.628	626.62
3444.557	607.62
3447.483	589.62
3450.407	572.62
3453.328	568.62
3456.247	552.62
3459.164	525.62
3462.079	509.62
3464.991	497.62
3467.902	483.62
3470.809	465.62
3473.715	449.62
3476.618	430.62
3479.519	421.62
3482.418	416.62
3485.315	407.62
3488.209	387.62
3491.101	374.62
3493.99	370.62
3496.878	366.62
3499.763	342.62
3502.646	333.62
3505.527	324.62
3508.405	314.62
3511.281	295.62
3514.155	289.62
3517.027	275.62
3519.897	269.62
3522.764	248.62
3525.629	235.62
3528.492	229.62
3531.352	218.62
3534.211	203.62
3537.067	184.62
3539.921	174.62
3542.773	170.62
3545.622	156.62
3548.469	144.62
3551.315	136.62
3554.157	138.62
3556.998	116.62
3559.837	117.62
3562.673	99.62
3565.507	102.62
3568.339	90.62
3571.169	85.62
3573.996	78.62
3576.822	76.62
3579.645	67.62
3582.466	64.62
3585.285	56.62
3588.101	48.62
3590.916	47.62
3593.728	41.62
3596.538	34.62
3599.346	30.62
3602.152	22.62
3604.956	25.62
3607.757	12.62
3610.556	8.62
3613.354	5.62
3616.149	-0.38
3618.942	-1.38
3621.732	-8.38
3624.521	-6.38
3627.307	-8.38
3630.092	-17.38
3632.874	-16.38
3635.654	-24.38
3638.432	-25.38
3641.208	-29.38
3643.982	-32.38
3646.753	-32.38
3649.523	-35.38
3652.29	-40.38
3655.055	-44.38
3657.818	-38.38
3660.579	-44.38
3663.338	-51.38
3666.095	-56.38
3668.849	-58.38
3671.602	-62.38
3674.352	-59.38
3677.101	-61.38
3679.847	-63.38
3682.591	-66.38
3685.333	-67.38
3688.073	-65.38
3690.811	-73.38
3693.547	-74.38
3696.281	-74.38
3699.013	-78.38
3701.742	-81.38
3704.47	-83.38
3707.195	-83.38
3709.919	-77.38
3712.64	-89.38
3715.359	-86.38
3718.076	-82.38
3720.792	-84.38
3723.505	-83.38
3726.216	-86.38
3728.925	-91.38
3731.632	-89.38
3734.336	-92.38
3737.039	-97.38
3739.74	-95.38
3742.439	-96.38
3745.136	-97.38
3747.83	-96.38
3750.523	-93.38
3753.213	-96.38
3755.902	-95.38
3758.589	-99.38
3761.273	-96.38
3763.956	-98.38
3766.636	-104.38
3769.315	-98.38
3771.991	-100.38
3774.665	-100.38
3777.338	-99.38
3780.008	-98.38
3782.677	-99.38
3785.343	-104.38
3788.007	-101.38
3790.67	-104.38
3793.33	-106.38
3795.989	-106.38
3798.645	-104.38
3801.299	-99.38
3803.952	-109.38
3806.602	-103.38
3809.251	-105.38
3811.897	-107.38
3814.542	-104.38
3817.184	-101.38
3819.825	-104.38
3822.463	-105.38
3825.1	-107.38
3827.735	-108.38
3830.367	-106.38
3832.998	-107.38
3835.627	-107.38
3838.253	-104.38
3840.878	-106.38
3843.501	-110.38
3846.122	-107.38
3848.741	-106.38
3851.358	-111.38
3853.973	-108.38
3856.586	-106.38
3859.197	-108.38
3861.806	-109.38
3864.414	-107.38
3867.019	-111.38
3869.622	-107.38
3872.224	-110.38
3874.823	-108.38
3877.421	-105.38
3880.016	-100.38
3882.61	-101.38
3885.202	-101.38
3887.792	-95.38
3890.38	-103.38
3892.966	-108.38
3895.55	-111.38
3898.132	-115.38
3900.713	-108.38
3903.291	-113.38
3905.868	-111.38
3908.442	-114.38
3911.015	-111.38
3913.586	-111.38
3916.155	-107.38
3918.722	-111.38
3921.287	-110.38
3923.85	-114.38
3926.411	-110.38
3928.971	-110.38
3931.528	-116.38
3934.084	-112.38
3936.638	-110.38
3939.19	-114.38
3941.74	-109.38
3944.288	-114.38
3946.834	-111.38
3949.378	-110.38
3951.921	-114.38
3954.462	-110.38
3957	-114.38
3959.537	-116.38
3962.072	-114.38
3964.606	-115.38
3967.137	-110.38
3969.667	-111.38
3972.194	-111.38
3974.72	-105.38
3977.244	-108.38
3979.766	-111.38
3982.286	-107.38
3984.805	-117.38
3987.321	-114.38
3989.836	-113.38
3992.349	-112.38
3994.86	-109.38
3997.369	-109.38
3999.877	-113.38
4002.382	-108.38
4004.886	-109.38
4007.388	-112.38
4009.888	-109.38
4012.386	-111.38
4014.883	-108.38
4017.377	-112.38
4019.87	-113.38
4022.361	-116.38
4024.85	-114.38
4027.338	-115.38
4029.823	-108.38
4032.307	-109.38
4034.789	-108.38
4037.269	-108.38
4039.747	-108.38
4042.224	-111.38
4044.699	-118.38
4047.172	-115.38
4049.643	-113.38
4052.112	-115.38
4054.58	-114.38
4057.046	-111.38
4059.51	-112.38
4061.972	-112.38
4064.432	-111.38
4066.891	-114.38
4069.348	-110.38
4071.803	-115.38
4074.256	-118.38
4076.708	-116.38
4079.158	-118.38
4081.606	-115.38
4084.052	-109.38
4086.497	-115.38
4088.939	-113.38
4091.38	-113.38
4093.819	-112.38
4096.257	-113.38
4098.693	-114.38
4101.127	-116.38
4103.559	-117.38
4105.989	-77.38
4108.418	-72.38
4110.845	-76.38
4113.27	-68.38
4115.694	-57.38
4118.115	-51.38
4120.535	-111.38
4122.954	-117.38
4125.37	-113.38
4127.785	-114.38
4130.198	-113.38
4132.609	-116.38
4135.019	-114.38
4137.427	-114.38
4139.833	-116.38
4142.237	-115.38
