Data from 1CFU1_B_RamanShift_1.txt Node
Date: Tue Jan 31 14:15:47 IST 2017
User: aro
Spectrometer: QEPB0276
Trigger mode: 0
Integration Time (sec): 5.000000E0
Scans to average: 1
Electric dark correction enabled: true
Nonlinearity correction enabled: false
Boxcar width: 0
XAxis mode: Raman Shifts
Number of Pixels in Spectrum: 1044
>>>>>Begin Spectral Data<<<<<
160.701	-35.75
166.742	-0.75
172.777	97.25
178.805	402.25
184.826	1106.25
190.841	2259.25
196.849	3496.25
202.85	4270.25
208.845	4466.25
214.833	4316.25
220.815	4157.25
226.789	3996.25
232.758	3939.25
238.719	3822.25
244.674	3658.25
250.623	3493.25
256.565	3351.25
262.5	3170.25
268.429	3045.25
274.351	2905.25
280.267	2786.25
286.176	2689.25
292.079	2615.25
297.975	2500.25
303.865	2439.25
309.748	2364.25
315.625	2312.25
321.495	2256.25
327.359	2223.25
333.217	2197.25
339.068	2189.25
344.912	2184.25
350.751	2147.25
356.583	2179.25
362.408	2157.25
368.227	2155.25
374.04	2167.25
379.847	2173.25
385.647	2182.25
391.44	2183.25
397.228	2218.25
403.009	2220.25
408.784	2253.25
414.553	2239.25
420.315	2236.25
426.071	2246.25
431.821	2237.25
437.565	2222.25
443.302	2204.25
449.033	2228.25
454.758	2207.25
460.477	2196.25
466.189	2170.25
471.896	2167.25
477.596	2176.25
483.29	2154.25
488.978	2160.25
494.66	2144.25
500.335	2116.25
506.005	2077.25
511.668	2033.25
517.325	2002.25
522.977	1975.25
528.622	1951.25
534.261	1940.25
539.894	1909.25
545.521	1885.25
551.141	1873.25
556.756	1873.25
562.365	1864.25
567.968	1838.25
573.565	1832.25
579.155	1818.25
584.74	1816.25
590.319	1791.25
595.892	1783.25
601.459	1757.25
607.02	1756.25
612.575	1752.25
618.124	1721.25
623.667	1701.25
629.204	1717.25
634.735	1684.25
640.261	1666.25
645.781	1669.25
651.294	1644.25
656.802	1648.25
662.304	1637.25
667.8	1625.25
673.29	1614.25
678.775	1616.25
684.254	1602.25
689.726	1606.25
695.193	1593.25
700.655	1572.25
706.11	1589.25
711.56	1563.25
717.004	1565.25
722.442	1546.25
727.874	1530.25
733.301	1528.25
738.722	1501.25
744.137	1520.25
749.547	1514.25
754.951	1503.25
760.349	1500.25
765.741	1496.25
771.128	1481.25
776.509	1500.25
781.885	1511.25
787.254	1499.25
792.618	1505.25
797.977	1480.25
803.33	1491.25
808.677	1466.25
814.019	1459.25
819.355	1431.25
824.686	1407.25
830.011	1415.25
835.33	1403.25
840.644	1395.25
845.952	1399.25
851.255	1382.25
856.552	1373.25
861.844	1343.25
867.13	1340.25
872.41	1351.25
877.686	1343.25
882.955	1335.25
888.219	1308.25
893.478	1279.25
898.731	1262.25
903.979	1248.25
909.221	1230.25
914.458	1225.25
919.69	1211.25
924.916	1216.25
930.136	1210.25
935.351	1200.25
940.561	1222.25
945.766	1204.25
950.965	1193.25
956.158	1181.25
961.347	1168.25
966.529	1159.25
971.707	1142.25
976.879	1133.25
982.046	1121.25
987.208	1107.25
992.364	1097.25
997.515	1087.25
1002.66	1103.25
1007.801	1124.25
1012.936	1131.25
1018.066	1127.25
1023.19	1133.25
1028.309	1151.25
1033.423	1148.25
1038.532	1165.25
1043.636	1144.25
1048.734	1131.25
1053.827	1115.25
1058.915	1109.25
1063.998	1116.25
1069.075	1111.25
1074.147	1090.25
1079.214	1098.25
1084.276	1105.25
1089.333	1119.25
1094.385	1124.25
1099.431	1146.25
1104.472	1142.25
1109.509	1130.25
1114.54	1119.25
1119.565	1123.25
1124.586	1096.25
1129.602	1101.25
1134.613	1074.25
1139.618	1082.25
1144.619	1074.25
1149.614	1073.25
1154.604	1087.25
1159.589	1093.25
1164.57	1076.25
1169.545	1081.25
1174.515	1096.25
1179.48	1110.25
1184.44	1102.25
1189.395	1086.25
1194.345	1082.25
1199.29	1076.25
1204.23	1082.25
1209.165	1086.25
1214.095	1087.25
1219.021	1093.25
1223.941	1102.25
1228.856	1088.25
1233.766	1109.25
1238.672	1111.25
1243.572	1112.25
1248.467	1114.25
1253.358	1097.25
1258.244	1080.25
1263.124	1072.25
1268	1055.25
1272.871	1041.25
1277.737	1028.25
1282.599	1040.25
1287.455	1038.25
1292.306	1037.25
1297.153	1029.25
1301.995	1024.25
1306.832	1056.25
1311.664	1050.25
1316.491	1064.25
1321.314	1065.25
1326.132	1053.25
1330.945	1067.25
1335.753	1041.25
1340.556	1023.25
1345.354	1014.25
1350.148	1009.25
1354.937	981.25
1359.722	986.25
1364.501	972.25
1369.276	977.25
1374.046	954.25
1378.811	974.25
1383.572	951.25
1388.327	963.25
1393.079	953.25
1397.825	951.25
1402.567	947.25
1407.304	946.25
1412.036	936.25
1416.764	920.25
1421.487	936.25
1426.205	932.25
1430.919	929.25
1435.628	938.25
1440.333	960.25
1445.032	967.25
1449.727	971.25
1454.418	972.25
1459.104	991.25
1463.785	970.25
1468.462	977.25
1473.134	953.25
1477.802	964.25
1482.465	946.25
1487.123	949.25
1491.777	949.25
1496.426	953.25
1501.071	954.25
1505.711	948.25
1510.347	969.25
1514.978	981.25
1519.604	986.25
1524.226	994.25
1528.844	1003.25
1533.457	995.25
1538.065	997.25
1542.669	999.25
1547.269	989.25
1551.864	995.25
1556.454	1012.25
1561.041	1018.25
1565.622	1021.25
1570.199	1042.25
1574.772	1053.25
1579.34	1076.25
1583.904	1094.25
1588.464	1105.25
1593.019	1133.25
1597.569	1145.25
1602.115	1158.25
1606.657	1176.25
1611.195	1196.25
1615.728	1201.25
1620.256	1217.25
1624.78	1239.25
1629.3	1243.25
1633.816	1277.25
1638.327	1280.25
1642.834	1289.25
1647.336	1299.25
1651.834	1314.25
1656.328	1293.25
1660.817	1302.25
1665.302	1277.25
1669.783	1253.25
1674.259	1231.25
1678.732	1206.25
1683.199	1168.25
1687.663	1114.25
1692.122	1070.25
1696.577	1019.25
1701.028	975.25
1705.474	947.25
1709.917	902.25
1714.355	882.25
1718.788	874.25
1723.218	859.25
1727.643	844.25
1732.064	820.25
1736.481	801.25
1740.893	780.25
1745.301	774.25
1749.705	734.25
1754.105	717.25
1758.501	713.25
1762.893	688.25
1767.28	692.25
1771.663	675.25
1776.042	675.25
1780.417	666.25
1784.787	678.25
1789.154	675.25
1793.516	676.25
1797.874	676.25
1802.228	671.25
1806.578	666.25
1810.924	644.25
1815.266	635.25
1819.603	617.25
1823.937	625.25
1828.266	621.25
1832.591	617.25
1836.913	603.25
1841.23	617.25
1845.543	607.25
1849.852	591.25
1854.156	605.25
1858.457	600.25
1862.754	608.25
1867.047	608.25
1871.335	617.25
1875.62	625.25
1879.9	623.25
1884.177	622.25
1888.449	628.25
1892.718	626.25
1896.982	625.25
1901.243	623.25
1905.499	600.25
1909.752	615.25
1914	604.25
1918.245	610.25
1922.485	620.25
1926.722	606.25
1930.954	622.25
1935.183	625.25
1939.408	622.25
1943.628	620.25
1947.845	625.25
1952.058	616.25
1956.267	612.25
1960.472	612.25
1964.673	607.25
1968.87	614.25
1973.063	592.25
1977.252	590.25
1981.438	596.25
1985.619	600.25
1989.797	590.25
1993.971	586.25
1998.14	582.25
2002.306	583.25
2006.469	580.25
2010.627	585.25
2014.781	597.25
2018.932	601.25
2023.078	609.25
2027.221	601.25
2031.36	594.25
2035.495	589.25
2039.627	578.25
2043.754	578.25
2047.878	579.25
2051.998	573.25
2056.114	591.25
2060.226	581.25
2064.334	589.25
2068.439	594.25
2072.54	590.25
2076.637	595.25
2080.73	601.25
2084.82	616.25
2088.906	600.25
2092.988	602.25
2097.066	608.25
2101.14	606.25
2105.211	609.25
2109.278	605.25
2113.342	598.25
2117.401	589.25
2121.457	580.25
2125.509	572.25
2129.558	561.25
2133.602	564.25
2137.643	566.25
2141.681	576.25
2145.714	561.25
2149.744	564.25
2153.77	565.25
2157.793	571.25
2161.812	551.25
2165.827	550.25
2169.838	545.25
2173.846	525.25
2177.851	523.25
2181.851	508.25
2185.848	506.25
2189.841	500.25
2193.831	495.25
2197.817	500.25
2201.799	499.25
2205.778	490.25
2209.753	494.25
2213.725	487.25
2217.693	496.25
2221.657	486.25
2225.618	490.25
2229.575	492.25
2233.529	478.25
2237.479	476.25
2241.425	488.25
2245.368	465.25
2249.307	461.25
2253.243	457.25
2257.175	446.25
2261.104	434.25
2265.029	433.25
2268.95	419.25
2272.868	418.25
2276.783	413.25
2280.694	406.25
2284.601	403.25
2288.505	415.25
2292.405	406.25
2296.302	387.25
2300.195	385.25
2304.085	382.25
2307.971	382.25
2311.854	378.25
2315.734	362.25
2319.609	346.25
2323.482	345.25
2327.351	340.25
2331.216	351.25
2335.078	339.25
2338.937	340.25
2342.792	342.25
2346.643	332.25
2350.492	327.25
2354.336	338.25
2358.178	336.25
2362.015	325.25
2365.85	335.25
2369.681	330.25
2373.508	337.25
2377.333	321.25
2381.153	339.25
2384.971	337.25
2388.785	329.25
2392.595	324.25
2396.402	326.25
2400.206	328.25
2404.007	327.25
2407.804	323.25
2411.597	312.25
2415.388	305.25
2419.174	315.25
2422.958	318.25
2426.738	322.25
2430.515	314.25
2434.289	312.25
2438.059	318.25
2441.825	312.25
2445.589	305.25
2449.349	308.25
2453.106	290.25
2456.859	301.25
2460.61	298.25
2464.356	293.25
2468.1	291.25
2471.84	295.25
2475.577	288.25
2479.311	301.25
2483.041	289.25
2486.768	295.25
2490.492	296.25
2494.213	299.25
2497.93	285.25
2501.644	289.25
2505.355	285.25
2509.062	295.25
2512.766	286.25
2516.467	287.25
2520.165	289.25
2523.859	282.25
2527.551	283.25
2531.239	278.25
2534.923	288.25
2538.605	272.25
2542.283	271.25
2545.958	265.25
2549.63	261.25
2553.299	270.25
2556.964	258.25
2560.626	270.25
2564.285	260.25
2567.941	267.25
2571.594	257.25
2575.243	261.25
2578.89	254.25
2582.533	257.25
2586.173	248.25
2589.809	248.25
2593.443	246.25
2597.073	242.25
2600.701	244.25
2604.325	242.25
2607.946	247.25
2611.564	240.25
2615.178	240.25
2618.79	235.25
2622.398	233.25
2626.004	226.25
2629.606	229.25
2633.205	230.25
2636.801	222.25
2640.394	218.25
2643.983	230.25
2647.57	228.25
2651.153	218.25
2654.734	223.25
2658.311	217.25
2661.885	211.25
2665.456	205.25
2669.025	207.25
2672.589	202.25
2676.151	213.25
2679.71	205.25
2683.266	208.25
2686.819	202.25
2690.368	207.25
2693.915	198.25
2697.458	203.25
2700.999	196.25
2704.536	192.25
2708.071	182.25
2711.602	189.25
2715.13	181.25
2718.656	183.25
2722.178	188.25
2725.697	185.25
2729.214	188.25
2732.727	196.25
2736.237	193.25
2739.744	189.25
2743.249	204.25
2746.75	191.25
2750.248	195.25
2753.743	191.25
2757.236	186.25
2760.725	190.25
2764.211	181.25
2767.695	189.25
2771.175	187.25
2774.652	183.25
2778.127	186.25
2781.598	185.25
2785.067	180.25
2788.532	179.25
2791.995	188.25
2795.455	188.25
2798.911	186.25
2802.365	190.25
2805.816	190.25
2809.264	190.25
2812.709	184.25
2816.151	192.25
2819.59	196.25
2823.026	197.25
2826.46	197.25
2829.89	194.25
2833.318	190.25
2836.742	190.25
2840.164	200.25
2843.583	193.25
2846.999	193.25
2850.412	206.25
2853.822	204.25
2857.229	205.25
2860.634	214.25
2864.035	214.25
2867.434	218.25
2870.83	220.25
2874.223	224.25
2877.613	228.25
2881	219.25
2884.385	231.25
2887.766	224.25
2891.145	236.25
2894.521	230.25
2897.894	233.25
2901.264	234.25
2904.631	230.25
2907.996	241.25
2911.358	240.25
2914.717	238.25
2918.073	249.25
2921.426	242.25
2924.777	247.25
2928.124	256.25
2931.469	261.25
2934.811	266.25
2938.15	278.25
2941.487	278.25
2944.821	293.25
2948.152	293.25
2951.48	299.25
2954.805	299.25
2958.128	306.25
2961.447	300.25
2964.765	320.25
2968.079	318.25
2971.39	328.25
2974.699	338.25
2978.005	346.25
2981.308	363.25
2984.609	370.25
2987.907	375.25
2991.202	385.25
2994.494	400.25
2997.784	401.25
3001.07	417.25
3004.355	434.25
3007.636	440.25
3010.915	448.25
3014.191	453.25
3017.464	473.25
3020.734	478.25
3024.002	496.25
3027.267	496.25
3030.53	502.25
3033.789	517.25
3037.046	517.25
3040.301	532.25
3043.552	542.25
3046.801	555.25
3050.048	585.25
3053.291	594.25
3056.532	626.25
3059.771	636.25
3063.006	648.25
3066.239	677.25
3069.469	704.25
3072.697	703.25
3075.922	732.25
3079.144	756.25
3082.364	774.25
3085.581	809.25
3088.795	832.25
3092.007	840.25
3095.216	853.25
3098.423	874.25
3101.627	900.25
3104.828	923.25
3108.026	938.25
3111.222	949.25
3114.416	975.25
3117.607	984.25
3120.795	1016.25
3123.98	1053.25
3127.163	1088.25
3130.344	1097.25
3133.521	1121.25
3136.696	1147.25
3139.869	1164.25
3143.039	1191.25
3146.206	1216.25
3149.371	1229.25
3152.533	1234.25
3155.693	1252.25
3158.85	1272.25
3162.005	1274.25
3165.157	1296.25
3168.306	1276.25
3171.453	1290.25
3174.597	1282.25
3177.739	1302.25
3180.878	1291.25
3184.014	1303.25
3187.149	1313.25
3190.28	1320.25
3193.409	1324.25
3196.536	1318.25
3199.659	1339.25
3202.781	1344.25
3205.9	1344.25
3209.016	1351.25
3212.13	1345.25
3215.241	1340.25
3218.35	1332.25
3221.456	1326.25
3224.56	1321.25
3227.661	1311.25
3230.76	1304.25
3233.856	1288.25
3236.95	1279.25
3240.041	1248.25
3243.13	1250.25
3246.216	1229.25
3249.3	1224.25
3252.382	1222.25
3255.46	1204.25
3258.537	1199.25
3261.611	1192.25
3264.682	1197.25
3267.751	1189.25
3270.818	1179.25
3273.882	1173.25
3276.943	1172.25
3280.002	1157.25
3283.059	1145.25
3286.113	1135.25
3289.165	1125.25
3292.214	1104.25
3295.261	1100.25
3298.306	1086.25
3301.348	1048.25
3304.387	1045.25
3307.425	1043.25
3310.459	1019.25
3313.492	1004.25
3316.521	984.25
3319.549	982.25
3322.574	957.25
3325.597	954.25
3328.617	962.25
3331.635	947.25
3334.65	938.25
3337.663	945.25
3340.674	936.25
3343.682	922.25
3346.688	916.25
3349.691	930.25
3352.692	920.25
3355.691	912.25
3358.687	910.25
3361.681	904.25
3364.673	903.25
3367.662	888.25
3370.649	886.25
3373.633	857.25
3376.615	838.25
3379.595	847.25
3382.572	827.25
3385.547	831.25
3388.52	798.25
3391.49	799.25
3394.458	780.25
3397.424	767.25
3400.387	763.25
3403.348	749.25
3406.307	744.25
3409.263	748.25
3412.217	724.25
3415.168	721.25
3418.118	700.25
3421.065	721.25
3424.009	705.25
3426.951	688.25
3429.891	683.25
3432.829	674.25
3435.764	665.25
3438.697	637.25
3441.628	620.25
3444.557	606.25
3447.483	597.25
3450.407	578.25
3453.328	558.25
3456.247	547.25
3459.164	532.25
3462.079	512.25
3464.991	509.25
3467.902	501.25
3470.809	484.25
3473.715	469.25
3476.618	442.25
3479.519	437.25
3482.418	417.25
3485.315	410.25
3488.209	396.25
3491.101	379.25
3493.99	374.25
3496.878	370.25
3499.763	352.25
3502.646	337.25
3505.527	338.25
3508.405	318.25
3511.281	305.25
3514.155	301.25
3517.027	277.25
3519.897	265.25
3522.764	254.25
3525.629	242.25
3528.492	238.25
3531.352	222.25
3534.211	211.25
3537.067	195.25
3539.921	190.25
3542.773	170.25
3545.622	161.25
3548.469	149.25
3551.315	144.25
3554.157	129.25
3556.998	124.25
3559.837	133.25
3562.673	121.25
3565.507	111.25
3568.339	97.25
3571.169	92.25
3573.996	83.25
3576.822	86.25
3579.645	73.25
3582.466	67.25
3585.285	60.25
3588.101	53.25
3590.916	48.25
3593.728	44.25
3596.538	41.25
3599.346	35.25
3602.152	34.25
3604.956	23.25
3607.757	18.25
3610.556	11.25
3613.354	4.25
3616.149	8.25
3618.942	-3.75
3621.732	0.25
3624.521	0.25
3627.307	-6.75
3630.092	-7.75
3632.874	-13.75
3635.654	-21.75
3638.432	-26.75
3641.208	-22.75
3643.982	-30.75
3646.753	-38.75
3649.523	-31.75
3652.29	-37.75
3655.055	-38.75
3657.818	-35.75
3660.579	-38.75
3663.338	-43.75
3666.095	-50.75
3668.849	-51.75
3671.602	-57.75
3674.352	-56.75
3677.101	-65.75
3679.847	-64.75
3682.591	-68.75
3685.333	-65.75
3688.073	-63.75
3690.811	-67.75
3693.547	-66.75
3696.281	-72.75
3699.013	-70.75
3701.742	-79.75
3704.47	-79.75
3707.195	-77.75
3709.919	-74.75
3712.64	-79.75
3715.359	-84.75
3718.076	-80.75
3720.792	-82.75
3723.505	-82.75
3726.216	-81.75
3728.925	-85.75
3731.632	-88.75
3734.336	-85.75
3737.039	-93.75
3739.74	-97.75
3742.439	-90.75
3745.136	-90.75
3747.83	-94.75
3750.523	-92.75
3753.213	-86.75
3755.902	-93.75
3758.589	-91.75
3761.273	-86.75
3763.956	-94.75
3766.636	-96.75
3769.315	-94.75
3771.991	-96.75
3774.665	-94.75
3777.338	-99.75
3780.008	-100.75
3782.677	-97.75
3785.343	-99.75
3788.007	-94.75
3790.67	-97.75
3793.33	-95.75
3795.989	-98.75
3798.645	-97.75
3801.299	-98.75
3803.952	-104.75
3806.602	-105.75
3809.251	-103.75
3811.897	-103.75
3814.542	-106.75
3817.184	-103.75
3819.825	-99.75
3822.463	-100.75
3825.1	-102.75
3827.735	-98.75
3830.367	-103.75
3832.998	-104.75
3835.627	-104.75
3838.253	-106.75
3840.878	-108.75
3843.501	-103.75
3846.122	-105.75
3848.741	-103.75
3851.358	-108.75
3853.973	-101.75
3856.586	-97.75
3859.197	-102.75
3861.806	-107.75
3864.414	-104.75
3867.019	-107.75
3869.622	-108.75
3872.224	-108.75
3874.823	-105.75
3877.421	-103.75
3880.016	-96.75
3882.61	-93.75
3885.202	-95.75
3887.792	-96.75
3890.38	-101.75
3892.966	-101.75
3895.55	-108.75
3898.132	-111.75
3900.713	-108.75
3903.291	-110.75
3905.868	-105.75
3908.442	-109.75
3911.015	-105.75
3913.586	-113.75
3916.155	-106.75
3918.722	-109.75
3921.287	-109.75
3923.85	-112.75
3926.411	-112.75
3928.971	-110.75
3931.528	-113.75
3934.084	-109.75
3936.638	-105.75
3939.19	-113.75
3941.74	-105.75
3944.288	-107.75
3946.834	-106.75
3949.378	-109.75
3951.921	-105.75
3954.462	-111.75
3957	-110.75
3959.537	-110.75
3962.072	-112.75
3964.606	-114.75
3967.137	-109.75
3969.667	-108.75
3972.194	-107.75
3974.72	-104.75
3977.244	-105.75
3979.766	-108.75
3982.286	-103.75
3984.805	-107.75
3987.321	-108.75
3989.836	-114.75
3992.349	-107.75
3994.86	-108.75
3997.369	-109.75
3999.877	-110.75
4002.382	-104.75
4004.886	-108.75
4007.388	-106.75
4009.888	-106.75
4012.386	-107.75
4014.883	-107.75
4017.377	-110.75
4019.87	-109.75
4022.361	-114.75
4024.85	-112.75
4027.338	-109.75
4029.823	-105.75
4032.307	-107.75
4034.789	-103.75
4037.269	-108.75
4039.747	-107.75
4042.224	-106.75
4044.699	-114.75
4047.172	-113.75
4049.643	-113.75
4052.112	-113.75
4054.58	-114.75
4057.046	-111.75
4059.51	-108.75
4061.972	-107.75
4064.432	-106.75
4066.891	-108.75
4069.348	-106.75
4071.803	-108.75
4074.256	-116.75
4076.708	-108.75
4079.158	-113.75
4081.606	-114.75
4084.052	-105.75
4086.497	-109.75
4088.939	-108.75
4091.38	-106.75
4093.819	-112.75
4096.257	-114.75
4098.693	-111.75
4101.127	-111.75
4103.559	-113.75
4105.989	-73.75
4108.418	-74.75
4110.845	-68.75
4113.27	-67.75
4115.694	-58.75
4118.115	-50.75
4120.535	-108.75
4122.954	-112.75
4125.37	-108.75
4127.785	-111.75
4130.198	-111.75
4132.609	-112.75
4135.019	-116.75
4137.427	-116.75
4139.833	-115.75
4142.237	-113.75
