Data from 1CFU3_A_RamanShift_1.txt Node
Date: Tue Jan 31 15:11:29 IST 2017
User: aro
Spectrometer: QEPB0276
Trigger mode: 0
Integration Time (sec): 5.000000E0
Scans to average: 1
Electric dark correction enabled: true
Nonlinearity correction enabled: false
Boxcar width: 0
XAxis mode: Raman Shifts
Number of Pixels in Spectrum: 1044
>>>>>Begin Spectral Data<<<<<
160.701	-37.38
166.742	0.62
172.777	94.62
178.805	405.62
184.826	1122.62
190.841	2271.62
196.849	3553.62
202.85	4350.62
208.845	4539.62
214.833	4380.62
220.815	4242.62
226.789	4080.62
232.758	3995.62
238.719	3866.62
244.674	3700.62
250.623	3572.62
256.565	3387.62
262.5	3237.62
268.429	3089.62
274.351	2973.62
280.267	2853.62
286.176	2723.62
292.079	2664.62
297.975	2564.62
303.865	2475.62
309.748	2416.62
315.625	2360.62
321.495	2306.62
327.359	2253.62
333.217	2246.62
339.068	2208.62
344.912	2192.62
350.751	2209.62
356.583	2181.62
362.408	2185.62
368.227	2192.62
374.04	2198.62
379.847	2216.62
385.647	2227.62
391.44	2224.62
397.228	2241.62
403.009	2254.62
408.784	2264.62
414.553	2278.62
420.315	2283.62
426.071	2290.62
431.821	2262.62
437.565	2280.62
443.302	2265.62
449.033	2240.62
454.758	2254.62
460.477	2246.62
466.189	2239.62
471.896	2211.62
477.596	2205.62
483.29	2212.62
488.978	2196.62
494.66	2199.62
500.335	2170.62
506.005	2144.62
511.668	2083.62
517.325	2056.62
522.977	2040.62
528.622	2004.62
534.261	1974.62
539.894	1956.62
545.521	1963.62
551.141	1942.62
556.756	1920.62
562.365	1911.62
567.968	1884.62
573.565	1888.62
579.155	1870.62
584.74	1851.62
590.319	1856.62
595.892	1838.62
601.459	1847.62
607.02	1813.62
612.575	1799.62
618.124	1799.62
623.667	1782.62
629.204	1760.62
634.735	1745.62
640.261	1735.62
645.781	1732.62
651.294	1707.62
656.802	1706.62
662.304	1682.62
667.8	1697.62
673.29	1675.62
678.775	1679.62
684.254	1671.62
689.726	1662.62
695.193	1652.62
700.655	1644.62
706.11	1637.62
711.56	1629.62
717.004	1614.62
722.442	1605.62
727.874	1608.62
733.301	1593.62
738.722	1576.62
744.137	1572.62
749.547	1571.62
754.951	1570.62
760.349	1559.62
765.741	1558.62
771.128	1570.62
776.509	1567.62
781.885	1562.62
787.254	1565.62
792.618	1568.62
797.977	1547.62
803.33	1557.62
808.677	1541.62
814.019	1523.62
819.355	1510.62
824.686	1470.62
830.011	1485.62
835.33	1470.62
840.644	1464.62
845.952	1446.62
851.255	1445.62
856.552	1451.62
861.844	1438.62
867.13	1418.62
872.41	1424.62
877.686	1405.62
882.955	1409.62
888.219	1370.62
893.478	1368.62
898.731	1340.62
903.979	1321.62
909.221	1310.62
914.458	1274.62
919.69	1276.62
924.916	1279.62
930.136	1277.62
935.351	1278.62
940.561	1278.62
945.766	1271.62
950.965	1270.62
956.158	1255.62
961.347	1262.62
966.529	1239.62
971.707	1214.62
976.879	1207.62
982.046	1201.62
987.208	1191.62
992.364	1184.62
997.515	1167.62
1002.66	1189.62
1007.801	1192.62
1012.936	1213.62
1018.066	1214.62
1023.19	1226.62
1028.309	1229.62
1033.423	1228.62
1038.532	1235.62
1043.636	1216.62
1048.734	1220.62
1053.827	1196.62
1058.915	1186.62
1063.998	1187.62
1069.075	1184.62
1074.147	1178.62
1079.214	1186.62
1084.276	1175.62
1089.333	1190.62
1094.385	1202.62
1099.431	1199.62
1104.472	1218.62
1109.509	1218.62
1114.54	1200.62
1119.565	1209.62
1124.586	1168.62
1129.602	1153.62
1134.613	1152.62
1139.618	1146.62
1144.619	1146.62
1149.614	1147.62
1154.604	1150.62
1159.589	1173.62
1164.57	1175.62
1169.545	1165.62
1174.515	1172.62
1179.48	1179.62
1184.44	1173.62
1189.395	1177.62
1194.345	1165.62
1199.29	1163.62
1204.23	1168.62
1209.165	1154.62
1214.095	1157.62
1219.021	1181.62
1223.941	1199.62
1228.856	1176.62
1233.766	1187.62
1238.672	1187.62
1243.572	1194.62
1248.467	1194.62
1253.358	1205.62
1258.244	1175.62
1263.124	1157.62
1268	1155.62
1272.871	1143.62
1277.737	1114.62
1282.599	1093.62
1287.455	1103.62
1292.306	1110.62
1297.153	1108.62
1301.995	1123.62
1306.832	1138.62
1311.664	1134.62
1316.491	1148.62
1321.314	1143.62
1326.132	1165.62
1330.945	1145.62
1335.753	1119.62
1340.556	1121.62
1345.354	1103.62
1350.148	1096.62
1354.937	1087.62
1359.722	1067.62
1364.501	1056.62
1369.276	1041.62
1374.046	1034.62
1378.811	1037.62
1383.572	1032.62
1388.327	1038.62
1393.079	1040.62
1397.825	1036.62
1402.567	1022.62
1407.304	1021.62
1412.036	1012.62
1416.764	1013.62
1421.487	1001.62
1426.205	1010.62
1430.919	1023.62
1435.628	1039.62
1440.333	1041.62
1445.032	1056.62
1449.727	1055.62
1454.418	1049.62
1459.104	1059.62
1463.785	1065.62
1468.462	1036.62
1473.134	1048.62
1477.802	1052.62
1482.465	1046.62
1487.123	1046.62
1491.777	1026.62
1496.426	1058.62
1501.071	1046.62
1505.711	1053.62
1510.347	1058.62
1514.978	1069.62
1519.604	1076.62
1524.226	1078.62
1528.844	1095.62
1533.457	1071.62
1538.065	1082.62
1542.669	1089.62
1547.269	1089.62
1551.864	1085.62
1556.454	1087.62
1561.041	1089.62
1565.622	1109.62
1570.199	1116.62
1574.772	1140.62
1579.34	1177.62
1583.904	1172.62
1588.464	1191.62
1593.019	1214.62
1597.569	1235.62
1602.115	1268.62
1606.657	1277.62
1611.195	1261.62
1615.728	1280.62
1620.256	1295.62
1624.78	1319.62
1629.3	1334.62
1633.816	1330.62
1638.327	1364.62
1642.834	1374.62
1647.336	1387.62
1651.834	1382.62
1656.328	1396.62
1660.817	1400.62
1665.302	1357.62
1669.783	1344.62
1674.259	1311.62
1678.732	1272.62
1683.199	1254.62
1687.663	1205.62
1692.122	1167.62
1696.577	1104.62
1701.028	1054.62
1705.474	1013.62
1709.917	984.62
1714.355	959.62
1718.788	932.62
1723.218	939.62
1727.643	922.62
1732.064	897.62
1736.481	883.62
1740.893	868.62
1745.301	845.62
1749.705	818.62
1754.105	798.62
1758.501	776.62
1762.893	766.62
1767.28	755.62
1771.663	745.62
1776.042	757.62
1780.417	751.62
1784.787	750.62
1789.154	752.62
1793.516	748.62
1797.874	752.62
1802.228	738.62
1806.578	727.62
1810.924	712.62
1815.266	709.62
1819.603	703.62
1823.937	684.62
1828.266	691.62
1832.591	683.62
1836.913	687.62
1841.23	682.62
1845.543	674.62
1849.852	670.62
1854.156	686.62
1858.457	672.62
1862.754	673.62
1867.047	686.62
1871.335	689.62
1875.62	686.62
1879.9	699.62
1884.177	700.62
1888.449	694.62
1892.718	705.62
1896.982	694.62
1901.243	693.62
1905.499	675.62
1909.752	676.62
1914	683.62
1918.245	678.62
1922.485	676.62
1926.722	684.62
1930.954	691.62
1935.183	692.62
1939.408	697.62
1943.628	695.62
1947.845	692.62
1952.058	692.62
1956.267	697.62
1960.472	691.62
1964.673	679.62
1968.87	659.62
1973.063	659.62
1977.252	658.62
1981.438	655.62
1985.619	664.62
1989.797	640.62
1993.971	649.62
1998.14	648.62
2002.306	657.62
2006.469	662.62
2010.627	663.62
2014.781	673.62
2018.932	664.62
2023.078	666.62
2027.221	657.62
2031.36	666.62
2035.495	667.62
2039.627	654.62
2043.754	646.62
2047.878	652.62
2051.998	641.62
2056.114	652.62
2060.226	644.62
2064.334	658.62
2068.439	655.62
2072.54	664.62
2076.637	669.62
2080.73	665.62
2084.82	667.62
2088.906	677.62
2092.988	671.62
2097.066	674.62
2101.14	666.62
2105.211	657.62
2109.278	662.62
2113.342	659.62
2117.401	646.62
2121.457	662.62
2125.509	638.62
2129.558	635.62
2133.602	633.62
2137.643	622.62
2141.681	631.62
2145.714	628.62
2149.744	621.62
2153.77	614.62
2157.793	616.62
2161.812	610.62
2165.827	616.62
2169.838	588.62
2173.846	586.62
2177.851	574.62
2181.851	563.62
2185.848	564.62
2189.841	549.62
2193.831	545.62
2197.817	546.62
2201.799	558.62
2205.778	549.62
2209.753	541.62
2213.725	543.62
2217.693	548.62
2221.657	543.62
2225.618	550.62
2229.575	545.62
2233.529	523.62
2237.479	532.62
2241.425	533.62
2245.368	527.62
2249.307	513.62
2253.243	498.62
2257.175	505.62
2261.104	488.62
2265.029	488.62
2268.95	480.62
2272.868	473.62
2276.783	462.62
2280.694	459.62
2284.601	445.62
2288.505	457.62
2292.405	445.62
2296.302	438.62
2300.195	431.62
2304.085	430.62
2307.971	423.62
2311.854	417.62
2315.734	402.62
2319.609	403.62
2323.482	391.62
2327.351	383.62
2331.216	390.62
2335.078	377.62
2338.937	383.62
2342.792	372.62
2346.643	383.62
2350.492	381.62
2354.336	375.62
2358.178	375.62
2362.015	377.62
2365.85	374.62
2369.681	380.62
2373.508	379.62
2377.333	381.62
2381.153	382.62
2384.971	388.62
2388.785	381.62
2392.595	374.62
2396.402	370.62
2400.206	370.62
2404.007	379.62
2407.804	358.62
2411.597	362.62
2415.388	360.62
2419.174	360.62
2422.958	349.62
2426.738	358.62
2430.515	360.62
2434.289	358.62
2438.059	356.62
2441.825	356.62
2445.589	350.62
2449.349	347.62
2453.106	349.62
2456.859	343.62
2460.61	342.62
2464.356	328.62
2468.1	324.62
2471.84	338.62
2475.577	332.62
2479.311	330.62
2483.041	327.62
2486.768	341.62
2490.492	333.62
2494.213	349.62
2497.93	332.62
2501.644	327.62
2505.355	323.62
2509.062	335.62
2512.766	337.62
2516.467	325.62
2520.165	330.62
2523.859	328.62
2527.551	326.62
2531.239	323.62
2534.923	319.62
2538.605	314.62
2542.283	307.62
2545.958	311.62
2549.63	307.62
2553.299	300.62
2556.964	290.62
2560.626	289.62
2564.285	300.62
2567.941	299.62
2571.594	295.62
2575.243	291.62
2578.89	303.62
2582.533	290.62
2586.173	285.62
2589.809	281.62
2593.443	275.62
2597.073	274.62
2600.701	281.62
2604.325	281.62
2607.946	280.62
2611.564	282.62
2615.178	273.62
2618.79	274.62
2622.398	263.62
2626.004	265.62
2629.606	263.62
2633.205	259.62
2636.801	256.62
2640.394	261.62
2643.983	269.62
2647.57	262.62
2651.153	257.62
2654.734	256.62
2658.311	251.62
2661.885	253.62
2665.456	246.62
2669.025	238.62
2672.589	246.62
2676.151	233.62
2679.71	230.62
2683.266	238.62
2686.819	227.62
2690.368	229.62
2693.915	230.62
2697.458	235.62
2700.999	220.62
2704.536	217.62
2708.071	218.62
2711.602	220.62
2715.13	216.62
2718.656	213.62
2722.178	214.62
2725.697	210.62
2729.214	225.62
2732.727	218.62
2736.237	223.62
2739.744	213.62
2743.249	230.62
2746.75	223.62
2750.248	226.62
2753.743	225.62
2757.236	221.62
2760.725	230.62
2764.211	220.62
2767.695	205.62
2771.175	212.62
2774.652	206.62
2778.127	216.62
2781.598	206.62
2785.067	197.62
2788.532	210.62
2791.995	214.62
2795.455	204.62
2798.911	216.62
2802.365	218.62
2805.816	223.62
2809.264	219.62
2812.709	211.62
2816.151	219.62
2819.59	218.62
2823.026	213.62
2826.46	223.62
2829.89	220.62
2833.318	218.62
2836.742	223.62
2840.164	217.62
2843.583	227.62
2846.999	224.62
2850.412	237.62
2853.822	231.62
2857.229	226.62
2860.634	229.62
2864.035	232.62
2867.434	244.62
2870.83	252.62
2874.223	246.62
2877.613	253.62
2881	245.62
2884.385	264.62
2887.766	248.62
2891.145	259.62
2894.521	257.62
2897.894	248.62
2901.264	264.62
2904.631	249.62
2907.996	262.62
2911.358	268.62
2914.717	258.62
2918.073	266.62
2921.426	270.62
2924.777	268.62
2928.124	279.62
2931.469	282.62
2934.811	290.62
2938.15	311.62
2941.487	305.62
2944.821	298.62
2948.152	308.62
2951.48	316.62
2954.805	323.62
2958.128	330.62
2961.447	334.62
2964.765	337.62
2968.079	339.62
2971.39	352.62
2974.699	361.62
2978.005	366.62
2981.308	375.62
2984.609	385.62
2987.907	395.62
2991.202	415.62
2994.494	421.62
2997.784	432.62
3001.07	448.62
3004.355	453.62
3007.636	472.62
3010.915	466.62
3014.191	490.62
3017.464	495.62
3020.734	512.62
3024.002	515.62
3027.267	521.62
3030.53	529.62
3033.789	533.62
3037.046	548.62
3040.301	565.62
3043.552	578.62
3046.801	588.62
3050.048	605.62
3053.291	635.62
3056.532	637.62
3059.771	668.62
3063.006	684.62
3066.239	700.62
3069.469	733.62
3072.697	740.62
3075.922	750.62
3079.144	798.62
3082.364	804.62
3085.581	823.62
3088.795	843.62
3092.007	873.62
3095.216	892.62
3098.423	913.62
3101.627	929.62
3104.828	954.62
3108.026	965.62
3111.222	977.62
3114.416	1012.62
3117.607	1032.62
3120.795	1058.62
3123.98	1072.62
3127.163	1100.62
3130.344	1137.62
3133.521	1167.62
3136.696	1182.62
3139.869	1210.62
3143.039	1241.62
3146.206	1251.62
3149.371	1264.62
3152.533	1277.62
3155.693	1298.62
3158.85	1283.62
3162.005	1308.62
3165.157	1296.62
3168.306	1308.62
3171.453	1329.62
3174.597	1327.62
3177.739	1331.62
3180.878	1338.62
3184.014	1342.62
3187.149	1331.62
3190.28	1341.62
3193.409	1337.62
3196.536	1352.62
3199.659	1370.62
3202.781	1368.62
3205.9	1349.62
3209.016	1364.62
3212.13	1369.62
3215.241	1355.62
3218.35	1353.62
3221.456	1359.62
3224.56	1347.62
3227.661	1326.62
3230.76	1308.62
3233.856	1306.62
3236.95	1299.62
3240.041	1272.62
3243.13	1277.62
3246.216	1259.62
3249.3	1249.62
3252.382	1251.62
3255.46	1213.62
3258.537	1219.62
3261.611	1213.62
3264.682	1216.62
3267.751	1209.62
3270.818	1205.62
3273.882	1194.62
3276.943	1184.62
3280.002	1167.62
3283.059	1155.62
3286.113	1157.62
3289.165	1136.62
3292.214	1124.62
3295.261	1110.62
3298.306	1093.62
3301.348	1076.62
3304.387	1066.62
3307.425	1055.62
3310.459	1032.62
3313.492	1010.62
3316.521	983.62
3319.549	986.62
3322.574	972.62
3325.597	969.62
3328.617	950.62
3331.635	963.62
3334.65	949.62
3337.663	952.62
3340.674	940.62
3343.682	944.62
3346.688	932.62
3349.691	943.62
3352.692	936.62
3355.691	917.62
3358.687	913.62
3361.681	905.62
3364.673	920.62
3367.662	885.62
3370.649	889.62
3373.633	864.62
3376.615	845.62
3379.595	850.62
3382.572	826.62
3385.547	823.62
3388.52	816.62
3391.49	816.62
3394.458	792.62
3397.424	778.62
3400.387	758.62
3403.348	758.62
3406.307	765.62
3409.263	748.62
3412.217	730.62
3415.168	736.62
3418.118	716.62
3421.065	711.62
3424.009	700.62
3426.951	690.62
3429.891	681.62
3432.829	671.62
3435.764	656.62
3438.697	632.62
3441.628	627.62
3444.557	608.62
3447.483	598.62
3450.407	585.62
3453.328	564.62
3456.247	553.62
3459.164	534.62
3462.079	522.62
3464.991	514.62
3467.902	488.62
3470.809	469.62
3473.715	461.62
3476.618	442.62
3479.519	429.62
3482.418	422.62
3485.315	407.62
3488.209	400.62
3491.101	382.62
3493.99	373.62
3496.878	362.62
3499.763	356.62
3502.646	330.62
3505.527	333.62
3508.405	316.62
3511.281	304.62
3514.155	290.62
3517.027	282.62
3519.897	267.62
3522.764	248.62
3525.629	238.62
3528.492	235.62
3531.352	217.62
3534.211	214.62
3537.067	188.62
3539.921	182.62
3542.773	169.62
3545.622	169.62
3548.469	150.62
3551.315	139.62
3554.157	138.62
3556.998	125.62
3559.837	118.62
3562.673	111.62
3565.507	108.62
3568.339	97.62
3571.169	93.62
3573.996	84.62
3576.822	81.62
3579.645	69.62
3582.466	64.62
3585.285	56.62
3588.101	45.62
3590.916	50.62
3593.728	40.62
3596.538	38.62
3599.346	30.62
3602.152	32.62
3604.956	23.62
3607.757	14.62
3610.556	11.62
3613.354	5.62
3616.149	4.62
3618.942	-0.38
3621.732	-4.38
3624.521	-2.38
3627.307	-11.38
3630.092	-14.38
3632.874	-6.38
3635.654	-23.38
3638.432	-28.38
3641.208	-25.38
3643.982	-32.38
3646.753	-34.38
3649.523	-35.38
3652.29	-38.38
3655.055	-41.38
3657.818	-39.38
3660.579	-45.38
3663.338	-47.38
3666.095	-52.38
3668.849	-51.38
3671.602	-63.38
3674.352	-59.38
3677.101	-66.38
3679.847	-62.38
3682.591	-69.38
3685.333	-66.38
3688.073	-69.38
3690.811	-70.38
3693.547	-76.38
3696.281	-70.38
3699.013	-75.38
3701.742	-79.38
3704.47	-84.38
3707.195	-78.38
3709.919	-84.38
3712.64	-82.38
3715.359	-81.38
3718.076	-82.38
3720.792	-84.38
3723.505	-84.38
3726.216	-84.38
3728.925	-93.38
3731.632	-91.38
3734.336	-89.38
3737.039	-97.38
3739.74	-100.38
3742.439	-92.38
3745.136	-90.38
3747.83	-98.38
3750.523	-94.38
3753.213	-96.38
3755.902	-96.38
3758.589	-95.38
3761.273	-96.38
3763.956	-94.38
3766.636	-97.38
3769.315	-99.38
3771.991	-94.38
3774.665	-95.38
3777.338	-100.38
3780.008	-99.38
3782.677	-101.38
3785.343	-99.38
3788.007	-102.38
3790.67	-103.38
3793.33	-98.38
3795.989	-103.38
3798.645	-99.38
3801.299	-102.38
3803.952	-102.38
3806.602	-102.38
3809.251	-104.38
3811.897	-106.38
3814.542	-108.38
3817.184	-105.38
3819.825	-101.38
3822.463	-103.38
3825.1	-103.38
3827.735	-103.38
3830.367	-103.38
3832.998	-108.38
3835.627	-103.38
3838.253	-108.38
3840.878	-108.38
3843.501	-108.38
3846.122	-108.38
3848.741	-103.38
3851.358	-108.38
3853.973	-108.38
3856.586	-102.38
3859.197	-107.38
3861.806	-107.38
3864.414	-110.38
3867.019	-107.38
3869.622	-111.38
3872.224	-110.38
3874.823	-107.38
3877.421	-103.38
3880.016	-100.38
3882.61	-95.38
3885.202	-98.38
3887.792	-98.38
3890.38	-103.38
3892.966	-105.38
3895.55	-113.38
3898.132	-113.38
3900.713	-113.38
3903.291	-116.38
3905.868	-112.38
3908.442	-109.38
3911.015	-107.38
3913.586	-109.38
3916.155	-107.38
3918.722	-108.38
3921.287	-112.38
3923.85	-117.38
3926.411	-116.38
3928.971	-114.38
3931.528	-116.38
3934.084	-110.38
3936.638	-108.38
3939.19	-106.38
3941.74	-111.38
3944.288	-110.38
3946.834	-108.38
3949.378	-113.38
3951.921	-114.38
3954.462	-116.38
3957	-114.38
3959.537	-114.38
3962.072	-111.38
3964.606	-109.38
3967.137	-111.38
3969.667	-112.38
3972.194	-111.38
3974.72	-107.38
3977.244	-109.38
3979.766	-114.38
3982.286	-113.38
3984.805	-111.38
3987.321	-112.38
3989.836	-112.38
3992.349	-111.38
3994.86	-109.38
3997.369	-109.38
3999.877	-113.38
4002.382	-110.38
4004.886	-113.38
4007.388	-115.38
4009.888	-112.38
4012.386	-112.38
4014.883	-109.38
4017.377	-111.38
4019.87	-109.38
4022.361	-112.38
4024.85	-108.38
4027.338	-110.38
4029.823	-109.38
4032.307	-112.38
4034.789	-112.38
4037.269	-109.38
4039.747	-111.38
4042.224	-114.38
4044.699	-115.38
4047.172	-114.38
4049.643	-113.38
4052.112	-110.38
4054.58	-113.38
4057.046	-116.38
4059.51	-118.38
4061.972	-115.38
4064.432	-115.38
4066.891	-115.38
4069.348	-110.38
4071.803	-113.38
4074.256	-115.38
4076.708	-111.38
4079.158	-115.38
4081.606	-114.38
4084.052	-109.38
4086.497	-111.38
4088.939	-115.38
4091.38	-111.38
4093.819	-115.38
4096.257	-118.38
4098.693	-116.38
4101.127	-113.38
4103.559	-115.38
4105.989	-74.38
4108.418	-73.38
4110.845	-68.38
4113.27	-67.38
4115.694	-61.38
4118.115	-50.38
4120.535	-112.38
4122.954	-117.38
4125.37	-115.38
4127.785	-113.38
4130.198	-113.38
4132.609	-109.38
4135.019	-115.38
4137.427	-116.38
4139.833	-115.38
4142.237	-116.38
