Data from 10000CFU2_A_RamanShift_1.txt Node
Date: Thu Jan 26 10:59:58 IST 2017
User: aro
Spectrometer: QEPB0276
Trigger mode: 0
Integration Time (sec): 5.000000E0
Scans to average: 1
Electric dark correction enabled: true
Nonlinearity correction enabled: false
Boxcar width: 0
XAxis mode: Raman Shifts
Number of Pixels in Spectrum: 1044
>>>>>Begin Spectral Data<<<<<
160.701	-37.62
166.742	-0.62
172.777	103.38
178.805	432.38
184.826	1197.38
190.841	2419.38
196.849	3727.38
202.85	4511.38
208.845	4635.38
214.833	4479.38
220.815	4302.38
226.789	4194.38
232.758	4103.38
238.719	3965.38
244.674	3805.38
250.623	3648.38
256.565	3479.38
262.5	3312.38
268.429	3182.38
274.351	3028.38
280.267	2932.38
286.176	2835.38
292.079	2745.38
297.975	2629.38
303.865	2548.38
309.748	2505.38
315.625	2450.38
321.495	2397.38
327.359	2354.38
333.217	2309.38
339.068	2343.38
344.912	2310.38
350.751	2296.38
356.583	2291.38
362.408	2286.38
368.227	2282.38
374.04	2307.38
379.847	2308.38
385.647	2319.38
391.44	2338.38
397.228	2314.38
403.009	2342.38
408.784	2356.38
414.553	2356.38
420.315	2360.38
426.071	2385.38
431.821	2358.38
437.565	2355.38
443.302	2370.38
449.033	2348.38
454.758	2353.38
460.477	2348.38
466.189	2325.38
471.896	2316.38
477.596	2293.38
483.29	2284.38
488.978	2257.38
494.66	2262.38
500.335	2219.38
506.005	2206.38
511.668	2163.38
517.325	2119.38
522.977	2098.38
528.622	2061.38
534.261	2029.38
539.894	2008.38
545.521	2019.38
551.141	1975.38
556.756	1960.38
562.365	1954.38
567.968	1942.38
573.565	1945.38
579.155	1915.38
584.74	1926.38
590.319	1898.38
595.892	1887.38
601.459	1878.38
607.02	1860.38
612.575	1855.38
618.124	1825.38
623.667	1799.38
629.204	1788.38
634.735	1762.38
640.261	1748.38
645.781	1763.38
651.294	1748.38
656.802	1737.38
662.304	1723.38
667.8	1730.38
673.29	1734.38
678.775	1705.38
684.254	1711.38
689.726	1688.38
695.193	1694.38
700.655	1676.38
706.11	1665.38
711.56	1650.38
717.004	1649.38
722.442	1649.38
727.874	1624.38
733.301	1626.38
738.722	1618.38
744.137	1621.38
749.547	1597.38
754.951	1609.38
760.349	1599.38
765.741	1591.38
771.128	1589.38
776.509	1595.38
781.885	1597.38
787.254	1578.38
792.618	1573.38
797.977	1566.38
803.33	1549.38
808.677	1548.38
814.019	1512.38
819.355	1517.38
824.686	1490.38
830.011	1487.38
835.33	1472.38
840.644	1466.38
845.952	1449.38
851.255	1469.38
856.552	1452.38
861.844	1426.38
867.13	1442.38
872.41	1411.38
877.686	1387.38
882.955	1389.38
888.219	1376.38
893.478	1359.38
898.731	1325.38
903.979	1306.38
909.221	1307.38
914.458	1294.38
919.69	1285.38
924.916	1289.38
930.136	1283.38
935.351	1296.38
940.561	1276.38
945.766	1280.38
950.965	1260.38
956.158	1256.38
961.347	1256.38
966.529	1246.38
971.707	1199.38
976.879	1197.38
982.046	1183.38
987.208	1181.38
992.364	1180.38
997.515	1182.38
1002.66	1201.38
1007.801	1206.38
1012.936	1217.38
1018.066	1209.38
1023.19	1227.38
1028.309	1240.38
1033.423	1223.38
1038.532	1206.38
1043.636	1209.38
1048.734	1197.38
1053.827	1185.38
1058.915	1189.38
1063.998	1177.38
1069.075	1149.38
1074.147	1169.38
1079.214	1169.38
1084.276	1192.38
1089.333	1193.38
1094.385	1182.38
1099.431	1189.38
1104.472	1210.38
1109.509	1199.38
1114.54	1174.38
1119.565	1172.38
1124.586	1148.38
1129.602	1140.38
1134.613	1148.38
1139.618	1147.38
1144.619	1135.38
1149.614	1149.38
1154.604	1133.38
1159.589	1166.38
1164.57	1159.38
1169.545	1167.38
1174.515	1156.38
1179.48	1161.38
1184.44	1140.38
1189.395	1149.38
1194.345	1138.38
1199.29	1125.38
1204.23	1122.38
1209.165	1142.38
1214.095	1145.38
1219.021	1163.38
1223.941	1158.38
1228.856	1198.38
1233.766	1188.38
1238.672	1194.38
1243.572	1186.38
1248.467	1180.38
1253.358	1160.38
1258.244	1138.38
1263.124	1133.38
1268	1105.38
1272.871	1088.38
1277.737	1085.38
1282.599	1073.38
1287.455	1094.38
1292.306	1086.38
1297.153	1110.38
1301.995	1111.38
1306.832	1119.38
1311.664	1131.38
1316.491	1122.38
1321.314	1108.38
1326.132	1105.38
1330.945	1102.38
1335.753	1079.38
1340.556	1075.38
1345.354	1070.38
1350.148	1042.38
1354.937	1037.38
1359.722	1032.38
1364.501	1027.38
1369.276	1013.38
1374.046	1002.38
1378.811	1012.38
1383.572	1009.38
1388.327	1001.38
1393.079	1000.38
1397.825	990.38
1402.567	982.38
1407.304	979.38
1412.036	967.38
1416.764	970.38
1421.487	967.38
1426.205	972.38
1430.919	976.38
1435.628	1015.38
1440.333	1017.38
1445.032	1026.38
1449.727	1028.38
1454.418	1012.38
1459.104	1025.38
1463.785	1029.38
1468.462	1009.38
1473.134	1003.38
1477.802	1002.38
1482.465	989.38
1487.123	982.38
1491.777	986.38
1496.426	1006.38
1501.071	1002.38
1505.711	1011.38
1510.347	1028.38
1514.978	1023.38
1519.604	1040.38
1524.226	1047.38
1528.844	1033.38
1533.457	1016.38
1538.065	1023.38
1542.669	1028.38
1547.269	1041.38
1551.864	1029.38
1556.454	1044.38
1561.041	1056.38
1565.622	1065.38
1570.199	1089.38
1574.772	1108.38
1579.34	1113.38
1583.904	1137.38
1588.464	1165.38
1593.019	1175.38
1597.569	1199.38
1602.115	1198.38
1606.657	1231.38
1611.195	1235.38
1615.728	1240.38
1620.256	1249.38
1624.78	1269.38
1629.3	1302.38
1633.816	1328.38
1638.327	1329.38
1642.834	1337.38
1647.336	1371.38
1651.834	1351.38
1656.328	1352.38
1660.817	1337.38
1665.302	1308.38
1669.783	1296.38
1674.259	1266.38
1678.732	1220.38
1683.199	1187.38
1687.663	1154.38
1692.122	1104.38
1696.577	1039.38
1701.028	1007.38
1705.474	965.38
1709.917	953.38
1714.355	921.38
1718.788	916.38
1723.218	905.38
1727.643	879.38
1732.064	855.38
1736.481	829.38
1740.893	817.38
1745.301	784.38
1749.705	767.38
1754.105	734.38
1758.501	735.38
1762.893	718.38
1767.28	708.38
1771.663	707.38
1776.042	714.38
1780.417	698.38
1784.787	706.38
1789.154	701.38
1793.516	703.38
1797.874	696.38
1802.228	688.38
1806.578	689.38
1810.924	679.38
1815.266	660.38
1819.603	654.38
1823.937	646.38
1828.266	643.38
1832.591	632.38
1836.913	631.38
1841.23	629.38
1845.543	633.38
1849.852	626.38
1854.156	644.38
1858.457	623.38
1862.754	651.38
1867.047	638.38
1871.335	642.38
1875.62	646.38
1879.9	652.38
1884.177	643.38
1888.449	647.38
1892.718	640.38
1896.982	636.38
1901.243	635.38
1905.499	631.38
1909.752	633.38
1914	619.38
1918.245	627.38
1922.485	632.38
1926.722	640.38
1930.954	632.38
1935.183	637.38
1939.408	646.38
1943.628	650.38
1947.845	647.38
1952.058	646.38
1956.267	637.38
1960.472	631.38
1964.673	627.38
1968.87	613.38
1973.063	615.38
1977.252	603.38
1981.438	606.38
1985.619	610.38
1989.797	607.38
1993.971	612.38
1998.14	613.38
2002.306	610.38
2006.469	611.38
2010.627	616.38
2014.781	614.38
2018.932	615.38
2023.078	609.38
2027.221	612.38
2031.36	604.38
2035.495	606.38
2039.627	599.38
2043.754	603.38
2047.878	600.38
2051.998	596.38
2056.114	591.38
2060.226	605.38
2064.334	605.38
2068.439	613.38
2072.54	620.38
2076.637	611.38
2080.73	619.38
2084.82	612.38
2088.906	605.38
2092.988	610.38
2097.066	607.38
2101.14	600.38
2105.211	602.38
2109.278	599.38
2113.342	589.38
2117.401	598.38
2121.457	592.38
2125.509	585.38
2129.558	584.38
2133.602	573.38
2137.643	579.38
2141.681	582.38
2145.714	570.38
2149.744	591.38
2153.77	576.38
2157.793	569.38
2161.812	559.38
2165.827	561.38
2169.838	543.38
2173.846	540.38
2177.851	520.38
2181.851	512.38
2185.848	519.38
2189.841	505.38
2193.831	511.38
2197.817	501.38
2201.799	503.38
2205.778	501.38
2209.753	499.38
2213.725	495.38
2217.693	493.38
2221.657	496.38
2225.618	493.38
2229.575	502.38
2233.529	488.38
2237.479	489.38
2241.425	484.38
2245.368	468.38
2249.307	463.38
2253.243	461.38
2257.175	446.38
2261.104	444.38
2265.029	439.38
2268.95	436.38
2272.868	431.38
2276.783	416.38
2280.694	416.38
2284.601	408.38
2288.505	402.38
2292.405	403.38
2296.302	390.38
2300.195	399.38
2304.085	383.38
2307.971	375.38
2311.854	374.38
2315.734	371.38
2319.609	360.38
2323.482	354.38
2327.351	338.38
2331.216	355.38
2335.078	342.38
2338.937	336.38
2342.792	338.38
2346.643	339.38
2350.492	335.38
2354.336	333.38
2358.178	337.38
2362.015	340.38
2365.85	337.38
2369.681	337.38
2373.508	339.38
2377.333	335.38
2381.153	337.38
2384.971	339.38
2388.785	347.38
2392.595	330.38
2396.402	323.38
2400.206	332.38
2404.007	325.38
2407.804	320.38
2411.597	327.38
2415.388	318.38
2419.174	323.38
2422.958	325.38
2426.738	319.38
2430.515	313.38
2434.289	312.38
2438.059	312.38
2441.825	317.38
2445.589	309.38
2449.349	304.38
2453.106	302.38
2456.859	294.38
2460.61	301.38
2464.356	293.38
2468.1	288.38
2471.84	295.38
2475.577	286.38
2479.311	294.38
2483.041	295.38
2486.768	293.38
2490.492	298.38
2494.213	294.38
2497.93	281.38
2501.644	295.38
2505.355	289.38
2509.062	289.38
2512.766	288.38
2516.467	288.38
2520.165	291.38
2523.859	276.38
2527.551	284.38
2531.239	279.38
2534.923	274.38
2538.605	271.38
2542.283	268.38
2545.958	262.38
2549.63	264.38
2553.299	262.38
2556.964	262.38
2560.626	257.38
2564.285	262.38
2567.941	257.38
2571.594	262.38
2575.243	253.38
2578.89	252.38
2582.533	247.38
2586.173	243.38
2589.809	249.38
2593.443	235.38
2597.073	243.38
2600.701	238.38
2604.325	243.38
2607.946	229.38
2611.564	237.38
2615.178	230.38
2618.79	234.38
2622.398	233.38
2626.004	235.38
2629.606	219.38
2633.205	219.38
2636.801	223.38
2640.394	227.38
2643.983	214.38
2647.57	210.38
2651.153	217.38
2654.734	210.38
2658.311	206.38
2661.885	211.38
2665.456	206.38
2669.025	212.38
2672.589	204.38
2676.151	210.38
2679.71	202.38
2683.266	203.38
2686.819	197.38
2690.368	201.38
2693.915	193.38
2697.458	195.38
2700.999	189.38
2704.536	183.38
2708.071	187.38
2711.602	180.38
2715.13	181.38
2718.656	183.38
2722.178	181.38
2725.697	177.38
2729.214	191.38
2732.727	189.38
2736.237	187.38
2739.744	184.38
2743.249	186.38
2746.75	184.38
2750.248	187.38
2753.743	190.38
2757.236	186.38
2760.725	181.38
2764.211	179.38
2767.695	179.38
2771.175	182.38
2774.652	173.38
2778.127	178.38
2781.598	174.38
2785.067	179.38
2788.532	174.38
2791.995	170.38
2795.455	177.38
2798.911	178.38
2802.365	171.38
2805.816	179.38
2809.264	182.38
2812.709	183.38
2816.151	181.38
2819.59	178.38
2823.026	185.38
2826.46	191.38
2829.89	188.38
2833.318	190.38
2836.742	190.38
2840.164	194.38
2843.583	186.38
2846.999	196.38
2850.412	196.38
2853.822	193.38
2857.229	199.38
2860.634	204.38
2864.035	196.38
2867.434	212.38
2870.83	211.38
2874.223	208.38
2877.613	213.38
2881	211.38
2884.385	211.38
2887.766	218.38
2891.145	205.38
2894.521	220.38
2897.894	217.38
2901.264	217.38
2904.631	220.38
2907.996	224.38
2911.358	226.38
2914.717	234.38
2918.073	235.38
2921.426	234.38
2924.777	239.38
2928.124	239.38
2931.469	254.38
2934.811	258.38
2938.15	263.38
2941.487	267.38
2944.821	273.38
2948.152	270.38
2951.48	275.38
2954.805	273.38
2958.128	289.38
2961.447	286.38
2964.765	287.38
2968.079	303.38
2971.39	308.38
2974.699	316.38
2978.005	324.38
2981.308	329.38
2984.609	344.38
2987.907	350.38
2991.202	363.38
2994.494	376.38
2997.784	387.38
3001.07	395.38
3004.355	408.38
3007.636	423.38
3010.915	424.38
3014.191	439.38
3017.464	449.38
3020.734	453.38
3024.002	452.38
3027.267	460.38
3030.53	478.38
3033.789	484.38
3037.046	484.38
3040.301	505.38
3043.552	503.38
3046.801	532.38
3050.048	548.38
3053.291	565.38
3056.532	576.38
3059.771	601.38
3063.006	628.38
3066.239	633.38
3069.469	658.38
3072.697	666.38
3075.922	693.38
3079.144	719.38
3082.364	719.38
3085.581	745.38
3088.795	766.38
3092.007	773.38
3095.216	803.38
3098.423	807.38
3101.627	843.38
3104.828	847.38
3108.026	864.38
3111.222	884.38
3114.416	914.38
3117.607	919.38
3120.795	951.38
3123.98	973.38
3127.163	1000.38
3130.344	1010.38
3133.521	1029.38
3136.696	1068.38
3139.869	1076.38
3143.039	1102.38
3146.206	1109.38
3149.371	1124.38
3152.533	1140.38
3155.693	1158.38
3158.85	1159.38
3162.005	1160.38
3165.157	1176.38
3168.306	1172.38
3171.453	1180.38
3174.597	1184.38
3177.739	1189.38
3180.878	1215.38
3184.014	1200.38
3187.149	1215.38
3190.28	1211.38
3193.409	1209.38
3196.536	1218.38
3199.659	1224.38
3202.781	1217.38
3205.9	1237.38
3209.016	1231.38
3212.13	1218.38
3215.241	1219.38
3218.35	1207.38
3221.456	1208.38
3224.56	1184.38
3227.661	1166.38
3230.76	1161.38
3233.856	1156.38
3236.95	1140.38
3240.041	1135.38
3243.13	1127.38
3246.216	1107.38
3249.3	1112.38
3252.382	1103.38
3255.46	1109.38
3258.537	1100.38
3261.611	1088.38
3264.682	1092.38
3267.751	1071.38
3270.818	1079.38
3273.882	1065.38
3276.943	1072.38
3280.002	1055.38
3283.059	1059.38
3286.113	1048.38
3289.165	1042.38
3292.214	1020.38
3295.261	989.38
3298.306	982.38
3301.348	972.38
3304.387	961.38
3307.425	932.38
3310.459	929.38
3313.492	919.38
3316.521	912.38
3319.549	893.38
3322.574	884.38
3325.597	878.38
3328.617	873.38
3331.635	872.38
3334.65	865.38
3337.663	876.38
3340.674	845.38
3343.682	869.38
3346.688	848.38
3349.691	854.38
3352.692	852.38
3355.691	832.38
3358.687	842.38
3361.681	812.38
3364.673	806.38
3367.662	805.38
3370.649	782.38
3373.633	775.38
3376.615	763.38
3379.595	764.38
3382.572	739.38
3385.547	745.38
3388.52	733.38
3391.49	718.38
3394.458	707.38
3397.424	705.38
3400.387	688.38
3403.348	668.38
3406.307	676.38
3409.263	671.38
3412.217	670.38
3415.168	666.38
3418.118	649.38
3421.065	643.38
3424.009	627.38
3426.951	617.38
3429.891	601.38
3432.829	604.38
3435.764	585.38
3438.697	567.38
3441.628	571.38
3444.557	553.38
3447.483	542.38
3450.407	521.38
3453.328	498.38
3456.247	485.38
3459.164	480.38
3462.079	451.38
3464.991	440.38
3467.902	428.38
3470.809	420.38
3473.715	407.38
3476.618	404.38
3479.519	385.38
3482.418	383.38
3485.315	366.38
3488.209	356.38
3491.101	346.38
3493.99	333.38
3496.878	314.38
3499.763	309.38
3502.646	300.38
3505.527	288.38
3508.405	276.38
3511.281	262.38
3514.155	258.38
3517.027	241.38
3519.897	234.38
3522.764	217.38
3525.629	203.38
3528.492	202.38
3531.352	183.38
3534.211	170.38
3537.067	168.38
3539.921	150.38
3542.773	141.38
3545.622	134.38
3548.469	129.38
3551.315	120.38
3554.157	112.38
3556.998	101.38
3559.837	95.38
3562.673	92.38
3565.507	80.38
3568.339	73.38
3571.169	70.38
3573.996	60.38
3576.822	56.38
3579.645	53.38
3582.466	40.38
3585.285	43.38
3588.101	39.38
3590.916	29.38
3593.728	26.38
3596.538	20.38
3599.346	12.38
3602.152	4.38
3604.956	7.38
3607.757	3.38
3610.556	1.38
3613.354	-0.62
3616.149	-4.62
3618.942	-7.62
3621.732	-13.62
3624.521	-20.62
3627.307	-19.62
3630.092	-25.62
3632.874	-27.62
3635.654	-31.62
3638.432	-35.62
3641.208	-37.62
3643.982	-38.62
3646.753	-41.62
3649.523	-50.62
3652.29	-50.62
3655.055	-49.62
3657.818	-52.62
3660.579	-50.62
3663.338	-54.62
3666.095	-61.62
3668.849	-66.62
3671.602	-64.62
3674.352	-68.62
3677.101	-70.62
3679.847	-75.62
3682.591	-74.62
3685.333	-78.62
3688.073	-74.62
3690.811	-77.62
3693.547	-82.62
3696.281	-87.62
3699.013	-86.62
3701.742	-89.62
3704.47	-90.62
3707.195	-89.62
3709.919	-90.62
3712.64	-90.62
3715.359	-91.62
3718.076	-94.62
3720.792	-93.62
3723.505	-93.62
3726.216	-93.62
3728.925	-94.62
3731.632	-98.62
3734.336	-99.62
3737.039	-101.62
3739.74	-105.62
3742.439	-102.62
3745.136	-101.62
3747.83	-100.62
3750.523	-102.62
3753.213	-99.62
3755.902	-101.62
3758.589	-99.62
3761.273	-103.62
3763.956	-108.62
3766.636	-107.62
3769.315	-105.62
3771.991	-107.62
3774.665	-106.62
3777.338	-108.62
3780.008	-106.62
3782.677	-105.62
3785.343	-104.62
3788.007	-107.62
3790.67	-105.62
3793.33	-107.62
3795.989	-105.62
3798.645	-109.62
3801.299	-111.62
3803.952	-110.62
3806.602	-109.62
3809.251	-108.62
3811.897	-113.62
3814.542	-115.62
3817.184	-111.62
3819.825	-111.62
3822.463	-110.62
3825.1	-114.62
3827.735	-111.62
3830.367	-110.62
3832.998	-112.62
3835.627	-118.62
3838.253	-112.62
3840.878	-118.62
3843.501	-113.62
3846.122	-112.62
3848.741	-112.62
3851.358	-113.62
3853.973	-106.62
3856.586	-114.62
3859.197	-116.62
3861.806	-116.62
3864.414	-112.62
3867.019	-117.62
3869.622	-112.62
3872.224	-115.62
3874.823	-112.62
3877.421	-107.62
3880.016	-113.62
3882.61	-106.62
3885.202	-104.62
3887.792	-108.62
3890.38	-111.62
3892.966	-120.62
3895.55	-119.62
3898.132	-123.62
3900.713	-118.62
3903.291	-117.62
3905.868	-116.62
3908.442	-116.62
3911.015	-117.62
3913.586	-115.62
3916.155	-114.62
3918.722	-116.62
3921.287	-116.62
3923.85	-114.62
3926.411	-114.62
3928.971	-120.62
3931.528	-118.62
3934.084	-120.62
3936.638	-119.62
3939.19	-118.62
3941.74	-115.62
3944.288	-119.62
3946.834	-119.62
3949.378	-121.62
3951.921	-124.62
3954.462	-119.62
3957	-121.62
3959.537	-121.62
3962.072	-121.62
3964.606	-121.62
3967.137	-115.62
3969.667	-117.62
3972.194	-115.62
3974.72	-115.62
3977.244	-114.62
3979.766	-117.62
3982.286	-116.62
3984.805	-116.62
3987.321	-119.62
3989.836	-115.62
3992.349	-118.62
3994.86	-115.62
3997.369	-122.62
3999.877	-117.62
4002.382	-116.62
4004.886	-118.62
4007.388	-118.62
4009.888	-118.62
4012.386	-121.62
4014.883	-119.62
4017.377	-116.62
4019.87	-119.62
4022.361	-118.62
4024.85	-119.62
4027.338	-118.62
4029.823	-122.62
4032.307	-117.62
4034.789	-120.62
4037.269	-118.62
4039.747	-118.62
4042.224	-113.62
4044.699	-115.62
4047.172	-121.62
4049.643	-117.62
4052.112	-119.62
4054.58	-120.62
4057.046	-121.62
4059.51	-116.62
4061.972	-119.62
4064.432	-119.62
4066.891	-119.62
4069.348	-118.62
4071.803	-115.62
4074.256	-119.62
4076.708	-116.62
4079.158	-118.62
4081.606	-118.62
4084.052	-120.62
4086.497	-117.62
4088.939	-116.62
4091.38	-120.62
4093.819	-120.62
4096.257	-123.62
4098.693	-120.62
4101.127	-123.62
4103.559	-122.62
4105.989	-81.62
4108.418	-75.62
4110.845	-72.62
4113.27	-68.62
4115.694	-64.62
4118.115	-56.62
4120.535	-120.62
4122.954	-115.62
4125.37	-116.62
4127.785	-114.62
4130.198	-115.62
4132.609	-116.62
4135.019	-121.62
4137.427	-124.62
4139.833	-127.62
4142.237	-123.62
