Data from 100000000CFU1_A_RamanShift_1.txt Node
Date: Thu Jan 26 11:12:23 IST 2017
User: aro
Spectrometer: QEPB0276
Trigger mode: 0
Integration Time (sec): 5.000000E0
Scans to average: 1
Electric dark correction enabled: true
Nonlinearity correction enabled: false
Boxcar width: 0
XAxis mode: Raman Shifts
Number of Pixels in Spectrum: 1044
>>>>>Begin Spectral Data<<<<<
160.701	-27
166.742	1
172.777	72
178.805	304
184.826	836
190.841	1676
196.849	2576
202.85	3088
208.845	3166
214.833	3070
220.815	2975
226.789	2879
232.758	2806
238.719	2724
244.674	2611
250.623	2512
256.565	2409
262.5	2290
268.429	2197
274.351	2116
280.267	2057
286.176	1983
292.079	1925
297.975	1865
303.865	1819
309.748	1774
315.625	1741
321.495	1705
327.359	1684
333.217	1651
339.068	1652
344.912	1657
350.751	1644
356.583	1641
362.408	1628
368.227	1639
374.04	1643
379.847	1645
385.647	1659
391.44	1675
397.228	1679
403.009	1689
408.784	1688
414.553	1705
420.315	1711
426.071	1693
431.821	1700
437.565	1700
443.302	1696
449.033	1698
454.758	1674
460.477	1684
466.189	1674
471.896	1665
477.596	1654
483.29	1651
488.978	1635
494.66	1635
500.335	1596
506.005	1566
511.668	1517
517.325	1509
522.977	1482
528.622	1452
534.261	1439
539.894	1437
545.521	1402
551.141	1420
556.756	1389
562.365	1372
567.968	1360
573.565	1368
579.155	1357
584.74	1356
590.319	1339
595.892	1327
601.459	1321
607.02	1326
612.575	1293
618.124	1297
623.667	1263
629.204	1257
634.735	1263
640.261	1254
645.781	1230
651.294	1243
656.802	1221
662.304	1230
667.8	1196
673.29	1213
678.775	1193
684.254	1203
689.726	1196
695.193	1184
700.655	1174
706.11	1168
711.56	1155
717.004	1143
722.442	1147
727.874	1133
733.301	1142
738.722	1104
744.137	1121
749.547	1129
754.951	1117
760.349	1119
765.741	1122
771.128	1106
776.509	1122
781.885	1122
787.254	1132
792.618	1123
797.977	1121
803.33	1107
808.677	1095
814.019	1069
819.355	1057
824.686	1058
830.011	1051
835.33	1036
840.644	1033
845.952	1032
851.255	1011
856.552	1015
861.844	1014
867.13	1004
872.41	999
877.686	986
882.955	979
888.219	949
893.478	951
898.731	939
903.979	913
909.221	918
914.458	915
919.69	909
924.916	893
930.136	905
935.351	896
940.561	904
945.766	899
950.965	881
956.158	875
961.347	881
966.529	864
971.707	849
976.879	841
982.046	828
987.208	834
992.364	828
997.515	832
1002.66	835
1007.801	830
1012.936	865
1018.066	844
1023.19	864
1028.309	859
1033.423	865
1038.532	851
1043.636	852
1048.734	839
1053.827	823
1058.915	823
1063.998	830
1069.075	807
1074.147	824
1079.214	826
1084.276	831
1089.333	831
1094.385	842
1099.431	840
1104.472	842
1109.509	843
1114.54	825
1119.565	819
1124.586	814
1129.602	788
1134.613	799
1139.618	793
1144.619	803
1149.614	783
1154.604	805
1159.589	813
1164.57	810
1169.545	820
1174.515	817
1179.48	820
1184.44	803
1189.395	799
1194.345	789
1199.29	788
1204.23	801
1209.165	798
1214.095	795
1219.021	800
1223.941	822
1228.856	815
1233.766	833
1238.672	816
1243.572	819
1248.467	808
1253.358	817
1258.244	801
1263.124	788
1268	771
1272.871	755
1277.737	760
1282.599	759
1287.455	757
1292.306	761
1297.153	779
1301.995	781
1306.832	777
1311.664	780
1316.491	784
1321.314	785
1326.132	775
1330.945	749
1335.753	749
1340.556	739
1345.354	734
1350.148	738
1354.937	717
1359.722	733
1364.501	708
1369.276	714
1374.046	709
1378.811	708
1383.572	698
1388.327	716
1393.079	690
1397.825	687
1402.567	681
1407.304	682
1412.036	682
1416.764	675
1421.487	673
1426.205	673
1430.919	691
1435.628	702
1440.333	707
1445.032	713
1449.727	704
1454.418	723
1459.104	710
1463.785	710
1468.462	689
1473.134	697
1477.802	694
1482.465	695
1487.123	689
1491.777	683
1496.426	690
1501.071	704
1505.711	702
1510.347	708
1514.978	724
1519.604	725
1524.226	726
1528.844	722
1533.457	722
1538.065	709
1542.669	735
1547.269	727
1551.864	725
1556.454	726
1561.041	745
1565.622	736
1570.199	751
1574.772	758
1579.34	786
1583.904	796
1588.464	806
1593.019	819
1597.569	835
1602.115	836
1606.657	843
1611.195	846
1615.728	858
1620.256	873
1624.78	888
1629.3	895
1633.816	913
1638.327	926
1642.834	923
1647.336	930
1651.834	939
1656.328	940
1660.817	919
1665.302	923
1669.783	900
1674.259	867
1678.732	857
1683.199	817
1687.663	785
1692.122	761
1696.577	728
1701.028	720
1705.474	685
1709.917	667
1714.355	653
1718.788	636
1723.218	630
1727.643	609
1732.064	591
1736.481	584
1740.893	572
1745.301	545
1749.705	543
1754.105	523
1758.501	519
1762.893	497
1767.28	501
1771.663	502
1776.042	492
1780.417	496
1784.787	483
1789.154	494
1793.516	488
1797.874	492
1802.228	492
1806.578	473
1810.924	465
1815.266	457
1819.603	455
1823.937	452
1828.266	443
1832.591	442
1836.913	445
1841.23	435
1845.543	441
1849.852	435
1854.156	440
1858.457	439
1862.754	441
1867.047	444
1871.335	453
1875.62	457
1879.9	448
1884.177	456
1888.449	444
1892.718	450
1896.982	448
1901.243	441
1905.499	456
1909.752	444
1914	447
1918.245	439
1922.485	434
1926.722	449
1930.954	439
1935.183	452
1939.408	449
1943.628	454
1947.845	450
1952.058	449
1956.267	450
1960.472	452
1964.673	438
1968.87	422
1973.063	426
1977.252	429
1981.438	434
1985.619	421
1989.797	426
1993.971	423
1998.14	425
2002.306	425
2006.469	438
2010.627	435
2014.781	440
2018.932	432
2023.078	430
2027.221	421
2031.36	434
2035.495	422
2039.627	424
2043.754	422
2047.878	418
2051.998	416
2056.114	434
2060.226	411
2064.334	427
2068.439	425
2072.54	424
2076.637	421
2080.73	432
2084.82	427
2088.906	434
2092.988	438
2097.066	426
2101.14	424
2105.211	420
2109.278	420
2113.342	419
2117.401	415
2121.457	406
2125.509	413
2129.558	411
2133.602	413
2137.643	407
2141.681	405
2145.714	397
2149.744	400
2153.77	400
2157.793	397
2161.812	393
2165.827	388
2169.838	387
2173.846	378
2177.851	370
2181.851	359
2185.848	367
2189.841	367
2193.831	352
2197.817	361
2201.799	348
2205.778	347
2209.753	347
2213.725	352
2217.693	340
2221.657	343
2225.618	337
2229.575	339
2233.529	334
2237.479	346
2241.425	338
2245.368	322
2249.307	331
2253.243	321
2257.175	312
2261.104	309
2265.029	304
2268.95	301
2272.868	294
2276.783	296
2280.694	297
2284.601	291
2288.505	282
2292.405	291
2296.302	287
2300.195	276
2304.085	267
2307.971	262
2311.854	257
2315.734	250
2319.609	263
2323.482	257
2327.351	241
2331.216	245
2335.078	240
2338.937	237
2342.792	234
2346.643	240
2350.492	234
2354.336	242
2358.178	233
2362.015	234
2365.85	225
2369.681	235
2373.508	234
2377.333	235
2381.153	234
2384.971	241
2388.785	239
2392.595	228
2396.402	226
2400.206	238
2404.007	234
2407.804	232
2411.597	228
2415.388	227
2419.174	218
2422.958	222
2426.738	223
2430.515	220
2434.289	219
2438.059	215
2441.825	222
2445.589	206
2449.349	214
2453.106	208
2456.859	209
2460.61	204
2464.356	199
2468.1	200
2471.84	202
2475.577	196
2479.311	207
2483.041	203
2486.768	204
2490.492	194
2494.213	200
2497.93	203
2501.644	196
2505.355	200
2509.062	197
2512.766	202
2516.467	205
2520.165	204
2523.859	193
2527.551	195
2531.239	195
2534.923	190
2538.605	193
2542.283	188
2545.958	181
2549.63	188
2553.299	181
2556.964	181
2560.626	176
2564.285	182
2567.941	177
2571.594	186
2575.243	179
2578.89	174
2582.533	174
2586.173	167
2589.809	172
2593.443	164
2597.073	168
2600.701	163
2604.325	170
2607.946	162
2611.564	170
2615.178	170
2618.79	164
2622.398	164
2626.004	166
2629.606	162
2633.205	158
2636.801	154
2640.394	155
2643.983	147
2647.57	149
2651.153	151
2654.734	147
2658.311	151
2661.885	147
2665.456	149
2669.025	142
2672.589	140
2676.151	137
2679.71	131
2683.266	137
2686.819	136
2690.368	134
2693.915	132
2697.458	132
2700.999	136
2704.536	130
2708.071	131
2711.602	129
2715.13	127
2718.656	130
2722.178	123
2725.697	126
2729.214	123
2732.727	135
2736.237	129
2739.744	131
2743.249	132
2746.75	136
2750.248	134
2753.743	136
2757.236	130
2760.725	129
2764.211	126
2767.695	124
2771.175	121
2774.652	125
2778.127	128
2781.598	123
2785.067	123
2788.532	129
2791.995	122
2795.455	130
2798.911	126
2802.365	126
2805.816	131
2809.264	129
2812.709	129
2816.151	129
2819.59	134
2823.026	130
2826.46	127
2829.89	128
2833.318	131
2836.742	129
2840.164	131
2843.583	132
2846.999	138
2850.412	139
2853.822	134
2857.229	139
2860.634	138
2864.035	145
2867.434	151
2870.83	149
2874.223	154
2877.613	151
2881	160
2884.385	156
2887.766	146
2891.145	149
2894.521	149
2897.894	149
2901.264	151
2904.631	153
2907.996	162
2911.358	159
2914.717	164
2918.073	171
2921.426	164
2924.777	172
2928.124	177
2931.469	174
2934.811	181
2938.15	182
2941.487	187
2944.821	194
2948.152	196
2951.48	199
2954.805	197
2958.128	210
2961.447	207
2964.765	207
2968.079	213
2971.39	214
2974.699	226
2978.005	228
2981.308	226
2984.609	240
2987.907	240
2991.202	254
2994.494	253
2997.784	273
3001.07	272
3004.355	282
3007.636	300
3010.915	299
3014.191	301
3017.464	309
3020.734	312
3024.002	321
3027.267	320
3030.53	333
3033.789	342
3037.046	341
3040.301	355
3043.552	355
3046.801	365
3050.048	388
3053.291	392
3056.532	407
3059.771	422
3063.006	424
3066.239	441
3069.469	451
3072.697	472
3075.922	490
3079.144	486
3082.364	508
3085.581	511
3088.795	537
3092.007	540
3095.216	548
3098.423	563
3101.627	586
3104.828	596
3108.026	597
3111.222	619
3114.416	626
3117.607	643
3120.795	658
3123.98	676
3127.163	694
3130.344	713
3133.521	735
3136.696	736
3139.869	754
3143.039	771
3146.206	783
3149.371	783
3152.533	787
3155.693	800
3158.85	807
3162.005	804
3165.157	817
3168.306	820
3171.453	828
3174.597	834
3177.739	842
3180.878	827
3184.014	834
3187.149	830
3190.28	845
3193.409	855
3196.536	846
3199.659	854
3202.781	853
3205.9	852
3209.016	859
3212.13	867
3215.241	847
3218.35	840
3221.456	821
3224.56	823
3227.661	824
3230.76	813
3233.856	802
3236.95	787
3240.041	796
3243.13	783
3246.216	785
3249.3	782
3252.382	770
3255.46	768
3258.537	771
3261.611	777
3264.682	761
3267.751	759
3270.818	757
3273.882	756
3276.943	747
3280.002	744
3283.059	732
3286.113	726
3289.165	722
3292.214	702
3295.261	706
3298.306	688
3301.348	679
3304.387	662
3307.425	657
3310.459	643
3313.492	643
3316.521	628
3319.549	626
3322.574	617
3325.597	612
3328.617	614
3331.635	600
3334.65	601
3337.663	601
3340.674	603
3343.682	596
3346.688	587
3349.691	593
3352.692	590
3355.691	583
3358.687	576
3361.681	580
3364.673	569
3367.662	565
3370.649	550
3373.633	542
3376.615	548
3379.595	533
3382.572	524
3385.547	506
3388.52	508
3391.49	503
3394.458	503
3397.424	490
3400.387	486
3403.348	482
3406.307	476
3409.263	480
3412.217	465
3415.168	463
3418.118	446
3421.065	449
3424.009	444
3426.951	428
3429.891	427
3432.829	422
3435.764	416
3438.697	404
3441.628	393
3444.557	394
3447.483	378
3450.407	366
3453.328	354
3456.247	342
3459.164	341
3462.079	316
3464.991	323
3467.902	307
3470.809	302
3473.715	290
3476.618	285
3479.519	261
3482.418	258
3485.315	255
3488.209	247
3491.101	235
3493.99	230
3496.878	220
3499.763	214
3502.646	207
3505.527	207
3508.405	186
3511.281	185
3514.155	172
3517.027	170
3519.897	159
3522.764	152
3525.629	140
3528.492	131
3531.352	126
3534.211	112
3537.067	106
3539.921	110
3542.773	101
3545.622	89
3548.469	86
3551.315	87
3554.157	73
3556.998	74
3559.837	71
3562.673	65
3565.507	59
3568.339	52
3571.169	45
3573.996	47
3576.822	41
3579.645	33
3582.466	27
3585.285	26
3588.101	22
3590.916	20
3593.728	10
3596.538	9
3599.346	6
3602.152	0
3604.956	-4
3607.757	-1
3610.556	-5
3613.354	-4
3616.149	-8
3618.942	-8
3621.732	-13
3624.521	-12
3627.307	-21
3630.092	-20
3632.874	-18
3635.654	-24
3638.432	-29
3641.208	-26
3643.982	-30
3646.753	-30
3649.523	-36
3652.29	-32
3655.055	-37
3657.818	-38
3660.579	-39
3663.338	-42
3666.095	-45
3668.849	-49
3671.602	-51
3674.352	-49
3677.101	-52
3679.847	-54
3682.591	-53
3685.333	-57
3688.073	-53
3690.811	-60
3693.547	-59
3696.281	-62
3699.013	-60
3701.742	-64
3704.47	-61
3707.195	-64
3709.919	-63
3712.64	-66
3715.359	-63
3718.076	-67
3720.792	-65
3723.505	-64
3726.216	-67
3728.925	-70
3731.632	-68
3734.336	-73
3737.039	-72
3739.74	-74
3742.439	-73
3745.136	-70
3747.83	-72
3750.523	-71
3753.213	-66
3755.902	-70
3758.589	-69
3761.273	-73
3763.956	-82
3766.636	-76
3769.315	-77
3771.991	-80
3774.665	-74
3777.338	-78
3780.008	-79
3782.677	-77
3785.343	-73
3788.007	-77
3790.67	-74
3793.33	-76
3795.989	-77
3798.645	-76
3801.299	-76
3803.952	-78
3806.602	-77
3809.251	-75
3811.897	-80
3814.542	-83
3817.184	-78
3819.825	-78
3822.463	-79
3825.1	-81
3827.735	-81
3830.367	-80
3832.998	-82
3835.627	-85
3838.253	-83
3840.878	-84
3843.501	-81
3846.122	-83
3848.741	-81
3851.358	-83
3853.973	-79
3856.586	-81
3859.197	-84
3861.806	-85
3864.414	-87
3867.019	-84
3869.622	-83
3872.224	-84
3874.823	-77
3877.421	-75
3880.016	-77
3882.61	-70
3885.202	-67
3887.792	-71
3890.38	-77
3892.966	-81
3895.55	-82
3898.132	-85
3900.713	-85
3903.291	-81
3905.868	-82
3908.442	-81
3911.015	-82
3913.586	-86
3916.155	-81
3918.722	-86
3921.287	-87
3923.85	-87
3926.411	-83
3928.971	-86
3931.528	-88
3934.084	-86
3936.638	-87
3939.19	-81
3941.74	-82
3944.288	-84
3946.834	-84
3949.378	-83
3951.921	-83
3954.462	-83
3957	-85
3959.537	-87
3962.072	-87
3964.606	-86
3967.137	-81
3969.667	-83
3972.194	-78
3974.72	-85
3977.244	-81
3979.766	-84
3982.286	-84
3984.805	-86
3987.321	-85
3989.836	-85
3992.349	-87
3994.86	-87
3997.369	-87
3999.877	-84
4002.382	-83
4004.886	-84
4007.388	-82
4009.888	-85
4012.386	-83
4014.883	-85
4017.377	-79
4019.87	-84
4022.361	-83
4024.85	-82
4027.338	-85
4029.823	-85
4032.307	-87
4034.789	-85
4037.269	-83
4039.747	-84
4042.224	-81
4044.699	-80
4047.172	-82
4049.643	-82
4052.112	-82
4054.58	-88
4057.046	-87
4059.51	-85
4061.972	-87
4064.432	-85
4066.891	-83
4069.348	-84
4071.803	-79
4074.256	-85
4076.708	-85
4079.158	-85
4081.606	-85
4084.052	-86
4086.497	-84
4088.939	-83
4091.38	-86
4093.819	-82
4096.257	-89
4098.693	-90
4101.127	-91
4103.559	-86
4105.989	-56
4108.418	-55
4110.845	-53
4113.27	-49
4115.694	-44
4118.115	-40
4120.535	-87
4122.954	-85
4125.37	-80
4127.785	-79
4130.198	-83
4132.609	-82
4135.019	-85
4137.427	-88
4139.833	-91
4142.237	-86
