Data from 10000000CFU3_B_RamanShift_1.txt Node
Date: Thu Jan 26 11:44:48 IST 2017
User: aro
Spectrometer: QEPB0276
Trigger mode: 0
Integration Time (sec): 5.000000E0
Scans to average: 1
Electric dark correction enabled: true
Nonlinearity correction enabled: false
Boxcar width: 0
XAxis mode: Raman Shifts
Number of Pixels in Spectrum: 1044
>>>>>Begin Spectral Data<<<<<
160.701	-31.88
166.742	-0.88
172.777	96.12
178.805	408.12
184.826	1134.12
190.841	2285.12
196.849	3553.12
202.85	4360.12
208.845	4557.12
214.833	4429.12
220.815	4266.12
226.789	4166.12
232.758	4029.12
238.719	3947.12
244.674	3799.12
250.623	3647.12
256.565	3502.12
262.5	3335.12
268.429	3219.12
274.351	3111.12
280.267	2999.12
286.176	2910.12
292.079	2826.12
297.975	2717.12
303.865	2654.12
309.748	2598.12
315.625	2554.12
321.495	2521.12
327.359	2474.12
333.217	2444.12
339.068	2446.12
344.912	2407.12
350.751	2421.12
356.583	2423.12
362.408	2396.12
368.227	2394.12
374.04	2398.12
379.847	2393.12
385.647	2422.12
391.44	2445.12
397.228	2442.12
403.009	2448.12
408.784	2482.12
414.553	2477.12
420.315	2488.12
426.071	2512.12
431.821	2499.12
437.565	2469.12
443.302	2471.12
449.033	2484.12
454.758	2454.12
460.477	2460.12
466.189	2435.12
471.896	2458.12
477.596	2430.12
483.29	2417.12
488.978	2430.12
494.66	2380.12
500.335	2376.12
506.005	2322.12
511.668	2298.12
517.325	2548.12
522.977	2384.12
528.622	2216.12
534.261	2189.12
539.894	2148.12
545.521	2143.12
551.141	2139.12
556.756	2103.12
562.365	2108.12
567.968	2091.12
573.565	2102.12
579.155	2067.12
584.74	2072.12
590.319	2045.12
595.892	2065.12
601.459	2020.12
607.02	2026.12
612.575	1999.12
618.124	1996.12
623.667	1972.12
629.204	1954.12
634.735	1943.12
640.261	1931.12
645.781	1902.12
651.294	1913.12
656.802	1921.12
662.304	1926.12
667.8	1883.12
673.29	1872.12
678.775	1869.12
684.254	1878.12
689.726	1848.12
695.193	1850.12
700.655	1842.12
706.11	1828.12
711.56	1812.12
717.004	1803.12
722.442	1805.12
727.874	1769.12
733.301	1779.12
738.722	1773.12
744.137	1777.12
749.547	1762.12
754.951	1756.12
760.349	1761.12
765.741	1769.12
771.128	1759.12
776.509	1758.12
781.885	1784.12
787.254	1771.12
792.618	1762.12
797.977	1741.12
803.33	1733.12
808.677	1704.12
814.019	1698.12
819.355	1695.12
824.686	1676.12
830.011	1656.12
835.33	1641.12
840.644	1661.12
845.952	1645.12
851.255	1639.12
856.552	1639.12
861.844	1613.12
867.13	1624.12
872.41	1610.12
877.686	1605.12
882.955	1587.12
888.219	1569.12
893.478	1530.12
898.731	1521.12
903.979	1503.12
909.221	1489.12
914.458	1489.12
919.69	1484.12
924.916	1483.12
930.136	1500.12
935.351	1472.12
940.561	1479.12
945.766	1473.12
950.965	1464.12
956.158	1446.12
961.347	1449.12
966.529	1425.12
971.707	1411.12
976.879	1386.12
982.046	1382.12
987.208	1361.12
992.364	1388.12
997.515	1382.12
1002.66	1386.12
1007.801	1398.12
1012.936	1405.12
1018.066	1411.12
1023.19	1439.12
1028.309	1418.12
1033.423	1447.12
1038.532	1422.12
1043.636	1411.12
1048.734	1407.12
1053.827	1389.12
1058.915	1376.12
1063.998	1377.12
1069.075	1366.12
1074.147	1362.12
1079.214	1371.12
1084.276	1396.12
1089.333	1405.12
1094.385	1405.12
1099.431	1421.12
1104.472	1409.12
1109.509	1413.12
1114.54	1403.12
1119.565	1381.12
1124.586	1346.12
1129.602	1347.12
1134.613	1340.12
1139.618	1327.12
1144.619	1340.12
1149.614	1335.12
1154.604	1347.12
1159.589	1354.12
1164.57	1353.12
1169.545	1369.12
1174.515	1360.12
1179.48	1361.12
1184.44	1349.12
1189.395	1354.12
1194.345	1335.12
1199.29	1317.12
1204.23	1330.12
1209.165	1353.12
1214.095	1348.12
1219.021	1349.12
1223.941	1381.12
1228.856	1394.12
1233.766	1398.12
1238.672	1395.12
1243.572	1373.12
1248.467	1366.12
1253.358	1368.12
1258.244	1339.12
1263.124	1317.12
1268	1307.12
1272.871	1277.12
1277.737	1278.12
1282.599	1274.12
1287.455	1293.12
1292.306	1294.12
1297.153	1301.12
1301.995	1309.12
1306.832	1326.12
1311.664	1332.12
1316.491	1322.12
1321.314	1323.12
1326.132	1309.12
1330.945	1310.12
1335.753	1280.12
1340.556	1278.12
1345.354	1260.12
1350.148	1260.12
1354.937	1254.12
1359.722	1228.12
1364.501	1210.12
1369.276	1206.12
1374.046	1174.12
1378.811	1188.12
1383.572	1193.12
1388.327	1175.12
1393.079	1180.12
1397.825	1174.12
1402.567	1163.12
1407.304	1155.12
1412.036	1155.12
1416.764	1162.12
1421.487	1153.12
1426.205	1171.12
1430.919	1172.12
1435.628	1184.12
1440.333	1202.12
1445.032	1203.12
1449.727	1228.12
1454.418	1216.12
1459.104	1205.12
1463.785	1231.12
1468.462	1194.12
1473.134	1192.12
1477.802	1190.12
1482.465	1187.12
1487.123	1178.12
1491.777	1178.12
1496.426	1201.12
1501.071	1196.12
1505.711	1201.12
1510.347	1196.12
1514.978	1221.12
1519.604	1222.12
1524.226	1229.12
1528.844	1239.12
1533.457	1225.12
1538.065	1227.12
1542.669	1214.12
1547.269	1215.12
1551.864	1216.12
1556.454	1229.12
1561.041	1230.12
1565.622	1228.12
1570.199	1256.12
1574.772	1266.12
1579.34	1312.12
1583.904	1302.12
1588.464	1331.12
1593.019	1336.12
1597.569	1364.12
1602.115	1365.12
1606.657	1387.12
1611.195	1382.12
1615.728	1389.12
1620.256	1416.12
1624.78	1443.12
1629.3	1439.12
1633.816	1451.12
1638.327	1490.12
1642.834	1493.12
1647.336	1501.12
1651.834	1506.12
1656.328	1502.12
1660.817	1505.12
1665.302	1491.12
1669.783	1459.12
1674.259	1432.12
1678.732	1393.12
1683.199	1349.12
1687.663	1310.12
1692.122	1266.12
1696.577	1218.12
1701.028	1167.12
1705.474	1114.12
1709.917	1095.12
1714.355	1075.12
1718.788	1074.12
1723.218	1062.12
1727.643	1034.12
1732.064	1018.12
1736.481	988.12
1740.893	973.12
1745.301	954.12
1749.705	923.12
1754.105	901.12
1758.501	903.12
1762.893	883.12
1767.28	872.12
1771.663	871.12
1776.042	855.12
1780.417	867.12
1784.787	865.12
1789.154	877.12
1793.516	866.12
1797.874	857.12
1802.228	854.12
1806.578	844.12
1810.924	826.12
1815.266	827.12
1819.603	789.12
1823.937	802.12
1828.266	795.12
1832.591	781.12
1836.913	780.12
1841.23	781.12
1845.543	787.12
1849.852	787.12
1854.156	789.12
1858.457	780.12
1862.754	803.12
1867.047	782.12
1871.335	808.12
1875.62	805.12
1879.9	801.12
1884.177	804.12
1888.449	810.12
1892.718	801.12
1896.982	809.12
1901.243	800.12
1905.499	796.12
1909.752	796.12
1914	777.12
1918.245	785.12
1922.485	794.12
1926.722	785.12
1930.954	794.12
1935.183	789.12
1939.408	806.12
1943.628	809.12
1947.845	791.12
1952.058	797.12
1956.267	786.12
1960.472	766.12
1964.673	765.12
1968.87	751.12
1973.063	743.12
1977.252	748.12
1981.438	754.12
1985.619	734.12
1989.797	747.12
1993.971	749.12
1998.14	745.12
2002.306	755.12
2006.469	747.12
2010.627	755.12
2014.781	757.12
2018.932	759.12
2023.078	736.12
2027.221	739.12
2031.36	740.12
2035.495	742.12
2039.627	726.12
2043.754	723.12
2047.878	733.12
2051.998	726.12
2056.114	728.12
2060.226	729.12
2064.334	724.12
2068.439	722.12
2072.54	744.12
2076.637	740.12
2080.73	754.12
2084.82	748.12
2088.906	732.12
2092.988	749.12
2097.066	746.12
2101.14	730.12
2105.211	742.12
2109.278	732.12
2113.342	728.12
2117.401	728.12
2121.457	715.12
2125.509	714.12
2129.558	714.12
2133.602	695.12
2137.643	708.12
2141.681	698.12
2145.714	693.12
2149.744	695.12
2153.77	695.12
2157.793	682.12
2161.812	684.12
2165.827	664.12
2169.838	669.12
2173.846	648.12
2177.851	641.12
2181.851	630.12
2185.848	631.12
2189.841	619.12
2193.831	619.12
2197.817	608.12
2201.799	605.12
2205.778	599.12
2209.753	607.12
2213.725	611.12
2217.693	613.12
2221.657	595.12
2225.618	601.12
2229.575	603.12
2233.529	596.12
2237.479	588.12
2241.425	586.12
2245.368	573.12
2249.307	560.12
2253.243	561.12
2257.175	549.12
2261.104	550.12
2265.029	541.12
2268.95	542.12
2272.868	525.12
2276.783	516.12
2280.694	512.12
2284.601	517.12
2288.505	504.12
2292.405	496.12
2296.302	500.12
2300.195	487.12
2304.085	480.12
2307.971	470.12
2311.854	471.12
2315.734	462.12
2319.609	448.12
2323.482	438.12
2327.351	433.12
2331.216	440.12
2335.078	435.12
2338.937	429.12
2342.792	424.12
2346.643	423.12
2350.492	430.12
2354.336	420.12
2358.178	417.12
2362.015	429.12
2365.85	430.12
2369.681	422.12
2373.508	429.12
2377.333	427.12
2381.153	429.12
2384.971	427.12
2388.785	425.12
2392.595	418.12
2396.402	426.12
2400.206	415.12
2404.007	418.12
2407.804	422.12
2411.597	412.12
2415.388	405.12
2419.174	407.12
2422.958	410.12
2426.738	397.12
2430.515	411.12
2434.289	409.12
2438.059	391.12
2441.825	405.12
2445.589	400.12
2449.349	389.12
2453.106	388.12
2456.859	383.12
2460.61	389.12
2464.356	382.12
2468.1	373.12
2471.84	369.12
2475.577	376.12
2479.311	369.12
2483.041	375.12
2486.768	376.12
2490.492	367.12
2494.213	371.12
2497.93	370.12
2501.644	371.12
2505.355	367.12
2509.062	357.12
2512.766	357.12
2516.467	371.12
2520.165	362.12
2523.859	361.12
2527.551	359.12
2531.239	359.12
2534.923	349.12
2538.605	351.12
2542.283	354.12
2545.958	347.12
2549.63	347.12
2553.299	346.12
2556.964	338.12
2560.626	333.12
2564.285	337.12
2567.941	341.12
2571.594	334.12
2575.243	337.12
2578.89	326.12
2582.533	317.12
2586.173	309.12
2589.809	317.12
2593.443	312.12
2597.073	309.12
2600.701	310.12
2604.325	309.12
2607.946	301.12
2611.564	313.12
2615.178	307.12
2618.79	296.12
2622.398	299.12
2626.004	300.12
2629.606	294.12
2633.205	282.12
2636.801	288.12
2640.394	292.12
2643.983	282.12
2647.57	276.12
2651.153	275.12
2654.734	282.12
2658.311	272.12
2661.885	281.12
2665.456	271.12
2669.025	274.12
2672.589	267.12
2676.151	262.12
2679.71	260.12
2683.266	254.12
2686.819	263.12
2690.368	254.12
2693.915	259.12
2697.458	249.12
2700.999	251.12
2704.536	251.12
2708.071	241.12
2711.602	248.12
2715.13	234.12
2718.656	237.12
2722.178	239.12
2725.697	243.12
2729.214	238.12
2732.727	250.12
2736.237	244.12
2739.744	239.12
2743.249	253.12
2746.75	246.12
2750.248	245.12
2753.743	243.12
2757.236	237.12
2760.725	239.12
2764.211	239.12
2767.695	236.12
2771.175	237.12
2774.652	230.12
2778.127	232.12
2781.598	235.12
2785.067	222.12
2788.532	232.12
2791.995	218.12
2795.455	233.12
2798.911	234.12
2802.365	227.12
2805.816	243.12
2809.264	233.12
2812.709	228.12
2816.151	235.12
2819.59	228.12
2823.026	230.12
2826.46	235.12
2829.89	240.12
2833.318	234.12
2836.742	237.12
2840.164	234.12
2843.583	239.12
2846.999	243.12
2850.412	239.12
2853.822	236.12
2857.229	239.12
2860.634	245.12
2864.035	251.12
2867.434	257.12
2870.83	251.12
2874.223	252.12
2877.613	258.12
2881	256.12
2884.385	253.12
2887.766	261.12
2891.145	256.12
2894.521	257.12
2897.894	261.12
2901.264	257.12
2904.631	258.12
2907.996	255.12
2911.358	265.12
2914.717	278.12
2918.073	268.12
2921.426	275.12
2924.777	279.12
2928.124	272.12
2931.469	289.12
2934.811	296.12
2938.15	294.12
2941.487	292.12
2944.821	300.12
2948.152	306.12
2951.48	311.12
2954.805	316.12
2958.128	323.12
2961.447	326.12
2964.765	330.12
2968.079	325.12
2971.39	340.12
2974.699	342.12
2978.005	353.12
2981.308	367.12
2984.609	362.12
2987.907	377.12
2991.202	394.12
2994.494	399.12
2997.784	407.12
3001.07	426.12
3004.355	432.12
3007.636	443.12
3010.915	443.12
3014.191	455.12
3017.464	471.12
3020.734	471.12
3024.002	478.12
3027.267	488.12
3030.53	488.12
3033.789	499.12
3037.046	506.12
3040.301	520.12
3043.552	530.12
3046.801	547.12
3050.048	562.12
3053.291	572.12
3056.532	587.12
3059.771	601.12
3063.006	625.12
3066.239	637.12
3069.469	669.12
3072.697	671.12
3075.922	688.12
3079.144	718.12
3082.364	732.12
3085.581	757.12
3088.795	765.12
3092.007	789.12
3095.216	802.12
3098.423	813.12
3101.627	841.12
3104.828	850.12
3108.026	873.12
3111.222	888.12
3114.416	897.12
3117.607	934.12
3120.795	943.12
3123.98	952.12
3127.163	995.12
3130.344	1017.12
3133.521	1036.12
3136.696	1063.12
3139.869	1077.12
3143.039	1085.12
3146.206	1109.12
3149.371	1111.12
3152.533	1123.12
3155.693	1137.12
3158.85	1152.12
3162.005	1157.12
3165.157	1164.12
3168.306	1162.12
3171.453	1164.12
3174.597	1169.12
3177.739	1166.12
3180.878	1192.12
3184.014	1185.12
3187.149	1184.12
3190.28	1188.12
3193.409	1182.12
3196.536	1182.12
3199.659	1187.12
3202.781	1212.12
3205.9	1195.12
3209.016	1201.12
3212.13	1202.12
3215.241	1204.12
3218.35	1185.12
3221.456	1174.12
3224.56	1164.12
3227.661	1156.12
3230.76	1145.12
3233.856	1127.12
3236.95	1121.12
3240.041	1129.12
3243.13	1102.12
3246.216	1087.12
3249.3	1103.12
3252.382	1091.12
3255.46	1081.12
3258.537	1077.12
3261.611	1067.12
3264.682	1061.12
3267.751	1062.12
3270.818	1074.12
3273.882	1047.12
3276.943	1037.12
3280.002	1050.12
3283.059	1024.12
3286.113	1001.12
3289.165	997.12
3292.214	980.12
3295.261	965.12
3298.306	963.12
3301.348	944.12
3304.387	944.12
3307.425	924.12
3310.459	899.12
3313.492	900.12
3316.521	880.12
3319.549	876.12
3322.574	860.12
3325.597	861.12
3328.617	855.12
3331.635	854.12
3334.65	852.12
3337.663	853.12
3340.674	846.12
3343.682	819.12
3346.688	832.12
3349.691	824.12
3352.692	833.12
3355.691	807.12
3358.687	796.12
3361.681	804.12
3364.673	791.12
3367.662	779.12
3370.649	772.12
3373.633	763.12
3376.615	760.12
3379.595	744.12
3382.572	738.12
3385.547	717.12
3388.52	711.12
3391.49	710.12
3394.458	686.12
3397.424	679.12
3400.387	677.12
3403.348	677.12
3406.307	668.12
3409.263	655.12
3412.217	653.12
3415.168	647.12
3418.118	627.12
3421.065	623.12
3424.009	620.12
3426.951	608.12
3429.891	596.12
3432.829	604.12
3435.764	577.12
3438.697	565.12
3441.628	561.12
3444.557	546.12
3447.483	526.12
3450.407	512.12
3453.328	495.12
3456.247	475.12
3459.164	469.12
3462.079	456.12
3464.991	438.12
3467.902	426.12
3470.809	419.12
3473.715	395.12
3476.618	395.12
3479.519	385.12
3482.418	366.12
3485.315	365.12
3488.209	342.12
3491.101	342.12
3493.99	321.12
3496.878	317.12
3499.763	302.12
3502.646	291.12
3505.527	290.12
3508.405	268.12
3511.281	265.12
3514.155	249.12
3517.027	245.12
3519.897	235.12
3522.764	211.12
3525.629	206.12
3528.492	197.12
3531.352	177.12
3534.211	170.12
3537.067	156.12
3539.921	149.12
3542.773	145.12
3545.622	127.12
3548.469	132.12
3551.315	114.12
3554.157	113.12
3556.998	102.12
3559.837	97.12
3562.673	91.12
3565.507	81.12
3568.339	74.12
3571.169	63.12
3573.996	68.12
3576.822	59.12
3579.645	54.12
3582.466	47.12
3585.285	39.12
3588.101	40.12
3590.916	30.12
3593.728	27.12
3596.538	19.12
3599.346	16.12
3602.152	5.12
3604.956	3.12
3607.757	0.12
3610.556	-0.88
3613.354	-6.88
3616.149	-3.88
3618.942	-8.88
3621.732	-10.88
3624.521	-16.88
3627.307	-19.88
3630.092	-21.88
3632.874	-26.88
3635.654	-31.88
3638.432	-29.88
3641.208	-29.88
3643.982	-34.88
3646.753	-34.88
3649.523	-39.88
3652.29	-42.88
3655.055	-46.88
3657.818	-48.88
3660.579	-48.88
3663.338	-58.88
3666.095	-56.88
3668.849	-64.88
3671.602	-62.88
3674.352	-62.88
3677.101	-63.88
3679.847	-67.88
3682.591	-67.88
3685.333	-73.88
3688.073	-70.88
3690.811	-70.88
3693.547	-74.88
3696.281	-76.88
3699.013	-75.88
3701.742	-77.88
3704.47	-79.88
3707.195	-80.88
3709.919	-79.88
3712.64	-86.88
3715.359	-83.88
3718.076	-88.88
3720.792	-82.88
3723.505	-88.88
3726.216	-88.88
3728.925	-88.88
3731.632	-93.88
3734.336	-95.88
3737.039	-93.88
3739.74	-94.88
3742.439	-93.88
3745.136	-96.88
3747.83	-94.88
3750.523	-97.88
3753.213	-91.88
3755.902	-92.88
3758.589	-89.88
3761.273	-95.88
3763.956	-101.88
3766.636	-98.88
3769.315	-98.88
3771.991	-98.88
3774.665	-96.88
3777.338	-100.88
3780.008	-97.88
3782.677	-101.88
3785.343	-97.88
3788.007	-100.88
3790.67	-97.88
3793.33	-101.88
3795.989	-104.88
3798.645	-100.88
3801.299	-101.88
3803.952	-104.88
3806.602	-101.88
3809.251	-100.88
3811.897	-107.88
3814.542	-110.88
3817.184	-104.88
3819.825	-101.88
3822.463	-104.88
3825.1	-106.88
3827.735	-107.88
3830.367	-107.88
3832.998	-105.88
3835.627	-109.88
3838.253	-106.88
3840.878	-109.88
3843.501	-107.88
3846.122	-104.88
3848.741	-104.88
3851.358	-105.88
3853.973	-102.88
3856.586	-109.88
3859.197	-110.88
3861.806	-113.88
3864.414	-106.88
3867.019	-113.88
3869.622	-109.88
3872.224	-108.88
3874.823	-106.88
3877.421	-102.88
3880.016	-102.88
3882.61	-98.88
3885.202	-99.88
3887.792	-103.88
3890.38	-106.88
3892.966	-107.88
3895.55	-109.88
3898.132	-116.88
3900.713	-113.88
3903.291	-111.88
3905.868	-108.88
3908.442	-109.88
3911.015	-109.88
3913.586	-109.88
3916.155	-107.88
3918.722	-109.88
3921.287	-112.88
3923.85	-111.88
3926.411	-106.88
3928.971	-114.88
3931.528	-114.88
3934.084	-112.88
3936.638	-112.88
3939.19	-112.88
3941.74	-107.88
3944.288	-113.88
3946.834	-113.88
3949.378	-114.88
3951.921	-112.88
3954.462	-111.88
3957	-114.88
3959.537	-115.88
3962.072	-116.88
3964.606	-115.88
3967.137	-112.88
3969.667	-111.88
3972.194	-110.88
3974.72	-111.88
3977.244	-107.88
3979.766	-110.88
3982.286	-109.88
3984.805	-113.88
3987.321	-112.88
3989.836	-109.88
3992.349	-111.88
3994.86	-107.88
3997.369	-114.88
3999.877	-108.88
4002.382	-107.88
4004.886	-111.88
4007.388	-109.88
4009.888	-112.88
4012.386	-110.88
4014.883	-111.88
4017.377	-109.88
4019.87	-110.88
4022.361	-113.88
4024.85	-110.88
4027.338	-111.88
4029.823	-116.88
4032.307	-115.88
4034.789	-114.88
4037.269	-112.88
4039.747	-113.88
4042.224	-107.88
4044.699	-109.88
4047.172	-112.88
4049.643	-111.88
4052.112	-111.88
4054.58	-115.88
4057.046	-110.88
4059.51	-111.88
4061.972	-112.88
4064.432	-111.88
4066.891	-110.88
4069.348	-110.88
4071.803	-108.88
4074.256	-112.88
4076.708	-113.88
4079.158	-113.88
4081.606	-114.88
4084.052	-112.88
4086.497	-111.88
4088.939	-113.88
4091.38	-112.88
4093.819	-113.88
4096.257	-117.88
4098.693	-117.88
4101.127	-119.88
4103.559	-117.88
4105.989	-77.88
4108.418	-72.88
4110.845	-65.88
4113.27	-61.88
4115.694	-59.88
4118.115	-48.88
4120.535	-115.88
4122.954	-113.88
4125.37	-110.88
4127.785	-110.88
4130.198	-111.88
4132.609	-110.88
4135.019	-117.88
4137.427	-117.88
4139.833	-120.88
4142.237	-114.88
