Data from 100000CFU2_A_RamanShift_1.txt Node
Date: Thu Jan 26 11:03:18 IST 2017
User: aro
Spectrometer: QEPB0276
Trigger mode: 0
Integration Time (sec): 5.000000E0
Scans to average: 1
Electric dark correction enabled: true
Nonlinearity correction enabled: false
Boxcar width: 0
XAxis mode: Raman Shifts
Number of Pixels in Spectrum: 1044
>>>>>Begin Spectral Data<<<<<
160.701	-35.75
166.742	-10.75
172.777	105.25
178.805	416.25
184.826	1157.25
190.841	2315.25
196.849	3560.25
202.85	4310.25
208.845	4456.25
214.833	4318.25
220.815	4173.25
226.789	4028.25
232.758	3922.25
238.719	3815.25
244.674	3644.25
250.623	3497.25
256.565	3333.25
262.5	3175.25
268.429	3053.25
274.351	2931.25
280.267	2831.25
286.176	2713.25
292.079	2632.25
297.975	2558.25
303.865	2449.25
309.748	2396.25
315.625	2345.25
321.495	2330.25
327.359	2299.25
333.217	2265.25
339.068	2242.25
344.912	2218.25
350.751	2220.25
356.583	2223.25
362.408	2218.25
368.227	2210.25
374.04	2204.25
379.847	2224.25
385.647	2236.25
391.44	2258.25
397.228	2243.25
403.009	2262.25
408.784	2267.25
414.553	2302.25
420.315	2289.25
426.071	2308.25
431.821	2289.25
437.565	2286.25
443.302	2275.25
449.033	2278.25
454.758	2260.25
460.477	2263.25
466.189	2249.25
471.896	2236.25
477.596	2222.25
483.29	2218.25
488.978	2188.25
494.66	2196.25
500.335	2147.25
506.005	2101.25
511.668	2088.25
517.325	2032.25
522.977	2005.25
528.622	1993.25
534.261	1962.25
539.894	1958.25
545.521	1943.25
551.141	1909.25
556.756	1919.25
562.365	1917.25
567.968	1874.25
573.565	1857.25
579.155	1849.25
584.74	1855.25
590.319	1857.25
595.892	1835.25
601.459	1828.25
607.02	1813.25
612.575	1766.25
618.124	1781.25
623.667	1755.25
629.204	1744.25
634.735	1707.25
640.261	1710.25
645.781	1689.25
651.294	1695.25
656.802	1693.25
662.304	1682.25
667.8	1672.25
673.29	1673.25
678.775	1665.25
684.254	1658.25
689.726	1638.25
695.193	1623.25
700.655	1629.25
706.11	1618.25
711.56	1610.25
717.004	1595.25
722.442	1577.25
727.874	1570.25
733.301	1580.25
738.722	1577.25
744.137	1558.25
749.547	1551.25
754.951	1552.25
760.349	1540.25
765.741	1538.25
771.128	1548.25
776.509	1555.25
781.885	1544.25
787.254	1537.25
792.618	1533.25
797.977	1516.25
803.33	1488.25
808.677	1488.25
814.019	1487.25
819.355	1453.25
824.686	1449.25
830.011	1441.25
835.33	1432.25
840.644	1428.25
845.952	1429.25
851.255	1417.25
856.552	1415.25
861.844	1396.25
867.13	1391.25
872.41	1386.25
877.686	1377.25
882.955	1348.25
888.219	1337.25
893.478	1335.25
898.731	1307.25
903.979	1298.25
909.221	1261.25
914.458	1258.25
919.69	1252.25
924.916	1247.25
930.136	1241.25
935.351	1239.25
940.561	1239.25
945.766	1239.25
950.965	1240.25
956.158	1223.25
961.347	1202.25
966.529	1200.25
971.707	1164.25
976.879	1157.25
982.046	1147.25
987.208	1153.25
992.364	1155.25
997.515	1155.25
1002.66	1171.25
1007.801	1172.25
1012.936	1188.25
1018.066	1193.25
1023.19	1200.25
1028.309	1198.25
1033.423	1197.25
1038.532	1186.25
1043.636	1185.25
1048.734	1155.25
1053.827	1161.25
1058.915	1143.25
1063.998	1149.25
1069.075	1140.25
1074.147	1136.25
1079.214	1146.25
1084.276	1169.25
1089.333	1155.25
1094.385	1176.25
1099.431	1181.25
1104.472	1176.25
1109.509	1188.25
1114.54	1146.25
1119.565	1161.25
1124.586	1128.25
1129.602	1126.25
1134.613	1109.25
1139.618	1108.25
1144.619	1109.25
1149.614	1132.25
1154.604	1118.25
1159.589	1116.25
1164.57	1135.25
1169.545	1133.25
1174.515	1136.25
1179.48	1134.25
1184.44	1114.25
1189.395	1123.25
1194.345	1116.25
1199.29	1119.25
1204.23	1107.25
1209.165	1104.25
1214.095	1122.25
1219.021	1126.25
1223.941	1151.25
1228.856	1144.25
1233.766	1142.25
1238.672	1163.25
1243.572	1158.25
1248.467	1149.25
1253.358	1139.25
1258.244	1122.25
1263.124	1085.25
1268	1095.25
1272.871	1081.25
1277.737	1060.25
1282.599	1067.25
1287.455	1069.25
1292.306	1079.25
1297.153	1077.25
1301.995	1085.25
1306.832	1092.25
1311.664	1088.25
1316.491	1106.25
1321.314	1098.25
1326.132	1083.25
1330.945	1079.25
1335.753	1068.25
1340.556	1056.25
1345.354	1052.25
1350.148	1050.25
1354.937	1022.25
1359.722	1035.25
1364.501	1008.25
1369.276	1007.25
1374.046	991.25
1378.811	997.25
1383.572	989.25
1388.327	995.25
1393.079	982.25
1397.825	970.25
1402.567	980.25
1407.304	959.25
1412.036	963.25
1416.764	956.25
1421.487	975.25
1426.205	963.25
1430.919	975.25
1435.628	984.25
1440.333	985.25
1445.032	1006.25
1449.727	1009.25
1454.418	1015.25
1459.104	1018.25
1463.785	1002.25
1468.462	978.25
1473.134	986.25
1477.802	981.25
1482.465	958.25
1487.123	969.25
1491.777	973.25
1496.426	978.25
1501.071	982.25
1505.711	990.25
1510.347	1018.25
1514.978	1020.25
1519.604	1031.25
1524.226	1024.25
1528.844	1029.25
1533.457	1025.25
1538.065	1022.25
1542.669	1024.25
1547.269	1014.25
1551.864	1025.25
1556.454	1038.25
1561.041	1045.25
1565.622	1058.25
1570.199	1068.25
1574.772	1082.25
1579.34	1103.25
1583.904	1119.25
1588.464	1130.25
1593.019	1171.25
1597.569	1169.25
1602.115	1184.25
1606.657	1197.25
1611.195	1216.25
1615.728	1224.25
1620.256	1221.25
1624.78	1252.25
1629.3	1271.25
1633.816	1276.25
1638.327	1298.25
1642.834	1324.25
1647.336	1336.25
1651.834	1339.25
1656.328	1315.25
1660.817	1327.25
1665.302	1279.25
1669.783	1270.25
1674.259	1228.25
1678.732	1204.25
1683.199	1161.25
1687.663	1130.25
1692.122	1081.25
1696.577	1025.25
1701.028	991.25
1705.474	948.25
1709.917	914.25
1714.355	916.25
1718.788	893.25
1723.218	885.25
1727.643	875.25
1732.064	844.25
1736.481	825.25
1740.893	809.25
1745.301	788.25
1749.705	764.25
1754.105	750.25
1758.501	733.25
1762.893	719.25
1767.28	717.25
1771.663	705.25
1776.042	700.25
1780.417	708.25
1784.787	707.25
1789.154	702.25
1793.516	703.25
1797.874	690.25
1802.228	687.25
1806.578	665.25
1810.924	668.25
1815.266	648.25
1819.603	638.25
1823.937	645.25
1828.266	636.25
1832.591	645.25
1836.913	622.25
1841.23	638.25
1845.543	632.25
1849.852	633.25
1854.156	632.25
1858.457	616.25
1862.754	629.25
1867.047	635.25
1871.335	643.25
1875.62	635.25
1879.9	648.25
1884.177	648.25
1888.449	641.25
1892.718	646.25
1896.982	631.25
1901.243	627.25
1905.499	630.25
1909.752	627.25
1914	626.25
1918.245	633.25
1922.485	634.25
1926.722	635.25
1930.954	632.25
1935.183	643.25
1939.408	636.25
1943.628	645.25
1947.845	640.25
1952.058	643.25
1956.267	642.25
1960.472	628.25
1964.673	624.25
1968.87	603.25
1973.063	610.25
1977.252	599.25
1981.438	608.25
1985.619	600.25
1989.797	605.25
1993.971	606.25
1998.14	607.25
2002.306	606.25
2006.469	614.25
2010.627	612.25
2014.781	619.25
2018.932	616.25
2023.078	620.25
2027.221	612.25
2031.36	621.25
2035.495	610.25
2039.627	590.25
2043.754	605.25
2047.878	599.25
2051.998	597.25
2056.114	606.25
2060.226	597.25
2064.334	596.25
2068.439	593.25
2072.54	614.25
2076.637	601.25
2080.73	609.25
2084.82	610.25
2088.906	617.25
2092.988	607.25
2097.066	598.25
2101.14	606.25
2105.211	610.25
2109.278	607.25
2113.342	599.25
2117.401	582.25
2121.457	576.25
2125.509	589.25
2129.558	588.25
2133.602	575.25
2137.643	581.25
2141.681	582.25
2145.714	574.25
2149.744	571.25
2153.77	560.25
2157.793	575.25
2161.812	552.25
2165.827	546.25
2169.838	538.25
2173.846	533.25
2177.851	522.25
2181.851	518.25
2185.848	518.25
2189.841	515.25
2193.831	499.25
2197.817	499.25
2201.799	507.25
2205.778	497.25
2209.753	497.25
2213.725	488.25
2217.693	497.25
2221.657	495.25
2225.618	491.25
2229.575	485.25
2233.529	484.25
2237.479	482.25
2241.425	480.25
2245.368	459.25
2249.307	460.25
2253.243	465.25
2257.175	445.25
2261.104	442.25
2265.029	436.25
2268.95	441.25
2272.868	414.25
2276.783	424.25
2280.694	414.25
2284.601	411.25
2288.505	412.25
2292.405	397.25
2296.302	397.25
2300.195	393.25
2304.085	382.25
2307.971	368.25
2311.854	374.25
2315.734	368.25
2319.609	358.25
2323.482	356.25
2327.351	352.25
2331.216	358.25
2335.078	338.25
2338.937	341.25
2342.792	346.25
2346.643	340.25
2350.492	347.25
2354.336	332.25
2358.178	346.25
2362.015	342.25
2365.85	340.25
2369.681	345.25
2373.508	342.25
2377.333	344.25
2381.153	346.25
2384.971	340.25
2388.785	343.25
2392.595	336.25
2396.402	331.25
2400.206	331.25
2404.007	323.25
2407.804	327.25
2411.597	322.25
2415.388	323.25
2419.174	327.25
2422.958	322.25
2426.738	319.25
2430.515	322.25
2434.289	313.25
2438.059	328.25
2441.825	323.25
2445.589	321.25
2449.349	313.25
2453.106	306.25
2456.859	311.25
2460.61	288.25
2464.356	308.25
2468.1	291.25
2471.84	291.25
2475.577	295.25
2479.311	291.25
2483.041	286.25
2486.768	303.25
2490.492	290.25
2494.213	289.25
2497.93	297.25
2501.644	298.25
2505.355	297.25
2509.062	288.25
2512.766	297.25
2516.467	296.25
2520.165	293.25
2523.859	288.25
2527.551	290.25
2531.239	287.25
2534.923	276.25
2538.605	275.25
2542.283	278.25
2545.958	271.25
2549.63	263.25
2553.299	268.25
2556.964	265.25
2560.626	262.25
2564.285	259.25
2567.941	265.25
2571.594	259.25
2575.243	260.25
2578.89	253.25
2582.533	247.25
2586.173	250.25
2589.809	256.25
2593.443	241.25
2597.073	250.25
2600.701	251.25
2604.325	244.25
2607.946	243.25
2611.564	248.25
2615.178	241.25
2618.79	246.25
2622.398	239.25
2626.004	239.25
2629.606	232.25
2633.205	236.25
2636.801	229.25
2640.394	229.25
2643.983	218.25
2647.57	217.25
2651.153	221.25
2654.734	218.25
2658.311	217.25
2661.885	214.25
2665.456	210.25
2669.025	209.25
2672.589	210.25
2676.151	205.25
2679.71	199.25
2683.266	206.25
2686.819	202.25
2690.368	198.25
2693.915	195.25
2697.458	203.25
2700.999	192.25
2704.536	195.25
2708.071	193.25
2711.602	184.25
2715.13	188.25
2718.656	191.25
2722.178	188.25
2725.697	189.25
2729.214	190.25
2732.727	196.25
2736.237	190.25
2739.744	185.25
2743.249	190.25
2746.75	196.25
2750.248	195.25
2753.743	191.25
2757.236	187.25
2760.725	185.25
2764.211	187.25
2767.695	183.25
2771.175	183.25
2774.652	185.25
2778.127	179.25
2781.598	176.25
2785.067	174.25
2788.532	181.25
2791.995	179.25
2795.455	185.25
2798.911	173.25
2802.365	186.25
2805.816	189.25
2809.264	186.25
2812.709	181.25
2816.151	180.25
2819.59	182.25
2823.026	184.25
2826.46	189.25
2829.89	193.25
2833.318	191.25
2836.742	191.25
2840.164	191.25
2843.583	191.25
2846.999	196.25
2850.412	195.25
2853.822	202.25
2857.229	204.25
2860.634	209.25
2864.035	204.25
2867.434	208.25
2870.83	213.25
2874.223	208.25
2877.613	219.25
2881	216.25
2884.385	220.25
2887.766	216.25
2891.145	211.25
2894.521	219.25
2897.894	223.25
2901.264	222.25
2904.631	226.25
2907.996	226.25
2911.358	237.25
2914.717	225.25
2918.073	238.25
2921.426	235.25
2924.777	247.25
2928.124	246.25
2931.469	245.25
2934.811	259.25
2938.15	257.25
2941.487	262.25
2944.821	264.25
2948.152	282.25
2951.48	278.25
2954.805	280.25
2958.128	280.25
2961.447	285.25
2964.765	292.25
2968.079	294.25
2971.39	302.25
2974.699	312.25
2978.005	319.25
2981.308	328.25
2984.609	335.25
2987.907	341.25
2991.202	356.25
2994.494	366.25
2997.784	373.25
3001.07	393.25
3004.355	399.25
3007.636	411.25
3010.915	418.25
3014.191	420.25
3017.464	429.25
3020.734	435.25
3024.002	451.25
3027.267	458.25
3030.53	452.25
3033.789	472.25
3037.046	467.25
3040.301	492.25
3043.552	501.25
3046.801	512.25
3050.048	518.25
3053.291	549.25
3056.532	560.25
3059.771	575.25
3063.006	599.25
3066.239	620.25
3069.469	626.25
3072.697	653.25
3075.922	669.25
3079.144	693.25
3082.364	697.25
3085.581	711.25
3088.795	746.25
3092.007	753.25
3095.216	783.25
3098.423	792.25
3101.627	813.25
3104.828	822.25
3108.026	838.25
3111.222	851.25
3114.416	878.25
3117.607	900.25
3120.795	926.25
3123.98	938.25
3127.163	958.25
3130.344	995.25
3133.521	994.25
3136.696	1041.25
3139.869	1045.25
3143.039	1064.25
3146.206	1071.25
3149.371	1086.25
3152.533	1103.25
3155.693	1102.25
3158.85	1127.25
3162.005	1119.25
3165.157	1130.25
3168.306	1144.25
3171.453	1147.25
3174.597	1151.25
3177.739	1151.25
3180.878	1155.25
3184.014	1158.25
3187.149	1164.25
3190.28	1176.25
3193.409	1165.25
3196.536	1171.25
3199.659	1171.25
3202.781	1182.25
3205.9	1179.25
3209.016	1180.25
3212.13	1184.25
3215.241	1182.25
3218.35	1166.25
3221.456	1159.25
3224.56	1160.25
3227.661	1125.25
3230.76	1131.25
3233.856	1107.25
3236.95	1096.25
3240.041	1087.25
3243.13	1092.25
3246.216	1089.25
3249.3	1064.25
3252.382	1078.25
3255.46	1065.25
3258.537	1059.25
3261.611	1061.25
3264.682	1052.25
3267.751	1051.25
3270.818	1049.25
3273.882	1037.25
3276.943	1034.25
3280.002	1024.25
3283.059	1012.25
3286.113	1004.25
3289.165	995.25
3292.214	976.25
3295.261	957.25
3298.306	944.25
3301.348	940.25
3304.387	929.25
3307.425	900.25
3310.459	889.25
3313.492	881.25
3316.521	861.25
3319.549	856.25
3322.574	866.25
3325.597	851.25
3328.617	844.25
3331.635	849.25
3334.65	828.25
3337.663	843.25
3340.674	830.25
3343.682	816.25
3346.688	834.25
3349.691	815.25
3352.692	808.25
3355.691	814.25
3358.687	792.25
3361.681	786.25
3364.673	777.25
3367.662	768.25
3370.649	758.25
3373.633	748.25
3376.615	743.25
3379.595	734.25
3382.572	722.25
3385.547	714.25
3388.52	709.25
3391.49	683.25
3394.458	686.25
3397.424	668.25
3400.387	673.25
3403.348	654.25
3406.307	644.25
3409.263	646.25
3412.217	649.25
3415.168	624.25
3418.118	623.25
3421.065	615.25
3424.009	611.25
3426.951	607.25
3429.891	589.25
3432.829	587.25
3435.764	563.25
3438.697	553.25
3441.628	543.25
3444.557	539.25
3447.483	514.25
3450.407	500.25
3453.328	484.25
3456.247	473.25
3459.164	457.25
3462.079	440.25
3464.991	432.25
3467.902	419.25
3470.809	408.25
3473.715	399.25
3476.618	377.25
3479.519	366.25
3482.418	369.25
3485.315	349.25
3488.209	348.25
3491.101	335.25
3493.99	310.25
3496.878	311.25
3499.763	294.25
3502.646	281.25
3505.527	281.25
3508.405	269.25
3511.281	254.25
3514.155	241.25
3517.027	232.25
3519.897	218.25
3522.764	202.25
3525.629	200.25
3528.492	184.25
3531.352	174.25
3534.211	159.25
3537.067	153.25
3539.921	141.25
3542.773	133.25
3545.622	127.25
3548.469	124.25
3551.315	119.25
3554.157	108.25
3556.998	98.25
3559.837	101.25
3562.673	90.25
3565.507	71.25
3568.339	68.25
3571.169	64.25
3573.996	67.25
3576.822	54.25
3579.645	48.25
3582.466	39.25
3585.285	39.25
3588.101	34.25
3590.916	31.25
3593.728	19.25
3596.538	14.25
3599.346	13.25
3602.152	1.25
3604.956	-4.75
3607.757	2.25
3610.556	1.25
3613.354	-7.75
3616.149	-12.75
3618.942	-13.75
3621.732	-15.75
3624.521	-24.75
3627.307	-21.75
3630.092	-22.75
3632.874	-27.75
3635.654	-30.75
3638.432	-30.75
3641.208	-30.75
3643.982	-39.75
3646.753	-40.75
3649.523	-45.75
3652.29	-48.75
3655.055	-50.75
3657.818	-50.75
3660.579	-50.75
3663.338	-57.75
3666.095	-61.75
3668.849	-71.75
3671.602	-63.75
3674.352	-67.75
3677.101	-71.75
3679.847	-71.75
3682.591	-76.75
3685.333	-72.75
3688.073	-71.75
3690.811	-75.75
3693.547	-77.75
3696.281	-82.75
3699.013	-81.75
3701.742	-83.75
3704.47	-81.75
3707.195	-84.75
3709.919	-82.75
3712.64	-85.75
3715.359	-86.75
3718.076	-89.75
3720.792	-87.75
3723.505	-91.75
3726.216	-91.75
3728.925	-88.75
3731.632	-94.75
3734.336	-96.75
3737.039	-97.75
3739.74	-95.75
3742.439	-99.75
3745.136	-96.75
3747.83	-95.75
3750.523	-94.75
3753.213	-92.75
3755.902	-93.75
3758.589	-91.75
3761.273	-96.75
3763.956	-100.75
3766.636	-100.75
3769.315	-97.75
3771.991	-100.75
3774.665	-99.75
3777.338	-100.75
3780.008	-103.75
3782.677	-102.75
3785.343	-100.75
3788.007	-103.75
3790.67	-103.75
3793.33	-105.75
3795.989	-108.75
3798.645	-105.75
3801.299	-105.75
3803.952	-105.75
3806.602	-104.75
3809.251	-103.75
3811.897	-106.75
3814.542	-110.75
3817.184	-106.75
3819.825	-102.75
3822.463	-105.75
3825.1	-107.75
3827.735	-105.75
3830.367	-107.75
3832.998	-106.75
3835.627	-107.75
3838.253	-107.75
3840.878	-112.75
3843.501	-107.75
3846.122	-109.75
3848.741	-105.75
3851.358	-110.75
3853.973	-105.75
3856.586	-112.75
3859.197	-110.75
3861.806	-115.75
3864.414	-110.75
3867.019	-115.75
3869.622	-111.75
3872.224	-109.75
3874.823	-106.75
3877.421	-100.75
3880.016	-106.75
3882.61	-97.75
3885.202	-100.75
3887.792	-101.75
3890.38	-105.75
3892.966	-110.75
3895.55	-111.75
3898.132	-118.75
3900.713	-113.75
3903.291	-108.75
3905.868	-110.75
3908.442	-111.75
3911.015	-112.75
3913.586	-112.75
3916.155	-109.75
3918.722	-113.75
3921.287	-114.75
3923.85	-115.75
3926.411	-113.75
3928.971	-117.75
3931.528	-112.75
3934.084	-116.75
3936.638	-114.75
3939.19	-112.75
3941.74	-107.75
3944.288	-114.75
3946.834	-110.75
3949.378	-111.75
3951.921	-114.75
3954.462	-112.75
3957	-114.75
3959.537	-117.75
3962.072	-113.75
3964.606	-114.75
3967.137	-111.75
3969.667	-114.75
3972.194	-111.75
3974.72	-112.75
3977.244	-112.75
3979.766	-112.75
3982.286	-111.75
3984.805	-114.75
3987.321	-116.75
3989.836	-112.75
3992.349	-114.75
3994.86	-113.75
3997.369	-115.75
3999.877	-112.75
4002.382	-111.75
4004.886	-114.75
4007.388	-111.75
4009.888	-113.75
4012.386	-113.75
4014.883	-113.75
4017.377	-110.75
4019.87	-115.75
4022.361	-114.75
4024.85	-112.75
4027.338	-115.75
4029.823	-116.75
4032.307	-117.75
4034.789	-116.75
4037.269	-113.75
4039.747	-115.75
4042.224	-110.75
4044.699	-112.75
4047.172	-113.75
4049.643	-114.75
4052.112	-113.75
4054.58	-113.75
4057.046	-113.75
4059.51	-112.75
4061.972	-110.75
4064.432	-114.75
4066.891	-111.75
4069.348	-110.75
4071.803	-111.75
4074.256	-112.75
4076.708	-110.75
4079.158	-113.75
4081.606	-113.75
4084.052	-114.75
4086.497	-113.75
4088.939	-116.75
4091.38	-114.75
4093.819	-116.75
4096.257	-116.75
4098.693	-117.75
4101.127	-117.75
4103.559	-113.75
4105.989	-72.75
4108.418	-72.75
4110.845	-71.75
4113.27	-69.75
4115.694	-61.75
4118.115	-51.75
4120.535	-117.75
4122.954	-113.75
4125.37	-112.75
4127.785	-107.75
4130.198	-111.75
4132.609	-108.75
4135.019	-115.75
4137.427	-119.75
4139.833	-120.75
4142.237	-118.75
