Data from 1000000CFU1_B_RamanShift_1.txt Node
Date: Thu Jan 26 11:39:58 IST 2017
User: aro
Spectrometer: QEPB0276
Trigger mode: 0
Integration Time (sec): 5.000000E0
Scans to average: 1
Electric dark correction enabled: true
Nonlinearity correction enabled: false
Boxcar width: 0
XAxis mode: Raman Shifts
Number of Pixels in Spectrum: 1044
>>>>>Begin Spectral Data<<<<<
160.701	-31.75
166.742	0.25
172.777	98.25
178.805	400.25
184.826	1109.25
190.841	2252.25
196.849	3523.25
202.85	4318.25
208.845	4454.25
214.833	4316.25
220.815	4179.25
226.789	4044.25
232.758	3934.25
238.719	3812.25
244.674	3684.25
250.623	3552.25
256.565	3411.25
262.5	3212.25
268.429	3115.25
274.351	2997.25
280.267	2889.25
286.176	2787.25
292.079	2700.25
297.975	2610.25
303.865	2539.25
309.748	2483.25
315.625	2433.25
321.495	2382.25
327.359	2347.25
333.217	2328.25
339.068	2305.25
344.912	2309.25
350.751	2277.25
356.583	2269.25
362.408	2281.25
368.227	2239.25
374.04	2279.25
379.847	2295.25
385.647	2301.25
391.44	2320.25
397.228	2336.25
403.009	2335.25
408.784	2354.25
414.553	2362.25
420.315	2355.25
426.071	2351.25
431.821	2358.25
437.565	2368.25
443.302	2361.25
449.033	2356.25
454.758	2357.25
460.477	2320.25
466.189	2307.25
471.896	2307.25
477.596	2285.25
483.29	2290.25
488.978	2277.25
494.66	2262.25
500.335	2227.25
506.005	2201.25
511.668	2154.25
517.325	2133.25
522.977	2090.25
528.622	2078.25
534.261	2056.25
539.894	2018.25
545.521	2023.25
551.141	2003.25
556.756	2006.25
562.365	1983.25
567.968	1995.25
573.565	1987.25
579.155	1961.25
584.74	1954.25
590.319	1937.25
595.892	1933.25
601.459	1916.25
607.02	1909.25
612.575	1881.25
618.124	1862.25
623.667	1855.25
629.204	1822.25
634.735	1812.25
640.261	1804.25
645.781	1792.25
651.294	1800.25
656.802	1793.25
662.304	1779.25
667.8	1754.25
673.29	1762.25
678.775	1773.25
684.254	1757.25
689.726	1747.25
695.193	1753.25
700.655	1733.25
706.11	1716.25
711.56	1690.25
717.004	1692.25
722.442	1683.25
727.874	1682.25
733.301	1665.25
738.722	1667.25
744.137	1659.25
749.547	1657.25
754.951	1657.25
760.349	1652.25
765.741	1640.25
771.128	1638.25
776.509	1641.25
781.885	1657.25
787.254	1642.25
792.618	1645.25
797.977	1640.25
803.33	1602.25
808.677	1604.25
814.019	1590.25
819.355	1585.25
824.686	1555.25
830.011	1548.25
835.33	1551.25
840.644	1542.25
845.952	1542.25
851.255	1551.25
856.552	1533.25
861.844	1518.25
867.13	1513.25
872.41	1508.25
877.686	1484.25
882.955	1473.25
888.219	1458.25
893.478	1454.25
898.731	1412.25
903.979	1391.25
909.221	1378.25
914.458	1388.25
919.69	1369.25
924.916	1376.25
930.136	1373.25
935.351	1365.25
940.561	1361.25
945.766	1356.25
950.965	1371.25
956.158	1349.25
961.347	1325.25
966.529	1321.25
971.707	1286.25
976.879	1272.25
982.046	1264.25
987.208	1279.25
992.364	1274.25
997.515	1278.25
1002.66	1273.25
1007.801	1301.25
1012.936	1296.25
1018.066	1313.25
1023.19	1326.25
1028.309	1320.25
1033.423	1330.25
1038.532	1320.25
1043.636	1311.25
1048.734	1310.25
1053.827	1287.25
1058.915	1273.25
1063.998	1269.25
1069.075	1265.25
1074.147	1251.25
1079.214	1269.25
1084.276	1300.25
1089.333	1300.25
1094.385	1304.25
1099.431	1303.25
1104.472	1298.25
1109.509	1307.25
1114.54	1292.25
1119.565	1273.25
1124.586	1251.25
1129.602	1242.25
1134.613	1244.25
1139.618	1235.25
1144.619	1246.25
1149.614	1226.25
1154.604	1248.25
1159.589	1251.25
1164.57	1256.25
1169.545	1280.25
1174.515	1249.25
1179.48	1268.25
1184.44	1258.25
1189.395	1252.25
1194.345	1242.25
1199.29	1227.25
1204.23	1228.25
1209.165	1232.25
1214.095	1247.25
1219.021	1260.25
1223.941	1281.25
1228.856	1268.25
1233.766	1267.25
1238.672	1281.25
1243.572	1278.25
1248.467	1270.25
1253.358	1255.25
1258.244	1246.25
1263.124	1217.25
1268	1225.25
1272.871	1215.25
1277.737	1187.25
1282.599	1187.25
1287.455	1188.25
1292.306	1205.25
1297.153	1202.25
1301.995	1212.25
1306.832	1216.25
1311.664	1230.25
1316.491	1237.25
1321.314	1225.25
1326.132	1215.25
1330.945	1203.25
1335.753	1188.25
1340.556	1169.25
1345.354	1163.25
1350.148	1172.25
1354.937	1160.25
1359.722	1128.25
1364.501	1145.25
1369.276	1132.25
1374.046	1127.25
1378.811	1114.25
1383.572	1091.25
1388.327	1120.25
1393.079	1112.25
1397.825	1094.25
1402.567	1082.25
1407.304	1079.25
1412.036	1078.25
1416.764	1075.25
1421.487	1067.25
1426.205	1086.25
1430.919	1073.25
1435.628	1097.25
1440.333	1121.25
1445.032	1123.25
1449.727	1143.25
1454.418	1145.25
1459.104	1135.25
1463.785	1132.25
1468.462	1118.25
1473.134	1117.25
1477.802	1098.25
1482.465	1099.25
1487.123	1099.25
1491.777	1104.25
1496.426	1106.25
1501.071	1109.25
1505.711	1124.25
1510.347	1132.25
1514.978	1156.25
1519.604	1156.25
1524.226	1151.25
1528.844	1157.25
1533.457	1146.25
1538.065	1147.25
1542.669	1132.25
1547.269	1154.25
1551.864	1137.25
1556.454	1134.25
1561.041	1159.25
1565.622	1165.25
1570.199	1181.25
1574.772	1190.25
1579.34	1224.25
1583.904	1242.25
1588.464	1252.25
1593.019	1280.25
1597.569	1281.25
1602.115	1288.25
1606.657	1318.25
1611.195	1329.25
1615.728	1331.25
1620.256	1340.25
1624.78	1341.25
1629.3	1380.25
1633.816	1404.25
1638.327	1410.25
1642.834	1424.25
1647.336	1425.25
1651.834	1456.25
1656.328	1446.25
1660.817	1435.25
1665.302	1409.25
1669.783	1399.25
1674.259	1348.25
1678.732	1319.25
1683.199	1290.25
1687.663	1243.25
1692.122	1211.25
1696.577	1167.25
1701.028	1112.25
1705.474	1067.25
1709.917	1033.25
1714.355	1028.25
1718.788	985.25
1723.218	1009.25
1727.643	976.25
1732.064	955.25
1736.481	940.25
1740.893	905.25
1745.301	897.25
1749.705	872.25
1754.105	864.25
1758.501	834.25
1762.893	812.25
1767.28	818.25
1771.663	816.25
1776.042	806.25
1780.417	802.25
1784.787	826.25
1789.154	823.25
1793.516	816.25
1797.874	808.25
1802.228	796.25
1806.578	798.25
1810.924	780.25
1815.266	768.25
1819.603	750.25
1823.937	744.25
1828.266	739.25
1832.591	733.25
1836.913	734.25
1841.23	726.25
1845.543	729.25
1849.852	734.25
1854.156	737.25
1858.457	731.25
1862.754	750.25
1867.047	750.25
1871.335	753.25
1875.62	764.25
1879.9	751.25
1884.177	748.25
1888.449	747.25
1892.718	760.25
1896.982	750.25
1901.243	742.25
1905.499	736.25
1909.752	744.25
1914	732.25
1918.245	739.25
1922.485	743.25
1926.722	748.25
1930.954	741.25
1935.183	744.25
1939.408	755.25
1943.628	762.25
1947.845	748.25
1952.058	760.25
1956.267	744.25
1960.472	738.25
1964.673	735.25
1968.87	717.25
1973.063	715.25
1977.252	696.25
1981.438	711.25
1985.619	703.25
1989.797	702.25
1993.971	713.25
1998.14	712.25
2002.306	708.25
2006.469	718.25
2010.627	712.25
2014.781	730.25
2018.932	715.25
2023.078	716.25
2027.221	716.25
2031.36	703.25
2035.495	696.25
2039.627	696.25
2043.754	695.25
2047.878	689.25
2051.998	694.25
2056.114	701.25
2060.226	687.25
2064.334	699.25
2068.439	709.25
2072.54	705.25
2076.637	712.25
2080.73	712.25
2084.82	713.25
2088.906	713.25
2092.988	711.25
2097.066	715.25
2101.14	702.25
2105.211	708.25
2109.278	684.25
2113.342	686.25
2117.401	680.25
2121.457	677.25
2125.509	687.25
2129.558	675.25
2133.602	666.25
2137.643	678.25
2141.681	658.25
2145.714	669.25
2149.744	668.25
2153.77	653.25
2157.793	657.25
2161.812	638.25
2165.827	639.25
2169.838	626.25
2173.846	612.25
2177.851	611.25
2181.851	607.25
2185.848	611.25
2189.841	584.25
2193.831	582.25
2197.817	576.25
2201.799	578.25
2205.778	586.25
2209.753	582.25
2213.725	590.25
2217.693	581.25
2221.657	578.25
2225.618	569.25
2229.575	570.25
2233.529	570.25
2237.479	573.25
2241.425	564.25
2245.368	552.25
2249.307	541.25
2253.243	535.25
2257.175	527.25
2261.104	519.25
2265.029	511.25
2268.95	509.25
2272.868	512.25
2276.783	483.25
2280.694	496.25
2284.601	482.25
2288.505	480.25
2292.405	477.25
2296.302	471.25
2300.195	466.25
2304.085	461.25
2307.971	453.25
2311.854	457.25
2315.734	444.25
2319.609	430.25
2323.482	423.25
2327.351	415.25
2331.216	420.25
2335.078	414.25
2338.937	411.25
2342.792	411.25
2346.643	411.25
2350.492	403.25
2354.336	400.25
2358.178	404.25
2362.015	411.25
2365.85	399.25
2369.681	410.25
2373.508	409.25
2377.333	410.25
2381.153	412.25
2384.971	407.25
2388.785	413.25
2392.595	399.25
2396.402	397.25
2400.206	404.25
2404.007	393.25
2407.804	390.25
2411.597	392.25
2415.388	395.25
2419.174	391.25
2422.958	386.25
2426.738	387.25
2430.515	388.25
2434.289	388.25
2438.059	380.25
2441.825	379.25
2445.589	370.25
2449.349	383.25
2453.106	378.25
2456.859	359.25
2460.61	362.25
2464.356	357.25
2468.1	357.25
2471.84	350.25
2475.577	356.25
2479.311	354.25
2483.041	362.25
2486.768	351.25
2490.492	359.25
2494.213	359.25
2497.93	357.25
2501.644	349.25
2505.355	354.25
2509.062	350.25
2512.766	364.25
2516.467	351.25
2520.165	348.25
2523.859	349.25
2527.551	352.25
2531.239	343.25
2534.923	329.25
2538.605	334.25
2542.283	333.25
2545.958	330.25
2549.63	326.25
2553.299	330.25
2556.964	324.25
2560.626	319.25
2564.285	325.25
2567.941	325.25
2571.594	317.25
2575.243	317.25
2578.89	318.25
2582.533	318.25
2586.173	308.25
2589.809	308.25
2593.443	303.25
2597.073	300.25
2600.701	311.25
2604.325	304.25
2607.946	295.25
2611.564	300.25
2615.178	300.25
2618.79	292.25
2622.398	301.25
2626.004	296.25
2629.606	289.25
2633.205	284.25
2636.801	288.25
2640.394	283.25
2643.983	276.25
2647.57	286.25
2651.153	269.25
2654.734	275.25
2658.311	268.25
2661.885	263.25
2665.456	262.25
2669.025	260.25
2672.589	253.25
2676.151	260.25
2679.71	248.25
2683.266	253.25
2686.819	249.25
2690.368	250.25
2693.915	251.25
2697.458	252.25
2700.999	250.25
2704.536	242.25
2708.071	237.25
2711.602	238.25
2715.13	222.25
2718.656	231.25
2722.178	232.25
2725.697	231.25
2729.214	235.25
2732.727	243.25
2736.237	237.25
2739.744	246.25
2743.249	241.25
2746.75	234.25
2750.248	234.25
2753.743	245.25
2757.236	241.25
2760.725	237.25
2764.211	233.25
2767.695	232.25
2771.175	225.25
2774.652	224.25
2778.127	221.25
2781.598	220.25
2785.067	226.25
2788.532	225.25
2791.995	221.25
2795.455	222.25
2798.911	227.25
2802.365	224.25
2805.816	225.25
2809.264	220.25
2812.709	227.25
2816.151	223.25
2819.59	227.25
2823.026	221.25
2826.46	231.25
2829.89	227.25
2833.318	222.25
2836.742	231.25
2840.164	223.25
2843.583	240.25
2846.999	243.25
2850.412	238.25
2853.822	231.25
2857.229	240.25
2860.634	248.25
2864.035	242.25
2867.434	248.25
2870.83	251.25
2874.223	252.25
2877.613	257.25
2881	264.25
2884.385	258.25
2887.766	260.25
2891.145	250.25
2894.521	257.25
2897.894	256.25
2901.264	250.25
2904.631	252.25
2907.996	261.25
2911.358	266.25
2914.717	273.25
2918.073	272.25
2921.426	273.25
2924.777	289.25
2928.124	283.25
2931.469	279.25
2934.811	284.25
2938.15	297.25
2941.487	296.25
2944.821	295.25
2948.152	317.25
2951.48	318.25
2954.805	313.25
2958.128	321.25
2961.447	321.25
2964.765	329.25
2968.079	331.25
2971.39	336.25
2974.699	342.25
2978.005	354.25
2981.308	362.25
2984.609	364.25
2987.907	377.25
2991.202	379.25
2994.494	392.25
2997.784	411.25
3001.07	410.25
3004.355	422.25
3007.636	436.25
3010.915	436.25
3014.191	447.25
3017.464	458.25
3020.734	474.25
3024.002	471.25
3027.267	479.25
3030.53	484.25
3033.789	498.25
3037.046	505.25
3040.301	522.25
3043.552	516.25
3046.801	546.25
3050.048	547.25
3053.291	570.25
3056.532	583.25
3059.771	610.25
3063.006	624.25
3066.239	647.25
3069.469	663.25
3072.697	675.25
3075.922	700.25
3079.144	709.25
3082.364	726.25
3085.581	722.25
3088.795	747.25
3092.007	769.25
3095.216	793.25
3098.423	805.25
3101.627	830.25
3104.828	841.25
3108.026	856.25
3111.222	882.25
3114.416	900.25
3117.607	910.25
3120.795	935.25
3123.98	957.25
3127.163	977.25
3130.344	995.25
3133.521	1037.25
3136.696	1044.25
3139.869	1090.25
3143.039	1091.25
3146.206	1086.25
3149.371	1108.25
3152.533	1117.25
3155.693	1122.25
3158.85	1127.25
3162.005	1133.25
3165.157	1159.25
3168.306	1136.25
3171.453	1154.25
3174.597	1164.25
3177.739	1167.25
3180.878	1166.25
3184.014	1163.25
3187.149	1178.25
3190.28	1164.25
3193.409	1177.25
3196.536	1177.25
3199.659	1186.25
3202.781	1201.25
3205.9	1187.25
3209.016	1186.25
3212.13	1191.25
3215.241	1193.25
3218.35	1175.25
3221.456	1160.25
3224.56	1152.25
3227.661	1147.25
3230.76	1144.25
3233.856	1130.25
3236.95	1116.25
3240.041	1101.25
3243.13	1091.25
3246.216	1076.25
3249.3	1078.25
3252.382	1086.25
3255.46	1090.25
3258.537	1070.25
3261.611	1068.25
3264.682	1047.25
3267.751	1048.25
3270.818	1040.25
3273.882	1030.25
3276.943	1035.25
3280.002	1032.25
3283.059	1019.25
3286.113	1008.25
3289.165	979.25
3292.214	975.25
3295.261	959.25
3298.306	960.25
3301.348	939.25
3304.387	930.25
3307.425	901.25
3310.459	900.25
3313.492	895.25
3316.521	878.25
3319.549	863.25
3322.574	856.25
3325.597	856.25
3328.617	855.25
3331.635	836.25
3334.65	838.25
3337.663	833.25
3340.674	829.25
3343.682	828.25
3346.688	822.25
3349.691	820.25
3352.692	807.25
3355.691	802.25
3358.687	802.25
3361.681	804.25
3364.673	788.25
3367.662	776.25
3370.649	756.25
3373.633	758.25
3376.615	742.25
3379.595	736.25
3382.572	734.25
3385.547	702.25
3388.52	709.25
3391.49	704.25
3394.458	694.25
3397.424	694.25
3400.387	667.25
3403.348	659.25
3406.307	658.25
3409.263	655.25
3412.217	633.25
3415.168	640.25
3418.118	636.25
3421.065	627.25
3424.009	609.25
3426.951	615.25
3429.891	579.25
3432.829	579.25
3435.764	567.25
3438.697	564.25
3441.628	550.25
3444.557	534.25
3447.483	526.25
3450.407	504.25
3453.328	493.25
3456.247	476.25
3459.164	462.25
3462.079	449.25
3464.991	445.25
3467.902	419.25
3470.809	417.25
3473.715	396.25
3476.618	379.25
3479.519	374.25
3482.418	374.25
3485.315	361.25
3488.209	343.25
3491.101	337.25
3493.99	317.25
3496.878	308.25
3499.763	306.25
3502.646	294.25
3505.527	290.25
3508.405	265.25
3511.281	264.25
3514.155	254.25
3517.027	238.25
3519.897	234.25
3522.764	214.25
3525.629	208.25
3528.492	194.25
3531.352	179.25
3534.211	169.25
3537.067	156.25
3539.921	157.25
3542.773	146.25
3545.622	141.25
3548.469	121.25
3551.315	122.25
3554.157	106.25
3556.998	102.25
3559.837	100.25
3562.673	97.25
3565.507	82.25
3568.339	76.25
3571.169	70.25
3573.996	62.25
3576.822	65.25
3579.645	59.25
3582.466	47.25
3585.285	41.25
3588.101	42.25
3590.916	32.25
3593.728	32.25
3596.538	24.25
3599.346	14.25
3602.152	11.25
3604.956	2.25
3607.757	3.25
3610.556	4.25
3613.354	3.25
3616.149	-5.75
3618.942	-2.75
3621.732	-4.75
3624.521	-16.75
3627.307	-16.75
3630.092	-18.75
3632.874	-25.75
3635.654	-30.75
3638.432	-31.75
3641.208	-34.75
3643.982	-31.75
3646.753	-39.75
3649.523	-35.75
3652.29	-34.75
3655.055	-44.75
3657.818	-42.75
3660.579	-46.75
3663.338	-54.75
3666.095	-55.75
3668.849	-63.75
3671.602	-64.75
3674.352	-65.75
3677.101	-65.75
3679.847	-64.75
3682.591	-65.75
3685.333	-62.75
3688.073	-64.75
3690.811	-69.75
3693.547	-70.75
3696.281	-76.75
3699.013	-76.75
3701.742	-77.75
3704.47	-78.75
3707.195	-77.75
3709.919	-81.75
3712.64	-84.75
3715.359	-82.75
3718.076	-83.75
3720.792	-82.75
3723.505	-87.75
3726.216	-85.75
3728.925	-87.75
3731.632	-91.75
3734.336	-92.75
3737.039	-94.75
3739.74	-93.75
3742.439	-94.75
3745.136	-91.75
3747.83	-86.75
3750.523	-89.75
3753.213	-89.75
3755.902	-87.75
3758.589	-89.75
3761.273	-90.75
3763.956	-97.75
3766.636	-97.75
3769.315	-91.75
3771.991	-94.75
3774.665	-94.75
3777.338	-98.75
3780.008	-96.75
3782.677	-91.75
3785.343	-98.75
3788.007	-98.75
3790.67	-98.75
3793.33	-97.75
3795.989	-100.75
3798.645	-98.75
3801.299	-101.75
3803.952	-103.75
3806.602	-99.75
3809.251	-98.75
3811.897	-103.75
3814.542	-105.75
3817.184	-99.75
3819.825	-97.75
3822.463	-102.75
3825.1	-100.75
3827.735	-102.75
3830.367	-100.75
3832.998	-101.75
3835.627	-103.75
3838.253	-101.75
3840.878	-106.75
3843.501	-100.75
3846.122	-100.75
3848.741	-100.75
3851.358	-103.75
3853.973	-99.75
3856.586	-105.75
3859.197	-104.75
3861.806	-106.75
3864.414	-109.75
3867.019	-110.75
3869.622	-106.75
3872.224	-107.75
3874.823	-103.75
3877.421	-99.75
3880.016	-103.75
3882.61	-95.75
3885.202	-97.75
3887.792	-99.75
3890.38	-102.75
3892.966	-104.75
3895.55	-106.75
3898.132	-110.75
3900.713	-111.75
3903.291	-107.75
3905.868	-107.75
3908.442	-105.75
3911.015	-105.75
3913.586	-102.75
3916.155	-101.75
3918.722	-110.75
3921.287	-106.75
3923.85	-106.75
3926.411	-105.75
3928.971	-109.75
3931.528	-109.75
3934.084	-111.75
3936.638	-110.75
3939.19	-106.75
3941.74	-104.75
3944.288	-112.75
3946.834	-111.75
3949.378	-109.75
3951.921	-110.75
3954.462	-109.75
3957	-112.75
3959.537	-115.75
3962.072	-111.75
3964.606	-112.75
3967.137	-109.75
3969.667	-110.75
3972.194	-107.75
3974.72	-108.75
3977.244	-108.75
3979.766	-103.75
3982.286	-106.75
3984.805	-108.75
3987.321	-110.75
3989.836	-107.75
3992.349	-109.75
3994.86	-108.75
3997.369	-111.75
3999.877	-106.75
4002.382	-105.75
4004.886	-105.75
4007.388	-107.75
4009.888	-107.75
4012.386	-107.75
4014.883	-106.75
4017.377	-105.75
4019.87	-108.75
4022.361	-110.75
4024.85	-106.75
4027.338	-109.75
4029.823	-112.75
4032.307	-113.75
4034.789	-108.75
4037.269	-111.75
4039.747	-111.75
4042.224	-103.75
4044.699	-109.75
4047.172	-111.75
4049.643	-108.75
4052.112	-111.75
4054.58	-111.75
4057.046	-110.75
4059.51	-108.75
4061.972	-105.75
4064.432	-108.75
4066.891	-107.75
4069.348	-104.75
4071.803	-103.75
4074.256	-107.75
4076.708	-110.75
4079.158	-109.75
4081.606	-108.75
4084.052	-109.75
4086.497	-107.75
4088.939	-107.75
4091.38	-109.75
4093.819	-111.75
4096.257	-114.75
4098.693	-111.75
4101.127	-114.75
4103.559	-111.75
4105.989	-70.75
4108.418	-68.75
4110.845	-63.75
4113.27	-61.75
4115.694	-59.75
4118.115	-48.75
4120.535	-113.75
4122.954	-109.75
4125.37	-109.75
4127.785	-109.75
4130.198	-108.75
4132.609	-107.75
4135.019	-113.75
4137.427	-116.75
4139.833	-120.75
4142.237	-115.75
