Data from 100000000CFU2_A_RamanShift_1.txt Node
Date: Thu Jan 26 11:13:23 IST 2017
User: aro
Spectrometer: QEPB0276
Trigger mode: 0
Integration Time (sec): 5.000000E0
Scans to average: 1
Electric dark correction enabled: true
Nonlinearity correction enabled: false
Boxcar width: 0
XAxis mode: Raman Shifts
Number of Pixels in Spectrum: 1044
>>>>>Begin Spectral Data<<<<<
160.701	-26.75
166.742	-2.75
172.777	78.25
178.805	309.25
184.826	814.25
190.841	1659.25
196.849	2556.25
202.85	3102.25
208.845	3195.25
214.833	3094.25
220.815	2949.25
226.789	2885.25
232.758	2817.25
238.719	2705.25
244.674	2633.25
250.623	2515.25
256.565	2401.25
262.5	2293.25
268.429	2191.25
274.351	2112.25
280.267	2028.25
286.176	1987.25
292.079	1911.25
297.975	1857.25
303.865	1788.25
309.748	1741.25
315.625	1737.25
321.495	1700.25
327.359	1673.25
333.217	1647.25
339.068	1641.25
344.912	1627.25
350.751	1618.25
356.583	1604.25
362.408	1613.25
368.227	1635.25
374.04	1617.25
379.847	1644.25
385.647	1634.25
391.44	1649.25
397.228	1668.25
403.009	1662.25
408.784	1674.25
414.553	1679.25
420.315	1686.25
426.071	1692.25
431.821	1662.25
437.565	1677.25
443.302	1686.25
449.033	1672.25
454.758	1661.25
460.477	1653.25
466.189	1648.25
471.896	1654.25
477.596	1641.25
483.29	1611.25
488.978	1627.25
494.66	1603.25
500.335	1581.25
506.005	1546.25
511.668	1503.25
517.325	1487.25
522.977	1454.25
528.622	1431.25
534.261	1418.25
539.894	1418.25
545.521	1388.25
551.141	1369.25
556.756	1365.25
562.365	1342.25
567.968	1359.25
573.565	1343.25
579.155	1315.25
584.74	1327.25
590.319	1312.25
595.892	1321.25
601.459	1296.25
607.02	1281.25
612.575	1260.25
618.124	1259.25
623.667	1259.25
629.204	1231.25
634.735	1230.25
640.261	1204.25
645.781	1214.25
651.294	1205.25
656.802	1202.25
662.304	1188.25
667.8	1201.25
673.29	1176.25
678.775	1189.25
684.254	1180.25
689.726	1155.25
695.193	1162.25
700.655	1141.25
706.11	1133.25
711.56	1136.25
717.004	1131.25
722.442	1118.25
727.874	1107.25
733.301	1109.25
738.722	1089.25
744.137	1093.25
749.547	1099.25
754.951	1085.25
760.349	1088.25
765.741	1094.25
771.128	1094.25
776.509	1100.25
781.885	1100.25
787.254	1090.25
792.618	1084.25
797.977	1070.25
803.33	1065.25
808.677	1065.25
814.019	1042.25
819.355	1039.25
824.686	1021.25
830.011	1018.25
835.33	1000.25
840.644	1002.25
845.952	1004.25
851.255	1010.25
856.552	987.25
861.844	992.25
867.13	970.25
872.41	972.25
877.686	947.25
882.955	939.25
888.219	929.25
893.478	912.25
898.731	898.25
903.979	887.25
909.221	880.25
914.458	871.25
919.69	867.25
924.916	868.25
930.136	876.25
935.351	875.25
940.561	859.25
945.766	865.25
950.965	852.25
956.158	854.25
961.347	832.25
966.529	834.25
971.707	819.25
976.879	808.25
982.046	807.25
987.208	798.25
992.364	796.25
997.515	800.25
1002.66	803.25
1007.801	810.25
1012.936	803.25
1018.066	811.25
1023.19	822.25
1028.309	825.25
1033.423	811.25
1038.532	819.25
1043.636	802.25
1048.734	814.25
1053.827	804.25
1058.915	794.25
1063.998	787.25
1069.075	783.25
1074.147	774.25
1079.214	776.25
1084.276	793.25
1089.333	798.25
1094.385	805.25
1099.431	809.25
1104.472	805.25
1109.509	795.25
1114.54	790.25
1119.565	777.25
1124.586	771.25
1129.602	766.25
1134.613	761.25
1139.618	754.25
1144.619	754.25
1149.614	763.25
1154.604	768.25
1159.589	769.25
1164.57	776.25
1169.545	773.25
1174.515	777.25
1179.48	779.25
1184.44	771.25
1189.395	766.25
1194.345	760.25
1199.29	750.25
1204.23	752.25
1209.165	763.25
1214.095	756.25
1219.021	767.25
1223.941	788.25
1228.856	792.25
1233.766	787.25
1238.672	790.25
1243.572	777.25
1248.467	774.25
1253.358	774.25
1258.244	761.25
1263.124	739.25
1268	730.25
1272.871	725.25
1277.737	737.25
1282.599	722.25
1287.455	725.25
1292.306	729.25
1297.153	731.25
1301.995	742.25
1306.832	747.25
1311.664	737.25
1316.491	752.25
1321.314	733.25
1326.132	733.25
1330.945	721.25
1335.753	710.25
1340.556	710.25
1345.354	700.25
1350.148	686.25
1354.937	685.25
1359.722	678.25
1364.501	679.25
1369.276	673.25
1374.046	669.25
1378.811	673.25
1383.572	664.25
1388.327	670.25
1393.079	660.25
1397.825	646.25
1402.567	656.25
1407.304	647.25
1412.036	641.25
1416.764	645.25
1421.487	638.25
1426.205	631.25
1430.919	635.25
1435.628	667.25
1440.333	666.25
1445.032	662.25
1449.727	674.25
1454.418	679.25
1459.104	668.25
1463.785	673.25
1468.462	662.25
1473.134	659.25
1477.802	652.25
1482.465	654.25
1487.123	647.25
1491.777	653.25
1496.426	649.25
1501.071	665.25
1505.711	663.25
1510.347	685.25
1514.978	684.25
1519.604	683.25
1524.226	693.25
1528.844	684.25
1533.457	690.25
1538.065	692.25
1542.669	688.25
1547.269	682.25
1551.864	685.25
1556.454	702.25
1561.041	700.25
1565.622	708.25
1570.199	716.25
1574.772	730.25
1579.34	750.25
1583.904	761.25
1588.464	776.25
1593.019	789.25
1597.569	788.25
1602.115	799.25
1606.657	806.25
1611.195	821.25
1615.728	817.25
1620.256	839.25
1624.78	847.25
1629.3	870.25
1633.816	873.25
1638.327	891.25
1642.834	896.25
1647.336	904.25
1651.834	904.25
1656.328	902.25
1660.817	891.25
1665.302	889.25
1669.783	865.25
1674.259	833.25
1678.732	818.25
1683.199	791.25
1687.663	750.25
1692.122	720.25
1696.577	706.25
1701.028	674.25
1705.474	647.25
1709.917	630.25
1714.355	612.25
1718.788	607.25
1723.218	595.25
1727.643	577.25
1732.064	564.25
1736.481	550.25
1740.893	536.25
1745.301	509.25
1749.705	497.25
1754.105	484.25
1758.501	476.25
1762.893	472.25
1767.28	464.25
1771.663	459.25
1776.042	450.25
1780.417	445.25
1784.787	455.25
1789.154	454.25
1793.516	468.25
1797.874	454.25
1802.228	454.25
1806.578	448.25
1810.924	441.25
1815.266	426.25
1819.603	423.25
1823.937	417.25
1828.266	413.25
1832.591	412.25
1836.913	417.25
1841.23	406.25
1845.543	412.25
1849.852	412.25
1854.156	413.25
1858.457	401.25
1862.754	408.25
1867.047	413.25
1871.335	411.25
1875.62	410.25
1879.9	411.25
1884.177	412.25
1888.449	424.25
1892.718	414.25
1896.982	419.25
1901.243	410.25
1905.499	411.25
1909.752	406.25
1914	400.25
1918.245	416.25
1922.485	414.25
1926.722	410.25
1930.954	413.25
1935.183	425.25
1939.408	423.25
1943.628	432.25
1947.845	428.25
1952.058	418.25
1956.267	420.25
1960.472	419.25
1964.673	413.25
1968.87	409.25
1973.063	392.25
1977.252	403.25
1981.438	396.25
1985.619	395.25
1989.797	393.25
1993.971	384.25
1998.14	398.25
2002.306	401.25
2006.469	396.25
2010.627	410.25
2014.781	412.25
2018.932	402.25
2023.078	395.25
2027.221	386.25
2031.36	384.25
2035.495	391.25
2039.627	386.25
2043.754	379.25
2047.878	386.25
2051.998	403.25
2056.114	391.25
2060.226	390.25
2064.334	396.25
2068.439	400.25
2072.54	397.25
2076.637	396.25
2080.73	403.25
2084.82	405.25
2088.906	404.25
2092.988	405.25
2097.066	402.25
2101.14	398.25
2105.211	395.25
2109.278	396.25
2113.342	392.25
2117.401	388.25
2121.457	380.25
2125.509	390.25
2129.558	383.25
2133.602	380.25
2137.643	388.25
2141.681	374.25
2145.714	367.25
2149.744	377.25
2153.77	363.25
2157.793	370.25
2161.812	370.25
2165.827	354.25
2169.838	366.25
2173.846	347.25
2177.851	343.25
2181.851	336.25
2185.848	334.25
2189.841	334.25
2193.831	320.25
2197.817	330.25
2201.799	326.25
2205.778	324.25
2209.753	319.25
2213.725	317.25
2217.693	329.25
2221.657	318.25
2225.618	317.25
2229.575	318.25
2233.529	308.25
2237.479	318.25
2241.425	312.25
2245.368	302.25
2249.307	295.25
2253.243	288.25
2257.175	294.25
2261.104	291.25
2265.029	282.25
2268.95	271.25
2272.868	270.25
2276.783	267.25
2280.694	263.25
2284.601	263.25
2288.505	254.25
2292.405	258.25
2296.302	254.25
2300.195	248.25
2304.085	249.25
2307.971	238.25
2311.854	238.25
2315.734	228.25
2319.609	226.25
2323.482	225.25
2327.351	224.25
2331.216	225.25
2335.078	224.25
2338.937	215.25
2342.792	210.25
2346.643	213.25
2350.492	220.25
2354.336	210.25
2358.178	222.25
2362.015	211.25
2365.85	214.25
2369.681	207.25
2373.508	209.25
2377.333	213.25
2381.153	217.25
2384.971	214.25
2388.785	209.25
2392.595	206.25
2396.402	204.25
2400.206	206.25
2404.007	207.25
2407.804	202.25
2411.597	206.25
2415.388	198.25
2419.174	196.25
2422.958	202.25
2426.738	206.25
2430.515	204.25
2434.289	192.25
2438.059	200.25
2441.825	198.25
2445.589	190.25
2449.349	191.25
2453.106	188.25
2456.859	192.25
2460.61	188.25
2464.356	189.25
2468.1	182.25
2471.84	186.25
2475.577	181.25
2479.311	181.25
2483.041	190.25
2486.768	184.25
2490.492	182.25
2494.213	180.25
2497.93	178.25
2501.644	179.25
2505.355	177.25
2509.062	177.25
2512.766	179.25
2516.467	180.25
2520.165	178.25
2523.859	173.25
2527.551	179.25
2531.239	173.25
2534.923	171.25
2538.605	168.25
2542.283	169.25
2545.958	173.25
2549.63	166.25
2553.299	164.25
2556.964	163.25
2560.626	163.25
2564.285	170.25
2567.941	161.25
2571.594	162.25
2575.243	165.25
2578.89	162.25
2582.533	158.25
2586.173	151.25
2589.809	148.25
2593.443	144.25
2597.073	146.25
2600.701	149.25
2604.325	143.25
2607.946	143.25
2611.564	146.25
2615.178	150.25
2618.79	143.25
2622.398	141.25
2626.004	143.25
2629.606	140.25
2633.205	139.25
2636.801	134.25
2640.394	131.25
2643.983	127.25
2647.57	132.25
2651.153	136.25
2654.734	131.25
2658.311	126.25
2661.885	132.25
2665.456	131.25
2669.025	125.25
2672.589	123.25
2676.151	122.25
2679.71	123.25
2683.266	119.25
2686.819	116.25
2690.368	114.25
2693.915	113.25
2697.458	115.25
2700.999	117.25
2704.536	111.25
2708.071	122.25
2711.602	109.25
2715.13	107.25
2718.656	106.25
2722.178	112.25
2725.697	114.25
2729.214	115.25
2732.727	116.25
2736.237	111.25
2739.744	113.25
2743.249	123.25
2746.75	115.25
2750.248	114.25
2753.743	122.25
2757.236	114.25
2760.725	115.25
2764.211	114.25
2767.695	114.25
2771.175	116.25
2774.652	112.25
2778.127	113.25
2781.598	106.25
2785.067	110.25
2788.532	116.25
2791.995	113.25
2795.455	118.25
2798.911	109.25
2802.365	109.25
2805.816	117.25
2809.264	110.25
2812.709	112.25
2816.151	105.25
2819.59	115.25
2823.026	108.25
2826.46	120.25
2829.89	120.25
2833.318	118.25
2836.742	119.25
2840.164	117.25
2843.583	120.25
2846.999	121.25
2850.412	125.25
2853.822	122.25
2857.229	131.25
2860.634	134.25
2864.035	132.25
2867.434	136.25
2870.83	146.25
2874.223	144.25
2877.613	147.25
2881	144.25
2884.385	141.25
2887.766	148.25
2891.145	140.25
2894.521	134.25
2897.894	150.25
2901.264	142.25
2904.631	144.25
2907.996	148.25
2911.358	153.25
2914.717	153.25
2918.073	154.25
2921.426	156.25
2924.777	163.25
2928.124	169.25
2931.469	167.25
2934.811	173.25
2938.15	169.25
2941.487	167.25
2944.821	177.25
2948.152	184.25
2951.48	185.25
2954.805	190.25
2958.128	191.25
2961.447	190.25
2964.765	208.25
2968.079	210.25
2971.39	210.25
2974.699	222.25
2978.005	225.25
2981.308	227.25
2984.609	242.25
2987.907	242.25
2991.202	243.25
2994.494	256.25
2997.784	268.25
3001.07	274.25
3004.355	277.25
3007.636	281.25
3010.915	294.25
3014.191	293.25
3017.464	309.25
3020.734	316.25
3024.002	320.25
3027.267	323.25
3030.53	324.25
3033.789	331.25
3037.046	337.25
3040.301	349.25
3043.552	364.25
3046.801	376.25
3050.048	371.25
3053.291	388.25
3056.532	398.25
3059.771	417.25
3063.006	424.25
3066.239	439.25
3069.469	456.25
3072.697	474.25
3075.922	479.25
3079.144	492.25
3082.364	501.25
3085.581	512.25
3088.795	528.25
3092.007	538.25
3095.216	564.25
3098.423	568.25
3101.627	575.25
3104.828	597.25
3108.026	609.25
3111.222	615.25
3114.416	645.25
3117.607	654.25
3120.795	666.25
3123.98	675.25
3127.163	698.25
3130.344	712.25
3133.521	742.25
3136.696	745.25
3139.869	753.25
3143.039	783.25
3146.206	797.25
3149.371	799.25
3152.533	799.25
3155.693	804.25
3158.85	812.25
3162.005	818.25
3165.157	817.25
3168.306	837.25
3171.453	825.25
3174.597	835.25
3177.739	836.25
3180.878	842.25
3184.014	834.25
3187.149	836.25
3190.28	839.25
3193.409	863.25
3196.536	866.25
3199.659	861.25
3202.781	875.25
3205.9	865.25
3209.016	871.25
3212.13	878.25
3215.241	870.25
3218.35	850.25
3221.456	840.25
3224.56	844.25
3227.661	831.25
3230.76	827.25
3233.856	812.25
3236.95	803.25
3240.041	809.25
3243.13	791.25
3246.216	792.25
3249.3	785.25
3252.382	775.25
3255.46	771.25
3258.537	780.25
3261.611	767.25
3264.682	772.25
3267.751	767.25
3270.818	754.25
3273.882	762.25
3276.943	753.25
3280.002	747.25
3283.059	745.25
3286.113	740.25
3289.165	736.25
3292.214	720.25
3295.261	703.25
3298.306	703.25
3301.348	682.25
3304.387	683.25
3307.425	666.25
3310.459	646.25
3313.492	650.25
3316.521	649.25
3319.549	632.25
3322.574	637.25
3325.597	616.25
3328.617	622.25
3331.635	623.25
3334.65	622.25
3337.663	616.25
3340.674	615.25
3343.682	612.25
3346.688	599.25
3349.691	603.25
3352.692	601.25
3355.691	596.25
3358.687	590.25
3361.681	577.25
3364.673	579.25
3367.662	567.25
3370.649	551.25
3373.633	547.25
3376.615	542.25
3379.595	532.25
3382.572	527.25
3385.547	524.25
3388.52	525.25
3391.49	504.25
3394.458	492.25
3397.424	495.25
3400.387	481.25
3403.348	480.25
3406.307	483.25
3409.263	476.25
3412.217	463.25
3415.168	462.25
3418.118	473.25
3421.065	448.25
3424.009	450.25
3426.951	437.25
3429.891	442.25
3432.829	430.25
3435.764	419.25
3438.697	414.25
3441.628	405.25
3444.557	382.25
3447.483	386.25
3450.407	372.25
3453.328	362.25
3456.247	347.25
3459.164	330.25
3462.079	326.25
3464.991	319.25
3467.902	302.25
3470.809	299.25
3473.715	288.25
3476.618	276.25
3479.519	270.25
3482.418	259.25
3485.315	252.25
3488.209	249.25
3491.101	239.25
3493.99	233.25
3496.878	226.25
3499.763	222.25
3502.646	213.25
3505.527	207.25
3508.405	188.25
3511.281	187.25
3514.155	191.25
3517.027	172.25
3519.897	168.25
3522.764	156.25
3525.629	150.25
3528.492	144.25
3531.352	128.25
3534.211	122.25
3537.067	111.25
3539.921	108.25
3542.773	101.25
3545.622	91.25
3548.469	86.25
3551.315	81.25
3554.157	75.25
3556.998	72.25
3559.837	64.25
3562.673	64.25
3565.507	58.25
3568.339	51.25
3571.169	41.25
3573.996	40.25
3576.822	34.25
3579.645	38.25
3582.466	27.25
3585.285	27.25
3588.101	23.25
3590.916	26.25
3593.728	19.25
3596.538	14.25
3599.346	9.25
3602.152	7.25
3604.956	0.25
3607.757	-0.75
3610.556	-1.75
3613.354	-6.75
3616.149	-7.75
3618.942	-9.75
3621.732	-6.75
3624.521	-13.75
3627.307	-17.75
3630.092	-20.75
3632.874	-24.75
3635.654	-28.75
3638.432	-28.75
3641.208	-26.75
3643.982	-29.75
3646.753	-34.75
3649.523	-31.75
3652.29	-31.75
3655.055	-34.75
3657.818	-36.75
3660.579	-37.75
3663.338	-46.75
3666.095	-46.75
3668.849	-50.75
3671.602	-48.75
3674.352	-47.75
3677.101	-54.75
3679.847	-52.75
3682.591	-55.75
3685.333	-54.75
3688.073	-51.75
3690.811	-54.75
3693.547	-56.75
3696.281	-58.75
3699.013	-61.75
3701.742	-60.75
3704.47	-64.75
3707.195	-64.75
3709.919	-65.75
3712.64	-64.75
3715.359	-64.75
3718.076	-65.75
3720.792	-65.75
3723.505	-66.75
3726.216	-68.75
3728.925	-67.75
3731.632	-69.75
3734.336	-76.75
3737.039	-77.75
3739.74	-74.75
3742.439	-74.75
3745.136	-73.75
3747.83	-73.75
3750.523	-72.75
3753.213	-71.75
3755.902	-68.75
3758.589	-70.75
3761.273	-70.75
3763.956	-75.75
3766.636	-75.75
3769.315	-77.75
3771.991	-74.75
3774.665	-73.75
3777.338	-73.75
3780.008	-76.75
3782.677	-75.75
3785.343	-71.75
3788.007	-77.75
3790.67	-75.75
3793.33	-75.75
3795.989	-77.75
3798.645	-76.75
3801.299	-76.75
3803.952	-77.75
3806.602	-77.75
3809.251	-75.75
3811.897	-80.75
3814.542	-83.75
3817.184	-79.75
3819.825	-76.75
3822.463	-77.75
3825.1	-84.75
3827.735	-81.75
3830.367	-79.75
3832.998	-81.75
3835.627	-82.75
3838.253	-80.75
3840.878	-82.75
3843.501	-80.75
3846.122	-80.75
3848.741	-78.75
3851.358	-77.75
3853.973	-76.75
3856.586	-83.75
3859.197	-82.75
3861.806	-85.75
3864.414	-83.75
3867.019	-87.75
3869.622	-81.75
3872.224	-82.75
3874.823	-77.75
3877.421	-75.75
3880.016	-78.75
3882.61	-69.75
3885.202	-70.75
3887.792	-70.75
3890.38	-78.75
3892.966	-82.75
3895.55	-86.75
3898.132	-90.75
3900.713	-85.75
3903.291	-84.75
3905.868	-85.75
3908.442	-85.75
3911.015	-82.75
3913.586	-83.75
3916.155	-81.75
3918.722	-81.75
3921.287	-84.75
3923.85	-82.75
3926.411	-79.75
3928.971	-85.75
3931.528	-82.75
3934.084	-86.75
3936.638	-82.75
3939.19	-82.75
3941.74	-77.75
3944.288	-85.75
3946.834	-81.75
3949.378	-85.75
3951.921	-84.75
3954.462	-83.75
3957	-89.75
3959.537	-86.75
3962.072	-85.75
3964.606	-85.75
3967.137	-84.75
3969.667	-86.75
3972.194	-81.75
3974.72	-83.75
3977.244	-85.75
3979.766	-82.75
3982.286	-84.75
3984.805	-88.75
3987.321	-84.75
3989.836	-86.75
3992.349	-83.75
3994.86	-80.75
3997.369	-88.75
3999.877	-81.75
4002.382	-81.75
4004.886	-81.75
4007.388	-83.75
4009.888	-82.75
4012.386	-82.75
4014.883	-85.75
4017.377	-78.75
4019.87	-84.75
4022.361	-85.75
4024.85	-83.75
4027.338	-82.75
4029.823	-87.75
4032.307	-86.75
4034.789	-86.75
4037.269	-85.75
4039.747	-83.75
4042.224	-80.75
4044.699	-83.75
4047.172	-86.75
4049.643	-85.75
4052.112	-85.75
4054.58	-87.75
4057.046	-86.75
4059.51	-85.75
4061.972	-87.75
4064.432	-84.75
4066.891	-84.75
4069.348	-83.75
4071.803	-81.75
4074.256	-78.75
4076.708	-83.75
4079.158	-81.75
4081.606	-82.75
4084.052	-83.75
4086.497	-82.75
4088.939	-83.75
4091.38	-84.75
4093.819	-86.75
4096.257	-88.75
4098.693	-88.75
4101.127	-89.75
4103.559	-85.75
4105.989	-56.75
4108.418	-54.75
4110.845	-51.75
4113.27	-45.75
4115.694	-44.75
4118.115	-41.75
4120.535	-83.75
4122.954	-82.75
4125.37	-82.75
4127.785	-80.75
4130.198	-81.75
4132.609	-79.75
4135.019	-88.75
4137.427	-89.75
4139.833	-91.75
4142.237	-87.75
