Data from 1000000CFU1_A_RamanShift_1.txt Node
Date: Thu Jan 26 11:05:23 IST 2017
User: aro
Spectrometer: QEPB0276
Trigger mode: 0
Integration Time (sec): 5.000000E0
Scans to average: 1
Electric dark correction enabled: true
Nonlinearity correction enabled: false
Boxcar width: 0
XAxis mode: Raman Shifts
Number of Pixels in Spectrum: 1044
>>>>>Begin Spectral Data<<<<<
160.701	-35.38
166.742	-4.38
172.777	99.62
178.805	418.62
184.826	1145.62
190.841	2346.62
196.849	3605.62
202.85	4348.62
208.845	4492.62
214.833	4347.62
220.815	4173.62
226.789	4053.62
232.758	3945.62
238.719	3839.62
244.674	3706.62
250.623	3539.62
256.565	3379.62
262.5	3235.62
268.429	3105.62
274.351	2981.62
280.267	2886.62
286.176	2775.62
292.079	2665.62
297.975	2609.62
303.865	2537.62
309.748	2444.62
315.625	2399.62
321.495	2355.62
327.359	2317.62
333.217	2285.62
339.068	2298.62
344.912	2268.62
350.751	2254.62
356.583	2261.62
362.408	2245.62
368.227	2236.62
374.04	2247.62
379.847	2257.62
385.647	2281.62
391.44	2272.62
397.228	2309.62
403.009	2314.62
408.784	2313.62
414.553	2330.62
420.315	2329.62
426.071	2331.62
431.821	2339.62
437.565	2343.62
443.302	2324.62
449.033	2315.62
454.758	2311.62
460.477	2307.62
466.189	2292.62
471.896	2273.62
477.596	2268.62
483.29	2230.62
488.978	2244.62
494.66	2244.62
500.335	2192.62
506.005	2165.62
511.668	2120.62
517.325	2103.62
522.977	2068.62
528.622	2032.62
534.261	2022.62
539.894	1988.62
545.521	1994.62
551.141	1979.62
556.756	1954.62
562.365	1947.62
567.968	1930.62
573.565	1929.62
579.155	1911.62
584.74	1923.62
590.319	1884.62
595.892	1881.62
601.459	1866.62
607.02	1848.62
612.575	1837.62
618.124	1831.62
623.667	1810.62
629.204	1766.62
634.735	1785.62
640.261	1750.62
645.781	1763.62
651.294	1751.62
656.802	1743.62
662.304	1737.62
667.8	1718.62
673.29	1711.62
678.775	1724.62
684.254	1709.62
689.726	1697.62
695.193	1692.62
700.655	1674.62
706.11	1674.62
711.56	1668.62
717.004	1633.62
722.442	1628.62
727.874	1634.62
733.301	1642.62
738.722	1598.62
744.137	1608.62
749.547	1596.62
754.951	1603.62
760.349	1578.62
765.741	1585.62
771.128	1602.62
776.509	1589.62
781.885	1596.62
787.254	1586.62
792.618	1580.62
797.977	1571.62
803.33	1559.62
808.677	1541.62
814.019	1538.62
819.355	1512.62
824.686	1503.62
830.011	1496.62
835.33	1476.62
840.644	1481.62
845.952	1480.62
851.255	1477.62
856.552	1472.62
861.844	1470.62
867.13	1455.62
872.41	1437.62
877.686	1429.62
882.955	1413.62
888.219	1400.62
893.478	1375.62
898.731	1363.62
903.979	1353.62
909.221	1324.62
914.458	1321.62
919.69	1313.62
924.916	1321.62
930.136	1298.62
935.351	1304.62
940.561	1308.62
945.766	1310.62
950.965	1309.62
956.158	1282.62
961.347	1259.62
966.529	1266.62
971.707	1232.62
976.879	1226.62
982.046	1218.62
987.208	1224.62
992.364	1211.62
997.515	1215.62
1002.66	1211.62
1007.801	1221.62
1012.936	1231.62
1018.066	1262.62
1023.19	1241.62
1028.309	1263.62
1033.423	1254.62
1038.532	1256.62
1043.636	1237.62
1048.734	1235.62
1053.827	1227.62
1058.915	1203.62
1063.998	1203.62
1069.075	1196.62
1074.147	1185.62
1079.214	1203.62
1084.276	1218.62
1089.333	1233.62
1094.385	1229.62
1099.431	1245.62
1104.472	1238.62
1109.509	1231.62
1114.54	1234.62
1119.565	1196.62
1124.586	1190.62
1129.602	1186.62
1134.613	1179.62
1139.618	1176.62
1144.619	1173.62
1149.614	1191.62
1154.604	1198.62
1159.589	1192.62
1164.57	1195.62
1169.545	1205.62
1174.515	1194.62
1179.48	1204.62
1184.44	1188.62
1189.395	1183.62
1194.345	1160.62
1199.29	1175.62
1204.23	1172.62
1209.165	1180.62
1214.095	1185.62
1219.021	1190.62
1223.941	1204.62
1228.856	1216.62
1233.766	1235.62
1238.672	1232.62
1243.572	1221.62
1248.467	1218.62
1253.358	1201.62
1258.244	1187.62
1263.124	1169.62
1268	1151.62
1272.871	1141.62
1277.737	1141.62
1282.599	1127.62
1287.455	1148.62
1292.306	1130.62
1297.153	1148.62
1301.995	1143.62
1306.832	1157.62
1311.664	1154.62
1316.491	1167.62
1321.314	1161.62
1326.132	1169.62
1330.945	1127.62
1335.753	1141.62
1340.556	1109.62
1345.354	1118.62
1350.148	1093.62
1354.937	1107.62
1359.722	1100.62
1364.501	1079.62
1369.276	1056.62
1374.046	1065.62
1378.811	1061.62
1383.572	1064.62
1388.327	1065.62
1393.079	1067.62
1397.825	1043.62
1402.567	1039.62
1407.304	1017.62
1412.036	1019.62
1416.764	1019.62
1421.487	1023.62
1426.205	1030.62
1430.919	1048.62
1435.628	1054.62
1440.333	1062.62
1445.032	1070.62
1449.727	1072.62
1454.418	1073.62
1459.104	1073.62
1463.785	1070.62
1468.462	1071.62
1473.134	1060.62
1477.802	1052.62
1482.465	1054.62
1487.123	1048.62
1491.777	1046.62
1496.426	1054.62
1501.071	1064.62
1505.711	1066.62
1510.347	1074.62
1514.978	1091.62
1519.604	1090.62
1524.226	1109.62
1528.844	1110.62
1533.457	1092.62
1538.065	1101.62
1542.669	1084.62
1547.269	1105.62
1551.864	1086.62
1556.454	1097.62
1561.041	1123.62
1565.622	1124.62
1570.199	1133.62
1574.772	1165.62
1579.34	1174.62
1583.904	1185.62
1588.464	1220.62
1593.019	1234.62
1597.569	1247.62
1602.115	1266.62
1606.657	1265.62
1611.195	1273.62
1615.728	1292.62
1620.256	1293.62
1624.78	1323.62
1629.3	1339.62
1633.816	1377.62
1638.327	1364.62
1642.834	1396.62
1647.336	1408.62
1651.834	1407.62
1656.328	1406.62
1660.817	1391.62
1665.302	1364.62
1669.783	1337.62
1674.259	1316.62
1678.732	1273.62
1683.199	1229.62
1687.663	1206.62
1692.122	1164.62
1696.577	1123.62
1701.028	1071.62
1705.474	1034.62
1709.917	1001.62
1714.355	974.62
1718.788	973.62
1723.218	946.62
1727.643	931.62
1732.064	917.62
1736.481	890.62
1740.893	880.62
1745.301	850.62
1749.705	824.62
1754.105	804.62
1758.501	792.62
1762.893	780.62
1767.28	770.62
1771.663	765.62
1776.042	765.62
1780.417	763.62
1784.787	764.62
1789.154	768.62
1793.516	756.62
1797.874	771.62
1802.228	747.62
1806.578	732.62
1810.924	740.62
1815.266	728.62
1819.603	705.62
1823.937	707.62
1828.266	696.62
1832.591	705.62
1836.913	697.62
1841.23	690.62
1845.543	693.62
1849.852	700.62
1854.156	700.62
1858.457	686.62
1862.754	703.62
1867.047	695.62
1871.335	700.62
1875.62	704.62
1879.9	710.62
1884.177	708.62
1888.449	709.62
1892.718	693.62
1896.982	695.62
1901.243	688.62
1905.499	700.62
1909.752	695.62
1914	686.62
1918.245	699.62
1922.485	696.62
1926.722	696.62
1930.954	696.62
1935.183	700.62
1939.408	712.62
1943.628	702.62
1947.845	700.62
1952.058	705.62
1956.267	697.62
1960.472	691.62
1964.673	682.62
1968.87	672.62
1973.063	664.62
1977.252	658.62
1981.438	669.62
1985.619	668.62
1989.797	668.62
1993.971	668.62
1998.14	672.62
2002.306	668.62
2006.469	672.62
2010.627	671.62
2014.781	671.62
2018.932	681.62
2023.078	665.62
2027.221	668.62
2031.36	667.62
2035.495	661.62
2039.627	657.62
2043.754	666.62
2047.878	651.62
2051.998	666.62
2056.114	661.62
2060.226	659.62
2064.334	659.62
2068.439	658.62
2072.54	661.62
2076.637	656.62
2080.73	678.62
2084.82	655.62
2088.906	675.62
2092.988	674.62
2097.066	664.62
2101.14	675.62
2105.211	655.62
2109.278	647.62
2113.342	655.62
2117.401	641.62
2121.457	651.62
2125.509	635.62
2129.558	625.62
2133.602	640.62
2137.643	637.62
2141.681	636.62
2145.714	616.62
2149.744	633.62
2153.77	629.62
2157.793	619.62
2161.812	614.62
2165.827	616.62
2169.838	603.62
2173.846	582.62
2177.851	574.62
2181.851	571.62
2185.848	573.62
2189.841	562.62
2193.831	552.62
2197.817	568.62
2201.799	543.62
2205.778	553.62
2209.753	553.62
2213.725	540.62
2217.693	548.62
2221.657	547.62
2225.618	542.62
2229.575	552.62
2233.529	531.62
2237.479	534.62
2241.425	533.62
2245.368	524.62
2249.307	508.62
2253.243	503.62
2257.175	500.62
2261.104	492.62
2265.029	482.62
2268.95	482.62
2272.868	469.62
2276.783	467.62
2280.694	465.62
2284.601	453.62
2288.505	457.62
2292.405	456.62
2296.302	435.62
2300.195	430.62
2304.085	436.62
2307.971	426.62
2311.854	422.62
2315.734	410.62
2319.609	409.62
2323.482	401.62
2327.351	399.62
2331.216	392.62
2335.078	383.62
2338.937	389.62
2342.792	389.62
2346.643	387.62
2350.492	383.62
2354.336	376.62
2358.178	376.62
2362.015	380.62
2365.85	378.62
2369.681	382.62
2373.508	389.62
2377.333	385.62
2381.153	375.62
2384.971	378.62
2388.785	386.62
2392.595	378.62
2396.402	379.62
2400.206	383.62
2404.007	374.62
2407.804	372.62
2411.597	381.62
2415.388	371.62
2419.174	369.62
2422.958	365.62
2426.738	368.62
2430.515	363.62
2434.289	361.62
2438.059	358.62
2441.825	362.62
2445.589	348.62
2449.349	347.62
2453.106	343.62
2456.859	346.62
2460.61	337.62
2464.356	347.62
2468.1	335.62
2471.84	338.62
2475.577	335.62
2479.311	330.62
2483.041	335.62
2486.768	332.62
2490.492	331.62
2494.213	342.62
2497.93	343.62
2501.644	336.62
2505.355	333.62
2509.062	326.62
2512.766	331.62
2516.467	333.62
2520.165	331.62
2523.859	325.62
2527.551	329.62
2531.239	312.62
2534.923	314.62
2538.605	311.62
2542.283	304.62
2545.958	316.62
2549.63	297.62
2553.299	300.62
2556.964	300.62
2560.626	300.62
2564.285	293.62
2567.941	296.62
2571.594	289.62
2575.243	297.62
2578.89	298.62
2582.533	300.62
2586.173	289.62
2589.809	290.62
2593.443	284.62
2597.073	282.62
2600.701	283.62
2604.325	275.62
2607.946	281.62
2611.564	279.62
2615.178	279.62
2618.79	275.62
2622.398	275.62
2626.004	272.62
2629.606	268.62
2633.205	267.62
2636.801	259.62
2640.394	260.62
2643.983	257.62
2647.57	253.62
2651.153	256.62
2654.734	248.62
2658.311	250.62
2661.885	245.62
2665.456	247.62
2669.025	242.62
2672.589	241.62
2676.151	234.62
2679.71	244.62
2683.266	237.62
2686.819	237.62
2690.368	233.62
2693.915	227.62
2697.458	235.62
2700.999	221.62
2704.536	228.62
2708.071	220.62
2711.602	221.62
2715.13	216.62
2718.656	217.62
2722.178	209.62
2725.697	211.62
2729.214	212.62
2732.727	225.62
2736.237	217.62
2739.744	213.62
2743.249	226.62
2746.75	223.62
2750.248	221.62
2753.743	232.62
2757.236	218.62
2760.725	213.62
2764.211	212.62
2767.695	213.62
2771.175	216.62
2774.652	206.62
2778.127	209.62
2781.598	211.62
2785.067	205.62
2788.532	212.62
2791.995	211.62
2795.455	212.62
2798.911	207.62
2802.365	212.62
2805.816	206.62
2809.264	208.62
2812.709	213.62
2816.151	208.62
2819.59	217.62
2823.026	210.62
2826.46	212.62
2829.89	212.62
2833.318	216.62
2836.742	216.62
2840.164	215.62
2843.583	214.62
2846.999	223.62
2850.412	216.62
2853.822	226.62
2857.229	225.62
2860.634	232.62
2864.035	237.62
2867.434	238.62
2870.83	238.62
2874.223	239.62
2877.613	247.62
2881	239.62
2884.385	246.62
2887.766	240.62
2891.145	241.62
2894.521	244.62
2897.894	242.62
2901.264	240.62
2904.631	242.62
2907.996	244.62
2911.358	248.62
2914.717	253.62
2918.073	256.62
2921.426	260.62
2924.777	271.62
2928.124	265.62
2931.469	270.62
2934.811	279.62
2938.15	286.62
2941.487	288.62
2944.821	294.62
2948.152	298.62
2951.48	303.62
2954.805	302.62
2958.128	307.62
2961.447	303.62
2964.765	318.62
2968.079	330.62
2971.39	332.62
2974.699	331.62
2978.005	341.62
2981.308	343.62
2984.609	355.62
2987.907	372.62
2991.202	373.62
2994.494	387.62
2997.784	405.62
3001.07	413.62
3004.355	427.62
3007.636	432.62
3010.915	450.62
3014.191	446.62
3017.464	469.62
3020.734	456.62
3024.002	464.62
3027.267	482.62
3030.53	480.62
3033.789	490.62
3037.046	501.62
3040.301	512.62
3043.552	522.62
3046.801	543.62
3050.048	547.62
3053.291	571.62
3056.532	583.62
3059.771	598.62
3063.006	612.62
3066.239	638.62
3069.469	664.62
3072.697	669.62
3075.922	695.62
3079.144	713.62
3082.364	727.62
3085.581	747.62
3088.795	750.62
3092.007	779.62
3095.216	793.62
3098.423	812.62
3101.627	822.62
3104.828	842.62
3108.026	856.62
3111.222	884.62
3114.416	908.62
3117.607	929.62
3120.795	946.62
3123.98	964.62
3127.163	985.62
3130.344	1008.62
3133.521	1037.62
3136.696	1055.62
3139.869	1068.62
3143.039	1088.62
3146.206	1098.62
3149.371	1108.62
3152.533	1125.62
3155.693	1141.62
3158.85	1134.62
3162.005	1161.62
3165.157	1163.62
3168.306	1162.62
3171.453	1166.62
3174.597	1186.62
3177.739	1175.62
3180.878	1171.62
3184.014	1180.62
3187.149	1196.62
3190.28	1201.62
3193.409	1193.62
3196.536	1205.62
3199.659	1185.62
3202.781	1218.62
3205.9	1213.62
3209.016	1205.62
3212.13	1212.62
3215.241	1197.62
3218.35	1188.62
3221.456	1190.62
3224.56	1180.62
3227.661	1158.62
3230.76	1147.62
3233.856	1129.62
3236.95	1124.62
3240.041	1125.62
3243.13	1114.62
3246.216	1097.62
3249.3	1109.62
3252.382	1098.62
3255.46	1102.62
3258.537	1087.62
3261.611	1085.62
3264.682	1073.62
3267.751	1088.62
3270.818	1065.62
3273.882	1055.62
3276.943	1048.62
3280.002	1051.62
3283.059	1031.62
3286.113	1030.62
3289.165	1022.62
3292.214	1001.62
3295.261	985.62
3298.306	957.62
3301.348	962.62
3304.387	938.62
3307.425	924.62
3310.459	912.62
3313.492	904.62
3316.521	891.62
3319.549	881.62
3322.574	867.62
3325.597	879.62
3328.617	858.62
3331.635	860.62
3334.65	853.62
3337.663	847.62
3340.674	844.62
3343.682	842.62
3346.688	841.62
3349.691	822.62
3352.692	819.62
3355.691	819.62
3358.687	808.62
3361.681	808.62
3364.673	793.62
3367.662	791.62
3370.649	779.62
3373.633	756.62
3376.615	760.62
3379.595	743.62
3382.572	737.62
3385.547	720.62
3388.52	723.62
3391.49	702.62
3394.458	698.62
3397.424	695.62
3400.387	695.62
3403.348	672.62
3406.307	667.62
3409.263	659.62
3412.217	648.62
3415.168	646.62
3418.118	643.62
3421.065	637.62
3424.009	627.62
3426.951	624.62
3429.891	600.62
3432.829	591.62
3435.764	586.62
3438.697	575.62
3441.628	556.62
3444.557	538.62
3447.483	524.62
3450.407	517.62
3453.328	503.62
3456.247	485.62
3459.164	470.62
3462.079	449.62
3464.991	439.62
3467.902	425.62
3470.809	412.62
3473.715	414.62
3476.618	390.62
3479.519	384.62
3482.418	367.62
3485.315	357.62
3488.209	344.62
3491.101	339.62
3493.99	322.62
3496.878	313.62
3499.763	303.62
3502.646	292.62
3505.527	291.62
3508.405	275.62
3511.281	257.62
3514.155	267.62
3517.027	247.62
3519.897	238.62
3522.764	220.62
3525.629	214.62
3528.492	191.62
3531.352	179.62
3534.211	168.62
3537.067	154.62
3539.921	158.62
3542.773	142.62
3545.622	124.62
3548.469	126.62
3551.315	112.62
3554.157	110.62
3556.998	95.62
3559.837	91.62
3562.673	89.62
3565.507	76.62
3568.339	72.62
3571.169	69.62
3573.996	66.62
3576.822	57.62
3579.645	55.62
3582.466	48.62
3585.285	44.62
3588.101	35.62
3590.916	30.62
3593.728	30.62
3596.538	24.62
3599.346	16.62
3602.152	10.62
3604.956	1.62
3607.757	3.62
3610.556	1.62
3613.354	-5.38
3616.149	-7.38
3618.942	-10.38
3621.732	-14.38
3624.521	-14.38
3627.307	-21.38
3630.092	-21.38
3632.874	-29.38
3635.654	-32.38
3638.432	-35.38
3641.208	-37.38
3643.982	-39.38
3646.753	-41.38
3649.523	-46.38
3652.29	-44.38
3655.055	-45.38
3657.818	-48.38
3660.579	-49.38
3663.338	-55.38
3666.095	-58.38
3668.849	-66.38
3671.602	-58.38
3674.352	-63.38
3677.101	-68.38
3679.847	-68.38
3682.591	-68.38
3685.333	-73.38
3688.073	-70.38
3690.811	-76.38
3693.547	-77.38
3696.281	-77.38
3699.013	-82.38
3701.742	-81.38
3704.47	-85.38
3707.195	-88.38
3709.919	-82.38
3712.64	-87.38
3715.359	-83.38
3718.076	-89.38
3720.792	-86.38
3723.505	-91.38
3726.216	-90.38
3728.925	-89.38
3731.632	-93.38
3734.336	-96.38
3737.039	-93.38
3739.74	-99.38
3742.439	-97.38
3745.136	-94.38
3747.83	-94.38
3750.523	-93.38
3753.213	-92.38
3755.902	-92.38
3758.589	-93.38
3761.273	-99.38
3763.956	-100.38
3766.636	-102.38
3769.315	-103.38
3771.991	-100.38
3774.665	-99.38
3777.338	-107.38
3780.008	-103.38
3782.677	-105.38
3785.343	-103.38
3788.007	-101.38
3790.67	-102.38
3793.33	-105.38
3795.989	-103.38
3798.645	-105.38
3801.299	-105.38
3803.952	-103.38
3806.602	-101.38
3809.251	-99.38
3811.897	-104.38
3814.542	-108.38
3817.184	-104.38
3819.825	-100.38
3822.463	-102.38
3825.1	-106.38
3827.735	-106.38
3830.367	-106.38
3832.998	-107.38
3835.627	-113.38
3838.253	-111.38
3840.878	-114.38
3843.501	-109.38
3846.122	-110.38
3848.741	-111.38
3851.358	-110.38
3853.973	-108.38
3856.586	-112.38
3859.197	-111.38
3861.806	-113.38
3864.414	-111.38
3867.019	-112.38
3869.622	-112.38
3872.224	-109.38
3874.823	-106.38
3877.421	-101.38
3880.016	-103.38
3882.61	-97.38
3885.202	-99.38
3887.792	-101.38
3890.38	-106.38
3892.966	-112.38
3895.55	-114.38
3898.132	-116.38
3900.713	-115.38
3903.291	-112.38
3905.868	-113.38
3908.442	-117.38
3911.015	-116.38
3913.586	-111.38
3916.155	-111.38
3918.722	-115.38
3921.287	-115.38
3923.85	-112.38
3926.411	-109.38
3928.971	-116.38
3931.528	-115.38
3934.084	-117.38
3936.638	-115.38
3939.19	-113.38
3941.74	-111.38
3944.288	-114.38
3946.834	-113.38
3949.378	-114.38
3951.921	-114.38
3954.462	-112.38
3957	-117.38
3959.537	-118.38
3962.072	-116.38
3964.606	-114.38
3967.137	-114.38
3969.667	-115.38
3972.194	-113.38
3974.72	-113.38
3977.244	-111.38
3979.766	-114.38
3982.286	-114.38
3984.805	-118.38
3987.321	-113.38
3989.836	-115.38
3992.349	-115.38
3994.86	-112.38
3997.369	-116.38
3999.877	-110.38
4002.382	-110.38
4004.886	-109.38
4007.388	-112.38
4009.888	-112.38
4012.386	-111.38
4014.883	-112.38
4017.377	-112.38
4019.87	-113.38
4022.361	-115.38
4024.85	-114.38
4027.338	-113.38
4029.823	-118.38
4032.307	-116.38
4034.789	-117.38
4037.269	-115.38
4039.747	-115.38
4042.224	-112.38
4044.699	-115.38
4047.172	-116.38
4049.643	-114.38
4052.112	-115.38
4054.58	-115.38
4057.046	-115.38
4059.51	-111.38
4061.972	-115.38
4064.432	-114.38
4066.891	-111.38
4069.348	-108.38
4071.803	-110.38
4074.256	-113.38
4076.708	-112.38
4079.158	-115.38
4081.606	-114.38
4084.052	-116.38
4086.497	-112.38
4088.939	-114.38
4091.38	-116.38
4093.819	-116.38
4096.257	-121.38
4098.693	-118.38
4101.127	-118.38
4103.559	-115.38
4105.989	-77.38
4108.418	-71.38
4110.845	-70.38
4113.27	-66.38
4115.694	-62.38
4118.115	-51.38
4120.535	-117.38
4122.954	-115.38
4125.37	-115.38
4127.785	-112.38
4130.198	-113.38
4132.609	-112.38
4135.019	-118.38
4137.427	-118.38
4139.833	-123.38
4142.237	-118.38
