Data from 1000000CFU3_A_RamanShift_1.txt Node
Date: Thu Jan 26 11:07:28 IST 2017
User: aro
Spectrometer: QEPB0276
Trigger mode: 0
Integration Time (sec): 5.000000E0
Scans to average: 1
Electric dark correction enabled: true
Nonlinearity correction enabled: false
Boxcar width: 0
XAxis mode: Raman Shifts
Number of Pixels in Spectrum: 1044
>>>>>Begin Spectral Data<<<<<
160.701	-38.62
166.742	-3.62
172.777	99.38
178.805	425.38
184.826	1141.38
190.841	2329.38
196.849	3582.38
202.85	4318.38
208.845	4449.38
214.833	4315.38
220.815	4129.38
226.789	4009.38
232.758	3900.38
238.719	3790.38
244.674	3663.38
250.623	3502.38
256.565	3369.38
262.5	3194.38
268.429	3050.38
274.351	2958.38
280.267	2827.38
286.176	2740.38
292.079	2643.38
297.975	2535.38
303.865	2485.38
309.748	2411.38
315.625	2370.38
321.495	2329.38
327.359	2289.38
333.217	2268.38
339.068	2281.38
344.912	2238.38
350.751	2219.38
356.583	2215.38
362.408	2209.38
368.227	2216.38
374.04	2220.38
379.847	2241.38
385.647	2257.38
391.44	2260.38
397.228	2276.38
403.009	2256.38
408.784	2291.38
414.553	2286.38
420.315	2295.38
426.071	2314.38
431.821	2288.38
437.565	2302.38
443.302	2292.38
449.033	2283.38
454.758	2264.38
460.477	2256.38
466.189	2257.38
471.896	2244.38
477.596	2243.38
483.29	2212.38
488.978	2203.38
494.66	2191.38
500.335	2151.38
506.005	2123.38
511.668	2093.38
517.325	2054.38
522.977	2020.38
528.622	2007.38
534.261	1972.38
539.894	1961.38
545.521	1946.38
551.141	1938.38
556.756	1922.38
562.365	1921.38
567.968	1898.38
573.565	1892.38
579.155	1866.38
584.74	1874.38
590.319	1865.38
595.892	1837.38
601.459	1827.38
607.02	1818.38
612.575	1809.38
618.124	1789.38
623.667	1767.38
629.204	1747.38
634.735	1742.38
640.261	1733.38
645.781	1716.38
651.294	1693.38
656.802	1712.38
662.304	1709.38
667.8	1701.38
673.29	1681.38
678.775	1674.38
684.254	1667.38
689.726	1624.38
695.193	1646.38
700.655	1635.38
706.11	1622.38
711.56	1613.38
717.004	1610.38
722.442	1596.38
727.874	1588.38
733.301	1559.38
738.722	1568.38
744.137	1569.38
749.547	1575.38
754.951	1565.38
760.349	1565.38
765.741	1562.38
771.128	1546.38
776.509	1550.38
781.885	1560.38
787.254	1560.38
792.618	1548.38
797.977	1540.38
803.33	1524.38
808.677	1508.38
814.019	1487.38
819.355	1483.38
824.686	1463.38
830.011	1451.38
835.33	1456.38
840.644	1430.38
845.952	1445.38
851.255	1446.38
856.552	1435.38
861.844	1418.38
867.13	1414.38
872.41	1401.38
877.686	1390.38
882.955	1370.38
888.219	1323.38
893.478	1326.38
898.731	1310.38
903.979	1297.38
909.221	1281.38
914.458	1285.38
919.69	1273.38
924.916	1266.38
930.136	1286.38
935.351	1281.38
940.561	1262.38
945.766	1258.38
950.965	1259.38
956.158	1242.38
961.347	1225.38
966.529	1220.38
971.707	1197.38
976.879	1182.38
982.046	1167.38
987.208	1157.38
992.364	1168.38
997.515	1164.38
1002.66	1190.38
1007.801	1165.38
1012.936	1203.38
1018.066	1200.38
1023.19	1200.38
1028.309	1223.38
1033.423	1207.38
1038.532	1215.38
1043.636	1210.38
1048.734	1178.38
1053.827	1170.38
1058.915	1168.38
1063.998	1133.38
1069.075	1162.38
1074.147	1148.38
1079.214	1161.38
1084.276	1178.38
1089.333	1186.38
1094.385	1185.38
1099.431	1178.38
1104.472	1204.38
1109.509	1198.38
1114.54	1160.38
1119.565	1139.38
1124.586	1151.38
1129.602	1144.38
1134.613	1126.38
1139.618	1124.38
1144.619	1129.38
1149.614	1133.38
1154.604	1140.38
1159.589	1141.38
1164.57	1148.38
1169.545	1157.38
1174.515	1158.38
1179.48	1162.38
1184.44	1142.38
1189.395	1144.38
1194.345	1114.38
1199.29	1129.38
1204.23	1133.38
1209.165	1132.38
1214.095	1145.38
1219.021	1144.38
1223.941	1167.38
1228.856	1158.38
1233.766	1168.38
1238.672	1164.38
1243.572	1178.38
1248.467	1162.38
1253.358	1162.38
1258.244	1142.38
1263.124	1115.38
1268	1102.38
1272.871	1094.38
1277.737	1070.38
1282.599	1094.38
1287.455	1087.38
1292.306	1080.38
1297.153	1105.38
1301.995	1103.38
1306.832	1109.38
1311.664	1118.38
1316.491	1109.38
1321.314	1103.38
1326.132	1101.38
1330.945	1108.38
1335.753	1062.38
1340.556	1059.38
1345.354	1048.38
1350.148	1044.38
1354.937	1044.38
1359.722	1024.38
1364.501	1023.38
1369.276	1013.38
1374.046	1014.38
1378.811	1005.38
1383.572	1019.38
1388.327	1001.38
1393.079	1004.38
1397.825	982.38
1402.567	979.38
1407.304	978.38
1412.036	976.38
1416.764	967.38
1421.487	985.38
1426.205	967.38
1430.919	998.38
1435.628	1000.38
1440.333	1001.38
1445.032	1015.38
1449.727	1013.38
1454.418	1027.38
1459.104	1033.38
1463.785	1021.38
1468.462	1015.38
1473.134	999.38
1477.802	992.38
1482.465	996.38
1487.123	987.38
1491.777	1004.38
1496.426	1002.38
1501.071	996.38
1505.711	1014.38
1510.347	1023.38
1514.978	1042.38
1519.604	1035.38
1524.226	1049.38
1528.844	1050.38
1533.457	1033.38
1538.065	1043.38
1542.669	1046.38
1547.269	1044.38
1551.864	1045.38
1556.454	1057.38
1561.041	1072.38
1565.622	1072.38
1570.199	1078.38
1574.772	1089.38
1579.34	1140.38
1583.904	1136.38
1588.464	1166.38
1593.019	1169.38
1597.569	1189.38
1602.115	1192.38
1606.657	1208.38
1611.195	1214.38
1615.728	1241.38
1620.256	1248.38
1624.78	1265.38
1629.3	1282.38
1633.816	1295.38
1638.327	1306.38
1642.834	1321.38
1647.336	1348.38
1651.834	1343.38
1656.328	1356.38
1660.817	1329.38
1665.302	1301.38
1669.783	1298.38
1674.259	1253.38
1678.732	1214.38
1683.199	1165.38
1687.663	1138.38
1692.122	1088.38
1696.577	1058.38
1701.028	1019.38
1705.474	983.38
1709.917	952.38
1714.355	936.38
1718.788	923.38
1723.218	900.38
1727.643	882.38
1732.064	863.38
1736.481	853.38
1740.893	807.38
1745.301	794.38
1749.705	774.38
1754.105	753.38
1758.501	740.38
1762.893	734.38
1767.28	724.38
1771.663	707.38
1776.042	712.38
1780.417	714.38
1784.787	721.38
1789.154	731.38
1793.516	721.38
1797.874	712.38
1802.228	707.38
1806.578	690.38
1810.924	685.38
1815.266	667.38
1819.603	655.38
1823.937	659.38
1828.266	661.38
1832.591	647.38
1836.913	648.38
1841.23	641.38
1845.543	641.38
1849.852	656.38
1854.156	642.38
1858.457	646.38
1862.754	658.38
1867.047	658.38
1871.335	650.38
1875.62	651.38
1879.9	649.38
1884.177	647.38
1888.449	651.38
1892.718	645.38
1896.982	646.38
1901.243	654.38
1905.499	652.38
1909.752	655.38
1914	646.38
1918.245	641.38
1922.485	643.38
1926.722	652.38
1930.954	654.38
1935.183	658.38
1939.408	661.38
1943.628	654.38
1947.845	658.38
1952.058	666.38
1956.267	646.38
1960.472	656.38
1964.673	640.38
1968.87	632.38
1973.063	628.38
1977.252	636.38
1981.438	619.38
1985.619	612.38
1989.797	628.38
1993.971	618.38
1998.14	625.38
2002.306	619.38
2006.469	620.38
2010.627	635.38
2014.781	635.38
2018.932	621.38
2023.078	628.38
2027.221	626.38
2031.36	628.38
2035.495	616.38
2039.627	615.38
2043.754	616.38
2047.878	610.38
2051.998	615.38
2056.114	613.38
2060.226	617.38
2064.334	617.38
2068.439	617.38
2072.54	635.38
2076.637	623.38
2080.73	629.38
2084.82	621.38
2088.906	622.38
2092.988	638.38
2097.066	619.38
2101.14	620.38
2105.211	620.38
2109.278	612.38
2113.342	611.38
2117.401	604.38
2121.457	609.38
2125.509	614.38
2129.558	595.38
2133.602	601.38
2137.643	593.38
2141.681	594.38
2145.714	592.38
2149.744	585.38
2153.77	577.38
2157.793	585.38
2161.812	583.38
2165.827	566.38
2169.838	556.38
2173.846	555.38
2177.851	537.38
2181.851	542.38
2185.848	530.38
2189.841	529.38
2193.831	515.38
2197.817	512.38
2201.799	516.38
2205.778	519.38
2209.753	500.38
2213.725	497.38
2217.693	513.38
2221.657	506.38
2225.618	506.38
2229.575	502.38
2233.529	496.38
2237.479	487.38
2241.425	492.38
2245.368	486.38
2249.307	470.38
2253.243	475.38
2257.175	467.38
2261.104	451.38
2265.029	447.38
2268.95	445.38
2272.868	438.38
2276.783	439.38
2280.694	440.38
2284.601	422.38
2288.505	416.38
2292.405	413.38
2296.302	408.38
2300.195	403.38
2304.085	404.38
2307.971	393.38
2311.854	383.38
2315.734	380.38
2319.609	368.38
2323.482	366.38
2327.351	365.38
2331.216	363.38
2335.078	350.38
2338.937	361.38
2342.792	350.38
2346.643	346.38
2350.492	351.38
2354.336	352.38
2358.178	346.38
2362.015	360.38
2365.85	352.38
2369.681	351.38
2373.508	353.38
2377.333	349.38
2381.153	355.38
2384.971	348.38
2388.785	351.38
2392.595	343.38
2396.402	339.38
2400.206	344.38
2404.007	338.38
2407.804	334.38
2411.597	336.38
2415.388	326.38
2419.174	329.38
2422.958	326.38
2426.738	331.38
2430.515	321.38
2434.289	338.38
2438.059	330.38
2441.825	332.38
2445.589	324.38
2449.349	327.38
2453.106	313.38
2456.859	312.38
2460.61	312.38
2464.356	310.38
2468.1	300.38
2471.84	310.38
2475.577	312.38
2479.311	298.38
2483.041	319.38
2486.768	305.38
2490.492	302.38
2494.213	305.38
2497.93	294.38
2501.644	291.38
2505.355	294.38
2509.062	298.38
2512.766	300.38
2516.467	304.38
2520.165	288.38
2523.859	294.38
2527.551	293.38
2531.239	281.38
2534.923	286.38
2538.605	275.38
2542.283	279.38
2545.958	277.38
2549.63	275.38
2553.299	281.38
2556.964	276.38
2560.626	274.38
2564.285	275.38
2567.941	269.38
2571.594	272.38
2575.243	266.38
2578.89	264.38
2582.533	263.38
2586.173	254.38
2589.809	252.38
2593.443	251.38
2597.073	251.38
2600.701	256.38
2604.325	255.38
2607.946	243.38
2611.564	254.38
2615.178	246.38
2618.79	246.38
2622.398	242.38
2626.004	240.38
2629.606	237.38
2633.205	232.38
2636.801	235.38
2640.394	236.38
2643.983	232.38
2647.57	232.38
2651.153	227.38
2654.734	232.38
2658.311	222.38
2661.885	227.38
2665.456	217.38
2669.025	222.38
2672.589	214.38
2676.151	210.38
2679.71	209.38
2683.266	204.38
2686.819	209.38
2690.368	206.38
2693.915	208.38
2697.458	206.38
2700.999	201.38
2704.536	198.38
2708.071	196.38
2711.602	194.38
2715.13	191.38
2718.656	189.38
2722.178	186.38
2725.697	195.38
2729.214	192.38
2732.727	196.38
2736.237	183.38
2739.744	197.38
2743.249	205.38
2746.75	192.38
2750.248	199.38
2753.743	202.38
2757.236	189.38
2760.725	195.38
2764.211	192.38
2767.695	197.38
2771.175	188.38
2774.652	190.38
2778.127	192.38
2781.598	189.38
2785.067	187.38
2788.532	193.38
2791.995	186.38
2795.455	194.38
2798.911	195.38
2802.365	191.38
2805.816	190.38
2809.264	191.38
2812.709	186.38
2816.151	189.38
2819.59	184.38
2823.026	195.38
2826.46	200.38
2829.89	196.38
2833.318	190.38
2836.742	190.38
2840.164	198.38
2843.583	193.38
2846.999	207.38
2850.412	201.38
2853.822	204.38
2857.229	211.38
2860.634	209.38
2864.035	210.38
2867.434	220.38
2870.83	220.38
2874.223	220.38
2877.613	219.38
2881	221.38
2884.385	223.38
2887.766	226.38
2891.145	216.38
2894.521	220.38
2897.894	225.38
2901.264	219.38
2904.631	227.38
2907.996	226.38
2911.358	236.38
2914.717	241.38
2918.073	239.38
2921.426	243.38
2924.777	242.38
2928.124	249.38
2931.469	245.38
2934.811	251.38
2938.15	264.38
2941.487	263.38
2944.821	268.38
2948.152	273.38
2951.48	286.38
2954.805	284.38
2958.128	295.38
2961.447	291.38
2964.765	298.38
2968.079	311.38
2971.39	314.38
2974.699	325.38
2978.005	330.38
2981.308	336.38
2984.609	341.38
2987.907	357.38
2991.202	364.38
2994.494	361.38
2997.784	382.38
3001.07	388.38
3004.355	406.38
3007.636	412.38
3010.915	434.38
3014.191	430.38
3017.464	433.38
3020.734	448.38
3024.002	451.38
3027.267	458.38
3030.53	462.38
3033.789	473.38
3037.046	480.38
3040.301	498.38
3043.552	505.38
3046.801	512.38
3050.048	535.38
3053.291	548.38
3056.532	566.38
3059.771	586.38
3063.006	604.38
3066.239	625.38
3069.469	639.38
3072.697	657.38
3075.922	680.38
3079.144	677.38
3082.364	709.38
3085.581	723.38
3088.795	745.38
3092.007	747.38
3095.216	766.38
3098.423	789.38
3101.627	832.38
3104.828	827.38
3108.026	844.38
3111.222	855.38
3114.416	880.38
3117.607	899.38
3120.795	917.38
3123.98	940.38
3127.163	949.38
3130.344	996.38
3133.521	1001.38
3136.696	1021.38
3139.869	1042.38
3143.039	1075.38
3146.206	1075.38
3149.371	1088.38
3152.533	1099.38
3155.693	1106.38
3158.85	1131.38
3162.005	1124.38
3165.157	1137.38
3168.306	1133.38
3171.453	1159.38
3174.597	1148.38
3177.739	1153.38
3180.878	1163.38
3184.014	1152.38
3187.149	1167.38
3190.28	1161.38
3193.409	1175.38
3196.536	1174.38
3199.659	1173.38
3202.781	1189.38
3205.9	1182.38
3209.016	1195.38
3212.13	1185.38
3215.241	1191.38
3218.35	1181.38
3221.456	1167.38
3224.56	1160.38
3227.661	1143.38
3230.76	1130.38
3233.856	1124.38
3236.95	1104.38
3240.041	1106.38
3243.13	1096.38
3246.216	1086.38
3249.3	1075.38
3252.382	1078.38
3255.46	1066.38
3258.537	1063.38
3261.611	1064.38
3264.682	1059.38
3267.751	1054.38
3270.818	1041.38
3273.882	1033.38
3276.943	1035.38
3280.002	1022.38
3283.059	1017.38
3286.113	989.38
3289.165	1000.38
3292.214	978.38
3295.261	973.38
3298.306	959.38
3301.348	943.38
3304.387	937.38
3307.425	909.38
3310.459	898.38
3313.492	885.38
3316.521	881.38
3319.549	866.38
3322.574	866.38
3325.597	867.38
3328.617	837.38
3331.635	835.38
3334.65	838.38
3337.663	841.38
3340.674	826.38
3343.682	832.38
3346.688	813.38
3349.691	815.38
3352.692	810.38
3355.691	812.38
3358.687	793.38
3361.681	788.38
3364.673	779.38
3367.662	769.38
3370.649	767.38
3373.633	750.38
3376.615	744.38
3379.595	739.38
3382.572	716.38
3385.547	707.38
3388.52	707.38
3391.49	688.38
3394.458	682.38
3397.424	681.38
3400.387	670.38
3403.348	660.38
3406.307	656.38
3409.263	650.38
3412.217	634.38
3415.168	629.38
3418.118	631.38
3421.065	623.38
3424.009	607.38
3426.951	602.38
3429.891	594.38
3432.829	595.38
3435.764	564.38
3438.697	559.38
3441.628	557.38
3444.557	529.38
3447.483	526.38
3450.407	503.38
3453.328	480.38
3456.247	472.38
3459.164	454.38
3462.079	450.38
3464.991	420.38
3467.902	417.38
3470.809	404.38
3473.715	390.38
3476.618	379.38
3479.519	366.38
3482.418	366.38
3485.315	356.38
3488.209	343.38
3491.101	332.38
3493.99	321.38
3496.878	316.38
3499.763	304.38
3502.646	286.38
3505.527	287.38
3508.405	267.38
3511.281	252.38
3514.155	251.38
3517.027	235.38
3519.897	226.38
3522.764	215.38
3525.629	204.38
3528.492	194.38
3531.352	175.38
3534.211	165.38
3537.067	156.38
3539.921	148.38
3542.773	136.38
3545.622	133.38
3548.469	120.38
3551.315	110.38
3554.157	103.38
3556.998	98.38
3559.837	94.38
3562.673	86.38
3565.507	76.38
3568.339	76.38
3571.169	68.38
3573.996	62.38
3576.822	58.38
3579.645	53.38
3582.466	45.38
3585.285	43.38
3588.101	39.38
3590.916	31.38
3593.728	28.38
3596.538	14.38
3599.346	12.38
3602.152	8.38
3604.956	1.38
3607.757	3.38
3610.556	-3.62
3613.354	-6.62
3616.149	-8.62
3618.942	-8.62
3621.732	-15.62
3624.521	-20.62
3627.307	-23.62
3630.092	-25.62
3632.874	-29.62
3635.654	-33.62
3638.432	-35.62
3641.208	-35.62
3643.982	-36.62
3646.753	-40.62
3649.523	-46.62
3652.29	-45.62
3655.055	-50.62
3657.818	-47.62
3660.579	-50.62
3663.338	-59.62
3666.095	-56.62
3668.849	-67.62
3671.602	-65.62
3674.352	-68.62
3677.101	-68.62
3679.847	-70.62
3682.591	-70.62
3685.333	-73.62
3688.073	-75.62
3690.811	-78.62
3693.547	-80.62
3696.281	-86.62
3699.013	-84.62
3701.742	-83.62
3704.47	-85.62
3707.195	-87.62
3709.919	-85.62
3712.64	-89.62
3715.359	-87.62
3718.076	-88.62
3720.792	-84.62
3723.505	-88.62
3726.216	-92.62
3728.925	-90.62
3731.632	-92.62
3734.336	-99.62
3737.039	-97.62
3739.74	-96.62
3742.439	-97.62
3745.136	-98.62
3747.83	-96.62
3750.523	-97.62
3753.213	-96.62
3755.902	-95.62
3758.589	-94.62
3761.273	-101.62
3763.956	-103.62
3766.636	-102.62
3769.315	-105.62
3771.991	-102.62
3774.665	-100.62
3777.338	-104.62
3780.008	-101.62
3782.677	-103.62
3785.343	-102.62
3788.007	-101.62
3790.67	-102.62
3793.33	-102.62
3795.989	-105.62
3798.645	-105.62
3801.299	-103.62
3803.952	-104.62
3806.602	-103.62
3809.251	-106.62
3811.897	-106.62
3814.542	-109.62
3817.184	-105.62
3819.825	-105.62
3822.463	-105.62
3825.1	-109.62
3827.735	-109.62
3830.367	-109.62
3832.998	-109.62
3835.627	-113.62
3838.253	-108.62
3840.878	-112.62
3843.501	-110.62
3846.122	-113.62
3848.741	-109.62
3851.358	-110.62
3853.973	-105.62
3856.586	-110.62
3859.197	-111.62
3861.806	-114.62
3864.414	-110.62
3867.019	-114.62
3869.622	-112.62
3872.224	-112.62
3874.823	-110.62
3877.421	-99.62
3880.016	-106.62
3882.61	-97.62
3885.202	-98.62
3887.792	-101.62
3890.38	-105.62
3892.966	-111.62
3895.55	-112.62
3898.132	-115.62
3900.713	-117.62
3903.291	-113.62
3905.868	-113.62
3908.442	-113.62
3911.015	-117.62
3913.586	-112.62
3916.155	-110.62
3918.722	-112.62
3921.287	-114.62
3923.85	-116.62
3926.411	-110.62
3928.971	-117.62
3931.528	-113.62
3934.084	-114.62
3936.638	-114.62
3939.19	-110.62
3941.74	-107.62
3944.288	-115.62
3946.834	-112.62
3949.378	-115.62
3951.921	-116.62
3954.462	-110.62
3957	-117.62
3959.537	-117.62
3962.072	-114.62
3964.606	-114.62
3967.137	-112.62
3969.667	-114.62
3972.194	-113.62
3974.72	-114.62
3977.244	-113.62
3979.766	-117.62
3982.286	-113.62
3984.805	-115.62
3987.321	-117.62
3989.836	-115.62
3992.349	-117.62
3994.86	-112.62
3997.369	-118.62
3999.877	-114.62
4002.382	-109.62
4004.886	-113.62
4007.388	-113.62
4009.888	-111.62
4012.386	-111.62
4014.883	-110.62
4017.377	-112.62
4019.87	-112.62
4022.361	-116.62
4024.85	-112.62
4027.338	-114.62
4029.823	-116.62
4032.307	-114.62
4034.789	-116.62
4037.269	-115.62
4039.747	-114.62
4042.224	-108.62
4044.699	-112.62
4047.172	-116.62
4049.643	-114.62
4052.112	-113.62
4054.58	-112.62
4057.046	-115.62
4059.51	-113.62
4061.972	-114.62
4064.432	-114.62
4066.891	-118.62
4069.348	-116.62
4071.803	-112.62
4074.256	-115.62
4076.708	-115.62
4079.158	-117.62
4081.606	-113.62
4084.052	-114.62
4086.497	-113.62
4088.939	-115.62
4091.38	-116.62
4093.819	-118.62
4096.257	-119.62
4098.693	-119.62
4101.127	-119.62
4103.559	-118.62
4105.989	-75.62
4108.418	-73.62
4110.845	-71.62
4113.27	-69.62
4115.694	-58.62
4118.115	-57.62
4120.535	-113.62
4122.954	-113.62
4125.37	-109.62
4127.785	-110.62
4130.198	-111.62
4132.609	-110.62
4135.019	-115.62
4137.427	-120.62
4139.833	-124.62
4142.237	-121.62
