Data from 100CFU3_B_RamanShift_1.txt Node
Date: Thu Jan 26 11:28:38 IST 2017
User: aro
Spectrometer: QEPB0276
Trigger mode: 0
Integration Time (sec): 5.000000E0
Scans to average: 1
Electric dark correction enabled: true
Nonlinearity correction enabled: false
Boxcar width: 0
XAxis mode: Raman Shifts
Number of Pixels in Spectrum: 1044
>>>>>Begin Spectral Data<<<<<
160.701	-31.88
166.742	0.12
172.777	97.12
178.805	377.12
184.826	1063.12
190.841	2167.12
196.849	3348.12
202.85	4121.12
208.845	4249.12
214.833	4127.12
220.815	3981.12
226.789	3865.12
232.758	3755.12
238.719	3611.12
244.674	3495.12
250.623	3345.12
256.565	3194.12
262.5	3044.12
268.429	2937.12
274.351	2810.12
280.267	2692.12
286.176	2615.12
292.079	2524.12
297.975	2431.12
303.865	2365.12
309.748	2298.12
315.625	2272.12
321.495	2210.12
327.359	2183.12
333.217	2163.12
339.068	2128.12
344.912	2120.12
350.751	2097.12
356.583	2117.12
362.408	2131.12
368.227	2096.12
374.04	2114.12
379.847	2116.12
385.647	2142.12
391.44	2163.12
397.228	2141.12
403.009	2164.12
408.784	2173.12
414.553	2170.12
420.315	2169.12
426.071	2180.12
431.821	2186.12
437.565	2167.12
443.302	2176.12
449.033	2181.12
454.758	2125.12
460.477	2149.12
466.189	2150.12
471.896	2142.12
477.596	2116.12
483.29	2085.12
488.978	2088.12
494.66	2077.12
500.335	2062.12
506.005	2011.12
511.668	1974.12
517.325	1934.12
522.977	1900.12
528.622	1878.12
534.261	1866.12
539.894	1839.12
545.521	1816.12
551.141	1818.12
556.756	1806.12
562.365	1795.12
567.968	1787.12
573.565	1763.12
579.155	1761.12
584.74	1757.12
590.319	1744.12
595.892	1728.12
601.459	1727.12
607.02	1692.12
612.575	1691.12
618.124	1666.12
623.667	1649.12
629.204	1631.12
634.735	1625.12
640.261	1610.12
645.781	1610.12
651.294	1595.12
656.802	1590.12
662.304	1585.12
667.8	1575.12
673.29	1568.12
678.775	1547.12
684.254	1546.12
689.726	1550.12
695.193	1550.12
700.655	1536.12
706.11	1518.12
711.56	1499.12
717.004	1501.12
722.442	1490.12
727.874	1487.12
733.301	1477.12
738.722	1462.12
744.137	1473.12
749.547	1458.12
754.951	1451.12
760.349	1446.12
765.741	1443.12
771.128	1457.12
776.509	1455.12
781.885	1454.12
787.254	1441.12
792.618	1448.12
797.977	1433.12
803.33	1405.12
808.677	1400.12
814.019	1397.12
819.355	1378.12
824.686	1374.12
830.011	1337.12
835.33	1334.12
840.644	1344.12
845.952	1316.12
851.255	1333.12
856.552	1326.12
861.844	1318.12
867.13	1299.12
872.41	1288.12
877.686	1281.12
882.955	1264.12
888.219	1239.12
893.478	1236.12
898.731	1202.12
903.979	1186.12
909.221	1188.12
914.458	1178.12
919.69	1174.12
924.916	1181.12
930.136	1157.12
935.351	1176.12
940.561	1165.12
945.766	1163.12
950.965	1141.12
956.158	1132.12
961.347	1125.12
966.529	1115.12
971.707	1087.12
976.879	1091.12
982.046	1074.12
987.208	1067.12
992.364	1065.12
997.515	1074.12
1002.66	1089.12
1007.801	1101.12
1012.936	1098.12
1018.066	1114.12
1023.19	1103.12
1028.309	1111.12
1033.423	1119.12
1038.532	1091.12
1043.636	1086.12
1048.734	1094.12
1053.827	1078.12
1058.915	1068.12
1063.998	1055.12
1069.075	1059.12
1074.147	1062.12
1079.214	1069.12
1084.276	1067.12
1089.333	1094.12
1094.385	1090.12
1099.431	1094.12
1104.472	1101.12
1109.509	1094.12
1114.54	1063.12
1119.565	1062.12
1124.586	1040.12
1129.602	1039.12
1134.613	1036.12
1139.618	1032.12
1144.619	1030.12
1149.614	1039.12
1154.604	1051.12
1159.589	1043.12
1164.57	1061.12
1169.545	1053.12
1174.515	1054.12
1179.48	1050.12
1184.44	1061.12
1189.395	1039.12
1194.345	1043.12
1199.29	1029.12
1204.23	1036.12
1209.165	1047.12
1214.095	1042.12
1219.021	1054.12
1223.941	1052.12
1228.856	1079.12
1233.766	1098.12
1238.672	1061.12
1243.572	1074.12
1248.467	1050.12
1253.358	1049.12
1258.244	1029.12
1263.124	1018.12
1268	992.12
1272.871	1002.12
1277.737	985.12
1282.599	983.12
1287.455	989.12
1292.306	995.12
1297.153	1000.12
1301.995	1004.12
1306.832	1011.12
1311.664	1018.12
1316.491	1015.12
1321.314	1016.12
1326.132	1009.12
1330.945	1001.12
1335.753	983.12
1340.556	986.12
1345.354	983.12
1350.148	956.12
1354.937	953.12
1359.722	949.12
1364.501	942.12
1369.276	937.12
1374.046	919.12
1378.811	931.12
1383.572	919.12
1388.327	926.12
1393.079	909.12
1397.825	908.12
1402.567	896.12
1407.304	906.12
1412.036	888.12
1416.764	886.12
1421.487	888.12
1426.205	894.12
1430.919	898.12
1435.628	920.12
1440.333	927.12
1445.032	931.12
1449.727	921.12
1454.418	934.12
1459.104	940.12
1463.785	919.12
1468.462	926.12
1473.134	924.12
1477.802	919.12
1482.465	901.12
1487.123	909.12
1491.777	911.12
1496.426	905.12
1501.071	921.12
1505.711	930.12
1510.347	940.12
1514.978	946.12
1519.604	950.12
1524.226	954.12
1528.844	959.12
1533.457	952.12
1538.065	955.12
1542.669	954.12
1547.269	962.12
1551.864	956.12
1556.454	968.12
1561.041	968.12
1565.622	986.12
1570.199	984.12
1574.772	1025.12
1579.34	1028.12
1583.904	1048.12
1588.464	1062.12
1593.019	1095.12
1597.569	1101.12
1602.115	1096.12
1606.657	1126.12
1611.195	1131.12
1615.728	1135.12
1620.256	1154.12
1624.78	1175.12
1629.3	1194.12
1633.816	1203.12
1638.327	1207.12
1642.834	1254.12
1647.336	1249.12
1651.834	1248.12
1656.328	1260.12
1660.817	1241.12
1665.302	1225.12
1669.783	1208.12
1674.259	1167.12
1678.732	1139.12
1683.199	1106.12
1687.663	1065.12
1692.122	1016.12
1696.577	982.12
1701.028	934.12
1705.474	885.12
1709.917	863.12
1714.355	860.12
1718.788	846.12
1723.218	835.12
1727.643	813.12
1732.064	789.12
1736.481	772.12
1740.893	751.12
1745.301	727.12
1749.705	700.12
1754.105	689.12
1758.501	669.12
1762.893	666.12
1767.28	659.12
1771.663	650.12
1776.042	655.12
1780.417	644.12
1784.787	658.12
1789.154	644.12
1793.516	666.12
1797.874	664.12
1802.228	643.12
1806.578	632.12
1810.924	623.12
1815.266	604.12
1819.603	594.12
1823.937	587.12
1828.266	595.12
1832.591	584.12
1836.913	579.12
1841.23	587.12
1845.543	586.12
1849.852	576.12
1854.156	594.12
1858.457	579.12
1862.754	590.12
1867.047	584.12
1871.335	587.12
1875.62	601.12
1879.9	590.12
1884.177	612.12
1888.449	593.12
1892.718	591.12
1896.982	590.12
1901.243	593.12
1905.499	580.12
1909.752	581.12
1914	589.12
1918.245	591.12
1922.485	584.12
1926.722	579.12
1930.954	599.12
1935.183	599.12
1939.408	608.12
1943.628	596.12
1947.845	610.12
1952.058	609.12
1956.267	594.12
1960.472	593.12
1964.673	587.12
1968.87	569.12
1973.063	560.12
1977.252	558.12
1981.438	559.12
1985.619	560.12
1989.797	554.12
1993.971	557.12
1998.14	564.12
2002.306	572.12
2006.469	567.12
2010.627	565.12
2014.781	568.12
2018.932	581.12
2023.078	572.12
2027.221	571.12
2031.36	554.12
2035.495	564.12
2039.627	567.12
2043.754	554.12
2047.878	562.12
2051.998	558.12
2056.114	558.12
2060.226	555.12
2064.334	558.12
2068.439	565.12
2072.54	567.12
2076.637	569.12
2080.73	569.12
2084.82	579.12
2088.906	577.12
2092.988	579.12
2097.066	582.12
2101.14	566.12
2105.211	567.12
2109.278	555.12
2113.342	562.12
2117.401	549.12
2121.457	549.12
2125.509	554.12
2129.558	550.12
2133.602	543.12
2137.643	544.12
2141.681	547.12
2145.714	543.12
2149.744	551.12
2153.77	538.12
2157.793	533.12
2161.812	530.12
2165.827	523.12
2169.838	513.12
2173.846	499.12
2177.851	496.12
2181.851	486.12
2185.848	479.12
2189.841	475.12
2193.831	473.12
2197.817	470.12
2201.799	469.12
2205.778	471.12
2209.753	455.12
2213.725	463.12
2217.693	461.12
2221.657	460.12
2225.618	452.12
2229.575	469.12
2233.529	458.12
2237.479	451.12
2241.425	441.12
2245.368	447.12
2249.307	432.12
2253.243	425.12
2257.175	422.12
2261.104	426.12
2265.029	409.12
2268.95	406.12
2272.868	405.12
2276.783	403.12
2280.694	401.12
2284.601	390.12
2288.505	373.12
2292.405	380.12
2296.302	373.12
2300.195	369.12
2304.085	359.12
2307.971	351.12
2311.854	360.12
2315.734	346.12
2319.609	335.12
2323.482	323.12
2327.351	323.12
2331.216	324.12
2335.078	324.12
2338.937	313.12
2342.792	324.12
2346.643	320.12
2350.492	319.12
2354.336	311.12
2358.178	326.12
2362.015	322.12
2365.85	312.12
2369.681	322.12
2373.508	318.12
2377.333	324.12
2381.153	319.12
2384.971	315.12
2388.785	324.12
2392.595	315.12
2396.402	310.12
2400.206	311.12
2404.007	311.12
2407.804	306.12
2411.597	305.12
2415.388	298.12
2419.174	301.12
2422.958	297.12
2426.738	298.12
2430.515	293.12
2434.289	305.12
2438.059	296.12
2441.825	294.12
2445.589	288.12
2449.349	286.12
2453.106	284.12
2456.859	280.12
2460.61	286.12
2464.356	279.12
2468.1	279.12
2471.84	284.12
2475.577	273.12
2479.311	279.12
2483.041	280.12
2486.768	276.12
2490.492	276.12
2494.213	271.12
2497.93	276.12
2501.644	274.12
2505.355	270.12
2509.062	274.12
2512.766	270.12
2516.467	274.12
2520.165	265.12
2523.859	274.12
2527.551	272.12
2531.239	256.12
2534.923	264.12
2538.605	259.12
2542.283	262.12
2545.958	251.12
2549.63	252.12
2553.299	252.12
2556.964	249.12
2560.626	246.12
2564.285	241.12
2567.941	250.12
2571.594	253.12
2575.243	252.12
2578.89	232.12
2582.533	235.12
2586.173	240.12
2589.809	243.12
2593.443	232.12
2597.073	218.12
2600.701	234.12
2604.325	223.12
2607.946	226.12
2611.564	233.12
2615.178	223.12
2618.79	235.12
2622.398	223.12
2626.004	221.12
2629.606	216.12
2633.205	225.12
2636.801	211.12
2640.394	213.12
2643.983	206.12
2647.57	213.12
2651.153	210.12
2654.734	201.12
2658.311	192.12
2661.885	205.12
2665.456	192.12
2669.025	199.12
2672.589	190.12
2676.151	194.12
2679.71	190.12
2683.266	181.12
2686.819	185.12
2690.368	185.12
2693.915	185.12
2697.458	183.12
2700.999	182.12
2704.536	182.12
2708.071	178.12
2711.602	183.12
2715.13	177.12
2718.656	177.12
2722.178	170.12
2725.697	177.12
2729.214	175.12
2732.727	179.12
2736.237	168.12
2739.744	180.12
2743.249	182.12
2746.75	185.12
2750.248	178.12
2753.743	187.12
2757.236	178.12
2760.725	170.12
2764.211	168.12
2767.695	167.12
2771.175	172.12
2774.652	172.12
2778.127	175.12
2781.598	163.12
2785.067	165.12
2788.532	180.12
2791.995	177.12
2795.455	180.12
2798.911	170.12
2802.365	177.12
2805.816	182.12
2809.264	178.12
2812.709	168.12
2816.151	173.12
2819.59	180.12
2823.026	176.12
2826.46	186.12
2829.89	182.12
2833.318	180.12
2836.742	181.12
2840.164	181.12
2843.583	183.12
2846.999	183.12
2850.412	195.12
2853.822	190.12
2857.229	195.12
2860.634	193.12
2864.035	195.12
2867.434	197.12
2870.83	203.12
2874.223	202.12
2877.613	202.12
2881	205.12
2884.385	201.12
2887.766	209.12
2891.145	202.12
2894.521	210.12
2897.894	216.12
2901.264	207.12
2904.631	212.12
2907.996	216.12
2911.358	221.12
2914.717	221.12
2918.073	228.12
2921.426	226.12
2924.777	237.12
2928.124	240.12
2931.469	242.12
2934.811	242.12
2938.15	243.12
2941.487	256.12
2944.821	266.12
2948.152	264.12
2951.48	269.12
2954.805	272.12
2958.128	274.12
2961.447	280.12
2964.765	288.12
2968.079	293.12
2971.39	299.12
2974.699	308.12
2978.005	324.12
2981.308	325.12
2984.609	334.12
2987.907	338.12
2991.202	339.12
2994.494	353.12
2997.784	369.12
3001.07	377.12
3004.355	385.12
3007.636	397.12
3010.915	407.12
3014.191	410.12
3017.464	423.12
3020.734	421.12
3024.002	440.12
3027.267	437.12
3030.53	447.12
3033.789	465.12
3037.046	477.12
3040.301	471.12
3043.552	479.12
3046.801	504.12
3050.048	517.12
3053.291	532.12
3056.532	555.12
3059.771	560.12
3063.006	583.12
3066.239	610.12
3069.469	631.12
3072.697	634.12
3075.922	662.12
3079.144	655.12
3082.364	684.12
3085.581	711.12
3088.795	712.12
3092.007	745.12
3095.216	753.12
3098.423	771.12
3101.627	796.12
3104.828	804.12
3108.026	817.12
3111.222	836.12
3114.416	864.12
3117.607	887.12
3120.795	900.12
3123.98	934.12
3127.163	955.12
3130.344	980.12
3133.521	980.12
3136.696	1006.12
3139.869	1032.12
3143.039	1047.12
3146.206	1070.12
3149.371	1068.12
3152.533	1081.12
3155.693	1102.12
3158.85	1103.12
3162.005	1101.12
3165.157	1114.12
3168.306	1116.12
3171.453	1130.12
3174.597	1104.12
3177.739	1129.12
3180.878	1135.12
3184.014	1141.12
3187.149	1144.12
3190.28	1139.12
3193.409	1157.12
3196.536	1141.12
3199.659	1158.12
3202.781	1167.12
3205.9	1161.12
3209.016	1174.12
3212.13	1169.12
3215.241	1166.12
3218.35	1159.12
3221.456	1136.12
3224.56	1137.12
3227.661	1127.12
3230.76	1098.12
3233.856	1095.12
3236.95	1098.12
3240.041	1090.12
3243.13	1062.12
3246.216	1063.12
3249.3	1063.12
3252.382	1047.12
3255.46	1062.12
3258.537	1041.12
3261.611	1033.12
3264.682	1029.12
3267.751	1019.12
3270.818	1018.12
3273.882	1030.12
3276.943	1009.12
3280.002	1010.12
3283.059	1004.12
3286.113	986.12
3289.165	970.12
3292.214	944.12
3295.261	944.12
3298.306	940.12
3301.348	924.12
3304.387	907.12
3307.425	892.12
3310.459	879.12
3313.492	878.12
3316.521	861.12
3319.549	861.12
3322.574	846.12
3325.597	843.12
3328.617	832.12
3331.635	825.12
3334.65	827.12
3337.663	838.12
3340.674	817.12
3343.682	801.12
3346.688	814.12
3349.691	806.12
3352.692	804.12
3355.691	793.12
3358.687	786.12
3361.681	783.12
3364.673	766.12
3367.662	770.12
3370.649	751.12
3373.633	736.12
3376.615	742.12
3379.595	725.12
3382.572	713.12
3385.547	706.12
3388.52	691.12
3391.49	696.12
3394.458	679.12
3397.424	668.12
3400.387	676.12
3403.348	653.12
3406.307	641.12
3409.263	643.12
3412.217	636.12
3415.168	626.12
3418.118	619.12
3421.065	613.12
3424.009	597.12
3426.951	606.12
3429.891	583.12
3432.829	580.12
3435.764	561.12
3438.697	557.12
3441.628	544.12
3444.557	530.12
3447.483	510.12
3450.407	487.12
3453.328	486.12
3456.247	468.12
3459.164	455.12
3462.079	453.12
3464.991	425.12
3467.902	419.12
3470.809	399.12
3473.715	399.12
3476.618	383.12
3479.519	376.12
3482.418	357.12
3485.315	348.12
3488.209	342.12
3491.101	329.12
3493.99	315.12
3496.878	303.12
3499.763	295.12
3502.646	287.12
3505.527	283.12
3508.405	265.12
3511.281	254.12
3514.155	248.12
3517.027	233.12
3519.897	227.12
3522.764	214.12
3525.629	203.12
3528.492	190.12
3531.352	179.12
3534.211	164.12
3537.067	157.12
3539.921	151.12
3542.773	146.12
3545.622	128.12
3548.469	126.12
3551.315	115.12
3554.157	116.12
3556.998	107.12
3559.837	99.12
3562.673	92.12
3565.507	83.12
3568.339	75.12
3571.169	66.12
3573.996	67.12
3576.822	59.12
3579.645	56.12
3582.466	50.12
3585.285	43.12
3588.101	35.12
3590.916	38.12
3593.728	34.12
3596.538	28.12
3599.346	18.12
3602.152	12.12
3604.956	7.12
3607.757	8.12
3610.556	4.12
3613.354	-1.88
3616.149	1.12
3618.942	-9.88
3621.732	-5.88
3624.521	-12.88
3627.307	-13.88
3630.092	-16.88
3632.874	-17.88
3635.654	-31.88
3638.432	-27.88
3641.208	-29.88
3643.982	-31.88
3646.753	-34.88
3649.523	-39.88
3652.29	-36.88
3655.055	-39.88
3657.818	-42.88
3660.579	-45.88
3663.338	-52.88
3666.095	-56.88
3668.849	-55.88
3671.602	-55.88
3674.352	-62.88
3677.101	-63.88
3679.847	-60.88
3682.591	-67.88
3685.333	-67.88
3688.073	-68.88
3690.811	-68.88
3693.547	-69.88
3696.281	-71.88
3699.013	-74.88
3701.742	-75.88
3704.47	-75.88
3707.195	-79.88
3709.919	-75.88
3712.64	-80.88
3715.359	-78.88
3718.076	-82.88
3720.792	-76.88
3723.505	-82.88
3726.216	-81.88
3728.925	-86.88
3731.632	-86.88
3734.336	-88.88
3737.039	-89.88
3739.74	-88.88
3742.439	-88.88
3745.136	-89.88
3747.83	-89.88
3750.523	-89.88
3753.213	-88.88
3755.902	-87.88
3758.589	-89.88
3761.273	-90.88
3763.956	-96.88
3766.636	-95.88
3769.315	-95.88
3771.991	-91.88
3774.665	-90.88
3777.338	-91.88
3780.008	-89.88
3782.677	-97.88
3785.343	-92.88
3788.007	-95.88
3790.67	-92.88
3793.33	-94.88
3795.989	-95.88
3798.645	-96.88
3801.299	-96.88
3803.952	-95.88
3806.602	-95.88
3809.251	-95.88
3811.897	-102.88
3814.542	-101.88
3817.184	-99.88
3819.825	-95.88
3822.463	-98.88
3825.1	-99.88
3827.735	-101.88
3830.367	-101.88
3832.998	-101.88
3835.627	-104.88
3838.253	-101.88
3840.878	-105.88
3843.501	-101.88
3846.122	-103.88
3848.741	-98.88
3851.358	-100.88
3853.973	-96.88
3856.586	-101.88
3859.197	-103.88
3861.806	-103.88
3864.414	-103.88
3867.019	-107.88
3869.622	-104.88
3872.224	-102.88
3874.823	-97.88
3877.421	-94.88
3880.016	-98.88
3882.61	-85.88
3885.202	-89.88
3887.792	-95.88
3890.38	-97.88
3892.966	-102.88
3895.55	-104.88
3898.132	-109.88
3900.713	-109.88
3903.291	-105.88
3905.868	-104.88
3908.442	-104.88
3911.015	-103.88
3913.586	-105.88
3916.155	-105.88
3918.722	-107.88
3921.287	-105.88
3923.85	-108.88
3926.411	-104.88
3928.971	-105.88
3931.528	-106.88
3934.084	-108.88
3936.638	-107.88
3939.19	-104.88
3941.74	-97.88
3944.288	-105.88
3946.834	-102.88
3949.378	-105.88
3951.921	-105.88
3954.462	-103.88
3957	-108.88
3959.537	-107.88
3962.072	-106.88
3964.606	-102.88
3967.137	-103.88
3969.667	-105.88
3972.194	-100.88
3974.72	-103.88
3977.244	-101.88
3979.766	-104.88
3982.286	-103.88
3984.805	-107.88
3987.321	-106.88
3989.836	-105.88
3992.349	-108.88
3994.86	-103.88
3997.369	-111.88
3999.877	-105.88
4002.382	-105.88
4004.886	-104.88
4007.388	-107.88
4009.888	-108.88
4012.386	-103.88
4014.883	-104.88
4017.377	-105.88
4019.87	-104.88
4022.361	-107.88
4024.85	-104.88
4027.338	-103.88
4029.823	-104.88
4032.307	-106.88
4034.789	-104.88
4037.269	-104.88
4039.747	-104.88
4042.224	-99.88
4044.699	-104.88
4047.172	-104.88
4049.643	-104.88
4052.112	-105.88
4054.58	-109.88
4057.046	-109.88
4059.51	-106.88
4061.972	-109.88
4064.432	-109.88
4066.891	-105.88
4069.348	-103.88
4071.803	-100.88
4074.256	-105.88
4076.708	-103.88
4079.158	-104.88
4081.606	-107.88
4084.052	-109.88
4086.497	-102.88
4088.939	-103.88
4091.38	-106.88
4093.819	-106.88
4096.257	-108.88
4098.693	-106.88
4101.127	-108.88
4103.559	-108.88
4105.989	-68.88
4108.418	-65.88
4110.845	-64.88
4113.27	-60.88
4115.694	-53.88
4118.115	-48.88
4120.535	-106.88
4122.954	-101.88
4125.37	-101.88
4127.785	-101.88
4130.198	-102.88
4132.609	-102.88
4135.019	-107.88
4137.427	-110.88
4139.833	-112.88
4142.237	-110.88
