Data from 10CFU1_A_RamanShift_2.txt Node
Date: Thu Jan 26 10:47:18 IST 2017
User: aro
Spectrometer: QEPB0276
Trigger mode: 0
Integration Time (sec): 5.000000E0
Scans to average: 1
Electric dark correction enabled: true
Nonlinearity correction enabled: false
Boxcar width: 0
XAxis mode: Raman Shifts
Number of Pixels in Spectrum: 1044
>>>>>Begin Spectral Data<<<<<
160.701	-35.38
166.742	0.62
172.777	95.62
178.805	414.62
184.826	1134.62
190.841	2275.62
196.849	3492.62
202.85	4231.62
208.845	4378.62
214.833	4206.62
220.815	4067.62
226.789	3923.62
232.758	3836.62
238.719	3685.62
244.674	3582.62
250.623	3418.62
256.565	3252.62
262.5	3114.62
268.429	2980.62
274.351	2864.62
280.267	2768.62
286.176	2665.62
292.079	2564.62
297.975	2482.62
303.865	2392.62
309.748	2332.62
315.625	2292.62
321.495	2217.62
327.359	2195.62
333.217	2177.62
339.068	2167.62
344.912	2142.62
350.751	2147.62
356.583	2135.62
362.408	2097.62
368.227	2149.62
374.04	2145.62
379.847	2148.62
385.647	2170.62
391.44	2167.62
397.228	2193.62
403.009	2207.62
408.784	2209.62
414.553	2222.62
420.315	2233.62
426.071	2222.62
431.821	2217.62
437.565	2215.62
443.302	2215.62
449.033	2189.62
454.758	2202.62
460.477	2186.62
466.189	2175.62
471.896	2171.62
477.596	2150.62
483.29	2160.62
488.978	2137.62
494.66	2101.62
500.335	2107.62
506.005	2058.62
511.668	2033.62
517.325	1997.62
522.977	1963.62
528.622	1932.62
534.261	1905.62
539.894	1896.62
545.521	1899.62
551.141	1859.62
556.756	1861.62
562.365	1855.62
567.968	1829.62
573.565	1825.62
579.155	1810.62
584.74	1806.62
590.319	1800.62
595.892	1783.62
601.459	1765.62
607.02	1760.62
612.575	1738.62
618.124	1711.62
623.667	1712.62
629.204	1685.62
634.735	1688.62
640.261	1676.62
645.781	1673.62
651.294	1651.62
656.802	1643.62
662.304	1637.62
667.8	1646.62
673.29	1627.62
678.775	1631.62
684.254	1595.62
689.726	1599.62
695.193	1577.62
700.655	1601.62
706.11	1576.62
711.56	1582.62
717.004	1560.62
722.442	1542.62
727.874	1547.62
733.301	1535.62
738.722	1530.62
744.137	1506.62
749.547	1497.62
754.951	1499.62
760.349	1506.62
765.741	1510.62
771.128	1499.62
776.509	1512.62
781.885	1522.62
787.254	1511.62
792.618	1497.62
797.977	1498.62
803.33	1477.62
808.677	1460.62
814.019	1456.62
819.355	1426.62
824.686	1429.62
830.011	1410.62
835.33	1413.62
840.644	1390.62
845.952	1397.62
851.255	1388.62
856.552	1378.62
861.844	1372.62
867.13	1365.62
872.41	1362.62
877.686	1337.62
882.955	1314.62
888.219	1314.62
893.478	1294.62
898.731	1274.62
903.979	1257.62
909.221	1255.62
914.458	1256.62
919.69	1238.62
924.916	1232.62
930.136	1236.62
935.351	1242.62
940.561	1227.62
945.766	1227.62
950.965	1215.62
956.158	1208.62
961.347	1197.62
966.529	1175.62
971.707	1149.62
976.879	1149.62
982.046	1142.62
987.208	1132.62
992.364	1126.62
997.515	1147.62
1002.66	1143.62
1007.801	1134.62
1012.936	1163.62
1018.066	1165.62
1023.19	1170.62
1028.309	1176.62
1033.423	1186.62
1038.532	1167.62
1043.636	1172.62
1048.734	1157.62
1053.827	1123.62
1058.915	1135.62
1063.998	1138.62
1069.075	1133.62
1074.147	1112.62
1079.214	1132.62
1084.276	1135.62
1089.333	1148.62
1094.385	1132.62
1099.431	1151.62
1104.472	1156.62
1109.509	1155.62
1114.54	1149.62
1119.565	1118.62
1124.586	1124.62
1129.602	1114.62
1134.613	1102.62
1139.618	1095.62
1144.619	1111.62
1149.614	1105.62
1154.604	1111.62
1159.589	1114.62
1164.57	1133.62
1169.545	1125.62
1174.515	1131.62
1179.48	1126.62
1184.44	1101.62
1189.395	1114.62
1194.345	1101.62
1199.29	1101.62
1204.23	1097.62
1209.165	1097.62
1214.095	1111.62
1219.021	1130.62
1223.941	1129.62
1228.856	1128.62
1233.766	1142.62
1238.672	1149.62
1243.572	1140.62
1248.467	1137.62
1253.358	1116.62
1258.244	1111.62
1263.124	1095.62
1268	1072.62
1272.871	1066.62
1277.737	1058.62
1282.599	1055.62
1287.455	1054.62
1292.306	1060.62
1297.153	1074.62
1301.995	1077.62
1306.832	1104.62
1311.664	1081.62
1316.491	1094.62
1321.314	1081.62
1326.132	1086.62
1330.945	1070.62
1335.753	1065.62
1340.556	1045.62
1345.354	1042.62
1350.148	1032.62
1354.937	1022.62
1359.722	999.62
1364.501	990.62
1369.276	990.62
1374.046	977.62
1378.811	985.62
1383.572	977.62
1388.327	976.62
1393.079	966.62
1397.825	961.62
1402.567	960.62
1407.304	956.62
1412.036	945.62
1416.764	959.62
1421.487	949.62
1426.205	955.62
1430.919	960.62
1435.628	980.62
1440.333	986.62
1445.032	999.62
1449.727	995.62
1454.418	994.62
1459.104	1012.62
1463.785	995.62
1468.462	981.62
1473.134	976.62
1477.802	976.62
1482.465	962.62
1487.123	960.62
1491.777	973.62
1496.426	979.62
1501.071	988.62
1505.711	984.62
1510.347	979.62
1514.978	1010.62
1519.604	1006.62
1524.226	1004.62
1528.844	1022.62
1533.457	1021.62
1538.065	1011.62
1542.669	1011.62
1547.269	1006.62
1551.864	1007.62
1556.454	1014.62
1561.041	1018.62
1565.622	1022.62
1570.199	1050.62
1574.772	1070.62
1579.34	1082.62
1583.904	1103.62
1588.464	1128.62
1593.019	1142.62
1597.569	1166.62
1602.115	1172.62
1606.657	1189.62
1611.195	1193.62
1615.728	1212.62
1620.256	1217.62
1624.78	1224.62
1629.3	1248.62
1633.816	1260.62
1638.327	1275.62
1642.834	1300.62
1647.336	1302.62
1651.834	1305.62
1656.328	1307.62
1660.817	1298.62
1665.302	1269.62
1669.783	1257.62
1674.259	1228.62
1678.732	1185.62
1683.199	1143.62
1687.663	1099.62
1692.122	1049.62
1696.577	1040.62
1701.028	976.62
1705.474	936.62
1709.917	901.62
1714.355	887.62
1718.788	880.62
1723.218	881.62
1727.643	856.62
1732.064	837.62
1736.481	823.62
1740.893	801.62
1745.301	764.62
1749.705	757.62
1754.105	718.62
1758.501	709.62
1762.893	702.62
1767.28	702.62
1771.663	699.62
1776.042	682.62
1780.417	697.62
1784.787	693.62
1789.154	691.62
1793.516	685.62
1797.874	689.62
1802.228	682.62
1806.578	666.62
1810.924	653.62
1815.266	642.62
1819.603	640.62
1823.937	626.62
1828.266	621.62
1832.591	613.62
1836.913	620.62
1841.23	616.62
1845.543	609.62
1849.852	622.62
1854.156	618.62
1858.457	633.62
1862.754	627.62
1867.047	629.62
1871.335	626.62
1875.62	632.62
1879.9	644.62
1884.177	631.62
1888.449	631.62
1892.718	636.62
1896.982	623.62
1901.243	624.62
1905.499	627.62
1909.752	626.62
1914	613.62
1918.245	628.62
1922.485	614.62
1926.722	612.62
1930.954	624.62
1935.183	625.62
1939.408	631.62
1943.628	622.62
1947.845	616.62
1952.058	619.62
1956.267	624.62
1960.472	616.62
1964.673	602.62
1968.87	584.62
1973.063	584.62
1977.252	593.62
1981.438	593.62
1985.619	595.62
1989.797	599.62
1993.971	592.62
1998.14	588.62
2002.306	600.62
2006.469	604.62
2010.627	607.62
2014.781	599.62
2018.932	608.62
2023.078	607.62
2027.221	598.62
2031.36	592.62
2035.495	592.62
2039.627	581.62
2043.754	580.62
2047.878	595.62
2051.998	592.62
2056.114	587.62
2060.226	591.62
2064.334	589.62
2068.439	598.62
2072.54	590.62
2076.637	591.62
2080.73	599.62
2084.82	596.62
2088.906	602.62
2092.988	598.62
2097.066	597.62
2101.14	602.62
2105.211	592.62
2109.278	598.62
2113.342	580.62
2117.401	582.62
2121.457	573.62
2125.509	584.62
2129.558	572.62
2133.602	581.62
2137.643	566.62
2141.681	561.62
2145.714	567.62
2149.744	570.62
2153.77	555.62
2157.793	557.62
2161.812	550.62
2165.827	548.62
2169.838	540.62
2173.846	527.62
2177.851	519.62
2181.851	516.62
2185.848	512.62
2189.841	503.62
2193.831	498.62
2197.817	500.62
2201.799	494.62
2205.778	491.62
2209.753	489.62
2213.725	495.62
2217.693	498.62
2221.657	491.62
2225.618	492.62
2229.575	489.62
2233.529	480.62
2237.479	481.62
2241.425	470.62
2245.368	462.62
2249.307	460.62
2253.243	455.62
2257.175	443.62
2261.104	439.62
2265.029	436.62
2268.95	432.62
2272.868	418.62
2276.783	430.62
2280.694	416.62
2284.601	406.62
2288.505	411.62
2292.405	401.62
2296.302	391.62
2300.195	395.62
2304.085	398.62
2307.971	379.62
2311.854	372.62
2315.734	370.62
2319.609	355.62
2323.482	349.62
2327.351	357.62
2331.216	351.62
2335.078	343.62
2338.937	344.62
2342.792	342.62
2346.643	343.62
2350.492	337.62
2354.336	335.62
2358.178	338.62
2362.015	338.62
2365.85	339.62
2369.681	342.62
2373.508	338.62
2377.333	344.62
2381.153	333.62
2384.971	332.62
2388.785	337.62
2392.595	333.62
2396.402	331.62
2400.206	331.62
2404.007	328.62
2407.804	336.62
2411.597	323.62
2415.388	327.62
2419.174	331.62
2422.958	325.62
2426.738	318.62
2430.515	325.62
2434.289	319.62
2438.059	317.62
2441.825	324.62
2445.589	305.62
2449.349	313.62
2453.106	312.62
2456.859	292.62
2460.61	302.62
2464.356	303.62
2468.1	299.62
2471.84	296.62
2475.577	307.62
2479.311	297.62
2483.041	300.62
2486.768	298.62
2490.492	299.62
2494.213	289.62
2497.93	293.62
2501.644	289.62
2505.355	286.62
2509.062	296.62
2512.766	289.62
2516.467	295.62
2520.165	292.62
2523.859	285.62
2527.551	289.62
2531.239	281.62
2534.923	276.62
2538.605	273.62
2542.283	276.62
2545.958	276.62
2549.63	275.62
2553.299	260.62
2556.964	264.62
2560.626	260.62
2564.285	258.62
2567.941	259.62
2571.594	259.62
2575.243	264.62
2578.89	259.62
2582.533	256.62
2586.173	248.62
2589.809	255.62
2593.443	242.62
2597.073	246.62
2600.701	242.62
2604.325	232.62
2607.946	249.62
2611.564	244.62
2615.178	236.62
2618.79	243.62
2622.398	233.62
2626.004	236.62
2629.606	230.62
2633.205	232.62
2636.801	225.62
2640.394	218.62
2643.983	219.62
2647.57	223.62
2651.153	229.62
2654.734	218.62
2658.311	214.62
2661.885	216.62
2665.456	210.62
2669.025	216.62
2672.589	210.62
2676.151	205.62
2679.71	203.62
2683.266	201.62
2686.819	201.62
2690.368	194.62
2693.915	201.62
2697.458	193.62
2700.999	200.62
2704.536	194.62
2708.071	198.62
2711.602	191.62
2715.13	186.62
2718.656	191.62
2722.178	183.62
2725.697	191.62
2729.214	183.62
2732.727	190.62
2736.237	183.62
2739.744	185.62
2743.249	187.62
2746.75	184.62
2750.248	189.62
2753.743	193.62
2757.236	180.62
2760.725	185.62
2764.211	185.62
2767.695	189.62
2771.175	182.62
2774.652	184.62
2778.127	185.62
2781.598	176.62
2785.067	175.62
2788.532	176.62
2791.995	173.62
2795.455	184.62
2798.911	178.62
2802.365	175.62
2805.816	178.62
2809.264	180.62
2812.709	178.62
2816.151	183.62
2819.59	188.62
2823.026	179.62
2826.46	192.62
2829.89	193.62
2833.318	189.62
2836.742	192.62
2840.164	183.62
2843.583	190.62
2846.999	191.62
2850.412	196.62
2853.822	194.62
2857.229	196.62
2860.634	202.62
2864.035	202.62
2867.434	207.62
2870.83	213.62
2874.223	213.62
2877.613	212.62
2881	220.62
2884.385	208.62
2887.766	211.62
2891.145	222.62
2894.521	215.62
2897.894	221.62
2901.264	218.62
2904.631	218.62
2907.996	219.62
2911.358	228.62
2914.717	231.62
2918.073	233.62
2921.426	232.62
2924.777	238.62
2928.124	239.62
2931.469	251.62
2934.811	253.62
2938.15	256.62
2941.487	253.62
2944.821	265.62
2948.152	271.62
2951.48	268.62
2954.805	275.62
2958.128	280.62
2961.447	284.62
2964.765	297.62
2968.079	299.62
2971.39	301.62
2974.699	302.62
2978.005	313.62
2981.308	324.62
2984.609	340.62
2987.907	340.62
2991.202	347.62
2994.494	358.62
2997.784	376.62
3001.07	383.62
3004.355	383.62
3007.636	390.62
3010.915	409.62
3014.191	417.62
3017.464	430.62
3020.734	429.62
3024.002	440.62
3027.267	446.62
3030.53	451.62
3033.789	468.62
3037.046	470.62
3040.301	490.62
3043.552	512.62
3046.801	507.62
3050.048	529.62
3053.291	538.62
3056.532	556.62
3059.771	573.62
3063.006	593.62
3066.239	600.62
3069.469	635.62
3072.697	647.62
3075.922	670.62
3079.144	689.62
3082.364	687.62
3085.581	716.62
3088.795	736.62
3092.007	748.62
3095.216	765.62
3098.423	792.62
3101.627	797.62
3104.828	818.62
3108.026	835.62
3111.222	857.62
3114.416	877.62
3117.607	897.62
3120.795	927.62
3123.98	933.62
3127.163	950.62
3130.344	972.62
3133.521	1003.62
3136.696	1027.62
3139.869	1042.62
3143.039	1065.62
3146.206	1079.62
3149.371	1081.62
3152.533	1096.62
3155.693	1108.62
3158.85	1118.62
3162.005	1104.62
3165.157	1117.62
3168.306	1138.62
3171.453	1124.62
3174.597	1133.62
3177.739	1145.62
3180.878	1138.62
3184.014	1146.62
3187.149	1152.62
3190.28	1148.62
3193.409	1163.62
3196.536	1163.62
3199.659	1163.62
3202.781	1161.62
3205.9	1171.62
3209.016	1177.62
3212.13	1178.62
3215.241	1156.62
3218.35	1152.62
3221.456	1145.62
3224.56	1119.62
3227.661	1110.62
3230.76	1099.62
3233.856	1095.62
3236.95	1090.62
3240.041	1094.62
3243.13	1069.62
3246.216	1066.62
3249.3	1053.62
3252.382	1052.62
3255.46	1053.62
3258.537	1044.62
3261.611	1046.62
3264.682	1035.62
3267.751	1029.62
3270.818	1026.62
3273.882	1022.62
3276.943	1011.62
3280.002	1020.62
3283.059	1003.62
3286.113	983.62
3289.165	970.62
3292.214	950.62
3295.261	948.62
3298.306	931.62
3301.348	914.62
3304.387	909.62
3307.425	886.62
3310.459	880.62
3313.492	868.62
3316.521	851.62
3319.549	843.62
3322.574	846.62
3325.597	825.62
3328.617	834.62
3331.635	817.62
3334.65	824.62
3337.663	821.62
3340.674	808.62
3343.682	800.62
3346.688	806.62
3349.691	801.62
3352.692	789.62
3355.691	775.62
3358.687	781.62
3361.681	766.62
3364.673	762.62
3367.662	746.62
3370.649	749.62
3373.633	733.62
3376.615	723.62
3379.595	715.62
3382.572	706.62
3385.547	693.62
3388.52	681.62
3391.49	671.62
3394.458	677.62
3397.424	648.62
3400.387	648.62
3403.348	638.62
3406.307	633.62
3409.263	636.62
3412.217	626.62
3415.168	612.62
3418.118	615.62
3421.065	606.62
3424.009	587.62
3426.951	588.62
3429.891	556.62
3432.829	558.62
3435.764	553.62
3438.697	538.62
3441.628	518.62
3444.557	507.62
3447.483	506.62
3450.407	483.62
3453.328	477.62
3456.247	458.62
3459.164	460.62
3462.079	435.62
3464.991	424.62
3467.902	403.62
3470.809	399.62
3473.715	376.62
3476.618	372.62
3479.519	359.62
3482.418	345.62
3485.315	338.62
3488.209	322.62
3491.101	317.62
3493.99	303.62
3496.878	297.62
3499.763	285.62
3502.646	271.62
3505.527	273.62
3508.405	255.62
3511.281	247.62
3514.155	239.62
3517.027	226.62
3519.897	208.62
3522.764	203.62
3525.629	193.62
3528.492	173.62
3531.352	159.62
3534.211	152.62
3537.067	150.62
3539.921	139.62
3542.773	130.62
3545.622	118.62
3548.469	118.62
3551.315	105.62
3554.157	104.62
3556.998	94.62
3559.837	84.62
3562.673	87.62
3565.507	65.62
3568.339	65.62
3571.169	56.62
3573.996	58.62
3576.822	54.62
3579.645	43.62
3582.466	40.62
3585.285	41.62
3588.101	32.62
3590.916	27.62
3593.728	24.62
3596.538	13.62
3599.346	11.62
3602.152	4.62
3604.956	0.62
3607.757	-3.38
3610.556	-2.38
3613.354	-7.38
3616.149	-8.38
3618.942	-14.38
3621.732	-13.38
3624.521	-19.38
3627.307	-20.38
3630.092	-24.38
3632.874	-28.38
3635.654	-31.38
3638.432	-39.38
3641.208	-34.38
3643.982	-37.38
3646.753	-46.38
3649.523	-43.38
3652.29	-47.38
3655.055	-48.38
3657.818	-50.38
3660.579	-54.38
3663.338	-58.38
3666.095	-58.38
3668.849	-63.38
3671.602	-63.38
3674.352	-66.38
3677.101	-67.38
3679.847	-69.38
3682.591	-68.38
3685.333	-71.38
3688.073	-73.38
3690.811	-76.38
3693.547	-75.38
3696.281	-83.38
3699.013	-83.38
3701.742	-83.38
3704.47	-80.38
3707.195	-86.38
3709.919	-84.38
3712.64	-83.38
3715.359	-83.38
3718.076	-85.38
3720.792	-84.38
3723.505	-88.38
3726.216	-89.38
3728.925	-89.38
3731.632	-92.38
3734.336	-95.38
3737.039	-98.38
3739.74	-94.38
3742.439	-95.38
3745.136	-94.38
3747.83	-92.38
3750.523	-92.38
3753.213	-87.38
3755.902	-90.38
3758.589	-90.38
3761.273	-94.38
3763.956	-100.38
3766.636	-99.38
3769.315	-98.38
3771.991	-99.38
3774.665	-97.38
3777.338	-101.38
3780.008	-101.38
3782.677	-98.38
3785.343	-98.38
3788.007	-101.38
3790.67	-98.38
3793.33	-100.38
3795.989	-104.38
3798.645	-102.38
3801.299	-100.38
3803.952	-102.38
3806.602	-100.38
3809.251	-102.38
3811.897	-100.38
3814.542	-103.38
3817.184	-99.38
3819.825	-98.38
3822.463	-103.38
3825.1	-104.38
3827.735	-104.38
3830.367	-108.38
3832.998	-109.38
3835.627	-107.38
3838.253	-106.38
3840.878	-109.38
3843.501	-107.38
3846.122	-105.38
3848.741	-104.38
3851.358	-105.38
3853.973	-98.38
3856.586	-105.38
3859.197	-110.38
3861.806	-110.38
3864.414	-108.38
3867.019	-110.38
3869.622	-110.38
3872.224	-108.38
3874.823	-108.38
3877.421	-100.38
3880.016	-104.38
3882.61	-93.38
3885.202	-96.38
3887.792	-99.38
3890.38	-101.38
3892.966	-103.38
3895.55	-108.38
3898.132	-112.38
3900.713	-112.38
3903.291	-106.38
3905.868	-107.38
3908.442	-109.38
3911.015	-108.38
3913.586	-110.38
3916.155	-107.38
3918.722	-111.38
3921.287	-116.38
3923.85	-113.38
3926.411	-107.38
3928.971	-113.38
3931.528	-112.38
3934.084	-113.38
3936.638	-110.38
3939.19	-109.38
3941.74	-105.38
3944.288	-110.38
3946.834	-110.38
3949.378	-113.38
3951.921	-114.38
3954.462	-112.38
3957	-116.38
3959.537	-114.38
3962.072	-114.38
3964.606	-110.38
3967.137	-107.38
3969.667	-109.38
3972.194	-108.38
3974.72	-109.38
3977.244	-110.38
3979.766	-110.38
3982.286	-106.38
3984.805	-112.38
3987.321	-113.38
3989.836	-112.38
3992.349	-111.38
3994.86	-111.38
3997.369	-115.38
3999.877	-109.38
4002.382	-105.38
4004.886	-108.38
4007.388	-110.38
4009.888	-109.38
4012.386	-107.38
4014.883	-108.38
4017.377	-107.38
4019.87	-109.38
4022.361	-110.38
4024.85	-110.38
4027.338	-110.38
4029.823	-110.38
4032.307	-114.38
4034.789	-114.38
4037.269	-112.38
4039.747	-111.38
4042.224	-107.38
4044.699	-110.38
4047.172	-112.38
4049.643	-109.38
4052.112	-107.38
4054.58	-113.38
4057.046	-112.38
4059.51	-110.38
4061.972	-110.38
4064.432	-110.38
4066.891	-112.38
4069.348	-110.38
4071.803	-109.38
4074.256	-111.38
4076.708	-110.38
4079.158	-113.38
4081.606	-112.38
4084.052	-111.38
4086.497	-110.38
4088.939	-109.38
4091.38	-112.38
4093.819	-107.38
4096.257	-113.38
4098.693	-116.38
4101.127	-117.38
4103.559	-114.38
4105.989	-73.38
4108.418	-73.38
4110.845	-68.38
4113.27	-65.38
4115.694	-57.38
4118.115	-52.38
4120.535	-110.38
4122.954	-109.38
4125.37	-110.38
4127.785	-108.38
4130.198	-111.38
4132.609	-108.38
4135.019	-116.38
4137.427	-117.38
4139.833	-123.38
4142.237	-118.38
