Data from 10CFU2_A_RamanShift_1.txt Node
Date: Thu Jan 26 10:48:33 IST 2017
User: aro
Spectrometer: QEPB0276
Trigger mode: 0
Integration Time (sec): 5.000000E0
Scans to average: 1
Electric dark correction enabled: true
Nonlinearity correction enabled: false
Boxcar width: 0
XAxis mode: Raman Shifts
Number of Pixels in Spectrum: 1044
>>>>>Begin Spectral Data<<<<<
160.701	-32.38
166.742	-2.38
172.777	98.62
178.805	401.62
184.826	1109.62
190.841	2257.62
196.849	3433.62
202.85	4185.62
208.845	4300.62
214.833	4150.62
220.815	4015.62
226.789	3901.62
232.758	3805.62
238.719	3674.62
244.674	3532.62
250.623	3380.62
256.565	3209.62
262.5	3034.62
268.429	2912.62
274.351	2800.62
280.267	2717.62
286.176	2613.62
292.079	2507.62
297.975	2438.62
303.865	2366.62
309.748	2298.62
315.625	2251.62
321.495	2206.62
327.359	2175.62
333.217	2149.62
339.068	2125.62
344.912	2102.62
350.751	2107.62
356.583	2109.62
362.408	2089.62
368.227	2109.62
374.04	2100.62
379.847	2104.62
385.647	2133.62
391.44	2135.62
397.228	2140.62
403.009	2149.62
408.784	2175.62
414.553	2169.62
420.315	2185.62
426.071	2174.62
431.821	2171.62
437.565	2159.62
443.302	2168.62
449.033	2158.62
454.758	2147.62
460.477	2137.62
466.189	2127.62
471.896	2133.62
477.596	2120.62
483.29	2095.62
488.978	2079.62
494.66	2089.62
500.335	2057.62
506.005	2009.62
511.668	1992.62
517.325	1952.62
522.977	1897.62
528.622	1909.62
534.261	1866.62
539.894	1849.62
545.521	1829.62
551.141	1814.62
556.756	1804.62
562.365	1776.62
567.968	1769.62
573.565	1766.62
579.155	1742.62
584.74	1748.62
590.319	1739.62
595.892	1709.62
601.459	1724.62
607.02	1696.62
612.575	1687.62
618.124	1668.62
623.667	1643.62
629.204	1633.62
634.735	1618.62
640.261	1611.62
645.781	1607.62
651.294	1590.62
656.802	1586.62
662.304	1573.62
667.8	1578.62
673.29	1573.62
678.775	1581.62
684.254	1560.62
689.726	1566.62
695.193	1547.62
700.655	1522.62
706.11	1505.62
711.56	1525.62
717.004	1488.62
722.442	1495.62
727.874	1475.62
733.301	1474.62
738.722	1472.62
744.137	1465.62
749.547	1449.62
754.951	1455.62
760.349	1457.62
765.741	1454.62
771.128	1448.62
776.509	1450.62
781.885	1450.62
787.254	1440.62
792.618	1441.62
797.977	1445.62
803.33	1415.62
808.677	1407.62
814.019	1401.62
819.355	1382.62
824.686	1361.62
830.011	1364.62
835.33	1341.62
840.644	1342.62
845.952	1337.62
851.255	1338.62
856.552	1330.62
861.844	1311.62
867.13	1323.62
872.41	1306.62
877.686	1291.62
882.955	1279.62
888.219	1249.62
893.478	1229.62
898.731	1209.62
903.979	1207.62
909.221	1185.62
914.458	1182.62
919.69	1161.62
924.916	1165.62
930.136	1162.62
935.351	1166.62
940.561	1157.62
945.766	1160.62
950.965	1154.62
956.158	1137.62
961.347	1122.62
966.529	1117.62
971.707	1101.62
976.879	1075.62
982.046	1076.62
987.208	1081.62
992.364	1064.62
997.515	1072.62
1002.66	1075.62
1007.801	1075.62
1012.936	1106.62
1018.066	1093.62
1023.19	1123.62
1028.309	1116.62
1033.423	1110.62
1038.532	1117.62
1043.636	1087.62
1048.734	1079.62
1053.827	1073.62
1058.915	1064.62
1063.998	1060.62
1069.075	1047.62
1074.147	1049.62
1079.214	1063.62
1084.276	1082.62
1089.333	1096.62
1094.385	1096.62
1099.431	1093.62
1104.472	1095.62
1109.509	1098.62
1114.54	1066.62
1119.565	1068.62
1124.586	1055.62
1129.602	1045.62
1134.613	1030.62
1139.618	1044.62
1144.619	1015.62
1149.614	1041.62
1154.604	1034.62
1159.589	1051.62
1164.57	1048.62
1169.545	1066.62
1174.515	1060.62
1179.48	1055.62
1184.44	1065.62
1189.395	1051.62
1194.345	1043.62
1199.29	1034.62
1204.23	1019.62
1209.165	1031.62
1214.095	1052.62
1219.021	1031.62
1223.941	1065.62
1228.856	1063.62
1233.766	1065.62
1238.672	1059.62
1243.572	1071.62
1248.467	1058.62
1253.358	1054.62
1258.244	1038.62
1263.124	1011.62
1268	997.62
1272.871	996.62
1277.737	1005.62
1282.599	994.62
1287.455	994.62
1292.306	1001.62
1297.153	1004.62
1301.995	1017.62
1306.832	1017.62
1311.664	1011.62
1316.491	1015.62
1321.314	1012.62
1326.132	1009.62
1330.945	1006.62
1335.753	1003.62
1340.556	964.62
1345.354	969.62
1350.148	957.62
1354.937	956.62
1359.722	936.62
1364.501	927.62
1369.276	931.62
1374.046	912.62
1378.811	931.62
1383.572	921.62
1388.327	927.62
1393.079	901.62
1397.825	912.62
1402.567	897.62
1407.304	896.62
1412.036	884.62
1416.764	890.62
1421.487	897.62
1426.205	889.62
1430.919	895.62
1435.628	927.62
1440.333	917.62
1445.032	922.62
1449.727	926.62
1454.418	923.62
1459.104	930.62
1463.785	929.62
1468.462	919.62
1473.134	917.62
1477.802	902.62
1482.465	901.62
1487.123	901.62
1491.777	896.62
1496.426	893.62
1501.071	915.62
1505.711	920.62
1510.347	934.62
1514.978	941.62
1519.604	941.62
1524.226	951.62
1528.844	949.62
1533.457	942.62
1538.065	948.62
1542.669	961.62
1547.269	940.62
1551.864	938.62
1556.454	956.62
1561.041	969.62
1565.622	975.62
1570.199	985.62
1574.772	1006.62
1579.34	1027.62
1583.904	1045.62
1588.464	1072.62
1593.019	1082.62
1597.569	1088.62
1602.115	1097.62
1606.657	1120.62
1611.195	1122.62
1615.728	1149.62
1620.256	1171.62
1624.78	1169.62
1629.3	1197.62
1633.816	1223.62
1638.327	1225.62
1642.834	1239.62
1647.336	1232.62
1651.834	1239.62
1656.328	1233.62
1660.817	1229.62
1665.302	1211.62
1669.783	1192.62
1674.259	1160.62
1678.732	1121.62
1683.199	1084.62
1687.663	1049.62
1692.122	1003.62
1696.577	963.62
1701.028	921.62
1705.474	888.62
1709.917	855.62
1714.355	847.62
1718.788	841.62
1723.218	817.62
1727.643	800.62
1732.064	776.62
1736.481	758.62
1740.893	734.62
1745.301	720.62
1749.705	693.62
1754.105	678.62
1758.501	666.62
1762.893	653.62
1767.28	650.62
1771.663	647.62
1776.042	645.62
1780.417	643.62
1784.787	637.62
1789.154	635.62
1793.516	640.62
1797.874	631.62
1802.228	627.62
1806.578	616.62
1810.924	600.62
1815.266	593.62
1819.603	586.62
1823.937	583.62
1828.266	585.62
1832.591	577.62
1836.913	562.62
1841.23	571.62
1845.543	565.62
1849.852	569.62
1854.156	575.62
1858.457	577.62
1862.754	573.62
1867.047	580.62
1871.335	580.62
1875.62	591.62
1879.9	581.62
1884.177	589.62
1888.449	581.62
1892.718	576.62
1896.982	571.62
1901.243	563.62
1905.499	569.62
1909.752	574.62
1914	553.62
1918.245	575.62
1922.485	570.62
1926.722	565.62
1930.954	578.62
1935.183	571.62
1939.408	580.62
1943.628	590.62
1947.845	583.62
1952.058	587.62
1956.267	569.62
1960.472	576.62
1964.673	558.62
1968.87	556.62
1973.063	554.62
1977.252	543.62
1981.438	546.62
1985.619	545.62
1989.797	547.62
1993.971	551.62
1998.14	551.62
2002.306	558.62
2006.469	547.62
2010.627	566.62
2014.781	557.62
2018.932	556.62
2023.078	557.62
2027.221	553.62
2031.36	556.62
2035.495	536.62
2039.627	545.62
2043.754	547.62
2047.878	543.62
2051.998	540.62
2056.114	550.62
2060.226	549.62
2064.334	547.62
2068.439	549.62
2072.54	557.62
2076.637	562.62
2080.73	562.62
2084.82	556.62
2088.906	555.62
2092.988	571.62
2097.066	563.62
2101.14	551.62
2105.211	557.62
2109.278	550.62
2113.342	541.62
2117.401	539.62
2121.457	535.62
2125.509	535.62
2129.558	532.62
2133.602	534.62
2137.643	543.62
2141.681	534.62
2145.714	521.62
2149.744	539.62
2153.77	519.62
2157.793	514.62
2161.812	513.62
2165.827	496.62
2169.838	499.62
2173.846	491.62
2177.851	481.62
2181.851	479.62
2185.848	473.62
2189.841	457.62
2193.831	456.62
2197.817	455.62
2201.799	460.62
2205.778	455.62
2209.753	452.62
2213.725	455.62
2217.693	456.62
2221.657	454.62
2225.618	456.62
2229.575	454.62
2233.529	447.62
2237.479	452.62
2241.425	434.62
2245.368	437.62
2249.307	421.62
2253.243	416.62
2257.175	412.62
2261.104	418.62
2265.029	404.62
2268.95	404.62
2272.868	395.62
2276.783	389.62
2280.694	384.62
2284.601	378.62
2288.505	376.62
2292.405	365.62
2296.302	355.62
2300.195	359.62
2304.085	353.62
2307.971	338.62
2311.854	335.62
2315.734	333.62
2319.609	329.62
2323.482	329.62
2327.351	320.62
2331.216	316.62
2335.078	321.62
2338.937	316.62
2342.792	323.62
2346.643	322.62
2350.492	315.62
2354.336	306.62
2358.178	308.62
2362.015	324.62
2365.85	310.62
2369.681	309.62
2373.508	312.62
2377.333	306.62
2381.153	311.62
2384.971	309.62
2388.785	313.62
2392.595	302.62
2396.402	299.62
2400.206	303.62
2404.007	294.62
2407.804	308.62
2411.597	299.62
2415.388	312.62
2419.174	295.62
2422.958	293.62
2426.738	290.62
2430.515	302.62
2434.289	296.62
2438.059	296.62
2441.825	291.62
2445.589	284.62
2449.349	284.62
2453.106	284.62
2456.859	275.62
2460.61	279.62
2464.356	280.62
2468.1	279.62
2471.84	268.62
2475.577	272.62
2479.311	269.62
2483.041	276.62
2486.768	270.62
2490.492	268.62
2494.213	265.62
2497.93	272.62
2501.644	262.62
2505.355	262.62
2509.062	268.62
2512.766	274.62
2516.467	262.62
2520.165	261.62
2523.859	259.62
2527.551	261.62
2531.239	257.62
2534.923	253.62
2538.605	258.62
2542.283	249.62
2545.958	241.62
2549.63	253.62
2553.299	236.62
2556.964	235.62
2560.626	234.62
2564.285	238.62
2567.941	239.62
2571.594	237.62
2575.243	237.62
2578.89	240.62
2582.533	227.62
2586.173	228.62
2589.809	231.62
2593.443	228.62
2597.073	223.62
2600.701	221.62
2604.325	221.62
2607.946	220.62
2611.564	223.62
2615.178	219.62
2618.79	218.62
2622.398	215.62
2626.004	221.62
2629.606	208.62
2633.205	207.62
2636.801	209.62
2640.394	214.62
2643.983	197.62
2647.57	204.62
2651.153	199.62
2654.734	198.62
2658.311	194.62
2661.885	193.62
2665.456	187.62
2669.025	198.62
2672.589	182.62
2676.151	184.62
2679.71	186.62
2683.266	181.62
2686.819	177.62
2690.368	181.62
2693.915	179.62
2697.458	179.62
2700.999	178.62
2704.536	178.62
2708.071	173.62
2711.602	174.62
2715.13	176.62
2718.656	167.62
2722.178	171.62
2725.697	168.62
2729.214	169.62
2732.727	176.62
2736.237	170.62
2739.744	162.62
2743.249	180.62
2746.75	172.62
2750.248	180.62
2753.743	163.62
2757.236	171.62
2760.725	161.62
2764.211	166.62
2767.695	166.62
2771.175	161.62
2774.652	165.62
2778.127	161.62
2781.598	162.62
2785.067	155.62
2788.532	164.62
2791.995	161.62
2795.455	174.62
2798.911	171.62
2802.365	163.62
2805.816	169.62
2809.264	168.62
2812.709	173.62
2816.151	166.62
2819.59	163.62
2823.026	166.62
2826.46	171.62
2829.89	168.62
2833.318	172.62
2836.742	178.62
2840.164	180.62
2843.583	171.62
2846.999	176.62
2850.412	179.62
2853.822	186.62
2857.229	193.62
2860.634	183.62
2864.035	184.62
2867.434	193.62
2870.83	206.62
2874.223	194.62
2877.613	197.62
2881	199.62
2884.385	199.62
2887.766	202.62
2891.145	203.62
2894.521	199.62
2897.894	206.62
2901.264	199.62
2904.631	210.62
2907.996	206.62
2911.358	221.62
2914.717	221.62
2918.073	225.62
2921.426	225.62
2924.777	229.62
2928.124	236.62
2931.469	245.62
2934.811	239.62
2938.15	249.62
2941.487	252.62
2944.821	255.62
2948.152	251.62
2951.48	262.62
2954.805	271.62
2958.128	275.62
2961.447	273.62
2964.765	292.62
2968.079	289.62
2971.39	292.62
2974.699	309.62
2978.005	303.62
2981.308	320.62
2984.609	330.62
2987.907	336.62
2991.202	343.62
2994.494	352.62
2997.784	365.62
3001.07	373.62
3004.355	378.62
3007.636	394.62
3010.915	399.62
3014.191	420.62
3017.464	422.62
3020.734	428.62
3024.002	439.62
3027.267	438.62
3030.53	452.62
3033.789	455.62
3037.046	458.62
3040.301	481.62
3043.552	492.62
3046.801	502.62
3050.048	514.62
3053.291	535.62
3056.532	561.62
3059.771	570.62
3063.006	583.62
3066.239	605.62
3069.469	618.62
3072.697	637.62
3075.922	665.62
3079.144	677.62
3082.364	697.62
3085.581	699.62
3088.795	734.62
3092.007	745.62
3095.216	750.62
3098.423	784.62
3101.627	791.62
3104.828	811.62
3108.026	817.62
3111.222	839.62
3114.416	875.62
3117.607	868.62
3120.795	909.62
3123.98	923.62
3127.163	953.62
3130.344	959.62
3133.521	1000.62
3136.696	1015.62
3139.869	1041.62
3143.039	1055.62
3146.206	1073.62
3149.371	1091.62
3152.533	1103.62
3155.693	1102.62
3158.85	1101.62
3162.005	1112.62
3165.157	1112.62
3168.306	1110.62
3171.453	1129.62
3174.597	1141.62
3177.739	1142.62
3180.878	1136.62
3184.014	1164.62
3187.149	1160.62
3190.28	1151.62
3193.409	1146.62
3196.536	1165.62
3199.659	1163.62
3202.781	1161.62
3205.9	1169.62
3209.016	1169.62
3212.13	1165.62
3215.241	1176.62
3218.35	1150.62
3221.456	1145.62
3224.56	1133.62
3227.661	1123.62
3230.76	1115.62
3233.856	1085.62
3236.95	1093.62
3240.041	1081.62
3243.13	1070.62
3246.216	1056.62
3249.3	1063.62
3252.382	1043.62
3255.46	1041.62
3258.537	1033.62
3261.611	1032.62
3264.682	1035.62
3267.751	1019.62
3270.818	1024.62
3273.882	1012.62
3276.943	1000.62
3280.002	1010.62
3283.059	987.62
3286.113	989.62
3289.165	977.62
3292.214	948.62
3295.261	946.62
3298.306	932.62
3301.348	912.62
3304.387	902.62
3307.425	890.62
3310.459	871.62
3313.492	872.62
3316.521	844.62
3319.549	840.62
3322.574	845.62
3325.597	846.62
3328.617	845.62
3331.635	835.62
3334.65	828.62
3337.663	815.62
3340.674	818.62
3343.682	817.62
3346.688	810.62
3349.691	799.62
3352.692	797.62
3355.691	789.62
3358.687	780.62
3361.681	775.62
3364.673	757.62
3367.662	758.62
3370.649	753.62
3373.633	744.62
3376.615	726.62
3379.595	720.62
3382.572	713.62
3385.547	700.62
3388.52	696.62
3391.49	685.62
3394.458	669.62
3397.424	662.62
3400.387	658.62
3403.348	644.62
3406.307	644.62
3409.263	638.62
3412.217	615.62
3415.168	620.62
3418.118	612.62
3421.065	615.62
3424.009	600.62
3426.951	585.62
3429.891	573.62
3432.829	566.62
3435.764	556.62
3438.697	534.62
3441.628	537.62
3444.557	528.62
3447.483	506.62
3450.407	487.62
3453.328	471.62
3456.247	448.62
3459.164	443.62
3462.079	426.62
3464.991	419.62
3467.902	410.62
3470.809	402.62
3473.715	382.62
3476.618	369.62
3479.519	364.62
3482.418	354.62
3485.315	339.62
3488.209	333.62
3491.101	325.62
3493.99	317.62
3496.878	308.62
3499.763	286.62
3502.646	276.62
3505.527	269.62
3508.405	254.62
3511.281	244.62
3514.155	243.62
3517.027	228.62
3519.897	216.62
3522.764	203.62
3525.629	191.62
3528.492	185.62
3531.352	170.62
3534.211	154.62
3537.067	155.62
3539.921	144.62
3542.773	136.62
3545.622	126.62
3548.469	114.62
3551.315	107.62
3554.157	100.62
3556.998	93.62
3559.837	96.62
3562.673	79.62
3565.507	67.62
3568.339	72.62
3571.169	59.62
3573.996	61.62
3576.822	54.62
3579.645	41.62
3582.466	44.62
3585.285	38.62
3588.101	30.62
3590.916	30.62
3593.728	26.62
3596.538	16.62
3599.346	8.62
3602.152	5.62
3604.956	0.62
3607.757	-0.38
3610.556	-4.38
3613.354	-11.38
3616.149	-17.38
3618.942	-13.38
3621.732	-15.38
3624.521	-23.38
3627.307	-25.38
3630.092	-22.38
3632.874	-26.38
3635.654	-34.38
3638.432	-32.38
3641.208	-34.38
3643.982	-34.38
3646.753	-36.38
3649.523	-42.38
3652.29	-45.38
3655.055	-44.38
3657.818	-46.38
3660.579	-52.38
3663.338	-58.38
3666.095	-57.38
3668.849	-62.38
3671.602	-63.38
3674.352	-67.38
3677.101	-67.38
3679.847	-64.38
3682.591	-70.38
3685.333	-70.38
3688.073	-72.38
3690.811	-72.38
3693.547	-75.38
3696.281	-78.38
3699.013	-78.38
3701.742	-79.38
3704.47	-82.38
3707.195	-79.38
3709.919	-81.38
3712.64	-85.38
3715.359	-83.38
3718.076	-87.38
3720.792	-83.38
3723.505	-85.38
3726.216	-89.38
3728.925	-85.38
3731.632	-88.38
3734.336	-95.38
3737.039	-91.38
3739.74	-91.38
3742.439	-93.38
3745.136	-94.38
3747.83	-96.38
3750.523	-92.38
3753.213	-92.38
3755.902	-92.38
3758.589	-91.38
3761.273	-94.38
3763.956	-98.38
3766.636	-100.38
3769.315	-97.38
3771.991	-96.38
3774.665	-96.38
3777.338	-97.38
3780.008	-99.38
3782.677	-98.38
3785.343	-99.38
3788.007	-99.38
3790.67	-101.38
3793.33	-102.38
3795.989	-103.38
3798.645	-102.38
3801.299	-101.38
3803.952	-100.38
3806.602	-102.38
3809.251	-97.38
3811.897	-104.38
3814.542	-103.38
3817.184	-99.38
3819.825	-99.38
3822.463	-103.38
3825.1	-105.38
3827.735	-105.38
3830.367	-106.38
3832.998	-106.38
3835.627	-108.38
3838.253	-107.38
3840.878	-108.38
3843.501	-104.38
3846.122	-103.38
3848.741	-104.38
3851.358	-105.38
3853.973	-98.38
3856.586	-104.38
3859.197	-109.38
3861.806	-111.38
3864.414	-109.38
3867.019	-108.38
3869.622	-107.38
3872.224	-109.38
3874.823	-104.38
3877.421	-100.38
3880.016	-106.38
3882.61	-98.38
3885.202	-93.38
3887.792	-97.38
3890.38	-102.38
3892.966	-103.38
3895.55	-107.38
3898.132	-111.38
3900.713	-108.38
3903.291	-106.38
3905.868	-109.38
3908.442	-110.38
3911.015	-108.38
3913.586	-111.38
3916.155	-109.38
3918.722	-109.38
3921.287	-112.38
3923.85	-112.38
3926.411	-106.38
3928.971	-113.38
3931.528	-108.38
3934.084	-110.38
3936.638	-108.38
3939.19	-104.38
3941.74	-104.38
3944.288	-109.38
3946.834	-110.38
3949.378	-109.38
3951.921	-113.38
3954.462	-109.38
3957	-115.38
3959.537	-115.38
3962.072	-112.38
3964.606	-112.38
3967.137	-107.38
3969.667	-109.38
3972.194	-104.38
3974.72	-107.38
3977.244	-108.38
3979.766	-106.38
3982.286	-105.38
3984.805	-112.38
3987.321	-110.38
3989.836	-111.38
3992.349	-109.38
3994.86	-108.38
3997.369	-114.38
3999.877	-109.38
4002.382	-108.38
4004.886	-108.38
4007.388	-112.38
4009.888	-110.38
4012.386	-109.38
4014.883	-108.38
4017.377	-106.38
4019.87	-108.38
4022.361	-109.38
4024.85	-108.38
4027.338	-111.38
4029.823	-113.38
4032.307	-115.38
4034.789	-114.38
4037.269	-113.38
4039.747	-109.38
4042.224	-106.38
4044.699	-107.38
4047.172	-108.38
4049.643	-106.38
4052.112	-107.38
4054.58	-108.38
4057.046	-113.38
4059.51	-107.38
4061.972	-107.38
4064.432	-111.38
4066.891	-111.38
4069.348	-107.38
4071.803	-108.38
4074.256	-111.38
4076.708	-112.38
4079.158	-110.38
4081.606	-109.38
4084.052	-112.38
4086.497	-109.38
4088.939	-109.38
4091.38	-111.38
4093.819	-113.38
4096.257	-116.38
4098.693	-116.38
4101.127	-117.38
4103.559	-112.38
4105.989	-72.38
4108.418	-69.38
4110.845	-68.38
4113.27	-63.38
4115.694	-57.38
4118.115	-52.38
4120.535	-109.38
4122.954	-109.38
4125.37	-108.38
4127.785	-109.38
4130.198	-108.38
4132.609	-107.38
4135.019	-115.38
4137.427	-118.38
4139.833	-118.38
4142.237	-113.38
