Data from 1CFU2_B_RamanShift_1.txt Node
Date: Thu Jan 26 11:20:03 IST 2017
User: aro
Spectrometer: QEPB0276
Trigger mode: 0
Integration Time (sec): 5.000000E0
Scans to average: 1
Electric dark correction enabled: true
Nonlinearity correction enabled: false
Boxcar width: 0
XAxis mode: Raman Shifts
Number of Pixels in Spectrum: 1044
>>>>>Begin Spectral Data<<<<<
160.701	-30
166.742	-3
172.777	97
178.805	417
184.826	1147
190.841	2329
196.849	3626
202.85	4433
208.845	4571
214.833	4435
220.815	4265
226.789	4148
232.758	4043
238.719	3896
244.674	3759
250.623	3580
256.565	3453
262.5	3282
268.429	3124
274.351	3023
280.267	2904
286.176	2815
292.079	2696
297.975	2602
303.865	2531
309.748	2483
315.625	2417
321.495	2361
327.359	2328
333.217	2309
339.068	2289
344.912	2278
350.751	2275
356.583	2256
362.408	2237
368.227	2274
374.04	2274
379.847	2251
385.647	2300
391.44	2290
397.228	2307
403.009	2311
408.784	2320
414.553	2337
420.315	2357
426.071	2340
431.821	2336
437.565	2339
443.302	2333
449.033	2326
454.758	2329
460.477	2311
466.189	2282
471.896	2291
477.596	2257
483.29	2236
488.978	2245
494.66	2231
500.335	2204
506.005	2154
511.668	2137
517.325	2093
522.977	2069
528.622	2028
534.261	2010
539.894	1972
545.521	1987
551.141	1950
556.756	1963
562.365	1921
567.968	1913
573.565	1908
579.155	1889
584.74	1890
590.319	1878
595.892	1872
601.459	1871
607.02	1835
612.575	1820
618.124	1801
623.667	1811
629.204	1769
634.735	1774
640.261	1737
645.781	1748
651.294	1719
656.802	1720
662.304	1710
667.8	1708
673.29	1698
678.775	1697
684.254	1688
689.726	1685
695.193	1669
700.655	1663
706.11	1645
711.56	1637
717.004	1627
722.442	1613
727.874	1594
733.301	1607
738.722	1588
744.137	1584
749.547	1587
754.951	1569
760.349	1569
765.741	1586
771.128	1561
776.509	1575
781.885	1563
787.254	1578
792.618	1564
797.977	1550
803.33	1538
808.677	1541
814.019	1515
819.355	1496
824.686	1481
830.011	1475
835.33	1480
840.644	1467
845.952	1445
851.255	1452
856.552	1450
861.844	1426
867.13	1420
872.41	1414
877.686	1401
882.955	1377
888.219	1368
893.478	1339
898.731	1318
903.979	1304
909.221	1286
914.458	1296
919.69	1261
924.916	1282
930.136	1287
935.351	1282
940.561	1273
945.766	1275
950.965	1269
956.158	1253
961.347	1229
966.529	1226
971.707	1203
976.879	1187
982.046	1178
987.208	1167
992.364	1190
997.515	1187
1002.66	1199
1007.801	1193
1012.936	1213
1018.066	1210
1023.19	1219
1028.309	1217
1033.423	1204
1038.532	1201
1043.636	1215
1048.734	1190
1053.827	1181
1058.915	1170
1063.998	1166
1069.075	1176
1074.147	1163
1079.214	1182
1084.276	1164
1089.333	1195
1094.385	1198
1099.431	1215
1104.472	1211
1109.509	1196
1114.54	1184
1119.565	1169
1124.586	1172
1129.602	1158
1134.613	1143
1139.618	1143
1144.619	1137
1149.614	1147
1154.604	1150
1159.589	1157
1164.57	1157
1169.545	1173
1174.515	1161
1179.48	1160
1184.44	1144
1189.395	1147
1194.345	1125
1199.29	1114
1204.23	1130
1209.165	1155
1214.095	1151
1219.021	1165
1223.941	1170
1228.856	1184
1233.766	1177
1238.672	1199
1243.572	1180
1248.467	1184
1253.358	1171
1258.244	1141
1263.124	1130
1268	1107
1272.871	1104
1277.737	1093
1282.599	1087
1287.455	1097
1292.306	1093
1297.153	1105
1301.995	1109
1306.832	1115
1311.664	1121
1316.491	1133
1321.314	1112
1326.132	1132
1330.945	1093
1335.753	1090
1340.556	1071
1345.354	1067
1350.148	1058
1354.937	1056
1359.722	1065
1364.501	1035
1369.276	1033
1374.046	1031
1378.811	1032
1383.572	1010
1388.327	1023
1393.079	1023
1397.825	1000
1402.567	997
1407.304	998
1412.036	982
1416.764	985
1421.487	999
1426.205	982
1430.919	998
1435.628	1025
1440.333	1022
1445.032	1034
1449.727	1041
1454.418	1022
1459.104	1033
1463.785	1033
1468.462	1021
1473.134	1006
1477.802	1012
1482.465	1005
1487.123	1005
1491.777	992
1496.426	1019
1501.071	1015
1505.711	1019
1510.347	1049
1514.978	1048
1519.604	1050
1524.226	1062
1528.844	1058
1533.457	1071
1538.065	1066
1542.669	1049
1547.269	1063
1551.864	1055
1556.454	1054
1561.041	1077
1565.622	1089
1570.199	1098
1574.772	1116
1579.34	1125
1583.904	1147
1588.464	1173
1593.019	1193
1597.569	1201
1602.115	1226
1606.657	1231
1611.195	1234
1615.728	1258
1620.256	1277
1624.78	1296
1629.3	1303
1633.816	1328
1638.327	1339
1642.834	1363
1647.336	1373
1651.834	1368
1656.328	1373
1660.817	1360
1665.302	1332
1669.783	1314
1674.259	1279
1678.732	1250
1683.199	1206
1687.663	1152
1692.122	1119
1696.577	1078
1701.028	1040
1705.474	987
1709.917	956
1714.355	960
1718.788	922
1723.218	913
1727.643	896
1732.064	871
1736.481	873
1740.893	839
1745.301	818
1749.705	791
1754.105	776
1758.501	750
1762.893	739
1767.28	728
1771.663	742
1776.042	736
1780.417	714
1784.787	723
1789.154	737
1793.516	729
1797.874	715
1802.228	723
1806.578	705
1810.924	694
1815.266	676
1819.603	673
1823.937	661
1828.266	662
1832.591	664
1836.913	645
1841.23	654
1845.543	659
1849.852	649
1854.156	659
1858.457	641
1862.754	657
1867.047	673
1871.335	676
1875.62	668
1879.9	661
1884.177	667
1888.449	657
1892.718	663
1896.982	668
1901.243	664
1905.499	663
1909.752	662
1914	662
1918.245	657
1922.485	663
1926.722	651
1930.954	668
1935.183	666
1939.408	656
1943.628	679
1947.845	671
1952.058	673
1956.267	670
1960.472	663
1964.673	655
1968.87	646
1973.063	621
1977.252	623
1981.438	629
1985.619	616
1989.797	646
1993.971	625
1998.14	628
2002.306	640
2006.469	639
2010.627	640
2014.781	642
2018.932	649
2023.078	643
2027.221	637
2031.36	640
2035.495	627
2039.627	620
2043.754	622
2047.878	631
2051.998	621
2056.114	623
2060.226	631
2064.334	629
2068.439	633
2072.54	643
2076.637	633
2080.73	639
2084.82	640
2088.906	637
2092.988	640
2097.066	635
2101.14	634
2105.211	632
2109.278	625
2113.342	612
2117.401	622
2121.457	616
2125.509	616
2129.558	610
2133.602	614
2137.643	609
2141.681	610
2145.714	608
2149.744	602
2153.77	599
2157.793	591
2161.812	580
2165.827	577
2169.838	565
2173.846	559
2177.851	558
2181.851	544
2185.848	541
2189.841	542
2193.831	531
2197.817	527
2201.799	529
2205.778	522
2209.753	523
2213.725	524
2217.693	524
2221.657	512
2225.618	506
2229.575	508
2233.529	503
2237.479	503
2241.425	497
2245.368	493
2249.307	494
2253.243	478
2257.175	469
2261.104	460
2265.029	455
2268.95	458
2272.868	442
2276.783	448
2280.694	440
2284.601	441
2288.505	428
2292.405	420
2296.302	417
2300.195	412
2304.085	408
2307.971	394
2311.854	388
2315.734	389
2319.609	378
2323.482	381
2327.351	372
2331.216	364
2335.078	365
2338.937	364
2342.792	356
2346.643	360
2350.492	359
2354.336	353
2358.178	364
2362.015	342
2365.85	359
2369.681	357
2373.508	371
2377.333	355
2381.153	357
2384.971	351
2388.785	358
2392.595	350
2396.402	357
2400.206	346
2404.007	353
2407.804	350
2411.597	343
2415.388	345
2419.174	352
2422.958	344
2426.738	343
2430.515	341
2434.289	338
2438.059	336
2441.825	338
2445.589	332
2449.349	328
2453.106	315
2456.859	328
2460.61	319
2464.356	322
2468.1	306
2471.84	314
2475.577	305
2479.311	304
2483.041	318
2486.768	314
2490.492	314
2494.213	309
2497.93	307
2501.644	311
2505.355	309
2509.062	320
2512.766	306
2516.467	306
2520.165	309
2523.859	308
2527.551	307
2531.239	303
2534.923	296
2538.605	297
2542.283	286
2545.958	287
2549.63	290
2553.299	288
2556.964	281
2560.626	278
2564.285	283
2567.941	277
2571.594	273
2575.243	279
2578.89	276
2582.533	276
2586.173	265
2589.809	263
2593.443	261
2597.073	252
2600.701	257
2604.325	263
2607.946	252
2611.564	262
2615.178	259
2618.79	251
2622.398	260
2626.004	250
2629.606	249
2633.205	247
2636.801	246
2640.394	237
2643.983	241
2647.57	237
2651.153	242
2654.734	238
2658.311	234
2661.885	231
2665.456	229
2669.025	222
2672.589	224
2676.151	221
2679.71	210
2683.266	219
2686.819	210
2690.368	220
2693.915	214
2697.458	208
2700.999	203
2704.536	208
2708.071	196
2711.602	203
2715.13	198
2718.656	199
2722.178	200
2725.697	195
2729.214	196
2732.727	207
2736.237	205
2739.744	209
2743.249	206
2746.75	199
2750.248	208
2753.743	203
2757.236	202
2760.725	199
2764.211	197
2767.695	191
2771.175	197
2774.652	187
2778.127	195
2781.598	183
2785.067	195
2788.532	188
2791.995	192
2795.455	192
2798.911	198
2802.365	200
2805.816	194
2809.264	206
2812.709	202
2816.151	197
2819.59	197
2823.026	200
2826.46	206
2829.89	204
2833.318	199
2836.742	202
2840.164	206
2843.583	204
2846.999	209
2850.412	213
2853.822	211
2857.229	216
2860.634	223
2864.035	220
2867.434	222
2870.83	216
2874.223	235
2877.613	230
2881	229
2884.385	232
2887.766	227
2891.145	227
2894.521	230
2897.894	232
2901.264	231
2904.631	234
2907.996	236
2911.358	245
2914.717	243
2918.073	249
2921.426	251
2924.777	260
2928.124	267
2931.469	267
2934.811	269
2938.15	278
2941.487	274
2944.821	283
2948.152	292
2951.48	307
2954.805	301
2958.128	311
2961.447	304
2964.765	320
2968.079	321
2971.39	325
2974.699	341
2978.005	334
2981.308	351
2984.609	357
2987.907	366
2991.202	372
2994.494	392
2997.784	395
3001.07	408
3004.355	427
3007.636	427
3010.915	436
3014.191	440
3017.464	455
3020.734	466
3024.002	464
3027.267	481
3030.53	480
3033.789	498
3037.046	500
3040.301	520
3043.552	526
3046.801	541
3050.048	574
3053.291	571
3056.532	581
3059.771	605
3063.006	632
3066.239	638
3069.469	663
3072.697	686
3075.922	710
3079.144	732
3082.364	744
3085.581	742
3088.795	766
3092.007	784
3095.216	794
3098.423	829
3101.627	835
3104.828	865
3108.026	874
3111.222	908
3114.416	929
3117.607	939
3120.795	969
3123.98	986
3127.163	1015
3130.344	1037
3133.521	1064
3136.696	1070
3139.869	1091
3143.039	1109
3146.206	1126
3149.371	1137
3152.533	1171
3155.693	1178
3158.85	1168
3162.005	1175
3165.157	1179
3168.306	1190
3171.453	1197
3174.597	1198
3177.739	1214
3180.878	1207
3184.014	1210
3187.149	1213
3190.28	1219
3193.409	1226
3196.536	1213
3199.659	1243
3202.781	1237
3205.9	1243
3209.016	1228
3212.13	1241
3215.241	1223
3218.35	1230
3221.456	1200
3224.56	1200
3227.661	1182
3230.76	1176
3233.856	1161
3236.95	1167
3240.041	1132
3243.13	1127
3246.216	1136
3249.3	1124
3252.382	1116
3255.46	1110
3258.537	1099
3261.611	1103
3264.682	1084
3267.751	1092
3270.818	1084
3273.882	1087
3276.943	1073
3280.002	1066
3283.059	1065
3286.113	1050
3289.165	1044
3292.214	1019
3295.261	997
3298.306	987
3301.348	981
3304.387	956
3307.425	938
3310.459	931
3313.492	924
3316.521	914
3319.549	913
3322.574	887
3325.597	890
3328.617	882
3331.635	873
3334.65	865
3337.663	873
3340.674	857
3343.682	876
3346.688	849
3349.691	847
3352.692	842
3355.691	848
3358.687	852
3361.681	819
3364.673	821
3367.662	793
3370.649	792
3373.633	781
3376.615	773
3379.595	762
3382.572	773
3385.547	742
3388.52	726
3391.49	736
3394.458	713
3397.424	702
3400.387	703
3403.348	687
3406.307	677
3409.263	693
3412.217	665
3415.168	669
3418.118	657
3421.065	652
3424.009	639
3426.951	623
3429.891	612
3432.829	613
3435.764	592
3438.697	582
3441.628	560
3444.557	556
3447.483	546
3450.407	523
3453.328	500
3456.247	497
3459.164	486
3462.079	474
3464.991	447
3467.902	433
3470.809	432
3473.715	411
3476.618	403
3479.519	394
3482.418	385
3485.315	362
3488.209	352
3491.101	343
3493.99	337
3496.878	331
3499.763	323
3502.646	302
3505.527	304
3508.405	292
3511.281	267
3514.155	261
3517.027	255
3519.897	234
3522.764	214
3525.629	209
3528.492	197
3531.352	186
3534.211	172
3537.067	156
3539.921	155
3542.773	145
3545.622	135
3548.469	132
3551.315	121
3554.157	112
3556.998	96
3559.837	100
3562.673	100
3565.507	81
3568.339	78
3571.169	72
3573.996	69
3576.822	63
3579.645	54
3582.466	54
3585.285	50
3588.101	40
3590.916	34
3593.728	30
3596.538	26
3599.346	16
3602.152	14
3604.956	10
3607.757	5
3610.556	8
3613.354	-2
3616.149	-11
3618.942	-11
3621.732	-14
3624.521	-20
3627.307	-23
3630.092	-24
3632.874	-27
3635.654	-25
3638.432	-34
3641.208	-31
3643.982	-31
3646.753	-39
3649.523	-42
3652.29	-47
3655.055	-44
3657.818	-47
3660.579	-49
3663.338	-52
3666.095	-57
3668.849	-62
3671.602	-63
3674.352	-64
3677.101	-69
3679.847	-66
3682.591	-67
3685.333	-70
3688.073	-72
3690.811	-74
3693.547	-73
3696.281	-74
3699.013	-81
3701.742	-86
3704.47	-81
3707.195	-84
3709.919	-86
3712.64	-86
3715.359	-89
3718.076	-92
3720.792	-87
3723.505	-90
3726.216	-95
3728.925	-91
3731.632	-94
3734.336	-99
3737.039	-95
3739.74	-97
3742.439	-97
3745.136	-95
3747.83	-95
3750.523	-98
3753.213	-93
3755.902	-93
3758.589	-92
3761.273	-97
3763.956	-98
3766.636	-97
3769.315	-100
3771.991	-101
3774.665	-101
3777.338	-105
3780.008	-104
3782.677	-102
3785.343	-100
3788.007	-104
3790.67	-104
3793.33	-105
3795.989	-107
3798.645	-108
3801.299	-105
3803.952	-108
3806.602	-106
3809.251	-104
3811.897	-107
3814.542	-113
3817.184	-105
3819.825	-103
3822.463	-104
3825.1	-105
3827.735	-107
3830.367	-107
3832.998	-108
3835.627	-110
3838.253	-107
3840.878	-111
3843.501	-110
3846.122	-110
3848.741	-109
3851.358	-109
3853.973	-109
3856.586	-112
3859.197	-113
3861.806	-113
3864.414	-114
3867.019	-117
3869.622	-115
3872.224	-113
3874.823	-110
3877.421	-104
3880.016	-108
3882.61	-100
3885.202	-100
3887.792	-103
3890.38	-109
3892.966	-108
3895.55	-112
3898.132	-115
3900.713	-113
3903.291	-109
3905.868	-111
3908.442	-112
3911.015	-112
3913.586	-114
3916.155	-109
3918.722	-110
3921.287	-117
3923.85	-114
3926.411	-111
3928.971	-115
3931.528	-116
3934.084	-116
3936.638	-117
3939.19	-113
3941.74	-110
3944.288	-117
3946.834	-115
3949.378	-116
3951.921	-117
3954.462	-113
3957	-119
3959.537	-121
3962.072	-119
3964.606	-117
3967.137	-116
3969.667	-117
3972.194	-109
3974.72	-112
3977.244	-111
3979.766	-112
3982.286	-110
3984.805	-115
3987.321	-113
3989.836	-113
3992.349	-117
3994.86	-109
3997.369	-115
3999.877	-112
4002.382	-112
4004.886	-115
4007.388	-116
4009.888	-116
4012.386	-113
4014.883	-114
4017.377	-116
4019.87	-113
4022.361	-118
4024.85	-116
4027.338	-116
4029.823	-116
4032.307	-120
4034.789	-118
4037.269	-118
4039.747	-117
4042.224	-111
4044.699	-115
4047.172	-116
4049.643	-114
4052.112	-112
4054.58	-116
4057.046	-116
4059.51	-112
4061.972	-116
4064.432	-114
4066.891	-112
4069.348	-110
4071.803	-111
4074.256	-110
4076.708	-110
4079.158	-113
4081.606	-116
4084.052	-115
4086.497	-114
4088.939	-115
4091.38	-116
4093.819	-118
4096.257	-118
4098.693	-118
4101.127	-118
4103.559	-117
4105.989	-74
4108.418	-67
4110.845	-67
4113.27	-64
4115.694	-65
4118.115	-52
4120.535	-117
4122.954	-113
4125.37	-115
4127.785	-115
4130.198	-116
4132.609	-112
4135.019	-119
4137.427	-121
4139.833	-122
4142.237	-119
