Data from 1CFU3_A_RamanShift_1.txt Node
Date: Thu Jan 26 10:44:03 IST 2017
User: aro
Spectrometer: QEPB0276
Trigger mode: 0
Integration Time (sec): 5.000000E0
Scans to average: 1
Electric dark correction enabled: true
Nonlinearity correction enabled: false
Boxcar width: 0
XAxis mode: Raman Shifts
Number of Pixels in Spectrum: 1044
>>>>>Begin Spectral Data<<<<<
160.701	-38.88
166.742	-1.88
172.777	103.12
178.805	433.12
184.826	1193.12
190.841	2392.12
196.849	3699.12
202.85	4470.12
208.845	4603.12
214.833	4452.12
220.815	4310.12
226.789	4218.12
232.758	4109.12
238.719	3990.12
244.674	3836.12
250.623	3686.12
256.565	3532.12
262.5	3365.12
268.429	3235.12
274.351	3105.12
280.267	2997.12
286.176	2915.12
292.079	2834.12
297.975	2755.12
303.865	2658.12
309.748	2605.12
315.625	2567.12
321.495	2479.12
327.359	2460.12
333.217	2447.12
339.068	2404.12
344.912	2412.12
350.751	2379.12
356.583	2380.12
362.408	2376.12
368.227	2399.12
374.04	2409.12
379.847	2405.12
385.647	2440.12
391.44	2442.12
397.228	2471.12
403.009	2466.12
408.784	2469.12
414.553	2483.12
420.315	2487.12
426.071	2477.12
431.821	2482.12
437.565	2468.12
443.302	2468.12
449.033	2465.12
454.758	2460.12
460.477	2473.12
466.189	2455.12
471.896	2431.12
477.596	2425.12
483.29	2419.12
488.978	2406.12
494.66	2399.12
500.335	2366.12
506.005	2322.12
511.668	2293.12
517.325	2260.12
522.977	2229.12
528.622	2200.12
534.261	2185.12
539.894	2143.12
545.521	2161.12
551.141	2146.12
556.756	2112.12
562.365	2113.12
567.968	2118.12
573.565	2099.12
579.155	2099.12
584.74	2064.12
590.319	2056.12
595.892	2051.12
601.459	2026.12
607.02	2031.12
612.575	1991.12
618.124	1983.12
623.667	1987.12
629.204	1976.12
634.735	1947.12
640.261	1936.12
645.781	1922.12
651.294	1909.12
656.802	1910.12
662.304	1900.12
667.8	1913.12
673.29	1899.12
678.775	1879.12
684.254	1859.12
689.726	1876.12
695.193	1859.12
700.655	1861.12
706.11	1833.12
711.56	1835.12
717.004	1814.12
722.442	1800.12
727.874	1807.12
733.301	1787.12
738.722	1777.12
744.137	1790.12
749.547	1778.12
754.951	1776.12
760.349	1789.12
765.741	1754.12
771.128	1770.12
776.509	1763.12
781.885	1791.12
787.254	1754.12
792.618	1770.12
797.977	1771.12
803.33	1738.12
808.677	1743.12
814.019	1731.12
819.355	1716.12
824.686	1683.12
830.011	1691.12
835.33	1659.12
840.644	1647.12
845.952	1660.12
851.255	1653.12
856.552	1657.12
861.844	1648.12
867.13	1635.12
872.41	1637.12
877.686	1621.12
882.955	1604.12
888.219	1569.12
893.478	1559.12
898.731	1540.12
903.979	1517.12
909.221	1518.12
914.458	1511.12
919.69	1486.12
924.916	1494.12
930.136	1506.12
935.351	1510.12
940.561	1512.12
945.766	1504.12
950.965	1480.12
956.158	1474.12
961.347	1449.12
966.529	1432.12
971.707	1425.12
976.879	1401.12
982.046	1399.12
987.208	1383.12
992.364	1403.12
997.515	1416.12
1002.66	1416.12
1007.801	1417.12
1012.936	1447.12
1018.066	1440.12
1023.19	1452.12
1028.309	1456.12
1033.423	1447.12
1038.532	1448.12
1043.636	1425.12
1048.734	1416.12
1053.827	1414.12
1058.915	1402.12
1063.998	1400.12
1069.075	1378.12
1074.147	1394.12
1079.214	1402.12
1084.276	1413.12
1089.333	1422.12
1094.385	1445.12
1099.431	1455.12
1104.472	1439.12
1109.509	1446.12
1114.54	1417.12
1119.565	1415.12
1124.586	1384.12
1129.602	1370.12
1134.613	1366.12
1139.618	1366.12
1144.619	1371.12
1149.614	1358.12
1154.604	1395.12
1159.589	1376.12
1164.57	1400.12
1169.545	1410.12
1174.515	1400.12
1179.48	1394.12
1184.44	1391.12
1189.395	1381.12
1194.345	1376.12
1199.29	1365.12
1204.23	1371.12
1209.165	1385.12
1214.095	1394.12
1219.021	1399.12
1223.941	1406.12
1228.856	1412.12
1233.766	1417.12
1238.672	1430.12
1243.572	1431.12
1248.467	1419.12
1253.358	1395.12
1258.244	1390.12
1263.124	1356.12
1268	1337.12
1272.871	1324.12
1277.737	1318.12
1282.599	1321.12
1287.455	1321.12
1292.306	1326.12
1297.153	1347.12
1301.995	1354.12
1306.832	1367.12
1311.664	1360.12
1316.491	1370.12
1321.314	1387.12
1326.132	1364.12
1330.945	1343.12
1335.753	1332.12
1340.556	1308.12
1345.354	1301.12
1350.148	1306.12
1354.937	1279.12
1359.722	1274.12
1364.501	1225.12
1369.276	1227.12
1374.046	1215.12
1378.811	1211.12
1383.572	1232.12
1388.327	1226.12
1393.079	1233.12
1397.825	1207.12
1402.567	1189.12
1407.304	1205.12
1412.036	1193.12
1416.764	1197.12
1421.487	1204.12
1426.205	1193.12
1430.919	1228.12
1435.628	1231.12
1440.333	1246.12
1445.032	1248.12
1449.727	1265.12
1454.418	1270.12
1459.104	1270.12
1463.785	1267.12
1468.462	1240.12
1473.134	1229.12
1477.802	1239.12
1482.465	1211.12
1487.123	1204.12
1491.777	1219.12
1496.426	1216.12
1501.071	1231.12
1505.711	1230.12
1510.347	1252.12
1514.978	1256.12
1519.604	1264.12
1524.226	1260.12
1528.844	1259.12
1533.457	1262.12
1538.065	1266.12
1542.669	1254.12
1547.269	1259.12
1551.864	1248.12
1556.454	1252.12
1561.041	1264.12
1565.622	1270.12
1570.199	1311.12
1574.772	1313.12
1579.34	1338.12
1583.904	1369.12
1588.464	1367.12
1593.019	1373.12
1597.569	1404.12
1602.115	1420.12
1606.657	1409.12
1611.195	1430.12
1615.728	1445.12
1620.256	1451.12
1624.78	1464.12
1629.3	1481.12
1633.816	1496.12
1638.327	1507.12
1642.834	1522.12
1647.336	1547.12
1651.834	1543.12
1656.328	1555.12
1660.817	1546.12
1665.302	1537.12
1669.783	1480.12
1674.259	1463.12
1678.732	1417.12
1683.199	1380.12
1687.663	1340.12
1692.122	1284.12
1696.577	1250.12
1701.028	1207.12
1705.474	1150.12
1709.917	1123.12
1714.355	1105.12
1718.788	1082.12
1723.218	1086.12
1727.643	1088.12
1732.064	1053.12
1736.481	1034.12
1740.893	999.12
1745.301	981.12
1749.705	962.12
1754.105	942.12
1758.501	918.12
1762.893	906.12
1767.28	914.12
1771.663	896.12
1776.042	896.12
1780.417	882.12
1784.787	901.12
1789.154	885.12
1793.516	896.12
1797.874	875.12
1802.228	876.12
1806.578	867.12
1810.924	834.12
1815.266	826.12
1819.603	827.12
1823.937	835.12
1828.266	819.12
1832.591	812.12
1836.913	803.12
1841.23	821.12
1845.543	816.12
1849.852	814.12
1854.156	820.12
1858.457	814.12
1862.754	823.12
1867.047	820.12
1871.335	835.12
1875.62	831.12
1879.9	832.12
1884.177	831.12
1888.449	840.12
1892.718	811.12
1896.982	832.12
1901.243	812.12
1905.499	811.12
1909.752	817.12
1914	815.12
1918.245	798.12
1922.485	811.12
1926.722	816.12
1930.954	819.12
1935.183	810.12
1939.408	825.12
1943.628	820.12
1947.845	808.12
1952.058	809.12
1956.267	807.12
1960.472	799.12
1964.673	795.12
1968.87	787.12
1973.063	767.12
1977.252	773.12
1981.438	764.12
1985.619	766.12
1989.797	764.12
1993.971	781.12
1998.14	777.12
2002.306	776.12
2006.469	789.12
2010.627	772.12
2014.781	798.12
2018.932	787.12
2023.078	783.12
2027.221	777.12
2031.36	754.12
2035.495	761.12
2039.627	760.12
2043.754	753.12
2047.878	748.12
2051.998	765.12
2056.114	748.12
2060.226	753.12
2064.334	754.12
2068.439	760.12
2072.54	762.12
2076.637	771.12
2080.73	774.12
2084.82	763.12
2088.906	766.12
2092.988	768.12
2097.066	764.12
2101.14	765.12
2105.211	759.12
2109.278	750.12
2113.342	729.12
2117.401	737.12
2121.457	730.12
2125.509	734.12
2129.558	737.12
2133.602	723.12
2137.643	736.12
2141.681	724.12
2145.714	721.12
2149.744	727.12
2153.77	719.12
2157.793	704.12
2161.812	703.12
2165.827	698.12
2169.838	685.12
2173.846	674.12
2177.851	668.12
2181.851	654.12
2185.848	654.12
2189.841	648.12
2193.831	632.12
2197.817	635.12
2201.799	632.12
2205.778	640.12
2209.753	645.12
2213.725	634.12
2217.693	639.12
2221.657	617.12
2225.618	632.12
2229.575	627.12
2233.529	622.12
2237.479	613.12
2241.425	612.12
2245.368	608.12
2249.307	601.12
2253.243	592.12
2257.175	581.12
2261.104	579.12
2265.029	570.12
2268.95	559.12
2272.868	552.12
2276.783	545.12
2280.694	547.12
2284.601	550.12
2288.505	538.12
2292.405	525.12
2296.302	532.12
2300.195	513.12
2304.085	506.12
2307.971	509.12
2311.854	498.12
2315.734	492.12
2319.609	470.12
2323.482	472.12
2327.351	455.12
2331.216	466.12
2335.078	460.12
2338.937	457.12
2342.792	462.12
2346.643	457.12
2350.492	459.12
2354.336	461.12
2358.178	459.12
2362.015	465.12
2365.85	452.12
2369.681	462.12
2373.508	461.12
2377.333	458.12
2381.153	462.12
2384.971	457.12
2388.785	454.12
2392.595	451.12
2396.402	449.12
2400.206	437.12
2404.007	446.12
2407.804	447.12
2411.597	440.12
2415.388	442.12
2419.174	439.12
2422.958	428.12
2426.738	432.12
2430.515	440.12
2434.289	438.12
2438.059	427.12
2441.825	425.12
2445.589	413.12
2449.349	412.12
2453.106	413.12
2456.859	413.12
2460.61	407.12
2464.356	412.12
2468.1	405.12
2471.84	402.12
2475.577	403.12
2479.311	406.12
2483.041	398.12
2486.768	393.12
2490.492	393.12
2494.213	404.12
2497.93	411.12
2501.644	395.12
2505.355	398.12
2509.062	392.12
2512.766	398.12
2516.467	394.12
2520.165	391.12
2523.859	392.12
2527.551	384.12
2531.239	378.12
2534.923	379.12
2538.605	375.12
2542.283	364.12
2545.958	368.12
2549.63	366.12
2553.299	366.12
2556.964	353.12
2560.626	362.12
2564.285	356.12
2567.941	356.12
2571.594	359.12
2575.243	348.12
2578.89	353.12
2582.533	349.12
2586.173	332.12
2589.809	349.12
2593.443	337.12
2597.073	335.12
2600.701	323.12
2604.325	332.12
2607.946	330.12
2611.564	332.12
2615.178	334.12
2618.79	323.12
2622.398	334.12
2626.004	323.12
2629.606	316.12
2633.205	316.12
2636.801	316.12
2640.394	319.12
2643.983	303.12
2647.57	302.12
2651.153	301.12
2654.734	300.12
2658.311	300.12
2661.885	293.12
2665.456	285.12
2669.025	285.12
2672.589	296.12
2676.151	290.12
2679.71	292.12
2683.266	288.12
2686.819	271.12
2690.368	286.12
2693.915	278.12
2697.458	268.12
2700.999	278.12
2704.536	276.12
2708.071	263.12
2711.602	266.12
2715.13	249.12
2718.656	263.12
2722.178	259.12
2725.697	260.12
2729.214	259.12
2732.727	262.12
2736.237	259.12
2739.744	266.12
2743.249	260.12
2746.75	264.12
2750.248	265.12
2753.743	260.12
2757.236	258.12
2760.725	253.12
2764.211	255.12
2767.695	248.12
2771.175	250.12
2774.652	239.12
2778.127	246.12
2781.598	240.12
2785.067	239.12
2788.532	245.12
2791.995	248.12
2795.455	250.12
2798.911	241.12
2802.365	249.12
2805.816	256.12
2809.264	245.12
2812.709	244.12
2816.151	240.12
2819.59	244.12
2823.026	242.12
2826.46	252.12
2829.89	250.12
2833.318	254.12
2836.742	250.12
2840.164	256.12
2843.583	252.12
2846.999	257.12
2850.412	252.12
2853.822	254.12
2857.229	249.12
2860.634	253.12
2864.035	255.12
2867.434	271.12
2870.83	270.12
2874.223	261.12
2877.613	275.12
2881	275.12
2884.385	271.12
2887.766	280.12
2891.145	272.12
2894.521	261.12
2897.894	276.12
2901.264	272.12
2904.631	273.12
2907.996	272.12
2911.358	280.12
2914.717	282.12
2918.073	283.12
2921.426	284.12
2924.777	290.12
2928.124	305.12
2931.469	295.12
2934.811	296.12
2938.15	320.12
2941.487	308.12
2944.821	315.12
2948.152	318.12
2951.48	310.12
2954.805	321.12
2958.128	327.12
2961.447	330.12
2964.765	329.12
2968.079	340.12
2971.39	347.12
2974.699	345.12
2978.005	361.12
2981.308	379.12
2984.609	379.12
2987.907	384.12
2991.202	391.12
2994.494	403.12
2997.784	413.12
3001.07	425.12
3004.355	427.12
3007.636	448.12
3010.915	446.12
3014.191	452.12
3017.464	470.12
3020.734	472.12
3024.002	475.12
3027.267	486.12
3030.53	493.12
3033.789	497.12
3037.046	514.12
3040.301	524.12
3043.552	533.12
3046.801	545.12
3050.048	559.12
3053.291	576.12
3056.532	586.12
3059.771	619.12
3063.006	636.12
3066.239	644.12
3069.469	661.12
3072.697	684.12
3075.922	692.12
3079.144	723.12
3082.364	728.12
3085.581	749.12
3088.795	772.12
3092.007	774.12
3095.216	798.12
3098.423	815.12
3101.627	827.12
3104.828	850.12
3108.026	870.12
3111.222	881.12
3114.416	912.12
3117.607	937.12
3120.795	949.12
3123.98	967.12
3127.163	986.12
3130.344	1010.12
3133.521	1046.12
3136.696	1051.12
3139.869	1082.12
3143.039	1099.12
3146.206	1105.12
3149.371	1114.12
3152.533	1118.12
3155.693	1121.12
3158.85	1132.12
3162.005	1141.12
3165.157	1153.12
3168.306	1158.12
3171.453	1152.12
3174.597	1175.12
3177.739	1165.12
3180.878	1157.12
3184.014	1167.12
3187.149	1175.12
3190.28	1159.12
3193.409	1177.12
3196.536	1191.12
3199.659	1185.12
3202.781	1208.12
3205.9	1203.12
3209.016	1195.12
3212.13	1207.12
3215.241	1180.12
3218.35	1182.12
3221.456	1164.12
3224.56	1156.12
3227.661	1132.12
3230.76	1132.12
3233.856	1121.12
3236.95	1109.12
3240.041	1097.12
3243.13	1086.12
3246.216	1075.12
3249.3	1077.12
3252.382	1063.12
3255.46	1069.12
3258.537	1068.12
3261.611	1060.12
3264.682	1060.12
3267.751	1037.12
3270.818	1046.12
3273.882	1036.12
3276.943	1020.12
3280.002	1021.12
3283.059	1013.12
3286.113	1003.12
3289.165	996.12
3292.214	967.12
3295.261	957.12
3298.306	941.12
3301.348	947.12
3304.387	928.12
3307.425	912.12
3310.459	884.12
3313.492	887.12
3316.521	868.12
3319.549	863.12
3322.574	861.12
3325.597	848.12
3328.617	845.12
3331.635	857.12
3334.65	835.12
3337.663	836.12
3340.674	833.12
3343.682	815.12
3346.688	814.12
3349.691	814.12
3352.692	805.12
3355.691	811.12
3358.687	789.12
3361.681	780.12
3364.673	778.12
3367.662	772.12
3370.649	760.12
3373.633	735.12
3376.615	743.12
3379.595	738.12
3382.572	721.12
3385.547	701.12
3388.52	701.12
3391.49	698.12
3394.458	689.12
3397.424	675.12
3400.387	656.12
3403.348	649.12
3406.307	640.12
3409.263	639.12
3412.217	639.12
3415.168	625.12
3418.118	622.12
3421.065	604.12
3424.009	607.12
3426.951	594.12
3429.891	575.12
3432.829	573.12
3435.764	562.12
3438.697	554.12
3441.628	538.12
3444.557	524.12
3447.483	505.12
3450.407	502.12
3453.328	483.12
3456.247	469.12
3459.164	446.12
3462.079	437.12
3464.991	428.12
3467.902	416.12
3470.809	408.12
3473.715	386.12
3476.618	373.12
3479.519	367.12
3482.418	357.12
3485.315	340.12
3488.209	336.12
3491.101	328.12
3493.99	313.12
3496.878	297.12
3499.763	290.12
3502.646	282.12
3505.527	277.12
3508.405	258.12
3511.281	254.12
3514.155	239.12
3517.027	224.12
3519.897	214.12
3522.764	200.12
3525.629	194.12
3528.492	188.12
3531.352	177.12
3534.211	161.12
3537.067	146.12
3539.921	147.12
3542.773	138.12
3545.622	131.12
3548.469	116.12
3551.315	111.12
3554.157	102.12
3556.998	89.12
3559.837	85.12
3562.673	91.12
3565.507	67.12
3568.339	70.12
3571.169	63.12
3573.996	58.12
3576.822	56.12
3579.645	48.12
3582.466	46.12
3585.285	38.12
3588.101	31.12
3590.916	27.12
3593.728	22.12
3596.538	14.12
3599.346	9.12
3602.152	0.12
3604.956	-7.88
3607.757	-5.88
3610.556	-0.88
3613.354	-8.88
3616.149	-10.88
3618.942	-13.88
3621.732	-17.88
3624.521	-25.88
3627.307	-29.88
3630.092	-27.88
3632.874	-36.88
3635.654	-41.88
3638.432	-42.88
3641.208	-38.88
3643.982	-45.88
3646.753	-48.88
3649.523	-49.88
3652.29	-47.88
3655.055	-51.88
3657.818	-52.88
3660.579	-50.88
3663.338	-59.88
3666.095	-62.88
3668.849	-68.88
3671.602	-68.88
3674.352	-76.88
3677.101	-68.88
3679.847	-75.88
3682.591	-75.88
3685.333	-72.88
3688.073	-76.88
3690.811	-78.88
3693.547	-77.88
3696.281	-79.88
3699.013	-82.88
3701.742	-82.88
3704.47	-84.88
3707.195	-87.88
3709.919	-86.88
3712.64	-88.88
3715.359	-90.88
3718.076	-94.88
3720.792	-88.88
3723.505	-91.88
3726.216	-93.88
3728.925	-96.88
3731.632	-93.88
3734.336	-96.88
3737.039	-99.88
3739.74	-96.88
3742.439	-98.88
3745.136	-94.88
3747.83	-98.88
3750.523	-97.88
3753.213	-92.88
3755.902	-97.88
3758.589	-100.88
3761.273	-103.88
3763.956	-106.88
3766.636	-105.88
3769.315	-106.88
3771.991	-103.88
3774.665	-103.88
3777.338	-107.88
3780.008	-102.88
3782.677	-105.88
3785.343	-107.88
3788.007	-103.88
3790.67	-105.88
3793.33	-105.88
3795.989	-109.88
3798.645	-108.88
3801.299	-112.88
3803.952	-110.88
3806.602	-107.88
3809.251	-102.88
3811.897	-109.88
3814.542	-112.88
3817.184	-106.88
3819.825	-105.88
3822.463	-104.88
3825.1	-111.88
3827.735	-110.88
3830.367	-110.88
3832.998	-112.88
3835.627	-115.88
3838.253	-112.88
3840.878	-115.88
3843.501	-114.88
3846.122	-114.88
3848.741	-112.88
3851.358	-111.88
3853.973	-108.88
3856.586	-113.88
3859.197	-115.88
3861.806	-116.88
3864.414	-115.88
3867.019	-116.88
3869.622	-115.88
3872.224	-118.88
3874.823	-112.88
3877.421	-107.88
3880.016	-111.88
3882.61	-103.88
3885.202	-102.88
3887.792	-104.88
3890.38	-111.88
3892.966	-112.88
3895.55	-115.88
3898.132	-119.88
3900.713	-115.88
3903.291	-115.88
3905.868	-112.88
3908.442	-114.88
3911.015	-115.88
3913.586	-113.88
3916.155	-114.88
3918.722	-119.88
3921.287	-117.88
3923.85	-121.88
3926.411	-114.88
3928.971	-120.88
3931.528	-118.88
3934.084	-120.88
3936.638	-117.88
3939.19	-113.88
3941.74	-112.88
3944.288	-117.88
3946.834	-114.88
3949.378	-119.88
3951.921	-117.88
3954.462	-116.88
3957	-122.88
3959.537	-123.88
3962.072	-120.88
3964.606	-118.88
3967.137	-117.88
3969.667	-115.88
3972.194	-112.88
3974.72	-114.88
3977.244	-114.88
3979.766	-111.88
3982.286	-115.88
3984.805	-118.88
3987.321	-119.88
3989.836	-118.88
3992.349	-118.88
3994.86	-117.88
3997.369	-125.88
3999.877	-115.88
4002.382	-113.88
4004.886	-114.88
4007.388	-118.88
4009.888	-113.88
4012.386	-114.88
4014.883	-114.88
4017.377	-112.88
4019.87	-116.88
4022.361	-118.88
4024.85	-118.88
4027.338	-117.88
4029.823	-121.88
4032.307	-118.88
4034.789	-118.88
4037.269	-121.88
4039.747	-115.88
4042.224	-110.88
4044.699	-116.88
4047.172	-116.88
4049.643	-115.88
4052.112	-115.88
4054.58	-117.88
4057.046	-119.88
4059.51	-116.88
4061.972	-119.88
4064.432	-121.88
4066.891	-119.88
4069.348	-114.88
4071.803	-114.88
4074.256	-116.88
4076.708	-116.88
4079.158	-115.88
4081.606	-116.88
4084.052	-115.88
4086.497	-116.88
4088.939	-116.88
4091.38	-116.88
4093.819	-119.88
4096.257	-122.88
4098.693	-121.88
4101.127	-126.88
4103.559	-120.88
4105.989	-79.88
4108.418	-77.88
4110.845	-71.88
4113.27	-69.88
4115.694	-62.88
4118.115	-56.88
4120.535	-120.88
4122.954	-117.88
4125.37	-116.88
4127.785	-116.88
4130.198	-116.88
4132.609	-116.88
4135.019	-123.88
4137.427	-123.88
4139.833	-123.88
4142.237	-123.88
