Data from I0.2_T5s_Bsub_water_1-10^4_2_RamanShift_11-58-16-097.txt Node
Date: Mon Mar 13 11:58:16 IST 2017
User: aro
Spectrometer: QEPB0276
Trigger mode: 0
Integration Time (sec): 5.000000E0
Scans to average: 1
Electric dark correction enabled: true
Nonlinearity correction enabled: false
Boxcar width: 0
XAxis mode: Raman Shifts
Number of Pixels in Spectrum: 1044
>>>>>Begin Spectral Data<<<<<
160.701	-1.75
166.742	-0.75
172.777	-1.75
178.805	-1.75
184.826	4.25
190.841	4.25
196.849	6.25
202.85	4.25
208.845	5.25
214.833	10.25
220.815	11.25
226.789	6.25
232.758	3.25
238.719	2.25
244.674	1.25
250.623	-0.75
256.565	2.25
262.5	1.25
268.429	1.25
274.351	-0.75
280.267	0.25
286.176	0.25
292.079	-0.75
297.975	2.25
303.865	0.25
309.748	4.25
315.625	4.25
321.495	5.25
327.359	5.25
333.217	5.25
339.068	8.25
344.912	4.25
350.751	5.25
356.583	4.25
362.408	3.25
368.227	-0.75
374.04	-1.75
379.847	3.25
385.647	0.25
391.44	3.25
397.228	2.25
403.009	1.25
408.784	0.25
414.553	2.25
420.315	5.25
426.071	5.25
431.821	8.25
437.565	8.25
443.302	5.25
449.033	7.25
454.758	4.25
460.477	5.25
466.189	5.25
471.896	3.25
477.596	-0.75
483.29	3.25
488.978	4.25
494.66	-2.75
500.335	0.25
506.005	-0.75
511.668	-0.75
517.325	-1.75
522.977	3.25
528.622	0.25
534.261	2.25
539.894	3.25
545.521	2.25
551.141	3.25
556.756	5.25
562.365	3.25
567.968	8.25
573.565	5.25
579.155	3.25
584.74	5.25
590.319	2.25
595.892	0.25
601.459	4.25
607.02	-0.75
612.575	4.25
618.124	3.25
623.667	1.25
629.204	-0.75
634.735	-0.75
640.261	0.25
645.781	-2.75
651.294	2.25
656.802	0.25
662.304	3.25
667.8	3.25
673.29	-1.75
678.775	0.25
684.254	3.25
689.726	4.25
695.193	2.25
700.655	1.25
706.11	4.25
711.56	-0.75
717.004	2.25
722.442	3.25
727.874	0.25
733.301	0.25
738.722	5.25
744.137	3.25
749.547	3.25
754.951	0.25
760.349	4.25
765.741	4.25
771.128	5.25
776.509	2.25
781.885	3.25
787.254	1.25
792.618	4.25
797.977	0.25
803.33	1.25
808.677	2.25
814.019	-2.75
819.355	-2.75
824.686	-0.75
830.011	2.25
835.33	2.25
840.644	2.25
845.952	0.25
851.255	2.25
856.552	2.25
861.844	5.25
867.13	6.25
872.41	4.25
877.686	7.25
882.955	5.25
888.219	4.25
893.478	9.25
898.731	4.25
903.979	2.25
909.221	3.25
914.458	5.25
919.69	5.25
924.916	-2.75
930.136	0.25
935.351	-0.75
940.561	4.25
945.766	3.25
950.965	-4.75
956.158	-3.75
961.347	-1.75
966.529	3.25
971.707	3.25
976.879	2.25
982.046	2.25
987.208	2.25
992.364	2.25
997.515	7.25
1002.66	3.25
1007.801	5.25
1012.936	3.25
1018.066	0.25
1023.19	5.25
1028.309	1.25
1033.423	1.25
1038.532	0.25
1043.636	1.25
1048.734	4.25
1053.827	0.25
1058.915	-5.75
1063.998	-1.75
1069.075	-1.75
1074.147	1.25
1079.214	1.25
1084.276	2.25
1089.333	1.25
1094.385	3.25
1099.431	5.25
1104.472	7.25
1109.509	6.25
1114.54	3.25
1119.565	6.25
1124.586	6.25
1129.602	6.25
1134.613	2.25
1139.618	0.25
1144.619	1.25
1149.614	3.25
1154.604	-0.75
1159.589	1.25
1164.57	-2.75
1169.545	0.25
1174.515	5.25
1179.48	1.25
1184.44	3.25
1189.395	-1.75
1194.345	6.25
1199.29	2.25
1204.23	3.25
1209.165	6.25
1214.095	3.25
1219.021	4.25
1223.941	5.25
1228.856	4.25
1233.766	4.25
1238.672	2.25
1243.572	3.25
1248.467	5.25
1253.358	3.25
1258.244	3.25
1263.124	1.25
1268	-0.75
1272.871	0.25
1277.737	-0.75
1282.599	4.25
1287.455	1.25
1292.306	3.25
1297.153	2.25
1301.995	0.25
1306.832	5.25
1311.664	8.25
1316.491	0.25
1321.314	3.25
1326.132	4.25
1330.945	4.25
1335.753	1.25
1340.556	3.25
1345.354	2.25
1350.148	3.25
1354.937	0.25
1359.722	5.25
1364.501	4.25
1369.276	0.25
1374.046	-1.75
1378.811	4.25
1383.572	6.25
1388.327	2.25
1393.079	3.25
1397.825	1.25
1402.567	3.25
1407.304	3.25
1412.036	6.25
1416.764	5.25
1421.487	2.25
1426.205	1.25
1430.919	-1.75
1435.628	-0.75
1440.333	-0.75
1445.032	2.25
1449.727	1.25
1454.418	0.25
1459.104	2.25
1463.785	6.25
1468.462	3.25
1473.134	2.25
1477.802	2.25
1482.465	3.25
1487.123	1.25
1491.777	3.25
1496.426	6.25
1501.071	5.25
1505.711	2.25
1510.347	3.25
1514.978	0.25
1519.604	1.25
1524.226	7.25
1528.844	2.25
1533.457	0.25
1538.065	2.25
1542.669	1.25
1547.269	4.25
1551.864	3.25
1556.454	1.25
1561.041	5.25
1565.622	-0.75
1570.199	1.25
1574.772	1.25
1579.34	0.25
1583.904	4.25
1588.464	2.25
1593.019	6.25
1597.569	3.25
1602.115	2.25
1606.657	1.25
1611.195	-0.75
1615.728	2.25
1620.256	-1.75
1624.78	0.25
1629.3	0.25
1633.816	2.25
1638.327	3.25
1642.834	2.25
1647.336	2.25
1651.834	2.25
1656.328	4.25
1660.817	4.25
1665.302	1.25
1669.783	7.25
1674.259	3.25
1678.732	3.25
1683.199	2.25
1687.663	3.25
1692.122	3.25
1696.577	3.25
1701.028	-0.75
1705.474	-0.75
1709.917	1.25
1714.355	2.25
1718.788	3.25
1723.218	3.25
1727.643	0.25
1732.064	1.25
1736.481	6.25
1740.893	4.25
1745.301	-0.75
1749.705	3.25
1754.105	-0.75
1758.501	3.25
1762.893	0.25
1767.28	1.25
1771.663	4.25
1776.042	4.25
1780.417	5.25
1784.787	0.25
1789.154	2.25
1793.516	1.25
1797.874	4.25
1802.228	2.25
1806.578	1.25
1810.924	3.25
1815.266	2.25
1819.603	3.25
1823.937	3.25
1828.266	6.25
1832.591	4.25
1836.913	2.25
1841.23	4.25
1845.543	2.25
1849.852	2.25
1854.156	1.25
1858.457	5.25
1862.754	-1.75
1867.047	2.25
1871.335	2.25
1875.62	3.25
1879.9	2.25
1884.177	0.25
1888.449	-0.75
1892.718	4.25
1896.982	0.25
1901.243	2.25
1905.499	1.25
1909.752	1.25
1914	2.25
1918.245	5.25
1922.485	0.25
1926.722	-0.75
1930.954	0.25
1935.183	2.25
1939.408	0.25
1943.628	0.25
1947.845	3.25
1952.058	1.25
1956.267	3.25
1960.472	2.25
1964.673	1.25
1968.87	2.25
1973.063	5.25
1977.252	1.25
1981.438	3.25
1985.619	0.25
1989.797	2.25
1993.971	5.25
1998.14	0.25
2002.306	1.25
2006.469	0.25
2010.627	1.25
2014.781	-0.75
2018.932	-1.75
2023.078	1.25
2027.221	2.25
2031.36	4.25
2035.495	0.25
2039.627	1.25
2043.754	1.25
2047.878	6.25
2051.998	9.25
2056.114	4.25
2060.226	4.25
2064.334	1.25
2068.439	3.25
2072.54	3.25
2076.637	6.25
2080.73	4.25
2084.82	1.25
2088.906	0.25
2092.988	-0.75
2097.066	2.25
2101.14	-0.75
2105.211	-2.75
2109.278	2.25
2113.342	-0.75
2117.401	-0.75
2121.457	2.25
2125.509	2.25
2129.558	2.25
2133.602	3.25
2137.643	4.25
2141.681	8.25
2145.714	6.25
2149.744	3.25
2153.77	5.25
2157.793	4.25
2161.812	6.25
2165.827	3.25
2169.838	7.25
2173.846	-1.75
2177.851	0.25
2181.851	-0.75
2185.848	2.25
2189.841	2.25
2193.831	2.25
2197.817	-0.75
2201.799	1.25
2205.778	2.25
2209.753	3.25
2213.725	6.25
2217.693	1.25
2221.657	0.25
2225.618	3.25
2229.575	2.25
2233.529	5.25
2237.479	1.25
2241.425	4.25
2245.368	2.25
2249.307	5.25
2253.243	0.25
2257.175	0.25
2261.104	-2.75
2265.029	1.25
2268.95	-0.75
2272.868	0.25
2276.783	2.25
2280.694	2.25
2284.601	1.25
2288.505	0.25
2292.405	-0.75
2296.302	2.25
2300.195	1.25
2304.085	5.25
2307.971	2.25
2311.854	2.25
2315.734	2.25
2319.609	3.25
2323.482	2.25
2327.351	2.25
2331.216	4.25
2335.078	3.25
2338.937	0.25
2342.792	1.25
2346.643	2.25
2350.492	4.25
2354.336	1.25
2358.178	3.25
2362.015	-0.75
2365.85	1.25
2369.681	-0.75
2373.508	1.25
2377.333	-0.75
2381.153	2.25
2384.971	5.25
2388.785	4.25
2392.595	3.25
2396.402	1.25
2400.206	3.25
2404.007	6.25
2407.804	5.25
2411.597	5.25
2415.388	1.25
2419.174	4.25
2422.958	5.25
2426.738	3.25
2430.515	2.25
2434.289	0.25
2438.059	2.25
2441.825	1.25
2445.589	-0.75
2449.349	-0.75
2453.106	2.25
2456.859	4.25
2460.61	1.25
2464.356	2.25
2468.1	2.25
2471.84	1.25
2475.577	4.25
2479.311	2.25
2483.041	1.25
2486.768	1.25
2490.492	1.25
2494.213	2.25
2497.93	1.25
2501.644	2.25
2505.355	-0.75
2509.062	0.25
2512.766	5.25
2516.467	1.25
2520.165	7.25
2523.859	4.25
2527.551	5.25
2531.239	5.25
2534.923	6.25
2538.605	2.25
2542.283	3.25
2545.958	5.25
2549.63	0.25
2553.299	1.25
2556.964	2.25
2560.626	3.25
2564.285	3.25
2567.941	0.25
2571.594	0.25
2575.243	-1.75
2578.89	-1.75
2582.533	-1.75
2586.173	-1.75
2589.809	2.25
2593.443	-1.75
2597.073	4.25
2600.701	0.25
2604.325	0.25
2607.946	-2.75
2611.564	4.25
2615.178	5.25
2618.79	4.25
2622.398	4.25
2626.004	1.25
2629.606	4.25
2633.205	5.25
2636.801	6.25
2640.394	2.25
2643.983	3.25
2647.57	-0.75
2651.153	0.25
2654.734	-0.75
2658.311	-0.75
2661.885	-2.75
2665.456	-2.75
2669.025	0.25
2672.589	-1.75
2676.151	2.25
2679.71	0.25
2683.266	0.25
2686.819	6.25
2690.368	8.25
2693.915	3.25
2697.458	7.25
2700.999	6.25
2704.536	3.25
2708.071	6.25
2711.602	1.25
2715.13	-1.75
2718.656	0.25
2722.178	4.25
2725.697	-2.75
2729.214	-0.75
2732.727	1.25
2736.237	-0.75
2739.744	-1.75
2743.249	-1.75
2746.75	-3.75
2750.248	3.25
2753.743	1.25
2757.236	0.25
2760.725	2.25
2764.211	3.25
2767.695	3.25
2771.175	3.25
2774.652	3.25
2778.127	6.25
2781.598	7.25
2785.067	5.25
2788.532	4.25
2791.995	-0.75
2795.455	2.25
2798.911	0.25
2802.365	1.25
2805.816	1.25
2809.264	0.25
2812.709	-1.75
2816.151	-0.75
2819.59	1.25
2823.026	-1.75
2826.46	1.25
2829.89	1.25
2833.318	0.25
2836.742	1.25
2840.164	1.25
2843.583	5.25
2846.999	3.25
2850.412	0.25
2853.822	1.25
2857.229	1.25
2860.634	0.25
2864.035	0.25
2867.434	3.25
2870.83	-0.75
2874.223	4.25
2877.613	4.25
2881	4.25
2884.385	3.25
2887.766	4.25
2891.145	5.25
2894.521	3.25
2897.894	3.25
2901.264	0.25
2904.631	1.25
2907.996	2.25
2911.358	3.25
2914.717	4.25
2918.073	1.25
2921.426	1.25
2924.777	-1.75
2928.124	2.25
2931.469	1.25
2934.811	2.25
2938.15	1.25
2941.487	0.25
2944.821	-0.75
2948.152	0.25
2951.48	0.25
2954.805	1.25
2958.128	5.25
2961.447	1.25
2964.765	5.25
2968.079	8.25
2971.39	3.25
2974.699	4.25
2978.005	4.25
2981.308	4.25
2984.609	5.25
2987.907	3.25
2991.202	2.25
2994.494	-1.75
2997.784	-0.75
3001.07	-0.75
3004.355	0.25
3007.636	-0.75
3010.915	-0.75
3014.191	-0.75
3017.464	2.25
3020.734	0.25
3024.002	3.25
3027.267	2.25
3030.53	4.25
3033.789	4.25
3037.046	0.25
3040.301	3.25
3043.552	3.25
3046.801	3.25
3050.048	1.25
3053.291	4.25
3056.532	5.25
3059.771	3.25
3063.006	7.25
3066.239	3.25
3069.469	4.25
3072.697	1.25
3075.922	-0.75
3079.144	0.25
3082.364	3.25
3085.581	2.25
3088.795	-2.75
3092.007	-0.75
3095.216	0.25
3098.423	-1.75
3101.627	1.25
3104.828	-0.75
3108.026	0.25
3111.222	2.25
3114.416	1.25
3117.607	4.25
3120.795	4.25
3123.98	1.25
3127.163	2.25
3130.344	5.25
3133.521	1.25
3136.696	6.25
3139.869	4.25
3143.039	2.25
3146.206	1.25
3149.371	3.25
3152.533	2.25
3155.693	2.25
3158.85	2.25
3162.005	-1.75
3165.157	2.25
3168.306	1.25
3171.453	1.25
3174.597	-1.75
3177.739	1.25
3180.878	0.25
3184.014	3.25
3187.149	3.25
3190.28	1.25
3193.409	0.25
3196.536	4.25
3199.659	6.25
3202.781	2.25
3205.9	7.25
3209.016	4.25
3212.13	0.25
3215.241	3.25
3218.35	0.25
3221.456	0.25
3224.56	0.25
3227.661	0.25
3230.76	0.25
3233.856	1.25
3236.95	3.25
3240.041	-1.75
3243.13	0.25
3246.216	1.25
3249.3	2.25
3252.382	0.25
3255.46	5.25
3258.537	1.25
3261.611	2.25
3264.682	2.25
3267.751	5.25
3270.818	4.25
3273.882	5.25
3276.943	5.25
3280.002	4.25
3283.059	4.25
3286.113	3.25
3289.165	1.25
3292.214	-0.75
3295.261	0.25
3298.306	0.25
3301.348	1.25
3304.387	4.25
3307.425	-0.75
3310.459	-0.75
3313.492	4.25
3316.521	2.25
3319.549	-0.75
3322.574	3.25
3325.597	3.25
3328.617	2.25
3331.635	-3.75
3334.65	2.25
3337.663	2.25
3340.674	-0.75
3343.682	2.25
3346.688	4.25
3349.691	0.25
3352.692	0.25
3355.691	-0.75
3358.687	2.25
3361.681	3.25
3364.673	3.25
3367.662	-0.75
3370.649	3.25
3373.633	2.25
3376.615	0.25
3379.595	4.25
3382.572	-0.75
3385.547	3.25
3388.52	3.25
3391.49	6.25
3394.458	0.25
3397.424	1.25
3400.387	0.25
3403.348	2.25
3406.307	3.25
3409.263	0.25
3412.217	1.25
3415.168	3.25
3418.118	-1.75
3421.065	0.25
3424.009	0.25
3426.951	3.25
3429.891	0.25
3432.829	2.25
3435.764	1.25
3438.697	4.25
3441.628	1.25
3444.557	0.25
3447.483	3.25
3450.407	0.25
3453.328	-0.75
3456.247	4.25
3459.164	1.25
3462.079	7.25
3464.991	3.25
3467.902	3.25
3470.809	-0.75
3473.715	3.25
3476.618	3.25
3479.519	2.25
3482.418	-2.75
3485.315	3.25
3488.209	3.25
3491.101	2.25
3493.99	0.25
3496.878	4.25
3499.763	2.25
3502.646	5.25
3505.527	2.25
3508.405	4.25
3511.281	3.25
3514.155	4.25
3517.027	1.25
3519.897	2.25
3522.764	2.25
3525.629	2.25
3528.492	4.25
3531.352	4.25
3534.211	0.25
3537.067	4.25
3539.921	2.25
3542.773	2.25
3545.622	0.25
3548.469	-0.75
3551.315	2.25
3554.157	-0.75
3556.998	4.25
3559.837	5.25
3562.673	1.25
3565.507	1.25
3568.339	0.25
3571.169	5.25
3573.996	2.25
3576.822	4.25
3579.645	4.25
3582.466	-0.75
3585.285	4.25
3588.101	3.25
3590.916	3.25
3593.728	4.25
3596.538	-0.75
3599.346	2.25
3602.152	-1.75
3604.956	0.25
3607.757	3.25
3610.556	3.25
3613.354	3.25
3616.149	1.25
3618.942	2.25
3621.732	0.25
3624.521	1.25
3627.307	0.25
3630.092	4.25
3632.874	0.25
3635.654	2.25
3638.432	2.25
3641.208	4.25
3643.982	2.25
3646.753	4.25
3649.523	-2.75
3652.29	-1.75
3655.055	1.25
3657.818	0.25
3660.579	-0.75
3663.338	3.25
3666.095	6.25
3668.849	-0.75
3671.602	3.25
3674.352	1.25
3677.101	4.25
3679.847	0.25
3682.591	2.25
3685.333	0.25
3688.073	2.25
3690.811	2.25
3693.547	-1.75
3696.281	1.25
3699.013	1.25
3701.742	4.25
3704.47	5.25
3707.195	1.25
3709.919	2.25
3712.64	-0.75
3715.359	3.25
3718.076	-0.75
3720.792	0.25
3723.505	2.25
3726.216	-0.75
3728.925	4.25
3731.632	2.25
3734.336	4.25
3737.039	3.25
3739.74	3.25
3742.439	-0.75
3745.136	2.25
3747.83	-0.75
3750.523	-0.75
3753.213	2.25
3755.902	-0.75
3758.589	2.25
3761.273	1.25
3763.956	0.25
3766.636	-0.75
3769.315	0.25
3771.991	2.25
3774.665	4.25
3777.338	3.25
3780.008	5.25
3782.677	6.25
3785.343	2.25
3788.007	3.25
3790.67	2.25
3793.33	-0.75
3795.989	0.25
3798.645	1.25
3801.299	-4.75
3803.952	-0.75
3806.602	2.25
3809.251	-3.75
3811.897	-4.75
3814.542	1.25
3817.184	-1.75
3819.825	2.25
3822.463	2.25
3825.1	3.25
3827.735	0.25
3830.367	5.25
3832.998	3.25
3835.627	4.25
3838.253	6.25
3840.878	2.25
3843.501	2.25
3846.122	-0.75
3848.741	2.25
3851.358	3.25
3853.973	3.25
3856.586	1.25
3859.197	3.25
3861.806	0.25
3864.414	1.25
3867.019	-2.75
3869.622	0.25
3872.224	-0.75
3874.823	0.25
3877.421	0.25
3880.016	0.25
3882.61	-1.75
3885.202	2.25
3887.792	2.25
3890.38	3.25
3892.966	4.25
3895.55	2.25
3898.132	4.25
3900.713	3.25
3903.291	3.25
3905.868	6.25
3908.442	6.25
3911.015	0.25
3913.586	3.25
3916.155	4.25
3918.722	0.25
3921.287	2.25
3923.85	0.25
3926.411	1.25
3928.971	-1.75
3931.528	0.25
3934.084	2.25
3936.638	-1.75
3939.19	4.25
3941.74	2.25
3944.288	1.25
3946.834	2.25
3949.378	4.25
3951.921	2.25
3954.462	6.25
3957	1.25
3959.537	3.25
3962.072	2.25
3964.606	3.25
3967.137	0.25
3969.667	0.25
3972.194	1.25
3974.72	2.25
3977.244	0.25
3979.766	2.25
3982.286	0.25
3984.805	4.25
3987.321	4.25
3989.836	1.25
3992.349	-0.75
3994.86	4.25
3997.369	-0.75
3999.877	3.25
4002.382	1.25
4004.886	-3.75
4007.388	3.25
4009.888	2.25
4012.386	2.25
4014.883	-0.75
4017.377	2.25
4019.87	4.25
4022.361	6.25
4024.85	1.25
4027.338	2.25
4029.823	1.25
4032.307	0.25
4034.789	8.25
4037.269	-0.75
4039.747	3.25
4042.224	2.25
4044.699	0.25
4047.172	1.25
4049.643	2.25
4052.112	1.25
4054.58	3.25
4057.046	1.25
4059.51	1.25
4061.972	-3.75
4064.432	0.25
4066.891	0.25
4069.348	-1.75
4071.803	3.25
4074.256	2.25
4076.708	0.25
4079.158	3.25
4081.606	4.25
4084.052	4.25
4086.497	5.25
4088.939	5.25
4091.38	0.25
4093.819	2.25
4096.257	4.25
4098.693	3.25
4101.127	0.25
4103.559	2.25
4105.989	1.25
4108.418	0.25
4110.845	0.25
4113.27	0.25
4115.694	1.25
4118.115	-0.75
4120.535	6.25
4122.954	2.25
4125.37	5.25
4127.785	4.25
4130.198	6.25
4132.609	2.25
4135.019	2.25
4137.427	1.25
4139.833	3.25
4142.237	-0.75
