Data from I0.2_T10s_Bsub_water_1-10^4_3_RamanShift_12-18-10-993.txt Node
Date: Mon Mar 13 12:18:10 IST 2017
User: aro
Spectrometer: QEPB0276
Trigger mode: 0
Integration Time (sec): 1.000000E1
Scans to average: 1
Electric dark correction enabled: true
Nonlinearity correction enabled: false
Boxcar width: 0
XAxis mode: Raman Shifts
Number of Pixels in Spectrum: 1044
>>>>>Begin Spectral Data<<<<<
160.701	1.88
166.742	1.88
172.777	-0.12
178.805	-4.12
184.826	-1.12
190.841	-2.12
196.849	4.88
202.85	1.88
208.845	5.88
214.833	2.88
220.815	6.88
226.789	2.88
232.758	7.88
238.719	5.88
244.674	5.88
250.623	6.88
256.565	3.88
262.5	4.88
268.429	7.88
274.351	6.88
280.267	6.88
286.176	1.88
292.079	3.88
297.975	3.88
303.865	3.88
309.748	2.88
315.625	-1.12
321.495	3.88
327.359	7.88
333.217	1.88
339.068	4.88
344.912	4.88
350.751	7.88
356.583	2.88
362.408	6.88
368.227	7.88
374.04	4.88
379.847	5.88
385.647	4.88
391.44	6.88
397.228	5.88
403.009	1.88
408.784	0.88
414.553	2.88
420.315	-0.12
426.071	-1.12
431.821	0.88
437.565	3.88
443.302	1.88
449.033	4.88
454.758	2.88
460.477	5.88
466.189	2.88
471.896	3.88
477.596	4.88
483.29	6.88
488.978	5.88
494.66	4.88
500.335	5.88
506.005	2.88
511.668	5.88
517.325	7.88
522.977	2.88
528.622	-0.12
534.261	4.88
539.894	-0.12
545.521	0.88
551.141	-1.12
556.756	1.88
562.365	-6.12
567.968	-2.12
573.565	-1.12
579.155	2.88
584.74	-1.12
590.319	2.88
595.892	2.88
601.459	1.88
607.02	5.88
612.575	8.88
618.124	2.88
623.667	4.88
629.204	7.88
634.735	4.88
640.261	4.88
645.781	-3.12
651.294	4.88
656.802	-0.12
662.304	3.88
667.8	-0.12
673.29	-0.12
678.775	-0.12
684.254	1.88
689.726	0.88
695.193	-0.12
700.655	3.88
706.11	1.88
711.56	4.88
717.004	5.88
722.442	2.88
727.874	8.88
733.301	2.88
738.722	2.88
744.137	7.88
749.547	4.88
754.951	0.88
760.349	-1.12
765.741	4.88
771.128	0.88
776.509	-2.12
781.885	-1.12
787.254	4.88
792.618	0.88
797.977	0.88
803.33	-1.12
808.677	4.88
814.019	0.88
819.355	0.88
824.686	5.88
830.011	1.88
835.33	3.88
840.644	2.88
845.952	4.88
851.255	2.88
856.552	0.88
861.844	4.88
867.13	5.88
872.41	2.88
877.686	2.88
882.955	2.88
888.219	4.88
893.478	3.88
898.731	1.88
903.979	0.88
909.221	-1.12
914.458	-3.12
919.69	-2.12
924.916	-0.12
930.136	1.88
935.351	-4.12
940.561	0.88
945.766	2.88
950.965	-2.12
956.158	1.88
961.347	4.88
966.529	7.88
971.707	5.88
976.879	7.88
982.046	3.88
987.208	4.88
992.364	4.88
997.515	-1.12
1002.66	2.88
1007.801	-1.12
1012.936	0.88
1018.066	1.88
1023.19	0.88
1028.309	1.88
1033.423	-1.12
1038.532	-1.12
1043.636	0.88
1048.734	-1.12
1053.827	-1.12
1058.915	-2.12
1063.998	-0.12
1069.075	-0.12
1074.147	-2.12
1079.214	1.88
1084.276	6.88
1089.333	2.88
1094.385	4.88
1099.431	7.88
1104.472	7.88
1109.509	3.88
1114.54	8.88
1119.565	5.88
1124.586	3.88
1129.602	3.88
1134.613	0.88
1139.618	2.88
1144.619	4.88
1149.614	6.88
1154.604	4.88
1159.589	1.88
1164.57	0.88
1169.545	-0.12
1174.515	-0.12
1179.48	0.88
1184.44	-1.12
1189.395	-2.12
1194.345	-1.12
1199.29	-0.12
1204.23	0.88
1209.165	1.88
1214.095	2.88
1219.021	-0.12
1223.941	-2.12
1228.856	3.88
1233.766	-1.12
1238.672	7.88
1243.572	6.88
1248.467	5.88
1253.358	5.88
1258.244	7.88
1263.124	-0.12
1268	4.88
1272.871	4.88
1277.737	3.88
1282.599	0.88
1287.455	1.88
1292.306	2.88
1297.153	-2.12
1301.995	0.88
1306.832	0.88
1311.664	-0.12
1316.491	0.88
1321.314	-2.12
1326.132	0.88
1330.945	-0.12
1335.753	3.88
1340.556	3.88
1345.354	6.88
1350.148	1.88
1354.937	5.88
1359.722	7.88
1364.501	5.88
1369.276	3.88
1374.046	2.88
1378.811	2.88
1383.572	7.88
1388.327	1.88
1393.079	2.88
1397.825	4.88
1402.567	1.88
1407.304	-0.12
1412.036	-1.12
1416.764	0.88
1421.487	3.88
1426.205	0.88
1430.919	2.88
1435.628	2.88
1440.333	-4.12
1445.032	-0.12
1449.727	1.88
1454.418	-2.12
1459.104	0.88
1463.785	1.88
1468.462	0.88
1473.134	6.88
1477.802	2.88
1482.465	2.88
1487.123	4.88
1491.777	3.88
1496.426	5.88
1501.071	2.88
1505.711	2.88
1510.347	7.88
1514.978	4.88
1519.604	1.88
1524.226	1.88
1528.844	4.88
1533.457	0.88
1538.065	0.88
1542.669	1.88
1547.269	0.88
1551.864	0.88
1556.454	-2.12
1561.041	2.88
1565.622	3.88
1570.199	-0.12
1574.772	1.88
1579.34	1.88
1583.904	3.88
1588.464	-0.12
1593.019	0.88
1597.569	5.88
1602.115	1.88
1606.657	1.88
1611.195	2.88
1615.728	3.88
1620.256	3.88
1624.78	6.88
1629.3	-0.12
1633.816	0.88
1638.327	0.88
1642.834	2.88
1647.336	-1.12
1651.834	-1.12
1656.328	5.88
1660.817	-0.12
1665.302	0.88
1669.783	3.88
1674.259	0.88
1678.732	1.88
1683.199	2.88
1687.663	0.88
1692.122	6.88
1696.577	2.88
1701.028	4.88
1705.474	0.88
1709.917	0.88
1714.355	3.88
1718.788	6.88
1723.218	5.88
1727.643	1.88
1732.064	0.88
1736.481	-0.12
1740.893	5.88
1745.301	1.88
1749.705	0.88
1754.105	5.88
1758.501	-0.12
1762.893	2.88
1767.28	-0.12
1771.663	0.88
1776.042	2.88
1780.417	0.88
1784.787	1.88
1789.154	-2.12
1793.516	-1.12
1797.874	1.88
1802.228	0.88
1806.578	3.88
1810.924	-1.12
1815.266	3.88
1819.603	3.88
1823.937	4.88
1828.266	-2.12
1832.591	-0.12
1836.913	1.88
1841.23	2.88
1845.543	3.88
1849.852	1.88
1854.156	2.88
1858.457	-0.12
1862.754	3.88
1867.047	1.88
1871.335	1.88
1875.62	0.88
1879.9	0.88
1884.177	-0.12
1888.449	3.88
1892.718	2.88
1896.982	4.88
1901.243	-0.12
1905.499	1.88
1909.752	0.88
1914	1.88
1918.245	1.88
1922.485	2.88
1926.722	1.88
1930.954	1.88
1935.183	3.88
1939.408	-0.12
1943.628	3.88
1947.845	3.88
1952.058	3.88
1956.267	-0.12
1960.472	0.88
1964.673	-0.12
1968.87	1.88
1973.063	5.88
1977.252	-0.12
1981.438	4.88
1985.619	1.88
1989.797	3.88
1993.971	2.88
1998.14	1.88
2002.306	0.88
2006.469	3.88
2010.627	1.88
2014.781	6.88
2018.932	5.88
2023.078	0.88
2027.221	-1.12
2031.36	0.88
2035.495	0.88
2039.627	-1.12
2043.754	-0.12
2047.878	-2.12
2051.998	1.88
2056.114	1.88
2060.226	0.88
2064.334	5.88
2068.439	1.88
2072.54	2.88
2076.637	1.88
2080.73	5.88
2084.82	-2.12
2088.906	4.88
2092.988	5.88
2097.066	3.88
2101.14	3.88
2105.211	4.88
2109.278	2.88
2113.342	4.88
2117.401	2.88
2121.457	2.88
2125.509	1.88
2129.558	-4.12
2133.602	-0.12
2137.643	-4.12
2141.681	-1.12
2145.714	1.88
2149.744	0.88
2153.77	0.88
2157.793	1.88
2161.812	4.88
2165.827	4.88
2169.838	4.88
2173.846	2.88
2177.851	1.88
2181.851	-1.12
2185.848	2.88
2189.841	3.88
2193.831	-0.12
2197.817	4.88
2201.799	3.88
2205.778	-0.12
2209.753	3.88
2213.725	-1.12
2217.693	3.88
2221.657	-2.12
2225.618	0.88
2229.575	0.88
2233.529	-2.12
2237.479	2.88
2241.425	3.88
2245.368	-0.12
2249.307	-0.12
2253.243	2.88
2257.175	5.88
2261.104	7.88
2265.029	4.88
2268.95	2.88
2272.868	2.88
2276.783	-0.12
2280.694	3.88
2284.601	3.88
2288.505	5.88
2292.405	3.88
2296.302	6.88
2300.195	3.88
2304.085	-1.12
2307.971	-0.12
2311.854	-4.12
2315.734	0.88
2319.609	-3.12
2323.482	0.88
2327.351	-1.12
2331.216	1.88
2335.078	1.88
2338.937	0.88
2342.792	5.88
2346.643	5.88
2350.492	3.88
2354.336	4.88
2358.178	6.88
2362.015	6.88
2365.85	5.88
2369.681	3.88
2373.508	8.88
2377.333	4.88
2381.153	5.88
2384.971	0.88
2388.785	1.88
2392.595	3.88
2396.402	-0.12
2400.206	1.88
2404.007	-5.12
2407.804	-2.12
2411.597	0.88
2415.388	-0.12
2419.174	1.88
2422.958	3.88
2426.738	-0.12
2430.515	1.88
2434.289	-0.12
2438.059	3.88
2441.825	3.88
2445.589	1.88
2449.349	3.88
2453.106	6.88
2456.859	6.88
2460.61	3.88
2464.356	1.88
2468.1	1.88
2471.84	4.88
2475.577	-1.12
2479.311	1.88
2483.041	0.88
2486.768	0.88
2490.492	0.88
2494.213	-3.12
2497.93	-7.12
2501.644	0.88
2505.355	5.88
2509.062	4.88
2512.766	0.88
2516.467	-1.12
2520.165	7.88
2523.859	3.88
2527.551	2.88
2531.239	6.88
2534.923	9.88
2538.605	5.88
2542.283	5.88
2545.958	1.88
2549.63	3.88
2553.299	2.88
2556.964	-0.12
2560.626	0.88
2564.285	1.88
2567.941	-0.12
2571.594	0.88
2575.243	-2.12
2578.89	0.88
2582.533	-0.12
2586.173	-1.12
2589.809	-2.12
2593.443	3.88
2597.073	3.88
2600.701	6.88
2604.325	4.88
2607.946	5.88
2611.564	4.88
2615.178	3.88
2618.79	2.88
2622.398	0.88
2626.004	3.88
2629.606	4.88
2633.205	1.88
2636.801	1.88
2640.394	0.88
2643.983	3.88
2647.57	2.88
2651.153	-2.12
2654.734	-2.12
2658.311	0.88
2661.885	1.88
2665.456	-2.12
2669.025	1.88
2672.589	-0.12
2676.151	1.88
2679.71	0.88
2683.266	0.88
2686.819	2.88
2690.368	2.88
2693.915	1.88
2697.458	7.88
2700.999	10.88
2704.536	5.88
2708.071	5.88
2711.602	6.88
2715.13	1.88
2718.656	2.88
2722.178	11.88
2725.697	2.88
2729.214	4.88
2732.727	-1.12
2736.237	-0.12
2739.744	-1.12
2743.249	1.88
2746.75	-1.12
2750.248	-3.12
2753.743	-3.12
2757.236	-5.12
2760.725	-1.12
2764.211	0.88
2767.695	-1.12
2771.175	3.88
2774.652	3.88
2778.127	0.88
2781.598	-0.12
2785.067	3.88
2788.532	3.88
2791.995	6.88
2795.455	5.88
2798.911	5.88
2802.365	6.88
2805.816	3.88
2809.264	4.88
2812.709	4.88
2816.151	-0.12
2819.59	-0.12
2823.026	-0.12
2826.46	-0.12
2829.89	-3.12
2833.318	3.88
2836.742	-1.12
2840.164	-4.12
2843.583	1.88
2846.999	1.88
2850.412	0.88
2853.822	-2.12
2857.229	-1.12
2860.634	2.88
2864.035	2.88
2867.434	-0.12
2870.83	5.88
2874.223	5.88
2877.613	1.88
2881	1.88
2884.385	4.88
2887.766	8.88
2891.145	3.88
2894.521	4.88
2897.894	1.88
2901.264	-1.12
2904.631	-1.12
2907.996	-3.12
2911.358	2.88
2914.717	-3.12
2918.073	1.88
2921.426	2.88
2924.777	-0.12
2928.124	1.88
2931.469	-0.12
2934.811	0.88
2938.15	2.88
2941.487	3.88
2944.821	4.88
2948.152	2.88
2951.48	4.88
2954.805	0.88
2958.128	3.88
2961.447	6.88
2964.765	7.88
2968.079	1.88
2971.39	6.88
2974.699	5.88
2978.005	-0.12
2981.308	-0.12
2984.609	0.88
2987.907	2.88
2991.202	3.88
2994.494	-1.12
2997.784	-0.12
3001.07	-2.12
3004.355	2.88
3007.636	3.88
3010.915	0.88
3014.191	3.88
3017.464	2.88
3020.734	-2.12
3024.002	-1.12
3027.267	-0.12
3030.53	-2.12
3033.789	-0.12
3037.046	1.88
3040.301	3.88
3043.552	3.88
3046.801	7.88
3050.048	8.88
3053.291	2.88
3056.532	5.88
3059.771	1.88
3063.006	5.88
3066.239	2.88
3069.469	3.88
3072.697	1.88
3075.922	1.88
3079.144	-2.12
3082.364	5.88
3085.581	-2.12
3088.795	-0.12
3092.007	-2.12
3095.216	-2.12
3098.423	-3.12
3101.627	-2.12
3104.828	-1.12
3108.026	-2.12
3111.222	1.88
3114.416	0.88
3117.607	2.88
3120.795	5.88
3123.98	6.88
3127.163	1.88
3130.344	5.88
3133.521	8.88
3136.696	0.88
3139.869	2.88
3143.039	4.88
3146.206	2.88
3149.371	7.88
3152.533	-0.12
3155.693	-2.12
3158.85	0.88
3162.005	-3.12
3165.157	1.88
3168.306	-6.12
3171.453	2.88
3174.597	-2.12
3177.739	1.88
3180.878	-4.12
3184.014	2.88
3187.149	-0.12
3190.28	0.88
3193.409	-0.12
3196.536	4.88
3199.659	1.88
3202.781	3.88
3205.9	6.88
3209.016	-0.12
3212.13	0.88
3215.241	4.88
3218.35	2.88
3221.456	4.88
3224.56	1.88
3227.661	0.88
3230.76	0.88
3233.856	0.88
3236.95	-1.12
3240.041	7.88
3243.13	-0.12
3246.216	-1.12
3249.3	-1.12
3252.382	-4.12
3255.46	-4.12
3258.537	-0.12
3261.611	6.88
3264.682	1.88
3267.751	1.88
3270.818	3.88
3273.882	2.88
3276.943	1.88
3280.002	5.88
3283.059	-0.12
3286.113	2.88
3289.165	1.88
3292.214	1.88
3295.261	8.88
3298.306	2.88
3301.348	2.88
3304.387	1.88
3307.425	3.88
3310.459	0.88
3313.492	-0.12
3316.521	0.88
3319.549	0.88
3322.574	0.88
3325.597	6.88
3328.617	-0.12
3331.635	-1.12
3334.65	-1.12
3337.663	1.88
3340.674	-0.12
3343.682	4.88
3346.688	4.88
3349.691	2.88
3352.692	4.88
3355.691	2.88
3358.687	3.88
3361.681	4.88
3364.673	4.88
3367.662	2.88
3370.649	1.88
3373.633	3.88
3376.615	-0.12
3379.595	4.88
3382.572	2.88
3385.547	0.88
3388.52	3.88
3391.49	2.88
3394.458	-0.12
3397.424	-0.12
3400.387	2.88
3403.348	-2.12
3406.307	2.88
3409.263	2.88
3412.217	-0.12
3415.168	2.88
3418.118	1.88
3421.065	1.88
3424.009	2.88
3426.951	5.88
3429.891	-2.12
3432.829	1.88
3435.764	6.88
3438.697	4.88
3441.628	3.88
3444.557	3.88
3447.483	2.88
3450.407	-0.12
3453.328	1.88
3456.247	0.88
3459.164	1.88
3462.079	3.88
3464.991	-0.12
3467.902	-0.12
3470.809	4.88
3473.715	2.88
3476.618	4.88
3479.519	1.88
3482.418	3.88
3485.315	1.88
3488.209	2.88
3491.101	1.88
3493.99	6.88
3496.878	2.88
3499.763	2.88
3502.646	2.88
3505.527	-0.12
3508.405	0.88
3511.281	1.88
3514.155	4.88
3517.027	1.88
3519.897	-1.12
3522.764	5.88
3525.629	-0.12
3528.492	0.88
3531.352	2.88
3534.211	0.88
3537.067	0.88
3539.921	3.88
3542.773	3.88
3545.622	5.88
3548.469	3.88
3551.315	-0.12
3554.157	0.88
3556.998	3.88
3559.837	-4.12
3562.673	-0.12
3565.507	-1.12
3568.339	-2.12
3571.169	1.88
3573.996	-0.12
3576.822	-1.12
3579.645	-0.12
3582.466	-0.12
3585.285	-2.12
3588.101	0.88
3590.916	-0.12
3593.728	3.88
3596.538	4.88
3599.346	2.88
3602.152	2.88
3604.956	3.88
3607.757	4.88
3610.556	2.88
3613.354	4.88
3616.149	6.88
3618.942	3.88
3621.732	-0.12
3624.521	2.88
3627.307	2.88
3630.092	-0.12
3632.874	3.88
3635.654	-1.12
3638.432	-0.12
3641.208	-4.12
3643.982	-3.12
3646.753	2.88
3649.523	-2.12
3652.29	2.88
3655.055	4.88
3657.818	-0.12
3660.579	-1.12
3663.338	-0.12
3666.095	0.88
3668.849	3.88
3671.602	4.88
3674.352	8.88
3677.101	3.88
3679.847	1.88
3682.591	-1.12
3685.333	-0.12
3688.073	2.88
3690.811	-4.12
3693.547	-2.12
3696.281	1.88
3699.013	-0.12
3701.742	2.88
3704.47	1.88
3707.195	2.88
3709.919	2.88
3712.64	-0.12
3715.359	-0.12
3718.076	1.88
3720.792	-0.12
3723.505	4.88
3726.216	2.88
3728.925	2.88
3731.632	3.88
3734.336	3.88
3737.039	5.88
3739.74	4.88
3742.439	4.88
3745.136	0.88
3747.83	0.88
3750.523	-5.12
3753.213	-2.12
3755.902	-6.12
3758.589	-5.12
3761.273	-0.12
3763.956	-0.12
3766.636	4.88
3769.315	3.88
3771.991	1.88
3774.665	2.88
3777.338	0.88
3780.008	2.88
3782.677	4.88
3785.343	4.88
3788.007	-2.12
3790.67	6.88
3793.33	4.88
3795.989	2.88
3798.645	-0.12
3801.299	4.88
3803.952	3.88
3806.602	0.88
3809.251	2.88
3811.897	-4.12
3814.542	-2.12
3817.184	-1.12
3819.825	0.88
3822.463	0.88
3825.1	-2.12
3827.735	-3.12
3830.367	-4.12
3832.998	0.88
3835.627	0.88
3838.253	1.88
3840.878	2.88
3843.501	2.88
3846.122	3.88
3848.741	3.88
3851.358	3.88
3853.973	2.88
3856.586	-0.12
3859.197	3.88
3861.806	5.88
3864.414	2.88
3867.019	1.88
3869.622	0.88
3872.224	-2.12
3874.823	-2.12
3877.421	-1.12
3880.016	0.88
3882.61	-2.12
3885.202	-0.12
3887.792	-0.12
3890.38	-2.12
3892.966	-2.12
3895.55	0.88
3898.132	0.88
3900.713	1.88
3903.291	0.88
3905.868	4.88
3908.442	3.88
3911.015	4.88
3913.586	-0.12
3916.155	3.88
3918.722	1.88
3921.287	1.88
3923.85	3.88
3926.411	1.88
3928.971	1.88
3931.528	-1.12
3934.084	-1.12
3936.638	-0.12
3939.19	-2.12
3941.74	-2.12
3944.288	1.88
3946.834	-0.12
3949.378	-0.12
3951.921	-2.12
3954.462	2.88
3957	4.88
3959.537	-0.12
3962.072	2.88
3964.606	-0.12
3967.137	4.88
3969.667	2.88
3972.194	6.88
3974.72	2.88
3977.244	6.88
3979.766	4.88
3982.286	0.88
3984.805	0.88
3987.321	1.88
3989.836	0.88
3992.349	4.88
3994.86	-1.12
3997.369	-2.12
3999.877	1.88
4002.382	-0.12
4004.886	-0.12
4007.388	-0.12
4009.888	-0.12
4012.386	1.88
4014.883	1.88
4017.377	2.88
4019.87	0.88
4022.361	2.88
4024.85	1.88
4027.338	5.88
4029.823	2.88
4032.307	0.88
4034.789	1.88
4037.269	-1.12
4039.747	1.88
4042.224	2.88
4044.699	3.88
4047.172	2.88
4049.643	3.88
4052.112	2.88
4054.58	2.88
4057.046	0.88
4059.51	0.88
4061.972	0.88
4064.432	-1.12
4066.891	4.88
4069.348	-1.12
4071.803	-1.12
4074.256	0.88
4076.708	-0.12
4079.158	-0.12
4081.606	0.88
4084.052	1.88
4086.497	-0.12
4088.939	0.88
4091.38	-3.12
4093.819	3.88
4096.257	1.88
4098.693	-2.12
4101.127	3.88
4103.559	4.88
4105.989	3.88
4108.418	2.88
4110.845	4.88
4113.27	2.88
4115.694	2.88
4118.115	1.88
4120.535	2.88
4122.954	3.88
4125.37	3.88
4127.785	5.88
4130.198	1.88
4132.609	1.88
4135.019	1.88
4137.427	1.88
4139.833	-0.12
4142.237	-3.12
