Data from I0.2_T5s_Bsub_water_1-1_3_RamanShift_12-07-51-044.txt Node
Date: Mon Mar 13 12:07:51 IST 2017
User: aro
Spectrometer: QEPB0276
Trigger mode: 0
Integration Time (sec): 5.000000E0
Scans to average: 1
Electric dark correction enabled: true
Nonlinearity correction enabled: false
Boxcar width: 0
XAxis mode: Raman Shifts
Number of Pixels in Spectrum: 1044
>>>>>Begin Spectral Data<<<<<
160.701	-0.62
166.742	-1.62
172.777	-2.62
178.805	-3.62
184.826	0.38
190.841	1.38
196.849	-0.62
202.85	5.38
208.845	1.38
214.833	5.38
220.815	3.38
226.789	3.38
232.758	2.38
238.719	0.38
244.674	0.38
250.623	-0.62
256.565	0.38
262.5	2.38
268.429	-0.62
274.351	-0.62
280.267	1.38
286.176	3.38
292.079	-1.62
297.975	-0.62
303.865	-2.62
309.748	2.38
315.625	1.38
321.495	0.38
327.359	3.38
333.217	1.38
339.068	4.38
344.912	2.38
350.751	1.38
356.583	4.38
362.408	-0.62
368.227	0.38
374.04	-0.62
379.847	1.38
385.647	0.38
391.44	3.38
397.228	0.38
403.009	2.38
408.784	-0.62
414.553	2.38
420.315	0.38
426.071	0.38
431.821	2.38
437.565	1.38
443.302	-0.62
449.033	1.38
454.758	-1.62
460.477	-0.62
466.189	0.38
471.896	1.38
477.596	-3.62
483.29	-0.62
488.978	1.38
494.66	-2.62
500.335	0.38
506.005	1.38
511.668	1.38
517.325	-2.62
522.977	1.38
528.622	-0.62
534.261	1.38
539.894	2.38
545.521	-0.62
551.141	1.38
556.756	4.38
562.365	0.38
567.968	1.38
573.565	-2.62
579.155	1.38
584.74	0.38
590.319	-3.62
595.892	-2.62
601.459	0.38
607.02	-3.62
612.575	0.38
618.124	3.38
623.667	2.38
629.204	0.38
634.735	2.38
640.261	3.38
645.781	0.38
651.294	3.38
656.802	0.38
662.304	4.38
667.8	3.38
673.29	-0.62
678.775	-0.62
684.254	3.38
689.726	2.38
695.193	1.38
700.655	-0.62
706.11	0.38
711.56	-3.62
717.004	-2.62
722.442	-3.62
727.874	-4.62
733.301	-3.62
738.722	0.38
744.137	0.38
749.547	-0.62
754.951	1.38
760.349	2.38
765.741	3.38
771.128	1.38
776.509	2.38
781.885	1.38
787.254	4.38
792.618	5.38
797.977	2.38
803.33	1.38
808.677	0.38
814.019	-2.62
819.355	0.38
824.686	-0.62
830.011	-3.62
835.33	0.38
840.644	1.38
845.952	0.38
851.255	-0.62
856.552	0.38
861.844	2.38
867.13	0.38
872.41	2.38
877.686	6.38
882.955	4.38
888.219	2.38
893.478	2.38
898.731	4.38
903.979	0.38
909.221	1.38
914.458	1.38
919.69	3.38
924.916	-3.62
930.136	-0.62
935.351	-4.62
940.561	1.38
945.766	0.38
950.965	-5.62
956.158	-5.62
961.347	-5.62
966.529	-2.62
971.707	0.38
976.879	-4.62
982.046	-1.62
987.208	-3.62
992.364	2.38
997.515	2.38
1002.66	2.38
1007.801	1.38
1012.936	-2.62
1018.066	-0.62
1023.19	2.38
1028.309	-0.62
1033.423	-0.62
1038.532	-2.62
1043.636	1.38
1048.734	2.38
1053.827	1.38
1058.915	-1.62
1063.998	1.38
1069.075	-0.62
1074.147	1.38
1079.214	1.38
1084.276	0.38
1089.333	-1.62
1094.385	-1.62
1099.431	-1.62
1104.472	0.38
1109.509	1.38
1114.54	-0.62
1119.565	-0.62
1124.586	3.38
1129.602	4.38
1134.613	0.38
1139.618	-4.62
1144.619	-0.62
1149.614	1.38
1154.604	-0.62
1159.589	1.38
1164.57	-0.62
1169.545	-3.62
1174.515	4.38
1179.48	-0.62
1184.44	4.38
1189.395	1.38
1194.345	3.38
1199.29	0.38
1204.23	0.38
1209.165	3.38
1214.095	-0.62
1219.021	-1.62
1223.941	0.38
1228.856	-3.62
1233.766	-2.62
1238.672	-2.62
1243.572	-1.62
1248.467	1.38
1253.358	-0.62
1258.244	0.38
1263.124	0.38
1268	-0.62
1272.871	-2.62
1277.737	-2.62
1282.599	3.38
1287.455	1.38
1292.306	4.38
1297.153	4.38
1301.995	-1.62
1306.832	6.38
1311.664	6.38
1316.491	-0.62
1321.314	4.38
1326.132	2.38
1330.945	3.38
1335.753	-3.62
1340.556	-3.62
1345.354	-1.62
1350.148	-0.62
1354.937	-5.62
1359.722	-1.62
1364.501	-1.62
1369.276	-1.62
1374.046	-2.62
1378.811	0.38
1383.572	3.38
1388.327	2.38
1393.079	0.38
1397.825	2.38
1402.567	3.38
1407.304	3.38
1412.036	4.38
1416.764	5.38
1421.487	-0.62
1426.205	-0.62
1430.919	-1.62
1435.628	-2.62
1440.333	-1.62
1445.032	0.38
1449.727	-1.62
1454.418	-3.62
1459.104	-3.62
1463.785	-1.62
1468.462	-3.62
1473.134	-1.62
1477.802	-2.62
1482.465	0.38
1487.123	-1.62
1491.777	1.38
1496.426	1.38
1501.071	2.38
1505.711	1.38
1510.347	2.38
1514.978	0.38
1519.604	1.38
1524.226	5.38
1528.844	2.38
1533.457	-1.62
1538.065	-0.62
1542.669	-1.62
1547.269	3.38
1551.864	0.38
1556.454	1.38
1561.041	1.38
1565.622	-4.62
1570.199	-2.62
1574.772	-1.62
1579.34	-1.62
1583.904	0.38
1588.464	-1.62
1593.019	0.38
1597.569	-0.62
1602.115	1.38
1606.657	1.38
1611.195	1.38
1615.728	-1.62
1620.256	-2.62
1624.78	1.38
1629.3	1.38
1633.816	4.38
1638.327	4.38
1642.834	0.38
1647.336	2.38
1651.834	0.38
1656.328	4.38
1660.817	0.38
1665.302	-1.62
1669.783	0.38
1674.259	-2.62
1678.732	-4.62
1683.199	-3.62
1687.663	-2.62
1692.122	-1.62
1696.577	0.38
1701.028	-0.62
1705.474	-2.62
1709.917	-1.62
1714.355	2.38
1718.788	0.38
1723.218	0.38
1727.643	1.38
1732.064	-0.62
1736.481	5.38
1740.893	3.38
1745.301	1.38
1749.705	0.38
1754.105	-0.62
1758.501	0.38
1762.893	-1.62
1767.28	-0.62
1771.663	0.38
1776.042	-2.62
1780.417	1.38
1784.787	-0.62
1789.154	-0.62
1793.516	-1.62
1797.874	-0.62
1802.228	-0.62
1806.578	0.38
1810.924	1.38
1815.266	3.38
1819.603	0.38
1823.937	2.38
1828.266	5.38
1832.591	2.38
1836.913	0.38
1841.23	2.38
1845.543	1.38
1849.852	0.38
1854.156	0.38
1858.457	2.38
1862.754	-4.62
1867.047	-1.62
1871.335	-2.62
1875.62	-2.62
1879.9	-4.62
1884.177	-3.62
1888.449	-2.62
1892.718	2.38
1896.982	-1.62
1901.243	3.38
1905.499	2.38
1909.752	0.38
1914	2.38
1918.245	5.38
1922.485	0.38
1926.722	2.38
1930.954	1.38
1935.183	1.38
1939.408	1.38
1943.628	-0.62
1947.845	1.38
1952.058	-2.62
1956.267	0.38
1960.472	-2.62
1964.673	-0.62
1968.87	-1.62
1973.063	-0.62
1977.252	-2.62
1981.438	-4.62
1985.619	-0.62
1989.797	0.38
1993.971	1.38
1998.14	-0.62
2002.306	-0.62
2006.469	-0.62
2010.627	1.38
2014.781	0.38
2018.932	1.38
2023.078	-2.62
2027.221	0.38
2031.36	2.38
2035.495	-1.62
2039.627	0.38
2043.754	-0.62
2047.878	-1.62
2051.998	4.38
2056.114	-1.62
2060.226	0.38
2064.334	-1.62
2068.439	0.38
2072.54	-3.62
2076.637	3.38
2080.73	1.38
2084.82	-1.62
2088.906	-1.62
2092.988	1.38
2097.066	-0.62
2101.14	-1.62
2105.211	-2.62
2109.278	-0.62
2113.342	0.38
2117.401	3.38
2121.457	0.38
2125.509	-0.62
2129.558	3.38
2133.602	2.38
2137.643	-1.62
2141.681	-1.62
2145.714	0.38
2149.744	1.38
2153.77	-1.62
2157.793	0.38
2161.812	-1.62
2165.827	-0.62
2169.838	1.38
2173.846	-2.62
2177.851	2.38
2181.851	-1.62
2185.848	3.38
2189.841	0.38
2193.831	-2.62
2197.817	-3.62
2201.799	2.38
2205.778	1.38
2209.753	1.38
2213.725	3.38
2217.693	1.38
2221.657	-1.62
2225.618	-1.62
2229.575	-0.62
2233.529	0.38
2237.479	-2.62
2241.425	-0.62
2245.368	2.38
2249.307	1.38
2253.243	-1.62
2257.175	-1.62
2261.104	-0.62
2265.029	-1.62
2268.95	-0.62
2272.868	-3.62
2276.783	3.38
2280.694	-0.62
2284.601	1.38
2288.505	0.38
2292.405	2.38
2296.302	2.38
2300.195	1.38
2304.085	4.38
2307.971	0.38
2311.854	-1.62
2315.734	-0.62
2319.609	-1.62
2323.482	0.38
2327.351	-3.62
2331.216	-2.62
2335.078	-2.62
2338.937	-2.62
2342.792	-3.62
2346.643	1.38
2350.492	-0.62
2354.336	-0.62
2358.178	2.38
2362.015	-0.62
2365.85	2.38
2369.681	-0.62
2373.508	-0.62
2377.333	2.38
2381.153	1.38
2384.971	0.38
2388.785	3.38
2392.595	0.38
2396.402	3.38
2400.206	-0.62
2404.007	2.38
2407.804	0.38
2411.597	-4.62
2415.388	-5.62
2419.174	-2.62
2422.958	-1.62
2426.738	-5.62
2430.515	-3.62
2434.289	-4.62
2438.059	0.38
2441.825	-0.62
2445.589	0.38
2449.349	-2.62
2453.106	4.38
2456.859	2.38
2460.61	0.38
2464.356	-0.62
2468.1	1.38
2471.84	0.38
2475.577	2.38
2479.311	3.38
2483.041	-1.62
2486.768	1.38
2490.492	-1.62
2494.213	-1.62
2497.93	-2.62
2501.644	-1.62
2505.355	-1.62
2509.062	-3.62
2512.766	-0.62
2516.467	-3.62
2520.165	1.38
2523.859	-1.62
2527.551	2.38
2531.239	0.38
2534.923	1.38
2538.605	-1.62
2542.283	-0.62
2545.958	0.38
2549.63	2.38
2553.299	-0.62
2556.964	1.38
2560.626	1.38
2564.285	2.38
2567.941	0.38
2571.594	0.38
2575.243	-1.62
2578.89	0.38
2582.533	-1.62
2586.173	-3.62
2589.809	-1.62
2593.443	0.38
2597.073	0.38
2600.701	-1.62
2604.325	-3.62
2607.946	-5.62
2611.564	1.38
2615.178	0.38
2618.79	-2.62
2622.398	-0.62
2626.004	-4.62
2629.606	2.38
2633.205	0.38
2636.801	3.38
2640.394	2.38
2643.983	0.38
2647.57	-0.62
2651.153	-2.62
2654.734	-1.62
2658.311	-1.62
2661.885	-2.62
2665.456	-2.62
2669.025	-2.62
2672.589	-4.62
2676.151	0.38
2679.71	0.38
2683.266	-3.62
2686.819	2.38
2690.368	3.38
2693.915	-1.62
2697.458	2.38
2700.999	1.38
2704.536	1.38
2708.071	1.38
2711.602	0.38
2715.13	0.38
2718.656	2.38
2722.178	3.38
2725.697	-2.62
2729.214	1.38
2732.727	0.38
2736.237	-0.62
2739.744	-1.62
2743.249	-0.62
2746.75	-2.62
2750.248	3.38
2753.743	2.38
2757.236	-3.62
2760.725	1.38
2764.211	1.38
2767.695	-2.62
2771.175	-0.62
2774.652	-0.62
2778.127	2.38
2781.598	0.38
2785.067	-2.62
2788.532	-3.62
2791.995	-4.62
2795.455	-2.62
2798.911	-1.62
2802.365	-0.62
2805.816	2.38
2809.264	-1.62
2812.709	-2.62
2816.151	-0.62
2819.59	1.38
2823.026	-0.62
2826.46	2.38
2829.89	1.38
2833.318	1.38
2836.742	2.38
2840.164	-0.62
2843.583	4.38
2846.999	3.38
2850.412	-1.62
2853.822	-0.62
2857.229	1.38
2860.634	-2.62
2864.035	-3.62
2867.434	-1.62
2870.83	-2.62
2874.223	1.38
2877.613	-2.62
2881	1.38
2884.385	-1.62
2887.766	0.38
2891.145	0.38
2894.521	-0.62
2897.894	1.38
2901.264	-1.62
2904.631	1.38
2907.996	3.38
2911.358	3.38
2914.717	6.38
2918.073	1.38
2921.426	1.38
2924.777	0.38
2928.124	2.38
2931.469	1.38
2934.811	0.38
2938.15	-0.62
2941.487	-6.62
2944.821	-3.62
2948.152	-4.62
2951.48	-2.62
2954.805	-5.62
2958.128	0.38
2961.447	-1.62
2964.765	-3.62
2968.079	2.38
2971.39	-0.62
2974.699	5.38
2978.005	2.38
2981.308	1.38
2984.609	2.38
2987.907	2.38
2991.202	0.38
2994.494	2.38
2997.784	0.38
3001.07	-0.62
3004.355	1.38
3007.636	-0.62
3010.915	-0.62
3014.191	-3.62
3017.464	-0.62
3020.734	-1.62
3024.002	-2.62
3027.267	-3.62
3030.53	0.38
3033.789	-0.62
3037.046	-2.62
3040.301	-0.62
3043.552	-0.62
3046.801	2.38
3050.048	-0.62
3053.291	0.38
3056.532	2.38
3059.771	2.38
3063.006	6.38
3066.239	3.38
3069.469	3.38
3072.697	4.38
3075.922	2.38
3079.144	1.38
3082.364	-1.62
3085.581	2.38
3088.795	-3.62
3092.007	-2.62
3095.216	-4.62
3098.423	-4.62
3101.627	-1.62
3104.828	-4.62
3108.026	-2.62
3111.222	-1.62
3114.416	-1.62
3117.607	-1.62
3120.795	1.38
3123.98	-1.62
3127.163	1.38
3130.344	2.38
3133.521	1.38
3136.696	6.38
3139.869	0.38
3143.039	1.38
3146.206	0.38
3149.371	2.38
3152.533	4.38
3155.693	1.38
3158.85	1.38
3162.005	2.38
3165.157	-2.62
3168.306	-1.62
3171.453	-3.62
3174.597	-4.62
3177.739	-5.62
3180.878	-2.62
3184.014	-3.62
3187.149	0.38
3190.28	-0.62
3193.409	-0.62
3196.536	-0.62
3199.659	0.38
3202.781	-0.62
3205.9	8.38
3209.016	4.38
3212.13	0.38
3215.241	3.38
3218.35	0.38
3221.456	0.38
3224.56	3.38
3227.661	1.38
3230.76	-0.62
3233.856	-3.62
3236.95	-2.62
3240.041	-4.62
3243.13	-3.62
3246.216	0.38
3249.3	-1.62
3252.382	-2.62
3255.46	-2.62
3258.537	-2.62
3261.611	0.38
3264.682	-1.62
3267.751	2.38
3270.818	3.38
3273.882	3.38
3276.943	3.38
3280.002	5.38
3283.059	2.38
3286.113	3.38
3289.165	-0.62
3292.214	-3.62
3295.261	0.38
3298.306	3.38
3301.348	-1.62
3304.387	-1.62
3307.425	-4.62
3310.459	-0.62
3313.492	-3.62
3316.521	-0.62
3319.549	-6.62
3322.574	0.38
3325.597	0.38
3328.617	-1.62
3331.635	-0.62
3334.65	-0.62
3337.663	1.38
3340.674	-3.62
3343.682	-0.62
3346.688	4.38
3349.691	4.38
3352.692	1.38
3355.691	0.38
3358.687	3.38
3361.681	3.38
3364.673	5.38
3367.662	-3.62
3370.649	0.38
3373.633	1.38
3376.615	-3.62
3379.595	-3.62
3382.572	-2.62
3385.547	-4.62
3388.52	-1.62
3391.49	-1.62
3394.458	-0.62
3397.424	-2.62
3400.387	2.38
3403.348	0.38
3406.307	3.38
3409.263	1.38
3412.217	-0.62
3415.168	2.38
3418.118	-0.62
3421.065	2.38
3424.009	-0.62
3426.951	3.38
3429.891	2.38
3432.829	-2.62
3435.764	-1.62
3438.697	1.38
3441.628	-1.62
3444.557	-5.62
3447.483	-0.62
3450.407	-4.62
3453.328	-5.62
3456.247	1.38
3459.164	-0.62
3462.079	2.38
3464.991	-0.62
3467.902	-1.62
3470.809	-0.62
3473.715	1.38
3476.618	-0.62
3479.519	3.38
3482.418	0.38
3485.315	-2.62
3488.209	2.38
3491.101	1.38
3493.99	-1.62
3496.878	2.38
3499.763	-1.62
3502.646	2.38
3505.527	-1.62
3508.405	-2.62
3511.281	-0.62
3514.155	-2.62
3517.027	-0.62
3519.897	-1.62
3522.764	-0.62
3525.629	0.38
3528.492	1.38
3531.352	-0.62
3534.211	0.38
3537.067	2.38
3539.921	0.38
3542.773	1.38
3545.622	5.38
3548.469	-0.62
3551.315	3.38
3554.157	-1.62
3556.998	4.38
3559.837	2.38
3562.673	0.38
3565.507	-2.62
3568.339	0.38
3571.169	-1.62
3573.996	-3.62
3576.822	-1.62
3579.645	-1.62
3582.466	-1.62
3585.285	2.38
3588.101	-2.62
3590.916	1.38
3593.728	-0.62
3596.538	1.38
3599.346	-0.62
3602.152	2.38
3604.956	2.38
3607.757	3.38
3610.556	4.38
3613.354	5.38
3616.149	2.38
3618.942	1.38
3621.732	-0.62
3624.521	2.38
3627.307	-0.62
3630.092	2.38
3632.874	-2.62
3635.654	0.38
3638.432	-1.62
3641.208	-0.62
3643.982	-2.62
3646.753	1.38
3649.523	-4.62
3652.29	-1.62
3655.055	1.38
3657.818	1.38
3660.579	-3.62
3663.338	3.38
3666.095	4.38
3668.849	1.38
3671.602	2.38
3674.352	4.38
3677.101	1.38
3679.847	3.38
3682.591	-1.62
3685.333	0.38
3688.073	-0.62
3690.811	3.38
3693.547	-4.62
3696.281	-2.62
3699.013	-3.62
3701.742	-1.62
3704.47	-1.62
3707.195	-4.62
3709.919	-2.62
3712.64	-3.62
3715.359	-1.62
3718.076	0.38
3720.792	-1.62
3723.505	0.38
3726.216	-1.62
3728.925	2.38
3731.632	1.38
3734.336	3.38
3737.039	5.38
3739.74	3.38
3742.439	0.38
3745.136	-0.62
3747.83	1.38
3750.523	-0.62
3753.213	-5.62
3755.902	-3.62
3758.589	-3.62
3761.273	-3.62
3763.956	-4.62
3766.636	-4.62
3769.315	-2.62
3771.991	-2.62
3774.665	2.38
3777.338	-0.62
3780.008	3.38
3782.677	1.38
3785.343	-1.62
3788.007	4.38
3790.67	2.38
3793.33	-1.62
3795.989	-1.62
3798.645	4.38
3801.299	-0.62
3803.952	0.38
3806.602	1.38
3809.251	-3.62
3811.897	-0.62
3814.542	1.38
3817.184	-2.62
3819.825	-1.62
3822.463	-2.62
3825.1	-0.62
3827.735	-1.62
3830.367	3.38
3832.998	-1.62
3835.627	0.38
3838.253	1.38
3840.878	-1.62
3843.501	-3.62
3846.122	-0.62
3848.741	-2.62
3851.358	1.38
3853.973	-2.62
3856.586	-3.62
3859.197	1.38
3861.806	1.38
3864.414	0.38
3867.019	0.38
3869.622	-2.62
3872.224	-1.62
3874.823	1.38
3877.421	2.38
3880.016	2.38
3882.61	3.38
3885.202	0.38
3887.792	0.38
3890.38	1.38
3892.966	3.38
3895.55	1.38
3898.132	-0.62
3900.713	-0.62
3903.291	-2.62
3905.868	-1.62
3908.442	0.38
3911.015	-1.62
3913.586	2.38
3916.155	0.38
3918.722	-0.62
3921.287	-3.62
3923.85	-0.62
3926.411	2.38
3928.971	-1.62
3931.528	0.38
3934.084	2.38
3936.638	-3.62
3939.19	3.38
3941.74	1.38
3944.288	5.38
3946.834	2.38
3949.378	0.38
3951.921	0.38
3954.462	1.38
3957	-1.62
3959.537	0.38
3962.072	-3.62
3964.606	-1.62
3967.137	-0.62
3969.667	-3.62
3972.194	-1.62
3974.72	-1.62
3977.244	-1.62
3979.766	-0.62
3982.286	2.38
3984.805	0.38
3987.321	0.38
3989.836	4.38
3992.349	1.38
3994.86	3.38
3997.369	-0.62
3999.877	1.38
4002.382	-0.62
4004.886	1.38
4007.388	2.38
4009.888	0.38
4012.386	1.38
4014.883	-4.62
4017.377	-6.62
4019.87	-1.62
4022.361	-1.62
4024.85	-0.62
4027.338	-4.62
4029.823	-2.62
4032.307	-3.62
4034.789	0.38
4037.269	-4.62
4039.747	-0.62
4042.224	1.38
4044.699	2.38
4047.172	1.38
4049.643	2.38
4052.112	-0.62
4054.58	2.38
4057.046	-1.62
4059.51	-0.62
4061.972	-1.62
4064.432	-0.62
4066.891	-2.62
4069.348	-4.62
4071.803	-2.62
4074.256	0.38
4076.708	-1.62
4079.158	-0.62
4081.606	-2.62
4084.052	0.38
4086.497	-0.62
4088.939	0.38
4091.38	0.38
4093.819	-2.62
4096.257	0.38
4098.693	3.38
4101.127	-0.62
4103.559	1.38
4105.989	2.38
4108.418	-2.62
4110.845	-0.62
4113.27	1.38
4115.694	-0.62
4118.115	-0.62
4120.535	1.38
4122.954	-1.62
4125.37	1.38
4127.785	0.38
4130.198	4.38
4132.609	0.38
4135.019	2.38
4137.427	2.38
4139.833	3.38
4142.237	0.38
