Data from I0.2_T5s_Water_3_RamanShift_11-53-51-115.txt Node
Date: Mon Mar 13 11:53:51 IST 2017
User: aro
Spectrometer: QEPB0276
Trigger mode: 0
Integration Time (sec): 5.000000E0
Scans to average: 1
Electric dark correction enabled: true
Nonlinearity correction enabled: false
Boxcar width: 0
XAxis mode: Raman Shifts
Number of Pixels in Spectrum: 1044
>>>>>Begin Spectral Data<<<<<
160.701	-1.25
166.742	-1.25
172.777	0.75
178.805	0.75
184.826	0.75
190.841	4.75
196.849	4.75
202.85	5.75
208.845	2.75
214.833	6.75
220.815	7.75
226.789	1.75
232.758	0.75
238.719	-1.25
244.674	0.75
250.623	0.75
256.565	0.75
262.5	1.75
268.429	2.75
274.351	2.75
280.267	2.75
286.176	4.75
292.079	-1.25
297.975	2.75
303.865	1.75
309.748	5.75
315.625	2.75
321.495	4.75
327.359	0.75
333.217	2.75
339.068	2.75
344.912	-2.25
350.751	-1.25
356.583	0.75
362.408	-1.25
368.227	-2.25
374.04	-0.25
379.847	0.75
385.647	0.75
391.44	5.75
397.228	0.75
403.009	3.75
408.784	1.75
414.553	2.75
420.315	5.75
426.071	1.75
431.821	3.75
437.565	5.75
443.302	-2.25
449.033	4.75
454.758	-0.25
460.477	-3.25
466.189	-0.25
471.896	-1.25
477.596	-5.25
483.29	-1.25
488.978	-0.25
494.66	-1.25
500.335	2.75
506.005	-1.25
511.668	2.75
517.325	-0.25
522.977	5.75
528.622	3.75
534.261	2.75
539.894	0.75
545.521	1.75
551.141	1.75
556.756	1.75
562.365	0.75
567.968	1.75
573.565	-2.25
579.155	1.75
584.74	1.75
590.319	-1.25
595.892	-0.25
601.459	2.75
607.02	0.75
612.575	0.75
618.124	2.75
623.667	2.75
629.204	1.75
634.735	0.75
640.261	2.75
645.781	-1.25
651.294	1.75
656.802	-1.25
662.304	1.75
667.8	1.75
673.29	-3.25
678.775	-0.25
684.254	2.75
689.726	0.75
695.193	3.75
700.655	0.75
706.11	0.75
711.56	-2.25
717.004	1.75
722.442	0.75
727.874	-1.25
733.301	-0.25
738.722	4.75
744.137	0.75
749.547	-0.25
754.951	-0.25
760.349	2.75
765.741	1.75
771.128	1.75
776.509	-1.25
781.885	1.75
787.254	1.75
792.618	0.75
797.977	-0.25
803.33	3.75
808.677	-2.25
814.019	-1.25
819.355	3.75
824.686	3.75
830.011	-1.25
835.33	1.75
840.644	1.75
845.952	-0.25
851.255	0.75
856.552	1.75
861.844	0.75
867.13	0.75
872.41	5.75
877.686	0.75
882.955	-0.25
888.219	0.75
893.478	2.75
898.731	0.75
903.979	-1.25
909.221	-0.25
914.458	2.75
919.69	0.75
924.916	-1.25
930.136	1.75
935.351	-2.25
940.561	4.75
945.766	2.75
950.965	-2.25
956.158	-1.25
961.347	-3.25
966.529	-0.25
971.707	1.75
976.879	-0.25
982.046	-1.25
987.208	-0.25
992.364	0.75
997.515	1.75
1002.66	2.75
1007.801	1.75
1012.936	-0.25
1018.066	-3.25
1023.19	1.75
1028.309	-1.25
1033.423	-0.25
1038.532	0.75
1043.636	2.75
1048.734	4.75
1053.827	-1.25
1058.915	-3.25
1063.998	-1.25
1069.075	-2.25
1074.147	1.75
1079.214	1.75
1084.276	1.75
1089.333	0.75
1094.385	0.75
1099.431	2.75
1104.472	2.75
1109.509	3.75
1114.54	-0.25
1119.565	-0.25
1124.586	3.75
1129.602	2.75
1134.613	-0.25
1139.618	-2.25
1144.619	-0.25
1149.614	1.75
1154.604	0.75
1159.589	0.75
1164.57	-0.25
1169.545	-2.25
1174.515	2.75
1179.48	-0.25
1184.44	3.75
1189.395	-2.25
1194.345	2.75
1199.29	0.75
1204.23	0.75
1209.165	2.75
1214.095	-1.25
1219.021	0.75
1223.941	0.75
1228.856	1.75
1233.766	-0.25
1238.672	-0.25
1243.572	-2.25
1248.467	2.75
1253.358	3.75
1258.244	2.75
1263.124	-0.25
1268	0.75
1272.871	-0.25
1277.737	-1.25
1282.599	1.75
1287.455	1.75
1292.306	3.75
1297.153	2.75
1301.995	0.75
1306.832	0.75
1311.664	2.75
1316.491	-1.25
1321.314	0.75
1326.132	-0.25
1330.945	0.75
1335.753	-1.25
1340.556	-1.25
1345.354	0.75
1350.148	0.75
1354.937	-2.25
1359.722	1.75
1364.501	1.75
1369.276	-4.25
1374.046	-0.25
1378.811	0.75
1383.572	4.75
1388.327	-0.25
1393.079	-0.25
1397.825	1.75
1402.567	2.75
1407.304	3.75
1412.036	4.75
1416.764	3.75
1421.487	0.75
1426.205	-0.25
1430.919	-2.25
1435.628	-1.25
1440.333	-1.25
1445.032	-1.25
1449.727	-1.25
1454.418	-0.25
1459.104	2.75
1463.785	0.75
1468.462	-0.25
1473.134	0.75
1477.802	0.75
1482.465	1.75
1487.123	-1.25
1491.777	3.75
1496.426	3.75
1501.071	2.75
1505.711	0.75
1510.347	0.75
1514.978	-0.25
1519.604	-1.25
1524.226	6.75
1528.844	2.75
1533.457	1.75
1538.065	1.75
1542.669	0.75
1547.269	1.75
1551.864	-3.25
1556.454	0.75
1561.041	1.75
1565.622	-2.25
1570.199	-1.25
1574.772	2.75
1579.34	0.75
1583.904	1.75
1588.464	0.75
1593.019	4.75
1597.569	0.75
1602.115	2.75
1606.657	0.75
1611.195	0.75
1615.728	-0.25
1620.256	-4.25
1624.78	-1.25
1629.3	0.75
1633.816	-0.25
1638.327	0.75
1642.834	0.75
1647.336	0.75
1651.834	0.75
1656.328	4.75
1660.817	2.75
1665.302	1.75
1669.783	6.75
1674.259	3.75
1678.732	2.75
1683.199	-0.25
1687.663	-1.25
1692.122	2.75
1696.577	4.75
1701.028	-1.25
1705.474	-3.25
1709.917	-2.25
1714.355	-0.25
1718.788	-2.25
1723.218	-2.25
1727.643	0.75
1732.064	-3.25
1736.481	6.75
1740.893	-0.25
1745.301	-0.25
1749.705	1.75
1754.105	4.75
1758.501	2.75
1762.893	0.75
1767.28	3.75
1771.663	4.75
1776.042	0.75
1780.417	4.75
1784.787	-1.25
1789.154	2.75
1793.516	-0.25
1797.874	-0.25
1802.228	0.75
1806.578	-2.25
1810.924	1.75
1815.266	3.75
1819.603	-1.25
1823.937	2.75
1828.266	1.75
1832.591	2.75
1836.913	-1.25
1841.23	0.75
1845.543	-3.25
1849.852	1.75
1854.156	-0.25
1858.457	1.75
1862.754	-3.25
1867.047	2.75
1871.335	1.75
1875.62	2.75
1879.9	-1.25
1884.177	0.75
1888.449	-0.25
1892.718	2.75
1896.982	-0.25
1901.243	-2.25
1905.499	-1.25
1909.752	2.75
1914	1.75
1918.245	2.75
1922.485	0.75
1926.722	-0.25
1930.954	-1.25
1935.183	1.75
1939.408	-0.25
1943.628	-0.25
1947.845	-1.25
1952.058	-2.25
1956.267	0.75
1960.472	-1.25
1964.673	-0.25
1968.87	-1.25
1973.063	-1.25
1977.252	0.75
1981.438	-1.25
1985.619	2.75
1989.797	-2.25
1993.971	2.75
1998.14	1.75
2002.306	0.75
2006.469	-3.25
2010.627	1.75
2014.781	-5.25
2018.932	-0.25
2023.078	-1.25
2027.221	0.75
2031.36	2.75
2035.495	-0.25
2039.627	-0.25
2043.754	-1.25
2047.878	1.75
2051.998	6.75
2056.114	2.75
2060.226	2.75
2064.334	-0.25
2068.439	0.75
2072.54	-1.25
2076.637	5.75
2080.73	2.75
2084.82	0.75
2088.906	-2.25
2092.988	3.75
2097.066	-1.25
2101.14	-4.25
2105.211	-3.25
2109.278	-0.25
2113.342	-2.25
2117.401	1.75
2121.457	-1.25
2125.509	4.75
2129.558	1.75
2133.602	5.75
2137.643	0.75
2141.681	3.75
2145.714	3.75
2149.744	0.75
2153.77	2.75
2157.793	-0.25
2161.812	2.75
2165.827	1.75
2169.838	3.75
2173.846	-2.25
2177.851	-1.25
2181.851	-3.25
2185.848	-1.25
2189.841	-1.25
2193.831	-1.25
2197.817	-2.25
2201.799	-0.25
2205.778	-0.25
2209.753	-3.25
2213.725	4.75
2217.693	-1.25
2221.657	-2.25
2225.618	0.75
2229.575	1.75
2233.529	-0.25
2237.479	1.75
2241.425	4.75
2245.368	-1.25
2249.307	3.75
2253.243	-0.25
2257.175	-1.25
2261.104	-3.25
2265.029	-2.25
2268.95	-1.25
2272.868	-1.25
2276.783	1.75
2280.694	-0.25
2284.601	-0.25
2288.505	-1.25
2292.405	0.75
2296.302	-3.25
2300.195	1.75
2304.085	3.75
2307.971	2.75
2311.854	3.75
2315.734	-0.25
2319.609	2.75
2323.482	1.75
2327.351	1.75
2331.216	-1.25
2335.078	-1.25
2338.937	-0.25
2342.792	-2.25
2346.643	1.75
2350.492	-0.25
2354.336	0.75
2358.178	-0.25
2362.015	-3.25
2365.85	-1.25
2369.681	-2.25
2373.508	0.75
2377.333	-0.25
2381.153	1.75
2384.971	2.75
2388.785	1.75
2392.595	3.75
2396.402	3.75
2400.206	3.75
2404.007	2.75
2407.804	3.75
2411.597	1.75
2415.388	-3.25
2419.174	0.75
2422.958	-1.25
2426.738	-2.25
2430.515	-3.25
2434.289	-5.25
2438.059	-1.25
2441.825	-1.25
2445.589	-0.25
2449.349	-3.25
2453.106	1.75
2456.859	3.75
2460.61	1.75
2464.356	-0.25
2468.1	0.75
2471.84	1.75
2475.577	3.75
2479.311	-1.25
2483.041	1.75
2486.768	3.75
2490.492	1.75
2494.213	3.75
2497.93	-1.25
2501.644	-0.25
2505.355	-0.25
2509.062	-3.25
2512.766	-2.25
2516.467	-2.25
2520.165	0.75
2523.859	-2.25
2527.551	2.75
2531.239	-1.25
2534.923	-2.25
2538.605	0.75
2542.283	2.75
2545.958	0.75
2549.63	-0.25
2553.299	1.75
2556.964	2.75
2560.626	3.75
2564.285	3.75
2567.941	3.75
2571.594	1.75
2575.243	0.75
2578.89	-1.25
2582.533	-3.25
2586.173	-5.25
2589.809	-1.25
2593.443	-2.25
2597.073	-1.25
2600.701	-3.25
2604.325	0.75
2607.946	-1.25
2611.564	-1.25
2615.178	0.75
2618.79	3.75
2622.398	3.75
2626.004	-0.25
2629.606	3.75
2633.205	1.75
2636.801	3.75
2640.394	2.75
2643.983	-1.25
2647.57	-3.25
2651.153	-1.25
2654.734	-2.25
2658.311	-2.25
2661.885	-4.25
2665.456	-5.25
2669.025	-5.25
2672.589	-3.25
2676.151	-0.25
2679.71	0.75
2683.266	-1.25
2686.819	0.75
2690.368	3.75
2693.915	2.75
2697.458	4.75
2700.999	2.75
2704.536	1.75
2708.071	3.75
2711.602	1.75
2715.13	1.75
2718.656	-1.25
2722.178	-0.25
2725.697	-4.25
2729.214	-1.25
2732.727	-3.25
2736.237	-0.25
2739.744	-2.25
2743.249	-0.25
2746.75	-1.25
2750.248	-0.25
2753.743	-2.25
2757.236	-3.25
2760.725	2.75
2764.211	3.75
2767.695	2.75
2771.175	5.75
2774.652	0.75
2778.127	2.75
2781.598	2.75
2785.067	3.75
2788.532	1.75
2791.995	-0.25
2795.455	-0.25
2798.911	-2.25
2802.365	-1.25
2805.816	-0.25
2809.264	-2.25
2812.709	-4.25
2816.151	-3.25
2819.59	-1.25
2823.026	-3.25
2826.46	-0.25
2829.89	1.75
2833.318	1.75
2836.742	1.75
2840.164	3.75
2843.583	3.75
2846.999	3.75
2850.412	2.75
2853.822	-1.25
2857.229	0.75
2860.634	0.75
2864.035	-0.25
2867.434	-0.25
2870.83	-2.25
2874.223	0.75
2877.613	-2.25
2881	2.75
2884.385	-0.25
2887.766	-2.25
2891.145	-1.25
2894.521	-1.25
2897.894	3.75
2901.264	-2.25
2904.631	0.75
2907.996	5.75
2911.358	3.75
2914.717	5.75
2918.073	2.75
2921.426	2.75
2924.777	0.75
2928.124	5.75
2931.469	-0.25
2934.811	1.75
2938.15	0.75
2941.487	-1.25
2944.821	-4.25
2948.152	-5.25
2951.48	-1.25
2954.805	-5.25
2958.128	-2.25
2961.447	-4.25
2964.765	-0.25
2968.079	1.75
2971.39	0.75
2974.699	4.75
2978.005	0.75
2981.308	3.75
2984.609	2.75
2987.907	2.75
2991.202	4.75
2994.494	1.75
2997.784	2.75
3001.07	0.75
3004.355	0.75
3007.636	0.75
3010.915	1.75
3014.191	0.75
3017.464	-0.25
3020.734	-0.25
3024.002	-3.25
3027.267	-1.25
3030.53	0.75
3033.789	-1.25
3037.046	-3.25
3040.301	-0.25
3043.552	-0.25
3046.801	1.75
3050.048	-0.25
3053.291	0.75
3056.532	1.75
3059.771	2.75
3063.006	4.75
3066.239	5.75
3069.469	4.75
3072.697	5.75
3075.922	1.75
3079.144	2.75
3082.364	1.75
3085.581	2.75
3088.795	-0.25
3092.007	-1.25
3095.216	0.75
3098.423	-2.25
3101.627	0.75
3104.828	-2.25
3108.026	-3.25
3111.222	-0.25
3114.416	-5.25
3117.607	3.75
3120.795	-5.25
3123.98	-0.25
3127.163	1.75
3130.344	2.75
3133.521	0.75
3136.696	6.75
3139.869	2.75
3143.039	2.75
3146.206	0.75
3149.371	3.75
3152.533	1.75
3155.693	-0.25
3158.85	-2.25
3162.005	-0.25
3165.157	0.75
3168.306	1.75
3171.453	-1.25
3174.597	-3.25
3177.739	-0.25
3180.878	-0.25
3184.014	-0.25
3187.149	-2.25
3190.28	-1.25
3193.409	1.75
3196.536	0.75
3199.659	0.75
3202.781	2.75
3205.9	8.75
3209.016	2.75
3212.13	-0.25
3215.241	-0.25
3218.35	3.75
3221.456	-0.25
3224.56	1.75
3227.661	2.75
3230.76	-1.25
3233.856	0.75
3236.95	1.75
3240.041	-4.25
3243.13	-3.25
3246.216	-3.25
3249.3	-1.25
3252.382	-0.25
3255.46	-1.25
3258.537	-0.25
3261.611	-2.25
3264.682	-0.25
3267.751	1.75
3270.818	2.75
3273.882	5.75
3276.943	3.75
3280.002	4.75
3283.059	3.75
3286.113	3.75
3289.165	3.75
3292.214	0.75
3295.261	-0.25
3298.306	0.75
3301.348	-1.25
3304.387	1.75
3307.425	-4.25
3310.459	0.75
3313.492	-1.25
3316.521	-4.25
3319.549	-6.25
3322.574	-2.25
3325.597	-1.25
3328.617	-2.25
3331.635	-4.25
3334.65	2.75
3337.663	-0.25
3340.674	-1.25
3343.682	-0.25
3346.688	5.75
3349.691	0.75
3352.692	3.75
3355.691	0.75
3358.687	2.75
3361.681	1.75
3364.673	5.75
3367.662	0.75
3370.649	-0.25
3373.633	0.75
3376.615	-2.25
3379.595	0.75
3382.572	-3.25
3385.547	-0.25
3388.52	1.75
3391.49	0.75
3394.458	0.75
3397.424	-3.25
3400.387	-2.25
3403.348	1.75
3406.307	-1.25
3409.263	-0.25
3412.217	-1.25
3415.168	3.75
3418.118	2.75
3421.065	4.75
3424.009	1.75
3426.951	3.75
3429.891	2.75
3432.829	1.75
3435.764	0.75
3438.697	0.75
3441.628	0.75
3444.557	-0.25
3447.483	0.75
3450.407	-2.25
3453.328	-4.25
3456.247	-3.25
3459.164	-1.25
3462.079	1.75
3464.991	-0.25
3467.902	-2.25
3470.809	0.75
3473.715	2.75
3476.618	0.75
3479.519	3.75
3482.418	-1.25
3485.315	3.75
3488.209	2.75
3491.101	2.75
3493.99	1.75
3496.878	4.75
3499.763	1.75
3502.646	1.75
3505.527	0.75
3508.405	0.75
3511.281	-0.25
3514.155	-2.25
3517.027	-0.25
3519.897	-3.25
3522.764	-1.25
3525.629	-2.25
3528.492	1.75
3531.352	-2.25
3534.211	-0.25
3537.067	2.75
3539.921	1.75
3542.773	4.75
3545.622	2.75
3548.469	-0.25
3551.315	5.75
3554.157	2.75
3556.998	4.75
3559.837	2.75
3562.673	-1.25
3565.507	-0.25
3568.339	-0.25
3571.169	-0.25
3573.996	0.75
3576.822	-3.25
3579.645	-1.25
3582.466	-3.25
3585.285	0.75
3588.101	-1.25
3590.916	1.75
3593.728	-0.25
3596.538	0.75
3599.346	0.75
3602.152	1.75
3604.956	2.75
3607.757	1.75
3610.556	3.75
3613.354	5.75
3616.149	1.75
3618.942	1.75
3621.732	-1.25
3624.521	-0.25
3627.307	-2.25
3630.092	-1.25
3632.874	-0.25
3635.654	0.75
3638.432	-2.25
3641.208	-0.25
3643.982	-2.25
3646.753	0.75
3649.523	-8.25
3652.29	-3.25
3655.055	-0.25
3657.818	4.75
3660.579	-3.25
3663.338	1.75
3666.095	3.75
3668.849	-0.25
3671.602	0.75
3674.352	3.75
3677.101	1.75
3679.847	3.75
3682.591	-0.25
3685.333	2.75
3688.073	-0.25
3690.811	1.75
3693.547	-3.25
3696.281	-2.25
3699.013	-0.25
3701.742	-0.25
3704.47	0.75
3707.195	-0.25
3709.919	0.75
3712.64	0.75
3715.359	3.75
3718.076	3.75
3720.792	0.75
3723.505	1.75
3726.216	1.75
3728.925	0.75
3731.632	2.75
3734.336	1.75
3737.039	-0.25
3739.74	4.75
3742.439	0.75
3745.136	-4.25
3747.83	-3.25
3750.523	-1.25
3753.213	-4.25
3755.902	-1.25
3758.589	0.75
3761.273	-2.25
3763.956	-0.25
3766.636	-1.25
3769.315	-1.25
3771.991	0.75
3774.665	2.75
3777.338	-0.25
3780.008	3.75
3782.677	2.75
3785.343	0.75
3788.007	2.75
3790.67	0.75
3793.33	-1.25
3795.989	-3.25
3798.645	-0.25
3801.299	-1.25
3803.952	-4.25
3806.602	0.75
3809.251	-4.25
3811.897	-1.25
3814.542	0.75
3817.184	-4.25
3819.825	-2.25
3822.463	1.75
3825.1	3.75
3827.735	-2.25
3830.367	4.75
3832.998	2.75
3835.627	3.75
3838.253	1.75
3840.878	0.75
3843.501	-0.25
3846.122	-0.25
3848.741	-3.25
3851.358	1.75
3853.973	0.75
3856.586	-3.25
3859.197	-0.25
3861.806	-0.25
3864.414	0.75
3867.019	0.75
3869.622	-1.25
3872.224	-2.25
3874.823	1.75
3877.421	2.75
3880.016	0.75
3882.61	2.75
3885.202	1.75
3887.792	0.75
3890.38	-0.25
3892.966	3.75
3895.55	2.75
3898.132	-0.25
3900.713	0.75
3903.291	0.75
3905.868	0.75
3908.442	0.75
3911.015	0.75
3913.586	-1.25
3916.155	2.75
3918.722	-1.25
3921.287	-1.25
3923.85	-0.25
3926.411	1.75
3928.971	-1.25
3931.528	-0.25
3934.084	2.75
3936.638	0.75
3939.19	4.75
3941.74	3.75
3944.288	3.75
3946.834	0.75
3949.378	1.75
3951.921	2.75
3954.462	0.75
3957	-4.25
3959.537	0.75
3962.072	-2.25
3964.606	-2.25
3967.137	2.75
3969.667	0.75
3972.194	-0.25
3974.72	2.75
3977.244	0.75
3979.766	2.75
3982.286	1.75
3984.805	4.75
3987.321	0.75
3989.836	2.75
3992.349	-1.25
3994.86	3.75
3997.369	-2.25
3999.877	2.75
4002.382	-1.25
4004.886	-3.25
4007.388	1.75
4009.888	-0.25
4012.386	1.75
4014.883	-3.25
4017.377	-4.25
4019.87	0.75
4022.361	2.75
4024.85	0.75
4027.338	0.75
4029.823	-2.25
4032.307	1.75
4034.789	3.75
4037.269	-1.25
4039.747	0.75
4042.224	-0.25
4044.699	1.75
4047.172	2.75
4049.643	4.75
4052.112	-1.25
4054.58	2.75
4057.046	-1.25
4059.51	-1.25
4061.972	-2.25
4064.432	-1.25
4066.891	-1.25
4069.348	-3.25
4071.803	0.75
4074.256	1.75
4076.708	4.75
4079.158	3.75
4081.606	0.75
4084.052	4.75
4086.497	3.75
4088.939	4.75
4091.38	-1.25
4093.819	0.75
4096.257	-0.25
4098.693	2.75
4101.127	-0.25
4103.559	1.75
4105.989	-2.25
4108.418	-3.25
4110.845	-0.25
4113.27	-1.25
4115.694	1.75
4118.115	-1.25
4120.535	3.75
4122.954	-0.25
4125.37	2.75
4127.785	1.75
4130.198	2.75
4132.609	-2.25
4135.019	2.75
4137.427	-0.25
4139.833	1.75
4142.237	-3.25
