Data from I0.5_T15s_Bsub_water_1-10^2_1_RamanShift_1.txt Node
Date: Mon Mar 13 14:26:32 IST 2017
User: aro
Spectrometer: QEPB0276
Trigger mode: 0
Integration Time (sec): 1.500000E1
Scans to average: 1
Electric dark correction enabled: true
Nonlinearity correction enabled: false
Boxcar width: 0
XAxis mode: Raman Shifts
Number of Pixels in Spectrum: 1044
>>>>>Begin Spectral Data<<<<<
160.701	-30.75
166.742	1.25
172.777	98.25
178.805	420.25
184.826	1223.25
190.841	2637.25
196.849	4245.25
202.85	5254.25
208.845	5539.25
214.833	5390.25
220.815	5244.25
226.789	5153.25
232.758	5076.25
238.719	4925.25
244.674	4690.25
250.623	4358.25
256.565	4077.25
262.5	3858.25
268.429	3759.25
274.351	3908.25
280.267	4013.25
286.176	3919.25
292.079	3861.25
297.975	3739.25
303.865	3648.25
309.748	3586.25
315.625	3501.25
321.495	3451.25
327.359	3391.25
333.217	3328.25
339.068	3303.25
344.912	3290.25
350.751	3272.25
356.583	3252.25
362.408	3222.25
368.227	3209.25
374.04	3180.25
379.847	3184.25
385.647	3125.25
391.44	2928.25
397.228	2657.25
403.009	2318.25
408.784	1984.25
414.553	1419.25
420.315	858.25
426.071	1537.25
431.821	2707.25
437.565	3133.25
443.302	3163.25
449.033	3168.25
454.758	3165.25
460.477	3164.25
466.189	3167.25
471.896	3123.25
477.596	3111.25
483.29	3117.25
488.978	3106.25
494.66	3068.25
500.335	3073.25
506.005	3030.25
511.668	2975.25
517.325	2941.25
522.977	2907.25
528.622	2864.25
534.261	2835.25
539.894	2833.25
545.521	2799.25
551.141	2804.25
556.756	2787.25
562.365	2775.25
567.968	2799.25
573.565	2766.25
579.155	2751.25
584.74	2747.25
590.319	2740.25
595.892	2725.25
601.459	2698.25
607.02	2682.25
612.575	2680.25
618.124	2625.25
623.667	2634.25
629.204	2555.25
634.735	2390.25
640.261	2228.25
645.781	2241.25
651.294	2433.25
656.802	2546.25
662.304	2560.25
667.8	2565.25
673.29	2552.25
678.775	2559.25
684.254	2542.25
689.726	2541.25
695.193	2537.25
700.655	2512.25
706.11	2511.25
711.56	2506.25
717.004	2489.25
722.442	2479.25
727.874	2470.25
733.301	2480.25
738.722	2460.25
744.137	2457.25
749.547	2472.25
754.951	2438.25
760.349	2446.25
765.741	2462.25
771.128	2453.25
776.509	2486.25
781.885	2459.25
787.254	2465.25
792.618	2472.25
797.977	2465.25
803.33	2438.25
808.677	2411.25
814.019	2391.25
819.355	2374.25
824.686	2362.25
830.011	2342.25
835.33	2285.25
840.644	2037.25
845.952	1612.25
851.255	1552.25
856.552	1844.25
861.844	1985.25
867.13	1465.25
872.41	958.25
877.686	1351.25
882.955	2044.25
888.219	2281.25
893.478	2272.25
898.731	2249.25
903.979	2223.25
909.221	2235.25
914.458	2236.25
919.69	2249.25
924.916	2219.25
930.136	2250.25
935.351	2246.25
940.561	2236.25
945.766	2231.25
950.965	2256.25
956.158	2206.25
961.347	2201.25
966.529	2181.25
971.707	2160.25
976.879	2140.25
982.046	2111.25
987.208	2096.25
992.364	2105.25
997.515	2041.25
1002.66	1875.25
1007.801	1755.25
1012.936	1912.25
1018.066	2171.25
1023.19	2215.25
1028.309	2218.25
1033.423	2260.25
1038.532	2258.25
1043.636	2225.25
1048.734	2178.25
1053.827	2182.25
1058.915	2174.25
1063.998	2173.25
1069.075	2180.25
1074.147	2185.25
1079.214	2186.25
1084.276	2198.25
1089.333	2222.25
1094.385	2235.25
1099.431	2241.25
1104.472	2269.25
1109.509	2259.25
1114.54	2218.25
1119.565	2209.25
1124.586	2180.25
1129.602	2158.25
1134.613	2149.25
1139.618	2145.25
1144.619	2130.25
1149.614	2116.25
1154.604	2142.25
1159.589	2153.25
1164.57	2177.25
1169.545	2182.25
1174.515	2213.25
1179.48	2192.25
1184.44	2182.25
1189.395	2174.25
1194.345	2174.25
1199.29	2125.25
1204.23	2052.25
1209.165	2093.25
1214.095	2184.25
1219.021	2211.25
1223.941	2226.25
1228.856	2241.25
1233.766	2244.25
1238.672	2242.25
1243.572	2248.25
1248.467	2270.25
1253.358	2252.25
1258.244	2188.25
1263.124	2171.25
1268	2109.25
1272.871	2097.25
1277.737	2102.25
1282.599	2112.25
1287.455	2125.25
1292.306	2120.25
1297.153	2176.25
1301.995	2179.25
1306.832	2203.25
1311.664	2191.25
1316.491	2198.25
1321.314	2180.25
1326.132	2154.25
1330.945	2115.25
1335.753	2101.25
1340.556	2095.25
1345.354	2039.25
1350.148	2024.25
1354.937	2013.25
1359.722	2019.25
1364.501	2041.25
1369.276	2059.25
1374.046	2055.25
1378.811	2075.25
1383.572	2101.25
1388.327	2085.25
1393.079	2066.25
1397.825	2043.25
1402.567	2026.25
1407.304	2001.25
1412.036	1992.25
1416.764	1969.25
1421.487	1970.25
1426.205	1975.25
1430.919	1997.25
1435.628	2019.25
1440.333	2036.25
1445.032	2019.25
1449.727	2057.25
1454.418	2081.25
1459.104	2074.25
1463.785	2026.25
1468.462	2041.25
1473.134	2030.25
1477.802	1987.25
1482.465	2004.25
1487.123	1983.25
1491.777	1995.25
1496.426	2009.25
1501.071	2032.25
1505.711	2055.25
1510.347	2069.25
1514.978	2109.25
1519.604	2107.25
1524.226	2135.25
1528.844	2138.25
1533.457	2132.25
1538.065	2124.25
1542.669	2133.25
1547.269	2122.25
1551.864	2125.25
1556.454	2103.25
1561.041	2122.25
1565.622	2128.25
1570.199	2150.25
1574.772	2155.25
1579.34	2177.25
1583.904	2215.25
1588.464	2218.25
1593.019	2228.25
1597.569	2266.25
1602.115	2230.25
1606.657	2221.25
1611.195	2238.25
1615.728	2267.25
1620.256	2266.25
1624.78	2261.25
1629.3	2293.25
1633.816	2298.25
1638.327	2338.25
1642.834	2362.25
1647.336	2365.25
1651.834	2410.25
1656.328	2385.25
1660.817	2375.25
1665.302	2378.25
1669.783	2304.25
1674.259	2294.25
1678.732	2245.25
1683.199	2190.25
1687.663	2123.25
1692.122	2070.25
1696.577	2021.25
1701.028	2016.25
1705.474	1978.25
1709.917	1981.25
1714.355	1939.25
1718.788	1903.25
1723.218	1899.25
1727.643	1886.25
1732.064	1847.25
1736.481	1819.25
1740.893	1801.25
1745.301	1758.25
1749.705	1715.25
1754.105	1679.25
1758.501	1630.25
1762.893	1616.25
1767.28	1521.25
1771.663	1365.25
1776.042	541.25
1780.417	-466.75
1784.787	48.25
1789.154	1247.25
1793.516	1554.25
1797.874	1606.25
1802.228	1655.25
1806.578	1671.25
1810.924	1660.25
1815.266	1661.25
1819.603	1620.25
1823.937	1625.25
1828.266	1580.25
1832.591	1579.25
1836.913	1566.25
1841.23	1561.25
1845.543	1569.25
1849.852	1570.25
1854.156	1564.25
1858.457	1554.25
1862.754	1567.25
1867.047	1561.25
1871.335	1567.25
1875.62	1589.25
1879.9	1579.25
1884.177	1583.25
1888.449	1556.25
1892.718	1513.25
1896.982	1300.25
1901.243	1079.25
1905.499	1192.25
1909.752	1475.25
1914	1539.25
1918.245	1544.25
1922.485	1535.25
1926.722	1534.25
1930.954	1573.25
1935.183	1587.25
1939.408	1576.25
1943.628	1611.25
1947.845	1602.25
1952.058	1615.25
1956.267	1593.25
1960.472	1578.25
1964.673	1575.25
1968.87	1556.25
1973.063	1568.25
1977.252	1543.25
1981.438	1531.25
1985.619	1489.25
1989.797	1528.25
1993.971	1515.25
1998.14	1508.25
2002.306	1523.25
2006.469	1538.25
2010.627	1527.25
2014.781	1549.25
2018.932	1552.25
2023.078	1538.25
2027.221	1522.25
2031.36	1513.25
2035.495	1495.25
2039.627	1487.25
2043.754	1463.25
2047.878	1453.25
2051.998	1426.25
2056.114	1455.25
2060.226	1461.25
2064.334	1473.25
2068.439	1493.25
2072.54	1484.25
2076.637	1507.25
2080.73	1508.25
2084.82	1498.25
2088.906	1498.25
2092.988	1509.25
2097.066	1479.25
2101.14	1488.25
2105.211	1478.25
2109.278	1463.25
2113.342	1457.25
2117.401	1458.25
2121.457	1448.25
2125.509	1441.25
2129.558	1445.25
2133.602	1443.25
2137.643	1439.25
2141.681	1424.25
2145.714	1427.25
2149.744	1430.25
2153.77	1425.25
2157.793	1402.25
2161.812	1387.25
2165.827	1387.25
2169.838	1379.25
2173.846	1344.25
2177.851	1327.25
2181.851	1319.25
2185.848	1307.25
2189.841	1311.25
2193.831	1298.25
2197.817	1290.25
2201.799	1265.25
2205.778	1278.25
2209.753	1274.25
2213.725	1285.25
2217.693	1275.25
2221.657	1278.25
2225.618	1274.25
2229.575	1273.25
2233.529	1285.25
2237.479	1287.25
2241.425	1240.25
2245.368	1252.25
2249.307	1243.25
2253.243	1226.25
2257.175	1207.25
2261.104	1185.25
2265.029	1195.25
2268.95	1172.25
2272.868	1171.25
2276.783	1163.25
2280.694	1150.25
2284.601	1136.25
2288.505	1137.25
2292.405	1113.25
2296.302	1104.25
2300.195	1088.25
2304.085	1091.25
2307.971	1074.25
2311.854	1072.25
2315.734	1045.25
2319.609	1029.25
2323.482	1025.25
2327.351	1009.25
2331.216	1002.25
2335.078	996.25
2338.937	977.25
2342.792	976.25
2346.643	969.25
2350.492	978.25
2354.336	987.25
2358.178	977.25
2362.015	971.25
2365.85	978.25
2369.681	961.25
2373.508	968.25
2377.333	943.25
2381.153	890.25
2384.971	672.25
2388.785	610.25
2392.595	790.25
2396.402	896.25
2400.206	932.25
2404.007	934.25
2407.804	938.25
2411.597	929.25
2415.388	924.25
2419.174	925.25
2422.958	928.25
2426.738	940.25
2430.515	939.25
2434.289	931.25
2438.059	930.25
2441.825	929.25
2445.589	921.25
2449.349	904.25
2453.106	903.25
2456.859	907.25
2460.61	889.25
2464.356	893.25
2468.1	871.25
2471.84	866.25
2475.577	867.25
2479.311	857.25
2483.041	848.25
2486.768	861.25
2490.492	877.25
2494.213	876.25
2497.93	878.25
2501.644	869.25
2505.355	857.25
2509.062	869.25
2512.766	862.25
2516.467	833.25
2520.165	793.25
2523.859	803.25
2527.551	822.25
2531.239	822.25
2534.923	814.25
2538.605	813.25
2542.283	813.25
2545.958	814.25
2549.63	827.25
2553.299	822.25
2556.964	813.25
2560.626	811.25
2564.285	806.25
2567.941	812.25
2571.594	799.25
2575.243	785.25
2578.89	783.25
2582.533	785.25
2586.173	776.25
2589.809	766.25
2593.443	768.25
2597.073	766.25
2600.701	762.25
2604.325	746.25
2607.946	747.25
2611.564	746.25
2615.178	748.25
2618.79	745.25
2622.398	748.25
2626.004	745.25
2629.606	760.25
2633.205	733.25
2636.801	732.25
2640.394	721.25
2643.983	724.25
2647.57	699.25
2651.153	705.25
2654.734	696.25
2658.311	676.25
2661.885	685.25
2665.456	676.25
2669.025	661.25
2672.589	664.25
2676.151	655.25
2679.71	655.25
2683.266	641.25
2686.819	648.25
2690.368	639.25
2693.915	633.25
2697.458	619.25
2700.999	617.25
2704.536	600.25
2708.071	584.25
2711.602	582.25
2715.13	588.25
2718.656	579.25
2722.178	570.25
2725.697	574.25
2729.214	570.25
2732.727	568.25
2736.237	575.25
2739.744	568.25
2743.249	575.25
2746.75	579.25
2750.248	585.25
2753.743	589.25
2757.236	581.25
2760.725	585.25
2764.211	569.25
2767.695	574.25
2771.175	561.25
2774.652	559.25
2778.127	553.25
2781.598	552.25
2785.067	540.25
2788.532	523.25
2791.995	528.25
2795.455	518.25
2798.911	505.25
2802.365	507.25
2805.816	491.25
2809.264	492.25
2812.709	496.25
2816.151	484.25
2819.59	476.25
2823.026	462.25
2826.46	463.25
2829.89	452.25
2833.318	447.25
2836.742	416.25
2840.164	411.25
2843.583	396.25
2846.999	351.25
2850.412	331.25
2853.822	309.25
2857.229	269.25
2860.634	212.25
2864.035	117.25
2867.434	24.25
2870.83	-172.75
2874.223	-954.75
2877.613	-2683.75
2881	-2962.75
2884.385	-1342.75
2887.766	-282.75
2891.145	-24.75
2894.521	113.25
2897.894	201.25
2901.264	241.25
2904.631	295.25
2907.996	329.25
2911.358	364.25
2914.717	384.25
2918.073	396.25
2921.426	408.25
2924.777	424.25
2928.124	439.25
2931.469	444.25
2934.811	454.25
2938.15	435.25
2941.487	431.25
2944.821	426.25
2948.152	433.25
2951.48	417.25
2954.805	431.25
2958.128	443.25
2961.447	460.25
2964.765	479.25
2968.079	489.25
2971.39	502.25
2974.699	501.25
2978.005	513.25
2981.308	527.25
2984.609	534.25
2987.907	533.25
2991.202	541.25
2994.494	539.25
2997.784	518.25
3001.07	505.25
3004.355	502.25
3007.636	523.25
3010.915	527.25
3014.191	550.25
3017.464	584.25
3020.734	605.25
3024.002	630.25
3027.267	651.25
3030.53	655.25
3033.789	676.25
3037.046	686.25
3040.301	691.25
3043.552	699.25
3046.801	707.25
3050.048	729.25
3053.291	729.25
3056.532	748.25
3059.771	747.25
3063.006	752.25
3066.239	740.25
3069.469	746.25
3072.697	779.25
3075.922	782.25
3079.144	822.25
3082.364	861.25
3085.581	886.25
3088.795	916.25
3092.007	928.25
3095.216	949.25
3098.423	975.25
3101.627	993.25
3104.828	1012.25
3108.026	1025.25
3111.222	1034.25
3114.416	1047.25
3117.607	1065.25
3120.795	1083.25
3123.98	1077.25
3127.163	1092.25
3130.344	1099.25
3133.521	1115.25
3136.696	1142.25
3139.869	1173.25
3143.039	1215.25
3146.206	1235.25
3149.371	1259.25
3152.533	1254.25
3155.693	1270.25
3158.85	1286.25
3162.005	1288.25
3165.157	1284.25
3168.306	1294.25
3171.453	1288.25
3174.597	1271.25
3177.739	1243.25
3180.878	1232.25
3184.014	1208.25
3187.149	1202.25
3190.28	1203.25
3193.409	1208.25
3196.536	1217.25
3199.659	1244.25
3202.781	1264.25
3205.9	1287.25
3209.016	1296.25
3212.13	1301.25
3215.241	1300.25
3218.35	1284.25
3221.456	1277.25
3224.56	1262.25
3227.661	1250.25
3230.76	1238.25
3233.856	1214.25
3236.95	1194.25
3240.041	1169.25
3243.13	1146.25
3246.216	1140.25
3249.3	1119.25
3252.382	1124.25
3255.46	1157.25
3258.537	1152.25
3261.611	1155.25
3264.682	1166.25
3267.751	1169.25
3270.818	1168.25
3273.882	1175.25
3276.943	1161.25
3280.002	1156.25
3283.059	1157.25
3286.113	1124.25
3289.165	1107.25
3292.214	1078.25
3295.261	1070.25
3298.306	1024.25
3301.348	993.25
3304.387	967.25
3307.425	952.25
3310.459	925.25
3313.492	910.25
3316.521	904.25
3319.549	936.25
3322.574	921.25
3325.597	931.25
3328.617	917.25
3331.635	914.25
3334.65	912.25
3337.663	918.25
3340.674	894.25
3343.682	892.25
3346.688	885.25
3349.691	864.25
3352.692	855.25
3355.691	796.25
3358.687	768.25
3361.681	748.25
3364.673	732.25
3367.662	712.25
3370.649	705.25
3373.633	704.25
3376.615	746.25
3379.595	749.25
3382.572	764.25
3385.547	767.25
3388.52	761.25
3391.49	752.25
3394.458	742.25
3397.424	733.25
3400.387	725.25
3403.348	708.25
3406.307	714.25
3409.263	684.25
3412.217	668.25
3415.168	629.25
3418.118	590.25
3421.065	569.25
3424.009	527.25
3426.951	500.25
3429.891	488.25
3432.829	468.25
3435.764	471.25
3438.697	470.25
3441.628	470.25
3444.557	475.25
3447.483	454.25
3450.407	452.25
3453.328	448.25
3456.247	417.25
3459.164	406.25
3462.079	373.25
3464.991	330.25
3467.902	276.25
3470.809	193.25
3473.715	65.25
3476.618	-70.75
3479.519	-270.75
3482.418	-486.75
3485.315	-678.75
3488.209	-840.75
3491.101	-891.75
3493.99	-861.75
3496.878	-819.75
3499.763	-781.75
3502.646	-817.75
3505.527	-879.75
3508.405	-939.75
3511.281	-897.75
3514.155	-816.75
3517.027	-738.75
3519.897	-667.75
3522.764	-647.75
3525.629	-653.75
3528.492	-689.75
3531.352	-772.75
3534.211	-912.75
3537.067	-1095.75
3539.921	-1260.75
3542.773	-1388.75
3545.622	-1456.75
3548.469	-1393.75
3551.315	-1274.75
3554.157	-1088.75
3556.998	-900.75
3559.837	-745.75
3562.673	-606.75
3565.507	-506.75
3568.339	-432.75
3571.169	-385.75
3573.996	-365.75
3576.822	-373.75
3579.645	-524.75
3582.466	-1160.75
3585.285	-1769.75
3588.101	-1738.75
3590.916	-1164.75
3593.728	-820.75
3596.538	-815.75
3599.346	-896.75
3602.152	-988.75
3604.956	-1045.75
3607.757	-1039.75
3610.556	-1016.75
3613.354	-954.75
3616.149	-879.75
3618.942	-781.75
3621.732	-712.75
3624.521	-647.75
3627.307	-575.75
3630.092	-545.75
3632.874	-502.75
3635.654	-477.75
3638.432	-470.75
3641.208	-479.75
3643.982	-491.75
3646.753	-528.75
3649.523	-587.75
3652.29	-614.75
3655.055	-636.75
3657.818	-661.75
3660.579	-671.75
3663.338	-636.75
3666.095	-595.75
3668.849	-532.75
3671.602	-474.75
3674.352	-408.75
3677.101	-350.75
3679.847	-302.75
3682.591	-260.75
3685.333	-228.75
3688.073	-207.75
3690.811	-185.75
3693.547	-184.75
3696.281	-170.75
3699.013	-169.75
3701.742	-161.75
3704.47	-166.75
3707.195	-164.75
3709.919	-166.75
3712.64	-170.75
3715.359	-171.75
3718.076	-172.75
3720.792	-160.75
3723.505	-164.75
3726.216	-153.75
3728.925	-142.75
3731.632	-141.75
3734.336	-135.75
3737.039	-126.75
3739.74	-125.75
3742.439	-126.75
3745.136	-121.75
3747.83	-117.75
3750.523	-121.75
3753.213	-118.75
3755.902	-119.75
3758.589	-124.75
3761.273	-121.75
3763.956	-128.75
3766.636	-135.75
3769.315	-140.75
3771.991	-144.75
3774.665	-148.75
3777.338	-151.75
3780.008	-159.75
3782.677	-163.75
3785.343	-153.75
3788.007	-161.75
3790.67	-154.75
3793.33	-154.75
3795.989	-147.75
3798.645	-146.75
3801.299	-138.75
3803.952	-141.75
3806.602	-140.75
3809.251	-130.75
3811.897	-132.75
3814.542	-128.75
3817.184	-133.75
3819.825	-130.75
3822.463	-130.75
3825.1	-129.75
3827.735	-129.75
3830.367	-130.75
3832.998	-135.75
3835.627	-125.75
3838.253	-131.75
3840.878	-128.75
3843.501	-132.75
3846.122	-130.75
3848.741	-128.75
3851.358	-130.75
3853.973	-128.75
3856.586	-130.75
3859.197	-125.75
3861.806	-129.75
3864.414	-127.75
3867.019	-126.75
3869.622	-122.75
3872.224	-126.75
3874.823	-125.75
3877.421	-124.75
3880.016	-128.75
3882.61	-127.75
3885.202	-127.75
3887.792	-129.75
3890.38	-128.75
3892.966	-131.75
3895.55	-133.75
3898.132	-131.75
3900.713	-132.75
3903.291	-128.75
3905.868	-132.75
3908.442	-122.75
3911.015	-123.75
3913.586	-124.75
3916.155	-121.75
3918.722	-121.75
3921.287	-124.75
3923.85	-128.75
3926.411	-125.75
3928.971	-123.75
3931.528	-128.75
3934.084	-129.75
3936.638	-132.75
3939.19	-129.75
3941.74	-126.75
3944.288	-129.75
3946.834	-132.75
3949.378	-126.75
3951.921	-134.75
3954.462	-125.75
3957	-128.75
3959.537	-127.75
3962.072	-129.75
3964.606	-130.75
3967.137	-126.75
3969.667	-124.75
3972.194	-124.75
3974.72	-124.75
3977.244	-123.75
3979.766	-116.75
3982.286	-116.75
3984.805	-117.75
3987.321	-119.75
3989.836	-121.75
3992.349	-121.75
3994.86	-120.75
3997.369	-123.75
3999.877	-122.75
4002.382	-124.75
4004.886	-124.75
4007.388	-118.75
4009.888	-124.75
4012.386	-125.75
4014.883	-119.75
4017.377	-120.75
4019.87	-122.75
4022.361	-119.75
4024.85	-120.75
4027.338	-115.75
4029.823	-116.75
4032.307	-118.75
4034.789	-121.75
4037.269	-122.75
4039.747	-119.75
4042.224	-122.75
4044.699	-119.75
4047.172	-116.75
4049.643	-125.75
4052.112	-117.75
4054.58	-127.75
4057.046	-124.75
4059.51	-126.75
4061.972	-127.75
4064.432	-127.75
4066.891	-126.75
4069.348	-138.75
4071.803	-149.75
4074.256	-232.75
4076.708	-349.75
4079.158	-355.75
4081.606	-257.75
4084.052	-194.75
4086.497	-159.75
4088.939	-145.75
4091.38	-140.75
4093.819	-139.75
4096.257	-124.75
4098.693	-119.75
4101.127	-122.75
4103.559	-118.75
4105.989	-80.75
4108.418	-75.75
4110.845	-72.75
4113.27	-66.75
4115.694	-60.75
4118.115	-45.75
4120.535	-132.75
4122.954	-131.75
4125.37	-130.75
4127.785	-141.75
4130.198	-183.75
4132.609	-231.75
4135.019	-123.75
4137.427	-120.75
4139.833	-122.75
4142.237	-121.75
