Data from I0.5_T10s_Bsub_water_1-10^2_2_RamanShift_1.txt Node
Date: Mon Mar 13 14:08:47 IST 2017
User: aro
Spectrometer: QEPB0276
Trigger mode: 0
Integration Time (sec): 1.000000E1
Scans to average: 1
Electric dark correction enabled: true
Nonlinearity correction enabled: false
Boxcar width: 0
XAxis mode: Raman Shifts
Number of Pixels in Spectrum: 1044
>>>>>Begin Spectral Data<<<<<
160.701	-24.75
166.742	3.25
172.777	79.25
178.805	290.25
184.826	828.25
190.841	1761.25
196.849	2843.25
202.85	3542.25
208.845	3713.25
214.833	3615.25
220.815	3530.25
226.789	3471.25
232.758	3419.25
238.719	3394.25
244.674	3297.25
250.623	3213.25
256.565	3112.25
262.5	3029.25
268.429	2930.25
274.351	2875.25
280.267	2829.25
286.176	2781.25
292.079	2713.25
297.975	2644.25
303.865	2587.25
309.748	2544.25
315.625	2484.25
321.495	2449.25
327.359	2409.25
333.217	2375.25
339.068	2368.25
344.912	2335.25
350.751	2299.25
356.583	2293.25
362.408	2290.25
368.227	2262.25
374.04	2290.25
379.847	2287.25
385.647	2259.25
391.44	2261.25
397.228	2269.25
403.009	2260.25
408.784	2284.25
414.553	2260.25
420.315	2270.25
426.071	2279.25
431.821	2263.25
437.565	2284.25
443.302	2247.25
449.033	2253.25
454.758	2250.25
460.477	2245.25
466.189	2234.25
471.896	2219.25
477.596	2232.25
483.29	2217.25
488.978	2205.25
494.66	2194.25
500.335	2168.25
506.005	2162.25
511.668	2144.25
517.325	2108.25
522.977	2084.25
528.622	2063.25
534.261	2052.25
539.894	2046.25
545.521	2041.25
551.141	2036.25
556.756	2034.25
562.365	2032.25
567.968	2009.25
573.565	2031.25
579.155	2016.25
584.74	2000.25
590.319	1991.25
595.892	1967.25
601.459	1962.25
607.02	1959.25
612.575	1950.25
618.124	1941.25
623.667	1937.25
629.204	1913.25
634.735	1896.25
640.261	1895.25
645.781	1917.25
651.294	1911.25
656.802	1886.25
662.304	1886.25
667.8	1906.25
673.29	1869.25
678.775	1898.25
684.254	1876.25
689.726	1858.25
695.193	1866.25
700.655	1868.25
706.11	1850.25
711.56	1847.25
717.004	1870.25
722.442	1835.25
727.874	1835.25
733.301	1833.25
738.722	1825.25
744.137	1811.25
749.547	1827.25
754.951	1819.25
760.349	1835.25
765.741	1829.25
771.128	1834.25
776.509	1846.25
781.885	1832.25
787.254	1835.25
792.618	1842.25
797.977	1831.25
803.33	1802.25
808.677	1822.25
814.019	1801.25
819.355	1797.25
824.686	1782.25
830.011	1787.25
835.33	1783.25
840.644	1793.25
845.952	1777.25
851.255	1786.25
856.552	1798.25
861.844	1793.25
867.13	1801.25
872.41	1794.25
877.686	1781.25
882.955	1777.25
888.219	1759.25
893.478	1744.25
898.731	1733.25
903.979	1708.25
909.221	1717.25
914.458	1704.25
919.69	1721.25
924.916	1707.25
930.136	1691.25
935.351	1737.25
940.561	1721.25
945.766	1730.25
950.965	1736.25
956.158	1710.25
961.347	1711.25
966.529	1686.25
971.707	1659.25
976.879	1655.25
982.046	1634.25
987.208	1641.25
992.364	1629.25
997.515	1657.25
1002.66	1670.25
1007.801	1690.25
1012.936	1684.25
1018.066	1724.25
1023.19	1734.25
1028.309	1752.25
1033.423	1741.25
1038.532	1723.25
1043.636	1711.25
1048.734	1695.25
1053.827	1687.25
1058.915	1672.25
1063.998	1685.25
1069.075	1671.25
1074.147	1679.25
1079.214	1689.25
1084.276	1697.25
1089.333	1711.25
1094.385	1727.25
1099.431	1748.25
1104.472	1744.25
1109.509	1756.25
1114.54	1714.25
1119.565	1727.25
1124.586	1691.25
1129.602	1669.25
1134.613	1660.25
1139.618	1656.25
1144.619	1658.25
1149.614	1672.25
1154.604	1684.25
1159.589	1693.25
1164.57	1690.25
1169.545	1704.25
1174.515	1731.25
1179.48	1715.25
1184.44	1691.25
1189.395	1693.25
1194.345	1686.25
1199.29	1677.25
1204.23	1678.25
1209.165	1678.25
1214.095	1720.25
1219.021	1729.25
1223.941	1757.25
1228.856	1759.25
1233.766	1757.25
1238.672	1768.25
1243.572	1758.25
1248.467	1748.25
1253.358	1746.25
1258.244	1713.25
1263.124	1698.25
1268	1676.25
1272.871	1660.25
1277.737	1643.25
1282.599	1639.25
1287.455	1647.25
1292.306	1654.25
1297.153	1665.25
1301.995	1681.25
1306.832	1685.25
1311.664	1727.25
1316.491	1680.25
1321.314	1705.25
1326.132	1696.25
1330.945	1672.25
1335.753	1643.25
1340.556	1619.25
1345.354	1579.25
1350.148	1563.25
1354.937	1571.25
1359.722	1584.25
1364.501	1601.25
1369.276	1616.25
1374.046	1648.25
1378.811	1652.25
1383.572	1654.25
1388.327	1649.25
1393.079	1641.25
1397.825	1610.25
1402.567	1588.25
1407.304	1579.25
1412.036	1549.25
1416.764	1544.25
1421.487	1551.25
1426.205	1568.25
1430.919	1563.25
1435.628	1578.25
1440.333	1592.25
1445.032	1598.25
1449.727	1622.25
1454.418	1621.25
1459.104	1612.25
1463.785	1615.25
1468.462	1573.25
1473.134	1566.25
1477.802	1567.25
1482.465	1567.25
1487.123	1565.25
1491.777	1560.25
1496.426	1584.25
1501.071	1596.25
1505.711	1616.25
1510.347	1631.25
1514.978	1658.25
1519.604	1672.25
1524.226	1693.25
1528.844	1673.25
1533.457	1666.25
1538.065	1688.25
1542.669	1673.25
1547.269	1663.25
1551.864	1658.25
1556.454	1646.25
1561.041	1653.25
1565.622	1680.25
1570.199	1671.25
1574.772	1672.25
1579.34	1693.25
1583.904	1713.25
1588.464	1708.25
1593.019	1713.25
1597.569	1717.25
1602.115	1715.25
1606.657	1725.25
1611.195	1703.25
1615.728	1699.25
1620.256	1696.25
1624.78	1724.25
1629.3	1725.25
1633.816	1746.25
1638.327	1762.25
1642.834	1770.25
1647.336	1793.25
1651.834	1817.25
1656.328	1815.25
1660.817	1805.25
1665.302	1782.25
1669.783	1772.25
1674.259	1741.25
1678.732	1695.25
1683.199	1661.25
1687.663	1637.25
1692.122	1588.25
1696.577	1558.25
1701.028	1577.25
1705.474	1543.25
1709.917	1566.25
1714.355	1541.25
1718.788	1545.25
1723.218	1509.25
1727.643	1482.25
1732.064	1475.25
1736.481	1440.25
1740.893	1415.25
1745.301	1402.25
1749.705	1372.25
1754.105	1352.25
1758.501	1321.25
1762.893	1308.25
1767.28	1322.25
1771.663	1290.25
1776.042	1308.25
1780.417	1301.25
1784.787	1307.25
1789.154	1340.25
1793.516	1351.25
1797.874	1361.25
1802.228	1382.25
1806.578	1381.25
1810.924	1357.25
1815.266	1340.25
1819.603	1350.25
1823.937	1304.25
1828.266	1314.25
1832.591	1290.25
1836.913	1276.25
1841.23	1267.25
1845.543	1267.25
1849.852	1274.25
1854.156	1269.25
1858.457	1276.25
1862.754	1278.25
1867.047	1279.25
1871.335	1287.25
1875.62	1280.25
1879.9	1287.25
1884.177	1276.25
1888.449	1280.25
1892.718	1273.25
1896.982	1271.25
1901.243	1265.25
1905.499	1276.25
1909.752	1257.25
1914	1264.25
1918.245	1262.25
1922.485	1269.25
1926.722	1284.25
1930.954	1267.25
1935.183	1296.25
1939.408	1299.25
1943.628	1293.25
1947.845	1292.25
1952.058	1307.25
1956.267	1294.25
1960.472	1289.25
1964.673	1283.25
1968.87	1270.25
1973.063	1255.25
1977.252	1241.25
1981.438	1238.25
1985.619	1232.25
1989.797	1221.25
1993.971	1225.25
1998.14	1226.25
2002.306	1251.25
2006.469	1219.25
2010.627	1227.25
2014.781	1229.25
2018.932	1239.25
2023.078	1225.25
2027.221	1205.25
2031.36	1181.25
2035.495	1186.25
2039.627	1169.25
2043.754	1166.25
2047.878	1183.25
2051.998	1162.25
2056.114	1160.25
2060.226	1159.25
2064.334	1164.25
2068.439	1173.25
2072.54	1177.25
2076.637	1189.25
2080.73	1187.25
2084.82	1186.25
2088.906	1195.25
2092.988	1179.25
2097.066	1183.25
2101.14	1184.25
2105.211	1171.25
2109.278	1160.25
2113.342	1160.25
2117.401	1160.25
2121.457	1146.25
2125.509	1146.25
2129.558	1161.25
2133.602	1153.25
2137.643	1123.25
2141.681	1136.25
2145.714	1149.25
2149.744	1134.25
2153.77	1128.25
2157.793	1131.25
2161.812	1112.25
2165.827	1103.25
2169.838	1088.25
2173.846	1074.25
2177.851	1062.25
2181.851	1054.25
2185.848	1038.25
2189.841	1033.25
2193.831	1046.25
2197.817	1045.25
2201.799	1025.25
2205.778	1026.25
2209.753	1014.25
2213.725	1025.25
2217.693	1033.25
2221.657	1029.25
2225.618	1007.25
2229.575	1022.25
2233.529	1022.25
2237.479	1017.25
2241.425	1008.25
2245.368	991.25
2249.307	995.25
2253.243	978.25
2257.175	966.25
2261.104	957.25
2265.029	942.25
2268.95	940.25
2272.868	940.25
2276.783	926.25
2280.694	929.25
2284.601	912.25
2288.505	908.25
2292.405	907.25
2296.302	892.25
2300.195	895.25
2304.085	880.25
2307.971	874.25
2311.854	858.25
2315.734	839.25
2319.609	845.25
2323.482	816.25
2327.351	822.25
2331.216	812.25
2335.078	819.25
2338.937	796.25
2342.792	803.25
2346.643	796.25
2350.492	797.25
2354.336	799.25
2358.178	797.25
2362.015	811.25
2365.85	797.25
2369.681	798.25
2373.508	815.25
2377.333	808.25
2381.153	792.25
2384.971	793.25
2388.785	799.25
2392.595	809.25
2396.402	786.25
2400.206	777.25
2404.007	775.25
2407.804	778.25
2411.597	772.25
2415.388	769.25
2419.174	771.25
2422.958	781.25
2426.738	769.25
2430.515	762.25
2434.289	753.25
2438.059	753.25
2441.825	760.25
2445.589	745.25
2449.349	747.25
2453.106	732.25
2456.859	730.25
2460.61	724.25
2464.356	726.25
2468.1	731.25
2471.84	715.25
2475.577	717.25
2479.311	719.25
2483.041	708.25
2486.768	721.25
2490.492	708.25
2494.213	711.25
2497.93	713.25
2501.644	713.25
2505.355	719.25
2509.062	706.25
2512.766	709.25
2516.467	704.25
2520.165	699.25
2523.859	700.25
2527.551	699.25
2531.239	696.25
2534.923	689.25
2538.605	693.25
2542.283	682.25
2545.958	682.25
2549.63	688.25
2553.299	677.25
2556.964	687.25
2560.626	673.25
2564.285	670.25
2567.941	671.25
2571.594	669.25
2575.243	668.25
2578.89	665.25
2582.533	657.25
2586.173	653.25
2589.809	646.25
2593.443	633.25
2597.073	632.25
2600.701	635.25
2604.325	622.25
2607.946	631.25
2611.564	637.25
2615.178	637.25
2618.79	622.25
2622.398	632.25
2626.004	626.25
2629.606	610.25
2633.205	606.25
2636.801	602.25
2640.394	596.25
2643.983	586.25
2647.57	589.25
2651.153	570.25
2654.734	578.25
2658.311	573.25
2661.885	566.25
2665.456	575.25
2669.025	563.25
2672.589	562.25
2676.151	566.25
2679.71	549.25
2683.266	542.25
2686.819	533.25
2690.368	546.25
2693.915	527.25
2697.458	523.25
2700.999	522.25
2704.536	498.25
2708.071	496.25
2711.602	497.25
2715.13	503.25
2718.656	489.25
2722.178	490.25
2725.697	486.25
2729.214	492.25
2732.727	489.25
2736.237	483.25
2739.744	487.25
2743.249	497.25
2746.75	492.25
2750.248	485.25
2753.743	492.25
2757.236	493.25
2760.725	500.25
2764.211	491.25
2767.695	495.25
2771.175	492.25
2774.652	489.25
2778.127	479.25
2781.598	471.25
2785.067	483.25
2788.532	481.25
2791.995	477.25
2795.455	461.25
2798.911	463.25
2802.365	464.25
2805.816	470.25
2809.264	471.25
2812.709	449.25
2816.151	457.25
2819.59	456.25
2823.026	445.25
2826.46	441.25
2829.89	446.25
2833.318	450.25
2836.742	447.25
2840.164	435.25
2843.583	452.25
2846.999	435.25
2850.412	442.25
2853.822	439.25
2857.229	441.25
2860.634	443.25
2864.035	451.25
2867.434	440.25
2870.83	444.25
2874.223	451.25
2877.613	446.25
2881	441.25
2884.385	437.25
2887.766	435.25
2891.145	425.25
2894.521	437.25
2897.894	423.25
2901.264	412.25
2904.631	420.25
2907.996	417.25
2911.358	419.25
2914.717	418.25
2918.073	411.25
2921.426	414.25
2924.777	417.25
2928.124	415.25
2931.469	413.25
2934.811	422.25
2938.15	424.25
2941.487	422.25
2944.821	427.25
2948.152	430.25
2951.48	421.25
2954.805	422.25
2958.128	426.25
2961.447	423.25
2964.765	422.25
2968.079	431.25
2971.39	426.25
2974.699	430.25
2978.005	439.25
2981.308	446.25
2984.609	449.25
2987.907	450.25
2991.202	458.25
2994.494	465.25
2997.784	468.25
3001.07	468.25
3004.355	473.25
3007.636	484.25
3010.915	496.25
3014.191	503.25
3017.464	501.25
3020.734	498.25
3024.002	499.25
3027.267	511.25
3030.53	500.25
3033.789	492.25
3037.046	508.25
3040.301	518.25
3043.552	518.25
3046.801	512.25
3050.048	527.25
3053.291	540.25
3056.532	544.25
3059.771	552.25
3063.006	560.25
3066.239	571.25
3069.469	591.25
3072.697	601.25
3075.922	616.25
3079.144	620.25
3082.364	625.25
3085.581	634.25
3088.795	652.25
3092.007	657.25
3095.216	660.25
3098.423	674.25
3101.627	686.25
3104.828	698.25
3108.026	711.25
3111.222	709.25
3114.416	729.25
3117.607	726.25
3120.795	742.25
3123.98	754.25
3127.163	771.25
3130.344	768.25
3133.521	810.25
3136.696	806.25
3139.869	826.25
3143.039	838.25
3146.206	830.25
3149.371	863.25
3152.533	841.25
3155.693	853.25
3158.85	858.25
3162.005	867.25
3165.157	869.25
3168.306	855.25
3171.453	864.25
3174.597	868.25
3177.739	870.25
3180.878	864.25
3184.014	872.25
3187.149	875.25
3190.28	872.25
3193.409	857.25
3196.536	875.25
3199.659	881.25
3202.781	885.25
3205.9	875.25
3209.016	881.25
3212.13	886.25
3215.241	882.25
3218.35	865.25
3221.456	847.25
3224.56	855.25
3227.661	839.25
3230.76	835.25
3233.856	828.25
3236.95	822.25
3240.041	820.25
3243.13	790.25
3246.216	809.25
3249.3	795.25
3252.382	788.25
3255.46	782.25
3258.537	790.25
3261.611	790.25
3264.682	781.25
3267.751	786.25
3270.818	777.25
3273.882	766.25
3276.943	777.25
3280.002	768.25
3283.059	768.25
3286.113	737.25
3289.165	726.25
3292.214	725.25
3295.261	717.25
3298.306	705.25
3301.348	685.25
3304.387	682.25
3307.425	677.25
3310.459	647.25
3313.492	646.25
3316.521	631.25
3319.549	632.25
3322.574	635.25
3325.597	623.25
3328.617	608.25
3331.635	603.25
3334.65	600.25
3337.663	598.25
3340.674	604.25
3343.682	592.25
3346.688	590.25
3349.691	606.25
3352.692	591.25
3355.691	595.25
3358.687	585.25
3361.681	573.25
3364.673	573.25
3367.662	556.25
3370.649	542.25
3373.633	546.25
3376.615	537.25
3379.595	537.25
3382.572	513.25
3385.547	526.25
3388.52	514.25
3391.49	500.25
3394.458	481.25
3397.424	487.25
3400.387	480.25
3403.348	476.25
3406.307	466.25
3409.263	470.25
3412.217	458.25
3415.168	442.25
3418.118	449.25
3421.065	443.25
3424.009	429.25
3426.951	443.25
3429.891	434.25
3432.829	426.25
3435.764	410.25
3438.697	411.25
3441.628	390.25
3444.557	387.25
3447.483	376.25
3450.407	359.25
3453.328	360.25
3456.247	349.25
3459.164	333.25
3462.079	328.25
3464.991	316.25
3467.902	304.25
3470.809	297.25
3473.715	291.25
3476.618	280.25
3479.519	283.25
3482.418	258.25
3485.315	259.25
3488.209	262.25
3491.101	250.25
3493.99	238.25
3496.878	229.25
3499.763	229.25
3502.646	216.25
3505.527	213.25
3508.405	198.25
3511.281	195.25
3514.155	188.25
3517.027	180.25
3519.897	167.25
3522.764	164.25
3525.629	150.25
3528.492	145.25
3531.352	141.25
3534.211	129.25
3537.067	132.25
3539.921	112.25
3542.773	111.25
3545.622	108.25
3548.469	104.25
3551.315	100.25
3554.157	85.25
3556.998	80.25
3559.837	76.25
3562.673	68.25
3565.507	65.25
3568.339	68.25
3571.169	56.25
3573.996	55.25
3576.822	52.25
3579.645	44.25
3582.466	46.25
3585.285	39.25
3588.101	28.25
3590.916	33.25
3593.728	33.25
3596.538	23.25
3599.346	18.25
3602.152	19.25
3604.956	11.25
3607.757	13.25
3610.556	3.25
3613.354	1.25
3616.149	4.25
3618.942	-8.75
3621.732	-4.75
3624.521	-8.75
3627.307	-10.75
3630.092	-8.75
3632.874	-13.75
3635.654	-9.75
3638.432	-19.75
3641.208	-16.75
3643.982	-18.75
3646.753	-20.75
3649.523	-22.75
3652.29	-18.75
3655.055	-28.75
3657.818	-29.75
3660.579	-30.75
3663.338	-29.75
3666.095	-32.75
3668.849	-36.75
3671.602	-34.75
3674.352	-36.75
3677.101	-41.75
3679.847	-44.75
3682.591	-45.75
3685.333	-41.75
3688.073	-50.75
3690.811	-47.75
3693.547	-50.75
3696.281	-53.75
3699.013	-55.75
3701.742	-55.75
3704.47	-57.75
3707.195	-55.75
3709.919	-57.75
3712.64	-60.75
3715.359	-53.75
3718.076	-59.75
3720.792	-55.75
3723.505	-60.75
3726.216	-58.75
3728.925	-58.75
3731.632	-57.75
3734.336	-56.75
3737.039	-60.75
3739.74	-57.75
3742.439	-60.75
3745.136	-61.75
3747.83	-61.75
3750.523	-59.75
3753.213	-63.75
3755.902	-64.75
3758.589	-69.75
3761.273	-66.75
3763.956	-62.75
3766.636	-68.75
3769.315	-64.75
3771.991	-68.75
3774.665	-67.75
3777.338	-75.75
3780.008	-66.75
3782.677	-71.75
3785.343	-65.75
3788.007	-67.75
3790.67	-71.75
3793.33	-71.75
3795.989	-75.75
3798.645	-70.75
3801.299	-72.75
3803.952	-72.75
3806.602	-71.75
3809.251	-75.75
3811.897	-73.75
3814.542	-75.75
3817.184	-70.75
3819.825	-73.75
3822.463	-68.75
3825.1	-71.75
3827.735	-73.75
3830.367	-74.75
3832.998	-72.75
3835.627	-74.75
3838.253	-70.75
3840.878	-72.75
3843.501	-75.75
3846.122	-73.75
3848.741	-75.75
3851.358	-73.75
3853.973	-73.75
3856.586	-78.75
3859.197	-74.75
3861.806	-74.75
3864.414	-71.75
3867.019	-72.75
3869.622	-75.75
3872.224	-74.75
3874.823	-77.75
3877.421	-77.75
3880.016	-72.75
3882.61	-66.75
3885.202	-72.75
3887.792	-73.75
3890.38	-76.75
3892.966	-78.75
3895.55	-79.75
3898.132	-76.75
3900.713	-83.75
3903.291	-81.75
3905.868	-78.75
3908.442	-81.75
3911.015	-78.75
3913.586	-77.75
3916.155	-75.75
3918.722	-80.75
3921.287	-74.75
3923.85	-75.75
3926.411	-79.75
3928.971	-80.75
3931.528	-77.75
3934.084	-79.75
3936.638	-80.75
3939.19	-82.75
3941.74	-82.75
3944.288	-80.75
3946.834	-80.75
3949.378	-85.75
3951.921	-83.75
3954.462	-82.75
3957	-88.75
3959.537	-81.75
3962.072	-82.75
3964.606	-84.75
3967.137	-83.75
3969.667	-80.75
3972.194	-81.75
3974.72	-85.75
3977.244	-80.75
3979.766	-78.75
3982.286	-82.75
3984.805	-76.75
3987.321	-78.75
3989.836	-74.75
3992.349	-77.75
3994.86	-78.75
3997.369	-81.75
3999.877	-79.75
4002.382	-81.75
4004.886	-76.75
4007.388	-80.75
4009.888	-79.75
4012.386	-77.75
4014.883	-83.75
4017.377	-82.75
4019.87	-78.75
4022.361	-85.75
4024.85	-85.75
4027.338	-83.75
4029.823	-81.75
4032.307	-82.75
4034.789	-80.75
4037.269	-86.75
4039.747	-80.75
4042.224	-83.75
4044.699	-78.75
4047.172	-77.75
4049.643	-79.75
4052.112	-78.75
4054.58	-78.75
4057.046	-72.75
4059.51	-75.75
4061.972	-75.75
4064.432	-79.75
4066.891	-81.75
4069.348	-80.75
4071.803	-78.75
4074.256	-81.75
4076.708	-76.75
4079.158	-75.75
4081.606	-82.75
4084.052	-79.75
4086.497	-78.75
4088.939	-82.75
4091.38	-88.75
4093.819	-84.75
4096.257	-87.75
4098.693	-89.75
4101.127	-87.75
4103.559	-88.75
4105.989	-54.75
4108.418	-51.75
4110.845	-47.75
4113.27	-42.75
4115.694	-37.75
4118.115	-28.75
4120.535	-85.75
4122.954	-87.75
4125.37	-86.75
4127.785	-81.75
4130.198	-86.75
4132.609	-81.75
4135.019	-85.75
4137.427	-89.75
4139.833	-87.75
4142.237	-84.75
