Data from I0.75_T10s_Bsub_water_1-10^4_1_RamanShift_1.txt Node
Date: Mon Mar 13 15:28:57 IST 2017
User: aro
Spectrometer: QEPB0276
Trigger mode: 0
Integration Time (sec): 1.000000E1
Scans to average: 1
Electric dark correction enabled: true
Nonlinearity correction enabled: false
Boxcar width: 0
XAxis mode: Raman Shifts
Number of Pixels in Spectrum: 1044
>>>>>Begin Spectral Data<<<<<
160.701	-52.88
166.742	9.12
172.777	181.12
178.805	740.12
184.826	2166.12
190.841	4597.12
196.849	7415.12
202.85	9228.12
208.845	9738.12
214.833	9486.12
220.815	9220.12
226.789	9014.12
232.758	8898.12
238.719	8727.12
244.674	8473.12
250.623	8260.12
256.565	7921.12
262.5	7695.12
268.429	7438.12
274.351	7268.12
280.267	7042.12
286.176	6916.12
292.079	6748.12
297.975	6555.12
303.865	6398.12
309.748	6247.12
315.625	6138.12
321.495	5992.12
327.359	5901.12
333.217	5834.12
339.068	5749.12
344.912	5718.12
350.751	5644.12
356.583	5614.12
362.408	5582.12
368.227	5543.12
374.04	5554.12
379.847	5497.12
385.647	5549.12
391.44	5537.12
397.228	5563.12
403.009	5564.12
408.784	5608.12
414.553	5570.12
420.315	5545.12
426.071	5580.12
431.821	5577.12
437.565	5573.12
443.302	5508.12
449.033	5508.12
454.758	5497.12
460.477	5491.12
466.189	5483.12
471.896	5458.12
477.596	5430.12
483.29	5390.12
488.978	5430.12
494.66	5364.12
500.335	5332.12
506.005	5233.12
511.668	5177.12
517.325	5105.12
522.977	5046.12
528.622	5019.12
534.261	4981.12
539.894	4963.12
545.521	4942.12
551.141	4904.12
556.756	4895.12
562.365	4888.12
567.968	4850.12
573.565	4842.12
579.155	4842.12
584.74	4805.12
590.319	4776.12
595.892	4769.12
601.459	4741.12
607.02	4698.12
612.575	4698.12
618.124	4640.12
623.667	4616.12
629.204	4600.12
634.735	4558.12
640.261	4535.12
645.781	4527.12
651.294	4529.12
656.802	4505.12
662.304	4479.12
667.8	4471.12
673.29	4460.12
678.775	4475.12
684.254	4453.12
689.726	4436.12
695.193	4438.12
700.655	4440.12
706.11	4393.12
711.56	4382.12
717.004	4395.12
722.442	4343.12
727.874	4334.12
733.301	4313.12
738.722	4323.12
744.137	4349.12
749.547	4307.12
754.951	4308.12
760.349	4335.12
765.741	4330.12
771.128	4324.12
776.509	4350.12
781.885	4358.12
787.254	4358.12
792.618	4344.12
797.977	4296.12
803.33	4280.12
808.677	4266.12
814.019	4221.12
819.355	4222.12
824.686	4198.12
830.011	4167.12
835.33	4198.12
840.644	4175.12
845.952	4179.12
851.255	4181.12
856.552	4184.12
861.844	4185.12
867.13	4162.12
872.41	4152.12
877.686	4150.12
882.955	4129.12
888.219	4091.12
893.478	4028.12
898.731	3971.12
903.979	3946.12
909.221	3917.12
914.458	3896.12
919.69	3913.12
924.916	3891.12
930.136	3923.12
935.351	3934.12
940.561	3943.12
945.766	3943.12
950.965	3933.12
956.158	3926.12
961.347	3890.12
966.529	3837.12
971.707	3786.12
976.879	3763.12
982.046	3749.12
987.208	3730.12
992.364	3753.12
997.515	3751.12
1002.66	3805.12
1007.801	3835.12
1012.936	3898.12
1018.066	3891.12
1023.19	3945.12
1028.309	3953.12
1033.423	3949.12
1038.532	3906.12
1043.636	3891.12
1048.734	3861.12
1053.827	3841.12
1058.915	3811.12
1063.998	3775.12
1069.075	3798.12
1074.147	3817.12
1079.214	3835.12
1084.276	3868.12
1089.333	3878.12
1094.385	3897.12
1099.431	3952.12
1104.472	3950.12
1109.509	3930.12
1114.54	3920.12
1119.565	3868.12
1124.586	3840.12
1129.602	3810.12
1134.613	3787.12
1139.618	3759.12
1144.619	3758.12
1149.614	3817.12
1154.604	3813.12
1159.589	3836.12
1164.57	3829.12
1169.545	3874.12
1174.515	3904.12
1179.48	3857.12
1184.44	3857.12
1189.395	3832.12
1194.345	3796.12
1199.29	3791.12
1204.23	3814.12
1209.165	3841.12
1214.095	3855.12
1219.021	3879.12
1223.941	3930.12
1228.856	3943.12
1233.766	3954.12
1238.672	3961.12
1243.572	3942.12
1248.467	3952.12
1253.358	3927.12
1258.244	3874.12
1263.124	3786.12
1268	3756.12
1272.871	3701.12
1277.737	3720.12
1282.599	3694.12
1287.455	3713.12
1292.306	3716.12
1297.153	3743.12
1301.995	3786.12
1306.832	3824.12
1311.664	3844.12
1316.491	3824.12
1321.314	3838.12
1326.132	3792.12
1330.945	3779.12
1335.753	3677.12
1340.556	3630.12
1345.354	3555.12
1350.148	3533.12
1354.937	3506.12
1359.722	3518.12
1364.501	3568.12
1369.276	3621.12
1374.046	3652.12
1378.811	3699.12
1383.572	3695.12
1388.327	3666.12
1393.079	3649.12
1397.825	3602.12
1402.567	3520.12
1407.304	3503.12
1412.036	3463.12
1416.764	3467.12
1421.487	3470.12
1426.205	3471.12
1430.919	3490.12
1435.628	3518.12
1440.333	3564.12
1445.032	3587.12
1449.727	3606.12
1454.418	3600.12
1459.104	3635.12
1463.785	3567.12
1468.462	3562.12
1473.134	3524.12
1477.802	3470.12
1482.465	3501.12
1487.123	3483.12
1491.777	3525.12
1496.426	3507.12
1501.071	3535.12
1505.711	3568.12
1510.347	3644.12
1514.978	3685.12
1519.604	3701.12
1524.226	3742.12
1528.844	3738.12
1533.457	3762.12
1538.065	3744.12
1542.669	3713.12
1547.269	3711.12
1551.864	3695.12
1556.454	3719.12
1561.041	3724.12
1565.622	3708.12
1570.199	3750.12
1574.772	3765.12
1579.34	3806.12
1583.904	3838.12
1588.464	3863.12
1593.019	3878.12
1597.569	3906.12
1602.115	3888.12
1606.657	3898.12
1611.195	3913.12
1615.728	3908.12
1620.256	3895.12
1624.78	3900.12
1629.3	3975.12
1633.816	3983.12
1638.327	4042.12
1642.834	4090.12
1647.336	4110.12
1651.834	4129.12
1656.328	4129.12
1660.817	4131.12
1665.302	4108.12
1669.783	4048.12
1674.259	3975.12
1678.732	3887.12
1683.199	3804.12
1687.663	3668.12
1692.122	3581.12
1696.577	3488.12
1701.028	3452.12
1705.474	3447.12
1709.917	3438.12
1714.355	3395.12
1718.788	3355.12
1723.218	3317.12
1727.643	3281.12
1732.064	3230.12
1736.481	3194.12
1740.893	3133.12
1745.301	3061.12
1749.705	3019.12
1754.105	2971.12
1758.501	2904.12
1762.893	2873.12
1767.28	2837.12
1771.663	2809.12
1776.042	2798.12
1780.417	2826.12
1784.787	2837.12
1789.154	2854.12
1793.516	2875.12
1797.874	2926.12
1802.228	2955.12
1806.578	2957.12
1810.924	2943.12
1815.266	2912.12
1819.603	2871.12
1823.937	2847.12
1828.266	2826.12
1832.591	2792.12
1836.913	2760.12
1841.23	2762.12
1845.543	2757.12
1849.852	2716.12
1854.156	2733.12
1858.457	2726.12
1862.754	2758.12
1867.047	2759.12
1871.335	2748.12
1875.62	2752.12
1879.9	2750.12
1884.177	2761.12
1888.449	2751.12
1892.718	2746.12
1896.982	2720.12
1901.243	2738.12
1905.499	2705.12
1909.752	2716.12
1914	2709.12
1918.245	2684.12
1922.485	2724.12
1926.722	2723.12
1930.954	2729.12
1935.183	2778.12
1939.408	2762.12
1943.628	2785.12
1947.845	2818.12
1952.058	2799.12
1956.267	2806.12
1960.472	2786.12
1964.673	2746.12
1968.87	2743.12
1973.063	2700.12
1977.252	2689.12
1981.438	2627.12
1985.619	2655.12
1989.797	2623.12
1993.971	2641.12
1998.14	2656.12
2002.306	2633.12
2006.469	2648.12
2010.627	2659.12
2014.781	2666.12
2018.932	2650.12
2023.078	2648.12
2027.221	2593.12
2031.36	2595.12
2035.495	2553.12
2039.627	2528.12
2043.754	2519.12
2047.878	2489.12
2051.998	2510.12
2056.114	2494.12
2060.226	2500.12
2064.334	2514.12
2068.439	2507.12
2072.54	2533.12
2076.637	2553.12
2080.73	2571.12
2084.82	2540.12
2088.906	2589.12
2092.988	2566.12
2097.066	2558.12
2101.14	2532.12
2105.211	2516.12
2109.278	2523.12
2113.342	2503.12
2117.401	2502.12
2121.457	2508.12
2125.509	2506.12
2129.558	2481.12
2133.602	2474.12
2137.643	2463.12
2141.681	2481.12
2145.714	2463.12
2149.744	2442.12
2153.77	2437.12
2157.793	2428.12
2161.812	2402.12
2165.827	2369.12
2169.838	2346.12
2173.846	2320.12
2177.851	2292.12
2181.851	2250.12
2185.848	2247.12
2189.841	2236.12
2193.831	2213.12
2197.817	2202.12
2201.799	2193.12
2205.778	2168.12
2209.753	2183.12
2213.725	2177.12
2217.693	2195.12
2221.657	2199.12
2225.618	2199.12
2229.575	2184.12
2233.529	2168.12
2237.479	2169.12
2241.425	2138.12
2245.368	2124.12
2249.307	2093.12
2253.243	2079.12
2257.175	2066.12
2261.104	2040.12
2265.029	2028.12
2268.95	2014.12
2272.868	2003.12
2276.783	1971.12
2280.694	1963.12
2284.601	1953.12
2288.505	1941.12
2292.405	1921.12
2296.302	1889.12
2300.195	1876.12
2304.085	1858.12
2307.971	1839.12
2311.854	1791.12
2315.734	1786.12
2319.609	1770.12
2323.482	1731.12
2327.351	1725.12
2331.216	1723.12
2335.078	1714.12
2338.937	1698.12
2342.792	1674.12
2346.643	1664.12
2350.492	1678.12
2354.336	1672.12
2358.178	1676.12
2362.015	1664.12
2365.85	1676.12
2369.681	1688.12
2373.508	1677.12
2377.333	1699.12
2381.153	1682.12
2384.971	1684.12
2388.785	1669.12
2392.595	1656.12
2396.402	1640.12
2400.206	1642.12
2404.007	1643.12
2407.804	1636.12
2411.597	1616.12
2415.388	1607.12
2419.174	1613.12
2422.958	1602.12
2426.738	1598.12
2430.515	1596.12
2434.289	1596.12
2438.059	1605.12
2441.825	1590.12
2445.589	1563.12
2449.349	1549.12
2453.106	1562.12
2456.859	1542.12
2460.61	1535.12
2464.356	1506.12
2468.1	1509.12
2471.84	1500.12
2475.577	1502.12
2479.311	1512.12
2483.041	1484.12
2486.768	1488.12
2490.492	1502.12
2494.213	1510.12
2497.93	1499.12
2501.644	1501.12
2505.355	1490.12
2509.062	1477.12
2512.766	1490.12
2516.467	1487.12
2520.165	1489.12
2523.859	1457.12
2527.551	1458.12
2531.239	1449.12
2534.923	1447.12
2538.605	1428.12
2542.283	1417.12
2545.958	1412.12
2549.63	1416.12
2553.299	1416.12
2556.964	1406.12
2560.626	1404.12
2564.285	1394.12
2567.941	1389.12
2571.594	1373.12
2575.243	1371.12
2578.89	1350.12
2582.533	1367.12
2586.173	1346.12
2589.809	1327.12
2593.443	1331.12
2597.073	1320.12
2600.701	1307.12
2604.325	1312.12
2607.946	1307.12
2611.564	1309.12
2615.178	1302.12
2618.79	1300.12
2622.398	1295.12
2626.004	1293.12
2629.606	1278.12
2633.205	1260.12
2636.801	1267.12
2640.394	1250.12
2643.983	1224.12
2647.57	1214.12
2651.153	1205.12
2654.734	1189.12
2658.311	1176.12
2661.885	1179.12
2665.456	1164.12
2669.025	1170.12
2672.589	1154.12
2676.151	1139.12
2679.71	1142.12
2683.266	1128.12
2686.819	1124.12
2690.368	1103.12
2693.915	1073.12
2697.458	1071.12
2700.999	1064.12
2704.536	1043.12
2708.071	1033.12
2711.602	1030.12
2715.13	1016.12
2718.656	1009.12
2722.178	1010.12
2725.697	1012.12
2729.214	997.12
2732.727	1000.12
2736.237	1000.12
2739.744	1021.12
2743.249	1020.12
2746.75	1009.12
2750.248	1024.12
2753.743	1030.12
2757.236	1013.12
2760.725	1022.12
2764.211	1016.12
2767.695	1007.12
2771.175	1004.12
2774.652	997.12
2778.127	997.12
2781.598	991.12
2785.067	973.12
2788.532	985.12
2791.995	965.12
2795.455	965.12
2798.911	972.12
2802.365	969.12
2805.816	951.12
2809.264	967.12
2812.709	953.12
2816.151	952.12
2819.59	947.12
2823.026	927.12
2826.46	939.12
2829.89	926.12
2833.318	936.12
2836.742	914.12
2840.164	917.12
2843.583	927.12
2846.999	932.12
2850.412	931.12
2853.822	929.12
2857.229	934.12
2860.634	925.12
2864.035	940.12
2867.434	954.12
2870.83	951.12
2874.223	962.12
2877.613	946.12
2881	951.12
2884.385	937.12
2887.766	927.12
2891.145	921.12
2894.521	920.12
2897.894	920.12
2901.264	916.12
2904.631	904.12
2907.996	909.12
2911.358	917.12
2914.717	911.12
2918.073	913.12
2921.426	919.12
2924.777	909.12
2928.124	916.12
2931.469	927.12
2934.811	922.12
2938.15	948.12
2941.487	930.12
2944.821	932.12
2948.152	931.12
2951.48	936.12
2954.805	943.12
2958.128	944.12
2961.447	940.12
2964.765	955.12
2968.079	961.12
2971.39	976.12
2974.699	977.12
2978.005	988.12
2981.308	1000.12
2984.609	1032.12
2987.907	1039.12
2991.202	1058.12
2994.494	1075.12
2997.784	1094.12
3001.07	1113.12
3004.355	1119.12
3007.636	1138.12
3010.915	1163.12
3014.191	1165.12
3017.464	1184.12
3020.734	1179.12
3024.002	1192.12
3027.267	1197.12
3030.53	1195.12
3033.789	1206.12
3037.046	1234.12
3040.301	1248.12
3043.552	1245.12
3046.801	1271.12
3050.048	1299.12
3053.291	1323.12
3056.532	1338.12
3059.771	1384.12
3063.006	1425.12
3066.239	1448.12
3069.469	1464.12
3072.697	1503.12
3075.922	1544.12
3079.144	1566.12
3082.364	1591.12
3085.581	1596.12
3088.795	1633.12
3092.007	1669.12
3095.216	1681.12
3098.423	1730.12
3101.627	1740.12
3104.828	1791.12
3108.026	1815.12
3111.222	1841.12
3114.416	1871.12
3117.607	1896.12
3120.795	1938.12
3123.98	1986.12
3127.163	2004.12
3130.344	2034.12
3133.521	2076.12
3136.696	2126.12
3139.869	2148.12
3143.039	2199.12
3146.206	2203.12
3149.371	2224.12
3152.533	2236.12
3155.693	2231.12
3158.85	2272.12
3162.005	2251.12
3165.157	2282.12
3168.306	2270.12
3171.453	2286.12
3174.597	2283.12
3177.739	2267.12
3180.878	2315.12
3184.014	2307.12
3187.149	2300.12
3190.28	2296.12
3193.409	2305.12
3196.536	2316.12
3199.659	2318.12
3202.781	2338.12
3205.9	2304.12
3209.016	2313.12
3212.13	2303.12
3215.241	2295.12
3218.35	2287.12
3221.456	2271.12
3224.56	2248.12
3227.661	2217.12
3230.76	2192.12
3233.856	2182.12
3236.95	2150.12
3240.041	2164.12
3243.13	2136.12
3246.216	2117.12
3249.3	2094.12
3252.382	2101.12
3255.46	2065.12
3258.537	2072.12
3261.611	2062.12
3264.682	2065.12
3267.751	2050.12
3270.818	2043.12
3273.882	2034.12
3276.943	2021.12
3280.002	2001.12
3283.059	1974.12
3286.113	1960.12
3289.165	1937.12
3292.214	1901.12
3295.261	1868.12
3298.306	1853.12
3301.348	1821.12
3304.387	1792.12
3307.425	1767.12
3310.459	1743.12
3313.492	1720.12
3316.521	1686.12
3319.549	1685.12
3322.574	1662.12
3325.597	1648.12
3328.617	1637.12
3331.635	1631.12
3334.65	1609.12
3337.663	1612.12
3340.674	1596.12
3343.682	1587.12
3346.688	1595.12
3349.691	1606.12
3352.692	1575.12
3355.691	1549.12
3358.687	1542.12
3361.681	1539.12
3364.673	1515.12
3367.662	1487.12
3370.649	1460.12
3373.633	1447.12
3376.615	1444.12
3379.595	1421.12
3382.572	1382.12
3385.547	1370.12
3388.52	1368.12
3391.49	1331.12
3394.458	1308.12
3397.424	1299.12
3400.387	1280.12
3403.348	1261.12
3406.307	1256.12
3409.263	1229.12
3412.217	1223.12
3415.168	1204.12
3418.118	1224.12
3421.065	1174.12
3424.009	1186.12
3426.951	1162.12
3429.891	1127.12
3432.829	1128.12
3435.764	1088.12
3438.697	1064.12
3441.628	1050.12
3444.557	1049.12
3447.483	994.12
3450.407	967.12
3453.328	946.12
3456.247	902.12
3459.164	893.12
3462.079	868.12
3464.991	836.12
3467.902	821.12
3470.809	786.12
3473.715	762.12
3476.618	744.12
3479.519	734.12
3482.418	719.12
3485.315	683.12
3488.209	670.12
3491.101	644.12
3493.99	628.12
3496.878	607.12
3499.763	602.12
3502.646	581.12
3505.527	565.12
3508.405	537.12
3511.281	523.12
3514.155	500.12
3517.027	470.12
3519.897	451.12
3522.764	430.12
3525.629	404.12
3528.492	390.12
3531.352	367.12
3534.211	342.12
3537.067	325.12
3539.921	309.12
3542.773	297.12
3545.622	277.12
3548.469	250.12
3551.315	242.12
3554.157	229.12
3556.998	215.12
3559.837	206.12
3562.673	187.12
3565.507	181.12
3568.339	186.12
3571.169	170.12
3573.996	161.12
3576.822	140.12
3579.645	133.12
3582.466	111.12
3585.285	106.12
3588.101	102.12
3590.916	85.12
3593.728	69.12
3596.538	68.12
3599.346	55.12
3602.152	40.12
3604.956	38.12
3607.757	28.12
3610.556	16.12
3613.354	8.12
3616.149	0.12
3618.942	3.12
3621.732	-11.88
3624.521	-13.88
3627.307	-18.88
3630.092	-22.88
3632.874	-32.88
3635.654	-36.88
3638.432	-34.88
3641.208	-46.88
3643.982	-46.88
3646.753	-50.88
3649.523	-56.88
3652.29	-58.88
3655.055	-71.88
3657.818	-73.88
3660.579	-73.88
3663.338	-85.88
3666.095	-88.88
3668.849	-91.88
3671.602	-97.88
3674.352	-102.88
3677.101	-103.88
3679.847	-104.88
3682.591	-112.88
3685.333	-115.88
3688.073	-114.88
3690.811	-121.88
3693.547	-129.88
3696.281	-130.88
3699.013	-129.88
3701.742	-127.88
3704.47	-135.88
3707.195	-142.88
3709.919	-140.88
3712.64	-145.88
3715.359	-147.88
3718.076	-146.88
3720.792	-150.88
3723.505	-151.88
3726.216	-150.88
3728.925	-157.88
3731.632	-159.88
3734.336	-160.88
3737.039	-160.88
3739.74	-159.88
3742.439	-159.88
3745.136	-158.88
3747.83	-161.88
3750.523	-161.88
3753.213	-165.88
3755.902	-163.88
3758.589	-163.88
3761.273	-163.88
3763.956	-169.88
3766.636	-167.88
3769.315	-172.88
3771.991	-171.88
3774.665	-170.88
3777.338	-174.88
3780.008	-168.88
3782.677	-171.88
3785.343	-179.88
3788.007	-180.88
3790.67	-177.88
3793.33	-184.88
3795.989	-180.88
3798.645	-183.88
3801.299	-183.88
3803.952	-180.88
3806.602	-184.88
3809.251	-184.88
3811.897	-189.88
3814.542	-188.88
3817.184	-191.88
3819.825	-183.88
3822.463	-194.88
3825.1	-191.88
3827.735	-189.88
3830.367	-191.88
3832.998	-185.88
3835.627	-190.88
3838.253	-191.88
3840.878	-191.88
3843.501	-189.88
3846.122	-193.88
3848.741	-188.88
3851.358	-191.88
3853.973	-192.88
3856.586	-194.88
3859.197	-191.88
3861.806	-192.88
3864.414	-193.88
3867.019	-196.88
3869.622	-196.88
3872.224	-194.88
3874.823	-190.88
3877.421	-188.88
3880.016	-183.88
3882.61	-180.88
3885.202	-183.88
3887.792	-187.88
3890.38	-193.88
3892.966	-198.88
3895.55	-200.88
3898.132	-203.88
3900.713	-203.88
3903.291	-203.88
3905.868	-204.88
3908.442	-202.88
3911.015	-203.88
3913.586	-206.88
3916.155	-201.88
3918.722	-203.88
3921.287	-205.88
3923.85	-206.88
3926.411	-204.88
3928.971	-204.88
3931.528	-207.88
3934.084	-204.88
3936.638	-206.88
3939.19	-207.88
3941.74	-206.88
3944.288	-203.88
3946.834	-208.88
3949.378	-206.88
3951.921	-212.88
3954.462	-205.88
3957	-213.88
3959.537	-203.88
3962.072	-208.88
3964.606	-205.88
3967.137	-203.88
3969.667	-207.88
3972.194	-201.88
3974.72	-205.88
3977.244	-204.88
3979.766	-203.88
3982.286	-203.88
3984.805	-201.88
3987.321	-198.88
3989.836	-203.88
3992.349	-202.88
3994.86	-194.88
3997.369	-198.88
3999.877	-199.88
4002.382	-196.88
4004.886	-199.88
4007.388	-196.88
4009.888	-203.88
4012.386	-202.88
4014.883	-201.88
4017.377	-202.88
4019.87	-203.88
4022.361	-200.88
4024.85	-206.88
4027.338	-205.88
4029.823	-204.88
4032.307	-207.88
4034.789	-206.88
4037.269	-206.88
4039.747	-202.88
4042.224	-208.88
4044.699	-206.88
4047.172	-210.88
4049.643	-204.88
4052.112	-199.88
4054.58	-207.88
4057.046	-208.88
4059.51	-202.88
4061.972	-208.88
4064.432	-202.88
4066.891	-199.88
4069.348	-204.88
4071.803	-201.88
4074.256	-202.88
4076.708	-201.88
4079.158	-208.88
4081.606	-202.88
4084.052	-201.88
4086.497	-206.88
4088.939	-203.88
4091.38	-201.88
4093.819	-200.88
4096.257	-217.88
4098.693	-218.88
4101.127	-219.88
4103.559	-214.88
4105.989	-141.88
4108.418	-135.88
4110.845	-120.88
4113.27	-114.88
4115.694	-101.88
4118.115	-73.88
4120.535	-205.88
4122.954	-206.88
4125.37	-205.88
4127.785	-207.88
4130.198	-207.88
4132.609	-204.88
4135.019	-219.88
4137.427	-217.88
4139.833	-219.88
4142.237	-219.88
