Data from I0.75_T15s_Bsub_water_1-1_1_RamanShift_1.txt Node
Date: Mon Mar 13 15:58:36 IST 2017
User: aro
Spectrometer: QEPB0276
Trigger mode: 0
Integration Time (sec): 1.500000E1
Scans to average: 1
Electric dark correction enabled: true
Nonlinearity correction enabled: false
Boxcar width: 0
XAxis mode: Raman Shifts
Number of Pixels in Spectrum: 1044
>>>>>Begin Spectral Data<<<<<
160.701	-67
166.742	3
172.777	222
178.805	913
184.826	2628
190.841	5604
196.849	9024
202.85	11325
208.845	11880
214.833	11607
220.815	11260
226.789	11087
232.758	10924
238.719	10770
244.674	10494
250.623	10215
256.565	9863
262.5	9618
268.429	9288
274.351	9097
280.267	8838
286.176	8705
292.079	8506
297.975	8307
303.865	8121
309.748	7965
315.625	7801
321.495	7700
327.359	7553
333.217	7467
339.068	7395
344.912	7323
350.751	7283
356.583	7211
362.408	7194
368.227	7155
374.04	7107
379.847	7130
385.647	7096
391.44	7148
397.228	7168
403.009	7196
408.784	7209
414.553	7226
420.315	7215
426.071	7189
431.821	7209
437.565	7189
443.302	7179
449.033	7174
454.758	7144
460.477	7134
466.189	7080
471.896	7069
477.596	7034
483.29	7001
488.978	6951
494.66	6962
500.335	6912
506.005	6777
511.668	6690
517.325	6636
522.977	6582
528.622	6533
534.261	6467
539.894	6429
545.521	6397
551.141	6406
556.756	6353
562.365	6341
567.968	6329
573.565	6338
579.155	6302
584.74	6273
590.319	6232
595.892	6219
601.459	6218
607.02	6178
612.575	6132
618.124	6065
623.667	6062
629.204	6014
634.735	5988
640.261	5971
645.781	5932
651.294	5921
656.802	5916
662.304	5892
667.8	5891
673.29	5894
678.775	5884
684.254	5889
689.726	5895
695.193	5829
700.655	5821
706.11	5808
711.56	5791
717.004	5763
722.442	5784
727.874	5727
733.301	5738
738.722	5722
744.137	5720
749.547	5731
754.951	5747
760.349	5724
765.741	5735
771.128	5749
776.509	5766
781.885	5747
787.254	5765
792.618	5757
797.977	5742
803.33	5688
808.677	5705
814.019	5648
819.355	5625
824.686	5593
830.011	5584
835.33	5578
840.644	5557
845.952	5624
851.255	5593
856.552	5590
861.844	5612
867.13	5598
872.41	5604
877.686	5586
882.955	5560
888.219	5499
893.478	5425
898.731	5390
903.979	5311
909.221	5276
914.458	5292
919.69	5322
924.916	5283
930.136	5349
935.351	5339
940.561	5378
945.766	5357
950.965	5325
956.158	5301
961.347	5270
966.529	5228
971.707	5167
976.879	5122
982.046	5094
987.208	5051
992.364	5104
997.515	5102
1002.66	5147
1007.801	5223
1012.936	5250
1018.066	5297
1023.19	5365
1028.309	5392
1033.423	5345
1038.532	5327
1043.636	5313
1048.734	5261
1053.827	5220
1058.915	5169
1063.998	5189
1069.075	5170
1074.147	5174
1079.214	5200
1084.276	5272
1089.333	5297
1094.385	5360
1099.431	5391
1104.472	5385
1109.509	5384
1114.54	5340
1119.565	5255
1124.586	5217
1129.602	5165
1134.613	5161
1139.618	5154
1144.619	5149
1149.614	5212
1154.604	5176
1159.589	5237
1164.57	5268
1169.545	5285
1174.515	5283
1179.48	5269
1184.44	5241
1189.395	5246
1194.345	5182
1199.29	5173
1204.23	5174
1209.165	5181
1214.095	5261
1219.021	5302
1223.941	5349
1228.856	5401
1233.766	5388
1238.672	5402
1243.572	5409
1248.467	5360
1253.358	5307
1258.244	5269
1263.124	5183
1268	5145
1272.871	5105
1277.737	5044
1282.599	5033
1287.455	5070
1292.306	5098
1297.153	5116
1301.995	5154
1306.832	5229
1311.664	5236
1316.491	5222
1321.314	5238
1326.132	5194
1330.945	5134
1335.753	5041
1340.556	4994
1345.354	4908
1350.148	4829
1354.937	4830
1359.722	4846
1364.501	4911
1369.276	4929
1374.046	5019
1378.811	5059
1383.572	5027
1388.327	5018
1393.079	4994
1397.825	4933
1402.567	4846
1407.304	4796
1412.036	4733
1416.764	4751
1421.487	4774
1426.205	4768
1430.919	4808
1435.628	4852
1440.333	4896
1445.032	4917
1449.727	4957
1454.418	4973
1459.104	4969
1463.785	4948
1468.462	4895
1473.134	4847
1477.802	4822
1482.465	4793
1487.123	4804
1491.777	4803
1496.426	4845
1501.071	4854
1505.711	4925
1510.347	4966
1514.978	5020
1519.604	5068
1524.226	5106
1528.844	5147
1533.457	5122
1538.065	5112
1542.669	5091
1547.269	5075
1551.864	5056
1556.454	5059
1561.041	5050
1565.622	5078
1570.199	5096
1574.772	5123
1579.34	5171
1583.904	5210
1588.464	5260
1593.019	5301
1597.569	5277
1602.115	5262
1606.657	5259
1611.195	5235
1615.728	5243
1620.256	5258
1624.78	5297
1629.3	5321
1633.816	5395
1638.327	5425
1642.834	5458
1647.336	5519
1651.834	5540
1656.328	5585
1660.817	5557
1665.302	5525
1669.783	5448
1674.259	5394
1678.732	5286
1683.199	5116
1687.663	5021
1692.122	4902
1696.577	4775
1701.028	4761
1705.474	4721
1709.917	4693
1714.355	4629
1718.788	4600
1723.218	4581
1727.643	4478
1732.064	4454
1736.481	4382
1740.893	4310
1745.301	4202
1749.705	4150
1754.105	4089
1758.501	4038
1762.893	3974
1767.28	3950
1771.663	3895
1776.042	3929
1780.417	3919
1784.787	3959
1789.154	3981
1793.516	4024
1797.874	4075
1802.228	4088
1806.578	4093
1810.924	4061
1815.266	4034
1819.603	3976
1823.937	3927
1828.266	3891
1832.591	3848
1836.913	3811
1841.23	3795
1845.543	3789
1849.852	3787
1854.156	3775
1858.457	3772
1862.754	3782
1867.047	3824
1871.335	3823
1875.62	3831
1879.9	3851
1884.177	3850
1888.449	3844
1892.718	3832
1896.982	3782
1901.243	3788
1905.499	3774
1909.752	3774
1914	3786
1918.245	3771
1922.485	3804
1926.722	3849
1930.954	3845
1935.183	3837
1939.408	3883
1943.628	3896
1947.845	3875
1952.058	3894
1956.267	3874
1960.472	3870
1964.673	3808
1968.87	3765
1973.063	3739
1977.252	3703
1981.438	3696
1985.619	3664
1989.797	3661
1993.971	3662
1998.14	3644
2002.306	3669
2006.469	3689
2010.627	3673
2014.781	3677
2018.932	3674
2023.078	3634
2027.221	3619
2031.36	3578
2035.495	3561
2039.627	3556
2043.754	3496
2047.878	3479
2051.998	3492
2056.114	3475
2060.226	3518
2064.334	3515
2068.439	3486
2072.54	3526
2076.637	3533
2080.73	3571
2084.82	3579
2088.906	3559
2092.988	3563
2097.066	3561
2101.14	3526
2105.211	3515
2109.278	3501
2113.342	3494
2117.401	3448
2121.457	3464
2125.509	3482
2129.558	3438
2133.602	3446
2137.643	3408
2141.681	3411
2145.714	3410
2149.744	3387
2153.77	3401
2157.793	3350
2161.812	3326
2165.827	3320
2169.838	3246
2173.846	3219
2177.851	3155
2181.851	3160
2185.848	3114
2189.841	3112
2193.831	3092
2197.817	3049
2201.799	3065
2205.778	3053
2209.753	3046
2213.725	3071
2217.693	3059
2221.657	3045
2225.618	3053
2229.575	3084
2233.529	3049
2237.479	3031
2241.425	3009
2245.368	2982
2249.307	2948
2253.243	2919
2257.175	2880
2261.104	2832
2265.029	2840
2268.95	2811
2272.868	2789
2276.783	2752
2280.694	2745
2284.601	2724
2288.505	2715
2292.405	2674
2296.302	2659
2300.195	2643
2304.085	2644
2307.971	2575
2311.854	2558
2315.734	2522
2319.609	2464
2323.482	2445
2327.351	2422
2331.216	2420
2335.078	2417
2338.937	2385
2342.792	2368
2346.643	2366
2350.492	2364
2354.336	2357
2358.178	2375
2362.015	2379
2365.85	2379
2369.681	2391
2373.508	2380
2377.333	2369
2381.153	2371
2384.971	2372
2388.785	2362
2392.595	2347
2396.402	2349
2400.206	2313
2404.007	2322
2407.804	2309
2411.597	2299
2415.388	2289
2419.174	2293
2422.958	2300
2426.738	2266
2430.515	2254
2434.289	2253
2438.059	2264
2441.825	2247
2445.589	2235
2449.349	2227
2453.106	2190
2456.859	2182
2460.61	2157
2464.356	2186
2468.1	2132
2471.84	2123
2475.577	2126
2479.311	2126
2483.041	2139
2486.768	2141
2490.492	2118
2494.213	2134
2497.93	2124
2501.644	2117
2505.355	2113
2509.062	2098
2512.766	2125
2516.467	2123
2520.165	2105
2523.859	2095
2527.551	2093
2531.239	2053
2534.923	2041
2538.605	2023
2542.283	2035
2545.958	2023
2549.63	2011
2553.299	2001
2556.964	2015
2560.626	1988
2564.285	1971
2567.941	1958
2571.594	1962
2575.243	1940
2578.89	1920
2582.533	1939
2586.173	1936
2589.809	1904
2593.443	1883
2597.073	1890
2600.701	1888
2604.325	1876
2607.946	1868
2611.564	1864
2615.178	1872
2618.79	1853
2622.398	1849
2626.004	1850
2629.606	1836
2633.205	1824
2636.801	1786
2640.394	1772
2643.983	1757
2647.57	1737
2651.153	1745
2654.734	1711
2658.311	1691
2661.885	1710
2665.456	1661
2669.025	1649
2672.589	1640
2676.151	1637
2679.71	1622
2683.266	1589
2686.819	1603
2690.368	1573
2693.915	1548
2697.458	1535
2700.999	1520
2704.536	1507
2708.071	1487
2711.602	1490
2715.13	1452
2718.656	1451
2722.178	1444
2725.697	1448
2729.214	1446
2732.727	1447
2736.237	1464
2739.744	1453
2743.249	1444
2746.75	1451
2750.248	1449
2753.743	1456
2757.236	1452
2760.725	1467
2764.211	1449
2767.695	1441
2771.175	1432
2774.652	1423
2778.127	1418
2781.598	1407
2785.067	1378
2788.532	1374
2791.995	1393
2795.455	1392
2798.911	1368
2802.365	1357
2805.816	1360
2809.264	1346
2812.709	1350
2816.151	1342
2819.59	1343
2823.026	1319
2826.46	1321
2829.89	1310
2833.318	1301
2836.742	1300
2840.164	1308
2843.583	1304
2846.999	1305
2850.412	1297
2853.822	1314
2857.229	1320
2860.634	1316
2864.035	1329
2867.434	1322
2870.83	1337
2874.223	1325
2877.613	1335
2881	1327
2884.385	1321
2887.766	1307
2891.145	1299
2894.521	1297
2897.894	1297
2901.264	1276
2904.631	1292
2907.996	1275
2911.358	1252
2914.717	1271
2918.073	1274
2921.426	1273
2924.777	1279
2928.124	1269
2931.469	1278
2934.811	1299
2938.15	1292
2941.487	1325
2944.821	1301
2948.152	1317
2951.48	1281
2954.805	1303
2958.128	1309
2961.447	1311
2964.765	1303
2968.079	1304
2971.39	1324
2974.699	1331
2978.005	1349
2981.308	1384
2984.609	1378
2987.907	1389
2991.202	1420
2994.494	1442
2997.784	1469
3001.07	1491
3004.355	1510
3007.636	1528
3010.915	1554
3014.191	1563
3017.464	1574
3020.734	1562
3024.002	1558
3027.267	1590
3030.53	1574
3033.789	1596
3037.046	1598
3040.301	1612
3043.552	1640
3046.801	1673
3050.048	1675
3053.291	1705
3056.532	1765
3059.771	1790
3063.006	1821
3066.239	1843
3069.469	1878
3072.697	1928
3075.922	1968
3079.144	1978
3082.364	2018
3085.581	2070
3088.795	2066
3092.007	2103
3095.216	2150
3098.423	2154
3101.627	2218
3104.828	2243
3108.026	2289
3111.222	2308
3114.416	2367
3117.607	2378
3120.795	2437
3123.98	2484
3127.163	2523
3130.344	2556
3133.521	2600
3136.696	2654
3139.869	2700
3143.039	2748
3146.206	2746
3149.371	2803
3152.533	2793
3155.693	2820
3158.85	2847
3162.005	2841
3165.157	2854
3168.306	2835
3171.453	2832
3174.597	2828
3177.739	2840
3180.878	2836
3184.014	2888
3187.149	2846
3190.28	2890
3193.409	2874
3196.536	2885
3199.659	2890
3202.781	2887
3205.9	2889
3209.016	2893
3212.13	2874
3215.241	2868
3218.35	2838
3221.456	2814
3224.56	2788
3227.661	2767
3230.76	2757
3233.856	2714
3236.95	2692
3240.041	2685
3243.13	2663
3246.216	2643
3249.3	2620
3252.382	2625
3255.46	2637
3258.537	2619
3261.611	2592
3264.682	2583
3267.751	2578
3270.818	2547
3273.882	2576
3276.943	2548
3280.002	2532
3283.059	2504
3286.113	2483
3289.165	2455
3292.214	2406
3295.261	2362
3298.306	2333
3301.348	2299
3304.387	2253
3307.425	2213
3310.459	2197
3313.492	2166
3316.521	2129
3319.549	2096
3322.574	2085
3325.597	2073
3328.617	2032
3331.635	2036
3334.65	2031
3337.663	1995
3340.674	1978
3343.682	1987
3346.688	1969
3349.691	1983
3352.692	1951
3355.691	1944
3358.687	1934
3361.681	1894
3364.673	1885
3367.662	1842
3370.649	1843
3373.633	1822
3376.615	1776
3379.595	1760
3382.572	1737
3385.547	1711
3388.52	1687
3391.49	1665
3394.458	1645
3397.424	1629
3400.387	1601
3403.348	1583
3406.307	1569
3409.263	1548
3412.217	1558
3415.168	1523
3418.118	1503
3421.065	1506
3424.009	1470
3426.951	1451
3429.891	1436
3432.829	1398
3435.764	1378
3438.697	1358
3441.628	1326
3444.557	1301
3447.483	1254
3450.407	1224
3453.328	1177
3456.247	1154
3459.164	1143
3462.079	1103
3464.991	1065
3467.902	1047
3470.809	1003
3473.715	983
3476.618	959
3479.519	937
3482.418	902
3485.315	878
3488.209	846
3491.101	834
3493.99	823
3496.878	786
3499.763	778
3502.646	747
3505.527	722
3508.405	697
3511.281	662
3514.155	655
3517.027	618
3519.897	585
3522.764	565
3525.629	539
3528.492	501
3531.352	479
3534.211	462
3537.067	426
3539.921	408
3542.773	389
3545.622	369
3548.469	348
3551.315	328
3554.157	302
3556.998	292
3559.837	283
3562.673	258
3565.507	245
3568.339	226
3571.169	223
3573.996	200
3576.822	186
3579.645	177
3582.466	166
3585.285	150
3588.101	135
3590.916	122
3593.728	109
3596.538	100
3599.346	90
3602.152	72
3604.956	62
3607.757	46
3610.556	48
3613.354	31
3616.149	30
3618.942	23
3621.732	11
3624.521	6
3627.307	-3
3630.092	-13
3632.874	-14
3635.654	-24
3638.432	-30
3641.208	-39
3643.982	-45
3646.753	-48
3649.523	-52
3652.29	-67
3655.055	-66
3657.818	-80
3660.579	-87
3663.338	-94
3666.095	-101
3668.849	-106
3671.602	-116
3674.352	-118
3677.101	-124
3679.847	-130
3682.591	-134
3685.333	-136
3688.073	-142
3690.811	-137
3693.547	-156
3696.281	-151
3699.013	-154
3701.742	-160
3704.47	-151
3707.195	-164
3709.919	-166
3712.64	-168
3715.359	-174
3718.076	-175
3720.792	-178
3723.505	-175
3726.216	-181
3728.925	-188
3731.632	-182
3734.336	-189
3737.039	-193
3739.74	-186
3742.439	-196
3745.136	-193
3747.83	-196
3750.523	-199
3753.213	-192
3755.902	-191
3758.589	-196
3761.273	-199
3763.956	-202
3766.636	-202
3769.315	-202
3771.991	-205
3774.665	-205
3777.338	-209
3780.008	-207
3782.677	-213
3785.343	-208
3788.007	-210
3790.67	-217
3793.33	-214
3795.989	-212
3798.645	-217
3801.299	-220
3803.952	-219
3806.602	-222
3809.251	-222
3811.897	-226
3814.542	-227
3817.184	-225
3819.825	-224
3822.463	-230
3825.1	-228
3827.735	-237
3830.367	-235
3832.998	-232
3835.627	-229
3838.253	-236
3840.878	-235
3843.501	-234
3846.122	-238
3848.741	-240
3851.358	-238
3853.973	-237
3856.586	-235
3859.197	-235
3861.806	-247
3864.414	-239
3867.019	-238
3869.622	-240
3872.224	-239
3874.823	-236
3877.421	-236
3880.016	-228
3882.61	-218
3885.202	-219
3887.792	-223
3890.38	-233
3892.966	-241
3895.55	-246
3898.132	-245
3900.713	-241
3903.291	-243
3905.868	-248
3908.442	-242
3911.015	-246
3913.586	-248
3916.155	-250
3918.722	-246
3921.287	-248
3923.85	-249
3926.411	-249
3928.971	-254
3931.528	-248
3934.084	-254
3936.638	-250
3939.19	-249
3941.74	-255
3944.288	-253
3946.834	-256
3949.378	-255
3951.921	-257
3954.462	-262
3957	-256
3959.537	-254
3962.072	-254
3964.606	-256
3967.137	-255
3969.667	-256
3972.194	-256
3974.72	-254
3977.244	-251
3979.766	-252
3982.286	-256
3984.805	-249
3987.321	-249
3989.836	-258
3992.349	-253
3994.86	-249
3997.369	-251
3999.877	-247
4002.382	-250
4004.886	-245
4007.388	-248
4009.888	-250
4012.386	-247
4014.883	-247
4017.377	-250
4019.87	-244
4022.361	-245
4024.85	-243
4027.338	-249
4029.823	-251
4032.307	-253
4034.789	-249
4037.269	-252
4039.747	-245
4042.224	-253
4044.699	-246
4047.172	-253
4049.643	-248
4052.112	-255
4054.58	-254
4057.046	-250
4059.51	-252
4061.972	-258
4064.432	-251
4066.891	-253
4069.348	-251
4071.803	-253
4074.256	-254
4076.708	-252
4079.158	-254
4081.606	-255
4084.052	-255
4086.497	-259
4088.939	-256
4091.38	-261
4093.819	-259
4096.257	-268
4098.693	-270
4101.127	-266
4103.559	-266
4105.989	-164
4108.418	-160
4110.845	-146
4113.27	-136
4115.694	-114
4118.115	-96
4120.535	-256
4122.954	-259
4125.37	-253
4127.785	-254
4130.198	-256
4132.609	-259
4135.019	-266
4137.427	-267
4139.833	-265
4142.237	-273
