Data from 0CFU2_RamanShift_1.txt Node
Date: Wed Jan 25 11:40:56 IST 2017
User: aro
Spectrometer: QEPB0276
Trigger mode: 0
Integration Time (sec): 5.000000E0
Scans to average: 1
Electric dark correction enabled: true
Nonlinearity correction enabled: false
Boxcar width: 0
XAxis mode: Raman Shifts
Number of Pixels in Spectrum: 1044
>>>>>Begin Spectral Data<<<<<
160.701	-37.25
166.742	-1.25
172.777	99.75
178.805	412.75
184.826	1149.75
190.841	2327.75
196.849	3669.75
202.85	4490.75
208.845	4683.75
214.833	4491.75
220.815	4363.75
226.789	4228.75
232.758	4126.75
238.719	3966.75
244.674	3835.75
250.623	3662.75
256.565	3521.75
262.5	3332.75
268.429	3202.75
274.351	3065.75
280.267	2934.75
286.176	2836.75
292.079	2753.75
297.975	2640.75
303.865	2566.75
309.748	2508.75
315.625	2432.75
321.495	2388.75
327.359	2347.75
333.217	2326.75
339.068	2306.75
344.912	2287.75
350.751	2271.75
356.583	2293.75
362.408	2261.75
368.227	2270.75
374.04	2292.75
379.847	2320.75
385.647	2304.75
391.44	2316.75
397.228	2322.75
403.009	2335.75
408.784	2350.75
414.553	2358.75
420.315	2345.75
426.071	2347.75
431.821	2372.75
437.565	2352.75
443.302	2352.75
449.033	2356.75
454.758	2329.75
460.477	2329.75
466.189	2307.75
471.896	2308.75
477.596	2301.75
483.29	2273.75
488.978	2277.75
494.66	2262.75
500.335	2210.75
506.005	2223.75
511.668	2152.75
517.325	2118.75
522.977	2098.75
528.622	2047.75
534.261	2030.75
539.894	2003.75
545.521	2016.75
551.141	1969.75
556.756	1964.75
562.365	1956.75
567.968	1955.75
573.565	1928.75
579.155	1930.75
584.74	1922.75
590.319	1904.75
595.892	1891.75
601.459	1871.75
607.02	1871.75
612.575	1848.75
618.124	1826.75
623.667	1808.75
629.204	1805.75
634.735	1767.75
640.261	1750.75
645.781	1750.75
651.294	1750.75
656.802	1728.75
662.304	1730.75
667.8	1720.75
673.29	1718.75
678.775	1715.75
684.254	1702.75
689.726	1692.75
695.193	1700.75
700.655	1675.75
706.11	1658.75
711.56	1652.75
717.004	1637.75
722.442	1637.75
727.874	1623.75
733.301	1617.75
738.722	1592.75
744.137	1594.75
749.547	1598.75
754.951	1595.75
760.349	1591.75
765.741	1590.75
771.128	1578.75
776.509	1609.75
781.885	1589.75
787.254	1592.75
792.618	1578.75
797.977	1578.75
803.33	1553.75
808.677	1535.75
814.019	1533.75
819.355	1490.75
824.686	1487.75
830.011	1475.75
835.33	1480.75
840.644	1479.75
845.952	1465.75
851.255	1470.75
856.552	1464.75
861.844	1449.75
867.13	1438.75
872.41	1424.75
877.686	1415.75
882.955	1399.75
888.219	1376.75
893.478	1354.75
898.731	1330.75
903.979	1303.75
909.221	1292.75
914.458	1293.75
919.69	1287.75
924.916	1289.75
930.136	1278.75
935.351	1280.75
940.561	1283.75
945.766	1271.75
950.965	1262.75
956.158	1270.75
961.347	1237.75
966.529	1234.75
971.707	1202.75
976.879	1186.75
982.046	1184.75
987.208	1180.75
992.364	1167.75
997.515	1167.75
1002.66	1180.75
1007.801	1196.75
1012.936	1209.75
1018.066	1221.75
1023.19	1235.75
1028.309	1244.75
1033.423	1214.75
1038.532	1228.75
1043.636	1207.75
1048.734	1207.75
1053.827	1176.75
1058.915	1162.75
1063.998	1179.75
1069.075	1157.75
1074.147	1162.75
1079.214	1171.75
1084.276	1189.75
1089.333	1196.75
1094.385	1197.75
1099.431	1217.75
1104.472	1204.75
1109.509	1196.75
1114.54	1184.75
1119.565	1184.75
1124.586	1150.75
1129.602	1141.75
1134.613	1143.75
1139.618	1127.75
1144.619	1136.75
1149.614	1137.75
1154.604	1148.75
1159.589	1145.75
1164.57	1142.75
1169.545	1163.75
1174.515	1172.75
1179.48	1158.75
1184.44	1154.75
1189.395	1133.75
1194.345	1141.75
1199.29	1133.75
1204.23	1138.75
1209.165	1130.75
1214.095	1155.75
1219.021	1146.75
1223.941	1158.75
1228.856	1177.75
1233.766	1177.75
1238.672	1180.75
1243.572	1171.75
1248.467	1182.75
1253.358	1166.75
1258.244	1154.75
1263.124	1122.75
1268	1096.75
1272.871	1088.75
1277.737	1093.75
1282.599	1089.75
1287.455	1091.75
1292.306	1095.75
1297.153	1089.75
1301.995	1118.75
1306.832	1127.75
1311.664	1126.75
1316.491	1124.75
1321.314	1116.75
1326.132	1100.75
1330.945	1116.75
1335.753	1084.75
1340.556	1076.75
1345.354	1054.75
1350.148	1054.75
1354.937	1043.75
1359.722	1030.75
1364.501	1030.75
1369.276	1035.75
1374.046	1014.75
1378.811	1003.75
1383.572	998.75
1388.327	1003.75
1393.079	999.75
1397.825	992.75
1402.567	986.75
1407.304	982.75
1412.036	996.75
1416.764	990.75
1421.487	988.75
1426.205	990.75
1430.919	979.75
1435.628	1003.75
1440.333	1018.75
1445.032	1031.75
1449.727	1011.75
1454.418	1023.75
1459.104	1031.75
1463.785	1025.75
1468.462	1007.75
1473.134	1013.75
1477.802	1001.75
1482.465	988.75
1487.123	976.75
1491.777	1004.75
1496.426	1010.75
1501.071	1008.75
1505.711	1008.75
1510.347	1022.75
1514.978	1036.75
1519.604	1044.75
1524.226	1028.75
1528.844	1032.75
1533.457	1045.75
1538.065	1044.75
1542.669	1037.75
1547.269	1030.75
1551.864	1063.75
1556.454	1044.75
1561.041	1062.75
1565.622	1067.75
1570.199	1069.75
1574.772	1097.75
1579.34	1116.75
1583.904	1151.75
1588.464	1162.75
1593.019	1161.75
1597.569	1186.75
1602.115	1219.75
1606.657	1210.75
1611.195	1212.75
1615.728	1243.75
1620.256	1254.75
1624.78	1261.75
1629.3	1298.75
1633.816	1295.75
1638.327	1328.75
1642.834	1331.75
1647.336	1345.75
1651.834	1355.75
1656.328	1348.75
1660.817	1328.75
1665.302	1325.75
1669.783	1301.75
1674.259	1277.75
1678.732	1233.75
1683.199	1189.75
1687.663	1159.75
1692.122	1109.75
1696.577	1053.75
1701.028	1011.75
1705.474	955.75
1709.917	928.75
1714.355	907.75
1718.788	898.75
1723.218	886.75
1727.643	885.75
1732.064	855.75
1736.481	825.75
1740.893	807.75
1745.301	799.75
1749.705	769.75
1754.105	738.75
1758.501	727.75
1762.893	719.75
1767.28	714.75
1771.663	701.75
1776.042	696.75
1780.417	689.75
1784.787	690.75
1789.154	699.75
1793.516	678.75
1797.874	687.75
1802.228	679.75
1806.578	673.75
1810.924	667.75
1815.266	642.75
1819.603	643.75
1823.937	646.75
1828.266	632.75
1832.591	631.75
1836.913	626.75
1841.23	613.75
1845.543	625.75
1849.852	613.75
1854.156	628.75
1858.457	629.75
1862.754	617.75
1867.047	632.75
1871.335	642.75
1875.62	640.75
1879.9	641.75
1884.177	653.75
1888.449	637.75
1892.718	648.75
1896.982	630.75
1901.243	625.75
1905.499	624.75
1909.752	621.75
1914	628.75
1918.245	629.75
1922.485	622.75
1926.722	628.75
1930.954	618.75
1935.183	617.75
1939.408	634.75
1943.628	637.75
1947.845	626.75
1952.058	623.75
1956.267	628.75
1960.472	621.75
1964.673	616.75
1968.87	622.75
1973.063	622.75
1977.252	600.75
1981.438	601.75
1985.619	592.75
1989.797	599.75
1993.971	596.75
1998.14	592.75
2002.306	601.75
2006.469	609.75
2010.627	599.75
2014.781	613.75
2018.932	624.75
2023.078	612.75
2027.221	609.75
2031.36	608.75
2035.495	606.75
2039.627	604.75
2043.754	594.75
2047.878	590.75
2051.998	593.75
2056.114	594.75
2060.226	594.75
2064.334	608.75
2068.439	593.75
2072.54	597.75
2076.637	594.75
2080.73	616.75
2084.82	607.75
2088.906	605.75
2092.988	613.75
2097.066	606.75
2101.14	609.75
2105.211	599.75
2109.278	597.75
2113.342	585.75
2117.401	577.75
2121.457	581.75
2125.509	579.75
2129.558	582.75
2133.602	578.75
2137.643	577.75
2141.681	579.75
2145.714	574.75
2149.744	563.75
2153.77	566.75
2157.793	560.75
2161.812	557.75
2165.827	546.75
2169.838	542.75
2173.846	540.75
2177.851	527.75
2181.851	520.75
2185.848	526.75
2189.841	513.75
2193.831	512.75
2197.817	499.75
2201.799	501.75
2205.778	487.75
2209.753	501.75
2213.725	490.75
2217.693	492.75
2221.657	494.75
2225.618	486.75
2229.575	493.75
2233.529	490.75
2237.479	480.75
2241.425	485.75
2245.368	465.75
2249.307	474.75
2253.243	452.75
2257.175	457.75
2261.104	442.75
2265.029	431.75
2268.95	431.75
2272.868	424.75
2276.783	426.75
2280.694	415.75
2284.601	407.75
2288.505	404.75
2292.405	414.75
2296.302	398.75
2300.195	404.75
2304.085	390.75
2307.971	378.75
2311.854	375.75
2315.734	367.75
2319.609	360.75
2323.482	360.75
2327.351	348.75
2331.216	348.75
2335.078	344.75
2338.937	341.75
2342.792	331.75
2346.643	335.75
2350.492	330.75
2354.336	338.75
2358.178	348.75
2362.015	335.75
2365.85	344.75
2369.681	346.75
2373.508	343.75
2377.333	348.75
2381.153	339.75
2384.971	343.75
2388.785	343.75
2392.595	341.75
2396.402	341.75
2400.206	334.75
2404.007	334.75
2407.804	323.75
2411.597	322.75
2415.388	323.75
2419.174	332.75
2422.958	333.75
2426.738	322.75
2430.515	328.75
2434.289	316.75
2438.059	324.75
2441.825	317.75
2445.589	319.75
2449.349	317.75
2453.106	316.75
2456.859	308.75
2460.61	306.75
2464.356	304.75
2468.1	299.75
2471.84	296.75
2475.577	298.75
2479.311	292.75
2483.041	288.75
2486.768	295.75
2490.492	288.75
2494.213	292.75
2497.93	299.75
2501.644	291.75
2505.355	294.75
2509.062	293.75
2512.766	290.75
2516.467	283.75
2520.165	285.75
2523.859	279.75
2527.551	284.75
2531.239	280.75
2534.923	279.75
2538.605	273.75
2542.283	266.75
2545.958	263.75
2549.63	272.75
2553.299	262.75
2556.964	263.75
2560.626	271.75
2564.285	260.75
2567.941	265.75
2571.594	260.75
2575.243	250.75
2578.89	254.75
2582.533	255.75
2586.173	254.75
2589.809	250.75
2593.443	249.75
2597.073	246.75
2600.701	246.75
2604.325	238.75
2607.946	240.75
2611.564	236.75
2615.178	234.75
2618.79	237.75
2622.398	238.75
2626.004	233.75
2629.606	230.75
2633.205	226.75
2636.801	231.75
2640.394	229.75
2643.983	220.75
2647.57	223.75
2651.153	226.75
2654.734	205.75
2658.311	210.75
2661.885	223.75
2665.456	208.75
2669.025	206.75
2672.589	209.75
2676.151	201.75
2679.71	206.75
2683.266	203.75
2686.819	201.75
2690.368	206.75
2693.915	197.75
2697.458	187.75
2700.999	193.75
2704.536	188.75
2708.071	197.75
2711.602	182.75
2715.13	193.75
2718.656	187.75
2722.178	193.75
2725.697	184.75
2729.214	186.75
2732.727	190.75
2736.237	187.75
2739.744	186.75
2743.249	182.75
2746.75	185.75
2750.248	188.75
2753.743	185.75
2757.236	184.75
2760.725	184.75
2764.211	182.75
2767.695	179.75
2771.175	180.75
2774.652	181.75
2778.127	174.75
2781.598	181.75
2785.067	184.75
2788.532	184.75
2791.995	178.75
2795.455	176.75
2798.911	180.75
2802.365	182.75
2805.816	179.75
2809.264	183.75
2812.709	186.75
2816.151	180.75
2819.59	190.75
2823.026	180.75
2826.46	187.75
2829.89	192.75
2833.318	181.75
2836.742	194.75
2840.164	193.75
2843.583	195.75
2846.999	191.75
2850.412	194.75
2853.822	201.75
2857.229	197.75
2860.634	195.75
2864.035	205.75
2867.434	206.75
2870.83	214.75
2874.223	207.75
2877.613	219.75
2881	218.75
2884.385	223.75
2887.766	225.75
2891.145	222.75
2894.521	226.75
2897.894	225.75
2901.264	230.75
2904.631	233.75
2907.996	233.75
2911.358	241.75
2914.717	243.75
2918.073	239.75
2921.426	242.75
2924.777	252.75
2928.124	255.75
2931.469	263.75
2934.811	261.75
2938.15	267.75
2941.487	272.75
2944.821	279.75
2948.152	276.75
2951.48	286.75
2954.805	285.75
2958.128	295.75
2961.447	302.75
2964.765	307.75
2968.079	307.75
2971.39	316.75
2974.699	327.75
2978.005	328.75
2981.308	340.75
2984.609	351.75
2987.907	352.75
2991.202	364.75
2994.494	387.75
2997.784	394.75
3001.07	400.75
3004.355	415.75
3007.636	428.75
3010.915	439.75
3014.191	450.75
3017.464	453.75
3020.734	463.75
3024.002	475.75
3027.267	477.75
3030.53	476.75
3033.789	507.75
3037.046	498.75
3040.301	513.75
3043.552	538.75
3046.801	531.75
3050.048	565.75
3053.291	573.75
3056.532	596.75
3059.771	613.75
3063.006	638.75
3066.239	654.75
3069.469	662.75
3072.697	685.75
3075.922	699.75
3079.144	736.75
3082.364	751.75
3085.581	765.75
3088.795	788.75
3092.007	798.75
3095.216	817.75
3098.423	818.75
3101.627	860.75
3104.828	879.75
3108.026	883.75
3111.222	911.75
3114.416	927.75
3117.607	960.75
3120.795	986.75
3123.98	999.75
3127.163	1023.75
3130.344	1061.75
3133.521	1073.75
3136.696	1081.75
3139.869	1103.75
3143.039	1127.75
3146.206	1145.75
3149.371	1158.75
3152.533	1168.75
3155.693	1191.75
3158.85	1179.75
3162.005	1201.75
3165.157	1191.75
3168.306	1207.75
3171.453	1219.75
3174.597	1228.75
3177.739	1227.75
3180.878	1212.75
3184.014	1236.75
3187.149	1239.75
3190.28	1230.75
3193.409	1237.75
3196.536	1245.75
3199.659	1233.75
3202.781	1230.75
3205.9	1255.75
3209.016	1246.75
3212.13	1243.75
3215.241	1238.75
3218.35	1230.75
3221.456	1224.75
3224.56	1199.75
3227.661	1210.75
3230.76	1186.75
3233.856	1178.75
3236.95	1152.75
3240.041	1150.75
3243.13	1153.75
3246.216	1135.75
3249.3	1134.75
3252.382	1108.75
3255.46	1117.75
3258.537	1115.75
3261.611	1092.75
3264.682	1095.75
3267.751	1104.75
3270.818	1087.75
3273.882	1100.75
3276.943	1083.75
3280.002	1062.75
3283.059	1067.75
3286.113	1039.75
3289.165	1036.75
3292.214	1016.75
3295.261	1012.75
3298.306	997.75
3301.348	972.75
3304.387	963.75
3307.425	942.75
3310.459	924.75
3313.492	931.75
3316.521	923.75
3319.549	913.75
3322.574	896.75
3325.597	892.75
3328.617	879.75
3331.635	883.75
3334.65	869.75
3337.663	866.75
3340.674	870.75
3343.682	860.75
3346.688	854.75
3349.691	869.75
3352.692	851.75
3355.691	830.75
3358.687	832.75
3361.681	830.75
3364.673	810.75
3367.662	803.75
3370.649	799.75
3373.633	786.75
3376.615	787.75
3379.595	767.75
3382.572	761.75
3385.547	739.75
3388.52	729.75
3391.49	716.75
3394.458	721.75
3397.424	708.75
3400.387	690.75
3403.348	685.75
3406.307	681.75
3409.263	675.75
3412.217	673.75
3415.168	655.75
3418.118	651.75
3421.065	643.75
3424.009	640.75
3426.951	615.75
3429.891	620.75
3432.829	603.75
3435.764	592.75
3438.697	570.75
3441.628	565.75
3444.557	557.75
3447.483	536.75
3450.407	516.75
3453.328	510.75
3456.247	496.75
3459.164	476.75
3462.079	456.75
3464.991	438.75
3467.902	436.75
3470.809	416.75
3473.715	401.75
3476.618	400.75
3479.519	373.75
3482.418	365.75
3485.315	367.75
3488.209	346.75
3491.101	330.75
3493.99	327.75
3496.878	320.75
3499.763	317.75
3502.646	298.75
3505.527	279.75
3508.405	273.75
3511.281	262.75
3514.155	254.75
3517.027	237.75
3519.897	225.75
3522.764	217.75
3525.629	208.75
3528.492	190.75
3531.352	182.75
3534.211	172.75
3537.067	152.75
3539.921	153.75
3542.773	141.75
3545.622	134.75
3548.469	122.75
3551.315	115.75
3554.157	105.75
3556.998	98.75
3559.837	93.75
3562.673	87.75
3565.507	82.75
3568.339	73.75
3571.169	69.75
3573.996	55.75
3576.822	55.75
3579.645	56.75
3582.466	40.75
3585.285	40.75
3588.101	34.75
3590.916	30.75
3593.728	21.75
3596.538	14.75
3599.346	14.75
3602.152	7.75
3604.956	5.75
3607.757	2.75
3610.556	-2.25
3613.354	-5.25
3616.149	-9.25
3618.942	-12.25
3621.732	-17.25
3624.521	-19.25
3627.307	-22.25
3630.092	-27.25
3632.874	-28.25
3635.654	-32.25
3638.432	-39.25
3641.208	-42.25
3643.982	-41.25
3646.753	-43.25
3649.523	-44.25
3652.29	-45.25
3655.055	-52.25
3657.818	-48.25
3660.579	-51.25
3663.338	-56.25
3666.095	-57.25
3668.849	-61.25
3671.602	-65.25
3674.352	-66.25
3677.101	-70.25
3679.847	-70.25
3682.591	-73.25
3685.333	-78.25
3688.073	-78.25
3690.811	-77.25
3693.547	-82.25
3696.281	-82.25
3699.013	-85.25
3701.742	-81.25
3704.47	-81.25
3707.195	-83.25
3709.919	-86.25
3712.64	-89.25
3715.359	-88.25
3718.076	-85.25
3720.792	-93.25
3723.505	-93.25
3726.216	-93.25
3728.925	-94.25
3731.632	-94.25
3734.336	-96.25
3737.039	-94.25
3739.74	-97.25
3742.439	-96.25
3745.136	-96.25
3747.83	-90.25
3750.523	-93.25
3753.213	-93.25
3755.902	-95.25
3758.589	-98.25
3761.273	-96.25
3763.956	-101.25
3766.636	-103.25
3769.315	-102.25
3771.991	-108.25
3774.665	-108.25
3777.338	-103.25
3780.008	-106.25
3782.677	-105.25
3785.343	-104.25
3788.007	-101.25
3790.67	-101.25
3793.33	-103.25
3795.989	-104.25
3798.645	-102.25
3801.299	-104.25
3803.952	-103.25
3806.602	-102.25
3809.251	-105.25
3811.897	-108.25
3814.542	-105.25
3817.184	-111.25
3819.825	-111.25
3822.463	-110.25
3825.1	-105.25
3827.735	-109.25
3830.367	-108.25
3832.998	-107.25
3835.627	-106.25
3838.253	-108.25
3840.878	-102.25
3843.501	-106.25
3846.122	-106.25
3848.741	-105.25
3851.358	-104.25
3853.973	-110.25
3856.586	-112.25
3859.197	-110.25
3861.806	-114.25
3864.414	-111.25
3867.019	-112.25
3869.622	-108.25
3872.224	-107.25
3874.823	-105.25
3877.421	-103.25
3880.016	-104.25
3882.61	-97.25
3885.202	-101.25
3887.792	-102.25
3890.38	-104.25
3892.966	-110.25
3895.55	-112.25
3898.132	-110.25
3900.713	-114.25
3903.291	-112.25
3905.868	-113.25
3908.442	-113.25
3911.015	-112.25
3913.586	-111.25
3916.155	-109.25
3918.722	-111.25
3921.287	-112.25
3923.85	-112.25
3926.411	-111.25
3928.971	-116.25
3931.528	-112.25
3934.084	-117.25
3936.638	-118.25
3939.19	-117.25
3941.74	-112.25
3944.288	-116.25
3946.834	-118.25
3949.378	-116.25
3951.921	-119.25
3954.462	-114.25
3957	-114.25
3959.537	-114.25
3962.072	-111.25
3964.606	-111.25
3967.137	-111.25
3969.667	-112.25
3972.194	-114.25
3974.72	-112.25
3977.244	-114.25
3979.766	-111.25
3982.286	-117.25
3984.805	-116.25
3987.321	-114.25
3989.836	-113.25
3992.349	-114.25
3994.86	-110.25
3997.369	-111.25
3999.877	-111.25
4002.382	-108.25
4004.886	-109.25
4007.388	-110.25
4009.888	-110.25
4012.386	-112.25
4014.883	-113.25
4017.377	-112.25
4019.87	-114.25
4022.361	-114.25
4024.85	-114.25
4027.338	-113.25
4029.823	-115.25
4032.307	-113.25
4034.789	-112.25
4037.269	-114.25
4039.747	-111.25
4042.224	-108.25
4044.699	-112.25
4047.172	-109.25
4049.643	-114.25
4052.112	-113.25
4054.58	-116.25
4057.046	-115.25
4059.51	-114.25
4061.972	-119.25
4064.432	-115.25
4066.891	-116.25
4069.348	-112.25
4071.803	-112.25
4074.256	-116.25
4076.708	-113.25
4079.158	-112.25
4081.606	-113.25
4084.052	-115.25
4086.497	-113.25
4088.939	-110.25
4091.38	-115.25
4093.819	-116.25
4096.257	-112.25
4098.693	-119.25
4101.127	-121.25
4103.559	-119.25
4105.989	-78.25
4108.418	-75.25
4110.845	-67.25
4113.27	-58.25
4115.694	-58.25
4118.115	-49.25
4120.535	-115.25
4122.954	-119.25
4125.37	-115.25
4127.785	-117.25
4130.198	-117.25
4132.609	-117.25
4135.019	-118.25
4137.427	-119.25
4139.833	-117.25
4142.237	-119.25
