Data from 1000CFU1_A_RamanShift_1.txt Node
Date: Wed Jan 25 11:52:51 IST 2017
User: aro
Spectrometer: QEPB0276
Trigger mode: 0
Integration Time (sec): 5.000000E0
Scans to average: 1
Electric dark correction enabled: true
Nonlinearity correction enabled: false
Boxcar width: 0
XAxis mode: Raman Shifts
Number of Pixels in Spectrum: 1044
>>>>>Begin Spectral Data<<<<<
160.701	-31.88
166.742	-3.88
172.777	93.12
178.805	358.12
184.826	984.12
190.841	1921.12
196.849	2967.12
202.85	3572.12
208.845	3710.12
214.833	3607.12
220.815	3450.12
226.789	3375.12
232.758	3304.12
238.719	3193.12
244.674	3074.12
250.623	2949.12
256.565	2824.12
262.5	2719.12
268.429	2627.12
274.351	2531.12
280.267	2443.12
286.176	2360.12
292.079	2282.12
297.975	2233.12
303.865	2182.12
309.748	2101.12
315.625	2070.12
321.495	2046.12
327.359	2007.12
333.217	1968.12
339.068	1961.12
344.912	1966.12
350.751	1959.12
356.583	1944.12
362.408	1958.12
368.227	1949.12
374.04	1946.12
379.847	1962.12
385.647	1970.12
391.44	1975.12
397.228	1998.12
403.009	1997.12
408.784	2011.12
414.553	2023.12
420.315	2024.12
426.071	2021.12
431.821	2007.12
437.565	2012.12
443.302	2015.12
449.033	1998.12
454.758	2006.12
460.477	1998.12
466.189	1976.12
471.896	2006.12
477.596	1973.12
483.29	1940.12
488.978	1955.12
494.66	1930.12
500.335	1925.12
506.005	1875.12
511.668	1854.12
517.325	1816.12
522.977	1767.12
528.622	1740.12
534.261	1740.12
539.894	1728.12
545.521	1703.12
551.141	1708.12
556.756	1698.12
562.365	1679.12
567.968	1669.12
573.565	1659.12
579.155	1647.12
584.74	1635.12
590.319	1623.12
595.892	1639.12
601.459	1617.12
607.02	1580.12
612.575	1594.12
618.124	1570.12
623.667	1543.12
629.204	1538.12
634.735	1539.12
640.261	1521.12
645.781	1511.12
651.294	1520.12
656.802	1496.12
662.304	1496.12
667.8	1503.12
673.29	1515.12
678.775	1502.12
684.254	1487.12
689.726	1468.12
695.193	1464.12
700.655	1454.12
706.11	1442.12
711.56	1435.12
717.004	1440.12
722.442	1421.12
727.874	1408.12
733.301	1407.12
738.722	1405.12
744.137	1403.12
749.547	1399.12
754.951	1388.12
760.349	1396.12
765.741	1389.12
771.128	1400.12
776.509	1403.12
781.885	1414.12
787.254	1402.12
792.618	1398.12
797.977	1377.12
803.33	1369.12
808.677	1373.12
814.019	1355.12
819.355	1349.12
824.686	1334.12
830.011	1323.12
835.33	1328.12
840.644	1323.12
845.952	1308.12
851.255	1303.12
856.552	1298.12
861.844	1295.12
867.13	1298.12
872.41	1285.12
877.686	1274.12
882.955	1250.12
888.219	1236.12
893.478	1220.12
898.731	1213.12
903.979	1190.12
909.221	1189.12
914.458	1166.12
919.69	1182.12
924.916	1179.12
930.136	1170.12
935.351	1177.12
940.561	1179.12
945.766	1163.12
950.965	1171.12
956.158	1148.12
961.347	1141.12
966.529	1124.12
971.707	1109.12
976.879	1094.12
982.046	1090.12
987.208	1095.12
992.364	1088.12
997.515	1095.12
1002.66	1113.12
1007.801	1112.12
1012.936	1127.12
1018.066	1138.12
1023.19	1151.12
1028.309	1145.12
1033.423	1142.12
1038.532	1142.12
1043.636	1125.12
1048.734	1114.12
1053.827	1094.12
1058.915	1085.12
1063.998	1078.12
1069.075	1089.12
1074.147	1075.12
1079.214	1095.12
1084.276	1110.12
1089.333	1123.12
1094.385	1115.12
1099.431	1124.12
1104.472	1123.12
1109.509	1112.12
1114.54	1112.12
1119.565	1085.12
1124.586	1066.12
1129.602	1071.12
1134.613	1072.12
1139.618	1051.12
1144.619	1066.12
1149.614	1047.12
1154.604	1074.12
1159.589	1072.12
1164.57	1082.12
1169.545	1084.12
1174.515	1090.12
1179.48	1081.12
1184.44	1073.12
1189.395	1085.12
1194.345	1060.12
1199.29	1059.12
1204.23	1072.12
1209.165	1061.12
1214.095	1056.12
1219.021	1078.12
1223.941	1082.12
1228.856	1081.12
1233.766	1108.12
1238.672	1098.12
1243.572	1094.12
1248.467	1098.12
1253.358	1081.12
1258.244	1073.12
1263.124	1031.12
1268	1037.12
1272.871	1029.12
1277.737	1013.12
1282.599	1018.12
1287.455	1014.12
1292.306	1025.12
1297.153	1031.12
1301.995	1033.12
1306.832	1041.12
1311.664	1039.12
1316.491	1050.12
1321.314	1027.12
1326.132	1010.12
1330.945	998.12
1335.753	982.12
1340.556	941.12
1345.354	917.12
1350.148	901.12
1354.937	894.12
1359.722	909.12
1364.501	917.12
1369.276	942.12
1374.046	951.12
1378.811	985.12
1383.572	1011.12
1388.327	1016.12
1393.079	1015.12
1397.825	991.12
1402.567	969.12
1407.304	945.12
1412.036	941.12
1416.764	923.12
1421.487	927.12
1426.205	933.12
1430.919	927.12
1435.628	929.12
1440.333	940.12
1445.032	910.12
1449.727	933.12
1454.418	929.12
1459.104	910.12
1463.785	912.12
1468.462	893.12
1473.134	889.12
1477.802	868.12
1482.465	856.12
1487.123	870.12
1491.777	878.12
1496.426	887.12
1501.071	902.12
1505.711	925.12
1510.347	942.12
1514.978	968.12
1519.604	973.12
1524.226	996.12
1528.844	1013.12
1533.457	1004.12
1538.065	998.12
1542.669	995.12
1547.269	1000.12
1551.864	1002.12
1556.454	1014.12
1561.041	994.12
1565.622	1022.12
1570.199	1010.12
1574.772	1037.12
1579.34	1029.12
1583.904	1047.12
1588.464	1047.12
1593.019	1076.12
1597.569	1068.12
1602.115	1082.12
1606.657	1077.12
1611.195	1079.12
1615.728	1083.12
1620.256	1100.12
1624.78	1104.12
1629.3	1116.12
1633.816	1138.12
1638.327	1150.12
1642.834	1157.12
1647.336	1153.12
1651.834	1180.12
1656.328	1166.12
1660.817	1159.12
1665.302	1136.12
1669.783	1113.12
1674.259	1076.12
1678.732	1042.12
1683.199	980.12
1687.663	949.12
1692.122	908.12
1696.577	887.12
1701.028	889.12
1705.474	909.12
1709.917	926.12
1714.355	925.12
1718.788	900.12
1723.218	887.12
1727.643	853.12
1732.064	824.12
1736.481	785.12
1740.893	766.12
1745.301	749.12
1749.705	722.12
1754.105	704.12
1758.501	675.12
1762.893	664.12
1767.28	633.12
1771.663	615.12
1776.042	601.12
1780.417	603.12
1784.787	604.12
1789.154	617.12
1793.516	645.12
1797.874	665.12
1802.228	667.12
1806.578	676.12
1810.924	685.12
1815.266	672.12
1819.603	656.12
1823.937	649.12
1828.266	638.12
1832.591	620.12
1836.913	619.12
1841.23	613.12
1845.543	605.12
1849.852	609.12
1854.156	601.12
1858.457	599.12
1862.754	595.12
1867.047	607.12
1871.335	598.12
1875.62	595.12
1879.9	602.12
1884.177	588.12
1888.449	593.12
1892.718	580.12
1896.982	578.12
1901.243	578.12
1905.499	568.12
1909.752	575.12
1914	561.12
1918.245	567.12
1922.485	588.12
1926.722	584.12
1930.954	605.12
1935.183	608.12
1939.408	630.12
1943.628	630.12
1947.845	629.12
1952.058	633.12
1956.267	612.12
1960.472	625.12
1964.673	616.12
1968.87	600.12
1973.063	599.12
1977.252	603.12
1981.438	598.12
1985.619	582.12
1989.797	576.12
1993.971	582.12
1998.14	579.12
2002.306	572.12
2006.469	577.12
2010.627	570.12
2014.781	576.12
2018.932	581.12
2023.078	567.12
2027.221	572.12
2031.36	560.12
2035.495	541.12
2039.627	551.12
2043.754	537.12
2047.878	540.12
2051.998	548.12
2056.114	535.12
2060.226	542.12
2064.334	542.12
2068.439	543.12
2072.54	553.12
2076.637	559.12
2080.73	569.12
2084.82	564.12
2088.906	569.12
2092.988	572.12
2097.066	563.12
2101.14	573.12
2105.211	560.12
2109.278	567.12
2113.342	573.12
2117.401	569.12
2121.457	563.12
2125.509	549.12
2129.558	564.12
2133.602	552.12
2137.643	548.12
2141.681	547.12
2145.714	547.12
2149.744	550.12
2153.77	538.12
2157.793	533.12
2161.812	531.12
2165.827	509.12
2169.838	519.12
2173.846	511.12
2177.851	498.12
2181.851	485.12
2185.848	481.12
2189.841	481.12
2193.831	474.12
2197.817	471.12
2201.799	474.12
2205.778	456.12
2209.753	463.12
2213.725	453.12
2217.693	461.12
2221.657	468.12
2225.618	453.12
2229.575	450.12
2233.529	466.12
2237.479	453.12
2241.425	447.12
2245.368	433.12
2249.307	439.12
2253.243	428.12
2257.175	431.12
2261.104	416.12
2265.029	408.12
2268.95	406.12
2272.868	394.12
2276.783	405.12
2280.694	395.12
2284.601	394.12
2288.505	389.12
2292.405	390.12
2296.302	374.12
2300.195	383.12
2304.085	371.12
2307.971	365.12
2311.854	365.12
2315.734	357.12
2319.609	354.12
2323.482	353.12
2327.351	351.12
2331.216	349.12
2335.078	344.12
2338.937	341.12
2342.792	336.12
2346.643	328.12
2350.492	337.12
2354.336	328.12
2358.178	337.12
2362.015	334.12
2365.85	343.12
2369.681	341.12
2373.508	341.12
2377.333	337.12
2381.153	338.12
2384.971	335.12
2388.785	333.12
2392.595	336.12
2396.402	325.12
2400.206	322.12
2404.007	318.12
2407.804	319.12
2411.597	315.12
2415.388	319.12
2419.174	313.12
2422.958	316.12
2426.738	314.12
2430.515	317.12
2434.289	316.12
2438.059	304.12
2441.825	308.12
2445.589	310.12
2449.349	314.12
2453.106	295.12
2456.859	296.12
2460.61	293.12
2464.356	288.12
2468.1	291.12
2471.84	286.12
2475.577	278.12
2479.311	279.12
2483.041	281.12
2486.768	277.12
2490.492	279.12
2494.213	288.12
2497.93	276.12
2501.644	282.12
2505.355	280.12
2509.062	276.12
2512.766	280.12
2516.467	273.12
2520.165	275.12
2523.859	268.12
2527.551	276.12
2531.239	270.12
2534.923	265.12
2538.605	261.12
2542.283	270.12
2545.958	262.12
2549.63	262.12
2553.299	264.12
2556.964	263.12
2560.626	258.12
2564.285	265.12
2567.941	260.12
2571.594	267.12
2575.243	264.12
2578.89	252.12
2582.533	259.12
2586.173	251.12
2589.809	254.12
2593.443	254.12
2597.073	257.12
2600.701	248.12
2604.325	243.12
2607.946	247.12
2611.564	237.12
2615.178	240.12
2618.79	236.12
2622.398	240.12
2626.004	244.12
2629.606	239.12
2633.205	239.12
2636.801	229.12
2640.394	227.12
2643.983	226.12
2647.57	225.12
2651.153	225.12
2654.734	219.12
2658.311	211.12
2661.885	214.12
2665.456	208.12
2669.025	212.12
2672.589	201.12
2676.151	207.12
2679.71	213.12
2683.266	194.12
2686.819	200.12
2690.368	195.12
2693.915	188.12
2697.458	190.12
2700.999	175.12
2704.536	172.12
2708.071	171.12
2711.602	164.12
2715.13	161.12
2718.656	163.12
2722.178	160.12
2725.697	153.12
2729.214	159.12
2732.727	154.12
2736.237	156.12
2739.744	158.12
2743.249	161.12
2746.75	166.12
2750.248	167.12
2753.743	165.12
2757.236	175.12
2760.725	179.12
2764.211	177.12
2767.695	178.12
2771.175	175.12
2774.652	175.12
2778.127	179.12
2781.598	175.12
2785.067	167.12
2788.532	174.12
2791.995	166.12
2795.455	177.12
2798.911	181.12
2802.365	181.12
2805.816	177.12
2809.264	185.12
2812.709	184.12
2816.151	173.12
2819.59	174.12
2823.026	173.12
2826.46	177.12
2829.89	174.12
2833.318	182.12
2836.742	181.12
2840.164	177.12
2843.583	187.12
2846.999	177.12
2850.412	182.12
2853.822	193.12
2857.229	185.12
2860.634	196.12
2864.035	191.12
2867.434	194.12
2870.83	199.12
2874.223	195.12
2877.613	198.12
2881	197.12
2884.385	197.12
2887.766	191.12
2891.145	189.12
2894.521	198.12
2897.894	196.12
2901.264	196.12
2904.631	200.12
2907.996	204.12
2911.358	200.12
2914.717	207.12
2918.073	207.12
2921.426	208.12
2924.777	207.12
2928.124	207.12
2931.469	215.12
2934.811	211.12
2938.15	208.12
2941.487	222.12
2944.821	227.12
2948.152	228.12
2951.48	222.12
2954.805	216.12
2958.128	225.12
2961.447	226.12
2964.765	242.12
2968.079	238.12
2971.39	250.12
2974.699	254.12
2978.005	258.12
2981.308	266.12
2984.609	276.12
2987.907	291.12
2991.202	293.12
2994.494	304.12
2997.784	309.12
3001.07	324.12
3004.355	336.12
3007.636	342.12
3010.915	354.12
3014.191	354.12
3017.464	370.12
3020.734	364.12
3024.002	365.12
3027.267	377.12
3030.53	384.12
3033.789	383.12
3037.046	400.12
3040.301	401.12
3043.552	416.12
3046.801	426.12
3050.048	421.12
3053.291	444.12
3056.532	453.12
3059.771	458.12
3063.006	492.12
3066.239	497.12
3069.469	515.12
3072.697	529.12
3075.922	544.12
3079.144	557.12
3082.364	555.12
3085.581	580.12
3088.795	585.12
3092.007	604.12
3095.216	621.12
3098.423	636.12
3101.627	658.12
3104.828	668.12
3108.026	675.12
3111.222	685.12
3114.416	704.12
3117.607	717.12
3120.795	740.12
3123.98	754.12
3127.163	773.12
3130.344	809.12
3133.521	832.12
3136.696	839.12
3139.869	848.12
3143.039	858.12
3146.206	879.12
3149.371	890.12
3152.533	913.12
3155.693	912.12
3158.85	911.12
3162.005	910.12
3165.157	921.12
3168.306	912.12
3171.453	926.12
3174.597	926.12
3177.739	929.12
3180.878	932.12
3184.014	928.12
3187.149	928.12
3190.28	929.12
3193.409	932.12
3196.536	923.12
3199.659	944.12
3202.781	934.12
3205.9	935.12
3209.016	935.12
3212.13	941.12
3215.241	930.12
3218.35	914.12
3221.456	912.12
3224.56	903.12
3227.661	884.12
3230.76	885.12
3233.856	888.12
3236.95	887.12
3240.041	882.12
3243.13	867.12
3246.216	856.12
3249.3	848.12
3252.382	847.12
3255.46	845.12
3258.537	860.12
3261.611	844.12
3264.682	853.12
3267.751	830.12
3270.818	841.12
3273.882	816.12
3276.943	832.12
3280.002	816.12
3283.059	813.12
3286.113	795.12
3289.165	790.12
3292.214	786.12
3295.261	784.12
3298.306	754.12
3301.348	745.12
3304.387	723.12
3307.425	721.12
3310.459	711.12
3313.492	696.12
3316.521	688.12
3319.549	679.12
3322.574	671.12
3325.597	670.12
3328.617	661.12
3331.635	666.12
3334.65	662.12
3337.663	645.12
3340.674	656.12
3343.682	660.12
3346.688	637.12
3349.691	645.12
3352.692	634.12
3355.691	628.12
3358.687	628.12
3361.681	610.12
3364.673	611.12
3367.662	607.12
3370.649	601.12
3373.633	586.12
3376.615	576.12
3379.595	571.12
3382.572	563.12
3385.547	550.12
3388.52	541.12
3391.49	541.12
3394.458	543.12
3397.424	515.12
3400.387	523.12
3403.348	520.12
3406.307	504.12
3409.263	504.12
3412.217	496.12
3415.168	484.12
3418.118	476.12
3421.065	476.12
3424.009	474.12
3426.951	463.12
3429.891	470.12
3432.829	452.12
3435.764	446.12
3438.697	437.12
3441.628	425.12
3444.557	413.12
3447.483	396.12
3450.407	399.12
3453.328	383.12
3456.247	362.12
3459.164	360.12
3462.079	349.12
3464.991	330.12
3467.902	325.12
3470.809	300.12
3473.715	302.12
3476.618	288.12
3479.519	289.12
3482.418	289.12
3485.315	274.12
3488.209	258.12
3491.101	255.12
3493.99	254.12
3496.878	231.12
3499.763	233.12
3502.646	228.12
3505.527	218.12
3508.405	207.12
3511.281	199.12
3514.155	185.12
3517.027	179.12
3519.897	168.12
3522.764	166.12
3525.629	152.12
3528.492	143.12
3531.352	135.12
3534.211	122.12
3537.067	114.12
3539.921	110.12
3542.773	94.12
3545.622	98.12
3548.469	94.12
3551.315	82.12
3554.157	79.12
3556.998	67.12
3559.837	67.12
3562.673	62.12
3565.507	53.12
3568.339	47.12
3571.169	46.12
3573.996	46.12
3576.822	36.12
3579.645	32.12
3582.466	27.12
3585.285	26.12
3588.101	20.12
3590.916	16.12
3593.728	14.12
3596.538	5.12
3599.346	3.12
3602.152	2.12
3604.956	2.12
3607.757	-3.88
3610.556	-2.88
3613.354	-10.88
3616.149	-19.88
3618.942	-20.88
3621.732	-17.88
3624.521	-25.88
3627.307	-24.88
3630.092	-24.88
3632.874	-30.88
3635.654	-30.88
3638.432	-37.88
3641.208	-37.88
3643.982	-38.88
3646.753	-40.88
3649.523	-42.88
3652.29	-47.88
3655.055	-46.88
3657.818	-44.88
3660.579	-47.88
3663.338	-50.88
3666.095	-50.88
3668.849	-54.88
3671.602	-60.88
3674.352	-59.88
3677.101	-60.88
3679.847	-65.88
3682.591	-64.88
3685.333	-67.88
3688.073	-66.88
3690.811	-67.88
3693.547	-68.88
3696.281	-70.88
3699.013	-67.88
3701.742	-71.88
3704.47	-74.88
3707.195	-75.88
3709.919	-78.88
3712.64	-76.88
3715.359	-75.88
3718.076	-74.88
3720.792	-79.88
3723.505	-81.88
3726.216	-80.88
3728.925	-82.88
3731.632	-82.88
3734.336	-85.88
3737.039	-86.88
3739.74	-83.88
3742.439	-84.88
3745.136	-83.88
3747.83	-81.88
3750.523	-82.88
3753.213	-83.88
3755.902	-83.88
3758.589	-87.88
3761.273	-86.88
3763.956	-88.88
3766.636	-91.88
3769.315	-88.88
3771.991	-91.88
3774.665	-89.88
3777.338	-85.88
3780.008	-91.88
3782.677	-89.88
3785.343	-88.88
3788.007	-87.88
3790.67	-88.88
3793.33	-90.88
3795.989	-88.88
3798.645	-87.88
3801.299	-84.88
3803.952	-89.88
3806.602	-87.88
3809.251	-88.88
3811.897	-92.88
3814.542	-95.88
3817.184	-95.88
3819.825	-93.88
3822.463	-93.88
3825.1	-91.88
3827.735	-92.88
3830.367	-93.88
3832.998	-89.88
3835.627	-90.88
3838.253	-92.88
3840.878	-91.88
3843.501	-95.88
3846.122	-95.88
3848.741	-93.88
3851.358	-92.88
3853.973	-92.88
3856.586	-97.88
3859.197	-91.88
3861.806	-96.88
3864.414	-96.88
3867.019	-95.88
3869.622	-94.88
3872.224	-96.88
3874.823	-90.88
3877.421	-90.88
3880.016	-83.88
3882.61	-80.88
3885.202	-81.88
3887.792	-80.88
3890.38	-86.88
3892.966	-97.88
3895.55	-93.88
3898.132	-94.88
3900.713	-98.88
3903.291	-98.88
3905.868	-96.88
3908.442	-96.88
3911.015	-98.88
3913.586	-98.88
3916.155	-94.88
3918.722	-97.88
3921.287	-98.88
3923.85	-101.88
3926.411	-97.88
3928.971	-98.88
3931.528	-95.88
3934.084	-101.88
3936.638	-97.88
3939.19	-96.88
3941.74	-97.88
3944.288	-100.88
3946.834	-102.88
3949.378	-102.88
3951.921	-102.88
3954.462	-100.88
3957	-98.88
3959.537	-95.88
3962.072	-92.88
3964.606	-95.88
3967.137	-96.88
3969.667	-97.88
3972.194	-99.88
3974.72	-97.88
3977.244	-97.88
3979.766	-96.88
3982.286	-100.88
3984.805	-100.88
3987.321	-98.88
3989.836	-97.88
3992.349	-98.88
3994.86	-101.88
3997.369	-96.88
3999.877	-94.88
4002.382	-94.88
4004.886	-92.88
4007.388	-93.88
4009.888	-93.88
4012.386	-97.88
4014.883	-98.88
4017.377	-96.88
4019.87	-99.88
4022.361	-97.88
4024.85	-101.88
4027.338	-100.88
4029.823	-96.88
4032.307	-98.88
4034.789	-97.88
4037.269	-99.88
4039.747	-98.88
4042.224	-97.88
4044.699	-100.88
4047.172	-96.88
4049.643	-97.88
4052.112	-96.88
4054.58	-97.88
4057.046	-96.88
4059.51	-98.88
4061.972	-97.88
4064.432	-103.88
4066.891	-98.88
4069.348	-98.88
4071.803	-100.88
4074.256	-102.88
4076.708	-96.88
4079.158	-94.88
4081.606	-95.88
4084.052	-97.88
4086.497	-97.88
4088.939	-95.88
4091.38	-96.88
4093.819	-96.88
4096.257	-99.88
4098.693	-99.88
4101.127	-101.88
4103.559	-100.88
4105.989	-60.88
4108.418	-61.88
4110.845	-59.88
4113.27	-54.88
4115.694	-48.88
4118.115	-45.88
4120.535	-100.88
4122.954	-103.88
4125.37	-99.88
4127.785	-100.88
4130.198	-101.88
4132.609	-99.88
4135.019	-103.88
4137.427	-103.88
4139.833	-103.88
4142.237	-103.88
