Data from 1000000CFU3_B_RamanShift_1.txt Node
Date: Wed Jan 25 12:43:45 IST 2017
User: aro
Spectrometer: QEPB0276
Trigger mode: 0
Integration Time (sec): 5.000000E0
Scans to average: 1
Electric dark correction enabled: true
Nonlinearity correction enabled: false
Boxcar width: 0
XAxis mode: Raman Shifts
Number of Pixels in Spectrum: 1044
>>>>>Begin Spectral Data<<<<<
160.701	-37.75
166.742	-2.75
172.777	103.25
178.805	414.25
184.826	1139.25
190.841	2340.25
196.849	3619.25
202.85	4453.25
208.845	4646.25
214.833	4493.25
220.815	4319.25
226.789	4187.25
232.758	4100.25
238.719	3973.25
244.674	3804.25
250.623	3645.25
256.565	3494.25
262.5	3348.25
268.429	3220.25
274.351	3082.25
280.267	2935.25
286.176	2848.25
292.079	2759.25
297.975	2677.25
303.865	2601.25
309.748	2511.25
315.625	2438.25
321.495	2408.25
327.359	2365.25
333.217	2319.25
339.068	2344.25
344.912	2320.25
350.751	2309.25
356.583	2302.25
362.408	2276.25
368.227	2289.25
374.04	2309.25
379.847	2298.25
385.647	2340.25
391.44	2340.25
397.228	2351.25
403.009	2365.25
408.784	2377.25
414.553	2391.25
420.315	2399.25
426.071	2400.25
431.821	2381.25
437.565	2375.25
443.302	2388.25
449.033	2396.25
454.758	2373.25
460.477	2363.25
466.189	2343.25
471.896	2334.25
477.596	2322.25
483.29	2329.25
488.978	2328.25
494.66	2304.25
500.335	2259.25
506.005	2232.25
511.668	2187.25
517.325	2147.25
522.977	2102.25
528.622	2097.25
534.261	2056.25
539.894	2039.25
545.521	2038.25
551.141	2024.25
556.756	2011.25
562.365	1999.25
567.968	1968.25
573.565	1983.25
579.155	1960.25
584.74	1956.25
590.319	1929.25
595.892	1933.25
601.459	1923.25
607.02	1917.25
612.575	1878.25
618.124	1878.25
623.667	1852.25
629.204	1833.25
634.735	1810.25
640.261	1820.25
645.781	1802.25
651.294	1790.25
656.802	1785.25
662.304	1775.25
667.8	1757.25
673.29	1760.25
678.775	1772.25
684.254	1751.25
689.726	1726.25
695.193	1746.25
700.655	1720.25
706.11	1709.25
711.56	1702.25
717.004	1678.25
722.442	1684.25
727.874	1675.25
733.301	1662.25
738.722	1652.25
744.137	1646.25
749.547	1651.25
754.951	1658.25
760.349	1644.25
765.741	1641.25
771.128	1649.25
776.509	1648.25
781.885	1639.25
787.254	1623.25
792.618	1622.25
797.977	1615.25
803.33	1613.25
808.677	1584.25
814.019	1586.25
819.355	1572.25
824.686	1543.25
830.011	1548.25
835.33	1537.25
840.644	1529.25
845.952	1528.25
851.255	1511.25
856.552	1524.25
861.844	1509.25
867.13	1491.25
872.41	1497.25
877.686	1483.25
882.955	1452.25
888.219	1445.25
893.478	1407.25
898.731	1395.25
903.979	1380.25
909.221	1365.25
914.458	1368.25
919.69	1346.25
924.916	1341.25
930.136	1345.25
935.351	1348.25
940.561	1353.25
945.766	1333.25
950.965	1335.25
956.158	1306.25
961.347	1314.25
966.529	1289.25
971.707	1271.25
976.879	1251.25
982.046	1255.25
987.208	1234.25
992.364	1246.25
997.515	1249.25
1002.66	1250.25
1007.801	1264.25
1012.936	1273.25
1018.066	1297.25
1023.19	1291.25
1028.309	1295.25
1033.423	1291.25
1038.532	1302.25
1043.636	1277.25
1048.734	1267.25
1053.827	1261.25
1058.915	1243.25
1063.998	1211.25
1069.075	1230.25
1074.147	1247.25
1079.214	1253.25
1084.276	1264.25
1089.333	1275.25
1094.385	1272.25
1099.431	1271.25
1104.472	1278.25
1109.509	1271.25
1114.54	1267.25
1119.565	1241.25
1124.586	1215.25
1129.602	1217.25
1134.613	1213.25
1139.618	1202.25
1144.619	1207.25
1149.614	1214.25
1154.604	1213.25
1159.589	1228.25
1164.57	1224.25
1169.545	1232.25
1174.515	1236.25
1179.48	1225.25
1184.44	1225.25
1189.395	1222.25
1194.345	1205.25
1199.29	1201.25
1204.23	1215.25
1209.165	1214.25
1214.095	1217.25
1219.021	1251.25
1223.941	1242.25
1228.856	1248.25
1233.766	1242.25
1238.672	1263.25
1243.572	1257.25
1248.467	1249.25
1253.358	1246.25
1258.244	1229.25
1263.124	1220.25
1268	1191.25
1272.871	1151.25
1277.737	1164.25
1282.599	1158.25
1287.455	1164.25
1292.306	1165.25
1297.153	1174.25
1301.995	1181.25
1306.832	1199.25
1311.664	1205.25
1316.491	1210.25
1321.314	1192.25
1326.132	1186.25
1330.945	1184.25
1335.753	1176.25
1340.556	1172.25
1345.354	1142.25
1350.148	1136.25
1354.937	1120.25
1359.722	1116.25
1364.501	1105.25
1369.276	1091.25
1374.046	1091.25
1378.811	1085.25
1383.572	1064.25
1388.327	1096.25
1393.079	1089.25
1397.825	1064.25
1402.567	1073.25
1407.304	1063.25
1412.036	1051.25
1416.764	1060.25
1421.487	1060.25
1426.205	1062.25
1430.919	1061.25
1435.628	1065.25
1440.333	1089.25
1445.032	1101.25
1449.727	1108.25
1454.418	1121.25
1459.104	1107.25
1463.785	1086.25
1468.462	1095.25
1473.134	1099.25
1477.802	1077.25
1482.465	1067.25
1487.123	1065.25
1491.777	1068.25
1496.426	1058.25
1501.071	1091.25
1505.711	1110.25
1510.347	1110.25
1514.978	1101.25
1519.604	1127.25
1524.226	1119.25
1528.844	1130.25
1533.457	1118.25
1538.065	1119.25
1542.669	1119.25
1547.269	1110.25
1551.864	1111.25
1556.454	1133.25
1561.041	1125.25
1565.622	1147.25
1570.199	1163.25
1574.772	1186.25
1579.34	1198.25
1583.904	1226.25
1588.464	1252.25
1593.019	1261.25
1597.569	1258.25
1602.115	1274.25
1606.657	1289.25
1611.195	1309.25
1615.728	1306.25
1620.256	1334.25
1624.78	1343.25
1629.3	1367.25
1633.816	1380.25
1638.327	1386.25
1642.834	1434.25
1647.336	1436.25
1651.834	1436.25
1656.328	1424.25
1660.817	1420.25
1665.302	1402.25
1669.783	1368.25
1674.259	1341.25
1678.732	1308.25
1683.199	1264.25
1687.663	1224.25
1692.122	1199.25
1696.577	1137.25
1701.028	1092.25
1705.474	1049.25
1709.917	1015.25
1714.355	1010.25
1718.788	993.25
1723.218	971.25
1727.643	959.25
1732.064	945.25
1736.481	904.25
1740.893	904.25
1745.301	861.25
1749.705	837.25
1754.105	824.25
1758.501	807.25
1762.893	799.25
1767.28	786.25
1771.663	789.25
1776.042	783.25
1780.417	766.25
1784.787	791.25
1789.154	789.25
1793.516	767.25
1797.874	775.25
1802.228	769.25
1806.578	766.25
1810.924	745.25
1815.266	724.25
1819.603	725.25
1823.937	708.25
1828.266	711.25
1832.591	714.25
1836.913	705.25
1841.23	698.25
1845.543	707.25
1849.852	700.25
1854.156	711.25
1858.457	703.25
1862.754	705.25
1867.047	706.25
1871.335	721.25
1875.62	713.25
1879.9	717.25
1884.177	716.25
1888.449	716.25
1892.718	715.25
1896.982	728.25
1901.243	709.25
1905.499	705.25
1909.752	718.25
1914	718.25
1918.245	708.25
1922.485	712.25
1926.722	715.25
1930.954	712.25
1935.183	719.25
1939.408	713.25
1943.628	719.25
1947.845	712.25
1952.058	709.25
1956.267	706.25
1960.472	709.25
1964.673	704.25
1968.87	679.25
1973.063	673.25
1977.252	676.25
1981.438	674.25
1985.619	671.25
1989.797	674.25
1993.971	681.25
1998.14	676.25
2002.306	672.25
2006.469	684.25
2010.627	685.25
2014.781	685.25
2018.932	696.25
2023.078	669.25
2027.221	690.25
2031.36	673.25
2035.495	672.25
2039.627	675.25
2043.754	656.25
2047.878	657.25
2051.998	674.25
2056.114	671.25
2060.226	686.25
2064.334	671.25
2068.439	666.25
2072.54	683.25
2076.637	684.25
2080.73	683.25
2084.82	693.25
2088.906	696.25
2092.988	688.25
2097.066	685.25
2101.14	687.25
2105.211	690.25
2109.278	663.25
2113.342	667.25
2117.401	664.25
2121.457	654.25
2125.509	644.25
2129.558	645.25
2133.602	636.25
2137.643	636.25
2141.681	648.25
2145.714	639.25
2149.744	633.25
2153.77	636.25
2157.793	624.25
2161.812	620.25
2165.827	603.25
2169.838	620.25
2173.846	605.25
2177.851	587.25
2181.851	583.25
2185.848	578.25
2189.841	577.25
2193.831	568.25
2197.817	564.25
2201.799	565.25
2205.778	571.25
2209.753	556.25
2213.725	562.25
2217.693	553.25
2221.657	548.25
2225.618	561.25
2229.575	556.25
2233.529	556.25
2237.479	547.25
2241.425	544.25
2245.368	536.25
2249.307	529.25
2253.243	521.25
2257.175	519.25
2261.104	495.25
2265.029	502.25
2268.95	494.25
2272.868	475.25
2276.783	480.25
2280.694	471.25
2284.601	460.25
2288.505	455.25
2292.405	460.25
2296.302	448.25
2300.195	452.25
2304.085	434.25
2307.971	438.25
2311.854	435.25
2315.734	429.25
2319.609	418.25
2323.482	407.25
2327.351	405.25
2331.216	394.25
2335.078	397.25
2338.937	396.25
2342.792	387.25
2346.643	380.25
2350.492	396.25
2354.336	387.25
2358.178	388.25
2362.015	387.25
2365.85	384.25
2369.681	381.25
2373.508	395.25
2377.333	381.25
2381.153	401.25
2384.971	402.25
2388.785	385.25
2392.595	388.25
2396.402	376.25
2400.206	382.25
2404.007	375.25
2407.804	381.25
2411.597	371.25
2415.388	381.25
2419.174	373.25
2422.958	378.25
2426.738	376.25
2430.515	370.25
2434.289	358.25
2438.059	373.25
2441.825	365.25
2445.589	362.25
2449.349	369.25
2453.106	359.25
2456.859	348.25
2460.61	351.25
2464.356	345.25
2468.1	342.25
2471.84	348.25
2475.577	340.25
2479.311	340.25
2483.041	348.25
2486.768	339.25
2490.492	346.25
2494.213	336.25
2497.93	344.25
2501.644	339.25
2505.355	342.25
2509.062	341.25
2512.766	338.25
2516.467	343.25
2520.165	339.25
2523.859	338.25
2527.551	330.25
2531.239	322.25
2534.923	327.25
2538.605	318.25
2542.283	312.25
2545.958	318.25
2549.63	322.25
2553.299	306.25
2556.964	309.25
2560.626	315.25
2564.285	311.25
2567.941	315.25
2571.594	301.25
2575.243	300.25
2578.89	306.25
2582.533	300.25
2586.173	298.25
2589.809	294.25
2593.443	284.25
2597.073	293.25
2600.701	286.25
2604.325	276.25
2607.946	285.25
2611.564	286.25
2615.178	274.25
2618.79	270.25
2622.398	277.25
2626.004	274.25
2629.606	285.25
2633.205	270.25
2636.801	272.25
2640.394	269.25
2643.983	268.25
2647.57	263.25
2651.153	259.25
2654.734	259.25
2658.311	261.25
2661.885	252.25
2665.456	253.25
2669.025	243.25
2672.589	244.25
2676.151	249.25
2679.71	242.25
2683.266	237.25
2686.819	238.25
2690.368	235.25
2693.915	241.25
2697.458	230.25
2700.999	234.25
2704.536	233.25
2708.071	223.25
2711.602	225.25
2715.13	224.25
2718.656	218.25
2722.178	224.25
2725.697	215.25
2729.214	225.25
2732.727	219.25
2736.237	216.25
2739.744	229.25
2743.249	223.25
2746.75	221.25
2750.248	234.25
2753.743	222.25
2757.236	225.25
2760.725	227.25
2764.211	216.25
2767.695	213.25
2771.175	215.25
2774.652	208.25
2778.127	204.25
2781.598	205.25
2785.067	208.25
2788.532	210.25
2791.995	210.25
2795.455	212.25
2798.911	211.25
2802.365	212.25
2805.816	217.25
2809.264	214.25
2812.709	215.25
2816.151	214.25
2819.59	216.25
2823.026	215.25
2826.46	217.25
2829.89	215.25
2833.318	212.25
2836.742	216.25
2840.164	220.25
2843.583	222.25
2846.999	231.25
2850.412	224.25
2853.822	232.25
2857.229	230.25
2860.634	232.25
2864.035	237.25
2867.434	244.25
2870.83	237.25
2874.223	243.25
2877.613	251.25
2881	251.25
2884.385	254.25
2887.766	249.25
2891.145	239.25
2894.521	250.25
2897.894	255.25
2901.264	251.25
2904.631	258.25
2907.996	259.25
2911.358	256.25
2914.717	258.25
2918.073	266.25
2921.426	272.25
2924.777	271.25
2928.124	272.25
2931.469	278.25
2934.811	279.25
2938.15	275.25
2941.487	293.25
2944.821	287.25
2948.152	296.25
2951.48	303.25
2954.805	307.25
2958.128	308.25
2961.447	325.25
2964.765	328.25
2968.079	334.25
2971.39	340.25
2974.699	343.25
2978.005	358.25
2981.308	363.25
2984.609	372.25
2987.907	388.25
2991.202	387.25
2994.494	399.25
2997.784	408.25
3001.07	432.25
3004.355	430.25
3007.636	450.25
3010.915	441.25
3014.191	465.25
3017.464	465.25
3020.734	469.25
3024.002	482.25
3027.267	492.25
3030.53	499.25
3033.789	523.25
3037.046	519.25
3040.301	526.25
3043.552	546.25
3046.801	560.25
3050.048	563.25
3053.291	589.25
3056.532	604.25
3059.771	620.25
3063.006	632.25
3066.239	656.25
3069.469	676.25
3072.697	702.25
3075.922	722.25
3079.144	743.25
3082.364	748.25
3085.581	768.25
3088.795	777.25
3092.007	800.25
3095.216	826.25
3098.423	837.25
3101.627	866.25
3104.828	890.25
3108.026	900.25
3111.222	919.25
3114.416	956.25
3117.607	960.25
3120.795	990.25
3123.98	998.25
3127.163	1019.25
3130.344	1042.25
3133.521	1064.25
3136.696	1095.25
3139.869	1111.25
3143.039	1137.25
3146.206	1148.25
3149.371	1174.25
3152.533	1188.25
3155.693	1184.25
3158.85	1207.25
3162.005	1199.25
3165.157	1194.25
3168.306	1205.25
3171.453	1218.25
3174.597	1204.25
3177.739	1228.25
3180.878	1222.25
3184.014	1225.25
3187.149	1217.25
3190.28	1234.25
3193.409	1229.25
3196.536	1238.25
3199.659	1245.25
3202.781	1248.25
3205.9	1260.25
3209.016	1254.25
3212.13	1256.25
3215.241	1242.25
3218.35	1220.25
3221.456	1229.25
3224.56	1230.25
3227.661	1201.25
3230.76	1193.25
3233.856	1179.25
3236.95	1174.25
3240.041	1172.25
3243.13	1157.25
3246.216	1148.25
3249.3	1136.25
3252.382	1125.25
3255.46	1127.25
3258.537	1122.25
3261.611	1118.25
3264.682	1120.25
3267.751	1107.25
3270.818	1094.25
3273.882	1102.25
3276.943	1095.25
3280.002	1071.25
3283.059	1094.25
3286.113	1061.25
3289.165	1036.25
3292.214	1038.25
3295.261	1031.25
3298.306	997.25
3301.348	983.25
3304.387	974.25
3307.425	950.25
3310.459	941.25
3313.492	930.25
3316.521	920.25
3319.549	910.25
3322.574	903.25
3325.597	904.25
3328.617	888.25
3331.635	887.25
3334.65	874.25
3337.663	877.25
3340.674	865.25
3343.682	873.25
3346.688	856.25
3349.691	863.25
3352.692	862.25
3355.691	846.25
3358.687	847.25
3361.681	837.25
3364.673	822.25
3367.662	819.25
3370.649	796.25
3373.633	783.25
3376.615	783.25
3379.595	769.25
3382.572	755.25
3385.547	744.25
3388.52	736.25
3391.49	732.25
3394.458	722.25
3397.424	705.25
3400.387	700.25
3403.348	691.25
3406.307	687.25
3409.263	675.25
3412.217	678.25
3415.168	666.25
3418.118	672.25
3421.065	645.25
3424.009	637.25
3426.951	624.25
3429.891	613.25
3432.829	623.25
3435.764	598.25
3438.697	584.25
3441.628	568.25
3444.557	550.25
3447.483	543.25
3450.407	528.25
3453.328	515.25
3456.247	495.25
3459.164	479.25
3462.079	466.25
3464.991	463.25
3467.902	436.25
3470.809	431.25
3473.715	408.25
3476.618	401.25
3479.519	395.25
3482.418	373.25
3485.315	370.25
3488.209	365.25
3491.101	355.25
3493.99	344.25
3496.878	331.25
3499.763	327.25
3502.646	313.25
3505.527	301.25
3508.405	285.25
3511.281	267.25
3514.155	262.25
3517.027	238.25
3519.897	234.25
3522.764	222.25
3525.629	208.25
3528.492	198.25
3531.352	198.25
3534.211	182.25
3537.067	170.25
3539.921	157.25
3542.773	142.25
3545.622	141.25
3548.469	131.25
3551.315	123.25
3554.157	115.25
3556.998	102.25
3559.837	101.25
3562.673	92.25
3565.507	87.25
3568.339	82.25
3571.169	71.25
3573.996	66.25
3576.822	58.25
3579.645	57.25
3582.466	50.25
3585.285	42.25
3588.101	43.25
3590.916	35.25
3593.728	28.25
3596.538	23.25
3599.346	16.25
3602.152	18.25
3604.956	12.25
3607.757	10.25
3610.556	1.25
3613.354	1.25
3616.149	-3.75
3618.942	-8.75
3621.732	-10.75
3624.521	-14.75
3627.307	-16.75
3630.092	-19.75
3632.874	-29.75
3635.654	-24.75
3638.432	-31.75
3641.208	-33.75
3643.982	-36.75
3646.753	-37.75
3649.523	-38.75
3652.29	-41.75
3655.055	-46.75
3657.818	-47.75
3660.579	-50.75
3663.338	-51.75
3666.095	-59.75
3668.849	-55.75
3671.602	-62.75
3674.352	-61.75
3677.101	-64.75
3679.847	-67.75
3682.591	-67.75
3685.333	-70.75
3688.073	-73.75
3690.811	-72.75
3693.547	-78.75
3696.281	-81.75
3699.013	-78.75
3701.742	-77.75
3704.47	-81.75
3707.195	-84.75
3709.919	-82.75
3712.64	-84.75
3715.359	-83.75
3718.076	-82.75
3720.792	-86.75
3723.505	-88.75
3726.216	-87.75
3728.925	-88.75
3731.632	-91.75
3734.336	-94.75
3737.039	-91.75
3739.74	-95.75
3742.439	-91.75
3745.136	-95.75
3747.83	-91.75
3750.523	-92.75
3753.213	-93.75
3755.902	-97.75
3758.589	-98.75
3761.273	-96.75
3763.956	-99.75
3766.636	-101.75
3769.315	-100.75
3771.991	-102.75
3774.665	-104.75
3777.338	-98.75
3780.008	-101.75
3782.677	-100.75
3785.343	-99.75
3788.007	-100.75
3790.67	-95.75
3793.33	-102.75
3795.989	-101.75
3798.645	-102.75
3801.299	-104.75
3803.952	-103.75
3806.602	-103.75
3809.251	-104.75
3811.897	-106.75
3814.542	-104.75
3817.184	-110.75
3819.825	-108.75
3822.463	-106.75
3825.1	-105.75
3827.735	-105.75
3830.367	-104.75
3832.998	-106.75
3835.627	-101.75
3838.253	-104.75
3840.878	-102.75
3843.501	-107.75
3846.122	-105.75
3848.741	-106.75
3851.358	-104.75
3853.973	-109.75
3856.586	-111.75
3859.197	-108.75
3861.806	-112.75
3864.414	-109.75
3867.019	-114.75
3869.622	-109.75
3872.224	-112.75
3874.823	-105.75
3877.421	-104.75
3880.016	-100.75
3882.61	-97.75
3885.202	-97.75
3887.792	-100.75
3890.38	-104.75
3892.966	-109.75
3895.55	-109.75
3898.132	-107.75
3900.713	-109.75
3903.291	-112.75
3905.868	-116.75
3908.442	-111.75
3911.015	-112.75
3913.586	-115.75
3916.155	-109.75
3918.722	-109.75
3921.287	-113.75
3923.85	-112.75
3926.411	-110.75
3928.971	-115.75
3931.528	-109.75
3934.084	-113.75
3936.638	-111.75
3939.19	-112.75
3941.74	-113.75
3944.288	-113.75
3946.834	-114.75
3949.378	-117.75
3951.921	-115.75
3954.462	-118.75
3957	-115.75
3959.537	-115.75
3962.072	-114.75
3964.606	-111.75
3967.137	-113.75
3969.667	-114.75
3972.194	-111.75
3974.72	-111.75
3977.244	-109.75
3979.766	-108.75
3982.286	-112.75
3984.805	-112.75
3987.321	-111.75
3989.836	-111.75
3992.349	-110.75
3994.86	-111.75
3997.369	-109.75
3999.877	-108.75
4002.382	-110.75
4004.886	-111.75
4007.388	-110.75
4009.888	-111.75
4012.386	-115.75
4014.883	-113.75
4017.377	-113.75
4019.87	-112.75
4022.361	-111.75
4024.85	-113.75
4027.338	-115.75
4029.823	-109.75
4032.307	-111.75
4034.789	-110.75
4037.269	-114.75
4039.747	-111.75
4042.224	-112.75
4044.699	-114.75
4047.172	-112.75
4049.643	-113.75
4052.112	-113.75
4054.58	-115.75
4057.046	-112.75
4059.51	-113.75
4061.972	-117.75
4064.432	-116.75
4066.891	-114.75
4069.348	-114.75
4071.803	-112.75
4074.256	-113.75
4076.708	-109.75
4079.158	-108.75
4081.606	-112.75
4084.052	-110.75
4086.497	-111.75
4088.939	-110.75
4091.38	-110.75
4093.819	-112.75
4096.257	-115.75
4098.693	-118.75
4101.127	-119.75
4103.559	-117.75
4105.989	-74.75
4108.418	-74.75
4110.845	-72.75
4113.27	-64.75
4115.694	-56.75
4118.115	-47.75
4120.535	-113.75
4122.954	-118.75
4125.37	-114.75
4127.785	-116.75
4130.198	-117.75
4132.609	-115.75
4135.019	-119.75
4137.427	-120.75
4139.833	-117.75
4142.237	-118.75
