Data from 10000CFU3_A_RamanShift_1.txt Node
Date: Wed Jan 25 11:58:11 IST 2017
User: aro
Spectrometer: QEPB0276
Trigger mode: 0
Integration Time (sec): 5.000000E0
Scans to average: 1
Electric dark correction enabled: true
Nonlinearity correction enabled: false
Boxcar width: 0
XAxis mode: Raman Shifts
Number of Pixels in Spectrum: 1044
>>>>>Begin Spectral Data<<<<<
160.701	-40
166.742	-7
172.777	105
178.805	429
184.826	1172
190.841	2355
196.849	3712
202.85	4518
208.845	4685
214.833	4525
220.815	4382
226.789	4230
232.758	4141
238.719	4013
244.674	3833
250.623	3704
256.565	3545
262.5	3369
268.429	3237
274.351	3088
280.267	2974
286.176	2877
292.079	2774
297.975	2702
303.865	2618
309.748	2556
315.625	2491
321.495	2427
327.359	2388
333.217	2380
339.068	2347
344.912	2348
350.751	2316
356.583	2311
362.408	2311
368.227	2310
374.04	2331
379.847	2325
385.647	2357
391.44	2352
397.228	2350
403.009	2383
408.784	2396
414.553	2410
420.315	2391
426.071	2401
431.821	2408
437.565	2410
443.302	2409
449.033	2374
454.758	2395
460.477	2364
466.189	2375
471.896	2353
477.596	2343
483.29	2335
488.978	2327
494.66	2320
500.335	2281
506.005	2244
511.668	2208
517.325	2167
522.977	2147
528.622	2114
534.261	2085
539.894	2081
545.521	2052
551.141	2028
556.756	2034
562.365	2030
567.968	2018
573.565	1997
579.155	1994
584.74	1979
590.319	1977
595.892	1968
601.459	1933
607.02	1923
612.575	1908
618.124	1890
623.667	1864
629.204	1848
634.735	1827
640.261	1830
645.781	1819
651.294	1817
656.802	1819
662.304	1792
667.8	1799
673.29	1796
678.775	1780
684.254	1773
689.726	1764
695.193	1769
700.655	1739
706.11	1731
711.56	1729
717.004	1722
722.442	1711
727.874	1705
733.301	1682
738.722	1687
744.137	1660
749.547	1665
754.951	1692
760.349	1661
765.741	1676
771.128	1660
776.509	1666
781.885	1652
787.254	1649
792.618	1650
797.977	1645
803.33	1618
808.677	1617
814.019	1608
819.355	1584
824.686	1567
830.011	1571
835.33	1556
840.644	1561
845.952	1549
851.255	1548
856.552	1540
861.844	1517
867.13	1523
872.41	1511
877.686	1504
882.955	1467
888.219	1455
893.478	1429
898.731	1414
903.979	1395
909.221	1378
914.458	1371
919.69	1385
924.916	1371
930.136	1364
935.351	1363
940.561	1374
945.766	1369
950.965	1358
956.158	1346
961.347	1326
966.529	1293
971.707	1300
976.879	1277
982.046	1279
987.208	1271
992.364	1251
997.515	1269
1002.66	1280
1007.801	1288
1012.936	1299
1018.066	1303
1023.19	1329
1028.309	1322
1033.423	1315
1038.532	1316
1043.636	1293
1048.734	1295
1053.827	1265
1058.915	1265
1063.998	1259
1069.075	1256
1074.147	1249
1079.214	1274
1084.276	1258
1089.333	1281
1094.385	1287
1099.431	1296
1104.472	1292
1109.509	1307
1114.54	1287
1119.565	1278
1124.586	1257
1129.602	1248
1134.613	1237
1139.618	1226
1144.619	1237
1149.614	1224
1154.604	1232
1159.589	1255
1164.57	1250
1169.545	1265
1174.515	1251
1179.48	1257
1184.44	1253
1189.395	1236
1194.345	1235
1199.29	1230
1204.23	1238
1209.165	1252
1214.095	1238
1219.021	1261
1223.941	1275
1228.856	1277
1233.766	1271
1238.672	1268
1243.572	1287
1248.467	1263
1253.358	1255
1258.244	1244
1263.124	1212
1268	1196
1272.871	1204
1277.737	1188
1282.599	1183
1287.455	1188
1292.306	1194
1297.153	1207
1301.995	1213
1306.832	1214
1311.664	1211
1316.491	1218
1321.314	1223
1326.132	1218
1330.945	1190
1335.753	1185
1340.556	1171
1345.354	1172
1350.148	1175
1354.937	1156
1359.722	1138
1364.501	1140
1369.276	1126
1374.046	1111
1378.811	1098
1383.572	1105
1388.327	1083
1393.079	1096
1397.825	1088
1402.567	1080
1407.304	1080
1412.036	1069
1416.764	1080
1421.487	1071
1426.205	1074
1430.919	1102
1435.628	1101
1440.333	1113
1445.032	1121
1449.727	1113
1454.418	1117
1459.104	1118
1463.785	1126
1468.462	1107
1473.134	1109
1477.802	1097
1482.465	1078
1487.123	1090
1491.777	1098
1496.426	1085
1501.071	1107
1505.711	1105
1510.347	1131
1514.978	1126
1519.604	1135
1524.226	1137
1528.844	1171
1533.457	1140
1538.065	1131
1542.669	1128
1547.269	1138
1551.864	1134
1556.454	1158
1561.041	1154
1565.622	1156
1570.199	1187
1574.772	1209
1579.34	1222
1583.904	1235
1588.464	1254
1593.019	1280
1597.569	1281
1602.115	1290
1606.657	1308
1611.195	1316
1615.728	1325
1620.256	1352
1624.78	1374
1629.3	1395
1633.816	1399
1638.327	1414
1642.834	1448
1647.336	1444
1651.834	1471
1656.328	1460
1660.817	1446
1665.302	1416
1669.783	1403
1674.259	1361
1678.732	1320
1683.199	1297
1687.663	1249
1692.122	1194
1696.577	1158
1701.028	1101
1705.474	1076
1709.917	1026
1714.355	1013
1718.788	995
1723.218	977
1727.643	964
1732.064	940
1736.481	940
1740.893	909
1745.301	881
1749.705	857
1754.105	854
1758.501	824
1762.893	816
1767.28	813
1771.663	793
1776.042	791
1780.417	798
1784.787	797
1789.154	789
1793.516	794
1797.874	789
1802.228	768
1806.578	782
1810.924	753
1815.266	758
1819.603	732
1823.937	738
1828.266	719
1832.591	707
1836.913	724
1841.23	701
1845.543	711
1849.852	716
1854.156	717
1858.457	718
1862.754	724
1867.047	729
1871.335	726
1875.62	735
1879.9	739
1884.177	726
1888.449	737
1892.718	725
1896.982	731
1901.243	728
1905.499	718
1909.752	714
1914	702
1918.245	707
1922.485	726
1926.722	720
1930.954	715
1935.183	737
1939.408	736
1943.628	738
1947.845	731
1952.058	729
1956.267	727
1960.472	719
1964.673	700
1968.87	690
1973.063	698
1977.252	706
1981.438	684
1985.619	678
1989.797	685
1993.971	673
1998.14	685
2002.306	695
2006.469	697
2010.627	694
2014.781	693
2018.932	697
2023.078	700
2027.221	685
2031.36	705
2035.495	695
2039.627	680
2043.754	679
2047.878	674
2051.998	674
2056.114	686
2060.226	684
2064.334	684
2068.439	686
2072.54	690
2076.637	690
2080.73	694
2084.82	697
2088.906	702
2092.988	701
2097.066	683
2101.14	689
2105.211	694
2109.278	684
2113.342	680
2117.401	674
2121.457	663
2125.509	655
2129.558	669
2133.602	652
2137.643	663
2141.681	659
2145.714	661
2149.744	655
2153.77	634
2157.793	648
2161.812	626
2165.827	617
2169.838	634
2173.846	613
2177.851	602
2181.851	607
2185.848	585
2189.841	580
2193.831	582
2197.817	568
2201.799	562
2205.778	555
2209.753	560
2213.725	559
2217.693	566
2221.657	559
2225.618	566
2229.575	566
2233.529	557
2237.479	548
2241.425	557
2245.368	542
2249.307	533
2253.243	518
2257.175	510
2261.104	517
2265.029	498
2268.95	494
2272.868	494
2276.783	473
2280.694	476
2284.601	472
2288.505	460
2292.405	459
2296.302	457
2300.195	457
2304.085	446
2307.971	431
2311.854	431
2315.734	430
2319.609	414
2323.482	410
2327.351	410
2331.216	413
2335.078	405
2338.937	400
2342.792	398
2346.643	394
2350.492	393
2354.336	397
2358.178	401
2362.015	391
2365.85	397
2369.681	400
2373.508	393
2377.333	394
2381.153	393
2384.971	398
2388.785	390
2392.595	389
2396.402	388
2400.206	388
2404.007	387
2407.804	393
2411.597	378
2415.388	384
2419.174	376
2422.958	380
2426.738	374
2430.515	383
2434.289	374
2438.059	371
2441.825	370
2445.589	372
2449.349	358
2453.106	361
2456.859	358
2460.61	368
2464.356	352
2468.1	352
2471.84	344
2475.577	354
2479.311	345
2483.041	345
2486.768	351
2490.492	345
2494.213	343
2497.93	348
2501.644	339
2505.355	345
2509.062	346
2512.766	339
2516.467	340
2520.165	339
2523.859	342
2527.551	334
2531.239	337
2534.923	329
2538.605	339
2542.283	326
2545.958	318
2549.63	311
2553.299	311
2556.964	311
2560.626	322
2564.285	306
2567.941	307
2571.594	306
2575.243	309
2578.89	305
2582.533	301
2586.173	303
2589.809	305
2593.443	297
2597.073	287
2600.701	277
2604.325	283
2607.946	283
2611.564	289
2615.178	283
2618.79	278
2622.398	288
2626.004	280
2629.606	276
2633.205	272
2636.801	280
2640.394	272
2643.983	275
2647.57	262
2651.153	270
2654.734	260
2658.311	249
2661.885	264
2665.456	250
2669.025	247
2672.589	255
2676.151	244
2679.71	247
2683.266	249
2686.819	259
2690.368	241
2693.915	238
2697.458	245
2700.999	233
2704.536	223
2708.071	224
2711.602	225
2715.13	218
2718.656	225
2722.178	221
2725.697	222
2729.214	224
2732.727	219
2736.237	225
2739.744	221
2743.249	229
2746.75	230
2750.248	231
2753.743	232
2757.236	235
2760.725	223
2764.211	212
2767.695	219
2771.175	219
2774.652	210
2778.127	212
2781.598	219
2785.067	212
2788.532	223
2791.995	205
2795.455	206
2798.911	220
2802.365	213
2805.816	214
2809.264	220
2812.709	221
2816.151	219
2819.59	219
2823.026	220
2826.46	223
2829.89	219
2833.318	224
2836.742	222
2840.164	223
2843.583	218
2846.999	231
2850.412	225
2853.822	230
2857.229	234
2860.634	243
2864.035	242
2867.434	239
2870.83	248
2874.223	249
2877.613	246
2881	248
2884.385	256
2887.766	253
2891.145	248
2894.521	244
2897.894	254
2901.264	256
2904.631	253
2907.996	266
2911.358	264
2914.717	264
2918.073	265
2921.426	269
2924.777	264
2928.124	276
2931.469	281
2934.811	287
2938.15	294
2941.487	289
2944.821	298
2948.152	299
2951.48	307
2954.805	311
2958.128	319
2961.447	322
2964.765	338
2968.079	337
2971.39	346
2974.699	352
2978.005	362
2981.308	358
2984.609	373
2987.907	381
2991.202	396
2994.494	406
2997.784	414
3001.07	434
3004.355	442
3007.636	458
3010.915	466
3014.191	451
3017.464	482
3020.734	484
3024.002	489
3027.267	505
3030.53	508
3033.789	515
3037.046	522
3040.301	529
3043.552	558
3046.801	564
3050.048	581
3053.291	591
3056.532	616
3059.771	620
3063.006	641
3066.239	661
3069.469	678
3072.697	697
3075.922	724
3079.144	737
3082.364	751
3085.581	764
3088.795	793
3092.007	818
3095.216	825
3098.423	849
3101.627	865
3104.828	887
3108.026	908
3111.222	923
3114.416	947
3117.607	960
3120.795	986
3123.98	995
3127.163	1030
3130.344	1065
3133.521	1070
3136.696	1096
3139.869	1126
3143.039	1133
3146.206	1163
3149.371	1168
3152.533	1185
3155.693	1186
3158.85	1183
3162.005	1200
3165.157	1211
3168.306	1211
3171.453	1233
3174.597	1219
3177.739	1216
3180.878	1222
3184.014	1233
3187.149	1230
3190.28	1234
3193.409	1242
3196.536	1229
3199.659	1270
3202.781	1257
3205.9	1245
3209.016	1245
3212.13	1250
3215.241	1246
3218.35	1239
3221.456	1220
3224.56	1210
3227.661	1208
3230.76	1184
3233.856	1199
3236.95	1179
3240.041	1162
3243.13	1171
3246.216	1154
3249.3	1142
3252.382	1134
3255.46	1135
3258.537	1126
3261.611	1118
3264.682	1112
3267.751	1097
3270.818	1112
3273.882	1107
3276.943	1095
3280.002	1084
3283.059	1081
3286.113	1073
3289.165	1048
3292.214	1036
3295.261	1029
3298.306	1012
3301.348	991
3304.387	959
3307.425	950
3310.459	948
3313.492	938
3316.521	941
3319.549	911
3322.574	907
3325.597	887
3328.617	893
3331.635	886
3334.65	877
3337.663	864
3340.674	875
3343.682	870
3346.688	864
3349.691	871
3352.692	860
3355.691	837
3358.687	843
3361.681	832
3364.673	825
3367.662	807
3370.649	804
3373.633	802
3376.615	779
3379.595	774
3382.572	753
3385.547	757
3388.52	731
3391.49	735
3394.458	721
3397.424	704
3400.387	710
3403.348	698
3406.307	690
3409.263	689
3412.217	666
3415.168	670
3418.118	669
3421.065	656
3424.009	628
3426.951	630
3429.891	619
3432.829	606
3435.764	600
3438.697	596
3441.628	578
3444.557	567
3447.483	551
3450.407	528
3453.328	512
3456.247	492
3459.164	486
3462.079	467
3464.991	454
3467.902	440
3470.809	427
3473.715	416
3476.618	405
3479.519	393
3482.418	374
3485.315	366
3488.209	355
3491.101	354
3493.99	339
3496.878	333
3499.763	322
3502.646	309
3505.527	298
3508.405	294
3511.281	269
3514.155	257
3517.027	242
3519.897	234
3522.764	228
3525.629	219
3528.492	204
3531.352	186
3534.211	183
3537.067	167
3539.921	159
3542.773	148
3545.622	146
3548.469	131
3551.315	124
3554.157	112
3556.998	102
3559.837	101
3562.673	99
3565.507	86
3568.339	79
3571.169	76
3573.996	73
3576.822	58
3579.645	61
3582.466	50
3585.285	49
3588.101	41
3590.916	35
3593.728	29
3596.538	27
3599.346	17
3602.152	14
3604.956	13
3607.757	13
3610.556	5
3613.354	6
3616.149	-6
3618.942	-10
3621.732	-15
3624.521	-16
3627.307	-23
3630.092	-24
3632.874	-28
3635.654	-29
3638.432	-33
3641.208	-32
3643.982	-34
3646.753	-38
3649.523	-36
3652.29	-41
3655.055	-44
3657.818	-47
3660.579	-45
3663.338	-56
3666.095	-57
3668.849	-63
3671.602	-66
3674.352	-70
3677.101	-70
3679.847	-72
3682.591	-73
3685.333	-72
3688.073	-75
3690.811	-73
3693.547	-79
3696.281	-75
3699.013	-78
3701.742	-75
3704.47	-81
3707.195	-85
3709.919	-87
3712.64	-87
3715.359	-85
3718.076	-88
3720.792	-93
3723.505	-94
3726.216	-91
3728.925	-95
3731.632	-92
3734.336	-92
3737.039	-93
3739.74	-92
3742.439	-92
3745.136	-96
3747.83	-91
3750.523	-99
3753.213	-97
3755.902	-98
3758.589	-103
3761.273	-102
3763.956	-101
3766.636	-102
3769.315	-101
3771.991	-106
3774.665	-105
3777.338	-101
3780.008	-101
3782.677	-104
3785.343	-103
3788.007	-104
3790.67	-99
3793.33	-102
3795.989	-107
3798.645	-104
3801.299	-107
3803.952	-107
3806.602	-105
3809.251	-108
3811.897	-108
3814.542	-110
3817.184	-109
3819.825	-110
3822.463	-108
3825.1	-106
3827.735	-106
3830.367	-107
3832.998	-109
3835.627	-107
3838.253	-106
3840.878	-106
3843.501	-108
3846.122	-114
3848.741	-110
3851.358	-111
3853.973	-115
3856.586	-112
3859.197	-109
3861.806	-113
3864.414	-109
3867.019	-113
3869.622	-109
3872.224	-106
3874.823	-108
3877.421	-105
3880.016	-103
3882.61	-98
3885.202	-100
3887.792	-100
3890.38	-105
3892.966	-110
3895.55	-111
3898.132	-112
3900.713	-112
3903.291	-110
3905.868	-112
3908.442	-113
3911.015	-113
3913.586	-117
3916.155	-113
3918.722	-115
3921.287	-114
3923.85	-114
3926.411	-113
3928.971	-118
3931.528	-115
3934.084	-116
3936.638	-116
3939.19	-112
3941.74	-113
3944.288	-115
3946.834	-118
3949.378	-118
3951.921	-117
3954.462	-120
3957	-116
3959.537	-115
3962.072	-117
3964.606	-116
3967.137	-113
3969.667	-115
3972.194	-112
3974.72	-109
3977.244	-111
3979.766	-111
3982.286	-116
3984.805	-116
3987.321	-113
3989.836	-112
3992.349	-115
3994.86	-112
3997.369	-112
3999.877	-112
4002.382	-111
4004.886	-114
4007.388	-111
4009.888	-109
4012.386	-113
4014.883	-113
4017.377	-111
4019.87	-112
4022.361	-112
4024.85	-112
4027.338	-114
4029.823	-114
4032.307	-112
4034.789	-116
4037.269	-116
4039.747	-117
4042.224	-117
4044.699	-116
4047.172	-113
4049.643	-114
4052.112	-114
4054.58	-115
4057.046	-112
4059.51	-112
4061.972	-116
4064.432	-116
4066.891	-118
4069.348	-116
4071.803	-114
4074.256	-118
4076.708	-118
4079.158	-114
4081.606	-115
4084.052	-114
4086.497	-115
4088.939	-114
4091.38	-114
4093.819	-112
4096.257	-116
4098.693	-119
4101.127	-121
4103.559	-119
4105.989	-75
4108.418	-77
4110.845	-73
4113.27	-65
4115.694	-59
4118.115	-52
4120.535	-113
4122.954	-116
4125.37	-116
4127.785	-115
4130.198	-119
4132.609	-118
4135.019	-121
4137.427	-123
4139.833	-123
4142.237	-120
