Data from 10000000CFU2_A_RamanShift_1.txt Node
Date: Wed Jan 25 12:07:10 IST 2017
User: aro
Spectrometer: QEPB0276
Trigger mode: 0
Integration Time (sec): 5.000000E0
Scans to average: 1
Electric dark correction enabled: true
Nonlinearity correction enabled: false
Boxcar width: 0
XAxis mode: Raman Shifts
Number of Pixels in Spectrum: 1044
>>>>>Begin Spectral Data<<<<<
160.701	-35.62
166.742	-1.62
172.777	97.38
178.805	408.38
184.826	1133.38
190.841	2278.38
196.849	3586.38
202.85	4361.38
208.845	4525.38
214.833	4418.38
220.815	4224.38
226.789	4111.38
232.758	4019.38
238.719	3868.38
244.674	3743.38
250.623	3626.38
256.565	3444.38
262.5	3280.38
268.429	3166.38
274.351	3025.38
280.267	2914.38
286.176	2807.38
292.079	2760.38
297.975	2659.38
303.865	2582.38
309.748	2516.38
315.625	2457.38
321.495	2428.38
327.359	2406.38
333.217	2364.38
339.068	2334.38
344.912	2330.38
350.751	2314.38
356.583	2302.38
362.408	2294.38
368.227	2315.38
374.04	2312.38
379.847	2304.38
385.647	2333.38
391.44	2337.38
397.228	2350.38
403.009	2340.38
408.784	2366.38
414.553	2388.38
420.315	2396.38
426.071	2382.38
431.821	2375.38
437.565	2390.38
443.302	2385.38
449.033	2383.38
454.758	2364.38
460.477	2352.38
466.189	2363.38
471.896	2332.38
477.596	2344.38
483.29	2325.38
488.978	2311.38
494.66	2292.38
500.335	2282.38
506.005	2235.38
511.668	2187.38
517.325	2149.38
522.977	2115.38
528.622	2081.38
534.261	2058.38
539.894	2056.38
545.521	2023.38
551.141	2005.38
556.756	2005.38
562.365	1993.38
567.968	1969.38
573.565	1990.38
579.155	1953.38
584.74	1944.38
590.319	1929.38
595.892	1935.38
601.459	1922.38
607.02	1911.38
612.575	1886.38
618.124	1862.38
623.667	1852.38
629.204	1836.38
634.735	1811.38
640.261	1807.38
645.781	1802.38
651.294	1794.38
656.802	1796.38
662.304	1772.38
667.8	1780.38
673.29	1771.38
678.775	1769.38
684.254	1771.38
689.726	1740.38
695.193	1729.38
700.655	1731.38
706.11	1716.38
711.56	1716.38
717.004	1710.38
722.442	1686.38
727.874	1676.38
733.301	1674.38
738.722	1654.38
744.137	1650.38
749.547	1649.38
754.951	1662.38
760.349	1658.38
765.741	1642.38
771.128	1659.38
776.509	1655.38
781.885	1662.38
787.254	1647.38
792.618	1630.38
797.977	1633.38
803.33	1617.38
808.677	1595.38
814.019	1585.38
819.355	1580.38
824.686	1564.38
830.011	1553.38
835.33	1549.38
840.644	1542.38
845.952	1535.38
851.255	1531.38
856.552	1519.38
861.844	1508.38
867.13	1519.38
872.41	1489.38
877.686	1483.38
882.955	1483.38
888.219	1452.38
893.478	1425.38
898.731	1398.38
903.979	1379.38
909.221	1367.38
914.458	1365.38
919.69	1357.38
924.916	1361.38
930.136	1393.38
935.351	1351.38
940.561	1361.38
945.766	1348.38
950.965	1338.38
956.158	1337.38
961.347	1323.38
966.529	1313.38
971.707	1266.38
976.879	1265.38
982.046	1262.38
987.208	1252.38
992.364	1244.38
997.515	1251.38
1002.66	1274.38
1007.801	1270.38
1012.936	1293.38
1018.066	1301.38
1023.19	1315.38
1028.309	1325.38
1033.423	1303.38
1038.532	1315.38
1043.636	1281.38
1048.734	1278.38
1053.827	1260.38
1058.915	1258.38
1063.998	1251.38
1069.075	1241.38
1074.147	1250.38
1079.214	1248.38
1084.276	1263.38
1089.333	1269.38
1094.385	1290.38
1099.431	1295.38
1104.472	1287.38
1109.509	1271.38
1114.54	1274.38
1119.565	1256.38
1124.586	1243.38
1129.602	1222.38
1134.613	1208.38
1139.618	1227.38
1144.619	1222.38
1149.614	1225.38
1154.604	1223.38
1159.589	1228.38
1164.57	1243.38
1169.545	1242.38
1174.515	1254.38
1179.48	1240.38
1184.44	1237.38
1189.395	1242.38
1194.345	1231.38
1199.29	1231.38
1204.23	1220.38
1209.165	1224.38
1214.095	1232.38
1219.021	1239.38
1223.941	1249.38
1228.856	1249.38
1233.766	1252.38
1238.672	1272.38
1243.572	1266.38
1248.467	1254.38
1253.358	1255.38
1258.244	1235.38
1263.124	1219.38
1268	1195.38
1272.871	1181.38
1277.737	1179.38
1282.599	1161.38
1287.455	1178.38
1292.306	1178.38
1297.153	1184.38
1301.995	1206.38
1306.832	1202.38
1311.664	1210.38
1316.491	1196.38
1321.314	1187.38
1326.132	1195.38
1330.945	1174.38
1335.753	1192.38
1340.556	1163.38
1345.354	1147.38
1350.148	1123.38
1354.937	1117.38
1359.722	1132.38
1364.501	1107.38
1369.276	1103.38
1374.046	1101.38
1378.811	1079.38
1383.572	1100.38
1388.327	1105.38
1393.079	1102.38
1397.825	1082.38
1402.567	1076.38
1407.304	1081.38
1412.036	1066.38
1416.764	1063.38
1421.487	1070.38
1426.205	1059.38
1430.919	1075.38
1435.628	1079.38
1440.333	1099.38
1445.032	1122.38
1449.727	1120.38
1454.418	1121.38
1459.104	1122.38
1463.785	1116.38
1468.462	1090.38
1473.134	1098.38
1477.802	1101.38
1482.465	1073.38
1487.123	1075.38
1491.777	1078.38
1496.426	1068.38
1501.071	1096.38
1505.711	1110.38
1510.347	1106.38
1514.978	1120.38
1519.604	1117.38
1524.226	1120.38
1528.844	1135.38
1533.457	1131.38
1538.065	1133.38
1542.669	1137.38
1547.269	1125.38
1551.864	1128.38
1556.454	1132.38
1561.041	1156.38
1565.622	1159.38
1570.199	1160.38
1574.772	1199.38
1579.34	1209.38
1583.904	1231.38
1588.464	1241.38
1593.019	1264.38
1597.569	1276.38
1602.115	1263.38
1606.657	1288.38
1611.195	1312.38
1615.728	1304.38
1620.256	1328.38
1624.78	1346.38
1629.3	1352.38
1633.816	1363.38
1638.327	1395.38
1642.834	1405.38
1647.336	1425.38
1651.834	1431.38
1656.328	1425.38
1660.817	1414.38
1665.302	1382.38
1669.783	1364.38
1674.259	1329.38
1678.732	1301.38
1683.199	1257.38
1687.663	1218.38
1692.122	1175.38
1696.577	1137.38
1701.028	1082.38
1705.474	1044.38
1709.917	1004.38
1714.355	996.38
1718.788	967.38
1723.218	973.38
1727.643	965.38
1732.064	939.38
1736.481	908.38
1740.893	888.38
1745.301	873.38
1749.705	849.38
1754.105	825.38
1758.501	818.38
1762.893	802.38
1767.28	793.38
1771.663	785.38
1776.042	790.38
1780.417	780.38
1784.787	786.38
1789.154	778.38
1793.516	795.38
1797.874	783.38
1802.228	778.38
1806.578	779.38
1810.924	758.38
1815.266	739.38
1819.603	746.38
1823.937	730.38
1828.266	726.38
1832.591	705.38
1836.913	714.38
1841.23	710.38
1845.543	702.38
1849.852	705.38
1854.156	710.38
1858.457	722.38
1862.754	726.38
1867.047	721.38
1871.335	725.38
1875.62	731.38
1879.9	726.38
1884.177	729.38
1888.449	714.38
1892.718	714.38
1896.982	718.38
1901.243	719.38
1905.499	715.38
1909.752	714.38
1914	704.38
1918.245	714.38
1922.485	699.38
1926.722	719.38
1930.954	715.38
1935.183	730.38
1939.408	724.38
1943.628	728.38
1947.845	732.38
1952.058	724.38
1956.267	716.38
1960.472	730.38
1964.673	702.38
1968.87	698.38
1973.063	696.38
1977.252	687.38
1981.438	680.38
1985.619	692.38
1989.797	670.38
1993.971	670.38
1998.14	679.38
2002.306	682.38
2006.469	686.38
2010.627	691.38
2014.781	697.38
2018.932	689.38
2023.078	688.38
2027.221	704.38
2031.36	689.38
2035.495	668.38
2039.627	680.38
2043.754	682.38
2047.878	658.38
2051.998	656.38
2056.114	666.38
2060.226	656.38
2064.334	676.38
2068.439	663.38
2072.54	677.38
2076.637	678.38
2080.73	692.38
2084.82	683.38
2088.906	679.38
2092.988	699.38
2097.066	681.38
2101.14	677.38
2105.211	674.38
2109.278	672.38
2113.342	677.38
2117.401	658.38
2121.457	651.38
2125.509	653.38
2129.558	658.38
2133.602	653.38
2137.643	636.38
2141.681	659.38
2145.714	647.38
2149.744	646.38
2153.77	634.38
2157.793	635.38
2161.812	640.38
2165.827	617.38
2169.838	605.38
2173.846	603.38
2177.851	586.38
2181.851	588.38
2185.848	581.38
2189.841	587.38
2193.831	581.38
2197.817	569.38
2201.799	564.38
2205.778	561.38
2209.753	560.38
2213.725	543.38
2217.693	566.38
2221.657	550.38
2225.618	557.38
2229.575	559.38
2233.529	551.38
2237.479	549.38
2241.425	542.38
2245.368	537.38
2249.307	526.38
2253.243	512.38
2257.175	520.38
2261.104	497.38
2265.029	493.38
2268.95	487.38
2272.868	488.38
2276.783	485.38
2280.694	472.38
2284.601	473.38
2288.505	458.38
2292.405	455.38
2296.302	452.38
2300.195	455.38
2304.085	447.38
2307.971	436.38
2311.854	426.38
2315.734	420.38
2319.609	419.38
2323.482	407.38
2327.351	401.38
2331.216	404.38
2335.078	393.38
2338.937	393.38
2342.792	395.38
2346.643	379.38
2350.492	401.38
2354.336	395.38
2358.178	397.38
2362.015	396.38
2365.85	396.38
2369.681	400.38
2373.508	394.38
2377.333	397.38
2381.153	391.38
2384.971	392.38
2388.785	402.38
2392.595	384.38
2396.402	390.38
2400.206	388.38
2404.007	385.38
2407.804	376.38
2411.597	382.38
2415.388	383.38
2419.174	382.38
2422.958	385.38
2426.738	378.38
2430.515	374.38
2434.289	363.38
2438.059	363.38
2441.825	376.38
2445.589	370.38
2449.349	357.38
2453.106	363.38
2456.859	351.38
2460.61	359.38
2464.356	349.38
2468.1	350.38
2471.84	353.38
2475.577	350.38
2479.311	351.38
2483.041	353.38
2486.768	329.38
2490.492	336.38
2494.213	343.38
2497.93	349.38
2501.644	345.38
2505.355	344.38
2509.062	344.38
2512.766	343.38
2516.467	340.38
2520.165	348.38
2523.859	336.38
2527.551	331.38
2531.239	323.38
2534.923	330.38
2538.605	328.38
2542.283	318.38
2545.958	315.38
2549.63	319.38
2553.299	312.38
2556.964	309.38
2560.626	315.38
2564.285	309.38
2567.941	302.38
2571.594	304.38
2575.243	303.38
2578.89	308.38
2582.533	306.38
2586.173	307.38
2589.809	300.38
2593.443	293.38
2597.073	297.38
2600.701	293.38
2604.325	283.38
2607.946	284.38
2611.564	288.38
2615.178	280.38
2618.79	281.38
2622.398	288.38
2626.004	286.38
2629.606	281.38
2633.205	272.38
2636.801	274.38
2640.394	270.38
2643.983	276.38
2647.57	257.38
2651.153	257.38
2654.734	260.38
2658.311	250.38
2661.885	257.38
2665.456	255.38
2669.025	240.38
2672.589	253.38
2676.151	240.38
2679.71	245.38
2683.266	247.38
2686.819	242.38
2690.368	233.38
2693.915	232.38
2697.458	232.38
2700.999	236.38
2704.536	234.38
2708.071	231.38
2711.602	219.38
2715.13	220.38
2718.656	227.38
2722.178	221.38
2725.697	217.38
2729.214	226.38
2732.727	225.38
2736.237	222.38
2739.744	221.38
2743.249	219.38
2746.75	222.38
2750.248	228.38
2753.743	221.38
2757.236	222.38
2760.725	221.38
2764.211	217.38
2767.695	215.38
2771.175	216.38
2774.652	210.38
2778.127	204.38
2781.598	216.38
2785.067	209.38
2788.532	211.38
2791.995	210.38
2795.455	221.38
2798.911	216.38
2802.365	215.38
2805.816	217.38
2809.264	225.38
2812.709	221.38
2816.151	221.38
2819.59	217.38
2823.026	215.38
2826.46	212.38
2829.89	216.38
2833.318	216.38
2836.742	215.38
2840.164	216.38
2843.583	215.38
2846.999	222.38
2850.412	225.38
2853.822	231.38
2857.229	234.38
2860.634	231.38
2864.035	234.38
2867.434	239.38
2870.83	242.38
2874.223	245.38
2877.613	253.38
2881	248.38
2884.385	245.38
2887.766	247.38
2891.145	247.38
2894.521	243.38
2897.894	256.38
2901.264	251.38
2904.631	255.38
2907.996	256.38
2911.358	255.38
2914.717	258.38
2918.073	254.38
2921.426	261.38
2924.777	268.38
2928.124	266.38
2931.469	275.38
2934.811	287.38
2938.15	282.38
2941.487	285.38
2944.821	295.38
2948.152	301.38
2951.48	305.38
2954.805	304.38
2958.128	311.38
2961.447	310.38
2964.765	321.38
2968.079	329.38
2971.39	337.38
2974.699	337.38
2978.005	344.38
2981.308	345.38
2984.609	364.38
2987.907	375.38
2991.202	380.38
2994.494	384.38
2997.784	415.38
3001.07	417.38
3004.355	427.38
3007.636	427.38
3010.915	438.38
3014.191	442.38
3017.464	464.38
3020.734	468.38
3024.002	474.38
3027.267	480.38
3030.53	478.38
3033.789	492.38
3037.046	505.38
3040.301	520.38
3043.552	527.38
3046.801	527.38
3050.048	547.38
3053.291	568.38
3056.532	583.38
3059.771	612.38
3063.006	630.38
3066.239	642.38
3069.469	662.38
3072.697	678.38
3075.922	696.38
3079.144	718.38
3082.364	726.38
3085.581	757.38
3088.795	766.38
3092.007	787.38
3095.216	790.38
3098.423	820.38
3101.627	818.38
3104.828	843.38
3108.026	867.38
3111.222	879.38
3114.416	906.38
3117.607	927.38
3120.795	943.38
3123.98	970.38
3127.163	993.38
3130.344	1014.38
3133.521	1031.38
3136.696	1048.38
3139.869	1092.38
3143.039	1101.38
3146.206	1104.38
3149.371	1124.38
3152.533	1122.38
3155.693	1130.38
3158.85	1144.38
3162.005	1172.38
3165.157	1156.38
3168.306	1151.38
3171.453	1153.38
3174.597	1165.38
3177.739	1175.38
3180.878	1187.38
3184.014	1187.38
3187.149	1178.38
3190.28	1198.38
3193.409	1186.38
3196.536	1194.38
3199.659	1193.38
3202.781	1176.38
3205.9	1210.38
3209.016	1195.38
3212.13	1192.38
3215.241	1200.38
3218.35	1186.38
3221.456	1183.38
3224.56	1158.38
3227.661	1156.38
3230.76	1143.38
3233.856	1122.38
3236.95	1125.38
3240.041	1111.38
3243.13	1107.38
3246.216	1094.38
3249.3	1084.38
3252.382	1087.38
3255.46	1073.38
3258.537	1076.38
3261.611	1058.38
3264.682	1065.38
3267.751	1065.38
3270.818	1071.38
3273.882	1054.38
3276.943	1043.38
3280.002	1033.38
3283.059	1017.38
3286.113	1018.38
3289.165	1000.38
3292.214	985.38
3295.261	977.38
3298.306	967.38
3301.348	940.38
3304.387	935.38
3307.425	902.38
3310.459	905.38
3313.492	883.38
3316.521	880.38
3319.549	878.38
3322.574	867.38
3325.597	866.38
3328.617	859.38
3331.635	857.38
3334.65	841.38
3337.663	852.38
3340.674	837.38
3343.682	831.38
3346.688	826.38
3349.691	830.38
3352.692	825.38
3355.691	819.38
3358.687	805.38
3361.681	804.38
3364.673	787.38
3367.662	783.38
3370.649	770.38
3373.633	766.38
3376.615	740.38
3379.595	739.38
3382.572	733.38
3385.547	723.38
3388.52	724.38
3391.49	705.38
3394.458	679.38
3397.424	673.38
3400.387	679.38
3403.348	666.38
3406.307	660.38
3409.263	651.38
3412.217	650.38
3415.168	637.38
3418.118	632.38
3421.065	621.38
3424.009	608.38
3426.951	604.38
3429.891	601.38
3432.829	591.38
3435.764	584.38
3438.697	554.38
3441.628	538.38
3444.557	526.38
3447.483	532.38
3450.407	511.38
3453.328	493.38
3456.247	470.38
3459.164	462.38
3462.079	437.38
3464.991	430.38
3467.902	422.38
3470.809	408.38
3473.715	382.38
3476.618	385.38
3479.519	379.38
3482.418	351.38
3485.315	351.38
3488.209	338.38
3491.101	335.38
3493.99	325.38
3496.878	306.38
3499.763	296.38
3502.646	291.38
3505.527	276.38
3508.405	275.38
3511.281	259.38
3514.155	252.38
3517.027	229.38
3519.897	224.38
3522.764	209.38
3525.629	196.38
3528.492	194.38
3531.352	180.38
3534.211	164.38
3537.067	157.38
3539.921	154.38
3542.773	144.38
3545.622	128.38
3548.469	122.38
3551.315	112.38
3554.157	106.38
3556.998	93.38
3559.837	93.38
3562.673	90.38
3565.507	79.38
3568.339	79.38
3571.169	67.38
3573.996	63.38
3576.822	62.38
3579.645	50.38
3582.466	40.38
3585.285	41.38
3588.101	38.38
3590.916	33.38
3593.728	24.38
3596.538	21.38
3599.346	11.38
3602.152	10.38
3604.956	6.38
3607.757	11.38
3610.556	0.38
3613.354	-4.62
3616.149	-4.62
3618.942	-13.62
3621.732	-13.62
3624.521	-14.62
3627.307	-21.62
3630.092	-21.62
3632.874	-28.62
3635.654	-29.62
3638.432	-31.62
3641.208	-37.62
3643.982	-35.62
3646.753	-40.62
3649.523	-39.62
3652.29	-40.62
3655.055	-44.62
3657.818	-49.62
3660.579	-46.62
3663.338	-53.62
3666.095	-53.62
3668.849	-62.62
3671.602	-61.62
3674.352	-69.62
3677.101	-66.62
3679.847	-68.62
3682.591	-71.62
3685.333	-73.62
3688.073	-72.62
3690.811	-75.62
3693.547	-76.62
3696.281	-75.62
3699.013	-77.62
3701.742	-78.62
3704.47	-79.62
3707.195	-81.62
3709.919	-78.62
3712.64	-80.62
3715.359	-79.62
3718.076	-88.62
3720.792	-92.62
3723.505	-91.62
3726.216	-89.62
3728.925	-92.62
3731.632	-89.62
3734.336	-97.62
3737.039	-97.62
3739.74	-94.62
3742.439	-94.62
3745.136	-92.62
3747.83	-91.62
3750.523	-90.62
3753.213	-93.62
3755.902	-93.62
3758.589	-94.62
3761.273	-95.62
3763.956	-96.62
3766.636	-100.62
3769.315	-101.62
3771.991	-105.62
3774.665	-106.62
3777.338	-104.62
3780.008	-102.62
3782.677	-102.62
3785.343	-104.62
3788.007	-100.62
3790.67	-97.62
3793.33	-101.62
3795.989	-103.62
3798.645	-101.62
3801.299	-98.62
3803.952	-101.62
3806.602	-104.62
3809.251	-103.62
3811.897	-106.62
3814.542	-108.62
3817.184	-109.62
3819.825	-108.62
3822.463	-106.62
3825.1	-105.62
3827.735	-105.62
3830.367	-107.62
3832.998	-105.62
3835.627	-103.62
3838.253	-101.62
3840.878	-104.62
3843.501	-105.62
3846.122	-109.62
3848.741	-105.62
3851.358	-108.62
3853.973	-107.62
3856.586	-110.62
3859.197	-110.62
3861.806	-110.62
3864.414	-113.62
3867.019	-109.62
3869.622	-105.62
3872.224	-110.62
3874.823	-103.62
3877.421	-102.62
3880.016	-96.62
3882.61	-97.62
3885.202	-96.62
3887.792	-97.62
3890.38	-103.62
3892.966	-110.62
3895.55	-110.62
3898.132	-109.62
3900.713	-113.62
3903.291	-113.62
3905.868	-112.62
3908.442	-114.62
3911.015	-113.62
3913.586	-112.62
3916.155	-108.62
3918.722	-107.62
3921.287	-109.62
3923.85	-110.62
3926.411	-108.62
3928.971	-115.62
3931.528	-110.62
3934.084	-112.62
3936.638	-113.62
3939.19	-113.62
3941.74	-112.62
3944.288	-114.62
3946.834	-117.62
3949.378	-117.62
3951.921	-115.62
3954.462	-111.62
3957	-112.62
3959.537	-114.62
3962.072	-109.62
3964.606	-109.62
3967.137	-110.62
3969.667	-108.62
3972.194	-111.62
3974.72	-111.62
3977.244	-109.62
3979.766	-110.62
3982.286	-114.62
3984.805	-114.62
3987.321	-111.62
3989.836	-111.62
3992.349	-111.62
3994.86	-113.62
3997.369	-107.62
3999.877	-106.62
4002.382	-106.62
4004.886	-108.62
4007.388	-107.62
4009.888	-107.62
4012.386	-111.62
4014.883	-112.62
4017.377	-110.62
4019.87	-114.62
4022.361	-113.62
4024.85	-115.62
4027.338	-113.62
4029.823	-112.62
4032.307	-109.62
4034.789	-112.62
4037.269	-109.62
4039.747	-112.62
4042.224	-107.62
4044.699	-113.62
4047.172	-110.62
4049.643	-112.62
4052.112	-114.62
4054.58	-113.62
4057.046	-117.62
4059.51	-114.62
4061.972	-114.62
4064.432	-117.62
4066.891	-112.62
4069.348	-110.62
4071.803	-111.62
4074.256	-118.62
4076.708	-110.62
4079.158	-111.62
4081.606	-111.62
4084.052	-112.62
4086.497	-113.62
4088.939	-110.62
4091.38	-112.62
4093.819	-111.62
4096.257	-111.62
4098.693	-113.62
4101.127	-117.62
4103.559	-119.62
4105.989	-76.62
4108.418	-75.62
4110.845	-73.62
4113.27	-66.62
4115.694	-58.62
4118.115	-48.62
4120.535	-112.62
4122.954	-115.62
4125.37	-115.62
4127.785	-112.62
4130.198	-113.62
4132.609	-115.62
4135.019	-116.62
4137.427	-116.62
4139.833	-116.62
4142.237	-118.62
