Data from 1000CFU2_B_RamanShift_1.txt Node
Date: Wed Jan 25 12:34:20 IST 2017
User: aro
Spectrometer: QEPB0276
Trigger mode: 0
Integration Time (sec): 5.000000E0
Scans to average: 1
Electric dark correction enabled: true
Nonlinearity correction enabled: false
Boxcar width: 0
XAxis mode: Raman Shifts
Number of Pixels in Spectrum: 1044
>>>>>Begin Spectral Data<<<<<
160.701	-38
166.742	-3
172.777	103
178.805	410
184.826	1142
190.841	2331
196.849	3627
202.85	4484
208.845	4632
214.833	4487
220.815	4380
226.789	4231
232.758	4109
238.719	4003
244.674	3859
250.623	3713
256.565	3557
262.5	3404
268.429	3265
274.351	3173
280.267	3050
286.176	2944
292.079	2849
297.975	2749
303.865	2684
309.748	2608
315.625	2572
321.495	2523
327.359	2493
333.217	2465
339.068	2436
344.912	2417
350.751	2423
356.583	2423
362.408	2423
368.227	2427
374.04	2399
379.847	2425
385.647	2436
391.44	2464
397.228	2469
403.009	2480
408.784	2481
414.553	2487
420.315	2499
426.071	2516
431.821	2505
437.565	2500
443.302	2505
449.033	2485
454.758	2503
460.477	2485
466.189	2456
471.896	2442
477.596	2441
483.29	2442
488.978	2434
494.66	2411
500.335	2382
506.005	2340
511.668	2313
517.325	2277
522.977	2249
528.622	2214
534.261	2193
539.894	2174
545.521	2167
551.141	2150
556.756	2163
562.365	2144
567.968	2123
573.565	2106
579.155	2104
584.74	2111
590.319	2089
595.892	2072
601.459	2047
607.02	2039
612.575	2032
618.124	2022
623.667	1993
629.204	1967
634.735	1954
640.261	1955
645.781	1937
651.294	1937
656.802	1926
662.304	1905
667.8	1919
673.29	1896
678.775	1887
684.254	1888
689.726	1882
695.193	1864
700.655	1845
706.11	1863
711.56	1840
717.004	1828
722.442	1822
727.874	1823
733.301	1806
738.722	1796
744.137	1806
749.547	1783
754.951	1784
760.349	1774
765.741	1769
771.128	1779
776.509	1788
781.885	1770
787.254	1773
792.618	1770
797.977	1756
803.33	1754
808.677	1749
814.019	1723
819.355	1704
824.686	1696
830.011	1696
835.33	1673
840.644	1679
845.952	1682
851.255	1666
856.552	1665
861.844	1663
867.13	1632
872.41	1629
877.686	1624
882.955	1608
888.219	1578
893.478	1555
898.731	1532
903.979	1529
909.221	1533
914.458	1494
919.69	1494
924.916	1494
930.136	1508
935.351	1518
940.561	1492
945.766	1497
950.965	1489
956.158	1462
961.347	1468
966.529	1447
971.707	1405
976.879	1414
982.046	1381
987.208	1390
992.364	1384
997.515	1393
1002.66	1408
1007.801	1418
1012.936	1449
1018.066	1440
1023.19	1473
1028.309	1450
1033.423	1447
1038.532	1448
1043.636	1439
1048.734	1421
1053.827	1405
1058.915	1381
1063.998	1391
1069.075	1383
1074.147	1366
1079.214	1390
1084.276	1394
1089.333	1420
1094.385	1435
1099.431	1444
1104.472	1429
1109.509	1432
1114.54	1408
1119.565	1398
1124.586	1373
1129.602	1363
1134.613	1369
1139.618	1358
1144.619	1352
1149.614	1367
1154.604	1361
1159.589	1371
1164.57	1385
1169.545	1381
1174.515	1380
1179.48	1390
1184.44	1369
1189.395	1376
1194.345	1363
1199.29	1358
1204.23	1367
1209.165	1363
1214.095	1376
1219.021	1379
1223.941	1391
1228.856	1408
1233.766	1403
1238.672	1398
1243.572	1407
1248.467	1397
1253.358	1386
1258.244	1358
1263.124	1346
1268	1332
1272.871	1315
1277.737	1299
1282.599	1308
1287.455	1305
1292.306	1307
1297.153	1326
1301.995	1334
1306.832	1329
1311.664	1340
1316.491	1355
1321.314	1346
1326.132	1333
1330.945	1318
1335.753	1299
1340.556	1298
1345.354	1287
1350.148	1265
1354.937	1262
1359.722	1259
1364.501	1254
1369.276	1233
1374.046	1209
1378.811	1222
1383.572	1193
1388.327	1216
1393.079	1198
1397.825	1197
1402.567	1188
1407.304	1195
1412.036	1177
1416.764	1176
1421.487	1174
1426.205	1180
1430.919	1203
1435.628	1210
1440.333	1223
1445.032	1229
1449.727	1243
1454.418	1245
1459.104	1230
1463.785	1244
1468.462	1216
1473.134	1227
1477.802	1213
1482.465	1214
1487.123	1211
1491.777	1197
1496.426	1209
1501.071	1208
1505.711	1214
1510.347	1216
1514.978	1231
1519.604	1260
1524.226	1247
1528.844	1257
1533.457	1256
1538.065	1238
1542.669	1241
1547.269	1215
1551.864	1249
1556.454	1237
1561.041	1269
1565.622	1266
1570.199	1278
1574.772	1293
1579.34	1319
1583.904	1339
1588.464	1363
1593.019	1370
1597.569	1390
1602.115	1372
1606.657	1421
1611.195	1418
1615.728	1422
1620.256	1437
1624.78	1455
1629.3	1479
1633.816	1490
1638.327	1517
1642.834	1524
1647.336	1543
1651.834	1552
1656.328	1542
1660.817	1533
1665.302	1510
1669.783	1468
1674.259	1447
1678.732	1423
1683.199	1359
1687.663	1339
1692.122	1290
1696.577	1235
1701.028	1191
1705.474	1145
1709.917	1119
1714.355	1114
1718.788	1087
1723.218	1078
1727.643	1070
1732.064	1040
1736.481	1020
1740.893	996
1745.301	969
1749.705	951
1754.105	931
1758.501	927
1762.893	899
1767.28	884
1771.663	871
1776.042	883
1780.417	880
1784.787	878
1789.154	873
1793.516	878
1797.874	885
1802.228	868
1806.578	853
1810.924	853
1815.266	834
1819.603	823
1823.937	818
1828.266	800
1832.591	805
1836.913	800
1841.23	791
1845.543	792
1849.852	792
1854.156	793
1858.457	809
1862.754	809
1867.047	810
1871.335	813
1875.62	827
1879.9	822
1884.177	821
1888.449	814
1892.718	818
1896.982	820
1901.243	811
1905.499	807
1909.752	797
1914	802
1918.245	801
1922.485	801
1926.722	805
1930.954	805
1935.183	803
1939.408	812
1943.628	806
1947.845	809
1952.058	806
1956.267	802
1960.472	804
1964.673	786
1968.87	778
1973.063	776
1977.252	767
1981.438	758
1985.619	755
1989.797	767
1993.971	756
1998.14	751
2002.306	763
2006.469	762
2010.627	763
2014.781	784
2018.932	786
2023.078	770
2027.221	760
2031.36	765
2035.495	760
2039.627	757
2043.754	738
2047.878	740
2051.998	736
2056.114	750
2060.226	737
2064.334	747
2068.439	751
2072.54	755
2076.637	762
2080.73	755
2084.82	765
2088.906	753
2092.988	768
2097.066	757
2101.14	767
2105.211	743
2109.278	750
2113.342	739
2117.401	729
2121.457	731
2125.509	731
2129.558	722
2133.602	726
2137.643	727
2141.681	712
2145.714	708
2149.744	712
2153.77	701
2157.793	693
2161.812	695
2165.827	691
2169.838	678
2173.846	667
2177.851	657
2181.851	656
2185.848	647
2189.841	639
2193.831	632
2197.817	628
2201.799	622
2205.778	621
2209.753	624
2213.725	613
2217.693	616
2221.657	625
2225.618	612
2229.575	615
2233.529	622
2237.479	605
2241.425	606
2245.368	595
2249.307	592
2253.243	571
2257.175	568
2261.104	553
2265.029	556
2268.95	537
2272.868	548
2276.783	536
2280.694	533
2284.601	521
2288.505	526
2292.405	519
2296.302	499
2300.195	503
2304.085	506
2307.971	484
2311.854	487
2315.734	483
2319.609	445
2323.482	464
2327.351	457
2331.216	457
2335.078	447
2338.937	439
2342.792	438
2346.643	438
2350.492	437
2354.336	443
2358.178	441
2362.015	438
2365.85	442
2369.681	452
2373.508	446
2377.333	441
2381.153	453
2384.971	447
2388.785	448
2392.595	438
2396.402	435
2400.206	436
2404.007	429
2407.804	416
2411.597	424
2415.388	430
2419.174	428
2422.958	419
2426.738	416
2430.515	415
2434.289	410
2438.059	414
2441.825	414
2445.589	410
2449.349	411
2453.106	415
2456.859	410
2460.61	399
2464.356	391
2468.1	382
2471.84	401
2475.577	395
2479.311	380
2483.041	388
2486.768	383
2490.492	379
2494.213	381
2497.93	380
2501.644	392
2505.355	388
2509.062	384
2512.766	388
2516.467	387
2520.165	377
2523.859	376
2527.551	375
2531.239	372
2534.923	376
2538.605	365
2542.283	352
2545.958	361
2549.63	358
2553.299	355
2556.964	353
2560.626	348
2564.285	349
2567.941	343
2571.594	349
2575.243	348
2578.89	344
2582.533	338
2586.173	338
2589.809	329
2593.443	328
2597.073	323
2600.701	318
2604.325	322
2607.946	318
2611.564	323
2615.178	315
2618.79	313
2622.398	309
2626.004	321
2629.606	311
2633.205	311
2636.801	301
2640.394	305
2643.983	308
2647.57	297
2651.153	298
2654.734	284
2658.311	287
2661.885	288
2665.456	274
2669.025	276
2672.589	282
2676.151	276
2679.71	271
2683.266	271
2686.819	266
2690.368	263
2693.915	268
2697.458	250
2700.999	265
2704.536	251
2708.071	252
2711.602	259
2715.13	245
2718.656	247
2722.178	247
2725.697	251
2729.214	246
2732.727	244
2736.237	259
2739.744	251
2743.249	256
2746.75	253
2750.248	252
2753.743	252
2757.236	250
2760.725	247
2764.211	244
2767.695	246
2771.175	237
2774.652	239
2778.127	238
2781.598	233
2785.067	234
2788.532	236
2791.995	241
2795.455	226
2798.911	234
2802.365	237
2805.816	238
2809.264	240
2812.709	239
2816.151	238
2819.59	239
2823.026	242
2826.46	244
2829.89	244
2833.318	247
2836.742	240
2840.164	246
2843.583	242
2846.999	247
2850.412	246
2853.822	251
2857.229	251
2860.634	254
2864.035	257
2867.434	262
2870.83	261
2874.223	261
2877.613	268
2881	268
2884.385	264
2887.766	264
2891.145	263
2894.521	263
2897.894	260
2901.264	268
2904.631	269
2907.996	276
2911.358	268
2914.717	278
2918.073	280
2921.426	288
2924.777	288
2928.124	295
2931.469	293
2934.811	297
2938.15	303
2941.487	317
2944.821	307
2948.152	313
2951.48	323
2954.805	321
2958.128	320
2961.447	329
2964.765	334
2968.079	347
2971.39	354
2974.699	354
2978.005	362
2981.308	371
2984.609	384
2987.907	384
2991.202	402
2994.494	406
2997.784	424
3001.07	424
3004.355	430
3007.636	441
3010.915	456
3014.191	462
3017.464	476
3020.734	482
3024.002	489
3027.267	483
3030.53	500
3033.789	503
3037.046	516
3040.301	525
3043.552	530
3046.801	547
3050.048	569
3053.291	587
3056.532	595
3059.771	616
3063.006	627
3066.239	645
3069.469	671
3072.697	697
3075.922	702
3079.144	728
3082.364	730
3085.581	769
3088.795	773
3092.007	793
3095.216	795
3098.423	810
3101.627	846
3104.828	852
3108.026	870
3111.222	900
3114.416	921
3117.607	930
3120.795	949
3123.98	979
3127.163	1000
3130.344	1017
3133.521	1040
3136.696	1060
3139.869	1085
3143.039	1088
3146.206	1104
3149.371	1128
3152.533	1148
3155.693	1141
3158.85	1137
3162.005	1158
3165.157	1174
3168.306	1179
3171.453	1178
3174.597	1174
3177.739	1192
3180.878	1191
3184.014	1189
3187.149	1188
3190.28	1198
3193.409	1203
3196.536	1195
3199.659	1208
3202.781	1220
3205.9	1218
3209.016	1202
3212.13	1210
3215.241	1198
3218.35	1198
3221.456	1180
3224.56	1184
3227.661	1157
3230.76	1169
3233.856	1135
3236.95	1131
3240.041	1130
3243.13	1107
3246.216	1111
3249.3	1116
3252.382	1095
3255.46	1089
3258.537	1090
3261.611	1083
3264.682	1088
3267.751	1077
3270.818	1063
3273.882	1060
3276.943	1057
3280.002	1033
3283.059	1029
3286.113	1015
3289.165	1014
3292.214	998
3295.261	981
3298.306	961
3301.348	942
3304.387	924
3307.425	920
3310.459	906
3313.492	900
3316.521	892
3319.549	882
3322.574	875
3325.597	871
3328.617	871
3331.635	849
3334.65	858
3337.663	842
3340.674	843
3343.682	832
3346.688	841
3349.691	829
3352.692	819
3355.691	821
3358.687	811
3361.681	796
3364.673	798
3367.662	789
3370.649	783
3373.633	769
3376.615	755
3379.595	736
3382.572	726
3385.547	720
3388.52	706
3391.49	708
3394.458	684
3397.424	683
3400.387	671
3403.348	664
3406.307	668
3409.263	660
3412.217	651
3415.168	649
3418.118	638
3421.065	634
3424.009	615
3426.951	611
3429.891	583
3432.829	586
3435.764	567
3438.697	562
3441.628	549
3444.557	529
3447.483	519
3450.407	505
3453.328	491
3456.247	482
3459.164	463
3462.079	453
3464.991	437
3467.902	423
3470.809	408
3473.715	396
3476.618	377
3479.519	376
3482.418	367
3485.315	352
3488.209	351
3491.101	328
3493.99	325
3496.878	318
3499.763	297
3502.646	294
3505.527	291
3508.405	271
3511.281	261
3514.155	248
3517.027	227
3519.897	217
3522.764	216
3525.629	190
3528.492	193
3531.352	183
3534.211	168
3537.067	158
3539.921	148
3542.773	141
3545.622	140
3548.469	130
3551.315	118
3554.157	110
3556.998	99
3559.837	96
3562.673	94
3565.507	83
3568.339	77
3571.169	66
3573.996	61
3576.822	56
3579.645	54
3582.466	47
3585.285	44
3588.101	46
3590.916	35
3593.728	31
3596.538	27
3599.346	23
3602.152	17
3604.956	8
3607.757	0
3610.556	-2
3613.354	-2
3616.149	-12
3618.942	-17
3621.732	-19
3624.521	-21
3627.307	-26
3630.092	-28
3632.874	-27
3635.654	-29
3638.432	-32
3641.208	-35
3643.982	-35
3646.753	-38
3649.523	-38
3652.29	-36
3655.055	-52
3657.818	-45
3660.579	-46
3663.338	-52
3666.095	-57
3668.849	-63
3671.602	-68
3674.352	-69
3677.101	-70
3679.847	-73
3682.591	-72
3685.333	-70
3688.073	-75
3690.811	-74
3693.547	-78
3696.281	-81
3699.013	-77
3701.742	-79
3704.47	-85
3707.195	-85
3709.919	-83
3712.64	-87
3715.359	-84
3718.076	-91
3720.792	-93
3723.505	-93
3726.216	-94
3728.925	-95
3731.632	-92
3734.336	-97
3737.039	-96
3739.74	-94
3742.439	-91
3745.136	-93
3747.83	-93
3750.523	-94
3753.213	-89
3755.902	-95
3758.589	-99
3761.273	-100
3763.956	-102
3766.636	-107
3769.315	-101
3771.991	-103
3774.665	-107
3777.338	-106
3780.008	-104
3782.677	-104
3785.343	-103
3788.007	-103
3790.67	-102
3793.33	-104
3795.989	-104
3798.645	-101
3801.299	-100
3803.952	-104
3806.602	-103
3809.251	-104
3811.897	-108
3814.542	-106
3817.184	-111
3819.825	-107
3822.463	-107
3825.1	-108
3827.735	-107
3830.367	-108
3832.998	-109
3835.627	-107
3838.253	-108
3840.878	-106
3843.501	-107
3846.122	-110
3848.741	-106
3851.358	-106
3853.973	-111
3856.586	-111
3859.197	-110
3861.806	-112
3864.414	-110
3867.019	-111
3869.622	-108
3872.224	-113
3874.823	-110
3877.421	-109
3880.016	-107
3882.61	-99
3885.202	-100
3887.792	-98
3890.38	-104
3892.966	-109
3895.55	-110
3898.132	-108
3900.713	-112
3903.291	-111
3905.868	-111
3908.442	-113
3911.015	-117
3913.586	-116
3916.155	-113
3918.722	-113
3921.287	-116
3923.85	-117
3926.411	-109
3928.971	-116
3931.528	-111
3934.084	-114
3936.638	-113
3939.19	-112
3941.74	-113
3944.288	-115
3946.834	-118
3949.378	-118
3951.921	-118
3954.462	-114
3957	-116
3959.537	-117
3962.072	-116
3964.606	-115
3967.137	-113
3969.667	-113
3972.194	-115
3974.72	-109
3977.244	-110
3979.766	-112
3982.286	-114
3984.805	-116
3987.321	-111
3989.836	-114
3992.349	-117
3994.86	-114
3997.369	-112
3999.877	-113
4002.382	-113
4004.886	-112
4007.388	-111
4009.888	-113
4012.386	-113
4014.883	-113
4017.377	-111
4019.87	-112
4022.361	-112
4024.85	-114
4027.338	-114
4029.823	-113
4032.307	-111
4034.789	-114
4037.269	-114
4039.747	-115
4042.224	-110
4044.699	-116
4047.172	-113
4049.643	-115
4052.112	-116
4054.58	-114
4057.046	-117
4059.51	-114
4061.972	-117
4064.432	-116
4066.891	-115
4069.348	-114
4071.803	-115
4074.256	-118
4076.708	-112
4079.158	-112
4081.606	-112
4084.052	-113
4086.497	-114
4088.939	-114
4091.38	-117
4093.819	-115
4096.257	-115
4098.693	-116
4101.127	-118
4103.559	-117
4105.989	-73
4108.418	-74
4110.845	-77
4113.27	-69
4115.694	-56
4118.115	-51
4120.535	-116
4122.954	-119
4125.37	-116
4127.785	-114
4130.198	-120
4132.609	-115
4135.019	-118
4137.427	-119
4139.833	-119
4142.237	-116
