Data from 1000CFU2_A_RamanShift_1.txt Node
Date: Wed Jan 25 11:53:51 IST 2017
User: aro
Spectrometer: QEPB0276
Trigger mode: 0
Integration Time (sec): 5.000000E0
Scans to average: 1
Electric dark correction enabled: true
Nonlinearity correction enabled: false
Boxcar width: 0
XAxis mode: Raman Shifts
Number of Pixels in Spectrum: 1044
>>>>>Begin Spectral Data<<<<<
160.701	-39
166.742	-2
172.777	97
178.805	437
184.826	1188
190.841	2401
196.849	3765
202.85	4565
208.845	4736
214.833	4565
220.815	4422
226.789	4301
232.758	4221
238.719	4069
244.674	3930
250.623	3752
256.565	3604
262.5	3437
268.429	3280
274.351	3158
280.267	3071
286.176	2963
292.079	2871
297.975	2781
303.865	2688
309.748	2608
315.625	2579
321.495	2517
327.359	2482
333.217	2448
339.068	2433
344.912	2410
350.751	2389
356.583	2397
362.408	2407
368.227	2408
374.04	2393
379.847	2420
385.647	2421
391.44	2450
397.228	2460
403.009	2469
408.784	2456
414.553	2481
420.315	2511
426.071	2486
431.821	2482
437.565	2464
443.302	2470
449.033	2473
454.758	2467
460.477	2457
466.189	2463
471.896	2438
477.596	2423
483.29	2408
488.978	2418
494.66	2367
500.335	2336
506.005	2338
511.668	2275
517.325	2255
522.977	2218
528.622	2160
534.261	2164
539.894	2135
545.521	2130
551.141	2113
556.756	2115
562.365	2088
567.968	2073
573.565	2077
579.155	2063
584.74	2038
590.319	2040
595.892	2034
601.459	2016
607.02	2003
612.575	1977
618.124	1950
623.667	1925
629.204	1926
634.735	1923
640.261	1907
645.781	1901
651.294	1885
656.802	1865
662.304	1871
667.8	1879
673.29	1862
678.775	1839
684.254	1835
689.726	1845
695.193	1814
700.655	1815
706.11	1810
711.56	1783
717.004	1785
722.442	1781
727.874	1763
733.301	1746
738.722	1749
744.137	1738
749.547	1747
754.951	1739
760.349	1732
765.741	1731
771.128	1740
776.509	1725
781.885	1750
787.254	1751
792.618	1707
797.977	1718
803.33	1691
808.677	1682
814.019	1665
819.355	1635
824.686	1631
830.011	1632
835.33	1622
840.644	1614
845.952	1608
851.255	1613
856.552	1594
861.844	1604
867.13	1590
872.41	1573
877.686	1552
882.955	1538
888.219	1515
893.478	1506
898.731	1507
903.979	1475
909.221	1452
914.458	1443
919.69	1451
924.916	1437
930.136	1454
935.351	1434
940.561	1434
945.766	1445
950.965	1430
956.158	1423
961.347	1400
966.529	1384
971.707	1369
976.879	1341
982.046	1325
987.208	1335
992.364	1323
997.515	1334
1002.66	1362
1007.801	1367
1012.936	1367
1018.066	1381
1023.19	1403
1028.309	1393
1033.423	1390
1038.532	1403
1043.636	1354
1048.734	1366
1053.827	1332
1058.915	1337
1063.998	1330
1069.075	1324
1074.147	1321
1079.214	1341
1084.276	1355
1089.333	1361
1094.385	1370
1099.431	1382
1104.472	1391
1109.509	1375
1114.54	1351
1119.565	1346
1124.586	1309
1129.602	1313
1134.613	1294
1139.618	1294
1144.619	1293
1149.614	1309
1154.604	1310
1159.589	1330
1164.57	1341
1169.545	1335
1174.515	1336
1179.48	1317
1184.44	1324
1189.395	1314
1194.345	1298
1199.29	1298
1204.23	1305
1209.165	1309
1214.095	1311
1219.021	1336
1223.941	1345
1228.856	1353
1233.766	1368
1238.672	1335
1243.572	1348
1248.467	1336
1253.358	1333
1258.244	1317
1263.124	1305
1268	1276
1272.871	1252
1277.737	1257
1282.599	1261
1287.455	1263
1292.306	1261
1297.153	1274
1301.995	1277
1306.832	1282
1311.664	1318
1316.491	1294
1321.314	1294
1326.132	1281
1330.945	1274
1335.753	1261
1340.556	1256
1345.354	1239
1350.148	1223
1354.937	1209
1359.722	1205
1364.501	1186
1369.276	1184
1374.046	1161
1378.811	1162
1383.572	1169
1388.327	1171
1393.079	1178
1397.825	1165
1402.567	1158
1407.304	1145
1412.036	1136
1416.764	1142
1421.487	1142
1426.205	1162
1430.919	1139
1435.628	1166
1440.333	1171
1445.032	1196
1449.727	1209
1454.418	1201
1459.104	1177
1463.785	1194
1468.462	1180
1473.134	1176
1477.802	1164
1482.465	1147
1487.123	1148
1491.777	1152
1496.426	1162
1501.071	1174
1505.711	1177
1510.347	1212
1514.978	1200
1519.604	1212
1524.226	1210
1528.844	1216
1533.457	1201
1538.065	1205
1542.669	1200
1547.269	1181
1551.864	1204
1556.454	1206
1561.041	1221
1565.622	1231
1570.199	1246
1574.772	1266
1579.34	1292
1583.904	1312
1588.464	1333
1593.019	1353
1597.569	1369
1602.115	1354
1606.657	1377
1611.195	1373
1615.728	1396
1620.256	1418
1624.78	1429
1629.3	1451
1633.816	1480
1638.327	1486
1642.834	1506
1647.336	1514
1651.834	1525
1656.328	1516
1660.817	1490
1665.302	1489
1669.783	1461
1674.259	1439
1678.732	1397
1683.199	1349
1687.663	1326
1692.122	1278
1696.577	1216
1701.028	1161
1705.474	1118
1709.917	1087
1714.355	1059
1718.788	1057
1723.218	1039
1727.643	1030
1732.064	996
1736.481	984
1740.893	971
1745.301	938
1749.705	911
1754.105	892
1758.501	885
1762.893	862
1767.28	847
1771.663	846
1776.042	846
1780.417	835
1784.787	846
1789.154	859
1793.516	849
1797.874	845
1802.228	847
1806.578	825
1810.924	812
1815.266	786
1819.603	792
1823.937	790
1828.266	771
1832.591	768
1836.913	770
1841.23	764
1845.543	771
1849.852	774
1854.156	770
1858.457	779
1862.754	769
1867.047	781
1871.335	781
1875.62	777
1879.9	777
1884.177	789
1888.449	786
1892.718	778
1896.982	780
1901.243	775
1905.499	782
1909.752	787
1914	773
1918.245	761
1922.485	761
1926.722	765
1930.954	774
1935.183	784
1939.408	787
1943.628	786
1947.845	794
1952.058	791
1956.267	777
1960.472	767
1964.673	765
1968.87	739
1973.063	742
1977.252	739
1981.438	722
1985.619	726
1989.797	737
1993.971	735
1998.14	735
2002.306	746
2006.469	746
2010.627	741
2014.781	743
2018.932	745
2023.078	743
2027.221	748
2031.36	733
2035.495	741
2039.627	726
2043.754	732
2047.878	730
2051.998	719
2056.114	714
2060.226	720
2064.334	720
2068.439	722
2072.54	728
2076.637	735
2080.73	734
2084.82	734
2088.906	736
2092.988	743
2097.066	745
2101.14	730
2105.211	732
2109.278	724
2113.342	717
2117.401	719
2121.457	701
2125.509	700
2129.558	702
2133.602	711
2137.643	696
2141.681	703
2145.714	702
2149.744	687
2153.77	683
2157.793	686
2161.812	668
2165.827	665
2169.838	651
2173.846	653
2177.851	640
2181.851	634
2185.848	627
2189.841	625
2193.831	614
2197.817	604
2201.799	614
2205.778	599
2209.753	609
2213.725	601
2217.693	607
2221.657	593
2225.618	605
2229.575	592
2233.529	596
2237.479	587
2241.425	597
2245.368	571
2249.307	562
2253.243	559
2257.175	563
2261.104	553
2265.029	544
2268.95	536
2272.868	538
2276.783	526
2280.694	520
2284.601	511
2288.505	503
2292.405	497
2296.302	487
2300.195	487
2304.085	481
2307.971	470
2311.854	479
2315.734	473
2319.609	453
2323.482	446
2327.351	449
2331.216	442
2335.078	451
2338.937	431
2342.792	423
2346.643	424
2350.492	422
2354.336	423
2358.178	426
2362.015	433
2365.85	429
2369.681	431
2373.508	432
2377.333	425
2381.153	433
2384.971	433
2388.785	428
2392.595	432
2396.402	420
2400.206	426
2404.007	420
2407.804	415
2411.597	414
2415.388	414
2419.174	410
2422.958	416
2426.738	410
2430.515	406
2434.289	395
2438.059	405
2441.825	402
2445.589	404
2449.349	407
2453.106	397
2456.859	392
2460.61	389
2464.356	384
2468.1	388
2471.84	377
2475.577	378
2479.311	370
2483.041	380
2486.768	385
2490.492	382
2494.213	383
2497.93	372
2501.644	371
2505.355	375
2509.062	381
2512.766	383
2516.467	363
2520.165	373
2523.859	366
2527.551	365
2531.239	355
2534.923	359
2538.605	357
2542.283	349
2545.958	351
2549.63	347
2553.299	335
2556.964	332
2560.626	347
2564.285	354
2567.941	343
2571.594	339
2575.243	340
2578.89	328
2582.533	334
2586.173	331
2589.809	334
2593.443	320
2597.073	321
2600.701	325
2604.325	314
2607.946	309
2611.564	317
2615.178	317
2618.79	309
2622.398	307
2626.004	316
2629.606	308
2633.205	307
2636.801	299
2640.394	300
2643.983	288
2647.57	281
2651.153	289
2654.734	283
2658.311	282
2661.885	282
2665.456	277
2669.025	282
2672.589	274
2676.151	271
2679.71	269
2683.266	268
2686.819	267
2690.368	265
2693.915	262
2697.458	254
2700.999	252
2704.536	257
2708.071	249
2711.602	243
2715.13	243
2718.656	242
2722.178	244
2725.697	239
2729.214	245
2732.727	244
2736.237	253
2739.744	249
2743.249	251
2746.75	246
2750.248	246
2753.743	251
2757.236	251
2760.725	242
2764.211	240
2767.695	231
2771.175	233
2774.652	225
2778.127	233
2781.598	228
2785.067	223
2788.532	232
2791.995	232
2795.455	238
2798.911	235
2802.365	228
2805.816	230
2809.264	244
2812.709	237
2816.151	242
2819.59	237
2823.026	240
2826.46	232
2829.89	234
2833.318	239
2836.742	245
2840.164	244
2843.583	234
2846.999	246
2850.412	243
2853.822	254
2857.229	255
2860.634	258
2864.035	262
2867.434	268
2870.83	267
2874.223	264
2877.613	264
2881	263
2884.385	275
2887.766	254
2891.145	262
2894.521	263
2897.894	263
2901.264	268
2904.631	273
2907.996	273
2911.358	270
2914.717	278
2918.073	275
2921.426	273
2924.777	282
2928.124	294
2931.469	291
2934.811	299
2938.15	300
2941.487	299
2944.821	313
2948.152	314
2951.48	332
2954.805	316
2958.128	332
2961.447	332
2964.765	342
2968.079	329
2971.39	360
2974.699	353
2978.005	368
2981.308	371
2984.609	383
2987.907	398
2991.202	410
2994.494	408
2997.784	419
3001.07	434
3004.355	439
3007.636	451
3010.915	464
3014.191	472
3017.464	477
3020.734	483
3024.002	480
3027.267	498
3030.53	510
3033.789	521
3037.046	515
3040.301	541
3043.552	556
3046.801	571
3050.048	573
3053.291	581
3056.532	609
3059.771	629
3063.006	652
3066.239	672
3069.469	682
3072.697	710
3075.922	707
3079.144	731
3082.364	759
3085.581	779
3088.795	802
3092.007	799
3095.216	826
3098.423	834
3101.627	863
3104.828	892
3108.026	892
3111.222	929
3114.416	936
3117.607	951
3120.795	968
3123.98	1009
3127.163	1029
3130.344	1041
3133.521	1074
3136.696	1094
3139.869	1107
3143.039	1134
3146.206	1148
3149.371	1165
3152.533	1158
3155.693	1173
3158.85	1187
3162.005	1181
3165.157	1186
3168.306	1197
3171.453	1195
3174.597	1212
3177.739	1216
3180.878	1203
3184.014	1221
3187.149	1231
3190.28	1221
3193.409	1228
3196.536	1236
3199.659	1238
3202.781	1235
3205.9	1243
3209.016	1244
3212.13	1239
3215.241	1234
3218.35	1228
3221.456	1212
3224.56	1202
3227.661	1182
3230.76	1185
3233.856	1166
3236.95	1152
3240.041	1143
3243.13	1137
3246.216	1132
3249.3	1120
3252.382	1101
3255.46	1114
3258.537	1108
3261.611	1104
3264.682	1084
3267.751	1093
3270.818	1089
3273.882	1075
3276.943	1074
3280.002	1067
3283.059	1065
3286.113	1032
3289.165	1042
3292.214	1019
3295.261	992
3298.306	992
3301.348	980
3304.387	949
3307.425	943
3310.459	938
3313.492	922
3316.521	918
3319.549	904
3322.574	899
3325.597	897
3328.617	896
3331.635	874
3334.65	880
3337.663	867
3340.674	850
3343.682	862
3346.688	860
3349.691	855
3352.692	843
3355.691	838
3358.687	842
3361.681	822
3364.673	816
3367.662	800
3370.649	791
3373.633	788
3376.615	767
3379.595	738
3382.572	739
3385.547	748
3388.52	733
3391.49	720
3394.458	722
3397.424	703
3400.387	696
3403.348	682
3406.307	687
3409.263	665
3412.217	672
3415.168	656
3418.118	661
3421.065	640
3424.009	639
3426.951	623
3429.891	617
3432.829	609
3435.764	578
3438.697	572
3441.628	557
3444.557	548
3447.483	541
3450.407	528
3453.328	508
3456.247	487
3459.164	484
3462.079	466
3464.991	447
3467.902	428
3470.809	421
3473.715	411
3476.618	402
3479.519	380
3482.418	368
3485.315	359
3488.209	353
3491.101	335
3493.99	323
3496.878	322
3499.763	312
3502.646	299
3505.527	286
3508.405	271
3511.281	260
3514.155	253
3517.027	241
3519.897	223
3522.764	213
3525.629	196
3528.492	193
3531.352	187
3534.211	168
3537.067	161
3539.921	156
3542.773	147
3545.622	134
3548.469	125
3551.315	113
3554.157	108
3556.998	97
3559.837	95
3562.673	91
3565.507	85
3568.339	80
3571.169	75
3573.996	65
3576.822	59
3579.645	47
3582.466	46
3585.285	40
3588.101	37
3590.916	28
3593.728	31
3596.538	20
3599.346	12
3602.152	15
3604.956	4
3607.757	4
3610.556	-5
3613.354	-8
3616.149	-8
3618.942	-21
3621.732	-19
3624.521	-21
3627.307	-24
3630.092	-30
3632.874	-29
3635.654	-33
3638.432	-39
3641.208	-38
3643.982	-43
3646.753	-44
3649.523	-45
3652.29	-45
3655.055	-51
3657.818	-48
3660.579	-52
3663.338	-62
3666.095	-58
3668.849	-65
3671.602	-66
3674.352	-72
3677.101	-71
3679.847	-76
3682.591	-76
3685.333	-75
3688.073	-80
3690.811	-74
3693.547	-81
3696.281	-78
3699.013	-84
3701.742	-81
3704.47	-81
3707.195	-88
3709.919	-88
3712.64	-91
3715.359	-90
3718.076	-93
3720.792	-97
3723.505	-91
3726.216	-90
3728.925	-93
3731.632	-96
3734.336	-101
3737.039	-101
3739.74	-96
3742.439	-97
3745.136	-95
3747.83	-95
3750.523	-98
3753.213	-97
3755.902	-99
3758.589	-98
3761.273	-99
3763.956	-102
3766.636	-107
3769.315	-104
3771.991	-111
3774.665	-110
3777.338	-105
3780.008	-106
3782.677	-105
3785.343	-105
3788.007	-103
3790.67	-104
3793.33	-107
3795.989	-105
3798.645	-108
3801.299	-108
3803.952	-107
3806.602	-105
3809.251	-109
3811.897	-109
3814.542	-109
3817.184	-111
3819.825	-113
3822.463	-112
3825.1	-108
3827.735	-113
3830.367	-113
3832.998	-115
3835.627	-110
3838.253	-109
3840.878	-108
3843.501	-109
3846.122	-109
3848.741	-109
3851.358	-111
3853.973	-114
3856.586	-117
3859.197	-111
3861.806	-118
3864.414	-115
3867.019	-116
3869.622	-113
3872.224	-113
3874.823	-106
3877.421	-110
3880.016	-104
3882.61	-102
3885.202	-104
3887.792	-107
3890.38	-112
3892.966	-115
3895.55	-113
3898.132	-114
3900.713	-116
3903.291	-113
3905.868	-115
3908.442	-117
3911.015	-116
3913.586	-119
3916.155	-116
3918.722	-117
3921.287	-118
3923.85	-119
3926.411	-117
3928.971	-122
3931.528	-116
3934.084	-116
3936.638	-117
3939.19	-118
3941.74	-116
3944.288	-122
3946.834	-119
3949.378	-122
3951.921	-118
3954.462	-121
3957	-118
3959.537	-118
3962.072	-115
3964.606	-115
3967.137	-113
3969.667	-115
3972.194	-117
3974.72	-117
3977.244	-114
3979.766	-116
3982.286	-118
3984.805	-118
3987.321	-118
3989.836	-116
3992.349	-116
3994.86	-118
3997.369	-115
3999.877	-113
4002.382	-113
4004.886	-114
4007.388	-112
4009.888	-113
4012.386	-116
4014.883	-120
4017.377	-113
4019.87	-116
4022.361	-115
4024.85	-116
4027.338	-120
4029.823	-116
4032.307	-117
4034.789	-120
4037.269	-118
4039.747	-118
4042.224	-118
4044.699	-121
4047.172	-116
4049.643	-119
4052.112	-120
4054.58	-120
4057.046	-113
4059.51	-116
4061.972	-119
4064.432	-115
4066.891	-118
4069.348	-117
4071.803	-117
4074.256	-123
4076.708	-120
4079.158	-115
4081.606	-119
4084.052	-116
4086.497	-116
4088.939	-116
4091.38	-116
4093.819	-115
4096.257	-117
4098.693	-121
4101.127	-120
4103.559	-124
4105.989	-81
4108.418	-82
4110.845	-75
4113.27	-70
4115.694	-62
4118.115	-54
4120.535	-116
4122.954	-121
4125.37	-116
4127.785	-120
4130.198	-123
4132.609	-119
4135.019	-122
4137.427	-124
4139.833	-124
4142.237	-123
