Data from 100000CFU1_B_RamanShift_1.txt Node
Date: Wed Jan 25 12:38:55 IST 2017
User: aro
Spectrometer: QEPB0276
Trigger mode: 0
Integration Time (sec): 5.000000E0
Scans to average: 1
Electric dark correction enabled: true
Nonlinearity correction enabled: false
Boxcar width: 0
XAxis mode: Raman Shifts
Number of Pixels in Spectrum: 1044
>>>>>Begin Spectral Data<<<<<
160.701	-37.75
166.742	-1.75
172.777	98.25
178.805	395.25
184.826	1081.25
190.841	2223.25
196.849	3464.25
202.85	4277.25
208.845	4424.25
214.833	4273.25
220.815	4118.25
226.789	3990.25
232.758	3877.25
238.719	3745.25
244.674	3648.25
250.623	3445.25
256.565	3315.25
262.5	3152.25
268.429	3019.25
274.351	2909.25
280.267	2790.25
286.176	2685.25
292.079	2600.25
297.975	2524.25
303.865	2421.25
309.748	2386.25
315.625	2331.25
321.495	2277.25
327.359	2226.25
333.217	2206.25
339.068	2174.25
344.912	2189.25
350.751	2172.25
356.583	2137.25
362.408	2160.25
368.227	2152.25
374.04	2139.25
379.847	2166.25
385.647	2186.25
391.44	2203.25
397.228	2223.25
403.009	2243.25
408.784	2240.25
414.553	2235.25
420.315	2247.25
426.071	2231.25
431.821	2236.25
437.565	2229.25
443.302	2243.25
449.033	2225.25
454.758	2220.25
460.477	2218.25
466.189	2199.25
471.896	2185.25
477.596	2182.25
483.29	2185.25
488.978	2138.25
494.66	2160.25
500.335	2112.25
506.005	2093.25
511.668	2045.25
517.325	2005.25
522.977	1989.25
528.622	1961.25
534.261	1928.25
539.894	1919.25
545.521	1902.25
551.141	1879.25
556.756	1857.25
562.365	1844.25
567.968	1864.25
573.565	1823.25
579.155	1827.25
584.74	1838.25
590.319	1807.25
595.892	1789.25
601.459	1788.25
607.02	1764.25
612.575	1766.25
618.124	1737.25
623.667	1711.25
629.204	1706.25
634.735	1695.25
640.261	1693.25
645.781	1664.25
651.294	1652.25
656.802	1673.25
662.304	1632.25
667.8	1652.25
673.29	1614.25
678.775	1635.25
684.254	1628.25
689.726	1616.25
695.193	1606.25
700.655	1601.25
706.11	1594.25
711.56	1585.25
717.004	1562.25
722.442	1553.25
727.874	1540.25
733.301	1530.25
738.722	1531.25
744.137	1523.25
749.547	1525.25
754.951	1524.25
760.349	1511.25
765.741	1500.25
771.128	1507.25
776.509	1524.25
781.885	1524.25
787.254	1510.25
792.618	1508.25
797.977	1498.25
803.33	1490.25
808.677	1484.25
814.019	1465.25
819.355	1457.25
824.686	1443.25
830.011	1418.25
835.33	1410.25
840.644	1412.25
845.952	1404.25
851.255	1400.25
856.552	1384.25
861.844	1385.25
867.13	1374.25
872.41	1375.25
877.686	1360.25
882.955	1329.25
888.219	1314.25
893.478	1287.25
898.731	1270.25
903.979	1253.25
909.221	1247.25
914.458	1248.25
919.69	1254.25
924.916	1246.25
930.136	1240.25
935.351	1220.25
940.561	1235.25
945.766	1233.25
950.965	1227.25
956.158	1212.25
961.347	1191.25
966.529	1176.25
971.707	1159.25
976.879	1159.25
982.046	1138.25
987.208	1129.25
992.364	1138.25
997.515	1135.25
1002.66	1142.25
1007.801	1150.25
1012.936	1170.25
1018.066	1171.25
1023.19	1177.25
1028.309	1176.25
1033.423	1181.25
1038.532	1172.25
1043.636	1161.25
1048.734	1152.25
1053.827	1126.25
1058.915	1136.25
1063.998	1122.25
1069.075	1107.25
1074.147	1118.25
1079.214	1129.25
1084.276	1147.25
1089.333	1150.25
1094.385	1145.25
1099.431	1165.25
1104.472	1169.25
1109.509	1160.25
1114.54	1151.25
1119.565	1136.25
1124.586	1106.25
1129.602	1110.25
1134.613	1110.25
1139.618	1098.25
1144.619	1107.25
1149.614	1107.25
1154.604	1106.25
1159.589	1113.25
1164.57	1114.25
1169.545	1126.25
1174.515	1119.25
1179.48	1118.25
1184.44	1123.25
1189.395	1122.25
1194.345	1107.25
1199.29	1088.25
1204.23	1118.25
1209.165	1101.25
1214.095	1117.25
1219.021	1126.25
1223.941	1134.25
1228.856	1132.25
1233.766	1150.25
1238.672	1134.25
1243.572	1142.25
1248.467	1134.25
1253.358	1124.25
1258.244	1111.25
1263.124	1090.25
1268	1079.25
1272.871	1059.25
1277.737	1047.25
1282.599	1057.25
1287.455	1053.25
1292.306	1056.25
1297.153	1057.25
1301.995	1064.25
1306.832	1090.25
1311.664	1089.25
1316.491	1096.25
1321.314	1093.25
1326.132	1065.25
1330.945	1071.25
1335.753	1052.25
1340.556	1054.25
1345.354	1042.25
1350.148	1039.25
1354.937	1012.25
1359.722	1007.25
1364.501	1015.25
1369.276	990.25
1374.046	978.25
1378.811	978.25
1383.572	979.25
1388.327	987.25
1393.079	968.25
1397.825	977.25
1402.567	968.25
1407.304	968.25
1412.036	951.25
1416.764	939.25
1421.487	959.25
1426.205	960.25
1430.919	975.25
1435.628	976.25
1440.333	978.25
1445.032	1008.25
1449.727	1009.25
1454.418	1012.25
1459.104	1005.25
1463.785	990.25
1468.462	978.25
1473.134	994.25
1477.802	978.25
1482.465	968.25
1487.123	972.25
1491.777	967.25
1496.426	987.25
1501.071	976.25
1505.711	1011.25
1510.347	1008.25
1514.978	1016.25
1519.604	1027.25
1524.226	1023.25
1528.844	1027.25
1533.457	1019.25
1538.065	1027.25
1542.669	1017.25
1547.269	1020.25
1551.864	1005.25
1556.454	1031.25
1561.041	1040.25
1565.622	1050.25
1570.199	1051.25
1574.772	1079.25
1579.34	1094.25
1583.904	1110.25
1588.464	1139.25
1593.019	1148.25
1597.569	1162.25
1602.115	1182.25
1606.657	1192.25
1611.195	1191.25
1615.728	1209.25
1620.256	1222.25
1624.78	1237.25
1629.3	1258.25
1633.816	1270.25
1638.327	1306.25
1642.834	1322.25
1647.336	1333.25
1651.834	1331.25
1656.328	1330.25
1660.817	1306.25
1665.302	1298.25
1669.783	1274.25
1674.259	1237.25
1678.732	1194.25
1683.199	1158.25
1687.663	1140.25
1692.122	1087.25
1696.577	1046.25
1701.028	1006.25
1705.474	955.25
1709.917	920.25
1714.355	907.25
1718.788	893.25
1723.218	893.25
1727.643	880.25
1732.064	844.25
1736.481	821.25
1740.893	799.25
1745.301	779.25
1749.705	766.25
1754.105	745.25
1758.501	734.25
1762.893	720.25
1767.28	705.25
1771.663	703.25
1776.042	710.25
1780.417	696.25
1784.787	699.25
1789.154	699.25
1793.516	706.25
1797.874	707.25
1802.228	698.25
1806.578	679.25
1810.924	677.25
1815.266	653.25
1819.603	654.25
1823.937	647.25
1828.266	635.25
1832.591	627.25
1836.913	634.25
1841.23	634.25
1845.543	624.25
1849.852	625.25
1854.156	625.25
1858.457	627.25
1862.754	642.25
1867.047	643.25
1871.335	656.25
1875.62	643.25
1879.9	648.25
1884.177	641.25
1888.449	640.25
1892.718	634.25
1896.982	637.25
1901.243	641.25
1905.499	628.25
1909.752	634.25
1914	637.25
1918.245	636.25
1922.485	623.25
1926.722	638.25
1930.954	641.25
1935.183	650.25
1939.408	652.25
1943.628	657.25
1947.845	652.25
1952.058	642.25
1956.267	630.25
1960.472	640.25
1964.673	642.25
1968.87	616.25
1973.063	622.25
1977.252	613.25
1981.438	610.25
1985.619	600.25
1989.797	589.25
1993.971	598.25
1998.14	607.25
2002.306	614.25
2006.469	629.25
2010.627	622.25
2014.781	618.25
2018.932	633.25
2023.078	623.25
2027.221	624.25
2031.36	612.25
2035.495	606.25
2039.627	610.25
2043.754	600.25
2047.878	603.25
2051.998	604.25
2056.114	604.25
2060.226	603.25
2064.334	596.25
2068.439	621.25
2072.54	630.25
2076.637	621.25
2080.73	624.25
2084.82	617.25
2088.906	614.25
2092.988	626.25
2097.066	608.25
2101.14	628.25
2105.211	601.25
2109.278	608.25
2113.342	604.25
2117.401	602.25
2121.457	593.25
2125.509	595.25
2129.558	591.25
2133.602	586.25
2137.643	579.25
2141.681	583.25
2145.714	578.25
2149.744	567.25
2153.77	571.25
2157.793	576.25
2161.812	563.25
2165.827	560.25
2169.838	551.25
2173.846	552.25
2177.851	537.25
2181.851	539.25
2185.848	513.25
2189.841	520.25
2193.831	509.25
2197.817	508.25
2201.799	509.25
2205.778	492.25
2209.753	505.25
2213.725	505.25
2217.693	503.25
2221.657	507.25
2225.618	502.25
2229.575	490.25
2233.529	498.25
2237.479	501.25
2241.425	489.25
2245.368	477.25
2249.307	480.25
2253.243	478.25
2257.175	456.25
2261.104	460.25
2265.029	439.25
2268.95	441.25
2272.868	433.25
2276.783	417.25
2280.694	420.25
2284.601	418.25
2288.505	407.25
2292.405	409.25
2296.302	403.25
2300.195	415.25
2304.085	401.25
2307.971	395.25
2311.854	380.25
2315.734	381.25
2319.609	369.25
2323.482	367.25
2327.351	368.25
2331.216	367.25
2335.078	350.25
2338.937	355.25
2342.792	358.25
2346.643	354.25
2350.492	341.25
2354.336	347.25
2358.178	348.25
2362.015	344.25
2365.85	349.25
2369.681	347.25
2373.508	353.25
2377.333	354.25
2381.153	352.25
2384.971	348.25
2388.785	353.25
2392.595	345.25
2396.402	332.25
2400.206	347.25
2404.007	341.25
2407.804	336.25
2411.597	336.25
2415.388	333.25
2419.174	337.25
2422.958	336.25
2426.738	330.25
2430.515	325.25
2434.289	322.25
2438.059	322.25
2441.825	323.25
2445.589	334.25
2449.349	324.25
2453.106	317.25
2456.859	318.25
2460.61	309.25
2464.356	306.25
2468.1	301.25
2471.84	309.25
2475.577	306.25
2479.311	296.25
2483.041	304.25
2486.768	296.25
2490.492	304.25
2494.213	310.25
2497.93	300.25
2501.644	307.25
2505.355	295.25
2509.062	305.25
2512.766	306.25
2516.467	297.25
2520.165	285.25
2523.859	295.25
2527.551	286.25
2531.239	293.25
2534.923	288.25
2538.605	285.25
2542.283	284.25
2545.958	279.25
2549.63	281.25
2553.299	279.25
2556.964	278.25
2560.626	277.25
2564.285	274.25
2567.941	267.25
2571.594	269.25
2575.243	266.25
2578.89	263.25
2582.533	268.25
2586.173	260.25
2589.809	265.25
2593.443	260.25
2597.073	252.25
2600.701	253.25
2604.325	259.25
2607.946	251.25
2611.564	263.25
2615.178	252.25
2618.79	255.25
2622.398	248.25
2626.004	247.25
2629.606	240.25
2633.205	233.25
2636.801	241.25
2640.394	235.25
2643.983	237.25
2647.57	230.25
2651.153	228.25
2654.734	224.25
2658.311	221.25
2661.885	220.25
2665.456	214.25
2669.025	215.25
2672.589	218.25
2676.151	219.25
2679.71	220.25
2683.266	218.25
2686.819	212.25
2690.368	214.25
2693.915	210.25
2697.458	208.25
2700.999	205.25
2704.536	198.25
2708.071	199.25
2711.602	200.25
2715.13	193.25
2718.656	192.25
2722.178	192.25
2725.697	187.25
2729.214	201.25
2732.727	199.25
2736.237	196.25
2739.744	204.25
2743.249	199.25
2746.75	198.25
2750.248	202.25
2753.743	208.25
2757.236	200.25
2760.725	195.25
2764.211	198.25
2767.695	200.25
2771.175	194.25
2774.652	193.25
2778.127	192.25
2781.598	193.25
2785.067	183.25
2788.532	192.25
2791.995	186.25
2795.455	193.25
2798.911	191.25
2802.365	189.25
2805.816	195.25
2809.264	186.25
2812.709	196.25
2816.151	195.25
2819.59	198.25
2823.026	187.25
2826.46	189.25
2829.89	196.25
2833.318	199.25
2836.742	202.25
2840.164	194.25
2843.583	201.25
2846.999	201.25
2850.412	200.25
2853.822	204.25
2857.229	210.25
2860.634	213.25
2864.035	215.25
2867.434	212.25
2870.83	222.25
2874.223	221.25
2877.613	214.25
2881	229.25
2884.385	230.25
2887.766	232.25
2891.145	229.25
2894.521	231.25
2897.894	230.25
2901.264	236.25
2904.631	233.25
2907.996	237.25
2911.358	240.25
2914.717	245.25
2918.073	235.25
2921.426	250.25
2924.777	255.25
2928.124	260.25
2931.469	266.25
2934.811	257.25
2938.15	272.25
2941.487	274.25
2944.821	280.25
2948.152	279.25
2951.48	287.25
2954.805	287.25
2958.128	295.25
2961.447	299.25
2964.765	306.25
2968.079	308.25
2971.39	322.25
2974.699	330.25
2978.005	337.25
2981.308	349.25
2984.609	351.25
2987.907	361.25
2991.202	365.25
2994.494	380.25
2997.784	381.25
3001.07	400.25
3004.355	413.25
3007.636	422.25
3010.915	426.25
3014.191	453.25
3017.464	452.25
3020.734	460.25
3024.002	459.25
3027.267	469.25
3030.53	475.25
3033.789	496.25
3037.046	501.25
3040.301	515.25
3043.552	521.25
3046.801	535.25
3050.048	535.25
3053.291	562.25
3056.532	581.25
3059.771	604.25
3063.006	611.25
3066.239	631.25
3069.469	656.25
3072.697	666.25
3075.922	691.25
3079.144	707.25
3082.364	715.25
3085.581	738.25
3088.795	752.25
3092.007	764.25
3095.216	781.25
3098.423	821.25
3101.627	816.25
3104.828	852.25
3108.026	858.25
3111.222	890.25
3114.416	909.25
3117.607	920.25
3120.795	953.25
3123.98	970.25
3127.163	998.25
3130.344	1003.25
3133.521	1028.25
3136.696	1059.25
3139.869	1075.25
3143.039	1088.25
3146.206	1100.25
3149.371	1127.25
3152.533	1134.25
3155.693	1140.25
3158.85	1148.25
3162.005	1158.25
3165.157	1155.25
3168.306	1172.25
3171.453	1162.25
3174.597	1177.25
3177.739	1177.25
3180.878	1179.25
3184.014	1191.25
3187.149	1186.25
3190.28	1192.25
3193.409	1192.25
3196.536	1192.25
3199.659	1193.25
3202.781	1207.25
3205.9	1217.25
3209.016	1202.25
3212.13	1206.25
3215.241	1198.25
3218.35	1199.25
3221.456	1186.25
3224.56	1166.25
3227.661	1152.25
3230.76	1163.25
3233.856	1158.25
3236.95	1143.25
3240.041	1135.25
3243.13	1117.25
3246.216	1121.25
3249.3	1095.25
3252.382	1084.25
3255.46	1084.25
3258.537	1093.25
3261.611	1085.25
3264.682	1087.25
3267.751	1073.25
3270.818	1062.25
3273.882	1061.25
3276.943	1071.25
3280.002	1063.25
3283.059	1035.25
3286.113	1020.25
3289.165	1013.25
3292.214	1009.25
3295.261	983.25
3298.306	968.25
3301.348	964.25
3304.387	932.25
3307.425	930.25
3310.459	904.25
3313.492	885.25
3316.521	890.25
3319.549	869.25
3322.574	869.25
3325.597	878.25
3328.617	857.25
3331.635	854.25
3334.65	848.25
3337.663	838.25
3340.674	846.25
3343.682	843.25
3346.688	839.25
3349.691	840.25
3352.692	824.25
3355.691	825.25
3358.687	810.25
3361.681	796.25
3364.673	796.25
3367.662	785.25
3370.649	784.25
3373.633	764.25
3376.615	758.25
3379.595	747.25
3382.572	728.25
3385.547	730.25
3388.52	718.25
3391.49	695.25
3394.458	697.25
3397.424	692.25
3400.387	673.25
3403.348	678.25
3406.307	666.25
3409.263	663.25
3412.217	648.25
3415.168	644.25
3418.118	636.25
3421.065	627.25
3424.009	626.25
3426.951	606.25
3429.891	601.25
3432.829	590.25
3435.764	572.25
3438.697	568.25
3441.628	558.25
3444.557	540.25
3447.483	528.25
3450.407	514.25
3453.328	499.25
3456.247	480.25
3459.164	464.25
3462.079	453.25
3464.991	437.25
3467.902	424.25
3470.809	414.25
3473.715	399.25
3476.618	388.25
3479.519	378.25
3482.418	367.25
3485.315	359.25
3488.209	350.25
3491.101	344.25
3493.99	334.25
3496.878	322.25
3499.763	321.25
3502.646	299.25
3505.527	292.25
3508.405	280.25
3511.281	271.25
3514.155	248.25
3517.027	244.25
3519.897	235.25
3522.764	211.25
3525.629	209.25
3528.492	192.25
3531.352	181.25
3534.211	170.25
3537.067	169.25
3539.921	156.25
3542.773	142.25
3545.622	144.25
3548.469	137.25
3551.315	119.25
3554.157	118.25
3556.998	107.25
3559.837	101.25
3562.673	89.25
3565.507	83.25
3568.339	77.25
3571.169	78.25
3573.996	65.25
3576.822	68.25
3579.645	62.25
3582.466	46.25
3585.285	50.25
3588.101	42.25
3590.916	36.25
3593.728	34.25
3596.538	30.25
3599.346	25.25
3602.152	21.25
3604.956	15.25
3607.757	4.25
3610.556	5.25
3613.354	4.25
3616.149	-1.75
3618.942	-9.75
3621.732	-7.75
3624.521	-14.75
3627.307	-19.75
3630.092	-19.75
3632.874	-25.75
3635.654	-22.75
3638.432	-27.75
3641.208	-30.75
3643.982	-26.75
3646.753	-32.75
3649.523	-36.75
3652.29	-35.75
3655.055	-43.75
3657.818	-41.75
3660.579	-42.75
3663.338	-46.75
3666.095	-51.75
3668.849	-56.75
3671.602	-63.75
3674.352	-61.75
3677.101	-57.75
3679.847	-65.75
3682.591	-67.75
3685.333	-64.75
3688.073	-70.75
3690.811	-68.75
3693.547	-72.75
3696.281	-70.75
3699.013	-75.75
3701.742	-73.75
3704.47	-74.75
3707.195	-76.75
3709.919	-79.75
3712.64	-77.75
3715.359	-80.75
3718.076	-79.75
3720.792	-84.75
3723.505	-88.75
3726.216	-87.75
3728.925	-88.75
3731.632	-88.75
3734.336	-88.75
3737.039	-90.75
3739.74	-91.75
3742.439	-86.75
3745.136	-89.75
3747.83	-86.75
3750.523	-87.75
3753.213	-89.75
3755.902	-92.75
3758.589	-92.75
3761.273	-88.75
3763.956	-94.75
3766.636	-95.75
3769.315	-91.75
3771.991	-97.75
3774.665	-98.75
3777.338	-97.75
3780.008	-97.75
3782.677	-96.75
3785.343	-97.75
3788.007	-96.75
3790.67	-95.75
3793.33	-98.75
3795.989	-97.75
3798.645	-98.75
3801.299	-96.75
3803.952	-95.75
3806.602	-93.75
3809.251	-98.75
3811.897	-98.75
3814.542	-97.75
3817.184	-101.75
3819.825	-100.75
3822.463	-103.75
3825.1	-102.75
3827.735	-101.75
3830.367	-104.75
3832.998	-102.75
3835.627	-99.75
3838.253	-100.75
3840.878	-99.75
3843.501	-99.75
3846.122	-103.75
3848.741	-102.75
3851.358	-102.75
3853.973	-102.75
3856.586	-105.75
3859.197	-102.75
3861.806	-106.75
3864.414	-103.75
3867.019	-104.75
3869.622	-99.75
3872.224	-102.75
3874.823	-97.75
3877.421	-98.75
3880.016	-94.75
3882.61	-92.75
3885.202	-95.75
3887.792	-95.75
3890.38	-100.75
3892.966	-101.75
3895.55	-107.75
3898.132	-102.75
3900.713	-108.75
3903.291	-107.75
3905.868	-107.75
3908.442	-107.75
3911.015	-107.75
3913.586	-107.75
3916.155	-102.75
3918.722	-103.75
3921.287	-103.75
3923.85	-106.75
3926.411	-101.75
3928.971	-108.75
3931.528	-106.75
3934.084	-109.75
3936.638	-108.75
3939.19	-111.75
3941.74	-107.75
3944.288	-108.75
3946.834	-110.75
3949.378	-113.75
3951.921	-109.75
3954.462	-106.75
3957	-109.75
3959.537	-107.75
3962.072	-103.75
3964.606	-102.75
3967.137	-103.75
3969.667	-106.75
3972.194	-103.75
3974.72	-102.75
3977.244	-106.75
3979.766	-102.75
3982.286	-108.75
3984.805	-110.75
3987.321	-108.75
3989.836	-106.75
3992.349	-108.75
3994.86	-108.75
3997.369	-105.75
3999.877	-105.75
4002.382	-106.75
4004.886	-107.75
4007.388	-104.75
4009.888	-102.75
4012.386	-107.75
4014.883	-105.75
4017.377	-103.75
4019.87	-104.75
4022.361	-101.75
4024.85	-109.75
4027.338	-107.75
4029.823	-103.75
4032.307	-109.75
4034.789	-108.75
4037.269	-113.75
4039.747	-111.75
4042.224	-104.75
4044.699	-110.75
4047.172	-107.75
4049.643	-108.75
4052.112	-108.75
4054.58	-108.75
4057.046	-106.75
4059.51	-103.75
4061.972	-108.75
4064.432	-105.75
4066.891	-110.75
4069.348	-106.75
4071.803	-105.75
4074.256	-106.75
4076.708	-104.75
4079.158	-104.75
4081.606	-106.75
4084.052	-104.75
4086.497	-103.75
4088.939	-106.75
4091.38	-109.75
4093.819	-108.75
4096.257	-107.75
4098.693	-110.75
4101.127	-113.75
4103.559	-111.75
4105.989	-74.75
4108.418	-71.75
4110.845	-68.75
4113.27	-59.75
4115.694	-51.75
4118.115	-44.75
4120.535	-107.75
4122.954	-112.75
4125.37	-108.75
4127.785	-109.75
4130.198	-110.75
4132.609	-109.75
4135.019	-113.75
4137.427	-113.75
4139.833	-113.75
4142.237	-112.75
