Data from 10000000CFU2_B_RamanShift_1.txt Node
Date: Wed Jan 25 12:45:45 IST 2017
User: aro
Spectrometer: QEPB0276
Trigger mode: 0
Integration Time (sec): 5.000000E0
Scans to average: 1
Electric dark correction enabled: true
Nonlinearity correction enabled: false
Boxcar width: 0
XAxis mode: Raman Shifts
Number of Pixels in Spectrum: 1044
>>>>>Begin Spectral Data<<<<<
160.701	-31.62
166.742	-9.62
172.777	94.38
178.805	393.38
184.826	1089.38
190.841	2213.38
196.849	3449.38
202.85	4228.38
208.845	4382.38
214.833	4238.38
220.815	4084.38
226.789	3939.38
232.758	3842.38
238.719	3731.38
244.674	3591.38
250.623	3408.38
256.565	3286.38
262.5	3131.38
268.429	2972.38
274.351	2869.38
280.267	2773.38
286.176	2656.38
292.079	2583.38
297.975	2486.38
303.865	2408.38
309.748	2353.38
315.625	2278.38
321.495	2255.38
327.359	2216.38
333.217	2182.38
339.068	2172.38
344.912	2141.38
350.751	2143.38
356.583	2146.38
362.408	2126.38
368.227	2132.38
374.04	2143.38
379.847	2139.38
385.647	2168.38
391.44	2189.38
397.228	2190.38
403.009	2195.38
408.784	2207.38
414.553	2215.38
420.315	2202.38
426.071	2223.38
431.821	2226.38
437.565	2217.38
443.302	2195.38
449.033	2201.38
454.758	2181.38
460.477	2201.38
466.189	2191.38
471.896	2170.38
477.596	2164.38
483.29	2139.38
488.978	2118.38
494.66	2118.38
500.335	2086.38
506.005	2058.38
511.668	2030.38
517.325	1965.38
522.977	1951.38
528.622	1918.38
534.261	1879.38
539.894	1861.38
545.521	1864.38
551.141	1841.38
556.756	1844.38
562.365	1827.38
567.968	1804.38
573.565	1799.38
579.155	1787.38
584.74	1781.38
590.319	1771.38
595.892	1771.38
601.459	1751.38
607.02	1741.38
612.575	1723.38
618.124	1705.38
623.667	1693.38
629.204	1679.38
634.735	1660.38
640.261	1647.38
645.781	1642.38
651.294	1636.38
656.802	1630.38
662.304	1620.38
667.8	1618.38
673.29	1617.38
678.775	1591.38
684.254	1590.38
689.726	1574.38
695.193	1571.38
700.655	1563.38
706.11	1553.38
711.56	1546.38
717.004	1543.38
722.442	1527.38
727.874	1514.38
733.301	1509.38
738.722	1501.38
744.137	1491.38
749.547	1481.38
754.951	1503.38
760.349	1492.38
765.741	1480.38
771.128	1498.38
776.509	1493.38
781.885	1483.38
787.254	1473.38
792.618	1478.38
797.977	1465.38
803.33	1455.38
808.677	1440.38
814.019	1429.38
819.355	1420.38
824.686	1389.38
830.011	1377.38
835.33	1391.38
840.644	1368.38
845.952	1383.38
851.255	1375.38
856.552	1362.38
861.844	1347.38
867.13	1356.38
872.41	1325.38
877.686	1324.38
882.955	1318.38
888.219	1305.38
893.478	1265.38
898.731	1242.38
903.979	1227.38
909.221	1225.38
914.458	1211.38
919.69	1204.38
924.916	1203.38
930.136	1198.38
935.351	1198.38
940.561	1190.38
945.766	1186.38
950.965	1194.38
956.158	1174.38
961.347	1152.38
966.529	1137.38
971.707	1124.38
976.879	1122.38
982.046	1101.38
987.208	1106.38
992.364	1106.38
997.515	1113.38
1002.66	1120.38
1007.801	1123.38
1012.936	1139.38
1018.066	1137.38
1023.19	1139.38
1028.309	1149.38
1033.423	1147.38
1038.532	1135.38
1043.636	1132.38
1048.734	1120.38
1053.827	1112.38
1058.915	1097.38
1063.998	1090.38
1069.075	1086.38
1074.147	1104.38
1079.214	1101.38
1084.276	1119.38
1089.333	1117.38
1094.385	1106.38
1099.431	1134.38
1104.472	1132.38
1109.509	1115.38
1114.54	1106.38
1119.565	1088.38
1124.586	1072.38
1129.602	1056.38
1134.613	1068.38
1139.618	1055.38
1144.619	1063.38
1149.614	1062.38
1154.604	1074.38
1159.589	1082.38
1164.57	1067.38
1169.545	1082.38
1174.515	1100.38
1179.48	1098.38
1184.44	1075.38
1189.395	1061.38
1194.345	1060.38
1199.29	1064.38
1204.23	1071.38
1209.165	1082.38
1214.095	1080.38
1219.021	1076.38
1223.941	1093.38
1228.856	1090.38
1233.766	1105.38
1238.672	1098.38
1243.572	1106.38
1248.467	1095.38
1253.358	1069.38
1258.244	1073.38
1263.124	1044.38
1268	1045.38
1272.871	1014.38
1277.737	1023.38
1282.599	1015.38
1287.455	1035.38
1292.306	1028.38
1297.153	1037.38
1301.995	1037.38
1306.832	1058.38
1311.664	1049.38
1316.491	1055.38
1321.314	1049.38
1326.132	1049.38
1330.945	1035.38
1335.753	1018.38
1340.556	1000.38
1345.354	996.38
1350.148	990.38
1354.937	983.38
1359.722	975.38
1364.501	954.38
1369.276	957.38
1374.046	942.38
1378.811	946.38
1383.572	944.38
1388.327	937.38
1393.079	940.38
1397.825	930.38
1402.567	927.38
1407.304	924.38
1412.036	916.38
1416.764	920.38
1421.487	928.38
1426.205	932.38
1430.919	932.38
1435.628	945.38
1440.333	942.38
1445.032	956.38
1449.727	961.38
1454.418	977.38
1459.104	973.38
1463.785	954.38
1468.462	951.38
1473.134	949.38
1477.802	932.38
1482.465	929.38
1487.123	925.38
1491.777	949.38
1496.426	934.38
1501.071	955.38
1505.711	951.38
1510.347	956.38
1514.978	973.38
1519.604	970.38
1524.226	993.38
1528.844	972.38
1533.457	978.38
1538.065	976.38
1542.669	975.38
1547.269	969.38
1551.864	976.38
1556.454	982.38
1561.041	1008.38
1565.622	1012.38
1570.199	1015.38
1574.772	1044.38
1579.34	1062.38
1583.904	1073.38
1588.464	1103.38
1593.019	1109.38
1597.569	1115.38
1602.115	1119.38
1606.657	1150.38
1611.195	1149.38
1615.728	1161.38
1620.256	1173.38
1624.78	1195.38
1629.3	1211.38
1633.816	1233.38
1638.327	1242.38
1642.834	1259.38
1647.336	1266.38
1651.834	1282.38
1656.328	1279.38
1660.817	1263.38
1665.302	1254.38
1669.783	1219.38
1674.259	1184.38
1678.732	1138.38
1683.199	1116.38
1687.663	1071.38
1692.122	1045.38
1696.577	998.38
1701.028	946.38
1705.474	910.38
1709.917	872.38
1714.355	859.38
1718.788	846.38
1723.218	845.38
1727.643	820.38
1732.064	798.38
1736.481	777.38
1740.893	764.38
1745.301	746.38
1749.705	736.38
1754.105	708.38
1758.501	682.38
1762.893	685.38
1767.28	669.38
1771.663	660.38
1776.042	668.38
1780.417	659.38
1784.787	658.38
1789.154	661.38
1793.516	647.38
1797.874	658.38
1802.228	662.38
1806.578	641.38
1810.924	637.38
1815.266	617.38
1819.603	604.38
1823.937	608.38
1828.266	602.38
1832.591	593.38
1836.913	601.38
1841.23	582.38
1845.543	597.38
1849.852	586.38
1854.156	579.38
1858.457	589.38
1862.754	598.38
1867.047	600.38
1871.335	598.38
1875.62	612.38
1879.9	612.38
1884.177	603.38
1888.449	601.38
1892.718	602.38
1896.982	593.38
1901.243	594.38
1905.499	595.38
1909.752	591.38
1914	591.38
1918.245	594.38
1922.485	590.38
1926.722	597.38
1930.954	597.38
1935.183	605.38
1939.408	609.38
1943.628	611.38
1947.845	601.38
1952.058	605.38
1956.267	577.38
1960.472	595.38
1964.673	599.38
1968.87	581.38
1973.063	573.38
1977.252	572.38
1981.438	561.38
1985.619	568.38
1989.797	566.38
1993.971	558.38
1998.14	564.38
2002.306	577.38
2006.469	578.38
2010.627	588.38
2014.781	588.38
2018.932	578.38
2023.078	589.38
2027.221	590.38
2031.36	584.38
2035.495	575.38
2039.627	581.38
2043.754	565.38
2047.878	563.38
2051.998	566.38
2056.114	558.38
2060.226	563.38
2064.334	571.38
2068.439	574.38
2072.54	579.38
2076.637	582.38
2080.73	586.38
2084.82	577.38
2088.906	588.38
2092.988	584.38
2097.066	577.38
2101.14	582.38
2105.211	577.38
2109.278	572.38
2113.342	560.38
2117.401	559.38
2121.457	552.38
2125.509	557.38
2129.558	561.38
2133.602	549.38
2137.643	553.38
2141.681	560.38
2145.714	549.38
2149.744	547.38
2153.77	531.38
2157.793	533.38
2161.812	523.38
2165.827	512.38
2169.838	509.38
2173.846	514.38
2177.851	510.38
2181.851	495.38
2185.848	503.38
2189.841	483.38
2193.831	494.38
2197.817	472.38
2201.799	481.38
2205.778	476.38
2209.753	474.38
2213.725	475.38
2217.693	468.38
2221.657	475.38
2225.618	475.38
2229.575	477.38
2233.529	473.38
2237.479	468.38
2241.425	464.38
2245.368	440.38
2249.307	441.38
2253.243	436.38
2257.175	430.38
2261.104	430.38
2265.029	413.38
2268.95	411.38
2272.868	397.38
2276.783	409.38
2280.694	407.38
2284.601	397.38
2288.505	387.38
2292.405	378.38
2296.302	375.38
2300.195	379.38
2304.085	378.38
2307.971	368.38
2311.854	363.38
2315.734	363.38
2319.609	349.38
2323.482	343.38
2327.351	340.38
2331.216	336.38
2335.078	336.38
2338.937	333.38
2342.792	325.38
2346.643	323.38
2350.492	331.38
2354.336	328.38
2358.178	340.38
2362.015	318.38
2365.85	333.38
2369.681	334.38
2373.508	333.38
2377.333	334.38
2381.153	336.38
2384.971	332.38
2388.785	329.38
2392.595	327.38
2396.402	321.38
2400.206	323.38
2404.007	314.38
2407.804	315.38
2411.597	316.38
2415.388	313.38
2419.174	319.38
2422.958	317.38
2426.738	310.38
2430.515	306.38
2434.289	310.38
2438.059	315.38
2441.825	313.38
2445.589	299.38
2449.349	301.38
2453.106	305.38
2456.859	289.38
2460.61	301.38
2464.356	293.38
2468.1	296.38
2471.84	294.38
2475.577	298.38
2479.311	275.38
2483.041	286.38
2486.768	278.38
2490.492	295.38
2494.213	282.38
2497.93	281.38
2501.644	281.38
2505.355	287.38
2509.062	289.38
2512.766	285.38
2516.467	279.38
2520.165	280.38
2523.859	274.38
2527.551	273.38
2531.239	281.38
2534.923	262.38
2538.605	272.38
2542.283	269.38
2545.958	266.38
2549.63	269.38
2553.299	264.38
2556.964	259.38
2560.626	258.38
2564.285	254.38
2567.941	251.38
2571.594	251.38
2575.243	254.38
2578.89	253.38
2582.533	250.38
2586.173	252.38
2589.809	242.38
2593.443	240.38
2597.073	235.38
2600.701	240.38
2604.325	230.38
2607.946	240.38
2611.564	234.38
2615.178	233.38
2618.79	231.38
2622.398	233.38
2626.004	227.38
2629.606	229.38
2633.205	226.38
2636.801	227.38
2640.394	220.38
2643.983	219.38
2647.57	214.38
2651.153	215.38
2654.734	213.38
2658.311	206.38
2661.885	205.38
2665.456	209.38
2669.025	206.38
2672.589	205.38
2676.151	197.38
2679.71	203.38
2683.266	193.38
2686.819	199.38
2690.368	194.38
2693.915	193.38
2697.458	183.38
2700.999	187.38
2704.536	194.38
2708.071	186.38
2711.602	186.38
2715.13	190.38
2718.656	185.38
2722.178	177.38
2725.697	174.38
2729.214	182.38
2732.727	182.38
2736.237	182.38
2739.744	185.38
2743.249	188.38
2746.75	182.38
2750.248	186.38
2753.743	189.38
2757.236	183.38
2760.725	182.38
2764.211	177.38
2767.695	169.38
2771.175	175.38
2774.652	174.38
2778.127	171.38
2781.598	173.38
2785.067	174.38
2788.532	179.38
2791.995	175.38
2795.455	177.38
2798.911	175.38
2802.365	177.38
2805.816	181.38
2809.264	181.38
2812.709	180.38
2816.151	185.38
2819.59	185.38
2823.026	177.38
2826.46	182.38
2829.89	177.38
2833.318	187.38
2836.742	187.38
2840.164	187.38
2843.583	187.38
2846.999	192.38
2850.412	192.38
2853.822	199.38
2857.229	201.38
2860.634	207.38
2864.035	210.38
2867.434	208.38
2870.83	207.38
2874.223	214.38
2877.613	214.38
2881	213.38
2884.385	214.38
2887.766	209.38
2891.145	208.38
2894.521	207.38
2897.894	216.38
2901.264	220.38
2904.631	227.38
2907.996	229.38
2911.358	230.38
2914.717	228.38
2918.073	228.38
2921.426	237.38
2924.777	246.38
2928.124	247.38
2931.469	245.38
2934.811	252.38
2938.15	257.38
2941.487	262.38
2944.821	262.38
2948.152	268.38
2951.48	278.38
2954.805	272.38
2958.128	272.38
2961.447	284.38
2964.765	288.38
2968.079	302.38
2971.39	310.38
2974.699	315.38
2978.005	319.38
2981.308	329.38
2984.609	340.38
2987.907	346.38
2991.202	352.38
2994.494	377.38
2997.784	371.38
3001.07	378.38
3004.355	395.38
3007.636	408.38
3010.915	412.38
3014.191	420.38
3017.464	431.38
3020.734	432.38
3024.002	449.38
3027.267	448.38
3030.53	454.38
3033.789	465.38
3037.046	480.38
3040.301	496.38
3043.552	489.38
3046.801	509.38
3050.048	520.38
3053.291	535.38
3056.532	557.38
3059.771	577.38
3063.006	599.38
3066.239	603.38
3069.469	632.38
3072.697	651.38
3075.922	673.38
3079.144	682.38
3082.364	696.38
3085.581	718.38
3088.795	712.38
3092.007	734.38
3095.216	761.38
3098.423	778.38
3101.627	794.38
3104.828	821.38
3108.026	828.38
3111.222	850.38
3114.416	864.38
3117.607	870.38
3120.795	913.38
3123.98	930.38
3127.163	952.38
3130.344	979.38
3133.521	1000.38
3136.696	1018.38
3139.869	1040.38
3143.039	1041.38
3146.206	1071.38
3149.371	1089.38
3152.533	1093.38
3155.693	1111.38
3158.85	1110.38
3162.005	1122.38
3165.157	1112.38
3168.306	1139.38
3171.453	1131.38
3174.597	1142.38
3177.739	1134.38
3180.878	1144.38
3184.014	1150.38
3187.149	1147.38
3190.28	1154.38
3193.409	1159.38
3196.536	1136.38
3199.659	1157.38
3202.781	1155.38
3205.9	1171.38
3209.016	1149.38
3212.13	1172.38
3215.241	1143.38
3218.35	1146.38
3221.456	1143.38
3224.56	1149.38
3227.661	1107.38
3230.76	1110.38
3233.856	1098.38
3236.95	1091.38
3240.041	1073.38
3243.13	1078.38
3246.216	1060.38
3249.3	1047.38
3252.382	1047.38
3255.46	1050.38
3258.537	1037.38
3261.611	1022.38
3264.682	1024.38
3267.751	1026.38
3270.818	1020.38
3273.882	1013.38
3276.943	993.38
3280.002	1002.38
3283.059	993.38
3286.113	985.38
3289.165	960.38
3292.214	959.38
3295.261	944.38
3298.306	941.38
3301.348	904.38
3304.387	905.38
3307.425	882.38
3310.459	888.38
3313.492	870.38
3316.521	860.38
3319.549	847.38
3322.574	839.38
3325.597	831.38
3328.617	836.38
3331.635	821.38
3334.65	806.38
3337.663	810.38
3340.674	807.38
3343.682	800.38
3346.688	808.38
3349.691	814.38
3352.692	798.38
3355.691	797.38
3358.687	785.38
3361.681	775.38
3364.673	763.38
3367.662	764.38
3370.649	740.38
3373.633	738.38
3376.615	728.38
3379.595	711.38
3382.572	717.38
3385.547	703.38
3388.52	685.38
3391.49	682.38
3394.458	675.38
3397.424	652.38
3400.387	651.38
3403.348	652.38
3406.307	626.38
3409.263	636.38
3412.217	631.38
3415.168	618.38
3418.118	612.38
3421.065	603.38
3424.009	597.38
3426.951	579.38
3429.891	576.38
3432.829	567.38
3435.764	558.38
3438.697	546.38
3441.628	522.38
3444.557	514.38
3447.483	516.38
3450.407	476.38
3453.328	476.38
3456.247	458.38
3459.164	445.38
3462.079	428.38
3464.991	416.38
3467.902	416.38
3470.809	397.38
3473.715	389.38
3476.618	374.38
3479.519	356.38
3482.418	346.38
3485.315	335.38
3488.209	323.38
3491.101	313.38
3493.99	308.38
3496.878	303.38
3499.763	296.38
3502.646	273.38
3505.527	271.38
3508.405	261.38
3511.281	248.38
3514.155	240.38
3517.027	222.38
3519.897	216.38
3522.764	199.38
3525.629	191.38
3528.492	184.38
3531.352	170.38
3534.211	156.38
3537.067	153.38
3539.921	148.38
3542.773	137.38
3545.622	131.38
3548.469	123.38
3551.315	112.38
3554.157	98.38
3556.998	102.38
3559.837	85.38
3562.673	87.38
3565.507	78.38
3568.339	70.38
3571.169	66.38
3573.996	59.38
3576.822	52.38
3579.645	50.38
3582.466	46.38
3585.285	51.38
3588.101	36.38
3590.916	26.38
3593.728	30.38
3596.538	28.38
3599.346	17.38
3602.152	12.38
3604.956	9.38
3607.757	8.38
3610.556	8.38
3613.354	0.38
3616.149	-9.62
3618.942	-15.62
3621.732	-11.62
3624.521	-16.62
3627.307	-18.62
3630.092	-23.62
3632.874	-25.62
3635.654	-25.62
3638.432	-34.62
3641.208	-33.62
3643.982	-34.62
3646.753	-34.62
3649.523	-42.62
3652.29	-36.62
3655.055	-47.62
3657.818	-40.62
3660.579	-45.62
3663.338	-49.62
3666.095	-49.62
3668.849	-53.62
3671.602	-59.62
3674.352	-58.62
3677.101	-61.62
3679.847	-66.62
3682.591	-68.62
3685.333	-65.62
3688.073	-71.62
3690.811	-74.62
3693.547	-71.62
3696.281	-73.62
3699.013	-75.62
3701.742	-74.62
3704.47	-77.62
3707.195	-78.62
3709.919	-77.62
3712.64	-77.62
3715.359	-82.62
3718.076	-81.62
3720.792	-85.62
3723.505	-82.62
3726.216	-81.62
3728.925	-87.62
3731.632	-83.62
3734.336	-88.62
3737.039	-88.62
3739.74	-86.62
3742.439	-89.62
3745.136	-87.62
3747.83	-90.62
3750.523	-88.62
3753.213	-90.62
3755.902	-93.62
3758.589	-95.62
3761.273	-93.62
3763.956	-94.62
3766.636	-94.62
3769.315	-95.62
3771.991	-95.62
3774.665	-98.62
3777.338	-94.62
3780.008	-99.62
3782.677	-95.62
3785.343	-97.62
3788.007	-93.62
3790.67	-96.62
3793.33	-98.62
3795.989	-96.62
3798.645	-100.62
3801.299	-95.62
3803.952	-99.62
3806.602	-97.62
3809.251	-101.62
3811.897	-101.62
3814.542	-98.62
3817.184	-103.62
3819.825	-100.62
3822.463	-99.62
3825.1	-96.62
3827.735	-100.62
3830.367	-98.62
3832.998	-101.62
3835.627	-98.62
3838.253	-100.62
3840.878	-95.62
3843.501	-97.62
3846.122	-102.62
3848.741	-99.62
3851.358	-97.62
3853.973	-105.62
3856.586	-103.62
3859.197	-101.62
3861.806	-106.62
3864.414	-103.62
3867.019	-106.62
3869.622	-102.62
3872.224	-104.62
3874.823	-103.62
3877.421	-99.62
3880.016	-94.62
3882.61	-92.62
3885.202	-94.62
3887.792	-93.62
3890.38	-92.62
3892.966	-101.62
3895.55	-100.62
3898.132	-100.62
3900.713	-105.62
3903.291	-101.62
3905.868	-104.62
3908.442	-107.62
3911.015	-105.62
3913.586	-107.62
3916.155	-104.62
3918.722	-102.62
3921.287	-103.62
3923.85	-104.62
3926.411	-106.62
3928.971	-111.62
3931.528	-105.62
3934.084	-108.62
3936.638	-106.62
3939.19	-108.62
3941.74	-105.62
3944.288	-107.62
3946.834	-109.62
3949.378	-109.62
3951.921	-107.62
3954.462	-105.62
3957	-107.62
3959.537	-103.62
3962.072	-105.62
3964.606	-104.62
3967.137	-103.62
3969.667	-107.62
3972.194	-105.62
3974.72	-104.62
3977.244	-103.62
3979.766	-103.62
3982.286	-111.62
3984.805	-108.62
3987.321	-105.62
3989.836	-106.62
3992.349	-106.62
3994.86	-106.62
3997.369	-105.62
3999.877	-102.62
4002.382	-100.62
4004.886	-102.62
4007.388	-102.62
4009.888	-102.62
4012.386	-105.62
4014.883	-106.62
4017.377	-103.62
4019.87	-105.62
4022.361	-102.62
4024.85	-109.62
4027.338	-110.62
4029.823	-108.62
4032.307	-106.62
4034.789	-111.62
4037.269	-110.62
4039.747	-106.62
4042.224	-105.62
4044.699	-106.62
4047.172	-103.62
4049.643	-103.62
4052.112	-104.62
4054.58	-102.62
4057.046	-103.62
4059.51	-106.62
4061.972	-105.62
4064.432	-108.62
4066.891	-107.62
4069.348	-106.62
4071.803	-106.62
4074.256	-108.62
4076.708	-108.62
4079.158	-104.62
4081.606	-106.62
4084.052	-108.62
4086.497	-105.62
4088.939	-104.62
4091.38	-104.62
4093.819	-105.62
4096.257	-108.62
4098.693	-108.62
4101.127	-108.62
4103.559	-112.62
4105.989	-70.62
4108.418	-70.62
4110.845	-69.62
4113.27	-55.62
4115.694	-59.62
4118.115	-45.62
4120.535	-108.62
4122.954	-110.62
4125.37	-106.62
4127.785	-104.62
4130.198	-106.62
4132.609	-109.62
4135.019	-110.62
4137.427	-113.62
4139.833	-110.62
4142.237	-111.62
