Data from 10000CFU1_A_RamanShift_1.txt Node
Date: Wed Jan 25 11:55:56 IST 2017
User: aro
Spectrometer: QEPB0276
Trigger mode: 0
Integration Time (sec): 5.000000E0
Scans to average: 1
Electric dark correction enabled: true
Nonlinearity correction enabled: false
Boxcar width: 0
XAxis mode: Raman Shifts
Number of Pixels in Spectrum: 1044
>>>>>Begin Spectral Data<<<<<
160.701	-38.25
166.742	-5.25
172.777	107.75
178.805	427.75
184.826	1144.75
190.841	2338.75
196.849	3633.75
202.85	4441.75
208.845	4596.75
214.833	4443.75
220.815	4275.75
226.789	4155.75
232.758	4027.75
238.719	3902.75
244.674	3753.75
250.623	3582.75
256.565	3432.75
262.5	3259.75
268.429	3124.75
274.351	3005.75
280.267	2905.75
286.176	2747.75
292.079	2704.75
297.975	2608.75
303.865	2508.75
309.748	2454.75
315.625	2400.75
321.495	2360.75
327.359	2317.75
333.217	2285.75
339.068	2254.75
344.912	2248.75
350.751	2245.75
356.583	2238.75
362.408	2240.75
368.227	2238.75
374.04	2228.75
379.847	2254.75
385.647	2248.75
391.44	2263.75
397.228	2279.75
403.009	2297.75
408.784	2285.75
414.553	2303.75
420.315	2315.75
426.071	2318.75
431.821	2307.75
437.565	2323.75
443.302	2305.75
449.033	2300.75
454.758	2293.75
460.477	2268.75
466.189	2253.75
471.896	2246.75
477.596	2244.75
483.29	2233.75
488.978	2225.75
494.66	2213.75
500.335	2189.75
506.005	2143.75
511.668	2113.75
517.325	2067.75
522.977	2035.75
528.622	2009.75
534.261	1984.75
539.894	1949.75
545.521	1940.75
551.141	1949.75
556.756	1918.75
562.365	1917.75
567.968	1885.75
573.565	1891.75
579.155	1894.75
584.74	1871.75
590.319	1863.75
595.892	1846.75
601.459	1824.75
607.02	1829.75
612.575	1810.75
618.124	1776.75
623.667	1764.75
629.204	1754.75
634.735	1738.75
640.261	1724.75
645.781	1708.75
651.294	1706.75
656.802	1701.75
662.304	1673.75
667.8	1686.75
673.29	1678.75
678.775	1671.75
684.254	1666.75
689.726	1652.75
695.193	1643.75
700.655	1630.75
706.11	1639.75
711.56	1608.75
717.004	1602.75
722.442	1597.75
727.874	1568.75
733.301	1574.75
738.722	1564.75
744.137	1566.75
749.547	1558.75
754.951	1555.75
760.349	1551.75
765.741	1549.75
771.128	1546.75
776.509	1549.75
781.885	1555.75
787.254	1533.75
792.618	1541.75
797.977	1536.75
803.33	1512.75
808.677	1496.75
814.019	1486.75
819.355	1479.75
824.686	1448.75
830.011	1448.75
835.33	1429.75
840.644	1429.75
845.952	1424.75
851.255	1418.75
856.552	1427.75
861.844	1410.75
867.13	1400.75
872.41	1389.75
877.686	1382.75
882.955	1345.75
888.219	1331.75
893.478	1324.75
898.731	1297.75
903.979	1278.75
909.221	1263.75
914.458	1249.75
919.69	1246.75
924.916	1245.75
930.136	1258.75
935.351	1251.75
940.561	1238.75
945.766	1251.75
950.965	1219.75
956.158	1223.75
961.347	1190.75
966.529	1193.75
971.707	1171.75
976.879	1159.75
982.046	1149.75
987.208	1134.75
992.364	1143.75
997.515	1154.75
1002.66	1171.75
1007.801	1149.75
1012.936	1198.75
1018.066	1189.75
1023.19	1201.75
1028.309	1186.75
1033.423	1184.75
1038.532	1170.75
1043.636	1163.75
1048.734	1152.75
1053.827	1144.75
1058.915	1137.75
1063.998	1141.75
1069.075	1124.75
1074.147	1132.75
1079.214	1148.75
1084.276	1155.75
1089.333	1136.75
1094.385	1179.75
1099.431	1171.75
1104.472	1173.75
1109.509	1162.75
1114.54	1157.75
1119.565	1144.75
1124.586	1117.75
1129.602	1107.75
1134.613	1104.75
1139.618	1096.75
1144.619	1102.75
1149.614	1118.75
1154.604	1126.75
1159.589	1133.75
1164.57	1132.75
1169.545	1131.75
1174.515	1139.75
1179.48	1112.75
1184.44	1122.75
1189.395	1107.75
1194.345	1108.75
1199.29	1106.75
1204.23	1102.75
1209.165	1115.75
1214.095	1120.75
1219.021	1126.75
1223.941	1132.75
1228.856	1129.75
1233.766	1142.75
1238.672	1127.75
1243.572	1139.75
1248.467	1147.75
1253.358	1121.75
1258.244	1116.75
1263.124	1084.75
1268	1086.75
1272.871	1058.75
1277.737	1059.75
1282.599	1055.75
1287.455	1061.75
1292.306	1068.75
1297.153	1066.75
1301.995	1080.75
1306.832	1081.75
1311.664	1077.75
1316.491	1078.75
1321.314	1081.75
1326.132	1077.75
1330.945	1079.75
1335.753	1054.75
1340.556	1045.75
1345.354	1029.75
1350.148	1020.75
1354.937	1024.75
1359.722	1008.75
1364.501	983.75
1369.276	987.75
1374.046	977.75
1378.811	975.75
1383.572	970.75
1388.327	969.75
1393.079	977.75
1397.825	966.75
1402.567	963.75
1407.304	958.75
1412.036	948.75
1416.764	942.75
1421.487	939.75
1426.205	956.75
1430.919	961.75
1435.628	988.75
1440.333	986.75
1445.032	990.75
1449.727	992.75
1454.418	995.75
1459.104	989.75
1463.785	993.75
1468.462	968.75
1473.134	945.75
1477.802	965.75
1482.465	964.75
1487.123	972.75
1491.777	967.75
1496.426	960.75
1501.071	957.75
1505.711	982.75
1510.347	986.75
1514.978	995.75
1519.604	999.75
1524.226	1013.75
1528.844	1009.75
1533.457	1001.75
1538.065	1020.75
1542.669	1012.75
1547.269	1014.75
1551.864	1010.75
1556.454	1029.75
1561.041	1030.75
1565.622	1039.75
1570.199	1048.75
1574.772	1071.75
1579.34	1089.75
1583.904	1108.75
1588.464	1129.75
1593.019	1147.75
1597.569	1160.75
1602.115	1171.75
1606.657	1183.75
1611.195	1194.75
1615.728	1208.75
1620.256	1223.75
1624.78	1249.75
1629.3	1262.75
1633.816	1263.75
1638.327	1299.75
1642.834	1319.75
1647.336	1333.75
1651.834	1312.75
1656.328	1322.75
1660.817	1305.75
1665.302	1280.75
1669.783	1268.75
1674.259	1226.75
1678.732	1190.75
1683.199	1163.75
1687.663	1115.75
1692.122	1068.75
1696.577	1037.75
1701.028	983.75
1705.474	949.75
1709.917	930.75
1714.355	885.75
1718.788	878.75
1723.218	855.75
1727.643	864.75
1732.064	832.75
1736.481	812.75
1740.893	788.75
1745.301	758.75
1749.705	730.75
1754.105	726.75
1758.501	702.75
1762.893	696.75
1767.28	680.75
1771.663	680.75
1776.042	685.75
1780.417	672.75
1784.787	673.75
1789.154	678.75
1793.516	683.75
1797.874	672.75
1802.228	664.75
1806.578	664.75
1810.924	652.75
1815.266	634.75
1819.603	636.75
1823.937	619.75
1828.266	617.75
1832.591	606.75
1836.913	623.75
1841.23	605.75
1845.543	602.75
1849.852	606.75
1854.156	610.75
1858.457	608.75
1862.754	600.75
1867.047	619.75
1871.335	618.75
1875.62	616.75
1879.9	619.75
1884.177	617.75
1888.449	622.75
1892.718	621.75
1896.982	612.75
1901.243	608.75
1905.499	610.75
1909.752	604.75
1914	597.75
1918.245	600.75
1922.485	604.75
1926.722	613.75
1930.954	614.75
1935.183	614.75
1939.408	619.75
1943.628	621.75
1947.845	624.75
1952.058	627.75
1956.267	617.75
1960.472	607.75
1964.673	608.75
1968.87	600.75
1973.063	582.75
1977.252	591.75
1981.438	581.75
1985.619	590.75
1989.797	584.75
1993.971	579.75
1998.14	592.75
2002.306	579.75
2006.469	590.75
2010.627	592.75
2014.781	592.75
2018.932	606.75
2023.078	585.75
2027.221	593.75
2031.36	589.75
2035.495	584.75
2039.627	591.75
2043.754	582.75
2047.878	577.75
2051.998	582.75
2056.114	579.75
2060.226	585.75
2064.334	580.75
2068.439	590.75
2072.54	594.75
2076.637	593.75
2080.73	590.75
2084.82	602.75
2088.906	605.75
2092.988	593.75
2097.066	596.75
2101.14	594.75
2105.211	586.75
2109.278	582.75
2113.342	572.75
2117.401	565.75
2121.457	572.75
2125.509	573.75
2129.558	565.75
2133.602	569.75
2137.643	568.75
2141.681	562.75
2145.714	563.75
2149.744	560.75
2153.77	547.75
2157.793	554.75
2161.812	537.75
2165.827	541.75
2169.838	530.75
2173.846	523.75
2177.851	520.75
2181.851	511.75
2185.848	495.75
2189.841	500.75
2193.831	493.75
2197.817	486.75
2201.799	470.75
2205.778	470.75
2209.753	487.75
2213.725	471.75
2217.693	481.75
2221.657	486.75
2225.618	472.75
2229.575	475.75
2233.529	479.75
2237.479	469.75
2241.425	468.75
2245.368	455.75
2249.307	446.75
2253.243	442.75
2257.175	432.75
2261.104	432.75
2265.029	419.75
2268.95	419.75
2272.868	417.75
2276.783	399.75
2280.694	400.75
2284.601	392.75
2288.505	403.75
2292.405	390.75
2296.302	394.75
2300.195	373.75
2304.085	376.75
2307.971	371.75
2311.854	371.75
2315.734	359.75
2319.609	344.75
2323.482	340.75
2327.351	339.75
2331.216	344.75
2335.078	336.75
2338.937	330.75
2342.792	333.75
2346.643	332.75
2350.492	323.75
2354.336	322.75
2358.178	331.75
2362.015	332.75
2365.85	329.75
2369.681	327.75
2373.508	331.75
2377.333	333.75
2381.153	330.75
2384.971	327.75
2388.785	330.75
2392.595	328.75
2396.402	316.75
2400.206	317.75
2404.007	315.75
2407.804	320.75
2411.597	318.75
2415.388	319.75
2419.174	313.75
2422.958	319.75
2426.738	309.75
2430.515	310.75
2434.289	308.75
2438.059	301.75
2441.825	300.75
2445.589	293.75
2449.349	294.75
2453.106	291.75
2456.859	292.75
2460.61	300.75
2464.356	290.75
2468.1	293.75
2471.84	285.75
2475.577	288.75
2479.311	271.75
2483.041	285.75
2486.768	276.75
2490.492	271.75
2494.213	285.75
2497.93	283.75
2501.644	279.75
2505.355	271.75
2509.062	282.75
2512.766	283.75
2516.467	271.75
2520.165	274.75
2523.859	270.75
2527.551	272.75
2531.239	277.75
2534.923	266.75
2538.605	263.75
2542.283	262.75
2545.958	262.75
2549.63	249.75
2553.299	254.75
2556.964	252.75
2560.626	245.75
2564.285	256.75
2567.941	245.75
2571.594	252.75
2575.243	245.75
2578.89	245.75
2582.533	246.75
2586.173	247.75
2589.809	241.75
2593.443	235.75
2597.073	238.75
2600.701	227.75
2604.325	229.75
2607.946	229.75
2611.564	230.75
2615.178	225.75
2618.79	227.75
2622.398	233.75
2626.004	222.75
2629.606	215.75
2633.205	220.75
2636.801	229.75
2640.394	210.75
2643.983	219.75
2647.57	207.75
2651.153	211.75
2654.734	202.75
2658.311	195.75
2661.885	202.75
2665.456	201.75
2669.025	196.75
2672.589	193.75
2676.151	197.75
2679.71	197.75
2683.266	190.75
2686.819	192.75
2690.368	191.75
2693.915	193.75
2697.458	188.75
2700.999	184.75
2704.536	183.75
2708.071	185.75
2711.602	170.75
2715.13	176.75
2718.656	182.75
2722.178	186.75
2725.697	172.75
2729.214	183.75
2732.727	181.75
2736.237	180.75
2739.744	182.75
2743.249	181.75
2746.75	189.75
2750.248	187.75
2753.743	184.75
2757.236	179.75
2760.725	177.75
2764.211	171.75
2767.695	173.75
2771.175	162.75
2774.652	178.75
2778.127	162.75
2781.598	170.75
2785.067	163.75
2788.532	169.75
2791.995	177.75
2795.455	173.75
2798.911	178.75
2802.365	180.75
2805.816	178.75
2809.264	176.75
2812.709	175.75
2816.151	170.75
2819.59	172.75
2823.026	177.75
2826.46	173.75
2829.89	183.75
2833.318	174.75
2836.742	180.75
2840.164	184.75
2843.583	185.75
2846.999	185.75
2850.412	185.75
2853.822	196.75
2857.229	198.75
2860.634	203.75
2864.035	201.75
2867.434	194.75
2870.83	207.75
2874.223	195.75
2877.613	208.75
2881	217.75
2884.385	215.75
2887.766	210.75
2891.145	213.75
2894.521	217.75
2897.894	207.75
2901.264	222.75
2904.631	213.75
2907.996	221.75
2911.358	229.75
2914.717	232.75
2918.073	229.75
2921.426	233.75
2924.777	236.75
2928.124	240.75
2931.469	248.75
2934.811	249.75
2938.15	262.75
2941.487	264.75
2944.821	268.75
2948.152	264.75
2951.48	279.75
2954.805	262.75
2958.128	282.75
2961.447	285.75
2964.765	290.75
2968.079	307.75
2971.39	309.75
2974.699	319.75
2978.005	321.75
2981.308	331.75
2984.609	341.75
2987.907	350.75
2991.202	364.75
2994.494	370.75
2997.784	385.75
3001.07	394.75
3004.355	387.75
3007.636	419.75
3010.915	425.75
3014.191	433.75
3017.464	441.75
3020.734	456.75
3024.002	452.75
3027.267	466.75
3030.53	464.75
3033.789	482.75
3037.046	494.75
3040.301	513.75
3043.552	516.75
3046.801	533.75
3050.048	536.75
3053.291	557.75
3056.532	559.75
3059.771	592.75
3063.006	623.75
3066.239	641.75
3069.469	659.75
3072.697	673.75
3075.922	694.75
3079.144	709.75
3082.364	725.75
3085.581	741.75
3088.795	767.75
3092.007	788.75
3095.216	793.75
3098.423	804.75
3101.627	829.75
3104.828	842.75
3108.026	863.75
3111.222	894.75
3114.416	915.75
3117.607	920.75
3120.795	953.75
3123.98	964.75
3127.163	1004.75
3130.344	1019.75
3133.521	1034.75
3136.696	1066.75
3139.869	1088.75
3143.039	1089.75
3146.206	1095.75
3149.371	1124.75
3152.533	1135.75
3155.693	1139.75
3158.85	1147.75
3162.005	1166.75
3165.157	1164.75
3168.306	1194.75
3171.453	1172.75
3174.597	1197.75
3177.739	1193.75
3180.878	1192.75
3184.014	1211.75
3187.149	1201.75
3190.28	1195.75
3193.409	1215.75
3196.536	1211.75
3199.659	1211.75
3202.781	1207.75
3205.9	1223.75
3209.016	1217.75
3212.13	1230.75
3215.241	1201.75
3218.35	1212.75
3221.456	1205.75
3224.56	1186.75
3227.661	1181.75
3230.76	1163.75
3233.856	1141.75
3236.95	1149.75
3240.041	1130.75
3243.13	1118.75
3246.216	1114.75
3249.3	1102.75
3252.382	1092.75
3255.46	1103.75
3258.537	1084.75
3261.611	1102.75
3264.682	1086.75
3267.751	1071.75
3270.818	1088.75
3273.882	1070.75
3276.943	1070.75
3280.002	1057.75
3283.059	1051.75
3286.113	1022.75
3289.165	1015.75
3292.214	1004.75
3295.261	995.75
3298.306	989.75
3301.348	975.75
3304.387	948.75
3307.425	944.75
3310.459	930.75
3313.492	922.75
3316.521	892.75
3319.549	898.75
3322.574	888.75
3325.597	878.75
3328.617	854.75
3331.635	863.75
3334.65	859.75
3337.663	859.75
3340.674	860.75
3343.682	859.75
3346.688	840.75
3349.691	852.75
3352.692	859.75
3355.691	839.75
3358.687	818.75
3361.681	819.75
3364.673	808.75
3367.662	792.75
3370.649	781.75
3373.633	787.75
3376.615	758.75
3379.595	753.75
3382.572	744.75
3385.547	734.75
3388.52	724.75
3391.49	711.75
3394.458	709.75
3397.424	688.75
3400.387	692.75
3403.348	678.75
3406.307	679.75
3409.263	663.75
3412.217	670.75
3415.168	650.75
3418.118	646.75
3421.065	640.75
3424.009	639.75
3426.951	620.75
3429.891	598.75
3432.829	600.75
3435.764	566.75
3438.697	580.75
3441.628	556.75
3444.557	540.75
3447.483	535.75
3450.407	525.75
3453.328	509.75
3456.247	480.75
3459.164	485.75
3462.079	459.75
3464.991	441.75
3467.902	423.75
3470.809	413.75
3473.715	408.75
3476.618	390.75
3479.519	373.75
3482.418	361.75
3485.315	356.75
3488.209	342.75
3491.101	336.75
3493.99	342.75
3496.878	326.75
3499.763	308.75
3502.646	298.75
3505.527	288.75
3508.405	278.75
3511.281	260.75
3514.155	255.75
3517.027	243.75
3519.897	224.75
3522.764	219.75
3525.629	203.75
3528.492	196.75
3531.352	180.75
3534.211	171.75
3537.067	165.75
3539.921	147.75
3542.773	138.75
3545.622	139.75
3548.469	130.75
3551.315	114.75
3554.157	111.75
3556.998	105.75
3559.837	96.75
3562.673	82.75
3565.507	81.75
3568.339	73.75
3571.169	60.75
3573.996	68.75
3576.822	57.75
3579.645	49.75
3582.466	43.75
3585.285	45.75
3588.101	34.75
3590.916	27.75
3593.728	25.75
3596.538	24.75
3599.346	15.75
3602.152	11.75
3604.956	6.75
3607.757	1.75
3610.556	-3.25
3613.354	-7.25
3616.149	-11.25
3618.942	-18.25
3621.732	-18.25
3624.521	-17.25
3627.307	-21.25
3630.092	-21.25
3632.874	-24.25
3635.654	-28.25
3638.432	-35.25
3641.208	-38.25
3643.982	-35.25
3646.753	-41.25
3649.523	-41.25
3652.29	-47.25
3655.055	-54.25
3657.818	-50.25
3660.579	-54.25
3663.338	-59.25
3666.095	-58.25
3668.849	-61.25
3671.602	-66.25
3674.352	-65.25
3677.101	-70.25
3679.847	-73.25
3682.591	-72.25
3685.333	-74.25
3688.073	-78.25
3690.811	-76.25
3693.547	-86.25
3696.281	-81.25
3699.013	-86.25
3701.742	-83.25
3704.47	-86.25
3707.195	-88.25
3709.919	-86.25
3712.64	-89.25
3715.359	-91.25
3718.076	-92.25
3720.792	-90.25
3723.505	-93.25
3726.216	-92.25
3728.925	-94.25
3731.632	-95.25
3734.336	-95.25
3737.039	-99.25
3739.74	-102.25
3742.439	-96.25
3745.136	-95.25
3747.83	-98.25
3750.523	-96.25
3753.213	-97.25
3755.902	-99.25
3758.589	-100.25
3761.273	-99.25
3763.956	-102.25
3766.636	-105.25
3769.315	-103.25
3771.991	-105.25
3774.665	-108.25
3777.338	-104.25
3780.008	-104.25
3782.677	-107.25
3785.343	-107.25
3788.007	-108.25
3790.67	-101.25
3793.33	-105.25
3795.989	-107.25
3798.645	-104.25
3801.299	-107.25
3803.952	-106.25
3806.602	-104.25
3809.251	-109.25
3811.897	-107.25
3814.542	-109.25
3817.184	-109.25
3819.825	-112.25
3822.463	-111.25
3825.1	-113.25
3827.735	-111.25
3830.367	-111.25
3832.998	-114.25
3835.627	-109.25
3838.253	-110.25
3840.878	-105.25
3843.501	-110.25
3846.122	-107.25
3848.741	-109.25
3851.358	-109.25
3853.973	-111.25
3856.586	-113.25
3859.197	-111.25
3861.806	-113.25
3864.414	-114.25
3867.019	-114.25
3869.622	-110.25
3872.224	-113.25
3874.823	-106.25
3877.421	-112.25
3880.016	-101.25
3882.61	-99.25
3885.202	-102.25
3887.792	-103.25
3890.38	-104.25
3892.966	-109.25
3895.55	-108.25
3898.132	-113.25
3900.713	-119.25
3903.291	-117.25
3905.868	-114.25
3908.442	-119.25
3911.015	-117.25
3913.586	-117.25
3916.155	-114.25
3918.722	-112.25
3921.287	-114.25
3923.85	-113.25
3926.411	-113.25
3928.971	-121.25
3931.528	-116.25
3934.084	-117.25
3936.638	-118.25
3939.19	-119.25
3941.74	-117.25
3944.288	-120.25
3946.834	-122.25
3949.378	-119.25
3951.921	-119.25
3954.462	-118.25
3957	-115.25
3959.537	-114.25
3962.072	-112.25
3964.606	-112.25
3967.137	-116.25
3969.667	-116.25
3972.194	-116.25
3974.72	-116.25
3977.244	-116.25
3979.766	-117.25
3982.286	-121.25
3984.805	-120.25
3987.321	-116.25
3989.836	-115.25
3992.349	-117.25
3994.86	-110.25
3997.369	-114.25
3999.877	-112.25
4002.382	-114.25
4004.886	-111.25
4007.388	-110.25
4009.888	-115.25
4012.386	-117.25
4014.883	-116.25
4017.377	-116.25
4019.87	-116.25
4022.361	-116.25
4024.85	-117.25
4027.338	-116.25
4029.823	-114.25
4032.307	-112.25
4034.789	-115.25
4037.269	-119.25
4039.747	-115.25
4042.224	-114.25
4044.699	-119.25
4047.172	-114.25
4049.643	-117.25
4052.112	-117.25
4054.58	-117.25
4057.046	-116.25
4059.51	-113.25
4061.972	-119.25
4064.432	-117.25
4066.891	-118.25
4069.348	-116.25
4071.803	-116.25
4074.256	-117.25
4076.708	-117.25
4079.158	-115.25
4081.606	-119.25
4084.052	-118.25
4086.497	-117.25
4088.939	-112.25
4091.38	-115.25
4093.819	-116.25
4096.257	-116.25
4098.693	-120.25
4101.127	-123.25
4103.559	-123.25
4105.989	-80.25
4108.418	-81.25
4110.845	-77.25
4113.27	-69.25
4115.694	-62.25
4118.115	-50.25
4120.535	-113.25
4122.954	-118.25
4125.37	-117.25
4127.785	-116.25
4130.198	-119.25
4132.609	-117.25
4135.019	-122.25
4137.427	-123.25
4139.833	-123.25
4142.237	-123.25
