Data from 10000000CFU1_A_RamanShift_1.txt Node
Date: Wed Jan 25 12:06:10 IST 2017
User: aro
Spectrometer: QEPB0276
Trigger mode: 0
Integration Time (sec): 5.000000E0
Scans to average: 1
Electric dark correction enabled: true
Nonlinearity correction enabled: false
Boxcar width: 0
XAxis mode: Raman Shifts
Number of Pixels in Spectrum: 1044
>>>>>Begin Spectral Data<<<<<
160.701	-37
166.742	-8
172.777	101
178.805	408
184.826	1130
190.841	2302
196.849	3565
202.85	4393
208.845	4569
214.833	4423
220.815	4266
226.789	4125
232.758	4034
238.719	3902
244.674	3764
250.623	3610
256.565	3441
262.5	3317
268.429	3151
274.351	3006
280.267	2880
286.176	2828
292.079	2698
297.975	2615
303.865	2575
309.748	2475
315.625	2399
321.495	2374
327.359	2346
333.217	2312
339.068	2299
344.912	2274
350.751	2270
356.583	2266
362.408	2245
368.227	2271
374.04	2281
379.847	2270
385.647	2306
391.44	2294
397.228	2324
403.009	2323
408.784	2337
414.553	2345
420.315	2342
426.071	2350
431.821	2340
437.565	2349
443.302	2329
449.033	2351
454.758	2334
460.477	2320
466.189	2303
471.896	2299
477.596	2294
483.29	2271
488.978	2263
494.66	2241
500.335	2237
506.005	2200
511.668	2146
517.325	2090
522.977	2073
528.622	2052
534.261	2023
539.894	2016
545.521	1992
551.141	2003
556.756	1982
562.365	1968
567.968	1937
573.565	1923
579.155	1922
584.74	1914
590.319	1891
595.892	1880
601.459	1881
607.02	1880
612.575	1848
618.124	1830
623.667	1812
629.204	1787
634.735	1774
640.261	1760
645.781	1755
651.294	1752
656.802	1740
662.304	1726
667.8	1720
673.29	1720
678.775	1714
684.254	1687
689.726	1689
695.193	1680
700.655	1673
706.11	1645
711.56	1659
717.004	1661
722.442	1642
727.874	1607
733.301	1626
738.722	1616
744.137	1604
749.547	1598
754.951	1597
760.349	1585
765.741	1581
771.128	1600
776.509	1600
781.885	1596
787.254	1598
792.618	1577
797.977	1575
803.33	1555
808.677	1561
814.019	1530
819.355	1531
824.686	1513
830.011	1493
835.33	1495
840.644	1480
845.952	1483
851.255	1495
856.552	1463
861.844	1457
867.13	1462
872.41	1441
877.686	1432
882.955	1411
888.219	1382
893.478	1371
898.731	1352
903.979	1333
909.221	1319
914.458	1320
919.69	1308
924.916	1300
930.136	1309
935.351	1294
940.561	1303
945.766	1278
950.965	1300
956.158	1283
961.347	1253
966.529	1245
971.707	1226
976.879	1220
982.046	1209
987.208	1189
992.364	1209
997.515	1198
1002.66	1213
1007.801	1212
1012.936	1235
1018.066	1242
1023.19	1252
1028.309	1256
1033.423	1245
1038.532	1242
1043.636	1233
1048.734	1227
1053.827	1198
1058.915	1208
1063.998	1196
1069.075	1197
1074.147	1203
1079.214	1197
1084.276	1198
1089.333	1219
1094.385	1231
1099.431	1245
1104.472	1257
1109.509	1239
1114.54	1229
1119.565	1204
1124.586	1190
1129.602	1166
1134.613	1158
1139.618	1161
1144.619	1177
1149.614	1168
1154.604	1175
1159.589	1185
1164.57	1190
1169.545	1196
1174.515	1204
1179.48	1198
1184.44	1187
1189.395	1178
1194.345	1175
1199.29	1173
1204.23	1156
1209.165	1163
1214.095	1169
1219.021	1189
1223.941	1200
1228.856	1215
1233.766	1210
1238.672	1204
1243.572	1208
1248.467	1196
1253.358	1183
1258.244	1176
1263.124	1155
1268	1154
1272.871	1120
1277.737	1119
1282.599	1119
1287.455	1119
1292.306	1140
1297.153	1140
1301.995	1140
1306.832	1160
1311.664	1149
1316.491	1157
1321.314	1141
1326.132	1151
1330.945	1130
1335.753	1124
1340.556	1120
1345.354	1093
1350.148	1090
1354.937	1079
1359.722	1060
1364.501	1058
1369.276	1062
1374.046	1032
1378.811	1032
1383.572	1045
1388.327	1029
1393.079	1027
1397.825	1042
1402.567	1037
1407.304	1004
1412.036	1023
1416.764	1015
1421.487	1018
1426.205	1019
1430.919	1034
1435.628	1034
1440.333	1048
1445.032	1062
1449.727	1060
1454.418	1062
1459.104	1064
1463.785	1054
1468.462	1034
1473.134	1039
1477.802	1040
1482.465	1017
1487.123	1022
1491.777	1029
1496.426	1029
1501.071	1037
1505.711	1031
1510.347	1052
1514.978	1069
1519.604	1059
1524.226	1072
1528.844	1069
1533.457	1076
1538.065	1078
1542.669	1081
1547.269	1056
1551.864	1081
1556.454	1094
1561.041	1086
1565.622	1108
1570.199	1122
1574.772	1119
1579.34	1151
1583.904	1178
1588.464	1195
1593.019	1198
1597.569	1220
1602.115	1217
1606.657	1249
1611.195	1262
1615.728	1278
1620.256	1291
1624.78	1306
1629.3	1321
1633.816	1330
1638.327	1337
1642.834	1354
1647.336	1366
1651.834	1375
1656.328	1392
1660.817	1374
1665.302	1346
1669.783	1316
1674.259	1285
1678.732	1258
1683.199	1213
1687.663	1171
1692.122	1122
1696.577	1100
1701.028	1049
1705.474	997
1709.917	965
1714.355	958
1718.788	940
1723.218	928
1727.643	915
1732.064	887
1736.481	867
1740.893	842
1745.301	819
1749.705	794
1754.105	776
1758.501	778
1762.893	758
1767.28	745
1771.663	734
1776.042	737
1780.417	735
1784.787	738
1789.154	738
1793.516	742
1797.874	739
1802.228	736
1806.578	731
1810.924	708
1815.266	703
1819.603	695
1823.937	680
1828.266	670
1832.591	651
1836.913	657
1841.23	658
1845.543	657
1849.852	666
1854.156	654
1858.457	657
1862.754	670
1867.047	676
1871.335	665
1875.62	688
1879.9	684
1884.177	671
1888.449	681
1892.718	673
1896.982	679
1901.243	672
1905.499	670
1909.752	664
1914	667
1918.245	657
1922.485	659
1926.722	674
1930.954	671
1935.183	666
1939.408	679
1943.628	687
1947.845	678
1952.058	677
1956.267	671
1960.472	663
1964.673	652
1968.87	644
1973.063	642
1977.252	640
1981.438	629
1985.619	640
1989.797	625
1993.971	640
1998.14	648
2002.306	641
2006.469	656
2010.627	659
2014.781	652
2018.932	654
2023.078	647
2027.221	650
2031.36	649
2035.495	635
2039.627	631
2043.754	639
2047.878	638
2051.998	621
2056.114	633
2060.226	636
2064.334	629
2068.439	633
2072.54	642
2076.637	644
2080.73	643
2084.82	652
2088.906	640
2092.988	651
2097.066	642
2101.14	636
2105.211	647
2109.278	628
2113.342	627
2117.401	624
2121.457	627
2125.509	621
2129.558	624
2133.602	612
2137.643	609
2141.681	613
2145.714	603
2149.744	603
2153.77	597
2157.793	599
2161.812	589
2165.827	585
2169.838	576
2173.846	561
2177.851	569
2181.851	551
2185.848	542
2189.841	546
2193.831	540
2197.817	527
2201.799	537
2205.778	531
2209.753	520
2213.725	525
2217.693	526
2221.657	519
2225.618	522
2229.575	521
2233.529	534
2237.479	520
2241.425	521
2245.368	503
2249.307	500
2253.243	487
2257.175	490
2261.104	469
2265.029	468
2268.95	466
2272.868	455
2276.783	451
2280.694	443
2284.601	434
2288.505	438
2292.405	435
2296.302	425
2300.195	428
2304.085	416
2307.971	413
2311.854	406
2315.734	394
2319.609	388
2323.482	385
2327.351	384
2331.216	379
2335.078	369
2338.937	370
2342.792	365
2346.643	369
2350.492	363
2354.336	363
2358.178	368
2362.015	371
2365.85	375
2369.681	369
2373.508	371
2377.333	380
2381.153	375
2384.971	376
2388.785	365
2392.595	367
2396.402	363
2400.206	363
2404.007	361
2407.804	357
2411.597	352
2415.388	351
2419.174	356
2422.958	350
2426.738	351
2430.515	347
2434.289	353
2438.059	348
2441.825	349
2445.589	344
2449.349	344
2453.106	340
2456.859	332
2460.61	336
2464.356	326
2468.1	323
2471.84	319
2475.577	321
2479.311	323
2483.041	322
2486.768	320
2490.492	315
2494.213	323
2497.93	327
2501.644	321
2505.355	325
2509.062	319
2512.766	323
2516.467	309
2520.165	308
2523.859	314
2527.551	309
2531.239	303
2534.923	311
2538.605	301
2542.283	303
2545.958	297
2549.63	297
2553.299	296
2556.964	291
2560.626	296
2564.285	290
2567.941	282
2571.594	282
2575.243	288
2578.89	278
2582.533	282
2586.173	278
2589.809	278
2593.443	274
2597.073	271
2600.701	269
2604.325	263
2607.946	268
2611.564	271
2615.178	268
2618.79	269
2622.398	264
2626.004	265
2629.606	267
2633.205	254
2636.801	250
2640.394	260
2643.983	249
2647.57	248
2651.153	247
2654.734	242
2658.311	244
2661.885	243
2665.456	237
2669.025	229
2672.589	230
2676.151	235
2679.71	229
2683.266	233
2686.819	227
2690.368	224
2693.915	223
2697.458	211
2700.999	217
2704.536	211
2708.071	207
2711.602	213
2715.13	198
2718.656	210
2722.178	204
2725.697	208
2729.214	206
2732.727	211
2736.237	208
2739.744	211
2743.249	207
2746.75	220
2750.248	210
2753.743	203
2757.236	205
2760.725	209
2764.211	200
2767.695	203
2771.175	199
2774.652	195
2778.127	198
2781.598	199
2785.067	189
2788.532	197
2791.995	197
2795.455	200
2798.911	200
2802.365	212
2805.816	204
2809.264	204
2812.709	212
2816.151	204
2819.59	203
2823.026	193
2826.46	199
2829.89	204
2833.318	203
2836.742	208
2840.164	208
2843.583	213
2846.999	213
2850.412	220
2853.822	216
2857.229	223
2860.634	225
2864.035	225
2867.434	228
2870.83	232
2874.223	227
2877.613	233
2881	232
2884.385	227
2887.766	240
2891.145	231
2894.521	239
2897.894	248
2901.264	241
2904.631	242
2907.996	249
2911.358	249
2914.717	250
2918.073	243
2921.426	260
2924.777	261
2928.124	262
2931.469	269
2934.811	268
2938.15	264
2941.487	275
2944.821	280
2948.152	289
2951.48	291
2954.805	301
2958.128	301
2961.447	314
2964.765	305
2968.079	321
2971.39	319
2974.699	337
2978.005	340
2981.308	345
2984.609	351
2987.907	364
2991.202	372
2994.494	395
2997.784	398
3001.07	407
3004.355	408
3007.636	431
3010.915	442
3014.191	437
3017.464	447
3020.734	461
3024.002	473
3027.267	468
3030.53	474
3033.789	494
3037.046	501
3040.301	507
3043.552	526
3046.801	536
3050.048	547
3053.291	567
3056.532	590
3059.771	597
3063.006	614
3066.239	634
3069.469	662
3072.697	683
3075.922	693
3079.144	717
3082.364	719
3085.581	744
3088.795	766
3092.007	784
3095.216	801
3098.423	817
3101.627	836
3104.828	847
3108.026	871
3111.222	895
3114.416	912
3117.607	921
3120.795	954
3123.98	980
3127.163	996
3130.344	1022
3133.521	1041
3136.696	1061
3139.869	1084
3143.039	1091
3146.206	1109
3149.371	1127
3152.533	1129
3155.693	1140
3158.85	1159
3162.005	1174
3165.157	1151
3168.306	1171
3171.453	1176
3174.597	1169
3177.739	1185
3180.878	1169
3184.014	1195
3187.149	1176
3190.28	1191
3193.409	1205
3196.536	1193
3199.659	1194
3202.781	1216
3205.9	1207
3209.016	1205
3212.13	1200
3215.241	1202
3218.35	1185
3221.456	1175
3224.56	1161
3227.661	1167
3230.76	1132
3233.856	1137
3236.95	1136
3240.041	1104
3243.13	1104
3246.216	1114
3249.3	1087
3252.382	1078
3255.46	1079
3258.537	1069
3261.611	1077
3264.682	1065
3267.751	1071
3270.818	1062
3273.882	1053
3276.943	1048
3280.002	1050
3283.059	1026
3286.113	1034
3289.165	1000
3292.214	988
3295.261	969
3298.306	964
3301.348	951
3304.387	939
3307.425	915
3310.459	903
3313.492	890
3316.521	874
3319.549	885
3322.574	865
3325.597	852
3328.617	859
3331.635	854
3334.65	850
3337.663	845
3340.674	850
3343.682	827
3346.688	847
3349.691	836
3352.692	818
3355.691	818
3358.687	821
3361.681	804
3364.673	803
3367.662	778
3370.649	775
3373.633	767
3376.615	760
3379.595	745
3382.572	733
3385.547	725
3388.52	711
3391.49	704
3394.458	696
3397.424	685
3400.387	672
3403.348	670
3406.307	658
3409.263	659
3412.217	661
3415.168	633
3418.118	638
3421.065	633
3424.009	622
3426.951	623
3429.891	603
3432.829	591
3435.764	571
3438.697	567
3441.628	545
3444.557	530
3447.483	525
3450.407	505
3453.328	497
3456.247	472
3459.164	471
3462.079	453
3464.991	444
3467.902	421
3470.809	412
3473.715	394
3476.618	388
3479.519	371
3482.418	359
3485.315	349
3488.209	344
3491.101	333
3493.99	326
3496.878	312
3499.763	306
3502.646	301
3505.527	280
3508.405	270
3511.281	263
3514.155	247
3517.027	239
3519.897	224
3522.764	212
3525.629	198
3528.492	185
3531.352	176
3534.211	165
3537.067	155
3539.921	149
3542.773	139
3545.622	133
3548.469	134
3551.315	122
3554.157	108
3556.998	98
3559.837	100
3562.673	90
3565.507	77
3568.339	68
3571.169	64
3573.996	58
3576.822	57
3579.645	49
3582.466	45
3585.285	43
3588.101	41
3590.916	27
3593.728	28
3596.538	23
3599.346	19
3602.152	14
3604.956	10
3607.757	7
3610.556	-1
3613.354	-1
3616.149	-10
3618.942	-18
3621.732	-17
3624.521	-18
3627.307	-24
3630.092	-26
3632.874	-33
3635.654	-22
3638.432	-28
3641.208	-36
3643.982	-33
3646.753	-40
3649.523	-37
3652.29	-40
3655.055	-48
3657.818	-46
3660.579	-46
3663.338	-54
3666.095	-55
3668.849	-64
3671.602	-64
3674.352	-62
3677.101	-65
3679.847	-70
3682.591	-69
3685.333	-73
3688.073	-74
3690.811	-75
3693.547	-78
3696.281	-77
3699.013	-80
3701.742	-79
3704.47	-84
3707.195	-85
3709.919	-84
3712.64	-85
3715.359	-83
3718.076	-89
3720.792	-90
3723.505	-91
3726.216	-88
3728.925	-90
3731.632	-88
3734.336	-96
3737.039	-92
3739.74	-90
3742.439	-94
3745.136	-93
3747.83	-89
3750.523	-92
3753.213	-96
3755.902	-96
3758.589	-99
3761.273	-99
3763.956	-99
3766.636	-100
3769.315	-97
3771.991	-104
3774.665	-103
3777.338	-101
3780.008	-101
3782.677	-101
3785.343	-98
3788.007	-100
3790.67	-98
3793.33	-101
3795.989	-100
3798.645	-103
3801.299	-102
3803.952	-103
3806.602	-102
3809.251	-102
3811.897	-105
3814.542	-103
3817.184	-107
3819.825	-105
3822.463	-105
3825.1	-106
3827.735	-106
3830.367	-107
3832.998	-107
3835.627	-104
3838.253	-105
3840.878	-104
3843.501	-106
3846.122	-108
3848.741	-105
3851.358	-109
3853.973	-107
3856.586	-108
3859.197	-105
3861.806	-110
3864.414	-108
3867.019	-110
3869.622	-106
3872.224	-106
3874.823	-105
3877.421	-107
3880.016	-102
3882.61	-100
3885.202	-103
3887.792	-102
3890.38	-105
3892.966	-108
3895.55	-109
3898.132	-109
3900.713	-110
3903.291	-107
3905.868	-109
3908.442	-110
3911.015	-111
3913.586	-112
3916.155	-110
3918.722	-109
3921.287	-112
3923.85	-110
3926.411	-109
3928.971	-118
3931.528	-109
3934.084	-114
3936.638	-115
3939.19	-114
3941.74	-111
3944.288	-112
3946.834	-114
3949.378	-114
3951.921	-116
3954.462	-116
3957	-113
3959.537	-113
3962.072	-110
3964.606	-112
3967.137	-111
3969.667	-114
3972.194	-114
3974.72	-111
3977.244	-110
3979.766	-110
3982.286	-114
3984.805	-112
3987.321	-112
3989.836	-111
3992.349	-110
3994.86	-109
3997.369	-109
3999.877	-109
4002.382	-109
4004.886	-109
4007.388	-111
4009.888	-112
4012.386	-116
4014.883	-111
4017.377	-111
4019.87	-113
4022.361	-109
4024.85	-113
4027.338	-114
4029.823	-110
4032.307	-112
4034.789	-112
4037.269	-113
4039.747	-114
4042.224	-109
4044.699	-112
4047.172	-111
4049.643	-112
4052.112	-113
4054.58	-115
4057.046	-114
4059.51	-112
4061.972	-118
4064.432	-113
4066.891	-115
4069.348	-113
4071.803	-109
4074.256	-113
4076.708	-113
4079.158	-109
4081.606	-110
4084.052	-113
4086.497	-113
4088.939	-112
4091.38	-114
4093.819	-114
4096.257	-111
4098.693	-111
4101.127	-116
4103.559	-113
4105.989	-77
4108.418	-75
4110.845	-73
4113.27	-68
4115.694	-61
4118.115	-53
4120.535	-112
4122.954	-117
4125.37	-114
4127.785	-113
4130.198	-112
4132.609	-113
4135.019	-114
4137.427	-118
4139.833	-116
4142.237	-116
