Data from 10CFU1_A_RamanShift_1.txt Node
Date: Wed Jan 25 11:46:21 IST 2017
User: aro
Spectrometer: QEPB0276
Trigger mode: 0
Integration Time (sec): 5.000000E0
Scans to average: 1
Electric dark correction enabled: true
Nonlinearity correction enabled: false
Boxcar width: 0
XAxis mode: Raman Shifts
Number of Pixels in Spectrum: 1044
>>>>>Begin Spectral Data<<<<<
160.701	-34.88
166.742	-2.88
172.777	105.12
178.805	429.12
184.826	1202.12
190.841	2431.12
196.849	3806.12
202.85	4658.12
208.845	4795.12
214.833	4632.12
220.815	4458.12
226.789	4318.12
232.758	4194.12
238.719	4102.12
244.674	3938.12
250.623	3763.12
256.565	3588.12
262.5	3430.12
268.429	3267.12
274.351	3157.12
280.267	3047.12
286.176	2914.12
292.079	2827.12
297.975	2736.12
303.865	2636.12
309.748	2584.12
315.625	2528.12
321.495	2461.12
327.359	2411.12
333.217	2389.12
339.068	2377.12
344.912	2358.12
350.751	2341.12
356.583	2337.12
362.408	2330.12
368.227	2356.12
374.04	2356.12
379.847	2352.12
385.647	2385.12
391.44	2389.12
397.228	2421.12
403.009	2405.12
408.784	2433.12
414.553	2413.12
420.315	2439.12
426.071	2443.12
431.821	2423.12
437.565	2442.12
443.302	2425.12
449.033	2422.12
454.758	2406.12
460.477	2396.12
466.189	2413.12
471.896	2390.12
477.596	2365.12
483.29	2366.12
488.978	2376.12
494.66	2327.12
500.335	2313.12
506.005	2275.12
511.668	2215.12
517.325	2175.12
522.977	2128.12
528.622	2107.12
534.261	2100.12
539.894	2079.12
545.521	2047.12
551.141	2032.12
556.756	2043.12
562.365	2042.12
567.968	1998.12
573.565	2004.12
579.155	1995.12
584.74	1961.12
590.319	1976.12
595.892	1943.12
601.459	1931.12
607.02	1906.12
612.575	1896.12
618.124	1893.12
623.667	1853.12
629.204	1840.12
634.735	1832.12
640.261	1843.12
645.781	1818.12
651.294	1791.12
656.802	1792.12
662.304	1777.12
667.8	1779.12
673.29	1770.12
678.775	1785.12
684.254	1757.12
689.726	1747.12
695.193	1735.12
700.655	1738.12
706.11	1718.12
711.56	1699.12
717.004	1704.12
722.442	1683.12
727.874	1679.12
733.301	1660.12
738.722	1653.12
744.137	1642.12
749.547	1648.12
754.951	1653.12
760.349	1635.12
765.741	1618.12
771.128	1642.12
776.509	1643.12
781.885	1647.12
787.254	1630.12
792.618	1630.12
797.977	1619.12
803.33	1628.12
808.677	1593.12
814.019	1573.12
819.355	1561.12
824.686	1549.12
830.011	1544.12
835.33	1530.12
840.644	1513.12
845.952	1524.12
851.255	1502.12
856.552	1512.12
861.844	1497.12
867.13	1501.12
872.41	1480.12
877.686	1490.12
882.955	1430.12
888.219	1432.12
893.478	1414.12
898.731	1385.12
903.979	1349.12
909.221	1348.12
914.458	1335.12
919.69	1344.12
924.916	1320.12
930.136	1329.12
935.351	1323.12
940.561	1334.12
945.766	1318.12
950.965	1319.12
956.158	1294.12
961.347	1288.12
966.529	1269.12
971.707	1253.12
976.879	1246.12
982.046	1213.12
987.208	1215.12
992.364	1217.12
997.515	1215.12
1002.66	1241.12
1007.801	1250.12
1012.936	1257.12
1018.066	1273.12
1023.19	1259.12
1028.309	1295.12
1033.423	1272.12
1038.532	1281.12
1043.636	1245.12
1048.734	1241.12
1053.827	1236.12
1058.915	1211.12
1063.998	1219.12
1069.075	1214.12
1074.147	1217.12
1079.214	1219.12
1084.276	1240.12
1089.333	1245.12
1094.385	1257.12
1099.431	1253.12
1104.472	1256.12
1109.509	1253.12
1114.54	1235.12
1119.565	1216.12
1124.586	1201.12
1129.602	1192.12
1134.613	1194.12
1139.618	1173.12
1144.619	1183.12
1149.614	1184.12
1154.604	1190.12
1159.589	1205.12
1164.57	1199.12
1169.545	1207.12
1174.515	1218.12
1179.48	1214.12
1184.44	1199.12
1189.395	1201.12
1194.345	1183.12
1199.29	1181.12
1204.23	1200.12
1209.165	1186.12
1214.095	1202.12
1219.021	1198.12
1223.941	1227.12
1228.856	1232.12
1233.766	1238.12
1238.672	1229.12
1243.572	1219.12
1248.467	1208.12
1253.358	1214.12
1258.244	1190.12
1263.124	1183.12
1268	1150.12
1272.871	1147.12
1277.737	1144.12
1282.599	1132.12
1287.455	1135.12
1292.306	1135.12
1297.153	1151.12
1301.995	1158.12
1306.832	1171.12
1311.664	1170.12
1316.491	1159.12
1321.314	1178.12
1326.132	1162.12
1330.945	1150.12
1335.753	1129.12
1340.556	1120.12
1345.354	1109.12
1350.148	1100.12
1354.937	1091.12
1359.722	1070.12
1364.501	1059.12
1369.276	1052.12
1374.046	1054.12
1378.811	1043.12
1383.572	1048.12
1388.327	1034.12
1393.079	1037.12
1397.825	1045.12
1402.567	1045.12
1407.304	1016.12
1412.036	1024.12
1416.764	1020.12
1421.487	1024.12
1426.205	1020.12
1430.919	1034.12
1435.628	1044.12
1440.333	1060.12
1445.032	1071.12
1449.727	1070.12
1454.418	1069.12
1459.104	1083.12
1463.785	1083.12
1468.462	1065.12
1473.134	1042.12
1477.802	1027.12
1482.465	1022.12
1487.123	1020.12
1491.777	1036.12
1496.426	1048.12
1501.071	1050.12
1505.711	1050.12
1510.347	1065.12
1514.978	1075.12
1519.604	1090.12
1524.226	1088.12
1528.844	1073.12
1533.457	1073.12
1538.065	1075.12
1542.669	1070.12
1547.269	1069.12
1551.864	1100.12
1556.454	1098.12
1561.041	1108.12
1565.622	1107.12
1570.199	1122.12
1574.772	1143.12
1579.34	1173.12
1583.904	1182.12
1588.464	1199.12
1593.019	1230.12
1597.569	1222.12
1602.115	1254.12
1606.657	1259.12
1611.195	1275.12
1615.728	1288.12
1620.256	1296.12
1624.78	1321.12
1629.3	1336.12
1633.816	1344.12
1638.327	1375.12
1642.834	1386.12
1647.336	1398.12
1651.834	1392.12
1656.328	1408.12
1660.817	1397.12
1665.302	1357.12
1669.783	1328.12
1674.259	1304.12
1678.732	1276.12
1683.199	1222.12
1687.663	1170.12
1692.122	1134.12
1696.577	1090.12
1701.028	1049.12
1705.474	1017.12
1709.917	971.12
1714.355	944.12
1718.788	949.12
1723.218	933.12
1727.643	901.12
1732.064	879.12
1736.481	872.12
1740.893	850.12
1745.301	817.12
1749.705	800.12
1754.105	779.12
1758.501	763.12
1762.893	757.12
1767.28	741.12
1771.663	734.12
1776.042	735.12
1780.417	724.12
1784.787	728.12
1789.154	731.12
1793.516	724.12
1797.874	730.12
1802.228	732.12
1806.578	711.12
1810.924	703.12
1815.266	685.12
1819.603	677.12
1823.937	666.12
1828.266	661.12
1832.591	663.12
1836.913	662.12
1841.23	664.12
1845.543	654.12
1849.852	661.12
1854.156	669.12
1858.457	651.12
1862.754	658.12
1867.047	664.12
1871.335	666.12
1875.62	675.12
1879.9	666.12
1884.177	670.12
1888.449	671.12
1892.718	671.12
1896.982	658.12
1901.243	664.12
1905.499	663.12
1909.752	654.12
1914	649.12
1918.245	650.12
1922.485	647.12
1926.722	653.12
1930.954	662.12
1935.183	664.12
1939.408	668.12
1943.628	669.12
1947.845	668.12
1952.058	667.12
1956.267	655.12
1960.472	660.12
1964.673	656.12
1968.87	648.12
1973.063	635.12
1977.252	635.12
1981.438	629.12
1985.619	629.12
1989.797	623.12
1993.971	635.12
1998.14	642.12
2002.306	635.12
2006.469	641.12
2010.627	638.12
2014.781	642.12
2018.932	637.12
2023.078	644.12
2027.221	643.12
2031.36	642.12
2035.495	631.12
2039.627	631.12
2043.754	630.12
2047.878	631.12
2051.998	631.12
2056.114	624.12
2060.226	619.12
2064.334	629.12
2068.439	632.12
2072.54	641.12
2076.637	636.12
2080.73	636.12
2084.82	647.12
2088.906	638.12
2092.988	645.12
2097.066	647.12
2101.14	633.12
2105.211	638.12
2109.278	630.12
2113.342	623.12
2117.401	615.12
2121.457	617.12
2125.509	614.12
2129.558	620.12
2133.602	603.12
2137.643	614.12
2141.681	605.12
2145.714	605.12
2149.744	603.12
2153.77	591.12
2157.793	584.12
2161.812	590.12
2165.827	578.12
2169.838	576.12
2173.846	571.12
2177.851	557.12
2181.851	547.12
2185.848	551.12
2189.841	547.12
2193.831	540.12
2197.817	529.12
2201.799	537.12
2205.778	525.12
2209.753	522.12
2213.725	524.12
2217.693	533.12
2221.657	521.12
2225.618	524.12
2229.575	507.12
2233.529	504.12
2237.479	511.12
2241.425	506.12
2245.368	497.12
2249.307	487.12
2253.243	478.12
2257.175	485.12
2261.104	469.12
2265.029	463.12
2268.95	459.12
2272.868	450.12
2276.783	444.12
2280.694	450.12
2284.601	441.12
2288.505	446.12
2292.405	438.12
2296.302	417.12
2300.195	412.12
2304.085	412.12
2307.971	406.12
2311.854	393.12
2315.734	403.12
2319.609	380.12
2323.482	377.12
2327.351	374.12
2331.216	392.12
2335.078	382.12
2338.937	370.12
2342.792	366.12
2346.643	356.12
2350.492	361.12
2354.336	371.12
2358.178	371.12
2362.015	372.12
2365.85	373.12
2369.681	372.12
2373.508	376.12
2377.333	362.12
2381.153	362.12
2384.971	372.12
2388.785	362.12
2392.595	357.12
2396.402	357.12
2400.206	359.12
2404.007	356.12
2407.804	349.12
2411.597	357.12
2415.388	357.12
2419.174	353.12
2422.958	353.12
2426.738	346.12
2430.515	351.12
2434.289	352.12
2438.059	342.12
2441.825	338.12
2445.589	331.12
2449.349	330.12
2453.106	330.12
2456.859	335.12
2460.61	337.12
2464.356	323.12
2468.1	322.12
2471.84	315.12
2475.577	321.12
2479.311	318.12
2483.041	318.12
2486.768	309.12
2490.492	321.12
2494.213	315.12
2497.93	317.12
2501.644	313.12
2505.355	310.12
2509.062	316.12
2512.766	305.12
2516.467	304.12
2520.165	299.12
2523.859	303.12
2527.551	296.12
2531.239	297.12
2534.923	293.12
2538.605	294.12
2542.283	292.12
2545.958	295.12
2549.63	291.12
2553.299	283.12
2556.964	280.12
2560.626	281.12
2564.285	279.12
2567.941	275.12
2571.594	274.12
2575.243	281.12
2578.89	277.12
2582.533	282.12
2586.173	268.12
2589.809	264.12
2593.443	261.12
2597.073	262.12
2600.701	248.12
2604.325	257.12
2607.946	255.12
2611.564	261.12
2615.178	257.12
2618.79	249.12
2622.398	252.12
2626.004	260.12
2629.606	262.12
2633.205	244.12
2636.801	246.12
2640.394	244.12
2643.983	241.12
2647.57	247.12
2651.153	246.12
2654.734	230.12
2658.311	231.12
2661.885	221.12
2665.456	226.12
2669.025	232.12
2672.589	230.12
2676.151	219.12
2679.71	214.12
2683.266	219.12
2686.819	223.12
2690.368	223.12
2693.915	218.12
2697.458	208.12
2700.999	205.12
2704.536	208.12
2708.071	205.12
2711.602	211.12
2715.13	203.12
2718.656	202.12
2722.178	200.12
2725.697	193.12
2729.214	204.12
2732.727	195.12
2736.237	211.12
2739.744	202.12
2743.249	202.12
2746.75	204.12
2750.248	202.12
2753.743	206.12
2757.236	209.12
2760.725	200.12
2764.211	195.12
2767.695	193.12
2771.175	193.12
2774.652	196.12
2778.127	192.12
2781.598	188.12
2785.067	193.12
2788.532	193.12
2791.995	189.12
2795.455	192.12
2798.911	195.12
2802.365	192.12
2805.816	200.12
2809.264	204.12
2812.709	203.12
2816.151	200.12
2819.59	198.12
2823.026	198.12
2826.46	198.12
2829.89	203.12
2833.318	203.12
2836.742	204.12
2840.164	205.12
2843.583	200.12
2846.999	206.12
2850.412	208.12
2853.822	211.12
2857.229	219.12
2860.634	214.12
2864.035	218.12
2867.434	223.12
2870.83	224.12
2874.223	225.12
2877.613	239.12
2881	238.12
2884.385	236.12
2887.766	236.12
2891.145	236.12
2894.521	238.12
2897.894	237.12
2901.264	251.12
2904.631	244.12
2907.996	251.12
2911.358	243.12
2914.717	245.12
2918.073	250.12
2921.426	257.12
2924.777	271.12
2928.124	273.12
2931.469	275.12
2934.811	278.12
2938.15	282.12
2941.487	288.12
2944.821	295.12
2948.152	290.12
2951.48	299.12
2954.805	296.12
2958.128	314.12
2961.447	315.12
2964.765	324.12
2968.079	329.12
2971.39	335.12
2974.699	335.12
2978.005	344.12
2981.308	351.12
2984.609	367.12
2987.907	386.12
2991.202	389.12
2994.494	399.12
2997.784	420.12
3001.07	415.12
3004.355	425.12
3007.636	432.12
3010.915	454.12
3014.191	452.12
3017.464	475.12
3020.734	474.12
3024.002	487.12
3027.267	487.12
3030.53	495.12
3033.789	507.12
3037.046	522.12
3040.301	526.12
3043.552	552.12
3046.801	562.12
3050.048	583.12
3053.291	586.12
3056.532	606.12
3059.771	631.12
3063.006	655.12
3066.239	667.12
3069.469	691.12
3072.697	719.12
3075.922	731.12
3079.144	743.12
3082.364	772.12
3085.581	780.12
3088.795	808.12
3092.007	817.12
3095.216	831.12
3098.423	852.12
3101.627	892.12
3104.828	900.12
3108.026	915.12
3111.222	935.12
3114.416	943.12
3117.607	975.12
3120.795	1001.12
3123.98	1019.12
3127.163	1045.12
3130.344	1056.12
3133.521	1088.12
3136.696	1117.12
3139.869	1134.12
3143.039	1147.12
3146.206	1196.12
3149.371	1174.12
3152.533	1214.12
3155.693	1205.12
3158.85	1209.12
3162.005	1215.12
3165.157	1223.12
3168.306	1217.12
3171.453	1232.12
3174.597	1247.12
3177.739	1245.12
3180.878	1245.12
3184.014	1242.12
3187.149	1269.12
3190.28	1259.12
3193.409	1282.12
3196.536	1263.12
3199.659	1266.12
3202.781	1282.12
3205.9	1269.12
3209.016	1281.12
3212.13	1259.12
3215.241	1255.12
3218.35	1268.12
3221.456	1229.12
3224.56	1230.12
3227.661	1216.12
3230.76	1211.12
3233.856	1193.12
3236.95	1197.12
3240.041	1181.12
3243.13	1168.12
3246.216	1159.12
3249.3	1149.12
3252.382	1137.12
3255.46	1141.12
3258.537	1121.12
3261.611	1127.12
3264.682	1133.12
3267.751	1119.12
3270.818	1116.12
3273.882	1105.12
3276.943	1091.12
3280.002	1082.12
3283.059	1068.12
3286.113	1077.12
3289.165	1062.12
3292.214	1046.12
3295.261	1028.12
3298.306	1002.12
3301.348	999.12
3304.387	990.12
3307.425	975.12
3310.459	943.12
3313.492	936.12
3316.521	934.12
3319.549	931.12
3322.574	897.12
3325.597	911.12
3328.617	898.12
3331.635	893.12
3334.65	903.12
3337.663	877.12
3340.674	883.12
3343.682	884.12
3346.688	882.12
3349.691	883.12
3352.692	865.12
3355.691	868.12
3358.687	849.12
3361.681	848.12
3364.673	833.12
3367.662	819.12
3370.649	808.12
3373.633	799.12
3376.615	795.12
3379.595	778.12
3382.572	764.12
3385.547	760.12
3388.52	750.12
3391.49	736.12
3394.458	729.12
3397.424	722.12
3400.387	717.12
3403.348	697.12
3406.307	707.12
3409.263	698.12
3412.217	675.12
3415.168	676.12
3418.118	679.12
3421.065	660.12
3424.009	649.12
3426.951	638.12
3429.891	639.12
3432.829	611.12
3435.764	603.12
3438.697	581.12
3441.628	578.12
3444.557	555.12
3447.483	555.12
3450.407	541.12
3453.328	512.12
3456.247	496.12
3459.164	490.12
3462.079	475.12
3464.991	448.12
3467.902	438.12
3470.809	431.12
3473.715	411.12
3476.618	398.12
3479.519	387.12
3482.418	387.12
3485.315	369.12
3488.209	357.12
3491.101	345.12
3493.99	334.12
3496.878	332.12
3499.763	321.12
3502.646	302.12
3505.527	290.12
3508.405	284.12
3511.281	267.12
3514.155	254.12
3517.027	241.12
3519.897	228.12
3522.764	227.12
3525.629	210.12
3528.492	194.12
3531.352	188.12
3534.211	174.12
3537.067	167.12
3539.921	159.12
3542.773	144.12
3545.622	137.12
3548.469	127.12
3551.315	120.12
3554.157	108.12
3556.998	104.12
3559.837	97.12
3562.673	88.12
3565.507	81.12
3568.339	74.12
3571.169	69.12
3573.996	61.12
3576.822	54.12
3579.645	55.12
3582.466	48.12
3585.285	41.12
3588.101	38.12
3590.916	25.12
3593.728	26.12
3596.538	19.12
3599.346	15.12
3602.152	15.12
3604.956	9.12
3607.757	10.12
3610.556	-0.88
3613.354	-6.88
3616.149	-7.88
3618.942	-14.88
3621.732	-19.88
3624.521	-19.88
3627.307	-25.88
3630.092	-27.88
3632.874	-27.88
3635.654	-30.88
3638.432	-38.88
3641.208	-40.88
3643.982	-39.88
3646.753	-44.88
3649.523	-41.88
3652.29	-48.88
3655.055	-53.88
3657.818	-47.88
3660.579	-51.88
3663.338	-57.88
3666.095	-57.88
3668.849	-66.88
3671.602	-66.88
3674.352	-68.88
3677.101	-73.88
3679.847	-75.88
3682.591	-76.88
3685.333	-74.88
3688.073	-74.88
3690.811	-75.88
3693.547	-83.88
3696.281	-81.88
3699.013	-82.88
3701.742	-82.88
3704.47	-86.88
3707.195	-89.88
3709.919	-88.88
3712.64	-88.88
3715.359	-86.88
3718.076	-88.88
3720.792	-96.88
3723.505	-93.88
3726.216	-96.88
3728.925	-96.88
3731.632	-95.88
3734.336	-99.88
3737.039	-96.88
3739.74	-99.88
3742.439	-97.88
3745.136	-98.88
3747.83	-95.88
3750.523	-99.88
3753.213	-99.88
3755.902	-101.88
3758.589	-103.88
3761.273	-102.88
3763.956	-104.88
3766.636	-106.88
3769.315	-104.88
3771.991	-104.88
3774.665	-108.88
3777.338	-107.88
3780.008	-110.88
3782.677	-107.88
3785.343	-106.88
3788.007	-104.88
3790.67	-104.88
3793.33	-106.88
3795.989	-105.88
3798.645	-106.88
3801.299	-104.88
3803.952	-107.88
3806.602	-109.88
3809.251	-111.88
3811.897	-112.88
3814.542	-107.88
3817.184	-111.88
3819.825	-110.88
3822.463	-108.88
3825.1	-108.88
3827.735	-110.88
3830.367	-111.88
3832.998	-116.88
3835.627	-111.88
3838.253	-113.88
3840.878	-110.88
3843.501	-109.88
3846.122	-112.88
3848.741	-110.88
3851.358	-113.88
3853.973	-114.88
3856.586	-118.88
3859.197	-113.88
3861.806	-117.88
3864.414	-115.88
3867.019	-112.88
3869.622	-111.88
3872.224	-113.88
3874.823	-113.88
3877.421	-110.88
3880.016	-104.88
3882.61	-103.88
3885.202	-106.88
3887.792	-106.88
3890.38	-107.88
3892.966	-111.88
3895.55	-114.88
3898.132	-116.88
3900.713	-117.88
3903.291	-115.88
3905.868	-116.88
3908.442	-120.88
3911.015	-118.88
3913.586	-116.88
3916.155	-114.88
3918.722	-115.88
3921.287	-114.88
3923.85	-114.88
3926.411	-114.88
3928.971	-120.88
3931.528	-118.88
3934.084	-122.88
3936.638	-119.88
3939.19	-118.88
3941.74	-116.88
3944.288	-118.88
3946.834	-120.88
3949.378	-121.88
3951.921	-121.88
3954.462	-121.88
3957	-122.88
3959.537	-121.88
3962.072	-117.88
3964.606	-115.88
3967.137	-112.88
3969.667	-116.88
3972.194	-113.88
3974.72	-114.88
3977.244	-115.88
3979.766	-116.88
3982.286	-120.88
3984.805	-119.88
3987.321	-117.88
3989.836	-118.88
3992.349	-116.88
3994.86	-116.88
3997.369	-113.88
3999.877	-116.88
4002.382	-116.88
4004.886	-116.88
4007.388	-114.88
4009.888	-116.88
4012.386	-117.88
4014.883	-115.88
4017.377	-114.88
4019.87	-118.88
4022.361	-116.88
4024.85	-118.88
4027.338	-120.88
4029.823	-116.88
4032.307	-118.88
4034.789	-119.88
4037.269	-120.88
4039.747	-116.88
4042.224	-116.88
4044.699	-117.88
4047.172	-116.88
4049.643	-116.88
4052.112	-118.88
4054.58	-118.88
4057.046	-119.88
4059.51	-118.88
4061.972	-120.88
4064.432	-122.88
4066.891	-117.88
4069.348	-114.88
4071.803	-114.88
4074.256	-121.88
4076.708	-117.88
4079.158	-115.88
4081.606	-118.88
4084.052	-117.88
4086.497	-118.88
4088.939	-116.88
4091.38	-115.88
4093.819	-114.88
4096.257	-118.88
4098.693	-119.88
4101.127	-122.88
4103.559	-120.88
4105.989	-76.88
4108.418	-77.88
4110.845	-77.88
4113.27	-71.88
4115.694	-60.88
4118.115	-53.88
4120.535	-115.88
4122.954	-122.88
4125.37	-117.88
4127.785	-118.88
4130.198	-122.88
4132.609	-122.88
4135.019	-125.88
4137.427	-124.88
4139.833	-122.88
4142.237	-122.88
