Data from 1CFU2_A_RamanShift_1.txt Node
Date: Wed Jan 25 11:44:16 IST 2017
User: aro
Spectrometer: QEPB0276
Trigger mode: 0
Integration Time (sec): 5.000000E0
Scans to average: 1
Electric dark correction enabled: true
Nonlinearity correction enabled: false
Boxcar width: 0
XAxis mode: Raman Shifts
Number of Pixels in Spectrum: 1044
>>>>>Begin Spectral Data<<<<<
160.701	-41.38
166.742	-7.38
172.777	99.62
178.805	436.62
184.826	1201.62
190.841	2420.62
196.849	3773.62
202.85	4636.62
208.845	4819.62
214.833	4640.62
220.815	4473.62
226.789	4353.62
232.758	4214.62
238.719	4105.62
244.674	3931.62
250.623	3787.62
256.565	3629.62
262.5	3427.62
268.429	3310.62
274.351	3191.62
280.267	3076.62
286.176	2957.62
292.079	2860.62
297.975	2784.62
303.865	2698.62
309.748	2618.62
315.625	2577.62
321.495	2516.62
327.359	2466.62
333.217	2437.62
339.068	2410.62
344.912	2399.62
350.751	2409.62
356.583	2382.62
362.408	2376.62
368.227	2388.62
374.04	2387.62
379.847	2396.62
385.647	2411.62
391.44	2438.62
397.228	2437.62
403.009	2443.62
408.784	2479.62
414.553	2463.62
420.315	2478.62
426.071	2474.62
431.821	2489.62
437.565	2462.62
443.302	2460.62
449.033	2452.62
454.758	2457.62
460.477	2444.62
466.189	2430.62
471.896	2423.62
477.596	2418.62
483.29	2400.62
488.978	2383.62
494.66	2383.62
500.335	2350.62
506.005	2304.62
511.668	2261.62
517.325	2220.62
522.977	2186.62
528.622	2142.62
534.261	2136.62
539.894	2109.62
545.521	2102.62
551.141	2085.62
556.756	2076.62
562.365	2075.62
567.968	2055.62
573.565	2019.62
579.155	2019.62
584.74	2011.62
590.319	1997.62
595.892	1993.62
601.459	1993.62
607.02	1963.62
612.575	1949.62
618.124	1926.62
623.667	1911.62
629.204	1893.62
634.735	1872.62
640.261	1855.62
645.781	1859.62
651.294	1836.62
656.802	1856.62
662.304	1820.62
667.8	1833.62
673.29	1817.62
678.775	1800.62
684.254	1817.62
689.726	1794.62
695.193	1783.62
700.655	1769.62
706.11	1764.62
711.56	1739.62
717.004	1738.62
722.442	1730.62
727.874	1723.62
733.301	1702.62
738.722	1702.62
744.137	1687.62
749.547	1710.62
754.951	1682.62
760.349	1686.62
765.741	1680.62
771.128	1692.62
776.509	1708.62
781.885	1702.62
787.254	1685.62
792.618	1673.62
797.977	1655.62
803.33	1645.62
808.677	1638.62
814.019	1621.62
819.355	1588.62
824.686	1596.62
830.011	1582.62
835.33	1564.62
840.644	1567.62
845.952	1579.62
851.255	1567.62
856.552	1553.62
861.844	1524.62
867.13	1532.62
872.41	1519.62
877.686	1524.62
882.955	1498.62
888.219	1471.62
893.478	1448.62
898.731	1434.62
903.979	1416.62
909.221	1409.62
914.458	1389.62
919.69	1378.62
924.916	1379.62
930.136	1379.62
935.351	1387.62
940.561	1394.62
945.766	1363.62
950.965	1357.62
956.158	1355.62
961.347	1342.62
966.529	1307.62
971.707	1306.62
976.879	1252.62
982.046	1277.62
987.208	1272.62
992.364	1268.62
997.515	1276.62
1002.66	1292.62
1007.801	1283.62
1012.936	1295.62
1018.066	1310.62
1023.19	1315.62
1028.309	1326.62
1033.423	1324.62
1038.532	1315.62
1043.636	1310.62
1048.734	1297.62
1053.827	1279.62
1058.915	1265.62
1063.998	1249.62
1069.075	1245.62
1074.147	1260.62
1079.214	1255.62
1084.276	1274.62
1089.333	1301.62
1094.385	1305.62
1099.431	1304.62
1104.472	1308.62
1109.509	1307.62
1114.54	1285.62
1119.565	1258.62
1124.586	1240.62
1129.602	1252.62
1134.613	1229.62
1139.618	1227.62
1144.619	1235.62
1149.614	1215.62
1154.604	1230.62
1159.589	1245.62
1164.57	1259.62
1169.545	1258.62
1174.515	1273.62
1179.48	1270.62
1184.44	1247.62
1189.395	1230.62
1194.345	1244.62
1199.29	1217.62
1204.23	1239.62
1209.165	1235.62
1214.095	1236.62
1219.021	1253.62
1223.941	1255.62
1228.856	1277.62
1233.766	1280.62
1238.672	1298.62
1243.572	1272.62
1248.467	1265.62
1253.358	1258.62
1258.244	1242.62
1263.124	1222.62
1268	1214.62
1272.871	1187.62
1277.737	1205.62
1282.599	1182.62
1287.455	1174.62
1292.306	1189.62
1297.153	1206.62
1301.995	1209.62
1306.832	1204.62
1311.664	1205.62
1316.491	1224.62
1321.314	1223.62
1326.132	1210.62
1330.945	1204.62
1335.753	1186.62
1340.556	1167.62
1345.354	1158.62
1350.148	1139.62
1354.937	1119.62
1359.722	1128.62
1364.501	1102.62
1369.276	1100.62
1374.046	1092.62
1378.811	1088.62
1383.572	1082.62
1388.327	1079.62
1393.079	1090.62
1397.825	1085.62
1402.567	1084.62
1407.304	1071.62
1412.036	1059.62
1416.764	1066.62
1421.487	1065.62
1426.205	1065.62
1430.919	1081.62
1435.628	1089.62
1440.333	1100.62
1445.032	1101.62
1449.727	1119.62
1454.418	1127.62
1459.104	1126.62
1463.785	1101.62
1468.462	1107.62
1473.134	1091.62
1477.802	1079.62
1482.465	1074.62
1487.123	1072.62
1491.777	1081.62
1496.426	1068.62
1501.071	1088.62
1505.711	1090.62
1510.347	1102.62
1514.978	1124.62
1519.604	1121.62
1524.226	1124.62
1528.844	1142.62
1533.457	1116.62
1538.065	1115.62
1542.669	1132.62
1547.269	1124.62
1551.864	1122.62
1556.454	1128.62
1561.041	1149.62
1565.622	1166.62
1570.199	1171.62
1574.772	1209.62
1579.34	1212.62
1583.904	1238.62
1588.464	1247.62
1593.019	1271.62
1597.569	1274.62
1602.115	1294.62
1606.657	1295.62
1611.195	1310.62
1615.728	1325.62
1620.256	1349.62
1624.78	1369.62
1629.3	1357.62
1633.816	1392.62
1638.327	1404.62
1642.834	1415.62
1647.336	1439.62
1651.834	1437.62
1656.328	1442.62
1660.817	1434.62
1665.302	1411.62
1669.783	1378.62
1674.259	1351.62
1678.732	1310.62
1683.199	1251.62
1687.663	1228.62
1692.122	1169.62
1696.577	1139.62
1701.028	1080.62
1705.474	1028.62
1709.917	1011.62
1714.355	989.62
1718.788	985.62
1723.218	949.62
1727.643	946.62
1732.064	920.62
1736.481	911.62
1740.893	894.62
1745.301	852.62
1749.705	847.62
1754.105	820.62
1758.501	794.62
1762.893	788.62
1767.28	777.62
1771.663	773.62
1776.042	755.62
1780.417	781.62
1784.787	766.62
1789.154	766.62
1793.516	772.62
1797.874	762.62
1802.228	754.62
1806.578	750.62
1810.924	737.62
1815.266	728.62
1819.603	716.62
1823.937	715.62
1828.266	696.62
1832.591	699.62
1836.913	699.62
1841.23	690.62
1845.543	699.62
1849.852	685.62
1854.156	687.62
1858.457	693.62
1862.754	706.62
1867.047	701.62
1871.335	711.62
1875.62	709.62
1879.9	711.62
1884.177	709.62
1888.449	702.62
1892.718	708.62
1896.982	696.62
1901.243	692.62
1905.499	696.62
1909.752	691.62
1914	697.62
1918.245	692.62
1922.485	694.62
1926.722	692.62
1930.954	699.62
1935.183	707.62
1939.408	697.62
1943.628	698.62
1947.845	708.62
1952.058	711.62
1956.267	697.62
1960.472	688.62
1964.673	686.62
1968.87	675.62
1973.063	668.62
1977.252	672.62
1981.438	662.62
1985.619	660.62
1989.797	651.62
1993.971	659.62
1998.14	668.62
2002.306	666.62
2006.469	678.62
2010.627	677.62
2014.781	685.62
2018.932	677.62
2023.078	674.62
2027.221	669.62
2031.36	673.62
2035.495	663.62
2039.627	669.62
2043.754	656.62
2047.878	657.62
2051.998	656.62
2056.114	654.62
2060.226	673.62
2064.334	655.62
2068.439	665.62
2072.54	671.62
2076.637	647.62
2080.73	667.62
2084.82	674.62
2088.906	677.62
2092.988	678.62
2097.066	657.62
2101.14	664.62
2105.211	663.62
2109.278	648.62
2113.342	643.62
2117.401	643.62
2121.457	628.62
2125.509	639.62
2129.558	633.62
2133.602	631.62
2137.643	636.62
2141.681	636.62
2145.714	632.62
2149.744	622.62
2153.77	626.62
2157.793	618.62
2161.812	606.62
2165.827	599.62
2169.838	596.62
2173.846	588.62
2177.851	579.62
2181.851	575.62
2185.848	569.62
2189.841	573.62
2193.831	555.62
2197.817	559.62
2201.799	555.62
2205.778	542.62
2209.753	552.62
2213.725	550.62
2217.693	547.62
2221.657	544.62
2225.618	547.62
2229.575	543.62
2233.529	539.62
2237.479	544.62
2241.425	527.62
2245.368	520.62
2249.307	518.62
2253.243	503.62
2257.175	497.62
2261.104	496.62
2265.029	488.62
2268.95	489.62
2272.868	474.62
2276.783	474.62
2280.694	454.62
2284.601	458.62
2288.505	446.62
2292.405	446.62
2296.302	444.62
2300.195	448.62
2304.085	431.62
2307.971	424.62
2311.854	421.62
2315.734	418.62
2319.609	406.62
2323.482	399.62
2327.351	397.62
2331.216	397.62
2335.078	397.62
2338.937	384.62
2342.792	385.62
2346.643	375.62
2350.492	383.62
2354.336	383.62
2358.178	381.62
2362.015	384.62
2365.85	386.62
2369.681	390.62
2373.508	378.62
2377.333	390.62
2381.153	388.62
2384.971	390.62
2388.785	386.62
2392.595	379.62
2396.402	380.62
2400.206	380.62
2404.007	378.62
2407.804	377.62
2411.597	371.62
2415.388	371.62
2419.174	370.62
2422.958	373.62
2426.738	360.62
2430.515	368.62
2434.289	363.62
2438.059	364.62
2441.825	355.62
2445.589	354.62
2449.349	347.62
2453.106	345.62
2456.859	350.62
2460.61	345.62
2464.356	343.62
2468.1	335.62
2471.84	343.62
2475.577	340.62
2479.311	327.62
2483.041	330.62
2486.768	333.62
2490.492	335.62
2494.213	330.62
2497.93	340.62
2501.644	335.62
2505.355	338.62
2509.062	335.62
2512.766	330.62
2516.467	321.62
2520.165	330.62
2523.859	327.62
2527.551	326.62
2531.239	317.62
2534.923	313.62
2538.605	312.62
2542.283	311.62
2545.958	306.62
2549.63	307.62
2553.299	313.62
2556.964	306.62
2560.626	292.62
2564.285	290.62
2567.941	304.62
2571.594	292.62
2575.243	297.62
2578.89	297.62
2582.533	296.62
2586.173	289.62
2589.809	287.62
2593.443	287.62
2597.073	271.62
2600.701	276.62
2604.325	281.62
2607.946	279.62
2611.564	282.62
2615.178	277.62
2618.79	269.62
2622.398	273.62
2626.004	271.62
2629.606	263.62
2633.205	263.62
2636.801	253.62
2640.394	255.62
2643.983	257.62
2647.57	259.62
2651.153	252.62
2654.734	244.62
2658.311	245.62
2661.885	241.62
2665.456	235.62
2669.025	238.62
2672.589	240.62
2676.151	244.62
2679.71	235.62
2683.266	233.62
2686.819	233.62
2690.368	229.62
2693.915	227.62
2697.458	226.62
2700.999	222.62
2704.536	222.62
2708.071	219.62
2711.602	216.62
2715.13	219.62
2718.656	215.62
2722.178	205.62
2725.697	213.62
2729.214	222.62
2732.727	221.62
2736.237	217.62
2739.744	222.62
2743.249	222.62
2746.75	227.62
2750.248	226.62
2753.743	216.62
2757.236	216.62
2760.725	215.62
2764.211	214.62
2767.695	201.62
2771.175	210.62
2774.652	207.62
2778.127	203.62
2781.598	195.62
2785.067	204.62
2788.532	201.62
2791.995	205.62
2795.455	209.62
2798.911	209.62
2802.365	207.62
2805.816	210.62
2809.264	200.62
2812.709	207.62
2816.151	212.62
2819.59	206.62
2823.026	204.62
2826.46	209.62
2829.89	212.62
2833.318	206.62
2836.742	213.62
2840.164	215.62
2843.583	213.62
2846.999	220.62
2850.412	227.62
2853.822	218.62
2857.229	227.62
2860.634	227.62
2864.035	231.62
2867.434	238.62
2870.83	239.62
2874.223	239.62
2877.613	241.62
2881	242.62
2884.385	236.62
2887.766	249.62
2891.145	248.62
2894.521	245.62
2897.894	240.62
2901.264	254.62
2904.631	246.62
2907.996	252.62
2911.358	254.62
2914.717	264.62
2918.073	264.62
2921.426	267.62
2924.777	268.62
2928.124	278.62
2931.469	282.62
2934.811	282.62
2938.15	282.62
2941.487	291.62
2944.821	292.62
2948.152	292.62
2951.48	308.62
2954.805	303.62
2958.128	314.62
2961.447	314.62
2964.765	317.62
2968.079	333.62
2971.39	341.62
2974.699	348.62
2978.005	346.62
2981.308	359.62
2984.609	371.62
2987.907	381.62
2991.202	392.62
2994.494	397.62
2997.784	414.62
3001.07	415.62
3004.355	430.62
3007.636	437.62
3010.915	439.62
3014.191	460.62
3017.464	467.62
3020.734	475.62
3024.002	480.62
3027.267	498.62
3030.53	496.62
3033.789	509.62
3037.046	517.62
3040.301	526.62
3043.552	550.62
3046.801	569.62
3050.048	575.62
3053.291	587.62
3056.532	604.62
3059.771	622.62
3063.006	640.62
3066.239	669.62
3069.469	682.62
3072.697	713.62
3075.922	711.62
3079.144	743.62
3082.364	767.62
3085.581	791.62
3088.795	794.62
3092.007	816.62
3095.216	818.62
3098.423	841.62
3101.627	866.62
3104.828	874.62
3108.026	907.62
3111.222	918.62
3114.416	935.62
3117.607	963.62
3120.795	985.62
3123.98	1006.62
3127.163	1022.62
3130.344	1052.62
3133.521	1083.62
3136.696	1106.62
3139.869	1106.62
3143.039	1138.62
3146.206	1158.62
3149.371	1167.62
3152.533	1188.62
3155.693	1183.62
3158.85	1181.62
3162.005	1184.62
3165.157	1198.62
3168.306	1214.62
3171.453	1233.62
3174.597	1210.62
3177.739	1226.62
3180.878	1235.62
3184.014	1219.62
3187.149	1240.62
3190.28	1231.62
3193.409	1226.62
3196.536	1241.62
3199.659	1248.62
3202.781	1259.62
3205.9	1255.62
3209.016	1251.62
3212.13	1250.62
3215.241	1241.62
3218.35	1217.62
3221.456	1209.62
3224.56	1196.62
3227.661	1199.62
3230.76	1186.62
3233.856	1165.62
3236.95	1153.62
3240.041	1159.62
3243.13	1147.62
3246.216	1121.62
3249.3	1123.62
3252.382	1103.62
3255.46	1114.62
3258.537	1117.62
3261.611	1109.62
3264.682	1105.62
3267.751	1093.62
3270.818	1083.62
3273.882	1086.62
3276.943	1098.62
3280.002	1072.62
3283.059	1068.62
3286.113	1044.62
3289.165	1034.62
3292.214	1017.62
3295.261	996.62
3298.306	990.62
3301.348	968.62
3304.387	967.62
3307.425	965.62
3310.459	949.62
3313.492	925.62
3316.521	918.62
3319.549	917.62
3322.574	905.62
3325.597	898.62
3328.617	896.62
3331.635	889.62
3334.65	891.62
3337.663	875.62
3340.674	868.62
3343.682	875.62
3346.688	859.62
3349.691	867.62
3352.692	860.62
3355.691	853.62
3358.687	830.62
3361.681	840.62
3364.673	830.62
3367.662	821.62
3370.649	806.62
3373.633	792.62
3376.615	782.62
3379.595	761.62
3382.572	754.62
3385.547	754.62
3388.52	737.62
3391.49	733.62
3394.458	707.62
3397.424	720.62
3400.387	697.62
3403.348	704.62
3406.307	685.62
3409.263	676.62
3412.217	682.62
3415.168	655.62
3418.118	645.62
3421.065	651.62
3424.009	634.62
3426.951	618.62
3429.891	632.62
3432.829	614.62
3435.764	593.62
3438.697	582.62
3441.628	562.62
3444.557	550.62
3447.483	551.62
3450.407	528.62
3453.328	518.62
3456.247	483.62
3459.164	469.62
3462.079	459.62
3464.991	447.62
3467.902	430.62
3470.809	426.62
3473.715	400.62
3476.618	394.62
3479.519	380.62
3482.418	366.62
3485.315	361.62
3488.209	354.62
3491.101	339.62
3493.99	346.62
3496.878	316.62
3499.763	312.62
3502.646	299.62
3505.527	289.62
3508.405	269.62
3511.281	270.62
3514.155	254.62
3517.027	243.62
3519.897	232.62
3522.764	214.62
3525.629	204.62
3528.492	195.62
3531.352	180.62
3534.211	171.62
3537.067	163.62
3539.921	150.62
3542.773	140.62
3545.622	140.62
3548.469	126.62
3551.315	119.62
3554.157	117.62
3556.998	103.62
3559.837	97.62
3562.673	88.62
3565.507	80.62
3568.339	75.62
3571.169	68.62
3573.996	64.62
3576.822	53.62
3579.645	54.62
3582.466	43.62
3585.285	40.62
3588.101	48.62
3590.916	26.62
3593.728	27.62
3596.538	19.62
3599.346	14.62
3602.152	9.62
3604.956	10.62
3607.757	3.62
3610.556	-1.38
3613.354	-4.38
3616.149	-5.38
3618.942	-11.38
3621.732	-18.38
3624.521	-18.38
3627.307	-20.38
3630.092	-25.38
3632.874	-29.38
3635.654	-29.38
3638.432	-33.38
3641.208	-34.38
3643.982	-36.38
3646.753	-42.38
3649.523	-46.38
3652.29	-44.38
3655.055	-48.38
3657.818	-52.38
3660.579	-51.38
3663.338	-59.38
3666.095	-57.38
3668.849	-59.38
3671.602	-61.38
3674.352	-66.38
3677.101	-68.38
3679.847	-73.38
3682.591	-78.38
3685.333	-77.38
3688.073	-78.38
3690.811	-74.38
3693.547	-84.38
3696.281	-81.38
3699.013	-82.38
3701.742	-81.38
3704.47	-82.38
3707.195	-87.38
3709.919	-86.38
3712.64	-88.38
3715.359	-87.38
3718.076	-91.38
3720.792	-92.38
3723.505	-92.38
3726.216	-95.38
3728.925	-95.38
3731.632	-90.38
3734.336	-96.38
3737.039	-96.38
3739.74	-100.38
3742.439	-97.38
3745.136	-99.38
3747.83	-93.38
3750.523	-96.38
3753.213	-100.38
3755.902	-97.38
3758.589	-100.38
3761.273	-99.38
3763.956	-105.38
3766.636	-106.38
3769.315	-105.38
3771.991	-109.38
3774.665	-106.38
3777.338	-103.38
3780.008	-105.38
3782.677	-108.38
3785.343	-106.38
3788.007	-104.38
3790.67	-106.38
3793.33	-108.38
3795.989	-104.38
3798.645	-106.38
3801.299	-101.38
3803.952	-105.38
3806.602	-105.38
3809.251	-105.38
3811.897	-108.38
3814.542	-108.38
3817.184	-115.38
3819.825	-111.38
3822.463	-113.38
3825.1	-111.38
3827.735	-109.38
3830.367	-109.38
3832.998	-112.38
3835.627	-106.38
3838.253	-109.38
3840.878	-108.38
3843.501	-112.38
3846.122	-114.38
3848.741	-111.38
3851.358	-112.38
3853.973	-116.38
3856.586	-115.38
3859.197	-111.38
3861.806	-113.38
3864.414	-113.38
3867.019	-111.38
3869.622	-111.38
3872.224	-115.38
3874.823	-108.38
3877.421	-109.38
3880.016	-106.38
3882.61	-100.38
3885.202	-105.38
3887.792	-104.38
3890.38	-106.38
3892.966	-113.38
3895.55	-114.38
3898.132	-114.38
3900.713	-118.38
3903.291	-118.38
3905.868	-118.38
3908.442	-116.38
3911.015	-117.38
3913.586	-114.38
3916.155	-112.38
3918.722	-112.38
3921.287	-114.38
3923.85	-118.38
3926.411	-116.38
3928.971	-121.38
3931.528	-115.38
3934.084	-116.38
3936.638	-116.38
3939.19	-117.38
3941.74	-114.38
3944.288	-118.38
3946.834	-121.38
3949.378	-121.38
3951.921	-122.38
3954.462	-120.38
3957	-118.38
3959.537	-115.38
3962.072	-115.38
3964.606	-112.38
3967.137	-117.38
3969.667	-117.38
3972.194	-115.38
3974.72	-117.38
3977.244	-115.38
3979.766	-115.38
3982.286	-117.38
3984.805	-115.38
3987.321	-117.38
3989.836	-115.38
3992.349	-118.38
3994.86	-115.38
3997.369	-117.38
3999.877	-114.38
4002.382	-115.38
4004.886	-113.38
4007.388	-114.38
4009.888	-110.38
4012.386	-114.38
4014.883	-113.38
4017.377	-116.38
4019.87	-115.38
4022.361	-115.38
4024.85	-118.38
4027.338	-119.38
4029.823	-116.38
4032.307	-117.38
4034.789	-114.38
4037.269	-115.38
4039.747	-116.38
4042.224	-115.38
4044.699	-115.38
4047.172	-116.38
4049.643	-115.38
4052.112	-119.38
4054.58	-118.38
4057.046	-116.38
4059.51	-114.38
4061.972	-119.38
4064.432	-118.38
4066.891	-117.38
4069.348	-119.38
4071.803	-119.38
4074.256	-122.38
4076.708	-120.38
4079.158	-114.38
4081.606	-118.38
4084.052	-113.38
4086.497	-113.38
4088.939	-112.38
4091.38	-117.38
4093.819	-115.38
4096.257	-115.38
4098.693	-121.38
4101.127	-124.38
4103.559	-123.38
4105.989	-78.38
4108.418	-77.38
4110.845	-73.38
4113.27	-65.38
4115.694	-59.38
4118.115	-52.38
4120.535	-120.38
4122.954	-123.38
4125.37	-118.38
4127.785	-119.38
4130.198	-117.38
4132.609	-116.38
4135.019	-122.38
4137.427	-121.38
4139.833	-121.38
4142.237	-122.38
