Data from 1CFU3_B_RamanShift_1.txt Node
Date: Wed Jan 25 12:24:05 IST 2017
User: aro
Spectrometer: QEPB0276
Trigger mode: 0
Integration Time (sec): 5.000000E0
Scans to average: 1
Electric dark correction enabled: true
Nonlinearity correction enabled: false
Boxcar width: 0
XAxis mode: Raman Shifts
Number of Pixels in Spectrum: 1044
>>>>>Begin Spectral Data<<<<<
160.701	-37
166.742	-4
172.777	101
178.805	407
184.826	1124
190.841	2310
196.849	3584
202.85	4407
208.845	4584
214.833	4445
220.815	4276
226.789	4162
232.758	4059
238.719	3891
244.674	3791
250.623	3646
256.565	3490
262.5	3315
268.429	3208
274.351	3065
280.267	2954
286.176	2839
292.079	2769
297.975	2671
303.865	2601
309.748	2544
315.625	2475
321.495	2436
327.359	2396
333.217	2353
339.068	2328
344.912	2324
350.751	2326
356.583	2308
362.408	2323
368.227	2310
374.04	2328
379.847	2332
385.647	2340
391.44	2347
397.228	2382
403.009	2388
408.784	2376
414.553	2377
420.315	2397
426.071	2424
431.821	2395
437.565	2418
443.302	2399
449.033	2401
454.758	2391
460.477	2358
466.189	2356
471.896	2373
477.596	2344
483.29	2338
488.978	2326
494.66	2329
500.335	2308
506.005	2244
511.668	2196
517.325	2182
522.977	2135
528.622	2121
534.261	2086
539.894	2075
545.521	2077
551.141	2055
556.756	2034
562.365	2028
567.968	2017
573.565	1992
579.155	2001
584.74	1977
590.319	1982
595.892	1971
601.459	1958
607.02	1937
612.575	1935
618.124	1911
623.667	1887
629.204	1869
634.735	1854
640.261	1855
645.781	1842
651.294	1839
656.802	1820
662.304	1816
667.8	1812
673.29	1807
678.775	1809
684.254	1808
689.726	1811
695.193	1784
700.655	1772
706.11	1747
711.56	1753
717.004	1759
722.442	1733
727.874	1704
733.301	1704
738.722	1716
744.137	1682
749.547	1696
754.951	1688
760.349	1697
765.741	1699
771.128	1672
776.509	1695
781.885	1698
787.254	1679
792.618	1685
797.977	1674
803.33	1675
808.677	1675
814.019	1628
819.355	1617
824.686	1612
830.011	1599
835.33	1603
840.644	1580
845.952	1586
851.255	1578
856.552	1576
861.844	1570
867.13	1555
872.41	1553
877.686	1538
882.955	1518
888.219	1490
893.478	1488
898.731	1458
903.979	1445
909.221	1437
914.458	1420
919.69	1432
924.916	1412
930.136	1421
935.351	1408
940.561	1429
945.766	1408
950.965	1410
956.158	1378
961.347	1384
966.529	1330
971.707	1336
976.879	1325
982.046	1312
987.208	1310
992.364	1327
997.515	1324
1002.66	1331
1007.801	1333
1012.936	1351
1018.066	1361
1023.19	1391
1028.309	1373
1033.423	1367
1038.532	1364
1043.636	1349
1048.734	1340
1053.827	1327
1058.915	1301
1063.998	1321
1069.075	1305
1074.147	1321
1079.214	1315
1084.276	1319
1089.333	1330
1094.385	1344
1099.431	1351
1104.472	1349
1109.509	1344
1114.54	1334
1119.565	1322
1124.586	1281
1129.602	1297
1134.613	1277
1139.618	1290
1144.619	1285
1149.614	1277
1154.604	1301
1159.589	1318
1164.57	1317
1169.545	1314
1174.515	1315
1179.48	1317
1184.44	1306
1189.395	1288
1194.345	1288
1199.29	1290
1204.23	1295
1209.165	1292
1214.095	1303
1219.021	1319
1223.941	1317
1228.856	1320
1233.766	1331
1238.672	1331
1243.572	1336
1248.467	1321
1253.358	1324
1258.244	1307
1263.124	1284
1268	1261
1272.871	1255
1277.737	1242
1282.599	1235
1287.455	1239
1292.306	1248
1297.153	1251
1301.995	1255
1306.832	1279
1311.664	1282
1316.491	1282
1321.314	1276
1326.132	1258
1330.945	1244
1335.753	1249
1340.556	1228
1345.354	1229
1350.148	1205
1354.937	1220
1359.722	1193
1364.501	1161
1369.276	1172
1374.046	1162
1378.811	1140
1383.572	1148
1388.327	1127
1393.079	1151
1397.825	1145
1402.567	1144
1407.304	1116
1412.036	1134
1416.764	1118
1421.487	1127
1426.205	1127
1430.919	1129
1435.628	1148
1440.333	1170
1445.032	1164
1449.727	1170
1454.418	1178
1459.104	1197
1463.785	1183
1468.462	1164
1473.134	1161
1477.802	1151
1482.465	1136
1487.123	1135
1491.777	1134
1496.426	1147
1501.071	1148
1505.711	1165
1510.347	1163
1514.978	1205
1519.604	1188
1524.226	1187
1528.844	1185
1533.457	1179
1538.065	1169
1542.669	1183
1547.269	1181
1551.864	1199
1556.454	1187
1561.041	1199
1565.622	1221
1570.199	1219
1574.772	1251
1579.34	1258
1583.904	1294
1588.464	1311
1593.019	1324
1597.569	1322
1602.115	1340
1606.657	1351
1611.195	1361
1615.728	1370
1620.256	1386
1624.78	1377
1629.3	1408
1633.816	1435
1638.327	1456
1642.834	1483
1647.336	1487
1651.834	1478
1656.328	1484
1660.817	1475
1665.302	1452
1669.783	1428
1674.259	1385
1678.732	1354
1683.199	1303
1687.663	1269
1692.122	1251
1696.577	1198
1701.028	1144
1705.474	1107
1709.917	1063
1714.355	1041
1718.788	1057
1723.218	1018
1727.643	1015
1732.064	983
1736.481	971
1740.893	963
1745.301	922
1749.705	906
1754.105	896
1758.501	870
1762.893	856
1767.28	855
1771.663	848
1776.042	834
1780.417	851
1784.787	837
1789.154	855
1793.516	843
1797.874	840
1802.228	836
1806.578	830
1810.924	821
1815.266	789
1819.603	784
1823.937	777
1828.266	777
1832.591	763
1836.913	764
1841.23	768
1845.543	754
1849.852	773
1854.156	762
1858.457	764
1862.754	769
1867.047	776
1871.335	803
1875.62	795
1879.9	796
1884.177	785
1888.449	788
1892.718	782
1896.982	780
1901.243	776
1905.499	757
1909.752	771
1914	762
1918.245	756
1922.485	769
1926.722	775
1930.954	766
1935.183	774
1939.408	771
1943.628	788
1947.845	779
1952.058	789
1956.267	768
1960.472	761
1964.673	762
1968.87	743
1973.063	735
1977.252	729
1981.438	733
1985.619	729
1989.797	730
1993.971	731
1998.14	727
2002.306	735
2006.469	740
2010.627	740
2014.781	756
2018.932	753
2023.078	736
2027.221	744
2031.36	731
2035.495	727
2039.627	729
2043.754	718
2047.878	718
2051.998	721
2056.114	731
2060.226	724
2064.334	717
2068.439	720
2072.54	718
2076.637	727
2080.73	741
2084.82	746
2088.906	749
2092.988	743
2097.066	737
2101.14	722
2105.211	727
2109.278	719
2113.342	700
2117.401	713
2121.457	710
2125.509	705
2129.558	701
2133.602	690
2137.643	692
2141.681	698
2145.714	703
2149.744	692
2153.77	692
2157.793	673
2161.812	665
2165.827	668
2169.838	662
2173.846	644
2177.851	641
2181.851	628
2185.848	631
2189.841	619
2193.831	611
2197.817	604
2201.799	600
2205.778	616
2209.753	605
2213.725	612
2217.693	617
2221.657	604
2225.618	600
2229.575	602
2233.529	599
2237.479	597
2241.425	590
2245.368	579
2249.307	566
2253.243	554
2257.175	555
2261.104	546
2265.029	533
2268.95	546
2272.868	513
2276.783	521
2280.694	513
2284.601	519
2288.505	504
2292.405	495
2296.302	485
2300.195	494
2304.085	488
2307.971	481
2311.854	469
2315.734	470
2319.609	457
2323.482	444
2327.351	448
2331.216	442
2335.078	441
2338.937	431
2342.792	432
2346.643	436
2350.492	438
2354.336	432
2358.178	431
2362.015	428
2365.85	438
2369.681	433
2373.508	437
2377.333	430
2381.153	439
2384.971	436
2388.785	436
2392.595	427
2396.402	420
2400.206	421
2404.007	407
2407.804	412
2411.597	413
2415.388	416
2419.174	416
2422.958	422
2426.738	416
2430.515	419
2434.289	407
2438.059	406
2441.825	405
2445.589	401
2449.349	403
2453.106	403
2456.859	387
2460.61	399
2464.356	388
2468.1	379
2471.84	375
2475.577	383
2479.311	379
2483.041	380
2486.768	381
2490.492	378
2494.213	390
2497.93	382
2501.644	384
2505.355	386
2509.062	381
2512.766	378
2516.467	380
2520.165	374
2523.859	363
2527.551	366
2531.239	364
2534.923	360
2538.605	358
2542.283	356
2545.958	346
2549.63	351
2553.299	344
2556.964	349
2560.626	342
2564.285	351
2567.941	345
2571.594	341
2575.243	339
2578.89	334
2582.533	330
2586.173	334
2589.809	328
2593.443	330
2597.073	327
2600.701	320
2604.325	323
2607.946	317
2611.564	323
2615.178	313
2618.79	314
2622.398	315
2626.004	312
2629.606	310
2633.205	292
2636.801	304
2640.394	304
2643.983	295
2647.57	294
2651.153	299
2654.734	285
2658.311	288
2661.885	283
2665.456	277
2669.025	269
2672.589	280
2676.151	276
2679.71	278
2683.266	267
2686.819	268
2690.368	268
2693.915	263
2697.458	264
2700.999	258
2704.536	252
2708.071	251
2711.602	248
2715.13	253
2718.656	254
2722.178	252
2725.697	251
2729.214	251
2732.727	255
2736.237	254
2739.744	251
2743.249	248
2746.75	252
2750.248	263
2753.743	258
2757.236	250
2760.725	246
2764.211	245
2767.695	244
2771.175	234
2774.652	242
2778.127	240
2781.598	235
2785.067	230
2788.532	231
2791.995	242
2795.455	237
2798.911	234
2802.365	238
2805.816	237
2809.264	237
2812.709	246
2816.151	241
2819.59	243
2823.026	234
2826.46	244
2829.89	243
2833.318	231
2836.742	242
2840.164	242
2843.583	239
2846.999	243
2850.412	254
2853.822	249
2857.229	259
2860.634	260
2864.035	255
2867.434	263
2870.83	260
2874.223	265
2877.613	267
2881	273
2884.385	268
2887.766	267
2891.145	264
2894.521	265
2897.894	261
2901.264	268
2904.631	278
2907.996	272
2911.358	271
2914.717	278
2918.073	277
2921.426	287
2924.777	288
2928.124	290
2931.469	292
2934.811	299
2938.15	296
2941.487	309
2944.821	314
2948.152	312
2951.48	315
2954.805	326
2958.128	331
2961.447	328
2964.765	343
2968.079	340
2971.39	350
2974.699	352
2978.005	360
2981.308	370
2984.609	384
2987.907	383
2991.202	400
2994.494	416
2997.784	401
3001.07	433
3004.355	433
3007.636	444
3010.915	456
3014.191	464
3017.464	469
3020.734	485
3024.002	485
3027.267	485
3030.53	504
3033.789	504
3037.046	520
3040.301	530
3043.552	532
3046.801	562
3050.048	566
3053.291	571
3056.532	601
3059.771	622
3063.006	637
3066.239	658
3069.469	669
3072.697	682
3075.922	704
3079.144	726
3082.364	741
3085.581	761
3088.795	776
3092.007	790
3095.216	796
3098.423	813
3101.627	843
3104.828	865
3108.026	858
3111.222	891
3114.416	903
3117.607	933
3120.795	940
3123.98	973
3127.163	1003
3130.344	1021
3133.521	1051
3136.696	1073
3139.869	1083
3143.039	1108
3146.206	1100
3149.371	1128
3152.533	1129
3155.693	1142
3158.85	1172
3162.005	1148
3165.157	1163
3168.306	1165
3171.453	1178
3174.597	1182
3177.739	1186
3180.878	1196
3184.014	1180
3187.149	1178
3190.28	1189
3193.409	1195
3196.536	1198
3199.659	1206
3202.781	1200
3205.9	1212
3209.016	1209
3212.13	1194
3215.241	1196
3218.35	1193
3221.456	1182
3224.56	1161
3227.661	1151
3230.76	1156
3233.856	1135
3236.95	1131
3240.041	1113
3243.13	1100
3246.216	1104
3249.3	1093
3252.382	1076
3255.46	1081
3258.537	1069
3261.611	1067
3264.682	1063
3267.751	1057
3270.818	1067
3273.882	1050
3276.943	1042
3280.002	1040
3283.059	1035
3286.113	1014
3289.165	1005
3292.214	1004
3295.261	980
3298.306	954
3301.348	949
3304.387	947
3307.425	929
3310.459	906
3313.492	902
3316.521	889
3319.549	864
3322.574	864
3325.597	863
3328.617	858
3331.635	850
3334.65	843
3337.663	844
3340.674	838
3343.682	830
3346.688	838
3349.691	837
3352.692	825
3355.691	823
3358.687	810
3361.681	803
3364.673	789
3367.662	781
3370.649	762
3373.633	760
3376.615	738
3379.595	731
3382.572	718
3385.547	715
3388.52	706
3391.49	702
3394.458	693
3397.424	683
3400.387	667
3403.348	665
3406.307	656
3409.263	658
3412.217	647
3415.168	635
3418.118	624
3421.065	610
3424.009	620
3426.951	609
3429.891	596
3432.829	587
3435.764	564
3438.697	574
3441.628	544
3444.557	527
3447.483	530
3450.407	512
3453.328	496
3456.247	466
3459.164	467
3462.079	451
3464.991	428
3467.902	428
3470.809	407
3473.715	396
3476.618	380
3479.519	371
3482.418	366
3485.315	351
3488.209	338
3491.101	334
3493.99	321
3496.878	317
3499.763	310
3502.646	297
3505.527	281
3508.405	269
3511.281	261
3514.155	248
3517.027	230
3519.897	223
3522.764	211
3525.629	199
3528.492	190
3531.352	183
3534.211	171
3537.067	159
3539.921	144
3542.773	139
3545.622	137
3548.469	123
3551.315	118
3554.157	111
3556.998	104
3559.837	97
3562.673	93
3565.507	90
3568.339	77
3571.169	80
3573.996	62
3576.822	55
3579.645	52
3582.466	42
3585.285	46
3588.101	41
3590.916	34
3593.728	26
3596.538	20
3599.346	22
3602.152	18
3604.956	10
3607.757	13
3610.556	-1
3613.354	1
3616.149	-6
3618.942	-15
3621.732	-14
3624.521	-13
3627.307	-20
3630.092	-23
3632.874	-24
3635.654	-29
3638.432	-34
3641.208	-32
3643.982	-31
3646.753	-38
3649.523	-37
3652.29	-37
3655.055	-47
3657.818	-44
3660.579	-44
3663.338	-52
3666.095	-55
3668.849	-58
3671.602	-66
3674.352	-64
3677.101	-65
3679.847	-70
3682.591	-71
3685.333	-69
3688.073	-74
3690.811	-71
3693.547	-77
3696.281	-75
3699.013	-78
3701.742	-75
3704.47	-81
3707.195	-83
3709.919	-85
3712.64	-85
3715.359	-83
3718.076	-88
3720.792	-89
3723.505	-88
3726.216	-88
3728.925	-91
3731.632	-89
3734.336	-93
3737.039	-91
3739.74	-91
3742.439	-89
3745.136	-90
3747.83	-90
3750.523	-93
3753.213	-90
3755.902	-95
3758.589	-101
3761.273	-93
3763.956	-99
3766.636	-102
3769.315	-101
3771.991	-105
3774.665	-105
3777.338	-99
3780.008	-103
3782.677	-102
3785.343	-101
3788.007	-99
3790.67	-99
3793.33	-99
3795.989	-100
3798.645	-99
3801.299	-102
3803.952	-100
3806.602	-104
3809.251	-105
3811.897	-105
3814.542	-104
3817.184	-104
3819.825	-106
3822.463	-106
3825.1	-104
3827.735	-107
3830.367	-102
3832.998	-104
3835.627	-103
3838.253	-102
3840.878	-100
3843.501	-103
3846.122	-106
3848.741	-103
3851.358	-106
3853.973	-108
3856.586	-112
3859.197	-109
3861.806	-112
3864.414	-114
3867.019	-111
3869.622	-109
3872.224	-107
3874.823	-104
3877.421	-103
3880.016	-101
3882.61	-94
3885.202	-99
3887.792	-96
3890.38	-103
3892.966	-105
3895.55	-110
3898.132	-107
3900.713	-113
3903.291	-112
3905.868	-114
3908.442	-113
3911.015	-113
3913.586	-114
3916.155	-109
3918.722	-110
3921.287	-110
3923.85	-108
3926.411	-106
3928.971	-114
3931.528	-110
3934.084	-113
3936.638	-111
3939.19	-114
3941.74	-113
3944.288	-115
3946.834	-117
3949.378	-117
3951.921	-115
3954.462	-115
3957	-115
3959.537	-111
3962.072	-112
3964.606	-109
3967.137	-112
3969.667	-110
3972.194	-110
3974.72	-109
3977.244	-108
3979.766	-108
3982.286	-113
3984.805	-110
3987.321	-111
3989.836	-112
3992.349	-115
3994.86	-112
3997.369	-110
3999.877	-112
4002.382	-111
4004.886	-111
4007.388	-106
4009.888	-109
4012.386	-110
4014.883	-109
4017.377	-107
4019.87	-109
4022.361	-110
4024.85	-108
4027.338	-114
4029.823	-111
4032.307	-114
4034.789	-115
4037.269	-114
4039.747	-114
4042.224	-111
4044.699	-117
4047.172	-113
4049.643	-109
4052.112	-110
4054.58	-113
4057.046	-114
4059.51	-108
4061.972	-111
4064.432	-113
4066.891	-112
4069.348	-110
4071.803	-111
4074.256	-114
4076.708	-112
4079.158	-112
4081.606	-114
4084.052	-111
4086.497	-112
4088.939	-113
4091.38	-113
4093.819	-111
4096.257	-112
4098.693	-112
4101.127	-117
4103.559	-116
4105.989	-75
4108.418	-74
4110.845	-71
4113.27	-64
4115.694	-57
4118.115	-47
4120.535	-111
4122.954	-114
4125.37	-113
4127.785	-109
4130.198	-113
4132.609	-113
4135.019	-114
4137.427	-118
4139.833	-117
4142.237	-118
