Data from 1CFU1_A_RamanShift_1.txt Node
Date: Wed Jan 25 11:42:56 IST 2017
User: aro
Spectrometer: QEPB0276
Trigger mode: 0
Integration Time (sec): 5.000000E0
Scans to average: 1
Electric dark correction enabled: true
Nonlinearity correction enabled: false
Boxcar width: 0
XAxis mode: Raman Shifts
Number of Pixels in Spectrum: 1044
>>>>>Begin Spectral Data<<<<<
160.701	-34.38
166.742	-1.38
172.777	99.62
178.805	413.62
184.826	1163.62
190.841	2385.62
196.849	3698.62
202.85	4509.62
208.845	4702.62
214.833	4565.62
220.815	4398.62
226.789	4274.62
232.758	4149.62
238.719	4034.62
244.674	3842.62
250.623	3717.62
256.565	3557.62
262.5	3368.62
268.429	3252.62
274.351	3125.62
280.267	3012.62
286.176	2905.62
292.079	2797.62
297.975	2713.62
303.865	2633.62
309.748	2557.62
315.625	2489.62
321.495	2453.62
327.359	2401.62
333.217	2374.62
339.068	2360.62
344.912	2349.62
350.751	2342.62
356.583	2317.62
362.408	2324.62
368.227	2325.62
374.04	2323.62
379.847	2335.62
385.647	2354.62
391.44	2362.62
397.228	2393.62
403.009	2384.62
408.784	2402.62
414.553	2416.62
420.315	2418.62
426.071	2429.62
431.821	2406.62
437.565	2407.62
443.302	2401.62
449.033	2425.62
454.758	2377.62
460.477	2382.62
466.189	2382.62
471.896	2368.62
477.596	2372.62
483.29	2349.62
488.978	2326.62
494.66	2334.62
500.335	2313.62
506.005	2263.62
511.668	2199.62
517.325	2183.62
522.977	2136.62
528.622	2126.62
534.261	2096.62
539.894	2058.62
545.521	2052.62
551.141	2036.62
556.756	2044.62
562.365	2035.62
567.968	2037.62
573.565	2014.62
579.155	1989.62
584.74	1987.62
590.319	1963.62
595.892	1971.62
601.459	1951.62
607.02	1937.62
612.575	1914.62
618.124	1885.62
623.667	1876.62
629.204	1865.62
634.735	1837.62
640.261	1850.62
645.781	1816.62
651.294	1805.62
656.802	1825.62
662.304	1811.62
667.8	1803.62
673.29	1786.62
678.775	1784.62
684.254	1776.62
689.726	1778.62
695.193	1763.62
700.655	1748.62
706.11	1733.62
711.56	1722.62
717.004	1730.62
722.442	1710.62
727.874	1685.62
733.301	1694.62
738.722	1669.62
744.137	1660.62
749.547	1671.62
754.951	1666.62
760.349	1665.62
765.741	1670.62
771.128	1670.62
776.509	1675.62
781.885	1662.62
787.254	1670.62
792.618	1643.62
797.977	1639.62
803.33	1617.62
808.677	1614.62
814.019	1607.62
819.355	1595.62
824.686	1579.62
830.011	1563.62
835.33	1550.62
840.644	1543.62
845.952	1533.62
851.255	1534.62
856.552	1527.62
861.844	1531.62
867.13	1506.62
872.41	1504.62
877.686	1485.62
882.955	1485.62
888.219	1442.62
893.478	1428.62
898.731	1434.62
903.979	1388.62
909.221	1384.62
914.458	1348.62
919.69	1376.62
924.916	1375.62
930.136	1373.62
935.351	1339.62
940.561	1355.62
945.766	1358.62
950.965	1357.62
956.158	1329.62
961.347	1331.62
966.529	1300.62
971.707	1277.62
976.879	1261.62
982.046	1258.62
987.208	1230.62
992.364	1264.62
997.515	1255.62
1002.66	1291.62
1007.801	1271.62
1012.936	1300.62
1018.066	1300.62
1023.19	1312.62
1028.309	1318.62
1033.423	1322.62
1038.532	1290.62
1043.636	1298.62
1048.734	1267.62
1053.827	1255.62
1058.915	1253.62
1063.998	1262.62
1069.075	1245.62
1074.147	1257.62
1079.214	1259.62
1084.276	1267.62
1089.333	1263.62
1094.385	1279.62
1099.431	1293.62
1104.472	1280.62
1109.509	1288.62
1114.54	1270.62
1119.565	1254.62
1124.586	1248.62
1129.602	1239.62
1134.613	1227.62
1139.618	1223.62
1144.619	1228.62
1149.614	1232.62
1154.604	1228.62
1159.589	1229.62
1164.57	1244.62
1169.545	1251.62
1174.515	1260.62
1179.48	1245.62
1184.44	1242.62
1189.395	1221.62
1194.345	1232.62
1199.29	1227.62
1204.23	1226.62
1209.165	1229.62
1214.095	1226.62
1219.021	1257.62
1223.941	1267.62
1228.856	1260.62
1233.766	1286.62
1238.672	1285.62
1243.572	1272.62
1248.467	1264.62
1253.358	1263.62
1258.244	1237.62
1263.124	1215.62
1268	1210.62
1272.871	1182.62
1277.737	1163.62
1282.599	1175.62
1287.455	1176.62
1292.306	1186.62
1297.153	1186.62
1301.995	1204.62
1306.832	1216.62
1311.664	1211.62
1316.491	1215.62
1321.314	1220.62
1326.132	1185.62
1330.945	1188.62
1335.753	1175.62
1340.556	1178.62
1345.354	1158.62
1350.148	1153.62
1354.937	1140.62
1359.722	1144.62
1364.501	1121.62
1369.276	1108.62
1374.046	1086.62
1378.811	1086.62
1383.572	1088.62
1388.327	1090.62
1393.079	1094.62
1397.825	1083.62
1402.567	1086.62
1407.304	1071.62
1412.036	1068.62
1416.764	1066.62
1421.487	1072.62
1426.205	1064.62
1430.919	1080.62
1435.628	1099.62
1440.333	1108.62
1445.032	1113.62
1449.727	1110.62
1454.418	1111.62
1459.104	1118.62
1463.785	1110.62
1468.462	1111.62
1473.134	1088.62
1477.802	1099.62
1482.465	1079.62
1487.123	1082.62
1491.777	1099.62
1496.426	1088.62
1501.071	1103.62
1505.711	1097.62
1510.347	1120.62
1514.978	1126.62
1519.604	1135.62
1524.226	1134.62
1528.844	1140.62
1533.457	1136.62
1538.065	1128.62
1542.669	1114.62
1547.269	1128.62
1551.864	1132.62
1556.454	1135.62
1561.041	1148.62
1565.622	1152.62
1570.199	1176.62
1574.772	1200.62
1579.34	1209.62
1583.904	1234.62
1588.464	1242.62
1593.019	1258.62
1597.569	1266.62
1602.115	1277.62
1606.657	1303.62
1611.195	1312.62
1615.728	1313.62
1620.256	1341.62
1624.78	1358.62
1629.3	1369.62
1633.816	1410.62
1638.327	1401.62
1642.834	1439.62
1647.336	1445.62
1651.834	1455.62
1656.328	1433.62
1660.817	1439.62
1665.302	1400.62
1669.783	1377.62
1674.259	1361.62
1678.732	1320.62
1683.199	1269.62
1687.663	1245.62
1692.122	1213.62
1696.577	1153.62
1701.028	1094.62
1705.474	1061.62
1709.917	1013.62
1714.355	993.62
1718.788	1002.62
1723.218	983.62
1727.643	949.62
1732.064	949.62
1736.481	916.62
1740.893	886.62
1745.301	881.62
1749.705	847.62
1754.105	826.62
1758.501	822.62
1762.893	809.62
1767.28	799.62
1771.663	784.62
1776.042	786.62
1780.417	777.62
1784.787	795.62
1789.154	793.62
1793.516	775.62
1797.874	779.62
1802.228	783.62
1806.578	753.62
1810.924	750.62
1815.266	727.62
1819.603	714.62
1823.937	710.62
1828.266	704.62
1832.591	712.62
1836.913	713.62
1841.23	696.62
1845.543	705.62
1849.852	700.62
1854.156	705.62
1858.457	701.62
1862.754	716.62
1867.047	718.62
1871.335	730.62
1875.62	729.62
1879.9	721.62
1884.177	726.62
1888.449	718.62
1892.718	725.62
1896.982	732.62
1901.243	726.62
1905.499	712.62
1909.752	704.62
1914	705.62
1918.245	714.62
1922.485	707.62
1926.722	710.62
1930.954	730.62
1935.183	726.62
1939.408	723.62
1943.628	717.62
1947.845	716.62
1952.058	710.62
1956.267	705.62
1960.472	703.62
1964.673	704.62
1968.87	683.62
1973.063	682.62
1977.252	680.62
1981.438	676.62
1985.619	676.62
1989.797	679.62
1993.971	678.62
1998.14	679.62
2002.306	675.62
2006.469	685.62
2010.627	686.62
2014.781	690.62
2018.932	694.62
2023.078	684.62
2027.221	689.62
2031.36	681.62
2035.495	695.62
2039.627	682.62
2043.754	670.62
2047.878	657.62
2051.998	665.62
2056.114	667.62
2060.226	677.62
2064.334	669.62
2068.439	674.62
2072.54	687.62
2076.637	682.62
2080.73	689.62
2084.82	687.62
2088.906	687.62
2092.988	695.62
2097.066	679.62
2101.14	681.62
2105.211	670.62
2109.278	674.62
2113.342	671.62
2117.401	659.62
2121.457	651.62
2125.509	659.62
2129.558	652.62
2133.602	653.62
2137.643	655.62
2141.681	653.62
2145.714	647.62
2149.744	631.62
2153.77	634.62
2157.793	620.62
2161.812	616.62
2165.827	610.62
2169.838	614.62
2173.846	593.62
2177.851	600.62
2181.851	591.62
2185.848	585.62
2189.841	579.62
2193.831	581.62
2197.817	570.62
2201.799	563.62
2205.778	549.62
2209.753	554.62
2213.725	567.62
2217.693	558.62
2221.657	561.62
2225.618	558.62
2229.575	558.62
2233.529	552.62
2237.479	544.62
2241.425	548.62
2245.368	538.62
2249.307	533.62
2253.243	524.62
2257.175	513.62
2261.104	499.62
2265.029	486.62
2268.95	505.62
2272.868	474.62
2276.783	481.62
2280.694	470.62
2284.601	462.62
2288.505	462.62
2292.405	461.62
2296.302	443.62
2300.195	453.62
2304.085	438.62
2307.971	426.62
2311.854	420.62
2315.734	412.62
2319.609	408.62
2323.482	406.62
2327.351	400.62
2331.216	406.62
2335.078	401.62
2338.937	388.62
2342.792	386.62
2346.643	379.62
2350.492	383.62
2354.336	378.62
2358.178	388.62
2362.015	391.62
2365.85	395.62
2369.681	392.62
2373.508	386.62
2377.333	393.62
2381.153	393.62
2384.971	390.62
2388.785	389.62
2392.595	388.62
2396.402	386.62
2400.206	388.62
2404.007	376.62
2407.804	372.62
2411.597	374.62
2415.388	371.62
2419.174	374.62
2422.958	365.62
2426.738	367.62
2430.515	373.62
2434.289	361.62
2438.059	372.62
2441.825	359.62
2445.589	362.62
2449.349	366.62
2453.106	355.62
2456.859	357.62
2460.61	360.62
2464.356	350.62
2468.1	337.62
2471.84	340.62
2475.577	347.62
2479.311	340.62
2483.041	345.62
2486.768	337.62
2490.492	337.62
2494.213	338.62
2497.93	337.62
2501.644	334.62
2505.355	340.62
2509.062	344.62
2512.766	339.62
2516.467	337.62
2520.165	338.62
2523.859	334.62
2527.551	328.62
2531.239	329.62
2534.923	331.62
2538.605	324.62
2542.283	310.62
2545.958	311.62
2549.63	312.62
2553.299	306.62
2556.964	305.62
2560.626	306.62
2564.285	315.62
2567.941	298.62
2571.594	302.62
2575.243	305.62
2578.89	294.62
2582.533	303.62
2586.173	296.62
2589.809	290.62
2593.443	286.62
2597.073	288.62
2600.701	279.62
2604.325	285.62
2607.946	272.62
2611.564	278.62
2615.178	270.62
2618.79	279.62
2622.398	278.62
2626.004	271.62
2629.606	275.62
2633.205	269.62
2636.801	265.62
2640.394	274.62
2643.983	262.62
2647.57	260.62
2651.153	258.62
2654.734	247.62
2658.311	251.62
2661.885	259.62
2665.456	250.62
2669.025	244.62
2672.589	240.62
2676.151	241.62
2679.71	236.62
2683.266	233.62
2686.819	238.62
2690.368	231.62
2693.915	230.62
2697.458	227.62
2700.999	230.62
2704.536	231.62
2708.071	220.62
2711.602	218.62
2715.13	223.62
2718.656	216.62
2722.178	222.62
2725.697	221.62
2729.214	221.62
2732.727	219.62
2736.237	230.62
2739.744	217.62
2743.249	218.62
2746.75	230.62
2750.248	221.62
2753.743	213.62
2757.236	225.62
2760.725	212.62
2764.211	216.62
2767.695	210.62
2771.175	215.62
2774.652	207.62
2778.127	207.62
2781.598	210.62
2785.067	203.62
2788.532	212.62
2791.995	201.62
2795.455	218.62
2798.911	216.62
2802.365	210.62
2805.816	219.62
2809.264	212.62
2812.709	213.62
2816.151	215.62
2819.59	219.62
2823.026	206.62
2826.46	211.62
2829.89	216.62
2833.318	221.62
2836.742	216.62
2840.164	220.62
2843.583	225.62
2846.999	225.62
2850.412	225.62
2853.822	230.62
2857.229	227.62
2860.634	227.62
2864.035	241.62
2867.434	242.62
2870.83	240.62
2874.223	244.62
2877.613	247.62
2881	244.62
2884.385	246.62
2887.766	247.62
2891.145	256.62
2894.521	248.62
2897.894	250.62
2901.264	250.62
2904.631	258.62
2907.996	253.62
2911.358	260.62
2914.717	256.62
2918.073	265.62
2921.426	269.62
2924.777	279.62
2928.124	277.62
2931.469	273.62
2934.811	280.62
2938.15	287.62
2941.487	290.62
2944.821	296.62
2948.152	299.62
2951.48	307.62
2954.805	312.62
2958.128	317.62
2961.447	329.62
2964.765	337.62
2968.079	341.62
2971.39	345.62
2974.699	350.62
2978.005	352.62
2981.308	364.62
2984.609	370.62
2987.907	379.62
2991.202	388.62
2994.494	404.62
2997.784	420.62
3001.07	427.62
3004.355	437.62
3007.636	444.62
3010.915	454.62
3014.191	474.62
3017.464	465.62
3020.734	477.62
3024.002	483.62
3027.267	502.62
3030.53	502.62
3033.789	513.62
3037.046	521.62
3040.301	527.62
3043.552	549.62
3046.801	567.62
3050.048	576.62
3053.291	598.62
3056.532	609.62
3059.771	636.62
3063.006	656.62
3066.239	679.62
3069.469	687.62
3072.697	719.62
3075.922	723.62
3079.144	753.62
3082.364	778.62
3085.581	783.62
3088.795	808.62
3092.007	822.62
3095.216	816.62
3098.423	863.62
3101.627	871.62
3104.828	890.62
3108.026	924.62
3111.222	943.62
3114.416	959.62
3117.607	977.62
3120.795	995.62
3123.98	1034.62
3127.163	1049.62
3130.344	1065.62
3133.521	1094.62
3136.696	1106.62
3139.869	1149.62
3143.039	1147.62
3146.206	1174.62
3149.371	1185.62
3152.533	1208.62
3155.693	1212.62
3158.85	1223.62
3162.005	1236.62
3165.157	1221.62
3168.306	1232.62
3171.453	1224.62
3174.597	1246.62
3177.739	1238.62
3180.878	1240.62
3184.014	1256.62
3187.149	1253.62
3190.28	1262.62
3193.409	1256.62
3196.536	1266.62
3199.659	1257.62
3202.781	1284.62
3205.9	1278.62
3209.016	1267.62
3212.13	1279.62
3215.241	1279.62
3218.35	1249.62
3221.456	1241.62
3224.56	1229.62
3227.661	1213.62
3230.76	1220.62
3233.856	1206.62
3236.95	1181.62
3240.041	1174.62
3243.13	1171.62
3246.216	1150.62
3249.3	1156.62
3252.382	1154.62
3255.46	1135.62
3258.537	1137.62
3261.611	1121.62
3264.682	1118.62
3267.751	1132.62
3270.818	1125.62
3273.882	1120.62
3276.943	1106.62
3280.002	1097.62
3283.059	1090.62
3286.113	1077.62
3289.165	1069.62
3292.214	1059.62
3295.261	1029.62
3298.306	1012.62
3301.348	1004.62
3304.387	978.62
3307.425	961.62
3310.459	955.62
3313.492	928.62
3316.521	931.62
3319.549	915.62
3322.574	909.62
3325.597	912.62
3328.617	904.62
3331.635	889.62
3334.65	885.62
3337.663	880.62
3340.674	881.62
3343.682	874.62
3346.688	880.62
3349.691	875.62
3352.692	865.62
3355.691	866.62
3358.687	855.62
3361.681	850.62
3364.673	831.62
3367.662	813.62
3370.649	820.62
3373.633	797.62
3376.615	783.62
3379.595	778.62
3382.572	763.62
3385.547	758.62
3388.52	752.62
3391.49	746.62
3394.458	737.62
3397.424	714.62
3400.387	712.62
3403.348	703.62
3406.307	686.62
3409.263	684.62
3412.217	675.62
3415.168	670.62
3418.118	672.62
3421.065	654.62
3424.009	646.62
3426.951	633.62
3429.891	628.62
3432.829	615.62
3435.764	605.62
3438.697	588.62
3441.628	573.62
3444.557	564.62
3447.483	552.62
3450.407	535.62
3453.328	513.62
3456.247	502.62
3459.164	479.62
3462.079	464.62
3464.991	459.62
3467.902	436.62
3470.809	417.62
3473.715	414.62
3476.618	401.62
3479.519	386.62
3482.418	375.62
3485.315	368.62
3488.209	352.62
3491.101	348.62
3493.99	330.62
3496.878	325.62
3499.763	313.62
3502.646	309.62
3505.527	297.62
3508.405	281.62
3511.281	276.62
3514.155	264.62
3517.027	245.62
3519.897	228.62
3522.764	223.62
3525.629	205.62
3528.492	191.62
3531.352	182.62
3534.211	173.62
3537.067	162.62
3539.921	148.62
3542.773	140.62
3545.622	136.62
3548.469	128.62
3551.315	123.62
3554.157	108.62
3556.998	104.62
3559.837	101.62
3562.673	95.62
3565.507	87.62
3568.339	75.62
3571.169	73.62
3573.996	62.62
3576.822	51.62
3579.645	52.62
3582.466	43.62
3585.285	40.62
3588.101	33.62
3590.916	30.62
3593.728	26.62
3596.538	20.62
3599.346	23.62
3602.152	16.62
3604.956	2.62
3607.757	6.62
3610.556	-1.38
3613.354	-5.38
3616.149	-12.38
3618.942	-17.38
3621.732	-17.38
3624.521	-18.38
3627.307	-24.38
3630.092	-24.38
3632.874	-33.38
3635.654	-32.38
3638.432	-35.38
3641.208	-41.38
3643.982	-39.38
3646.753	-43.38
3649.523	-49.38
3652.29	-46.38
3655.055	-50.38
3657.818	-47.38
3660.579	-51.38
3663.338	-60.38
3666.095	-58.38
3668.849	-58.38
3671.602	-67.38
3674.352	-68.38
3677.101	-71.38
3679.847	-69.38
3682.591	-75.38
3685.333	-73.38
3688.073	-82.38
3690.811	-79.38
3693.547	-83.38
3696.281	-83.38
3699.013	-82.38
3701.742	-82.38
3704.47	-84.38
3707.195	-83.38
3709.919	-83.38
3712.64	-86.38
3715.359	-87.38
3718.076	-88.38
3720.792	-93.38
3723.505	-93.38
3726.216	-92.38
3728.925	-93.38
3731.632	-91.38
3734.336	-100.38
3737.039	-96.38
3739.74	-97.38
3742.439	-97.38
3745.136	-97.38
3747.83	-96.38
3750.523	-100.38
3753.213	-96.38
3755.902	-98.38
3758.589	-98.38
3761.273	-96.38
3763.956	-100.38
3766.636	-101.38
3769.315	-101.38
3771.991	-106.38
3774.665	-108.38
3777.338	-104.38
3780.008	-108.38
3782.677	-105.38
3785.343	-104.38
3788.007	-104.38
3790.67	-103.38
3793.33	-103.38
3795.989	-105.38
3798.645	-102.38
3801.299	-104.38
3803.952	-102.38
3806.602	-104.38
3809.251	-108.38
3811.897	-107.38
3814.542	-107.38
3817.184	-110.38
3819.825	-111.38
3822.463	-111.38
3825.1	-108.38
3827.735	-107.38
3830.367	-111.38
3832.998	-112.38
3835.627	-108.38
3838.253	-108.38
3840.878	-104.38
3843.501	-110.38
3846.122	-111.38
3848.741	-106.38
3851.358	-108.38
3853.973	-107.38
3856.586	-112.38
3859.197	-111.38
3861.806	-111.38
3864.414	-113.38
3867.019	-113.38
3869.622	-111.38
3872.224	-113.38
3874.823	-109.38
3877.421	-109.38
3880.016	-105.38
3882.61	-98.38
3885.202	-102.38
3887.792	-103.38
3890.38	-105.38
3892.966	-110.38
3895.55	-113.38
3898.132	-110.38
3900.713	-113.38
3903.291	-110.38
3905.868	-113.38
3908.442	-115.38
3911.015	-116.38
3913.586	-116.38
3916.155	-113.38
3918.722	-115.38
3921.287	-116.38
3923.85	-115.38
3926.411	-115.38
3928.971	-118.38
3931.528	-114.38
3934.084	-119.38
3936.638	-117.38
3939.19	-109.38
3941.74	-114.38
3944.288	-115.38
3946.834	-119.38
3949.378	-118.38
3951.921	-119.38
3954.462	-116.38
3957	-116.38
3959.537	-116.38
3962.072	-115.38
3964.606	-113.38
3967.137	-111.38
3969.667	-116.38
3972.194	-113.38
3974.72	-112.38
3977.244	-112.38
3979.766	-113.38
3982.286	-118.38
3984.805	-115.38
3987.321	-114.38
3989.836	-116.38
3992.349	-120.38
3994.86	-116.38
3997.369	-113.38
3999.877	-113.38
4002.382	-114.38
4004.886	-113.38
4007.388	-114.38
4009.888	-113.38
4012.386	-119.38
4014.883	-114.38
4017.377	-114.38
4019.87	-117.38
4022.361	-114.38
4024.85	-112.38
4027.338	-116.38
4029.823	-112.38
4032.307	-115.38
4034.789	-115.38
4037.269	-116.38
4039.747	-117.38
4042.224	-115.38
4044.699	-118.38
4047.172	-118.38
4049.643	-115.38
4052.112	-118.38
4054.58	-114.38
4057.046	-117.38
4059.51	-115.38
4061.972	-118.38
4064.432	-117.38
4066.891	-117.38
4069.348	-114.38
4071.803	-115.38
4074.256	-114.38
4076.708	-114.38
4079.158	-112.38
4081.606	-116.38
4084.052	-114.38
4086.497	-116.38
4088.939	-116.38
4091.38	-117.38
4093.819	-117.38
4096.257	-115.38
4098.693	-117.38
4101.127	-120.38
4103.559	-121.38
4105.989	-78.38
4108.418	-78.38
4110.845	-77.38
4113.27	-71.38
4115.694	-62.38
4118.115	-49.38
4120.535	-116.38
4122.954	-120.38
4125.37	-116.38
4127.785	-118.38
4130.198	-119.38
4132.609	-115.38
4135.019	-118.38
4137.427	-120.38
4139.833	-119.38
4142.237	-119.38
