Data from 2018-2-8_conc=3_RamanShift_07.txt Node
Date: Wed Feb 07 10:13:40 IST 2018
User: aro
Spectrometer: QEPB0276
Trigger mode: 0
Integration Time (sec): 3.000000E1
Scans to average: 1
Electric dark correction enabled: true
Nonlinearity correction enabled: false
Boxcar width: 0
XAxis mode: Raman Shifts
Number of Pixels in Spectrum: 1044
>>>>>Begin Spectral Data<<<<<
160.701	460.1
166.742	543.1
172.777	974.1
178.805	2391.1
184.826	5360.1
190.841	10468.1
196.849	16577.1
202.85	21171.1
208.845	22914.1
214.833	22742.1
220.815	22467.1
226.789	22410.1
232.758	22357.1
238.719	22278.1
244.674	22131.1
250.623	21711.1
256.565	21477.1
262.5	21038.1
268.429	20591.1
274.351	20406.1
280.267	20322.1
286.176	19786.1
292.079	19693.1
297.975	19313.1
303.865	19266.1
309.748	19097.1
315.625	19015.1
321.495	18643.1
327.359	18636.1
333.217	18743.1
339.068	18676.1
344.912	18692.1
350.751	18605.1
356.583	18647.1
362.408	18533.1
368.227	18608.1
374.04	18751.1
379.847	18780.1
385.647	18861.1
391.44	19118.1
397.228	19163.1
403.009	19312.1
408.784	19402.1
414.553	19534.1
420.315	19538.1
426.071	19608.1
431.821	19508.1
437.565	19466.1
443.302	19327.1
449.033	19402.1
454.758	19248.1
460.477	19016.1
466.189	19070.1
471.896	18879.1
477.596	18739.1
483.29	18878.1
488.978	18803.1
494.66	18826.1
500.335	18714.1
506.005	18595.1
511.668	18378.1
517.325	18267.1
522.977	17978.1
528.622	17960.1
534.261	17809.1
539.894	17723.1
545.521	17668.1
551.141	17575.1
556.756	17397.1
562.365	17264.1
567.968	17124.1
573.565	17048.1
579.155	16854.1
584.74	16825.1
590.319	16641.1
595.892	16777.1
601.459	16655.1
607.02	16729.1
612.575	16657.1
618.124	16579.1
623.667	16651.1
629.204	16553.1
634.735	16561.1
640.261	16508.1
645.781	16583.1
651.294	16322.1
656.802	16168.1
662.304	16110.1
667.8	15807.1
673.29	15897.1
678.775	15721.1
684.254	15842.1
689.726	15832.1
695.193	15788.1
700.655	15676.1
706.11	15809.1
711.56	15701.1
717.004	15718.1
722.442	15854.1
727.874	15625.1
733.301	15730.1
738.722	15796.1
744.137	15548.1
749.547	15445.1
754.951	15402.1
760.349	15245.1
765.741	15121.1
771.128	15120.1
776.509	15146.1
781.885	15144.1
787.254	15097.1
792.618	15185.1
797.977	15245.1
803.33	15342.1
808.677	15308.1
814.019	15321.1
819.355	15362.1
824.686	15351.1
830.011	15255.1
835.33	14962.1
840.644	14830.1
845.952	14937.1
851.255	14647.1
856.552	14586.1
861.844	14390.1
867.13	14388.1
872.41	14352.1
877.686	14283.1
882.955	14430.1
888.219	14437.1
893.478	14531.1
898.731	14416.1
903.979	14300.1
909.221	14306.1
914.458	14285.1
919.69	14052.1
924.916	13999.1
930.136	13834.1
935.351	13854.1
940.561	13482.1
945.766	13458.1
950.965	13336.1
956.158	13424.1
961.347	13459.1
966.529	13552.1
971.707	13406.1
976.879	13453.1
982.046	13458.1
987.208	13549.1
992.364	13305.1
997.515	13249.1
1002.66	13140.1
1007.801	13221.1
1012.936	13123.1
1018.066	13240.1
1023.19	13050.1
1028.309	12976.1
1033.423	13115.1
1038.532	13092.1
1043.636	13336.1
1048.734	13343.1
1053.827	13424.1
1058.915	13408.1
1063.998	13237.1
1069.075	13083.1
1074.147	12844.1
1079.214	12889.1
1084.276	12599.1
1089.333	12535.1
1094.385	12563.1
1099.431	12696.1
1104.472	12540.1
1109.509	12606.1
1114.54	12753.1
1119.565	12789.1
1124.586	12673.1
1129.602	12720.1
1134.613	12641.1
1139.618	12559.1
1144.619	12370.1
1149.614	12202.1
1154.604	12050.1
1159.589	12049.1
1164.57	11852.1
1169.545	11859.1
1174.515	11887.1
1179.48	12017.1
1184.44	12039.1
1189.395	12202.1
1194.345	12249.1
1199.29	12162.1
1204.23	12302.1
1209.165	12162.1
1214.095	12160.1
1219.021	11958.1
1223.941	11953.1
1228.856	12012.1
1233.766	11955.1
1238.672	11844.1
1243.572	11801.1
1248.467	11822.1
1253.358	11891.1
1258.244	11935.1
1263.124	11812.1
1268	11670.1
1272.871	11710.1
1277.737	11716.1
1282.599	11508.1
1287.455	11355.1
1292.306	11184.1
1297.153	11184.1
1301.995	11068.1
1306.832	11005.1
1311.664	10966.1
1316.491	11030.1
1321.314	10972.1
1326.132	10953.1
1330.945	10957.1
1335.753	10865.1
1340.556	10793.1
1345.354	10606.1
1350.148	10414.1
1354.937	10310.1
1359.722	10273.1
1364.501	10104.1
1369.276	9719.1
1374.046	9815.1
1378.811	9903.1
1383.572	9908.1
1388.327	9627.1
1393.079	10108.1
1397.825	10221.1
1402.567	10224.1
1407.304	10107.1
1412.036	10145.1
1416.764	10126.1
1421.487	10326.1
1426.205	10025.1
1430.919	9751.1
1435.628	9726.1
1440.333	9710.1
1445.032	9583.1
1449.727	9606.1
1454.418	9559.1
1459.104	9553.1
1463.785	9336.1
1468.462	9393.1
1473.134	9401.1
1477.802	9283.1
1482.465	9319.1
1487.123	9038.1
1491.777	9172.1
1496.426	9020.1
1501.071	8820.1
1505.711	8815.1
1510.347	8837.1
1514.978	8878.1
1519.604	8952.1
1524.226	9011.1
1528.844	9208.1
1533.457	9172.1
1538.065	9271.1
1542.669	9358.1
1547.269	9365.1
1551.864	9363.1
1556.454	9485.1
1561.041	9418.1
1565.622	9392.1
1570.199	9151.1
1574.772	9164.1
1579.34	8939.1
1583.904	8990.1
1588.464	9073.1
1593.019	9109.1
1597.569	9156.1
1602.115	9226.1
1606.657	9275.1
1611.195	9237.1
1615.728	9249.1
1620.256	9350.1
1624.78	9368.1
1629.3	9357.1
1633.816	9169.1
1638.327	9130.1
1642.834	9157.1
1647.336	9124.1
1651.834	8980.1
1656.328	9030.1
1660.817	8876.1
1665.302	8989.1
1669.783	8986.1
1674.259	8823.1
1678.732	8615.1
1683.199	8418.1
1687.663	8310.1
1692.122	7982.1
1696.577	7745.1
1701.028	7800.1
1705.474	7598.1
1709.917	7560.1
1714.355	7522.1
1718.788	7496.1
1723.218	7324.1
1727.643	7176.1
1732.064	7067.1
1736.481	7160.1
1740.893	6963.1
1745.301	6793.1
1749.705	6877.1
1754.105	6500.1
1758.501	6472.1
1762.893	6251.1
1767.28	6222.1
1771.663	5994.1
1776.042	5891.1
1780.417	5830.1
1784.787	5697.1
1789.154	5690.1
1793.516	5560.1
1797.874	5767.1
1802.228	5828.1
1806.578	6065.1
1810.924	5849.1
1815.266	6383.1
1819.603	5954.1
1823.937	5999.1
1828.266	5951.1
1832.591	5876.1
1836.913	5830.1
1841.23	5882.1
1845.543	5829.1
1849.852	5644.1
1854.156	5721.1
1858.457	5672.1
1862.754	5300.1
1867.047	5557.1
1871.335	5399.1
1875.62	5335.1
1879.9	5313.1
1884.177	5468.1
1888.449	5333.1
1892.718	5363.1
1896.982	5253.1
1901.243	5377.1
1905.499	5343.1
1909.752	5303.1
1914	5415.1
1918.245	5245.1
1922.485	5288.1
1926.722	5299.1
1930.954	5292.1
1935.183	5209.1
1939.408	5279.1
1943.628	5303.1
1947.845	5281.1
1952.058	5380.1
1956.267	5213.1
1960.472	5273.1
1964.673	5255.1
1968.87	5319.1
1973.063	5280.1
1977.252	5238.1
1981.438	5135.1
1985.619	5098.1
1989.797	4947.1
1993.971	4968.1
1998.14	4838.1
2002.306	4868.1
2006.469	4785.1
2010.627	4820.1
2014.781	4845.1
2018.932	4804.1
2023.078	4633.1
2027.221	4589.1
2031.36	4660.1
2035.495	4739.1
2039.627	4640.1
2043.754	4589.1
2047.878	4542.1
2051.998	4509.1
2056.114	4505.1
2060.226	4519.1
2064.334	4452.1
2068.439	4347.1
2072.54	4356.1
2076.637	4505.1
2080.73	4460.1
2084.82	4370.1
2088.906	4397.1
2092.988	4375.1
2097.066	4536.1
2101.14	4378.1
2105.211	4465.1
2109.278	4508.1
2113.342	4454.1
2117.401	4589.1
2121.457	4473.1
2125.509	4438.1
2129.558	4290.1
2133.602	4327.1
2137.643	4326.1
2141.681	4189.1
2145.714	4203.1
2149.744	4157.1
2153.77	4198.1
2157.793	4198.1
2161.812	4174.1
2165.827	4190.1
2169.838	4020.1
2173.846	4024.1
2177.851	4020.1
2181.851	3884.1
2185.848	3957.1
2189.841	3855.1
2193.831	3910.1
2197.817	3718.1
2201.799	3782.1
2205.778	3860.1
2209.753	3730.1
2213.725	3776.1
2217.693	3689.1
2221.657	3730.1
2225.618	3591.1
2229.575	3628.1
2233.529	3551.1
2237.479	3626.1
2241.425	3545.1
2245.368	3638.1
2249.307	3602.1
2253.243	3539.1
2257.175	3539.1
2261.104	3471.1
2265.029	3419.1
2268.95	3394.1
2272.868	3317.1
2276.783	3343.1
2280.694	3156.1
2284.601	3206.1
2288.505	3178.1
2292.405	3048.1
2296.302	3141.1
2300.195	3083.1
2304.085	3153.1
2307.971	3103.1
2311.854	3069.1
2315.734	2940.1
2319.609	3010.1
2323.482	3158.1
2327.351	3015.1
2331.216	2972.1
2335.078	2981.1
2338.937	2988.1
2342.792	2981.1
2346.643	2891.1
2350.492	2849.1
2354.336	2873.1
2358.178	2846.1
2362.015	2847.1
2365.85	3017.1
2369.681	2896.1
2373.508	2937.1
2377.333	2823.1
2381.153	2953.1
2384.971	3005.1
2388.785	2944.1
2392.595	2922.1
2396.402	2983.1
2400.206	3031.1
2404.007	3006.1
2407.804	2883.1
2411.597	2771.1
2415.388	2873.1
2419.174	2769.1
2422.958	2787.1
2426.738	2756.1
2430.515	2608.1
2434.289	2828.1
2438.059	2772.1
2441.825	2772.1
2445.589	2547.1
2449.349	2690.1
2453.106	2583.1
2456.859	2536.1
2460.61	2509.1
2464.356	2606.1
2468.1	2564.1
2471.84	2591.1
2475.577	2590.1
2479.311	2534.1
2483.041	2486.1
2486.768	2373.1
2490.492	2223.1
2494.213	2634.1
2497.93	2450.1
2501.644	2523.1
2505.355	2537.1
2509.062	2435.1
2512.766	2422.1
2516.467	2466.1
2520.165	2430.1
2523.859	2522.1
2527.551	2275.1
2531.239	2383.1
2534.923	2395.1
2538.605	2442.1
2542.283	2293.1
2545.958	2359.1
2549.63	2341.1
2553.299	2234.1
2556.964	2289.1
2560.626	2323.1
2564.285	2232.1
2567.941	2371.1
2571.594	2292.1
2575.243	2190.1
2578.89	2335.1
2582.533	2304.1
2586.173	2291.1
2589.809	2201.1
2593.443	2404.1
2597.073	2279.1
2600.701	2133.1
2604.325	2239.1
2607.946	2211.1
2611.564	2157.1
2615.178	2055.1
2618.79	2071.1
2622.398	2162.1
2626.004	2154.1
2629.606	2009.1
2633.205	2132.1
2636.801	2104.1
2640.394	2022.1
2643.983	2069.1
2647.57	2002.1
2651.153	2026.1
2654.734	1841.1
2658.311	2091.1
2661.885	1937.1
2665.456	1867.1
2669.025	1913.1
2672.589	1885.1
2676.151	1787.1
2679.71	1816.1
2683.266	1932.1
2686.819	1818.1
2690.368	1747.1
2693.915	1773.1
2697.458	1806.1
2700.999	1715.1
2704.536	1701.1
2708.071	1678.1
2711.602	1676.1
2715.13	1654.1
2718.656	1676.1
2722.178	1537.1
2725.697	1633.1
2729.214	1373.1
2732.727	1509.1
2736.237	1538.1
2739.744	1537.1
2743.249	1585.1
2746.75	1521.1
2750.248	1690.1
2753.743	1602.1
2757.236	1603.1
2760.725	1590.1
2764.211	1757.1
2767.695	1593.1
2771.175	1592.1
2774.652	1563.1
2778.127	1578.1
2781.598	1539.1
2785.067	1581.1
2788.532	1543.1
2791.995	1538.1
2795.455	1532.1
2798.911	1547.1
2802.365	1695.1
2805.816	1585.1
2809.264	1509.1
2812.709	1558.1
2816.151	1513.1
2819.59	1720.1
2823.026	1688.1
2826.46	1709.1
2829.89	1679.1
2833.318	1849.1
2836.742	1712.1
2840.164	1663.1
2843.583	1699.1
2846.999	1745.1
2850.412	1662.1
2853.822	1718.1
2857.229	1582.1
2860.634	1719.1
2864.035	1729.1
2867.434	1620.1
2870.83	1615.1
2874.223	1791.1
2877.613	1645.1
2881	1855.1
2884.385	1928.1
2887.766	1868.1
2891.145	1761.1
2894.521	1888.1
2897.894	1982.1
2901.264	1667.1
2904.631	1952.1
2907.996	1926.1
2911.358	1863.1
2914.717	1902.1
2918.073	1880.1
2921.426	1852.1
2924.777	1984.1
2928.124	2043.1
2931.469	1930.1
2934.811	2141.1
2938.15	1956.1
2941.487	2005.1
2944.821	1974.1
2948.152	2068.1
2951.48	2082.1
2954.805	2030.1
2958.128	1949.1
2961.447	2075.1
2964.765	1984.1
2968.079	2127.1
2971.39	2006.1
2974.699	2057.1
2978.005	2002.1
2981.308	2094.1
2984.609	2237.1
2987.907	2104.1
2991.202	2177.1
2994.494	2255.1
2997.784	1867.1
3001.07	2192.1
3004.355	2269.1
3007.636	2305.1
3010.915	2332.1
3014.191	2429.1
3017.464	2351.1
3020.734	2333.1
3024.002	2470.1
3027.267	2494.1
3030.53	2550.1
3033.789	2537.1
3037.046	2648.1
3040.301	2653.1
3043.552	2681.1
3046.801	2797.1
3050.048	2631.1
3053.291	2633.1
3056.532	2839.1
3059.771	2912.1
3063.006	2907.1
3066.239	2952.1
3069.469	3020.1
3072.697	3236.1
3075.922	3194.1
3079.144	3296.1
3082.364	3325.1
3085.581	3549.1
3088.795	3444.1
3092.007	3541.1
3095.216	3726.1
3098.423	3861.1
3101.627	4033.1
3104.828	4017.1
3108.026	4117.1
3111.222	4156.1
3114.416	4144.1
3117.607	4351.1
3120.795	4323.1
3123.98	4468.1
3127.163	4657.1
3130.344	4600.1
3133.521	4706.1
3136.696	4840.1
3139.869	4813.1
3143.039	4987.1
3146.206	4968.1
3149.371	5110.1
3152.533	5226.1
3155.693	5262.1
3158.85	5406.1
3162.005	5403.1
3165.157	5509.1
3168.306	5599.1
3171.453	5443.1
3174.597	5619.1
3177.739	5680.1
3180.878	5574.1
3184.014	5520.1
3187.149	5598.1
3190.28	5508.1
3193.409	5513.1
3196.536	5485.1
3199.659	5529.1
3202.781	5505.1
3205.9	5596.1
3209.016	5524.1
3212.13	5492.1
3215.241	5416.1
3218.35	5505.1
3221.456	5578.1
3224.56	5681.1
3227.661	5642.1
3230.76	5701.1
3233.856	5631.1
3236.95	5530.1
3240.041	5606.1
3243.13	5423.1
3246.216	5441.1
3249.3	5335.1
3252.382	5357.1
3255.46	5436.1
3258.537	5730.1
3261.611	5370.1
3264.682	5226.1
3267.751	5183.1
3270.818	5230.1
3273.882	5101.1
3276.943	5012.1
3280.002	5023.1
3283.059	5025.1
3286.113	4987.1
3289.165	5071.1
3292.214	5014.1
3295.261	4818.1
3298.306	4979.1
3301.348	4834.1
3304.387	4737.1
3307.425	4656.1
3310.459	4650.1
3313.492	4505.1
3316.521	4504.1
3319.549	4379.1
3322.574	4391.1
3325.597	4241.1
3328.617	4310.1
3331.635	4266.1
3334.65	4229.1
3337.663	4259.1
3340.674	4189.1
3343.682	4068.1
3346.688	4117.1
3349.691	4076.1
3352.692	4185.1
3355.691	3944.1
3358.687	4085.1
3361.681	4044.1
3364.673	4057.1
3367.662	3994.1
3370.649	3927.1
3373.633	4003.1
3376.615	3937.1
3379.595	4066.1
3382.572	3994.1
3385.547	3765.1
3388.52	3855.1
3391.49	3727.1
3394.458	3776.1
3397.424	3625.1
3400.387	3710.1
3403.348	3414.1
3406.307	3462.1
3409.263	3481.1
3412.217	3376.1
3415.168	3320.1
3418.118	3321.1
3421.065	3282.1
3424.009	3173.1
3426.951	3208.1
3429.891	2991.1
3432.829	3114.1
3435.764	3173.1
3438.697	3132.1
3441.628	2922.1
3444.557	2941.1
3447.483	2989.1
3450.407	2760.1
3453.328	2646.1
3456.247	2758.1
3459.164	2777.1
3462.079	2597.1
3464.991	2529.1
3467.902	2499.1
3470.809	2472.1
3473.715	2366.1
3476.618	2348.1
3479.519	2198.1
3482.418	2252.1
3485.315	2143.1
3488.209	2001.1
3491.101	2081.1
3493.99	2075.1
3496.878	1732.1
3499.763	1764.1
3502.646	1761.1
3505.527	1882.1
3508.405	1731.1
3511.281	1672.1
3514.155	1677.1
3517.027	1664.1
3519.897	1836.1
3522.764	1491.1
3525.629	1528.1
3528.492	1457.1
3531.352	1380.1
3534.211	1313.1
3537.067	1378.1
3539.921	1253.1
3542.773	1215.1
3545.622	1193.1
3548.469	1240.1
3551.315	1200.1
3554.157	1119.1
3556.998	1038.1
3559.837	942.1
3562.673	858.1
3565.507	1000.1
3568.339	826.1
3571.169	931.1
3573.996	842.1
3576.822	869.1
3579.645	875.1
3582.466	873.1
3585.285	713.1
3588.101	639.1
3590.916	745.1
3593.728	673.1
3596.538	704.1
3599.346	609.1
3602.152	663.1
3604.956	592.1
3607.757	484.1
3610.556	662.1
3613.354	596.1
3616.149	558.1
3618.942	500.1
3621.732	332.1
3624.521	542.1
3627.307	447.1
3630.092	443.1
3632.874	353.1
3635.654	433.1
3638.432	511.1
3641.208	378.1
3643.982	416.1
3646.753	353.1
3649.523	403.1
3652.29	348.1
3655.055	334.1
3657.818	233.1
3660.579	371.1
3663.338	434.1
3666.095	182.1
3668.849	394.1
3671.602	294.1
3674.352	355.1
3677.101	234.1
3679.847	174.1
3682.591	315.1
3685.333	292.1
3688.073	155.1
3690.811	274.1
3693.547	310.1
3696.281	309.1
3699.013	123.1
3701.742	192.1
3704.47	283.1
3707.195	151.1
3709.919	185.1
3712.64	188.1
3715.359	40.1
3718.076	-63.9
3720.792	208.1
3723.505	164.1
3726.216	86.1
3728.925	212.1
3731.632	9.1
3734.336	212.1
3737.039	79.1
3739.74	169.1
3742.439	423.1
3745.136	123.1
3747.83	61.1
3750.523	116.1
3753.213	117.1
3755.902	102.1
3758.589	199.1
3761.273	191.1
3763.956	-1.9
3766.636	138.1
3769.315	-18.9
3771.991	201.1
3774.665	-19.9
3777.338	235.1
3780.008	137.1
3782.677	-72.9
3785.343	240.1
3788.007	189.1
3790.67	58.1
3793.33	37.1
3795.989	121.1
3798.645	18.1
3801.299	181.1
3803.952	89.1
3806.602	44.1
3809.251	127.1
3811.897	90.1
3814.542	99.1
3817.184	122.1
3819.825	163.1
3822.463	20.1
3825.1	41.1
3827.735	140.1
3830.367	43.1
3832.998	-62.9
3835.627	42.1
3838.253	38.1
3840.878	49.1
3843.501	-102.9
3846.122	13.1
3848.741	-59.9
3851.358	69.1
3853.973	202.1
3856.586	62.1
3859.197	-5.9
3861.806	17.1
3864.414	154.1
3867.019	75.1
3869.622	-5.9
3872.224	-23.9
3874.823	143.1
3877.421	94.1
3880.016	149.1
3882.61	263.1
3885.202	181.1
3887.792	167.1
3890.38	28.1
3892.966	103.1
3895.55	80.1
3898.132	66.1
3900.713	-26.9
3903.291	77.1
3905.868	16.1
3908.442	47.1
3911.015	6.1
3913.586	12.1
3916.155	16.1
3918.722	124.1
3921.287	30.1
3923.85	-61.9
3926.411	9.1
3928.971	-27.9
3931.528	-1.9
3934.084	17.1
3936.638	54.1
3939.19	-102.9
3941.74	80.1
3944.288	22.1
3946.834	43.1
3949.378	18.1
3951.921	139.1
3954.462	-7.9
3957	31.1
3959.537	47.1
3962.072	122.1
3964.606	193.1
3967.137	12.1
3969.667	29.1
3972.194	68.1
3974.72	84.1
3977.244	115.1
3979.766	97.1
3982.286	149.1
3984.805	6.1
3987.321	-21.9
3989.836	-16.9
3992.349	83.1
3994.86	0.1
3997.369	111.1
3999.877	6.1
4002.382	27.1
4004.886	66.1
4007.388	51.1
4009.888	182.1
4012.386	1.1
4014.883	48.1
4017.377	23.1
4019.87	-35.9
4022.361	127.1
4024.85	73.1
4027.338	0.1
4029.823	-2.9
4032.307	46.1
4034.789	88.1
4037.269	114.1
4039.747	141.1
4042.224	70.1
4044.699	83.1
4047.172	47.1
4049.643	-23.9
4052.112	145.1
4054.58	71.1
4057.046	84.1
4059.51	98.1
4061.972	-30.9
4064.432	202.1
4066.891	-10.9
4069.348	28.1
4071.803	-23.9
4074.256	22.1
4076.708	81.1
4079.158	19.1
4081.606	-90.9
4084.052	64.1
4086.497	-6.9
4088.939	82.1
4091.38	75.1
4093.819	15.1
4096.257	-1066.9
4098.693	-1085.9
4101.127	-1121.9
4103.559	-1152.9
4105.989	218.1
4108.418	199.1
4110.845	436.1
4113.27	268.1
4115.694	407.1
4118.115	412.1
4120.535	-17.9
4122.954	-51.9
4125.37	-89.9
4127.785	78.1
4130.198	-25.9
4132.609	17.1
4135.019	-1167.9
4137.427	-1143.9
4139.833	-1092.9
4142.237	-963.9
