Data from 2018-2-8_conc=4_RamanShift_04.txt Node
Date: Wed Feb 07 10:33:10 IST 2018
User: aro
Spectrometer: QEPB0276
Trigger mode: 0
Integration Time (sec): 3.000000E1
Scans to average: 1
Electric dark correction enabled: true
Nonlinearity correction enabled: false
Boxcar width: 0
XAxis mode: Raman Shifts
Number of Pixels in Spectrum: 1044
>>>>>Begin Spectral Data<<<<<
160.701	457
166.742	541
172.777	1023
178.805	2536
184.826	5901
190.841	11791
196.849	18766
202.85	23942
208.845	25937
214.833	25622
220.815	25187
226.789	23861
232.758	24838
238.719	24744
244.674	24414
250.623	24018
256.565	23614
262.5	22997
268.429	22453
274.351	22165
280.267	21969
286.176	21302
292.079	21097
297.975	20838
303.865	20555
309.748	20410
315.625	20280
321.495	19772
327.359	19766
333.217	19843
339.068	19814
344.912	19772
350.751	19720
356.583	19665
362.408	19646
368.227	19688
374.04	19798
379.847	19829
385.647	20008
391.44	20163
397.228	20162
403.009	20324
408.784	20478
414.553	20520
420.315	20630
426.071	20678
431.821	20567
437.565	20628
443.302	20382
449.033	20354
454.758	20273
460.477	20158
466.189	20107
471.896	20076
477.596	19927
483.29	19940
488.978	19873
494.66	19926
500.335	19792
506.005	19729
511.668	19416
517.325	19441
522.977	19231
528.622	19215
534.261	19011
539.894	18889
545.521	18919
551.141	18783
556.756	18499
562.365	18399
567.968	18293
573.565	18247
579.155	17981
584.74	17911
590.319	17874
595.892	17860
601.459	17765
607.02	17786
612.575	17849
618.124	17749
623.667	17721
629.204	17709
634.735	17752
640.261	17541
645.781	17776
651.294	17432
656.802	17220
662.304	17228
667.8	16963
673.29	16982
678.775	16814
684.254	16912
689.726	16978
695.193	16750
700.655	16791
706.11	16916
711.56	16792
717.004	16831
722.442	16998
727.874	16778
733.301	16753
738.722	16783
744.137	16677
749.547	16537
754.951	16490
760.349	16310
765.741	16203
771.128	16099
776.509	16184
781.885	16115
787.254	16176
792.618	16275
797.977	16313
803.33	16347
808.677	16419
814.019	16299
819.355	16306
824.686	16335
830.011	16324
835.33	16083
840.644	15820
845.952	15956
851.255	15673
856.552	15662
861.844	15408
867.13	15413
872.41	15392
877.686	15327
882.955	15365
888.219	15450
893.478	15568
898.731	15390
903.979	15357
909.221	15404
914.458	15324
919.69	15104
924.916	14986
930.136	14784
935.351	14717
940.561	14485
945.766	14428
950.965	14228
956.158	14366
961.347	14410
966.529	14341
971.707	14360
976.879	14337
982.046	14401
987.208	14479
992.364	14240
997.515	14185
1002.66	14058
1007.801	14179
1012.936	14117
1018.066	14121
1023.19	14007
1028.309	13883
1033.423	13975
1038.532	14070
1043.636	14302
1048.734	14157
1053.827	14323
1058.915	14227
1063.998	14154
1069.075	13968
1074.147	13806
1079.214	13833
1084.276	13523
1089.333	13566
1094.385	13476
1099.431	13522
1104.472	13421
1109.509	13525
1114.54	13674
1119.565	13721
1124.586	13666
1129.602	13619
1134.613	13646
1139.618	13475
1144.619	13245
1149.614	13094
1154.604	13008
1159.589	12923
1164.57	12680
1169.545	12777
1174.515	12784
1179.48	12879
1184.44	12950
1189.395	13066
1194.345	13197
1199.29	13191
1204.23	13240
1209.165	13163
1214.095	13032
1219.021	12928
1223.941	12799
1228.856	12919
1233.766	12899
1238.672	12759
1243.572	12724
1248.467	12779
1253.358	12989
1258.244	12997
1263.124	12776
1268	12673
1272.871	12720
1277.737	12678
1282.599	12447
1287.455	12249
1292.306	12079
1297.153	12160
1301.995	11937
1306.832	11877
1311.664	11918
1316.491	12002
1321.314	11905
1326.132	11943
1330.945	11853
1335.753	11745
1340.556	11648
1345.354	11485
1350.148	11258
1354.937	11033
1359.722	11112
1364.501	10823
1369.276	10652
1374.046	10695
1378.811	10865
1383.572	10971
1388.327	10721
1393.079	11122
1397.825	11277
1402.567	11197
1407.304	11105
1412.036	11115
1416.764	11043
1421.487	11090
1426.205	10908
1430.919	10690
1435.628	10608
1440.333	10612
1445.032	10419
1449.727	10463
1454.418	10537
1459.104	10436
1463.785	10221
1468.462	10263
1473.134	10225
1477.802	10115
1482.465	10169
1487.123	9839
1491.777	9877
1496.426	9826
1501.071	9644
1505.711	9704
1510.347	9678
1514.978	9814
1519.604	9881
1524.226	9974
1528.844	10245
1533.457	10162
1538.065	10263
1542.669	10304
1547.269	10397
1551.864	10394
1556.454	10453
1561.041	10448
1565.622	10361
1570.199	10155
1574.772	10062
1579.34	9855
1583.904	10033
1588.464	10029
1593.019	10010
1597.569	10231
1602.115	10253
1606.657	10305
1611.195	10372
1615.728	10391
1620.256	10475
1624.78	10565
1629.3	10513
1633.816	10327
1638.327	10290
1642.834	10191
1647.336	10139
1651.834	10094
1656.328	10144
1660.817	10015
1665.302	10093
1669.783	10106
1674.259	9947
1678.732	9655
1683.199	9428
1687.663	9279
1692.122	8872
1696.577	8633
1701.028	8781
1705.474	8574
1709.917	8517
1714.355	8529
1718.788	8438
1723.218	8235
1727.643	8045
1732.064	7913
1736.481	7953
1740.893	7713
1745.301	7586
1749.705	7674
1754.105	7248
1758.501	7254
1762.893	6980
1767.28	6992
1771.663	6692
1776.042	6533
1780.417	6472
1784.787	6299
1789.154	6372
1793.516	6236
1797.874	6450
1802.228	6644
1806.578	6776
1810.924	6635
1815.266	7675
1819.603	6721
1823.937	6724
1828.266	6625
1832.591	6569
1836.913	6433
1841.23	6499
1845.543	6497
1849.852	6276
1854.156	6313
1858.457	6286
1862.754	5955
1867.047	6103
1871.335	6054
1875.62	5975
1879.9	5968
1884.177	6111
1888.449	5993
1892.718	5965
1896.982	5924
1901.243	6054
1905.499	5965
1909.752	5958
1914	6018
1918.245	5870
1922.485	5883
1926.722	5973
1930.954	5980
1935.183	5988
1939.408	5969
1943.628	6028
1947.845	6013
1952.058	6045
1956.267	5896
1960.472	5973
1964.673	5957
1968.87	6026
1973.063	6004
1977.252	5915
1981.438	5829
1985.619	5705
1989.797	5654
1993.971	5650
1998.14	5426
2002.306	5463
2006.469	5454
2010.627	5431
2014.781	5374
2018.932	5485
2023.078	5252
2027.221	5229
2031.36	5303
2035.495	5350
2039.627	5254
2043.754	5174
2047.878	5136
2051.998	5117
2056.114	5140
2060.226	5091
2064.334	5029
2068.439	4940
2072.54	4952
2076.637	5107
2080.73	5038
2084.82	5001
2088.906	5037
2092.988	5107
2097.066	5212
2101.14	5017
2105.211	5157
2109.278	5130
2113.342	5148
2117.401	5194
2121.457	5176
2125.509	5116
2129.558	4909
2133.602	5001
2137.643	4878
2141.681	4842
2145.714	4831
2149.744	4756
2153.77	4793
2157.793	4714
2161.812	4753
2165.827	4738
2169.838	4586
2173.846	4629
2177.851	4520
2181.851	4487
2185.848	4676
2189.841	4377
2193.831	4457
2197.817	4204
2201.799	4266
2205.778	4310
2209.753	4299
2213.725	4155
2217.693	4247
2221.657	4196
2225.618	3787
2229.575	4130
2233.529	4056
2237.479	4102
2241.425	4022
2245.368	4192
2249.307	4062
2253.243	4046
2257.175	4133
2261.104	3894
2265.029	3916
2268.95	3835
2272.868	3802
2276.783	3784
2280.694	3574
2284.601	3590
2288.505	3598
2292.405	3525
2296.302	3548
2300.195	3416
2304.085	3546
2307.971	3425
2311.854	3464
2315.734	3449
2319.609	3440
2323.482	3525
2327.351	3383
2331.216	3328
2335.078	3337
2338.937	3345
2342.792	3402
2346.643	3276
2350.492	3215
2354.336	3227
2358.178	3198
2362.015	3148
2365.85	3391
2369.681	3276
2373.508	3231
2377.333	3185
2381.153	3292
2384.971	3274
2388.785	3289
2392.595	3315
2396.402	3281
2400.206	3320
2404.007	3331
2407.804	3214
2411.597	3115
2415.388	3224
2419.174	3136
2422.958	3172
2426.738	3085
2430.515	2898
2434.289	3126
2438.059	3064
2441.825	3059
2445.589	2876
2449.349	3026
2453.106	2938
2456.859	2929
2460.61	2786
2464.356	2912
2468.1	2887
2471.84	2883
2475.577	2925
2479.311	2754
2483.041	2740
2486.768	2690
2490.492	2515
2494.213	2879
2497.93	2771
2501.644	2794
2505.355	2820
2509.062	2768
2512.766	2760
2516.467	2687
2520.165	2661
2523.859	2817
2527.551	2544
2531.239	2678
2534.923	2687
2538.605	2753
2542.283	2621
2545.958	2681
2549.63	2574
2553.299	2528
2556.964	2579
2560.626	2596
2564.285	2518
2567.941	2613
2571.594	2595
2575.243	2528
2578.89	2565
2582.533	2588
2586.173	2521
2589.809	2476
2593.443	2734
2597.073	2525
2600.701	2358
2604.325	2503
2607.946	2446
2611.564	2399
2615.178	2338
2618.79	2333
2622.398	2412
2626.004	2377
2629.606	2286
2633.205	2476
2636.801	2359
2640.394	2251
2643.983	2189
2647.57	2307
2651.153	2237
2654.734	2160
2658.311	2359
2661.885	2217
2665.456	2169
2669.025	2139
2672.589	2075
2676.151	1996
2679.71	2050
2683.266	2011
2686.819	2006
2690.368	1961
2693.915	1971
2697.458	2033
2700.999	1890
2704.536	1887
2708.071	1927
2711.602	1871
2715.13	1897
2718.656	1872
2722.178	1793
2725.697	1826
2729.214	1542
2732.727	1718
2736.237	1752
2739.744	1717
2743.249	1806
2746.75	1780
2750.248	1845
2753.743	1869
2757.236	1800
2760.725	1772
2764.211	2039
2767.695	1793
2771.175	1863
2774.652	1799
2778.127	1846
2781.598	1828
2785.067	1800
2788.532	1803
2791.995	1738
2795.455	1774
2798.911	1792
2802.365	1961
2805.816	1818
2809.264	1788
2812.709	1850
2816.151	1831
2819.59	1923
2823.026	1893
2826.46	1908
2829.89	1866
2833.318	2053
2836.742	1867
2840.164	1885
2843.583	1963
2846.999	1949
2850.412	1931
2853.822	2044
2857.229	1894
2860.634	1942
2864.035	2000
2867.434	1996
2870.83	1994
2874.223	2103
2877.613	1981
2881	2149
2884.385	2236
2887.766	2159
2891.145	2105
2894.521	2251
2897.894	2276
2901.264	1995
2904.631	2247
2907.996	2169
2911.358	2183
2914.717	2239
2918.073	2257
2921.426	2194
2924.777	2335
2928.124	2403
2931.469	2244
2934.811	2488
2938.15	2389
2941.487	2469
2944.821	2118
2948.152	2503
2951.48	2429
2954.805	2381
2958.128	2349
2961.447	2503
2964.765	2373
2968.079	2449
2971.39	2439
2974.699	2515
2978.005	2476
2981.308	2539
2984.609	2652
2987.907	2499
2991.202	2687
2994.494	2688
2997.784	2456
3001.07	2665
3004.355	2688
3007.636	2781
3010.915	2846
3014.191	2868
3017.464	2904
3020.734	2840
3024.002	2981
3027.267	2995
3030.53	3041
3033.789	3122
3037.046	3198
3040.301	3180
3043.552	3232
3046.801	3355
3050.048	3265
3053.291	3221
3056.532	3440
3059.771	3584
3063.006	3601
3066.239	3643
3069.469	3755
3072.697	4009
3075.922	4036
3079.144	4016
3082.364	4123
3085.581	4387
3088.795	4187
3092.007	4440
3095.216	4622
3098.423	4955
3101.627	4979
3104.828	5057
3108.026	5115
3111.222	5180
3114.416	5160
3117.607	5450
3120.795	5450
3123.98	5602
3127.163	5740
3130.344	5774
3133.521	5900
3136.696	6050
3139.869	6083
3143.039	6215
3146.206	6233
3149.371	6316
3152.533	6535
3155.693	6696
3158.85	6807
3162.005	6747
3165.157	6935
3168.306	6967
3171.453	6868
3174.597	7089
3177.739	7085
3180.878	7003
3184.014	6982
3187.149	7093
3190.28	6922
3193.409	6962
3196.536	6960
3199.659	6910
3202.781	6894
3205.9	7071
3209.016	6990
3212.13	6954
3215.241	6918
3218.35	6984
3221.456	7018
3224.56	7118
3227.661	7102
3230.76	7178
3233.856	7128
3236.95	7026
3240.041	7079
3243.13	6843
3246.216	6937
3249.3	6769
3252.382	6780
3255.46	6932
3258.537	7170
3261.611	6822
3264.682	6690
3267.751	6557
3270.818	6667
3273.882	6434
3276.943	6479
3280.002	6311
3283.059	6345
3286.113	6352
3289.165	6394
3292.214	6310
3295.261	6144
3298.306	6196
3301.348	6042
3304.387	6000
3307.425	5968
3310.459	5869
3313.492	5722
3316.521	5654
3319.549	5578
3322.574	5560
3325.597	5337
3328.617	5397
3331.635	5322
3334.65	5326
3337.663	5302
3340.674	5204
3343.682	5134
3346.688	5092
3349.691	5136
3352.692	5198
3355.691	5057
3358.687	5047
3361.681	5084
3364.673	5044
3367.662	4987
3370.649	4815
3373.633	5027
3376.615	4959
3379.595	4994
3382.572	4931
3385.547	4731
3388.52	4809
3391.49	4692
3394.458	4653
3397.424	4523
3400.387	4617
3403.348	4285
3406.307	4365
3409.263	4360
3412.217	4233
3415.168	4213
3418.118	4155
3421.065	4089
3424.009	3936
3426.951	4029
3429.891	3784
3432.829	3920
3435.764	3938
3438.697	3819
3441.628	3632
3444.557	3730
3447.483	3739
3450.407	3498
3453.328	3327
3456.247	3475
3459.164	3453
3462.079	3225
3464.991	3175
3467.902	3104
3470.809	3079
3473.715	2916
3476.618	2892
3479.519	2749
3482.418	2852
3485.315	2669
3488.209	2541
3491.101	2538
3493.99	2572
3496.878	2200
3499.763	2245
3502.646	2234
3505.527	2270
3508.405	2098
3511.281	2025
3514.155	2153
3517.027	2046
3519.897	2142
3522.764	1869
3525.629	1970
3528.492	1798
3531.352	1708
3534.211	1665
3537.067	1677
3539.921	1545
3542.773	1486
3545.622	1460
3548.469	1505
3551.315	1406
3554.157	1273
3556.998	1256
3559.837	1173
3562.673	1028
3565.507	1149
3568.339	962
3571.169	1087
3573.996	1024
3576.822	1037
3579.645	1004
3582.466	941
3585.285	864
3588.101	839
3590.916	849
3593.728	751
3596.538	839
3599.346	717
3602.152	780
3604.956	781
3607.757	577
3610.556	756
3613.354	610
3616.149	638
3618.942	561
3621.732	370
3624.521	628
3627.307	486
3630.092	505
3632.874	384
3635.654	511
3638.432	526
3641.208	395
3643.982	420
3646.753	389
3649.523	416
3652.29	410
3655.055	449
3657.818	272
3660.579	241
3663.338	456
3666.095	221
3668.849	377
3671.602	239
3674.352	395
3677.101	257
3679.847	146
3682.591	276
3685.333	270
3688.073	168
3690.811	284
3693.547	146
3696.281	272
3699.013	128
3701.742	144
3704.47	269
3707.195	162
3709.919	128
3712.64	121
3715.359	-12
3718.076	-53
3720.792	131
3723.505	82
3726.216	89
3728.925	144
3731.632	-18
3734.336	188
3737.039	84
3739.74	130
3742.439	159
3745.136	41
3747.83	56
3750.523	74
3753.213	80
3755.902	76
3758.589	176
3761.273	104
3763.956	-44
3766.636	106
3769.315	-117
3771.991	127
3774.665	20
3777.338	166
3780.008	75
3782.677	30
3785.343	161
3788.007	134
3790.67	38
3793.33	-35
3795.989	79
3798.645	11
3801.299	142
3803.952	-22
3806.602	15
3809.251	27
3811.897	101
3814.542	82
3817.184	36
3819.825	91
3822.463	-6
3825.1	14
3827.735	72
3830.367	36
3832.998	-86
3835.627	-48
3838.253	-6
3840.878	-176
3843.501	-99
3846.122	-17
3848.741	-60
3851.358	-5
3853.973	150
3856.586	-10
3859.197	-69
3861.806	-11
3864.414	63
3867.019	60
3869.622	-98
3872.224	-81
3874.823	49
3877.421	21
3880.016	131
3882.61	147
3885.202	165
3887.792	140
3890.38	-59
3892.966	46
3895.55	4
3898.132	2
3900.713	-60
3903.291	-37
3905.868	-98
3908.442	51
3911.015	9
3913.586	1
3916.155	-42
3918.722	70
3921.287	-16
3923.85	-272
3926.411	-2
3928.971	-79
3931.528	-24
3934.084	-44
3936.638	-35
3939.19	-68
3941.74	-60
3944.288	-42
3946.834	-2
3949.378	-34
3951.921	58
3954.462	27
3957	-5
3959.537	4
3962.072	25
3964.606	113
3967.137	-28
3969.667	-22
3972.194	-20
3974.72	-2
3977.244	85
3979.766	29
3982.286	126
3984.805	-67
3987.321	-102
3989.836	-14
3992.349	52
3994.86	-34
3997.369	-24
3999.877	-58
4002.382	-26
4004.886	19
4007.388	-46
4009.888	144
4012.386	11
4014.883	25
4017.377	-7
4019.87	-124
4022.361	35
4024.85	146
4027.338	89
4029.823	-52
4032.307	-37
4034.789	27
4037.269	74
4039.747	110
4042.224	-44
4044.699	5
4047.172	-1
4049.643	-87
4052.112	91
4054.58	-11
4057.046	18
4059.51	51
4061.972	-85
4064.432	92
4066.891	-96
4069.348	27
4071.803	-30
4074.256	-58
4076.708	22
4079.158	-47
4081.606	-89
4084.052	14
4086.497	-177
4088.939	38
4091.38	14
4093.819	-54
4096.257	-1151
4098.693	-1155
4101.127	-1184
4103.559	-1221
4105.989	127
4108.418	183
4110.845	393
4113.27	219
4115.694	360
4118.115	363
4120.535	-37
4122.954	-102
4125.37	-123
4127.785	-57
4130.198	-72
4132.609	-64
4135.019	-1222
4137.427	-1182
4139.833	-1142
4142.237	-1011
