Data from 2018-2-8_conc=2_RamanShift_08.txt Node
Date: Wed Feb 07 09:54:10 IST 2018
User: aro
Spectrometer: QEPB0276
Trigger mode: 0
Integration Time (sec): 3.000000E1
Scans to average: 1
Electric dark correction enabled: true
Nonlinearity correction enabled: false
Boxcar width: 0
XAxis mode: Raman Shifts
Number of Pixels in Spectrum: 1044
>>>>>Begin Spectral Data<<<<<
160.701	568.6
166.742	679.6
172.777	1128.6
178.805	2754.6
184.826	6218.6
190.841	12109.6
196.849	19253.6
202.85	24323.6
208.845	26455.6
214.833	26155.6
220.815	25835.6
226.789	25726.6
232.758	25627.6
238.719	25531.6
244.674	25392.6
250.623	24853.6
256.565	24537.6
262.5	24158.6
268.429	23466.6
274.351	23254.6
280.267	23073.6
286.176	22639.6
292.079	22349.6
297.975	22049.6
303.865	21903.6
309.748	21716.6
315.625	21614.6
321.495	21179.6
327.359	21188.6
333.217	21220.6
339.068	21088.6
344.912	21146.6
350.751	21090.6
356.583	21141.6
362.408	21055.6
368.227	21062.6
374.04	21220.6
379.847	21212.6
385.647	21325.6
391.44	21650.6
397.228	21621.6
403.009	21767.6
408.784	21892.6
414.553	22010.6
420.315	22047.6
426.071	22183.6
431.821	22093.6
437.565	22105.6
443.302	21859.6
449.033	21969.6
454.758	21789.6
460.477	21605.6
466.189	21542.6
471.896	21391.6
477.596	21366.6
483.29	21319.6
488.978	21377.6
494.66	21363.6
500.335	21249.6
506.005	21198.6
511.668	20985.6
517.325	20889.6
522.977	20702.6
528.622	20568.6
534.261	20499.6
539.894	20386.6
545.521	20341.6
551.141	20250.6
556.756	20046.6
562.365	19916.6
567.968	19704.6
573.565	19624.6
579.155	19482.6
584.74	19434.6
590.319	19295.6
595.892	19369.6
601.459	19277.6
607.02	19197.6
612.575	19245.6
618.124	19127.6
623.667	19356.6
629.204	19165.6
634.735	19213.6
640.261	19030.6
645.781	19216.6
651.294	18938.6
656.802	18793.6
662.304	18656.6
667.8	18384.6
673.29	18478.6
678.775	18236.6
684.254	18369.6
689.726	18461.6
695.193	18201.6
700.655	18223.6
706.11	18440.6
711.56	18258.6
717.004	18279.6
722.442	18181.6
727.874	18244.6
733.301	18269.6
738.722	18334.6
744.137	18109.6
749.547	18054.6
754.951	17965.6
760.349	17801.6
765.741	17652.6
771.128	17563.6
776.509	17608.6
781.885	17669.6
787.254	17612.6
792.618	17696.6
797.977	17744.6
803.33	17845.6
808.677	17855.6
814.019	17802.6
819.355	17869.6
824.686	17811.6
830.011	17821.6
835.33	17538.6
840.644	17402.6
845.952	17457.6
851.255	17191.6
856.552	17074.6
861.844	16951.6
867.13	16975.6
872.41	16837.6
877.686	16812.6
882.955	16907.6
888.219	16949.6
893.478	17096.6
898.731	16892.6
903.979	16814.6
909.221	16905.6
914.458	16916.6
919.69	16563.6
924.916	16520.6
930.136	16316.6
935.351	16312.6
940.561	15966.6
945.766	15830.6
950.965	15743.6
956.158	15865.6
961.347	15864.6
966.529	15919.6
971.707	15818.6
976.879	15811.6
982.046	15928.6
987.208	15973.6
992.364	15834.6
997.515	15757.6
1002.66	15576.6
1007.801	15674.6
1012.936	15598.6
1018.066	15740.6
1023.19	15443.6
1028.309	15427.6
1033.423	15519.6
1038.532	15587.6
1043.636	15807.6
1048.734	15797.6
1053.827	15839.6
1058.915	15865.6
1063.998	15710.6
1069.075	15570.6
1074.147	15367.6
1079.214	15372.6
1084.276	14991.6
1089.333	14997.6
1094.385	14937.6
1099.431	15137.6
1104.472	14937.6
1109.509	15130.6
1114.54	15213.6
1119.565	15258.6
1124.586	15119.6
1129.602	15257.6
1134.613	15178.6
1139.618	15026.6
1144.619	14828.6
1149.614	14572.6
1154.604	14495.6
1159.589	14457.6
1164.57	14206.6
1169.545	14224.6
1174.515	14241.6
1179.48	14340.6
1184.44	14484.6
1189.395	14620.6
1194.345	14733.6
1199.29	14661.6
1204.23	14825.6
1209.165	14705.6
1214.095	14566.6
1219.021	14426.6
1223.941	14478.6
1228.856	14428.6
1233.766	14385.6
1238.672	14302.6
1243.572	14240.6
1248.467	14248.6
1253.358	14418.6
1258.244	14421.6
1263.124	14295.6
1268	14242.6
1272.871	14253.6
1277.737	14156.6
1282.599	13927.6
1287.455	13795.6
1292.306	13483.6
1297.153	13579.6
1301.995	13466.6
1306.832	13412.6
1311.664	13377.6
1316.491	13443.6
1321.314	13446.6
1326.132	13389.6
1330.945	13278.6
1335.753	13224.6
1340.556	13038.6
1345.354	12881.6
1350.148	12568.6
1354.937	12374.6
1359.722	12352.6
1364.501	12044.6
1369.276	11919.6
1374.046	11941.6
1378.811	12102.6
1383.572	12155.6
1388.327	12014.6
1393.079	12438.6
1397.825	12580.6
1402.567	12570.6
1407.304	12426.6
1412.036	12488.6
1416.764	12456.6
1421.487	12611.6
1426.205	12269.6
1430.919	12028.6
1435.628	11930.6
1440.333	11894.6
1445.032	11762.6
1449.727	11796.6
1454.418	11726.6
1459.104	11705.6
1463.785	11536.6
1468.462	11440.6
1473.134	11488.6
1477.802	11299.6
1482.465	11327.6
1487.123	10964.6
1491.777	11056.6
1496.426	10901.6
1501.071	10677.6
1505.711	10639.6
1510.347	10717.6
1514.978	10858.6
1519.604	11010.6
1524.226	11006.6
1528.844	11406.6
1533.457	11262.6
1538.065	11480.6
1542.669	11497.6
1547.269	11575.6
1551.864	11550.6
1556.454	11734.6
1561.041	11573.6
1565.622	11627.6
1570.199	11352.6
1574.772	11333.6
1579.34	11140.6
1583.904	11205.6
1588.464	11215.6
1593.019	11198.6
1597.569	11361.6
1602.115	11372.6
1606.657	11462.6
1611.195	11435.6
1615.728	11466.6
1620.256	11587.6
1624.78	11612.6
1629.3	11583.6
1633.816	11350.6
1638.327	11378.6
1642.834	11205.6
1647.336	11191.6
1651.834	11044.6
1656.328	11097.6
1660.817	11012.6
1665.302	11066.6
1669.783	11053.6
1674.259	10853.6
1678.732	10499.6
1683.199	10300.6
1687.663	10192.6
1692.122	9662.6
1696.577	9397.6
1701.028	9337.6
1705.474	9249.6
1709.917	9336.6
1714.355	9335.6
1718.788	9215.6
1723.218	9157.6
1727.643	8966.6
1732.064	8787.6
1736.481	8906.6
1740.893	8618.6
1745.301	8480.6
1749.705	8693.6
1754.105	8161.6
1758.501	8145.6
1762.893	7763.6
1767.28	7737.6
1771.663	7528.6
1776.042	7282.6
1780.417	7187.6
1784.787	6873.6
1789.154	6914.6
1793.516	6871.6
1797.874	7059.6
1802.228	7182.6
1806.578	7452.6
1810.924	7371.6
1815.266	8232.6
1819.603	7437.6
1823.937	7533.6
1828.266	7389.6
1832.591	7444.6
1836.913	7319.6
1841.23	7291.6
1845.543	7247.6
1849.852	7025.6
1854.156	7021.6
1858.457	7024.6
1862.754	6952.6
1867.047	6915.6
1871.335	6764.6
1875.62	6688.6
1879.9	6656.6
1884.177	6803.6
1888.449	6613.6
1892.718	6667.6
1896.982	6519.6
1901.243	6698.6
1905.499	6529.6
1909.752	6491.6
1914	6576.6
1918.245	6506.6
1922.485	6511.6
1926.722	6505.6
1930.954	6447.6
1935.183	6566.6
1939.408	6519.6
1943.628	6553.6
1947.845	6600.6
1952.058	6657.6
1956.267	6532.6
1960.472	6544.6
1964.673	6718.6
1968.87	6667.6
1973.063	6679.6
1977.252	6543.6
1981.438	6506.6
1985.619	6353.6
1989.797	6324.6
1993.971	6297.6
1998.14	6024.6
2002.306	6208.6
2006.469	6017.6
2010.627	6059.6
2014.781	6007.6
2018.932	6064.6
2023.078	5844.6
2027.221	5904.6
2031.36	5922.6
2035.495	5915.6
2039.627	5789.6
2043.754	5724.6
2047.878	5735.6
2051.998	5646.6
2056.114	5647.6
2060.226	5679.6
2064.334	5563.6
2068.439	5443.6
2072.54	5411.6
2076.637	5620.6
2080.73	5488.6
2084.82	5494.6
2088.906	5557.6
2092.988	5478.6
2097.066	5623.6
2101.14	5545.6
2105.211	5574.6
2109.278	5604.6
2113.342	5623.6
2117.401	5702.6
2121.457	5620.6
2125.509	5644.6
2129.558	5433.6
2133.602	5492.6
2137.643	5448.6
2141.681	5368.6
2145.714	5356.6
2149.744	5255.6
2153.77	5335.6
2157.793	5263.6
2161.812	5295.6
2165.827	5314.6
2169.838	5086.6
2173.846	5167.6
2177.851	5058.6
2181.851	4942.6
2185.848	5132.6
2189.841	4907.6
2193.831	4988.6
2197.817	4789.6
2201.799	4767.6
2205.778	4840.6
2209.753	4798.6
2213.725	4846.6
2217.693	4758.6
2221.657	4785.6
2225.618	4528.6
2229.575	4636.6
2233.529	4559.6
2237.479	4661.6
2241.425	4562.6
2245.368	4711.6
2249.307	4622.6
2253.243	4556.6
2257.175	4541.6
2261.104	4455.6
2265.029	4391.6
2268.95	4346.6
2272.868	4330.6
2276.783	4321.6
2280.694	4091.6
2284.601	4094.6
2288.505	4096.6
2292.405	4023.6
2296.302	4085.6
2300.195	3990.6
2304.085	4071.6
2307.971	3961.6
2311.854	3949.6
2315.734	3815.6
2319.609	3941.6
2323.482	4032.6
2327.351	3889.6
2331.216	3897.6
2335.078	3886.6
2338.937	3888.6
2342.792	3922.6
2346.643	3779.6
2350.492	3774.6
2354.336	3788.6
2358.178	3756.6
2362.015	3735.6
2365.85	3817.6
2369.681	3862.6
2373.508	3786.6
2377.333	3763.6
2381.153	3827.6
2384.971	3880.6
2388.785	3850.6
2392.595	3874.6
2396.402	3917.6
2400.206	3939.6
2404.007	3904.6
2407.804	3809.6
2411.597	3669.6
2415.388	3805.6
2419.174	3742.6
2422.958	3705.6
2426.738	3628.6
2430.515	3519.6
2434.289	3657.6
2438.059	3673.6
2441.825	3590.6
2445.589	3399.6
2449.349	3605.6
2453.106	3475.6
2456.859	3464.6
2460.61	3379.6
2464.356	3416.6
2468.1	3449.6
2471.84	3449.6
2475.577	3407.6
2479.311	3362.6
2483.041	3260.6
2486.768	3163.6
2490.492	2972.6
2494.213	3437.6
2497.93	3345.6
2501.644	3267.6
2505.355	3293.6
2509.062	3169.6
2512.766	3210.6
2516.467	3307.6
2520.165	3257.6
2523.859	3332.6
2527.551	2934.6
2531.239	3163.6
2534.923	3178.6
2538.605	3072.6
2542.283	3131.6
2545.958	3092.6
2549.63	3022.6
2553.299	3013.6
2556.964	3024.6
2560.626	3092.6
2564.285	2954.6
2567.941	3074.6
2571.594	3056.6
2575.243	2961.6
2578.89	3088.6
2582.533	3057.6
2586.173	3024.6
2589.809	2934.6
2593.443	3184.6
2597.073	3022.6
2600.701	2878.6
2604.325	2959.6
2607.946	2997.6
2611.564	2902.6
2615.178	2777.6
2618.79	2825.6
2622.398	2934.6
2626.004	2891.6
2629.606	2782.6
2633.205	2978.6
2636.801	2840.6
2640.394	2751.6
2643.983	2769.6
2647.57	2829.6
2651.153	2707.6
2654.734	2528.6
2658.311	2806.6
2661.885	2685.6
2665.456	2553.6
2669.025	2620.6
2672.589	2550.6
2676.151	2431.6
2679.71	2426.6
2683.266	2414.6
2686.819	2469.6
2690.368	2417.6
2693.915	2395.6
2697.458	2526.6
2700.999	2285.6
2704.536	2280.6
2708.071	2317.6
2711.602	2218.6
2715.13	2260.6
2718.656	2174.6
2722.178	2142.6
2725.697	2176.6
2729.214	1883.6
2732.727	2014.6
2736.237	2191.6
2739.744	2046.6
2743.249	2114.6
2746.75	2022.6
2750.248	2127.6
2753.743	2128.6
2757.236	2078.6
2760.725	2054.6
2764.211	2328.6
2767.695	2144.6
2771.175	2131.6
2774.652	2200.6
2778.127	2086.6
2781.598	2135.6
2785.067	2145.6
2788.532	2107.6
2791.995	2097.6
2795.455	2110.6
2798.911	2048.6
2802.365	2221.6
2805.816	2133.6
2809.264	2009.6
2812.709	2198.6
2816.151	2184.6
2819.59	2213.6
2823.026	2250.6
2826.46	2172.6
2829.89	2200.6
2833.318	2388.6
2836.742	2227.6
2840.164	2169.6
2843.583	2281.6
2846.999	2251.6
2850.412	2239.6
2853.822	2225.6
2857.229	2153.6
2860.634	2231.6
2864.035	2290.6
2867.434	2215.6
2870.83	2275.6
2874.223	2348.6
2877.613	2228.6
2881	2415.6
2884.385	2487.6
2887.766	2435.6
2891.145	2397.6
2894.521	2556.6
2897.894	2553.6
2901.264	2226.6
2904.631	2537.6
2907.996	2503.6
2911.358	2544.6
2914.717	2460.6
2918.073	2508.6
2921.426	2456.6
2924.777	2601.6
2928.124	2531.6
2931.469	2433.6
2934.811	2756.6
2938.15	2519.6
2941.487	2587.6
2944.821	2537.6
2948.152	2722.6
2951.48	2666.6
2954.805	2628.6
2958.128	2549.6
2961.447	2674.6
2964.765	2490.6
2968.079	2694.6
2971.39	2601.6
2974.699	2626.6
2978.005	2624.6
2981.308	2723.6
2984.609	2790.6
2987.907	2667.6
2991.202	2775.6
2994.494	2906.6
2997.784	2494.6
3001.07	2770.6
3004.355	2855.6
3007.636	2911.6
3010.915	3000.6
3014.191	2980.6
3017.464	3013.6
3020.734	2968.6
3024.002	3083.6
3027.267	3101.6
3030.53	3184.6
3033.789	3201.6
3037.046	3345.6
3040.301	3348.6
3043.552	3348.6
3046.801	3453.6
3050.048	3310.6
3053.291	3277.6
3056.532	3521.6
3059.771	3650.6
3063.006	3613.6
3066.239	3646.6
3069.469	3797.6
3072.697	3995.6
3075.922	4052.6
3079.144	4119.6
3082.364	4138.6
3085.581	4386.6
3088.795	4288.6
3092.007	4425.6
3095.216	4661.6
3098.423	4854.6
3101.627	4970.6
3104.828	5041.6
3108.026	5095.6
3111.222	5121.6
3114.416	5107.6
3117.607	5407.6
3120.795	5400.6
3123.98	5499.6
3127.163	5720.6
3130.344	5716.6
3133.521	5775.6
3136.696	5926.6
3139.869	5980.6
3143.039	6079.6
3146.206	6082.6
3149.371	6238.6
3152.533	6424.6
3155.693	6568.6
3158.85	6551.6
3162.005	6613.6
3165.157	6739.6
3168.306	6800.6
3171.453	6738.6
3174.597	6907.6
3177.739	7007.6
3180.878	6812.6
3184.014	6776.6
3187.149	6830.6
3190.28	6831.6
3193.409	6757.6
3196.536	6742.6
3199.659	6681.6
3202.781	6690.6
3205.9	6882.6
3209.016	6760.6
3212.13	6755.6
3215.241	6660.6
3218.35	6738.6
3221.456	6955.6
3224.56	6954.6
3227.661	6870.6
3230.76	6829.6
3233.856	6858.6
3236.95	6848.6
3240.041	6940.6
3243.13	6667.6
3246.216	6721.6
3249.3	6575.6
3252.382	6617.6
3255.46	6676.6
3258.537	7013.6
3261.611	6640.6
3264.682	6401.6
3267.751	6449.6
3270.818	6513.6
3273.882	6293.6
3276.943	6198.6
3280.002	6154.6
3283.059	6182.6
3286.113	6197.6
3289.165	6227.6
3292.214	6103.6
3295.261	5931.6
3298.306	6041.6
3301.348	5924.6
3304.387	5813.6
3307.425	5715.6
3310.459	5763.6
3313.492	5568.6
3316.521	5583.6
3319.549	5403.6
3322.574	5387.6
3325.597	5303.6
3328.617	5256.6
3331.635	5141.6
3334.65	5223.6
3337.663	5150.6
3340.674	5127.6
3343.682	4995.6
3346.688	5020.6
3349.691	5047.6
3352.692	5059.6
3355.691	4817.6
3358.687	4915.6
3361.681	4951.6
3364.673	4910.6
3367.662	4885.6
3370.649	4794.6
3373.633	4855.6
3376.615	4666.6
3379.595	4896.6
3382.572	4691.6
3385.547	4612.6
3388.52	4741.6
3391.49	4558.6
3394.458	4590.6
3397.424	4434.6
3400.387	4547.6
3403.348	4237.6
3406.307	4198.6
3409.263	4332.6
3412.217	4109.6
3415.168	4079.6
3418.118	4057.6
3421.065	3988.6
3424.009	3857.6
3426.951	4005.6
3429.891	3744.6
3432.829	3827.6
3435.764	3836.6
3438.697	3816.6
3441.628	3531.6
3444.557	3712.6
3447.483	3676.6
3450.407	3494.6
3453.328	3417.6
3456.247	3436.6
3459.164	3413.6
3462.079	3176.6
3464.991	3155.6
3467.902	3176.6
3470.809	3045.6
3473.715	2859.6
3476.618	2900.6
3479.519	2775.6
3482.418	2783.6
3485.315	2634.6
3488.209	2570.6
3491.101	2531.6
3493.99	2451.6
3496.878	2186.6
3499.763	2240.6
3502.646	2200.6
3505.527	2307.6
3508.405	2149.6
3511.281	2018.6
3514.155	2124.6
3517.027	2128.6
3519.897	2160.6
3522.764	1906.6
3525.629	1925.6
3528.492	1830.6
3531.352	1700.6
3534.211	1662.6
3537.067	1735.6
3539.921	1624.6
3542.773	1532.6
3545.622	1523.6
3548.469	1570.6
3551.315	1497.6
3554.157	1332.6
3556.998	1285.6
3559.837	1158.6
3562.673	1103.6
3565.507	1143.6
3568.339	1107.6
3571.169	1168.6
3573.996	1064.6
3576.822	1087.6
3579.645	1029.6
3582.466	982.6
3585.285	922.6
3588.101	831.6
3590.916	879.6
3593.728	869.6
3596.538	885.6
3599.346	769.6
3602.152	842.6
3604.956	818.6
3607.757	659.6
3610.556	853.6
3613.354	644.6
3616.149	654.6
3618.942	660.6
3621.732	426.6
3624.521	681.6
3627.307	590.6
3630.092	574.6
3632.874	460.6
3635.654	606.6
3638.432	597.6
3641.208	543.6
3643.982	552.6
3646.753	502.6
3649.523	539.6
3652.29	473.6
3655.055	441.6
3657.818	366.6
3660.579	367.6
3663.338	535.6
3666.095	359.6
3668.849	555.6
3671.602	318.6
3674.352	466.6
3677.101	290.6
3679.847	214.6
3682.591	402.6
3685.333	354.6
3688.073	290.6
3690.811	357.6
3693.547	475.6
3696.281	284.6
3699.013	241.6
3701.742	254.6
3704.47	389.6
3707.195	215.6
3709.919	206.6
3712.64	245.6
3715.359	90.6
3718.076	27.6
3720.792	196.6
3723.505	191.6
3726.216	162.6
3728.925	234.6
3731.632	80.6
3734.336	303.6
3737.039	147.6
3739.74	202.6
3742.439	485.6
3745.136	183.6
3747.83	134.6
3750.523	101.6
3753.213	-394.4
3755.902	136.6
3758.589	202.6
3761.273	248.6
3763.956	-8.4
3766.636	197.6
3769.315	-4.4
3771.991	330.6
3774.665	107.6
3777.338	304.6
3780.008	204.6
3782.677	108.6
3785.343	275.6
3788.007	123.6
3790.67	124.6
3793.33	67.6
3795.989	217.6
3798.645	121.6
3801.299	263.6
3803.952	70.6
3806.602	68.6
3809.251	170.6
3811.897	144.6
3814.542	107.6
3817.184	133.6
3819.825	197.6
3822.463	170.6
3825.1	94.6
3827.735	134.6
3830.367	186.6
3832.998	-18.4
3835.627	8.6
3838.253	37.6
3840.878	81.6
3843.501	-57.4
3846.122	33.6
3848.741	6.6
3851.358	62.6
3853.973	263.6
3856.586	105.6
3859.197	62.6
3861.806	113.6
3864.414	183.6
3867.019	151.6
3869.622	0.6
3872.224	-75.4
3874.823	125.6
3877.421	209.6
3880.016	186.6
3882.61	252.6
3885.202	251.6
3887.792	196.6
3890.38	42.6
3892.966	176.6
3895.55	76.6
3898.132	100.6
3900.713	-26.4
3903.291	87.6
3905.868	46.6
3908.442	39.6
3911.015	60.6
3913.586	59.6
3916.155	157.6
3918.722	148.6
3921.287	58.6
3923.85	198.6
3926.411	72.6
3928.971	-32.4
3931.528	83.6
3934.084	80.6
3936.638	60.6
3939.19	-7.4
3941.74	37.6
3944.288	10.6
3946.834	90.6
3949.378	1.6
3951.921	143.6
3954.462	53.6
3957	12.6
3959.537	118.6
3962.072	152.6
3964.606	230.6
3967.137	65.6
3969.667	29.6
3972.194	29.6
3974.72	108.6
3977.244	152.6
3979.766	139.6
3982.286	184.6
3984.805	28.6
3987.321	39.6
3989.836	15.6
3992.349	143.6
3994.86	65.6
3997.369	86.6
3999.877	41.6
4002.382	57.6
4004.886	86.6
4007.388	96.6
4009.888	192.6
4012.386	68.6
4014.883	3.6
4017.377	110.6
4019.87	-77.4
4022.361	122.6
4024.85	68.6
4027.338	205.6
4029.823	45.6
4032.307	56.6
4034.789	159.6
4037.269	149.6
4039.747	196.6
4042.224	17.6
4044.699	100.6
4047.172	108.6
4049.643	94.6
4052.112	243.6
4054.58	108.6
4057.046	170.6
4059.51	159.6
4061.972	57.6
4064.432	206.6
4066.891	4.6
4069.348	118.6
4071.803	44.6
4074.256	-17.4
4076.708	82.6
4079.158	62.6
4081.606	-69.4
4084.052	94.6
4086.497	15.6
4088.939	111.6
4091.38	153.6
4093.819	50.6
4096.257	-1271.4
4098.693	-1256.4
4101.127	-1315.4
4103.559	-1347.4
4105.989	391.6
4108.418	226.6
4110.845	462.6
4113.27	316.6
4115.694	472.6
4118.115	468.6
4120.535	35.6
4122.954	-34.4
4125.37	-54.4
4127.785	38.6
4130.198	17.6
4132.609	23.6
4135.019	-1374.4
4137.427	-1346.4
4139.833	-1293.4
4142.237	-1117.4
