Data from 2018-2-8_conc=5_RamanShift_01.txt Node
Date: Wed Feb 07 10:57:40 IST 2018
User: aro
Spectrometer: QEPB0276
Trigger mode: 0
Integration Time (sec): 3.000000E1
Scans to average: 1
Electric dark correction enabled: true
Nonlinearity correction enabled: false
Boxcar width: 0
XAxis mode: Raman Shifts
Number of Pixels in Spectrum: 1044
>>>>>Begin Spectral Data<<<<<
160.701	668
166.742	779
172.777	1203
178.805	2613
184.826	5578
190.841	10528
196.849	16533
202.85	21038
208.845	22650
214.833	22467
220.815	22305
226.789	22258
232.758	22161
238.719	22174
244.674	21908
250.623	21622
256.565	21348
262.5	20999
268.429	20521
274.351	20360
280.267	20272
286.176	19698
292.079	19558
297.975	19226
303.865	19148
309.748	19046
315.625	19104
321.495	18523
327.359	18653
333.217	18692
339.068	18545
344.912	18647
350.751	18617
356.583	18453
362.408	18549
368.227	18522
374.04	18695
379.847	18747
385.647	18854
391.44	19053
397.228	19066
403.009	19259
408.784	19418
414.553	19351
420.315	19446
426.071	19654
431.821	19535
437.565	19477
443.302	19292
449.033	19331
454.758	19170
460.477	19008
466.189	18936
471.896	18809
477.596	18712
483.29	18830
488.978	18820
494.66	18805
500.335	18680
506.005	18597
511.668	18300
517.325	18263
522.977	18002
528.622	18019
534.261	17822
539.894	17756
545.521	17704
551.141	17615
556.756	17340
562.365	17229
567.968	17151
573.565	17050
579.155	16902
584.74	16900
590.319	16669
595.892	16743
601.459	16620
607.02	16732
612.575	16697
618.124	16620
623.667	16705
629.204	16572
634.735	16629
640.261	16561
645.781	16718
651.294	16503
656.802	16178
662.304	16083
667.8	15916
673.29	16040
678.775	15846
684.254	15762
689.726	15924
695.193	15662
700.655	15751
706.11	15902
711.56	15727
717.004	15787
722.442	16001
727.874	15730
733.301	15771
738.722	15865
744.137	15639
749.547	15552
754.951	15502
760.349	15375
765.741	15172
771.128	15228
776.509	15185
781.885	15212
787.254	15139
792.618	15291
797.977	15421
803.33	15476
808.677	15471
814.019	15325
819.355	15470
824.686	15475
830.011	15421
835.33	15212
840.644	14923
845.952	15093
851.255	14745
856.552	14728
861.844	14598
867.13	14565
872.41	14498
877.686	14425
882.955	14469
888.219	14560
893.478	14607
898.731	14497
903.979	14354
909.221	14501
914.458	14432
919.69	14266
924.916	14158
930.136	13991
935.351	13868
940.561	13703
945.766	13650
950.965	13461
956.158	13539
961.347	13533
966.529	13601
971.707	13573
976.879	13590
982.046	13609
987.208	13664
992.364	13436
997.515	13407
1002.66	13302
1007.801	13388
1012.936	13335
1018.066	13443
1023.19	13156
1028.309	13126
1033.423	13204
1038.532	13311
1043.636	13517
1048.734	13425
1053.827	13535
1058.915	13558
1063.998	13358
1069.075	13232
1074.147	13018
1079.214	13033
1084.276	12707
1089.333	12716
1094.385	12665
1099.431	12656
1104.472	12634
1109.509	12810
1114.54	12807
1119.565	12987
1124.586	12809
1129.602	12831
1134.613	12855
1139.618	12729
1144.619	12520
1149.614	12371
1154.604	12221
1159.589	12223
1164.57	11968
1169.545	12065
1174.515	11970
1179.48	12174
1184.44	12135
1189.395	12237
1194.345	12430
1199.29	12359
1204.23	12515
1209.165	12382
1214.095	12337
1219.021	12105
1223.941	12133
1228.856	12155
1233.766	12107
1238.672	11993
1243.572	11921
1248.467	11952
1253.358	12117
1258.244	12144
1263.124	12001
1268	11917
1272.871	11936
1277.737	11920
1282.599	11648
1287.455	11544
1292.306	11306
1297.153	11349
1301.995	11027
1306.832	11181
1311.664	11077
1316.491	11098
1321.314	11156
1326.132	11110
1330.945	11045
1335.753	10929
1340.556	10952
1345.354	10826
1350.148	10587
1354.937	10460
1359.722	10413
1364.501	10087
1369.276	9885
1374.046	9947
1378.811	9995
1383.572	10136
1388.327	9803
1393.079	10265
1397.825	10374
1402.567	10343
1407.304	10317
1412.036	10388
1416.764	10119
1421.487	10504
1426.205	10194
1430.919	10038
1435.628	9910
1440.333	9819
1445.032	9719
1449.727	9628
1454.418	9697
1459.104	9602
1463.785	9506
1468.462	9503
1473.134	9451
1477.802	9328
1482.465	9535
1487.123	9021
1491.777	9251
1496.426	9165
1501.071	8876
1505.711	8912
1510.347	8933
1514.978	8990
1519.604	9125
1524.226	9118
1528.844	9428
1533.457	9198
1538.065	9393
1542.669	9407
1547.269	9473
1551.864	9469
1556.454	9672
1561.041	9563
1565.622	9620
1570.199	9263
1574.772	9252
1579.34	9079
1583.904	9196
1588.464	9184
1593.019	9194
1597.569	9292
1602.115	9368
1606.657	9316
1611.195	9362
1615.728	9390
1620.256	9510
1624.78	9568
1629.3	9544
1633.816	9308
1638.327	9276
1642.834	9261
1647.336	9147
1651.834	9063
1656.328	9156
1660.817	9033
1665.302	9072
1669.783	9053
1674.259	8878
1678.732	8640
1683.199	8488
1687.663	8412
1692.122	8024
1696.577	7811
1701.028	7821
1705.474	7687
1709.917	7658
1714.355	7663
1718.788	7637
1723.218	7527
1727.643	7293
1732.064	7156
1736.481	7230
1740.893	7040
1745.301	6980
1749.705	7079
1754.105	6643
1758.501	6659
1762.893	6393
1767.28	6417
1771.663	6171
1776.042	6097
1780.417	6026
1784.787	5820
1789.154	5845
1793.516	5905
1797.874	5959
1802.228	6098
1806.578	6196
1810.924	6015
1815.266	6749
1819.603	6158
1823.937	6124
1828.266	6025
1832.591	6076
1836.913	5901
1841.23	6003
1845.543	5979
1849.852	5756
1854.156	5836
1858.457	5682
1862.754	5529
1867.047	5708
1871.335	5545
1875.62	5466
1879.9	5438
1884.177	5620
1888.449	5473
1892.718	5492
1896.982	5462
1901.243	5595
1905.499	5527
1909.752	5414
1914	5573
1918.245	5392
1922.485	5448
1926.722	5403
1930.954	5486
1935.183	5481
1939.408	5392
1943.628	5413
1947.845	5415
1952.058	5541
1956.267	5503
1960.472	5333
1964.673	5269
1968.87	5487
1973.063	5482
1977.252	5313
1981.438	5307
1985.619	5220
1989.797	5135
1993.971	5137
1998.14	4935
2002.306	4975
2006.469	4934
2010.627	4987
2014.781	4988
2018.932	4999
2023.078	4786
2027.221	4728
2031.36	4847
2035.495	4774
2039.627	4725
2043.754	4682
2047.878	4621
2051.998	4652
2056.114	4672
2060.226	4625
2064.334	4574
2068.439	4486
2072.54	4495
2076.637	4711
2080.73	4542
2084.82	4502
2088.906	4592
2092.988	4541
2097.066	4734
2101.14	4463
2105.211	4630
2109.278	4564
2113.342	4582
2117.401	4694
2121.457	4648
2125.509	4636
2129.558	4442
2133.602	4527
2137.643	4439
2141.681	4382
2145.714	4330
2149.744	4305
2153.77	4374
2157.793	4316
2161.812	4381
2165.827	4335
2169.838	4063
2173.846	4236
2177.851	4105
2181.851	4000
2185.848	4283
2189.841	3991
2193.831	4141
2197.817	3834
2201.799	3891
2205.778	4051
2209.753	3972
2213.725	3882
2217.693	3846
2221.657	3924
2225.618	3723
2229.575	3780
2233.529	3730
2237.479	3751
2241.425	3693
2245.368	3855
2249.307	3821
2253.243	3716
2257.175	3751
2261.104	3626
2265.029	3551
2268.95	3536
2272.868	3478
2276.783	3560
2280.694	3346
2284.601	3353
2288.505	3317
2292.405	3198
2296.302	3378
2300.195	3177
2304.085	3336
2307.971	3174
2311.854	3274
2315.734	3147
2319.609	3172
2323.482	3368
2327.351	3164
2331.216	3136
2335.078	3152
2338.937	3185
2342.792	3130
2346.643	3116
2350.492	3109
2354.336	3066
2358.178	2996
2362.015	3013
2365.85	3174
2369.681	3138
2373.508	3095
2377.333	2940
2381.153	3107
2384.971	3132
2388.785	3111
2392.595	3119
2396.402	3165
2400.206	3211
2404.007	3199
2407.804	3089
2411.597	2948
2415.388	3095
2419.174	3008
2422.958	2996
2426.738	2947
2430.515	2838
2434.289	2957
2438.059	3005
2441.825	2925
2445.589	2682
2449.349	2966
2453.106	2831
2456.859	2806
2460.61	2683
2464.356	2782
2468.1	2768
2471.84	2790
2475.577	2808
2479.311	2679
2483.041	2661
2486.768	2532
2490.492	2374
2494.213	2846
2497.93	2686
2501.644	2667
2505.355	2712
2509.062	2529
2512.766	2620
2516.467	2583
2520.165	2573
2523.859	2654
2527.551	2359
2531.239	2580
2534.923	2577
2538.605	2659
2542.283	2473
2545.958	2573
2549.63	2457
2553.299	2404
2556.964	2320
2560.626	2458
2564.285	2357
2567.941	2506
2571.594	2461
2575.243	2378
2578.89	2494
2582.533	2493
2586.173	2415
2589.809	2395
2593.443	2684
2597.073	2475
2600.701	2286
2604.325	2310
2607.946	2432
2611.564	2338
2615.178	2198
2618.79	2267
2622.398	2421
2626.004	2363
2629.606	2206
2633.205	2476
2636.801	2276
2640.394	2230
2643.983	2213
2647.57	2275
2651.153	2190
2654.734	2028
2658.311	2303
2661.885	2170
2665.456	2267
2669.025	2156
2672.589	2108
2676.151	1910
2679.71	1903
2683.266	2046
2686.819	2050
2690.368	1930
2693.915	1987
2697.458	2001
2700.999	1914
2704.536	1859
2708.071	1851
2711.602	1837
2715.13	1795
2718.656	1850
2722.178	1757
2725.697	1874
2729.214	1557
2732.727	1676
2736.237	1728
2739.744	1756
2743.249	1812
2746.75	1767
2750.248	1819
2753.743	1784
2757.236	1785
2760.725	1721
2764.211	2012
2767.695	1802
2771.175	1798
2774.652	1730
2778.127	1751
2781.598	1741
2785.067	1771
2788.532	1781
2791.995	1747
2795.455	1826
2798.911	1743
2802.365	1893
2805.816	1730
2809.264	1713
2812.709	1772
2816.151	1734
2819.59	1876
2823.026	1836
2826.46	1872
2829.89	1830
2833.318	2071
2836.742	1861
2840.164	1808
2843.583	1904
2846.999	1904
2850.412	1855
2853.822	1989
2857.229	1773
2860.634	1879
2864.035	1962
2867.434	1841
2870.83	1899
2874.223	2046
2877.613	1854
2881	2083
2884.385	2089
2887.766	2031
2891.145	1959
2894.521	2110
2897.894	2152
2901.264	1825
2904.631	2151
2907.996	2049
2911.358	2088
2914.717	2104
2918.073	2057
2921.426	2083
2924.777	2211
2928.124	2213
2931.469	2043
2934.811	2371
2938.15	2126
2941.487	2224
2944.821	1923
2948.152	2345
2951.48	2222
2954.805	2220
2958.128	2124
2961.447	2219
2964.765	2086
2968.079	2256
2971.39	2193
2974.699	2197
2978.005	2187
2981.308	2237
2984.609	2465
2987.907	2283
2991.202	2342
2994.494	2374
2997.784	1993
3001.07	2305
3004.355	2411
3007.636	2430
3010.915	2537
3014.191	2521
3017.464	2503
3020.734	2427
3024.002	2548
3027.267	2679
3030.53	2609
3033.789	2671
3037.046	2828
3040.301	2825
3043.552	2858
3046.801	2925
3050.048	2786
3053.291	2702
3056.532	2855
3059.771	3105
3063.006	3022
3066.239	3109
3069.469	3157
3072.697	3416
3075.922	3424
3079.144	3453
3082.364	3475
3085.581	3601
3088.795	3363
3092.007	3676
3095.216	3835
3098.423	4075
3101.627	4150
3104.828	4152
3108.026	4269
3111.222	4259
3114.416	4270
3117.607	4426
3120.795	4523
3123.98	4582
3127.163	4822
3130.344	4749
3133.521	4829
3136.696	4766
3139.869	4959
3143.039	5012
3146.206	4973
3149.371	5164
3152.533	5289
3155.693	5352
3158.85	5474
3162.005	5429
3165.157	5596
3168.306	5566
3171.453	5392
3174.597	5764
3177.739	5727
3180.878	5576
3184.014	5626
3187.149	5683
3190.28	5598
3193.409	5553
3196.536	5523
3199.659	5548
3202.781	5468
3205.9	5677
3209.016	5601
3212.13	5512
3215.241	5529
3218.35	5565
3221.456	5579
3224.56	5699
3227.661	5625
3230.76	5732
3233.856	5682
3236.95	5579
3240.041	5720
3243.13	5429
3246.216	5457
3249.3	5401
3252.382	5336
3255.46	5492
3258.537	5940
3261.611	5408
3264.682	5277
3267.751	5252
3270.818	5318
3273.882	5101
3276.943	5103
3280.002	4986
3283.059	5036
3286.113	5112
3289.165	5159
3292.214	5028
3295.261	4887
3298.306	5010
3301.348	4834
3304.387	4807
3307.425	4741
3310.459	4762
3313.492	4563
3316.521	4531
3319.549	4480
3322.574	4426
3325.597	4368
3328.617	4324
3331.635	4265
3334.65	4346
3337.663	4268
3340.674	4317
3343.682	4124
3346.688	4182
3349.691	4173
3352.692	4273
3355.691	4048
3358.687	4135
3361.681	4054
3364.673	4113
3367.662	4023
3370.649	3762
3373.633	4078
3376.615	3988
3379.595	4131
3382.572	3900
3385.547	3869
3388.52	4007
3391.49	3822
3394.458	3853
3397.424	3701
3400.387	3806
3403.348	3453
3406.307	3559
3409.263	3581
3412.217	3419
3415.168	3426
3418.118	3389
3421.065	3384
3424.009	3214
3426.951	3327
3429.891	3283
3432.829	3216
3435.764	3275
3438.697	3208
3441.628	2925
3444.557	3075
3447.483	3151
3450.407	2897
3453.328	2744
3456.247	2894
3459.164	2895
3462.079	2628
3464.991	2654
3467.902	2649
3470.809	2543
3473.715	2473
3476.618	2389
3479.519	2294
3482.418	2486
3485.315	2266
3488.209	2193
3491.101	2168
3493.99	2199
3496.878	1858
3499.763	1919
3502.646	1858
3505.527	1987
3508.405	1873
3511.281	1810
3514.155	1807
3517.027	1830
3519.897	1948
3522.764	1633
3525.629	1737
3528.492	1633
3531.352	1457
3534.211	1530
3537.067	1622
3539.921	1494
3542.773	1441
3545.622	1343
3548.469	1490
3551.315	1395
3554.157	1221
3556.998	1221
3559.837	1136
3562.673	1029
3565.507	1122
3568.339	984
3571.169	1124
3573.996	999
3576.822	1038
3579.645	1004
3582.466	955
3585.285	898
3588.101	867
3590.916	950
3593.728	837
3596.538	915
3599.346	743
3602.152	910
3604.956	829
3607.757	695
3610.556	869
3613.354	681
3616.149	687
3618.942	688
3621.732	476
3624.521	742
3627.307	613
3630.092	587
3632.874	511
3635.654	665
3638.432	728
3641.208	567
3643.982	610
3646.753	501
3649.523	607
3652.29	577
3655.055	528
3657.818	403
3660.579	403
3663.338	670
3666.095	488
3668.849	668
3671.602	462
3674.352	600
3677.101	395
3679.847	315
3682.591	540
3685.333	504
3688.073	374
3690.811	533
3693.547	397
3696.281	416
3699.013	390
3701.742	352
3704.47	496
3707.195	351
3709.919	330
3712.64	372
3715.359	241
3718.076	143
3720.792	407
3723.505	337
3726.216	263
3728.925	411
3731.632	230
3734.336	418
3737.039	318
3739.74	355
3742.439	613
3745.136	311
3747.83	300
3750.523	293
3753.213	942
3755.902	284
3758.589	475
3761.273	397
3763.956	203
3766.636	413
3769.315	143
3771.991	429
3774.665	224
3777.338	455
3780.008	380
3782.677	262
3785.343	402
3788.007	498
3790.67	257
3793.33	248
3795.989	400
3798.645	211
3801.299	446
3803.952	257
3806.602	187
3809.251	264
3811.897	265
3814.542	305
3817.184	322
3819.825	341
3822.463	-17
3825.1	300
3827.735	292
3830.367	230
3832.998	113
3835.627	181
3838.253	194
3840.878	101
3843.501	136
3846.122	180
3848.741	138
3851.358	230
3853.973	426
3856.586	251
3859.197	206
3861.806	237
3864.414	347
3867.019	287
3869.622	197
3872.224	97
3874.823	319
3877.421	324
3880.016	357
3882.61	428
3885.202	427
3887.792	416
3890.38	155
3892.966	311
3895.55	263
3898.132	266
3900.713	156
3903.291	270
3905.868	277
3908.442	227
3911.015	149
3913.586	287
3916.155	209
3918.722	313
3921.287	233
3923.85	42
3926.411	196
3928.971	173
3931.528	230
3934.084	222
3936.638	229
3939.19	187
3941.74	283
3944.288	150
3946.834	182
3949.378	190
3951.921	345
3954.462	216
3957	217
3959.537	304
3962.072	363
3964.606	365
3967.137	130
3969.667	190
3972.194	235
3974.72	272
3977.244	322
3979.766	204
3982.286	354
3984.805	150
3987.321	158
3989.836	187
3992.349	301
3994.86	267
3997.369	220
3999.877	180
4002.382	247
4004.886	294
4007.388	294
4009.888	385
4012.386	177
4014.883	236
4017.377	245
4019.87	155
4022.361	324
4024.85	361
4027.338	396
4029.823	166
4032.307	277
4034.789	312
4037.269	257
4039.747	326
4042.224	224
4044.699	275
4047.172	293
4049.643	186
4052.112	241
4054.58	254
4057.046	271
4059.51	303
4061.972	239
4064.432	391
4066.891	145
4069.348	327
4071.803	189
4074.256	203
4076.708	262
4079.158	359
4081.606	100
4084.052	277
4086.497	187
4088.939	323
4091.38	296
4093.819	153
4096.257	-1295
4098.693	-1321
4101.127	-1367
4103.559	-1394
4105.989	423
4108.418	451
4110.845	625
4113.27	415
4115.694	567
4118.115	636
4120.535	188
4122.954	122
4125.37	73
4127.785	180
4130.198	189
4132.609	146
4135.019	-1426
4137.427	-1390
4139.833	-1310
4142.237	-1137
