Data from 2018-2-8_conc=0_RamanShift_14.txt Node
Date: Wed Feb 07 09:32:10 IST 2018
User: aro
Spectrometer: QEPB0276
Trigger mode: 0
Integration Time (sec): 3.000000E1
Scans to average: 1
Electric dark correction enabled: true
Nonlinearity correction enabled: false
Boxcar width: 0
XAxis mode: Raman Shifts
Number of Pixels in Spectrum: 1044
>>>>>Begin Spectral Data<<<<<
160.701	249.4
166.742	353.4
172.777	867.4
178.805	2379.4
184.826	5928.4
190.841	11983.4
196.849	19126.4
202.85	24353.4
208.845	26267.4
214.833	26033.4
220.815	25576.4
226.789	25409.4
232.758	25299.4
238.719	25225.4
244.674	25065.4
250.623	24470.4
256.565	24086.4
262.5	23605.4
268.429	22927.4
274.351	22564.4
280.267	22595.4
286.176	21925.4
292.079	21665.4
297.975	21252.4
303.865	21138.4
309.748	20899.4
315.625	20805.4
321.495	20456.4
327.359	20374.4
333.217	20392.4
339.068	20364.4
344.912	20411.4
350.751	20348.4
356.583	20388.4
362.408	20337.4
368.227	20284.4
374.04	20386.4
379.847	20432.4
385.647	20589.4
391.44	20733.4
397.228	20816.4
403.009	20978.4
408.784	21117.4
414.553	21210.4
420.315	21321.4
426.071	21302.4
431.821	21304.4
437.565	21270.4
443.302	21046.4
449.033	21041.4
454.758	20974.4
460.477	20817.4
466.189	20745.4
471.896	20686.4
477.596	20498.4
483.29	20589.4
488.978	20641.4
494.66	20514.4
500.335	20498.4
506.005	20363.4
511.668	20142.4
517.325	20091.4
522.977	19895.4
528.622	19796.4
534.261	19738.4
539.894	19608.4
545.521	19599.4
551.141	19453.4
556.756	19257.4
562.365	19132.4
567.968	19027.4
573.565	18853.4
579.155	18728.4
584.74	18621.4
590.319	18561.4
595.892	18545.4
601.459	18557.4
607.02	18475.4
612.575	18515.4
618.124	18364.4
623.667	18502.4
629.204	18374.4
634.735	18445.4
640.261	18394.4
645.781	18374.4
651.294	18087.4
656.802	17994.4
662.304	17938.4
667.8	17682.4
673.29	17689.4
678.775	17579.4
684.254	17541.4
689.726	17571.4
695.193	17497.4
700.655	17423.4
706.11	17556.4
711.56	17451.4
717.004	17564.4
722.442	17663.4
727.874	17455.4
733.301	17536.4
738.722	17393.4
744.137	17287.4
749.547	17308.4
754.951	17204.4
760.349	16973.4
765.741	16857.4
771.128	16911.4
776.509	16876.4
781.885	16850.4
787.254	16827.4
792.618	16972.4
797.977	16981.4
803.33	17021.4
808.677	17102.4
814.019	17046.4
819.355	17007.4
824.686	17107.4
830.011	17037.4
835.33	16735.4
840.644	16681.4
845.952	16596.4
851.255	16477.4
856.552	16309.4
861.844	16164.4
867.13	16128.4
872.41	16070.4
877.686	16062.4
882.955	16120.4
888.219	16246.4
893.478	16361.4
898.731	16181.4
903.979	16144.4
909.221	16168.4
914.458	15954.4
919.69	15891.4
924.916	15711.4
930.136	15607.4
935.351	15498.4
940.561	15175.4
945.766	15139.4
950.965	15002.4
956.158	15122.4
961.347	15137.4
966.529	15103.4
971.707	15157.4
976.879	15099.4
982.046	15202.4
987.208	15197.4
992.364	15051.4
997.515	15005.4
1002.66	14848.4
1007.801	14901.4
1012.936	14836.4
1018.066	14885.4
1023.19	14673.4
1028.309	14603.4
1033.423	14718.4
1038.532	14846.4
1043.636	15012.4
1048.734	14992.4
1053.827	15057.4
1058.915	15046.4
1063.998	14962.4
1069.075	14739.4
1074.147	14517.4
1079.214	14561.4
1084.276	14285.4
1089.333	14244.4
1094.385	14184.4
1099.431	14250.4
1104.472	14127.4
1109.509	14336.4
1114.54	14454.4
1119.565	14516.4
1124.586	14446.4
1129.602	14380.4
1134.613	14390.4
1139.618	14220.4
1144.619	14008.4
1149.614	13826.4
1154.604	13705.4
1159.589	13601.4
1164.57	13480.4
1169.545	13511.4
1174.515	13518.4
1179.48	13636.4
1184.44	13727.4
1189.395	13825.4
1194.345	13893.4
1199.29	13930.4
1204.23	13994.4
1209.165	13848.4
1214.095	13835.4
1219.021	13677.4
1223.941	13647.4
1228.856	13611.4
1233.766	13559.4
1238.672	13498.4
1243.572	13421.4
1248.467	13553.4
1253.358	13684.4
1258.244	13623.4
1263.124	13618.4
1268	13487.4
1272.871	13402.4
1277.737	13352.4
1282.599	13157.4
1287.455	12978.4
1292.306	12840.4
1297.153	12840.4
1301.995	12588.4
1306.832	12609.4
1311.664	12587.4
1316.491	12744.4
1321.314	12642.4
1326.132	12663.4
1330.945	12607.4
1335.753	12445.4
1340.556	12323.4
1345.354	12128.4
1350.148	11845.4
1354.937	11708.4
1359.722	11574.4
1364.501	11377.4
1369.276	11386.4
1374.046	11389.4
1378.811	11521.4
1383.572	11578.4
1388.327	11322.4
1393.079	11735.4
1397.825	11889.4
1402.567	11797.4
1407.304	11778.4
1412.036	11760.4
1416.764	11755.4
1421.487	11827.4
1426.205	11546.4
1430.919	11371.4
1435.628	11236.4
1440.333	11126.4
1445.032	11075.4
1449.727	11048.4
1454.418	11009.4
1459.104	11001.4
1463.785	10843.4
1468.462	10870.4
1473.134	10792.4
1477.802	10698.4
1482.465	10662.4
1487.123	10382.4
1491.777	10438.4
1496.426	10287.4
1501.071	10181.4
1505.711	10277.4
1510.347	10234.4
1514.978	10388.4
1519.604	10484.4
1524.226	10621.4
1528.844	10795.4
1533.457	10790.4
1538.065	10888.4
1542.669	10993.4
1547.269	11005.4
1551.864	10925.4
1556.454	11059.4
1561.041	10983.4
1565.622	10842.4
1570.199	10694.4
1574.772	10631.4
1579.34	10505.4
1583.904	10625.4
1588.464	10668.4
1593.019	10593.4
1597.569	10689.4
1602.115	10755.4
1606.657	10834.4
1611.195	10828.4
1615.728	10957.4
1620.256	10954.4
1624.78	11029.4
1629.3	10922.4
1633.816	10789.4
1638.327	10763.4
1642.834	10703.4
1647.336	10695.4
1651.834	10528.4
1656.328	10616.4
1660.817	10591.4
1665.302	10631.4
1669.783	10509.4
1674.259	10313.4
1678.732	10159.4
1683.199	9933.4
1687.663	9729.4
1692.122	9360.4
1696.577	9140.4
1701.028	9126.4
1705.474	8989.4
1709.917	8974.4
1714.355	8886.4
1718.788	8874.4
1723.218	8705.4
1727.643	8485.4
1732.064	8488.4
1736.481	8332.4
1740.893	8152.4
1745.301	8029.4
1749.705	8100.4
1754.105	7714.4
1758.501	7648.4
1762.893	7385.4
1767.28	7259.4
1771.663	7081.4
1776.042	6936.4
1780.417	6782.4
1784.787	6647.4
1789.154	6695.4
1793.516	6617.4
1797.874	6855.4
1802.228	6848.4
1806.578	7048.4
1810.924	6987.4
1815.266	7638.4
1819.603	7036.4
1823.937	7099.4
1828.266	7006.4
1832.591	6962.4
1836.913	6886.4
1841.23	6892.4
1845.543	6821.4
1849.852	6715.4
1854.156	6625.4
1858.457	6632.4
1862.754	6565.4
1867.047	6472.4
1871.335	6397.4
1875.62	6414.4
1879.9	6388.4
1884.177	6423.4
1888.449	6353.4
1892.718	6368.4
1896.982	6264.4
1901.243	6362.4
1905.499	6296.4
1909.752	6277.4
1914	6309.4
1918.245	6283.4
1922.485	6282.4
1926.722	6244.4
1930.954	6227.4
1935.183	6219.4
1939.408	6259.4
1943.628	6316.4
1947.845	6306.4
1952.058	6362.4
1956.267	6342.4
1960.472	6343.4
1964.673	6340.4
1968.87	6303.4
1973.063	6304.4
1977.252	6224.4
1981.438	6147.4
1985.619	6096.4
1989.797	5966.4
1993.971	5797.4
1998.14	5817.4
2002.306	5825.4
2006.469	5701.4
2010.627	5632.4
2014.781	5657.4
2018.932	5696.4
2023.078	5574.4
2027.221	5559.4
2031.36	5576.4
2035.495	5668.4
2039.627	5520.4
2043.754	5399.4
2047.878	5388.4
2051.998	5412.4
2056.114	5364.4
2060.226	5369.4
2064.334	5294.4
2068.439	5220.4
2072.54	5209.4
2076.637	5338.4
2080.73	5310.4
2084.82	5260.4
2088.906	5305.4
2092.988	5176.4
2097.066	5403.4
2101.14	5335.4
2105.211	5395.4
2109.278	5338.4
2113.342	5351.4
2117.401	5473.4
2121.457	5330.4
2125.509	5310.4
2129.558	5206.4
2133.602	5235.4
2137.643	5111.4
2141.681	5082.4
2145.714	5055.4
2149.744	5018.4
2153.77	5032.4
2157.793	4948.4
2161.812	4963.4
2165.827	4864.4
2169.838	4822.4
2173.846	4832.4
2177.851	4739.4
2181.851	4659.4
2185.848	4820.4
2189.841	4574.4
2193.831	4642.4
2197.817	4500.4
2201.799	4501.4
2205.778	4480.4
2209.753	4541.4
2213.725	4419.4
2217.693	4404.4
2221.657	4407.4
2225.618	3963.4
2229.575	4324.4
2233.529	4205.4
2237.479	4300.4
2241.425	4266.4
2245.368	4343.4
2249.307	4257.4
2253.243	4228.4
2257.175	4228.4
2261.104	4177.4
2265.029	4055.4
2268.95	4062.4
2272.868	3933.4
2276.783	3925.4
2280.694	3808.4
2284.601	3776.4
2288.505	3735.4
2292.405	3685.4
2296.302	3636.4
2300.195	3598.4
2304.085	3638.4
2307.971	3601.4
2311.854	3599.4
2315.734	3564.4
2319.609	3529.4
2323.482	3585.4
2327.351	3555.4
2331.216	3515.4
2335.078	3524.4
2338.937	3482.4
2342.792	3471.4
2346.643	3423.4
2350.492	3364.4
2354.336	3375.4
2358.178	3344.4
2362.015	3377.4
2365.85	3441.4
2369.681	3426.4
2373.508	3430.4
2377.333	3398.4
2381.153	3425.4
2384.971	3456.4
2388.785	3419.4
2392.595	3420.4
2396.402	3485.4
2400.206	3467.4
2404.007	3422.4
2407.804	3374.4
2411.597	3314.4
2415.388	3329.4
2419.174	3314.4
2422.958	3248.4
2426.738	3187.4
2430.515	3096.4
2434.289	3226.4
2438.059	3202.4
2441.825	3157.4
2445.589	3071.4
2449.349	3140.4
2453.106	3033.4
2456.859	3065.4
2460.61	3023.4
2464.356	3043.4
2468.1	2908.4
2471.84	3039.4
2475.577	3010.4
2479.311	2912.4
2483.041	2854.4
2486.768	2792.4
2490.492	2702.4
2494.213	2904.4
2497.93	2859.4
2501.644	2850.4
2505.355	2885.4
2509.062	2837.4
2512.766	2789.4
2516.467	2846.4
2520.165	2778.4
2523.859	2858.4
2527.551	2698.4
2531.239	2783.4
2534.923	2735.4
2538.605	2796.4
2542.283	2713.4
2545.958	2760.4
2549.63	2651.4
2553.299	2677.4
2556.964	2669.4
2560.626	2639.4
2564.285	2587.4
2567.941	2628.4
2571.594	2654.4
2575.243	2471.4
2578.89	2705.4
2582.533	2637.4
2586.173	2603.4
2589.809	2552.4
2593.443	2708.4
2597.073	2636.4
2600.701	2480.4
2604.325	2543.4
2607.946	2531.4
2611.564	2485.4
2615.178	2494.4
2618.79	2437.4
2622.398	2491.4
2626.004	2476.4
2629.606	2325.4
2633.205	2465.4
2636.801	2394.4
2640.394	2379.4
2643.983	2370.4
2647.57	2367.4
2651.153	2234.4
2654.734	2174.4
2658.311	2342.4
2661.885	2274.4
2665.456	2181.4
2669.025	2248.4
2672.589	2164.4
2676.151	2077.4
2679.71	2105.4
2683.266	2021.4
2686.819	2083.4
2690.368	2052.4
2693.915	2086.4
2697.458	2061.4
2700.999	1943.4
2704.536	1877.4
2708.071	1961.4
2711.602	1938.4
2715.13	1853.4
2718.656	1892.4
2722.178	1785.4
2725.697	1813.4
2729.214	1586.4
2732.727	1740.4
2736.237	1813.4
2739.744	1758.4
2743.249	1743.4
2746.75	1728.4
2750.248	1834.4
2753.743	1779.4
2757.236	1773.4
2760.725	1775.4
2764.211	1931.4
2767.695	1778.4
2771.175	1824.4
2774.652	1864.4
2778.127	1838.4
2781.598	1808.4
2785.067	1846.4
2788.532	1862.4
2791.995	1738.4
2795.455	1785.4
2798.911	1696.4
2802.365	1799.4
2805.816	1806.4
2809.264	1750.4
2812.709	1812.4
2816.151	1810.4
2819.59	1864.4
2823.026	1886.4
2826.46	1898.4
2829.89	1900.4
2833.318	2004.4
2836.742	1873.4
2840.164	1876.4
2843.583	1914.4
2846.999	1912.4
2850.412	1877.4
2853.822	1982.4
2857.229	1885.4
2860.634	1893.4
2864.035	1928.4
2867.434	1907.4
2870.83	1846.4
2874.223	2008.4
2877.613	1952.4
2881	2126.4
2884.385	2179.4
2887.766	2148.4
2891.145	2238.4
2894.521	2141.4
2897.894	2230.4
2901.264	2044.4
2904.631	2215.4
2907.996	2181.4
2911.358	2166.4
2914.717	2166.4
2918.073	2185.4
2921.426	2170.4
2924.777	2252.4
2928.124	2292.4
2931.469	2207.4
2934.811	2386.4
2938.15	2347.4
2941.487	2350.4
2944.821	2316.4
2948.152	2334.4
2951.48	2202.4
2954.805	2319.4
2958.128	2311.4
2961.447	2371.4
2964.765	2277.4
2968.079	2426.4
2971.39	2356.4
2974.699	2391.4
2978.005	2423.4
2981.308	2442.4
2984.609	2539.4
2987.907	2469.4
2991.202	2587.4
2994.494	2549.4
2997.784	2572.4
3001.07	2568.4
3004.355	2631.4
3007.636	2704.4
3010.915	2748.4
3014.191	2844.4
3017.464	2803.4
3020.734	2835.4
3024.002	2894.4
3027.267	2876.4
3030.53	2915.4
3033.789	3022.4
3037.046	3117.4
3040.301	3122.4
3043.552	3183.4
3046.801	3238.4
3050.048	3230.4
3053.291	3183.4
3056.532	3437.4
3059.771	3421.4
3063.006	3477.4
3066.239	3541.4
3069.469	3634.4
3072.697	3881.4
3075.922	3899.4
3079.144	3940.4
3082.364	4088.4
3085.581	4235.4
3088.795	4278.4
3092.007	4305.4
3095.216	4533.4
3098.423	4727.4
3101.627	4856.4
3104.828	4923.4
3108.026	5036.4
3111.222	5028.4
3114.416	5085.4
3117.607	5371.4
3120.795	5339.4
3123.98	5480.4
3127.163	5618.4
3130.344	5684.4
3133.521	5785.4
3136.696	5910.4
3139.869	5977.4
3143.039	6158.4
3146.206	6208.4
3149.371	6305.4
3152.533	6459.4
3155.693	6464.4
3158.85	6618.4
3162.005	6707.4
3165.157	6834.4
3168.306	6799.4
3171.453	6782.4
3174.597	6962.4
3177.739	6941.4
3180.878	6864.4
3184.014	6893.4
3187.149	6971.4
3190.28	6892.4
3193.409	6799.4
3196.536	6849.4
3199.659	6830.4
3202.781	6816.4
3205.9	6912.4
3209.016	6894.4
3212.13	6871.4
3215.241	6757.4
3218.35	6832.4
3221.456	6922.4
3224.56	6964.4
3227.661	6926.4
3230.76	6950.4
3233.856	6947.4
3236.95	6906.4
3240.041	6929.4
3243.13	6778.4
3246.216	6755.4
3249.3	6646.4
3252.382	6645.4
3255.46	6684.4
3258.537	6337.4
3261.611	6665.4
3264.682	6505.4
3267.751	6507.4
3270.818	6485.4
3273.882	6322.4
3276.943	6262.4
3280.002	6201.4
3283.059	6188.4
3286.113	6170.4
3289.165	6179.4
3292.214	6079.4
3295.261	5999.4
3298.306	6001.4
3301.348	5910.4
3304.387	5787.4
3307.425	5750.4
3310.459	5749.4
3313.492	5556.4
3316.521	5512.4
3319.549	5391.4
3322.574	5359.4
3325.597	5308.4
3328.617	5244.4
3331.635	5125.4
3334.65	5174.4
3337.663	5130.4
3340.674	5107.4
3343.682	4991.4
3346.688	4949.4
3349.691	4955.4
3352.692	5004.4
3355.691	4809.4
3358.687	4862.4
3361.681	4950.4
3364.673	4880.4
3367.662	4807.4
3370.649	4848.4
3373.633	4836.4
3376.615	4753.4
3379.595	4797.4
3382.572	4664.4
3385.547	4535.4
3388.52	4586.4
3391.49	4517.4
3394.458	4482.4
3397.424	4358.4
3400.387	4393.4
3403.348	4153.4
3406.307	4150.4
3409.263	4153.4
3412.217	4002.4
3415.168	3933.4
3418.118	3984.4
3421.065	3919.4
3424.009	3790.4
3426.951	3855.4
3429.891	3616.4
3432.829	3779.4
3435.764	3650.4
3438.697	3688.4
3441.628	3506.4
3444.557	3569.4
3447.483	3550.4
3450.407	3364.4
3453.328	3335.4
3456.247	3302.4
3459.164	3247.4
3462.079	3090.4
3464.991	3038.4
3467.902	2946.4
3470.809	2873.4
3473.715	2735.4
3476.618	2704.4
3479.519	2561.4
3482.418	2615.4
3485.315	2464.4
3488.209	2377.4
3491.101	2363.4
3493.99	2289.4
3496.878	2023.4
3499.763	2119.4
3502.646	2055.4
3505.527	2092.4
3508.405	1965.4
3511.281	1906.4
3514.155	1865.4
3517.027	1835.4
3519.897	1867.4
3522.764	1660.4
3525.629	1727.4
3528.492	1623.4
3531.352	1495.4
3534.211	1477.4
3537.067	1484.4
3539.921	1366.4
3542.773	1330.4
3545.622	1272.4
3548.469	1270.4
3551.315	1208.4
3554.157	1064.4
3556.998	1000.4
3559.837	960.4
3562.673	894.4
3565.507	966.4
3568.339	898.4
3571.169	841.4
3573.996	798.4
3576.822	798.4
3579.645	791.4
3582.466	736.4
3585.285	673.4
3588.101	589.4
3590.916	643.4
3593.728	567.4
3596.538	625.4
3599.346	532.4
3602.152	580.4
3604.956	532.4
3607.757	459.4
3610.556	509.4
3613.354	418.4
3616.149	417.4
3618.942	425.4
3621.732	177.4
3624.521	406.4
3627.307	246.4
3630.092	337.4
3632.874	243.4
3635.654	247.4
3638.432	284.4
3641.208	237.4
3643.982	255.4
3646.753	165.4
3649.523	224.4
3652.29	210.4
3655.055	203.4
3657.818	100.4
3660.579	208.4
3663.338	189.4
3666.095	11.4
3668.849	247.4
3671.602	90.4
3674.352	169.4
3677.101	41.4
3679.847	-7.6
3682.591	99.4
3685.333	54.4
3688.073	-38.6
3690.811	46.4
3693.547	81.4
3696.281	7.4
3699.013	-55.6
3701.742	-57.6
3704.47	19.4
3707.195	-46.6
3709.919	-59.6
3712.64	-16.6
3715.359	-159.6
3718.076	-202.6
3720.792	-93.6
3723.505	-59.6
3726.216	-99.6
3728.925	-75.6
3731.632	-217.6
3734.336	-35.6
3737.039	-104.6
3739.74	-69.6
3742.439	59.4
3745.136	-127.6
3747.83	-130.6
3750.523	-123.6
3753.213	-376.6
3755.902	-136.6
3758.589	-103.6
3761.273	-44.6
3763.956	-241.6
3766.636	-98.6
3769.315	-170.6
3771.991	-45.6
3774.665	-106.6
3777.338	-154.6
3780.008	-130.6
3782.677	-128.6
3785.343	-50.6
3788.007	-207.6
3790.67	-181.6
3793.33	-234.6
3795.989	-153.6
3798.645	-195.6
3801.299	-69.6
3803.952	-184.6
3806.602	-180.6
3809.251	-152.6
3811.897	-155.6
3814.542	-154.6
3817.184	-114.6
3819.825	-87.6
3822.463	-124.6
3825.1	-135.6
3827.735	-134.6
3830.367	-152.6
3832.998	-263.6
3835.627	-197.6
3838.253	-238.6
3840.878	-135.6
3843.501	-264.6
3846.122	-234.6
3848.741	-174.6
3851.358	-209.6
3853.973	-184.6
3856.586	-145.6
3859.197	-243.6
3861.806	-236.6
3864.414	-106.6
3867.019	-154.6
3869.622	-250.6
3872.224	-224.6
3874.823	-162.6
3877.421	-125.6
3880.016	-113.6
3882.61	-51.6
3885.202	-115.6
3887.792	-127.6
3890.38	-208.6
3892.966	-146.6
3895.55	-166.6
3898.132	-231.6
3900.713	-249.6
3903.291	-182.6
3905.868	-239.6
3908.442	-273.6
3911.015	-214.6
3913.586	-226.6
3916.155	-119.6
3918.722	-107.6
3921.287	-203.6
3923.85	-165.6
3926.411	-247.6
3928.971	-266.6
3931.528	-244.6
3934.084	-233.6
3936.638	-214.6
3939.19	-239.6
3941.74	-224.6
3944.288	-219.6
3946.834	-197.6
3949.378	-219.6
3951.921	-161.6
3954.462	-237.6
3957	-172.6
3959.537	-145.6
3962.072	-154.6
3964.606	-85.6
3967.137	-185.6
3969.667	-215.6
3972.194	-203.6
3974.72	-189.6
3977.244	-188.6
3979.766	-187.6
3982.286	-98.6
3984.805	-262.6
3987.321	-241.6
3989.836	-210.6
3992.349	-147.6
3994.86	-228.6
3997.369	-216.6
3999.877	-221.6
4002.382	-238.6
4004.886	-160.6
4007.388	-228.6
4009.888	-67.6
4012.386	-243.6
4014.883	-214.6
4017.377	-238.6
4019.87	-319.6
4022.361	-134.6
4024.85	-184.6
4027.338	-92.6
4029.823	-258.6
4032.307	-261.6
4034.789	-164.6
4037.269	-154.6
4039.747	-171.6
4042.224	-234.6
4044.699	-200.6
4047.172	-194.6
4049.643	-322.6
4052.112	-135.6
4054.58	-179.6
4057.046	-152.6
4059.51	-169.6
4061.972	-257.6
4064.432	-96.6
4066.891	-233.6
4069.348	-185.6
4071.803	-231.6
4074.256	-241.6
4076.708	-175.6
4079.158	-184.6
4081.606	-272.6
4084.052	-237.6
4086.497	-234.6
4088.939	-178.6
4091.38	-173.6
4093.819	-178.6
4096.257	-943.6
4098.693	-945.6
4101.127	-974.6
4103.559	-1021.6
4105.989	128.4
4108.418	-60.6
4110.845	190.4
4113.27	52.4
4115.694	147.4
4118.115	158.4
4120.535	-254.6
4122.954	-269.6
4125.37	-275.6
4127.785	-182.6
4130.198	-233.6
4132.609	-224.6
4135.019	-1001.6
4137.427	-1030.6
4139.833	-968.6
4142.237	-848.6
