Data from 2018-2-8_conc=6_RamanShift_20.txt Node
Date: Wed Feb 07 11:37:10 IST 2018
User: aro
Spectrometer: QEPB0276
Trigger mode: 0
Integration Time (sec): 3.000000E1
Scans to average: 1
Electric dark correction enabled: true
Nonlinearity correction enabled: false
Boxcar width: 0
XAxis mode: Raman Shifts
Number of Pixels in Spectrum: 1044
>>>>>Begin Spectral Data<<<<<
160.701	830.1
166.742	957.1
172.777	1528.1
178.805	3058.1
184.826	6422.1
190.841	12154.1
196.849	19195.1
202.85	24525.1
208.845	26476.1
214.833	26108.1
220.815	25840.1
226.789	24463.1
232.758	25499.1
238.719	25360.1
244.674	25076.1
250.623	24580.1
256.565	24234.1
262.5	23711.1
268.429	23036.1
274.351	22752.1
280.267	22582.1
286.176	21948.1
292.079	21756.1
297.975	21394.1
303.865	21194.1
309.748	21062.1
315.625	20912.1
321.495	20414.1
327.359	20480.1
333.217	20442.1
339.068	20424.1
344.912	20444.1
350.751	20359.1
356.583	20201.1
362.408	20253.1
368.227	20307.1
374.04	20392.1
379.847	20480.1
385.647	20513.1
391.44	20879.1
397.228	20790.1
403.009	20892.1
408.784	20894.1
414.553	21228.1
420.315	21226.1
426.071	21367.1
431.821	21179.1
437.565	21248.1
443.302	20985.1
449.033	21021.1
454.758	20914.1
460.477	20777.1
466.189	20643.1
471.896	20581.1
477.596	20501.1
483.29	20584.1
488.978	20450.1
494.66	20570.1
500.335	20522.1
506.005	20367.1
511.668	20027.1
517.325	20010.1
522.977	19785.1
528.622	19761.1
534.261	19523.1
539.894	19476.1
545.521	19418.1
551.141	19417.1
556.756	19084.1
562.365	18932.1
567.968	18848.1
573.565	18692.1
579.155	18505.1
584.74	18528.1
590.319	18324.1
595.892	18307.1
601.459	18205.1
607.02	18283.1
612.575	18341.1
618.124	18098.1
623.667	18290.1
629.204	18150.1
634.735	18238.1
640.261	18066.1
645.781	18369.1
651.294	18027.1
656.802	17811.1
662.304	17685.1
667.8	17379.1
673.29	17526.1
678.775	17332.1
684.254	17344.1
689.726	17446.1
695.193	17130.1
700.655	17294.1
706.11	17394.1
711.56	17167.1
717.004	17255.1
722.442	17568.1
727.874	17279.1
733.301	17245.1
738.722	17378.1
744.137	17142.1
749.547	17052.1
754.951	17074.1
760.349	16837.1
765.741	16649.1
771.128	16716.1
776.509	16707.1
781.885	16606.1
787.254	16611.1
792.618	16747.1
797.977	16915.1
803.33	16901.1
808.677	16894.1
814.019	16868.1
819.355	16954.1
824.686	16910.1
830.011	16884.1
835.33	16494.1
840.644	16428.1
845.952	16519.1
851.255	16188.1
856.552	16104.1
861.844	16025.1
867.13	15880.1
872.41	15937.1
877.686	15747.1
882.955	15818.1
888.219	15934.1
893.478	16115.1
898.731	15769.1
903.979	15783.1
909.221	15854.1
914.458	15809.1
919.69	15559.1
924.916	15565.1
930.136	15348.1
935.351	15254.1
940.561	14926.1
945.766	14896.1
950.965	14580.1
956.158	14880.1
961.347	14965.1
966.529	14921.1
971.707	14839.1
976.879	14809.1
982.046	14878.1
987.208	14976.1
992.364	14763.1
997.515	14799.1
1002.66	14609.1
1007.801	14746.1
1012.936	14765.1
1018.066	14716.1
1023.19	14484.1
1028.309	14339.1
1033.423	14486.1
1038.532	14436.1
1043.636	14764.1
1048.734	14675.1
1053.827	14857.1
1058.915	14871.1
1063.998	14590.1
1069.075	14504.1
1074.147	14231.1
1079.214	14319.1
1084.276	13960.1
1089.333	13979.1
1094.385	13954.1
1099.431	13949.1
1104.472	13851.1
1109.509	14045.1
1114.54	14133.1
1119.565	14162.1
1124.586	14120.1
1129.602	14090.1
1134.613	14130.1
1139.618	14059.1
1144.619	13826.1
1149.614	13554.1
1154.604	13525.1
1159.589	13409.1
1164.57	13165.1
1169.545	13151.1
1174.515	13189.1
1179.48	13331.1
1184.44	13321.1
1189.395	13515.1
1194.345	13669.1
1199.29	13606.1
1204.23	13714.1
1209.165	13626.1
1214.095	13461.1
1219.021	13374.1
1223.941	13377.1
1228.856	13409.1
1233.766	13337.1
1238.672	13208.1
1243.572	13138.1
1248.467	13230.1
1253.358	13335.1
1258.244	13391.1
1263.124	13287.1
1268	13116.1
1272.871	13200.1
1277.737	13194.1
1282.599	13006.1
1287.455	12798.1
1292.306	12539.1
1297.153	12668.1
1301.995	12372.1
1306.832	12334.1
1311.664	12328.1
1316.491	12383.1
1321.314	12368.1
1326.132	12353.1
1330.945	12300.1
1335.753	12204.1
1340.556	12071.1
1345.354	11924.1
1350.148	11671.1
1354.937	11527.1
1359.722	11462.1
1364.501	11335.1
1369.276	11086.1
1374.046	11129.1
1378.811	11410.1
1383.572	11332.1
1388.327	11073.1
1393.079	11614.1
1397.825	11702.1
1402.567	11647.1
1407.304	11542.1
1412.036	11635.1
1416.764	11402.1
1421.487	11750.1
1426.205	11426.1
1430.919	11148.1
1435.628	11100.1
1440.333	10956.1
1445.032	10921.1
1449.727	10799.1
1454.418	10844.1
1459.104	10792.1
1463.785	10723.1
1468.462	10594.1
1473.134	10640.1
1477.802	10485.1
1482.465	10625.1
1487.123	10139.1
1491.777	10459.1
1496.426	10374.1
1501.071	10023.1
1505.711	10133.1
1510.347	10155.1
1514.978	10253.1
1519.604	10321.1
1524.226	10318.1
1528.844	10745.1
1533.457	10598.1
1538.065	10795.1
1542.669	10806.1
1547.269	10809.1
1551.864	10663.1
1556.454	10938.1
1561.041	10908.1
1565.622	10870.1
1570.199	10601.1
1574.772	10594.1
1579.34	10471.1
1583.904	10475.1
1588.464	10495.1
1593.019	10421.1
1597.569	10641.1
1602.115	10456.1
1606.657	10737.1
1611.195	10735.1
1615.728	10793.1
1620.256	10966.1
1624.78	11053.1
1629.3	10980.1
1633.816	10737.1
1638.327	10801.1
1642.834	10575.1
1647.336	10604.1
1651.834	10534.1
1656.328	10603.1
1660.817	10470.1
1665.302	10635.1
1669.783	10571.1
1674.259	10378.1
1678.732	10082.1
1683.199	9879.1
1687.663	9816.1
1692.122	9367.1
1696.577	9101.1
1701.028	9024.1
1705.474	9008.1
1709.917	8960.1
1714.355	8976.1
1718.788	8834.1
1723.218	8710.1
1727.643	8505.1
1732.064	8341.1
1736.481	8487.1
1740.893	8175.1
1745.301	8060.1
1749.705	8175.1
1754.105	7653.1
1758.501	7696.1
1762.893	7368.1
1767.28	7388.1
1771.663	7178.1
1776.042	7065.1
1780.417	6971.1
1784.787	6637.1
1789.154	6725.1
1793.516	6823.1
1797.874	6879.1
1802.228	7069.1
1806.578	7168.1
1810.924	7016.1
1815.266	7775.1
1819.603	7137.1
1823.937	7135.1
1828.266	7059.1
1832.591	7019.1
1836.913	6938.1
1841.23	6988.1
1845.543	6979.1
1849.852	6718.1
1854.156	6785.1
1858.457	6745.1
1862.754	6440.1
1867.047	6600.1
1871.335	6428.1
1875.62	6390.1
1879.9	6397.1
1884.177	6597.1
1888.449	6390.1
1892.718	6491.1
1896.982	6328.1
1901.243	6582.1
1905.499	6468.1
1909.752	6339.1
1914	6569.1
1918.245	6259.1
1922.485	6292.1
1926.722	6373.1
1930.954	6413.1
1935.183	6409.1
1939.408	6326.1
1943.628	6413.1
1947.845	6471.1
1952.058	6574.1
1956.267	6390.1
1960.472	6340.1
1964.673	6446.1
1968.87	6485.1
1973.063	6517.1
1977.252	6284.1
1981.438	6237.1
1985.619	6219.1
1989.797	6107.1
1993.971	6089.1
1998.14	5864.1
2002.306	5964.1
2006.469	5706.1
2010.627	5949.1
2014.781	5925.1
2018.932	5969.1
2023.078	5665.1
2027.221	5698.1
2031.36	5742.1
2035.495	5784.1
2039.627	5716.1
2043.754	5495.1
2047.878	5623.1
2051.998	5570.1
2056.114	5628.1
2060.226	5584.1
2064.334	5489.1
2068.439	5398.1
2072.54	5356.1
2076.637	5595.1
2080.73	5467.1
2084.82	5415.1
2088.906	5503.1
2092.988	5441.1
2097.066	5697.1
2101.14	5324.1
2105.211	5473.1
2109.278	5556.1
2113.342	5577.1
2117.401	5666.1
2121.457	5576.1
2125.509	5648.1
2129.558	5346.1
2133.602	5456.1
2137.643	5360.1
2141.681	5279.1
2145.714	5269.1
2149.744	5159.1
2153.77	5189.1
2157.793	5196.1
2161.812	5345.1
2165.827	5262.1
2169.838	4909.1
2173.846	5111.1
2177.851	5017.1
2181.851	4851.1
2185.848	4945.1
2189.841	4860.1
2193.831	4996.1
2197.817	4695.1
2201.799	4696.1
2205.778	4788.1
2209.753	4833.1
2213.725	4741.1
2217.693	4657.1
2221.657	4696.1
2225.618	4538.1
2229.575	4554.1
2233.529	4501.1
2237.479	4558.1
2241.425	4566.1
2245.368	4689.1
2249.307	4621.1
2253.243	4500.1
2257.175	4555.1
2261.104	4390.1
2265.029	4275.1
2268.95	4289.1
2272.868	4245.1
2276.783	4312.1
2280.694	3944.1
2284.601	4069.1
2288.505	4071.1
2292.405	3863.1
2296.302	4096.1
2300.195	3890.1
2304.085	4086.1
2307.971	3865.1
2311.854	3924.1
2315.734	3790.1
2319.609	3839.1
2323.482	4033.1
2327.351	3835.1
2331.216	3792.1
2335.078	3717.1
2338.937	3775.1
2342.792	3805.1
2346.643	3731.1
2350.492	3626.1
2354.336	3766.1
2358.178	3644.1
2362.015	3616.1
2365.85	3721.1
2369.681	3726.1
2373.508	3677.1
2377.333	3522.1
2381.153	3751.1
2384.971	3761.1
2388.785	3780.1
2392.595	3766.1
2396.402	3750.1
2400.206	3839.1
2404.007	3806.1
2407.804	3681.1
2411.597	3548.1
2415.388	3651.1
2419.174	3651.1
2422.958	3625.1
2426.738	3606.1
2430.515	3475.1
2434.289	3599.1
2438.059	3569.1
2441.825	3572.1
2445.589	3295.1
2449.349	3534.1
2453.106	3399.1
2456.859	3383.1
2460.61	3304.1
2464.356	3351.1
2468.1	3334.1
2471.84	3380.1
2475.577	3351.1
2479.311	3254.1
2483.041	3174.1
2486.768	3083.1
2490.492	2911.1
2494.213	3403.1
2497.93	3227.1
2501.644	3279.1
2505.355	3356.1
2509.062	3154.1
2512.766	3170.1
2516.467	3124.1
2520.165	3160.1
2523.859	3385.1
2527.551	2943.1
2531.239	3160.1
2534.923	3146.1
2538.605	3222.1
2542.283	3057.1
2545.958	3083.1
2549.63	2979.1
2553.299	2957.1
2556.964	2822.1
2560.626	3118.1
2564.285	2871.1
2567.941	3083.1
2571.594	3058.1
2575.243	2847.1
2578.89	3086.1
2582.533	3067.1
2586.173	3067.1
2589.809	2937.1
2593.443	3269.1
2597.073	3025.1
2600.701	2846.1
2604.325	2905.1
2607.946	2984.1
2611.564	2912.1
2615.178	2903.1
2618.79	2877.1
2622.398	2949.1
2626.004	2938.1
2629.606	2771.1
2633.205	3010.1
2636.801	2817.1
2640.394	2756.1
2643.983	2782.1
2647.57	2845.1
2651.153	2721.1
2654.734	2551.1
2658.311	2932.1
2661.885	2676.1
2665.456	2630.1
2669.025	2620.1
2672.589	2610.1
2676.151	2372.1
2679.71	2389.1
2683.266	2613.1
2686.819	2246.1
2690.368	2463.1
2693.915	2456.1
2697.458	2490.1
2700.999	2335.1
2704.536	2349.1
2708.071	2349.1
2711.602	2254.1
2715.13	2379.1
2718.656	2344.1
2722.178	2184.1
2725.697	2383.1
2729.214	2013.1
2732.727	2128.1
2736.237	2202.1
2739.744	2191.1
2743.249	2262.1
2746.75	2288.1
2750.248	2346.1
2753.743	2265.1
2757.236	2228.1
2760.725	2247.1
2764.211	2534.1
2767.695	2311.1
2771.175	2340.1
2774.652	2197.1
2778.127	2244.1
2781.598	2232.1
2785.067	2248.1
2788.532	2228.1
2791.995	2267.1
2795.455	2271.1
2798.911	2234.1
2802.365	2352.1
2805.816	2232.1
2809.264	2116.1
2812.709	2317.1
2816.151	2169.1
2819.59	2426.1
2823.026	2408.1
2826.46	2426.1
2829.89	2329.1
2833.318	2638.1
2836.742	2265.1
2840.164	2326.1
2843.583	2507.1
2846.999	2430.1
2850.412	2315.1
2853.822	2798.1
2857.229	2318.1
2860.634	2392.1
2864.035	2506.1
2867.434	2344.1
2870.83	2448.1
2874.223	2540.1
2877.613	2391.1
2881	2655.1
2884.385	2694.1
2887.766	2649.1
2891.145	2611.1
2894.521	2716.1
2897.894	2814.1
2901.264	2377.1
2904.631	2704.1
2907.996	2636.1
2911.358	2624.1
2914.717	2742.1
2918.073	2701.1
2921.426	2692.1
2924.777	2860.1
2928.124	2800.1
2931.469	2703.1
2934.811	3012.1
2938.15	2775.1
2941.487	2920.1
2944.821	2541.1
2948.152	2966.1
2951.48	2926.1
2954.805	2875.1
2958.128	2781.1
2961.447	2903.1
2964.765	2762.1
2968.079	2967.1
2971.39	2912.1
2974.699	2962.1
2978.005	2932.1
2981.308	2932.1
2984.609	3126.1
2987.907	2979.1
2991.202	3088.1
2994.494	3131.1
2997.784	2766.1
3001.07	3062.1
3004.355	3130.1
3007.636	3184.1
3010.915	3320.1
3014.191	3270.1
3017.464	3354.1
3020.734	3258.1
3024.002	3400.1
3027.267	3434.1
3030.53	3461.1
3033.789	3553.1
3037.046	3671.1
3040.301	3644.1
3043.552	3682.1
3046.801	3913.1
3050.048	3657.1
3053.291	3580.1
3056.532	3813.1
3059.771	4095.1
3063.006	4011.1
3066.239	4033.1
3069.469	4135.1
3072.697	4496.1
3075.922	4505.1
3079.144	4457.1
3082.364	4534.1
3085.581	4787.1
3088.795	4468.1
3092.007	4861.1
3095.216	5061.1
3098.423	5321.1
3101.627	5449.1
3104.828	5471.1
3108.026	5568.1
3111.222	5627.1
3114.416	5555.1
3117.607	5798.1
3120.795	5906.1
3123.98	6069.1
3127.163	6294.1
3130.344	6197.1
3133.521	6378.1
3136.696	6344.1
3139.869	6551.1
3143.039	6618.1
3146.206	6608.1
3149.371	6831.1
3152.533	6969.1
3155.693	7113.1
3158.85	7161.1
3162.005	7147.1
3165.157	7362.1
3168.306	7362.1
3171.453	7216.1
3174.597	7570.1
3177.739	7655.1
3180.878	7459.1
3184.014	7377.1
3187.149	7515.1
3190.28	7472.1
3193.409	7402.1
3196.536	7351.1
3199.659	7310.1
3202.781	7319.1
3205.9	7526.1
3209.016	7384.1
3212.13	7420.1
3215.241	7383.1
3218.35	7373.1
3221.456	7481.1
3224.56	7638.1
3227.661	7539.1
3230.76	7651.1
3233.856	7578.1
3236.95	7467.1
3240.041	7543.1
3243.13	7289.1
3246.216	7394.1
3249.3	7228.1
3252.382	7178.1
3255.46	7389.1
3258.537	7750.1
3261.611	7321.1
3264.682	7069.1
3267.751	7057.1
3270.818	7131.1
3273.882	6957.1
3276.943	6846.1
3280.002	6743.1
3283.059	6799.1
3286.113	6777.1
3289.165	6912.1
3292.214	6818.1
3295.261	6514.1
3298.306	6737.1
3301.348	6482.1
3304.387	6539.1
3307.425	6304.1
3310.459	6401.1
3313.492	6129.1
3316.521	6086.1
3319.549	6009.1
3322.574	5951.1
3325.597	5934.1
3328.617	5875.1
3331.635	5763.1
3334.65	5878.1
3337.663	5656.1
3340.674	5776.1
3343.682	5576.1
3346.688	5659.1
3349.691	5556.1
3352.692	5727.1
3355.691	5459.1
3358.687	5475.1
3361.681	5481.1
3364.673	5464.1
3367.662	5465.1
3370.649	5290.1
3373.633	5410.1
3376.615	5373.1
3379.595	5532.1
3382.572	5327.1
3385.547	5234.1
3388.52	5346.1
3391.49	5188.1
3394.458	5169.1
3397.424	4991.1
3400.387	5032.1
3403.348	4715.1
3406.307	4802.1
3409.263	4870.1
3412.217	4583.1
3415.168	4578.1
3418.118	4565.1
3421.065	4559.1
3424.009	4316.1
3426.951	4500.1
3429.891	4467.1
3432.829	4392.1
3435.764	4352.1
3438.697	4301.1
3441.628	4017.1
3444.557	4181.1
3447.483	4212.1
3450.407	3936.1
3453.328	3712.1
3456.247	3874.1
3459.164	3958.1
3462.079	3619.1
3464.991	3597.1
3467.902	3530.1
3470.809	3520.1
3473.715	3364.1
3476.618	3305.1
3479.519	3180.1
3482.418	3365.1
3485.315	3089.1
3488.209	2975.1
3491.101	2827.1
3493.99	3008.1
3496.878	2597.1
3499.763	2754.1
3502.646	2599.1
3505.527	2753.1
3508.405	2566.1
3511.281	2510.1
3514.155	2523.1
3517.027	2380.1
3519.897	2583.1
3522.764	2253.1
3525.629	2363.1
3528.492	2205.1
3531.352	2042.1
3534.211	2058.1
3537.067	2201.1
3539.921	2012.1
3542.773	1953.1
3545.622	1882.1
3548.469	1964.1
3551.315	1899.1
3554.157	1792.1
3556.998	1645.1
3559.837	1537.1
3562.673	1436.1
3565.507	1614.1
3568.339	1395.1
3571.169	1543.1
3573.996	1423.1
3576.822	1383.1
3579.645	1429.1
3582.466	1337.1
3585.285	1248.1
3588.101	1241.1
3590.916	1321.1
3593.728	1175.1
3596.538	1285.1
3599.346	1132.1
3602.152	1197.1
3604.956	1184.1
3607.757	984.1
3610.556	1233.1
3613.354	978.1
3616.149	962.1
3618.942	922.1
3621.732	720.1
3624.521	1041.1
3627.307	932.1
3630.092	768.1
3632.874	764.1
3635.654	895.1
3638.432	998.1
3641.208	808.1
3643.982	867.1
3646.753	755.1
3649.523	817.1
3652.29	815.1
3655.055	802.1
3657.818	686.1
3660.579	539.1
3663.338	933.1
3666.095	677.1
3668.849	876.1
3671.602	655.1
3674.352	806.1
3677.101	604.1
3679.847	485.1
3682.591	715.1
3685.333	718.1
3688.073	612.1
3690.811	712.1
3693.547	564.1
3696.281	612.1
3699.013	603.1
3701.742	616.1
3704.47	721.1
3707.195	517.1
3709.919	543.1
3712.64	537.1
3715.359	429.1
3718.076	239.1
3720.792	860.1
3723.505	516.1
3726.216	428.1
3728.925	624.1
3731.632	344.1
3734.336	568.1
3737.039	531.1
3739.74	525.1
3742.439	673.1
3745.136	453.1
3747.83	427.1
3750.523	454.1
3753.213	655.1
3755.902	466.1
3758.589	644.1
3761.273	558.1
3763.956	291.1
3766.636	590.1
3769.315	269.1
3771.991	540.1
3774.665	501.1
3777.338	610.1
3780.008	555.1
3782.677	253.1
3785.343	616.1
3788.007	699.1
3790.67	394.1
3793.33	441.1
3795.989	532.1
3798.645	446.1
3801.299	643.1
3803.952	419.1
3806.602	376.1
3809.251	423.1
3811.897	442.1
3814.542	498.1
3817.184	206.1
3819.825	521.1
3822.463	189.1
3825.1	446.1
3827.735	461.1
3830.367	448.1
3832.998	262.1
3835.627	329.1
3838.253	296.1
3840.878	268.1
3843.501	247.1
3846.122	396.1
3848.741	270.1
3851.358	410.1
3853.973	685.1
3856.586	403.1
3859.197	385.1
3861.806	390.1
3864.414	524.1
3867.019	461.1
3869.622	329.1
3872.224	361.1
3874.823	581.1
3877.421	437.1
3880.016	536.1
3882.61	609.1
3885.202	577.1
3887.792	575.1
3890.38	335.1
3892.966	478.1
3895.55	432.1
3898.132	428.1
3900.713	332.1
3903.291	427.1
3905.868	514.1
3908.442	391.1
3911.015	374.1
3913.586	415.1
3916.155	366.1
3918.722	562.1
3921.287	413.1
3923.85	178.1
3926.411	353.1
3928.971	310.1
3931.528	375.1
3934.084	385.1
3936.638	392.1
3939.19	343.1
3941.74	429.1
3944.288	313.1
3946.834	443.1
3949.378	297.1
3951.921	519.1
3954.462	365.1
3957	377.1
3959.537	369.1
3962.072	559.1
3964.606	587.1
3967.137	236.1
3969.667	340.1
3972.194	397.1
3974.72	441.1
3977.244	505.1
3979.766	311.1
3982.286	566.1
3984.805	341.1
3987.321	256.1
3989.836	357.1
3992.349	449.1
3994.86	423.1
3997.369	293.1
3999.877	334.1
4002.382	391.1
4004.886	409.1
4007.388	468.1
4009.888	506.1
4012.386	314.1
4014.883	391.1
4017.377	427.1
4019.87	285.1
4022.361	500.1
4024.85	469.1
4027.338	380.1
4029.823	284.1
4032.307	392.1
4034.789	424.1
4037.269	428.1
4039.747	481.1
4042.224	321.1
4044.699	443.1
4047.172	447.1
4049.643	334.1
4052.112	483.1
4054.58	401.1
4057.046	436.1
4059.51	491.1
4061.972	347.1
4064.432	552.1
4066.891	249.1
4069.348	456.1
4071.803	314.1
4074.256	313.1
4076.708	367.1
4079.158	473.1
4081.606	218.1
4084.052	449.1
4086.497	264.1
4088.939	482.1
4091.38	492.1
4093.819	354.1
4096.257	-1523.9
4098.693	-1678.9
4101.127	-1643.9
4103.559	-1698.9
4105.989	600.1
4108.418	608.1
4110.845	824.1
4113.27	629.1
4115.694	779.1
4118.115	789.1
4120.535	302.1
4122.954	265.1
4125.37	191.1
4127.785	352.1
4130.198	337.1
4132.609	318.1
4135.019	-1733.9
4137.427	-1672.9
4139.833	-1635.9
4142.237	-1330.9
