Data from 2018-2-8_conc=0_RamanShift_21.txt Node
Date: Wed Feb 07 09:39:10 IST 2018
User: aro
Spectrometer: QEPB0276
Trigger mode: 0
Integration Time (sec): 3.000000E1
Scans to average: 1
Electric dark correction enabled: true
Nonlinearity correction enabled: false
Boxcar width: 0
XAxis mode: Raman Shifts
Number of Pixels in Spectrum: 1044
>>>>>Begin Spectral Data<<<<<
160.701	458
166.742	574
172.777	1019
178.805	2635
184.826	6011
190.841	11875
196.849	18849
202.85	23884
208.845	25832
214.833	25531
220.815	25108
226.789	24982
232.758	24926
238.719	24816
244.674	24566
250.623	24089
256.565	23679
262.5	23222
268.429	22677
274.351	22264
280.267	22189
286.176	21591
292.079	21318
297.975	21058
303.865	20899
309.748	20591
315.625	20567
321.495	20111
327.359	20154
333.217	20172
339.068	20164
344.912	20146
350.751	20059
356.583	20111
362.408	20038
368.227	20027
374.04	20118
379.847	20210
385.647	20261
391.44	20506
397.228	20562
403.009	20678
408.784	20874
414.553	20912
420.315	21026
426.071	21032
431.821	20977
437.565	20972
443.302	20657
449.033	20827
454.758	20639
460.477	20562
466.189	20455
471.896	20384
477.596	20214
483.29	20293
488.978	20221
494.66	20224
500.335	20182
506.005	20102
511.668	19929
517.325	19789
522.977	19591
528.622	19538
534.261	19309
539.894	19261
545.521	19274
551.141	19151
556.756	18883
562.365	18803
567.968	18706
573.565	18544
579.155	18450
584.74	18382
590.319	18212
595.892	18191
601.459	18174
607.02	18163
612.575	18111
618.124	18071
623.667	18211
629.204	18064
634.735	18081
640.261	18077
645.781	18129
651.294	17831
656.802	17667
662.304	17637
667.8	17329
673.29	17408
678.775	17210
684.254	17217
689.726	17250
695.193	17139
700.655	17186
706.11	17284
711.56	17081
717.004	17219
722.442	17346
727.874	17200
733.301	17166
738.722	17236
744.137	16953
749.547	16946
754.951	16848
760.349	16731
765.741	16537
771.128	16548
776.509	16556
781.885	16478
787.254	16513
792.618	16578
797.977	16633
803.33	16691
808.677	16753
814.019	16651
819.355	16642
824.686	16615
830.011	16752
835.33	16416
840.644	16247
845.952	16267
851.255	16038
856.552	15977
861.844	15771
867.13	15763
872.41	15698
877.686	15635
882.955	15761
888.219	15846
893.478	15887
898.731	15725
903.979	15651
909.221	15819
914.458	15571
919.69	15506
924.916	15391
930.136	15159
935.351	15094
940.561	14791
945.766	14740
950.965	14565
956.158	14670
961.347	14805
966.529	14704
971.707	14705
976.879	14614
982.046	14710
987.208	14707
992.364	14642
997.515	14554
1002.66	14417
1007.801	14552
1012.936	14471
1018.066	14446
1023.19	14272
1028.309	14210
1033.423	14299
1038.532	14410
1043.636	14633
1048.734	14530
1053.827	14621
1058.915	14614
1063.998	14488
1069.075	14298
1074.147	14133
1079.214	14141
1084.276	13863
1089.333	13813
1094.385	13810
1099.431	13723
1104.472	13674
1109.509	13865
1114.54	13926
1119.565	13915
1124.586	13921
1129.602	13903
1134.613	13911
1139.618	13802
1144.619	13641
1149.614	13378
1154.604	13208
1159.589	13220
1164.57	12999
1169.545	13043
1174.515	13064
1179.48	13168
1184.44	13237
1189.395	13332
1194.345	13465
1199.29	13451
1204.23	13470
1209.165	13394
1214.095	13297
1219.021	13251
1223.941	13326
1228.856	13161
1233.766	13165
1238.672	13010
1243.572	13015
1248.467	13022
1253.358	13128
1258.244	13130
1263.124	12995
1268	13010
1272.871	12897
1277.737	12926
1282.599	12667
1287.455	12543
1292.306	12279
1297.153	12306
1301.995	12165
1306.832	12127
1311.664	12114
1316.491	12144
1321.314	12211
1326.132	12123
1330.945	12077
1335.753	11953
1340.556	11878
1345.354	11711
1350.148	11496
1354.937	11318
1359.722	11364
1364.501	11066
1369.276	11081
1374.046	10994
1378.811	11147
1383.572	11166
1388.327	10986
1393.079	11308
1397.825	11429
1402.567	11375
1407.304	11317
1412.036	11270
1416.764	11209
1421.487	11416
1426.205	11103
1430.919	10868
1435.628	10820
1440.333	10763
1445.032	10607
1449.727	10664
1454.418	10585
1459.104	10542
1463.785	10435
1468.462	10402
1473.134	10443
1477.802	10336
1482.465	10438
1487.123	10087
1491.777	10204
1496.426	10119
1501.071	9945
1505.711	10013
1510.347	9988
1514.978	10113
1519.604	10188
1524.226	10240
1528.844	10479
1533.457	10432
1538.065	10579
1542.669	10582
1547.269	10652
1551.864	10553
1556.454	10742
1561.041	10604
1565.622	10528
1570.199	10259
1574.772	10351
1579.34	10042
1583.904	10233
1588.464	10168
1593.019	10177
1597.569	10315
1602.115	10372
1606.657	10484
1611.195	10345
1615.728	10465
1620.256	10560
1624.78	10594
1629.3	10654
1633.816	10454
1638.327	10413
1642.834	10393
1647.336	10385
1651.834	10198
1656.328	10346
1660.817	10236
1665.302	10291
1669.783	10274
1674.259	10065
1678.732	9841
1683.199	9616
1687.663	9498
1692.122	9187
1696.577	9020
1701.028	8941
1705.474	8816
1709.917	8833
1714.355	8812
1718.788	8672
1723.218	8517
1727.643	8265
1732.064	8237
1736.481	8118
1740.893	7933
1745.301	7829
1749.705	7881
1754.105	7461
1758.501	7479
1762.893	7127
1767.28	7135
1771.663	6946
1776.042	6792
1780.417	6661
1784.787	6570
1789.154	6545
1793.516	6527
1797.874	6783
1802.228	6863
1806.578	6989
1810.924	6843
1815.266	7715
1819.603	6907
1823.937	6924
1828.266	6896
1832.591	6824
1836.913	6692
1841.23	6737
1845.543	6691
1849.852	6504
1854.156	6520
1858.457	6415
1862.754	6516
1867.047	6346
1871.335	6149
1875.62	6292
1879.9	6266
1884.177	6324
1888.449	6255
1892.718	6270
1896.982	6152
1901.243	6271
1905.499	6186
1909.752	6223
1914	6309
1918.245	6166
1922.485	6156
1926.722	6297
1930.954	6244
1935.183	6225
1939.408	6208
1943.628	6268
1947.845	6270
1952.058	6313
1956.267	6252
1960.472	6149
1964.673	6264
1968.87	6248
1973.063	6163
1977.252	6094
1981.438	5963
1985.619	5972
1989.797	5852
1993.971	5770
1998.14	5609
2002.306	5668
2006.469	5580
2010.627	5545
2014.781	5535
2018.932	5606
2023.078	5406
2027.221	5427
2031.36	5414
2035.495	5535
2039.627	5390
2043.754	5320
2047.878	5290
2051.998	5302
2056.114	5280
2060.226	5259
2064.334	5213
2068.439	5153
2072.54	5098
2076.637	5277
2080.73	5201
2084.82	5178
2088.906	5250
2092.988	5305
2097.066	5345
2101.14	5230
2105.211	5336
2109.278	5300
2113.342	5371
2117.401	5362
2121.457	5303
2125.509	5283
2129.558	5050
2133.602	5142
2137.643	5028
2141.681	4952
2145.714	4958
2149.744	4865
2153.77	4877
2157.793	4814
2161.812	4888
2165.827	4822
2169.838	4670
2173.846	4719
2177.851	4602
2181.851	4534
2185.848	4710
2189.841	4484
2193.831	4540
2197.817	4345
2201.799	4378
2205.778	4378
2209.753	4341
2213.725	4284
2217.693	4328
2221.657	4308
2225.618	4173
2229.575	4244
2233.529	4122
2237.479	4198
2241.425	4151
2245.368	4250
2249.307	4157
2253.243	4121
2257.175	4101
2261.104	3975
2265.029	3928
2268.95	3941
2272.868	3786
2276.783	3827
2280.694	3711
2284.601	3658
2288.505	3648
2292.405	3513
2296.302	3625
2300.195	3545
2304.085	3652
2307.971	3467
2311.854	3514
2315.734	3435
2319.609	3438
2323.482	3532
2327.351	3380
2331.216	3403
2335.078	3351
2338.937	3352
2342.792	3348
2346.643	3283
2350.492	3243
2354.336	3212
2358.178	3217
2362.015	3200
2365.85	3304
2369.681	3328
2373.508	3342
2377.333	3211
2381.153	3310
2384.971	3270
2388.785	3302
2392.595	3277
2396.402	3328
2400.206	3287
2404.007	3306
2407.804	3193
2411.597	3114
2415.388	3179
2419.174	3141
2422.958	3141
2426.738	3061
2430.515	2910
2434.289	3103
2438.059	3083
2441.825	3064
2445.589	2861
2449.349	2982
2453.106	2948
2456.859	2900
2460.61	2942
2464.356	2918
2468.1	2877
2471.84	2894
2475.577	2919
2479.311	2824
2483.041	2736
2486.768	2610
2490.492	2522
2494.213	2961
2497.93	2794
2501.644	2782
2505.355	2669
2509.062	2638
2512.766	2749
2516.467	2786
2520.165	2737
2523.859	2820
2527.551	2504
2531.239	2686
2534.923	2662
2538.605	2673
2542.283	2671
2545.958	2661
2549.63	2569
2553.299	2587
2556.964	2577
2560.626	2646
2564.285	2481
2567.941	2634
2571.594	2669
2575.243	2465
2578.89	2599
2582.533	2584
2586.173	2533
2589.809	2490
2593.443	2695
2597.073	2564
2600.701	2381
2604.325	2460
2607.946	2497
2611.564	2443
2615.178	2398
2618.79	2338
2622.398	2411
2626.004	2448
2629.606	2295
2633.205	2441
2636.801	2307
2640.394	2279
2643.983	2284
2647.57	2329
2651.153	2239
2654.734	2151
2658.311	2293
2661.885	2198
2665.456	2162
2669.025	2136
2672.589	2085
2676.151	2036
2679.71	2048
2683.266	1975
2686.819	2040
2690.368	1964
2693.915	1967
2697.458	2008
2700.999	1926
2704.536	1851
2708.071	1861
2711.602	1852
2715.13	1845
2718.656	1827
2722.178	1716
2725.697	1828
2729.214	1570
2732.727	1742
2736.237	1790
2739.744	1778
2743.249	1774
2746.75	1779
2750.248	1853
2753.743	1882
2757.236	1814
2760.725	1806
2764.211	1965
2767.695	1820
2771.175	1826
2774.652	1892
2778.127	1843
2781.598	1792
2785.067	1788
2788.532	1884
2791.995	1744
2795.455	1770
2798.911	1733
2802.365	1904
2805.816	1779
2809.264	1726
2812.709	1798
2816.151	1839
2819.59	1936
2823.026	1899
2826.46	1857
2829.89	1823
2833.318	2081
2836.742	1909
2840.164	1855
2843.583	1952
2846.999	1949
2850.412	1890
2853.822	2048
2857.229	1889
2860.634	1892
2864.035	1982
2867.434	1939
2870.83	1845
2874.223	2023
2877.613	2002
2881	2138
2884.385	2149
2887.766	2131
2891.145	2260
2894.521	2172
2897.894	2244
2901.264	1931
2904.631	2226
2907.996	2222
2911.358	2157
2914.717	2173
2918.073	2195
2921.426	2196
2924.777	2279
2928.124	2315
2931.469	2228
2934.811	2432
2938.15	2318
2941.487	2344
2944.821	2303
2948.152	2429
2951.48	2393
2954.805	2376
2958.128	2292
2961.447	2390
2964.765	2284
2968.079	2482
2971.39	2351
2974.699	2441
2978.005	2381
2981.308	2464
2984.609	2566
2987.907	2511
2991.202	2595
2994.494	2660
2997.784	2354
3001.07	2573
3004.355	2614
3007.636	2647
3010.915	2767
3014.191	2848
3017.464	2819
3020.734	2814
3024.002	2909
3027.267	2922
3030.53	2979
3033.789	3015
3037.046	3178
3040.301	3075
3043.552	3149
3046.801	3204
3050.048	3163
3053.291	3133
3056.532	3331
3059.771	3414
3063.006	3406
3066.239	3497
3069.469	3647
3072.697	3840
3075.922	3894
3079.144	3915
3082.364	3996
3085.581	4241
3088.795	4162
3092.007	4274
3095.216	4488
3098.423	4715
3101.627	4783
3104.828	4918
3108.026	4926
3111.222	5043
3114.416	5046
3117.607	5290
3120.795	5259
3123.98	5436
3127.163	5612
3130.344	5534
3133.521	5695
3136.696	5879
3139.869	5885
3143.039	6025
3146.206	6126
3149.371	6166
3152.533	6404
3155.693	6452
3158.85	6522
3162.005	6566
3165.157	6687
3168.306	6692
3171.453	6645
3174.597	6889
3177.739	6901
3180.878	6775
3184.014	6715
3187.149	6780
3190.28	6749
3193.409	6729
3196.536	6780
3199.659	6689
3202.781	6645
3205.9	6881
3209.016	6783
3212.13	6733
3215.241	6631
3218.35	6812
3221.456	6882
3224.56	6913
3227.661	6855
3230.76	6872
3233.856	6850
3236.95	6814
3240.041	6853
3243.13	6632
3246.216	6772
3249.3	6561
3252.382	6583
3255.46	6738
3258.537	5831
3261.611	6584
3264.682	6374
3267.751	6441
3270.818	6435
3273.882	6284
3276.943	6190
3280.002	6173
3283.059	6152
3286.113	6086
3289.165	6167
3292.214	6055
3295.261	5898
3298.306	5985
3301.348	5863
3304.387	5777
3307.425	5705
3310.459	5670
3313.492	5453
3316.521	5446
3319.549	5352
3322.574	5290
3325.597	5259
3328.617	5236
3331.635	5102
3334.65	5141
3337.663	5097
3340.674	5065
3343.682	4926
3346.688	4916
3349.691	4986
3352.692	5047
3355.691	4822
3358.687	4818
3361.681	4878
3364.673	4827
3367.662	4788
3370.649	4807
3373.633	4798
3376.615	4774
3379.595	4848
3382.572	4636
3385.547	4602
3388.52	4641
3391.49	4552
3394.458	4507
3397.424	4326
3400.387	4425
3403.348	4133
3406.307	4161
3409.263	4197
3412.217	4042
3415.168	3989
3418.118	3977
3421.065	3997
3424.009	3802
3426.951	3903
3429.891	3643
3432.829	3778
3435.764	3741
3438.697	3725
3441.628	3487
3444.557	3617
3447.483	3592
3450.407	3396
3453.328	3411
3456.247	3393
3459.164	3338
3462.079	3126
3464.991	3052
3467.902	3010
3470.809	2981
3473.715	2810
3476.618	2780
3479.519	2667
3482.418	2738
3485.315	2543
3488.209	2444
3491.101	2481
3493.99	2445
3496.878	2116
3499.763	2168
3502.646	2134
3505.527	2201
3508.405	2106
3511.281	1999
3514.155	1970
3517.027	1974
3519.897	2016
3522.764	1759
3525.629	1834
3528.492	1754
3531.352	1801
3534.211	1542
3537.067	1600
3539.921	1543
3542.773	1431
3545.622	1415
3548.469	1419
3551.315	1321
3554.157	1245
3556.998	1195
3559.837	1047
3562.673	1008
3565.507	1115
3568.339	985
3571.169	1013
3573.996	922
3576.822	986
3579.645	899
3582.466	839
3585.285	828
3588.101	753
3590.916	809
3593.728	742
3596.538	755
3599.346	668
3602.152	803
3604.956	674
3607.757	561
3610.556	688
3613.354	585
3616.149	555
3618.942	513
3621.732	340
3624.521	517
3627.307	435
3630.092	457
3632.874	336
3635.654	470
3638.432	532
3641.208	405
3643.982	425
3646.753	333
3649.523	429
3652.29	402
3655.055	320
3657.818	235
3660.579	314
3663.338	405
3666.095	204
3668.849	414
3671.602	206
3674.352	337
3677.101	209
3679.847	154
3682.591	248
3685.333	219
3688.073	113
3690.811	248
3693.547	262
3696.281	172
3699.013	82
3701.742	130
3704.47	232
3707.195	91
3709.919	87
3712.64	109
3715.359	-26
3718.076	4
3720.792	17
3723.505	86
3726.216	92
3728.925	74
3731.632	6
3734.336	151
3737.039	83
3739.74	77
3742.439	109
3745.136	36
3747.83	-13
3750.523	28
3753.213	106
3755.902	38
3758.589	62
3761.273	101
3763.956	-125
3766.636	66
3769.315	-133
3771.991	140
3774.665	-28
3777.338	43
3780.008	62
3782.677	59
3785.343	148
3788.007	-94
3790.67	-33
3793.33	-88
3795.989	78
3798.645	-37
3801.299	135
3803.952	-30
3806.602	-69
3809.251	-6
3811.897	35
3814.542	44
3817.184	-170
3819.825	90
3822.463	33
3825.1	-18
3827.735	20
3830.367	-29
3832.998	-143
3835.627	-70
3838.253	-55
3840.878	-35
3843.501	-125
3846.122	-93
3848.741	-148
3851.358	-44
3853.973	70
3856.586	-25
3859.197	-55
3861.806	-59
3864.414	35
3867.019	-48
3869.622	-70
3872.224	-9
3874.823	43
3877.421	73
3880.016	57
3882.61	143
3885.202	80
3887.792	91
3890.38	-75
3892.966	12
3895.55	42
3898.132	-21
3900.713	-83
3903.291	-49
3905.868	-84
3908.442	-86
3911.015	-79
3913.586	-39
3916.155	-70
3918.722	36
3921.287	-13
3923.85	35
3926.411	-124
3928.971	-120
3931.528	-71
3934.084	-109
3936.638	-28
3939.19	-68
3941.74	-111
3944.288	-66
3946.834	-31
3949.378	-66
3951.921	5
3954.462	-43
3957	-92
3959.537	29
3962.072	40
3964.606	91
3967.137	-43
3969.667	-28
3972.194	-35
3974.72	-39
3977.244	53
3979.766	-6
3982.286	34
3984.805	-92
3987.321	-77
3989.836	-57
3992.349	27
3994.86	23
3997.369	-37
3999.877	-81
4002.382	-44
4004.886	-62
4007.388	-43
4009.888	75
4012.386	-74
4014.883	-50
4017.377	-60
4019.87	-134
4022.361	20
4024.85	-6
4027.338	-53
4029.823	-65
4032.307	-51
4034.789	30
4037.269	-4
4039.747	59
4042.224	-74
4044.699	26
4047.172	-48
4049.643	-49
4052.112	122
4054.58	-20
4057.046	-10
4059.51	30
4061.972	-67
4064.432	81
4066.891	-134
4069.348	-15
4071.803	-82
4074.256	-91
4076.708	-19
4079.158	-55
4081.606	-129
4084.052	-94
4086.497	5
4088.939	6
4091.38	30
4093.819	-60
4096.257	-1158
4098.693	-1138
4101.127	-1198
4103.559	-1249
4105.989	292
4108.418	107
4110.845	374
4113.27	208
4115.694	352
4118.115	354
4120.535	-80
4122.954	-118
4125.37	-148
4127.785	-63
4130.198	-80
4132.609	-108
4135.019	-1235
4137.427	-1251
4139.833	-1192
4142.237	-1008
