Data from 2018-2-8_conc=5_RamanShift_14.txt Node
Date: Wed Feb 07 11:07:10 IST 2018
User: aro
Spectrometer: QEPB0276
Trigger mode: 0
Integration Time (sec): 3.000000E1
Scans to average: 1
Electric dark correction enabled: true
Nonlinearity correction enabled: false
Boxcar width: 0
XAxis mode: Raman Shifts
Number of Pixels in Spectrum: 1044
>>>>>Begin Spectral Data<<<<<
160.701	634.6
166.742	725.6
172.777	1251.6
178.805	2775.6
184.826	6252.6
190.841	12060.6
196.849	19237.6
202.85	24538.6
208.845	26469.6
214.833	26238.6
220.815	25923.6
226.789	24466.6
232.758	25629.6
238.719	25514.6
244.674	25254.6
250.623	24870.6
256.565	24371.6
262.5	23957.6
268.429	23391.6
274.351	23012.6
280.267	22943.6
286.176	22363.6
292.079	22078.6
297.975	21699.6
303.865	21597.6
309.748	21422.6
315.625	21167.6
321.495	20831.6
327.359	20867.6
333.217	20879.6
339.068	20843.6
344.912	20756.6
350.751	20825.6
356.583	20598.6
362.408	20655.6
368.227	20668.6
374.04	20843.6
379.847	20872.6
385.647	21029.6
391.44	21192.6
397.228	21266.6
403.009	21376.6
408.784	21323.6
414.553	21587.6
420.315	21631.6
426.071	21724.6
431.821	21646.6
437.565	21628.6
443.302	21443.6
449.033	21504.6
454.758	21383.6
460.477	21223.6
466.189	21156.6
471.896	21014.6
477.596	20879.6
483.29	21000.6
488.978	20958.6
494.66	20950.6
500.335	20840.6
506.005	20888.6
511.668	20560.6
517.325	20426.6
522.977	20292.6
528.622	20184.6
534.261	20097.6
539.894	19949.6
545.521	19896.6
551.141	19808.6
556.756	19518.6
562.365	19399.6
567.968	19356.6
573.565	19178.6
579.155	19048.6
584.74	19003.6
590.319	18838.6
595.892	18856.6
601.459	18720.6
607.02	18800.6
612.575	18812.6
618.124	18668.6
623.667	18878.6
629.204	18689.6
634.735	18746.6
640.261	18623.6
645.781	18732.6
651.294	18560.6
656.802	18288.6
662.304	18159.6
667.8	17974.6
673.29	18022.6
678.775	17904.6
684.254	17836.6
689.726	17882.6
695.193	17742.6
700.655	17763.6
706.11	17840.6
711.56	17782.6
717.004	17801.6
722.442	18028.6
727.874	17812.6
733.301	17871.6
738.722	17834.6
744.137	17616.6
749.547	17578.6
754.951	17476.6
760.349	17343.6
765.741	17165.6
771.128	17204.6
776.509	17218.6
781.885	17146.6
787.254	17163.6
792.618	17227.6
797.977	17339.6
803.33	17390.6
808.677	17433.6
814.019	17335.6
819.355	17333.6
824.686	17344.6
830.011	17400.6
835.33	17126.6
840.644	16928.6
845.952	16979.6
851.255	16698.6
856.552	16695.6
861.844	16511.6
867.13	16456.6
872.41	16412.6
877.686	16328.6
882.955	16420.6
888.219	16512.6
893.478	16619.6
898.731	16412.6
903.979	16382.6
909.221	16437.6
914.458	16353.6
919.69	16113.6
924.916	16125.6
930.136	15838.6
935.351	15781.6
940.561	15507.6
945.766	15413.6
950.965	15312.6
956.158	15367.6
961.347	15371.6
966.529	15430.6
971.707	15367.6
976.879	15329.6
982.046	15426.6
987.208	15509.6
992.364	15324.6
997.515	15338.6
1002.66	15135.6
1007.801	15233.6
1012.936	15152.6
1018.066	15265.6
1023.19	14962.6
1028.309	14845.6
1033.423	15017.6
1038.532	15111.6
1043.636	15356.6
1048.734	15231.6
1053.827	15427.6
1058.915	15341.6
1063.998	15203.6
1069.075	15060.6
1074.147	14825.6
1079.214	14874.6
1084.276	14516.6
1089.333	14516.6
1094.385	14447.6
1099.431	14502.6
1104.472	14359.6
1109.509	14580.6
1114.54	14628.6
1119.565	14795.6
1124.586	14663.6
1129.602	14664.6
1134.613	14683.6
1139.618	14623.6
1144.619	14285.6
1149.614	14140.6
1154.604	14016.6
1159.589	13949.6
1164.57	13688.6
1169.545	13741.6
1174.515	13764.6
1179.48	13852.6
1184.44	13929.6
1189.395	14142.6
1194.345	14139.6
1199.29	14127.6
1204.23	14296.6
1209.165	14037.6
1214.095	14040.6
1219.021	13966.6
1223.941	13862.6
1228.856	13942.6
1233.766	13894.6
1238.672	13858.6
1243.572	13772.6
1248.467	13780.6
1253.358	13887.6
1258.244	13998.6
1263.124	13801.6
1268	13606.6
1272.871	13659.6
1277.737	13687.6
1282.599	13430.6
1287.455	13272.6
1292.306	13070.6
1297.153	13148.6
1301.995	12839.6
1306.832	12852.6
1311.664	12856.6
1316.491	12945.6
1321.314	12859.6
1326.132	12903.6
1330.945	12748.6
1335.753	12639.6
1340.556	12508.6
1345.354	12339.6
1350.148	12129.6
1354.937	11963.6
1359.722	11944.6
1364.501	11765.6
1369.276	11565.6
1374.046	11652.6
1378.811	11788.6
1383.572	11891.6
1388.327	11564.6
1393.079	12086.6
1397.825	12158.6
1402.567	12114.6
1407.304	12003.6
1412.036	12084.6
1416.764	11908.6
1421.487	12052.6
1426.205	11861.6
1430.919	11698.6
1435.628	11531.6
1440.333	11363.6
1445.032	11322.6
1449.727	11246.6
1454.418	11244.6
1459.104	11233.6
1463.785	11096.6
1468.462	11090.6
1473.134	11100.6
1477.802	10906.6
1482.465	11012.6
1487.123	10533.6
1491.777	10754.6
1496.426	10707.6
1501.071	10457.6
1505.711	10504.6
1510.347	10505.6
1514.978	10656.6
1519.604	10756.6
1524.226	10933.6
1528.844	11159.6
1533.457	11047.6
1538.065	11255.6
1542.669	11198.6
1547.269	11262.6
1551.864	11242.6
1556.454	11388.6
1561.041	11243.6
1565.622	11315.6
1570.199	11069.6
1574.772	11034.6
1579.34	10770.6
1583.904	10903.6
1588.464	10901.6
1593.019	10843.6
1597.569	11037.6
1602.115	11066.6
1606.657	11116.6
1611.195	11167.6
1615.728	11127.6
1620.256	11217.6
1624.78	11316.6
1629.3	11297.6
1633.816	11098.6
1638.327	11011.6
1642.834	11059.6
1647.336	11058.6
1651.834	10868.6
1656.328	10998.6
1660.817	10783.6
1665.302	10928.6
1669.783	10824.6
1674.259	10662.6
1678.732	10390.6
1683.199	10080.6
1687.663	10007.6
1692.122	9600.6
1696.577	9365.6
1701.028	9336.6
1705.474	9330.6
1709.917	9272.6
1714.355	9371.6
1718.788	9129.6
1723.218	9115.6
1727.643	8841.6
1732.064	8654.6
1736.481	8700.6
1740.893	8505.6
1745.301	8323.6
1749.705	8428.6
1754.105	7964.6
1758.501	7949.6
1762.893	7670.6
1767.28	7623.6
1771.663	7368.6
1776.042	7185.6
1780.417	7059.6
1784.787	6896.6
1789.154	6960.6
1793.516	7057.6
1797.874	7127.6
1802.228	7315.6
1806.578	7463.6
1810.924	7332.6
1815.266	7674.6
1819.603	7469.6
1823.937	7398.6
1828.266	7376.6
1832.591	7289.6
1836.913	7198.6
1841.23	7171.6
1845.543	7140.6
1849.852	7012.6
1854.156	6974.6
1858.457	6923.6
1862.754	6688.6
1867.047	6808.6
1871.335	6700.6
1875.62	6629.6
1879.9	6573.6
1884.177	6794.6
1888.449	6622.6
1892.718	6623.6
1896.982	6578.6
1901.243	6757.6
1905.499	6673.6
1909.752	6608.6
1914	6751.6
1918.245	6530.6
1922.485	6542.6
1926.722	6557.6
1930.954	6631.6
1935.183	6624.6
1939.408	6605.6
1943.628	6737.6
1947.845	6675.6
1952.058	6743.6
1956.267	6761.6
1960.472	6626.6
1964.673	6652.6
1968.87	6775.6
1973.063	6679.6
1977.252	6585.6
1981.438	6459.6
1985.619	6343.6
1989.797	6295.6
1993.971	6244.6
1998.14	6033.6
2002.306	6174.6
2006.469	6114.6
2010.627	6029.6
2014.781	6030.6
2018.932	6041.6
2023.078	5833.6
2027.221	5848.6
2031.36	5863.6
2035.495	5942.6
2039.627	5865.6
2043.754	5798.6
2047.878	5711.6
2051.998	5763.6
2056.114	5754.6
2060.226	5661.6
2064.334	5599.6
2068.439	5485.6
2072.54	5522.6
2076.637	5681.6
2080.73	5602.6
2084.82	5584.6
2088.906	5656.6
2092.988	5587.6
2097.066	5783.6
2101.14	5639.6
2105.211	5727.6
2109.278	5700.6
2113.342	5721.6
2117.401	5866.6
2121.457	5737.6
2125.509	5720.6
2129.558	5475.6
2133.602	5621.6
2137.643	5470.6
2141.681	5448.6
2145.714	5437.6
2149.744	5268.6
2153.77	5365.6
2157.793	5277.6
2161.812	5402.6
2165.827	5298.6
2169.838	5071.6
2173.846	5166.6
2177.851	5096.6
2181.851	4994.6
2185.848	5189.6
2189.841	4981.6
2193.831	5032.6
2197.817	4753.6
2201.799	4831.6
2205.778	4875.6
2209.753	4844.6
2213.725	4721.6
2217.693	4740.6
2221.657	4711.6
2225.618	4597.6
2229.575	4682.6
2233.529	4547.6
2237.479	4634.6
2241.425	4648.6
2245.368	4717.6
2249.307	4618.6
2253.243	4617.6
2257.175	4588.6
2261.104	4480.6
2265.029	4371.6
2268.95	4393.6
2272.868	4257.6
2276.783	4288.6
2280.694	4080.6
2284.601	4113.6
2288.505	4063.6
2292.405	3958.6
2296.302	4046.6
2300.195	3921.6
2304.085	4095.6
2307.971	3911.6
2311.854	3980.6
2315.734	3818.6
2319.609	3917.6
2323.482	4005.6
2327.351	3869.6
2331.216	3813.6
2335.078	3739.6
2338.937	3848.6
2342.792	3814.6
2346.643	3760.6
2350.492	3748.6
2354.336	3724.6
2358.178	3711.6
2362.015	3672.6
2365.85	3861.6
2369.681	3767.6
2373.508	3714.6
2377.333	3608.6
2381.153	3787.6
2384.971	3762.6
2388.785	3742.6
2392.595	3756.6
2396.402	3787.6
2400.206	3837.6
2404.007	3819.6
2407.804	3688.6
2411.597	3580.6
2415.388	3643.6
2419.174	3584.6
2422.958	3577.6
2426.738	3560.6
2430.515	3477.6
2434.289	3554.6
2438.059	3578.6
2441.825	3512.6
2445.589	3302.6
2449.349	3511.6
2453.106	3395.6
2456.859	3384.6
2460.61	3309.6
2464.356	3369.6
2468.1	3311.6
2471.84	3351.6
2475.577	3313.6
2479.311	3225.6
2483.041	3195.6
2486.768	3101.6
2490.492	2893.6
2494.213	3217.6
2497.93	3248.6
2501.644	3218.6
2505.355	3267.6
2509.062	3103.6
2512.766	3181.6
2516.467	3078.6
2520.165	3065.6
2523.859	3225.6
2527.551	2980.6
2531.239	3156.6
2534.923	3150.6
2538.605	3220.6
2542.283	3060.6
2545.958	3137.6
2549.63	2940.6
2553.299	2969.6
2556.964	2890.6
2560.626	3066.6
2564.285	2945.6
2567.941	3044.6
2571.594	3003.6
2575.243	2888.6
2578.89	3055.6
2582.533	3022.6
2586.173	2964.6
2589.809	2899.6
2593.443	3185.6
2597.073	2976.6
2600.701	2777.6
2604.325	2896.6
2607.946	2885.6
2611.564	2827.6
2615.178	2722.6
2618.79	2794.6
2622.398	2856.6
2626.004	2880.6
2629.606	2700.6
2633.205	2937.6
2636.801	2764.6
2640.394	2726.6
2643.983	2747.6
2647.57	2717.6
2651.153	2608.6
2654.734	2597.6
2658.311	2817.6
2661.885	2643.6
2665.456	2688.6
2669.025	2580.6
2672.589	2506.6
2676.151	2357.6
2679.71	2363.6
2683.266	2532.6
2686.819	2412.6
2690.368	2375.6
2693.915	2227.6
2697.458	2405.6
2700.999	2241.6
2704.536	2260.6
2708.071	2218.6
2711.602	2216.6
2715.13	2232.6
2718.656	2226.6
2722.178	2129.6
2725.697	2242.6
2729.214	1884.6
2732.727	2022.6
2736.237	2053.6
2739.744	1981.6
2743.249	2147.6
2746.75	2098.6
2750.248	2163.6
2753.743	2139.6
2757.236	2132.6
2760.725	2125.6
2764.211	2381.6
2767.695	2187.6
2771.175	2171.6
2774.652	2142.6
2778.127	2217.6
2781.598	2131.6
2785.067	2151.6
2788.532	2128.6
2791.995	2152.6
2795.455	2134.6
2798.911	2145.6
2802.365	2278.6
2805.816	2099.6
2809.264	2112.6
2812.709	2166.6
2816.151	2162.6
2819.59	2256.6
2823.026	2300.6
2826.46	2279.6
2829.89	2216.6
2833.318	2423.6
2836.742	2268.6
2840.164	2260.6
2843.583	2354.6
2846.999	2292.6
2850.412	2219.6
2853.822	2609.6
2857.229	2181.6
2860.634	2262.6
2864.035	2357.6
2867.434	2210.6
2870.83	2268.6
2874.223	2351.6
2877.613	2303.6
2881	2509.6
2884.385	2523.6
2887.766	2494.6
2891.145	2419.6
2894.521	2569.6
2897.894	2608.6
2901.264	2293.6
2904.631	2537.6
2907.996	2502.6
2911.358	2513.6
2914.717	2536.6
2918.073	2564.6
2921.426	2584.6
2924.777	2672.6
2928.124	2689.6
2931.469	2550.6
2934.811	2797.6
2938.15	2661.6
2941.487	2711.6
2944.821	2400.6
2948.152	2764.6
2951.48	2718.6
2954.805	2664.6
2958.128	2582.6
2961.447	2709.6
2964.765	2580.6
2968.079	2749.6
2971.39	2720.6
2974.699	2719.6
2978.005	2718.6
2981.308	2792.6
2984.609	2908.6
2987.907	2767.6
2991.202	2922.6
2994.494	2962.6
2997.784	2610.6
3001.07	2849.6
3004.355	2926.6
3007.636	3006.6
3010.915	3082.6
3014.191	3174.6
3017.464	3171.6
3020.734	3074.6
3024.002	3259.6
3027.267	3293.6
3030.53	3231.6
3033.789	3382.6
3037.046	3430.6
3040.301	3445.6
3043.552	3495.6
3046.801	3562.6
3050.048	3411.6
3053.291	3415.6
3056.532	3571.6
3059.771	3797.6
3063.006	3754.6
3066.239	3823.6
3069.469	3961.6
3072.697	4188.6
3075.922	4217.6
3079.144	4312.6
3082.364	4301.6
3085.581	4538.6
3088.795	4331.6
3092.007	4591.6
3095.216	4810.6
3098.423	5118.6
3101.627	5169.6
3104.828	5164.6
3108.026	5312.6
3111.222	5325.6
3114.416	5316.6
3117.607	5583.6
3120.795	5642.6
3123.98	5707.6
3127.163	5960.6
3130.344	5952.6
3133.521	6173.6
3136.696	6069.6
3139.869	6228.6
3143.039	6336.6
3146.206	6297.6
3149.371	6563.6
3152.533	6699.6
3155.693	6764.6
3158.85	6879.6
3162.005	6869.6
3165.157	7087.6
3168.306	7059.6
3171.453	6963.6
3174.597	7257.6
3177.739	7156.6
3180.878	7102.6
3184.014	7050.6
3187.149	7153.6
3190.28	7115.6
3193.409	7075.6
3196.536	7036.6
3199.659	7021.6
3202.781	7050.6
3205.9	7177.6
3209.016	7083.6
3212.13	7004.6
3215.241	6958.6
3218.35	7082.6
3221.456	7071.6
3224.56	7207.6
3227.661	7200.6
3230.76	7302.6
3233.856	7230.6
3236.95	7053.6
3240.041	7270.6
3243.13	6869.6
3246.216	6995.6
3249.3	6900.6
3252.382	6857.6
3255.46	6980.6
3258.537	6247.6
3261.611	6900.6
3264.682	6693.6
3267.751	6624.6
3270.818	6818.6
3273.882	6531.6
3276.943	6535.6
3280.002	6384.6
3283.059	6442.6
3286.113	6413.6
3289.165	6443.6
3292.214	6355.6
3295.261	6260.6
3298.306	6363.6
3301.348	6140.6
3304.387	6125.6
3307.425	6009.6
3310.459	5994.6
3313.492	5793.6
3316.521	5786.6
3319.549	5661.6
3322.574	5613.6
3325.597	5489.6
3328.617	5540.6
3331.635	5375.6
3334.65	5494.6
3337.663	5387.6
3340.674	5347.6
3343.682	5223.6
3346.688	5267.6
3349.691	5287.6
3352.692	5333.6
3355.691	5137.6
3358.687	5169.6
3361.681	5130.6
3364.673	5209.6
3367.662	5032.6
3370.649	4998.6
3373.633	5115.6
3376.615	5024.6
3379.595	5117.6
3382.572	4947.6
3385.547	4920.6
3388.52	4983.6
3391.49	4854.6
3394.458	4789.6
3397.424	4607.6
3400.387	4750.6
3403.348	4370.6
3406.307	4502.6
3409.263	4508.6
3412.217	4282.6
3415.168	4295.6
3418.118	4258.6
3421.065	4214.6
3424.009	4061.6
3426.951	4185.6
3429.891	4116.6
3432.829	4023.6
3435.764	4015.6
3438.697	4007.6
3441.628	3713.6
3444.557	3880.6
3447.483	3891.6
3450.407	3635.6
3453.328	3418.6
3456.247	3598.6
3459.164	3659.6
3462.079	3369.6
3464.991	3338.6
3467.902	3164.6
3470.809	3245.6
3473.715	3052.6
3476.618	2938.6
3479.519	2905.6
3482.418	3014.6
3485.315	2867.6
3488.209	2710.6
3491.101	2505.6
3493.99	2591.6
3496.878	2348.6
3499.763	2389.6
3502.646	2260.6
3505.527	2484.6
3508.405	2319.6
3511.281	2185.6
3514.155	2207.6
3517.027	2149.6
3519.897	2261.6
3522.764	1980.6
3525.629	2063.6
3528.492	1946.6
3531.352	1821.6
3534.211	1757.6
3537.067	1870.6
3539.921	1764.6
3542.773	1681.6
3545.622	1645.6
3548.469	1686.6
3551.315	1578.6
3554.157	1444.6
3556.998	1372.6
3559.837	1307.6
3562.673	1218.6
3565.507	1349.6
3568.339	1175.6
3571.169	1270.6
3573.996	1159.6
3576.822	1198.6
3579.645	1128.6
3582.466	1141.6
3585.285	1055.6
3588.101	1020.6
3590.916	1020.6
3593.728	926.6
3596.538	1018.6
3599.346	871.6
3602.152	967.6
3604.956	927.6
3607.757	703.6
3610.556	943.6
3613.354	782.6
3616.149	709.6
3618.942	705.6
3621.732	518.6
3624.521	766.6
3627.307	632.6
3630.092	661.6
3632.874	541.6
3635.654	646.6
3638.432	732.6
3641.208	543.6
3643.982	593.6
3646.753	527.6
3649.523	601.6
3652.29	628.6
3655.055	516.6
3657.818	449.6
3660.579	388.6
3663.338	631.6
3666.095	408.6
3668.849	654.6
3671.602	395.6
3674.352	585.6
3677.101	441.6
3679.847	262.6
3682.591	477.6
3685.333	477.6
3688.073	375.6
3690.811	468.6
3693.547	330.6
3696.281	394.6
3699.013	298.6
3701.742	345.6
3704.47	473.6
3707.195	320.6
3709.919	273.6
3712.64	289.6
3715.359	263.6
3718.076	55.6
3720.792	384.6
3723.505	258.6
3726.216	257.6
3728.925	337.6
3731.632	185.6
3734.336	351.6
3737.039	223.6
3739.74	248.6
3742.439	358.6
3745.136	263.6
3747.83	195.6
3750.523	228.6
3753.213	574.6
3755.902	233.6
3758.589	373.6
3761.273	337.6
3763.956	131.6
3766.636	327.6
3769.315	25.6
3771.991	319.6
3774.665	193.6
3777.338	369.6
3780.008	262.6
3782.677	9.6
3785.343	327.6
3788.007	386.6
3790.67	158.6
3793.33	120.6
3795.989	222.6
3798.645	135.6
3801.299	386.6
3803.952	158.6
3806.602	138.6
3809.251	230.6
3811.897	173.6
3814.542	215.6
3817.184	236.6
3819.825	296.6
3822.463	-81.4
3825.1	212.6
3827.735	276.6
3830.367	192.6
3832.998	65.6
3835.627	111.6
3838.253	148.6
3840.878	2.6
3843.501	45.6
3846.122	91.6
3848.741	86.6
3851.358	127.6
3853.973	364.6
3856.586	174.6
3859.197	155.6
3861.806	147.6
3864.414	304.6
3867.019	228.6
3869.622	116.6
3872.224	11.6
3874.823	255.6
3877.421	241.6
3880.016	310.6
3882.61	346.6
3885.202	316.6
3887.792	325.6
3890.38	104.6
3892.966	247.6
3895.55	236.6
3898.132	155.6
3900.713	83.6
3903.291	181.6
3905.868	248.6
3908.442	150.6
3911.015	129.6
3913.586	139.6
3916.155	240.6
3918.722	253.6
3921.287	147.6
3923.85	-105.4
3926.411	96.6
3928.971	102.6
3931.528	102.6
3934.084	105.6
3936.638	160.6
3939.19	103.6
3941.74	236.6
3944.288	87.6
3946.834	117.6
3949.378	95.6
3951.921	251.6
3954.462	153.6
3957	146.6
3959.537	190.6
3962.072	263.6
3964.606	274.6
3967.137	83.6
3969.667	140.6
3972.194	154.6
3974.72	147.6
3977.244	253.6
3979.766	113.6
3982.286	234.6
3984.805	70.6
3987.321	47.6
3989.836	98.6
3992.349	228.6
3994.86	195.6
3997.369	117.6
3999.877	108.6
4002.382	152.6
4004.886	179.6
4007.388	170.6
4009.888	300.6
4012.386	50.6
4014.883	134.6
4017.377	179.6
4019.87	39.6
4022.361	190.6
4024.85	264.6
4027.338	119.6
4029.823	98.6
4032.307	177.6
4034.789	199.6
4037.269	188.6
4039.747	209.6
4042.224	121.6
4044.699	247.6
4047.172	182.6
4049.643	117.6
4052.112	163.6
4054.58	182.6
4057.046	168.6
4059.51	210.6
4061.972	158.6
4064.432	275.6
4066.891	90.6
4069.348	193.6
4071.803	97.6
4074.256	110.6
4076.708	130.6
4079.158	223.6
4081.606	30.6
4084.052	168.6
4086.497	126.6
4088.939	262.6
4091.38	233.6
4093.819	150.6
4096.257	-1283.4
4098.693	-1331.4
4101.127	-1371.4
4103.559	-1413.4
4105.989	314.6
4108.418	369.6
4110.845	552.6
4113.27	407.6
4115.694	498.6
4118.115	582.6
4120.535	88.6
4122.954	10.6
4125.37	8.6
4127.785	118.6
4130.198	93.6
4132.609	162.6
4135.019	-1453.4
4137.427	-1416.4
4139.833	-1353.4
4142.237	-1164.4
