Data from 2018-2-8_conc=3_RamanShift_08.txt Node
Date: Wed Feb 07 10:14:10 IST 2018
User: aro
Spectrometer: QEPB0276
Trigger mode: 0
Integration Time (sec): 3.000000E1
Scans to average: 1
Electric dark correction enabled: true
Nonlinearity correction enabled: false
Boxcar width: 0
XAxis mode: Raman Shifts
Number of Pixels in Spectrum: 1044
>>>>>Begin Spectral Data<<<<<
160.701	464
166.742	547
172.777	995
178.805	2292
184.826	5154
190.841	10055
196.849	16048
202.85	20419
208.845	22039
214.833	21901
220.815	21591
226.789	21474
232.758	21344
238.719	21319
244.674	21140
250.623	20713
256.565	20405
262.5	20027
268.429	19540
274.351	19342
280.267	19226
286.176	18711
292.079	18573
297.975	18216
303.865	18115
309.748	18077
315.625	17940
321.495	17465
327.359	17533
333.217	17642
339.068	17602
344.912	17515
350.751	17511
356.583	17484
362.408	17516
368.227	17504
374.04	17604
379.847	17722
385.647	17826
391.44	17983
397.228	17907
403.009	18143
408.784	18258
414.553	18342
420.315	18401
426.071	18415
431.821	18425
437.565	18334
443.302	18257
449.033	18152
454.758	18144
460.477	17914
466.189	17838
471.896	17774
477.596	17635
483.29	17680
488.978	17719
494.66	17682
500.335	17647
506.005	17501
511.668	17187
517.325	17070
522.977	16916
528.622	16829
534.261	16638
539.894	16596
545.521	16543
551.141	16423
556.756	16217
562.365	16043
567.968	15994
573.565	15881
579.155	15747
584.74	15713
590.319	15556
595.892	15642
601.459	15508
607.02	15526
612.575	15540
618.124	15387
623.667	15549
629.204	15426
634.735	15519
640.261	15292
645.781	15456
651.294	15220
656.802	15083
662.304	14988
667.8	14747
673.29	14826
678.775	14679
684.254	14735
689.726	14727
695.193	14546
700.655	14554
706.11	14653
711.56	14525
717.004	14605
722.442	14829
727.874	14633
733.301	14552
738.722	14681
744.137	14486
749.547	14391
754.951	14349
760.349	14197
765.741	14098
771.128	14096
776.509	14135
781.885	14096
787.254	14080
792.618	14152
797.977	14261
803.33	14311
808.677	14263
814.019	14232
819.355	14254
824.686	14266
830.011	14291
835.33	14033
840.644	13914
845.952	13860
851.255	13638
856.552	13624
861.844	13498
867.13	13390
872.41	13398
877.686	13343
882.955	13449
888.219	13431
893.478	13541
898.731	13397
903.979	13331
909.221	13430
914.458	13372
919.69	13120
924.916	13107
930.136	12841
935.351	12876
940.561	12572
945.766	12592
950.965	12409
956.158	12508
961.347	12544
966.529	12457
971.707	12488
976.879	12499
982.046	12536
987.208	12612
992.364	12451
997.515	12419
1002.66	12274
1007.801	12341
1012.936	12278
1018.066	12368
1023.19	12167
1028.309	12107
1033.423	12202
1038.532	12176
1043.636	12349
1048.734	12274
1053.827	12427
1058.915	12470
1063.998	12307
1069.075	12162
1074.147	11951
1079.214	11994
1084.276	11708
1089.333	11716
1094.385	11705
1099.431	11803
1104.472	11648
1109.509	11753
1114.54	11867
1119.565	11905
1124.586	11869
1129.602	11872
1134.613	11821
1139.618	11677
1144.619	11503
1149.614	11371
1154.604	11309
1159.589	11226
1164.57	11084
1169.545	11036
1174.515	11031
1179.48	11202
1184.44	11198
1189.395	11311
1194.345	11444
1199.29	11393
1204.23	11378
1209.165	11478
1214.095	11323
1219.021	11129
1223.941	11165
1228.856	11170
1233.766	11128
1238.672	11016
1243.572	11022
1248.467	11015
1253.358	11154
1258.244	11225
1263.124	11051
1268	10990
1272.871	10964
1277.737	10959
1282.599	10697
1287.455	10594
1292.306	10399
1297.153	10421
1301.995	10350
1306.832	10220
1311.664	10270
1316.491	10317
1321.314	10266
1326.132	10262
1330.945	10250
1335.753	10139
1340.556	10044
1345.354	10009
1350.148	9735
1354.937	9556
1359.722	9565
1364.501	9287
1369.276	9092
1374.046	9170
1378.811	9291
1383.572	9293
1388.327	8997
1393.079	9482
1397.825	9528
1402.567	9461
1407.304	9513
1412.036	9589
1416.764	9469
1421.487	9629
1426.205	9419
1430.919	9155
1435.628	9082
1440.333	9091
1445.032	8984
1449.727	9044
1454.418	8955
1459.104	8920
1463.785	8682
1468.462	8809
1473.134	8823
1477.802	8606
1482.465	8785
1487.123	8455
1491.777	8570
1496.426	8460
1501.071	8235
1505.711	8275
1510.347	8233
1514.978	8289
1519.604	8322
1524.226	8420
1528.844	8646
1533.457	8536
1538.065	8688
1542.669	8669
1547.269	8720
1551.864	8734
1556.454	8816
1561.041	8799
1565.622	8806
1570.199	8552
1574.772	8559
1579.34	8363
1583.904	8461
1588.464	8514
1593.019	8515
1597.569	8711
1602.115	8653
1606.657	8736
1611.195	8710
1615.728	8762
1620.256	8876
1624.78	8842
1629.3	8923
1633.816	8735
1638.327	8668
1642.834	8690
1647.336	8617
1651.834	8516
1656.328	8542
1660.817	8472
1665.302	8491
1669.783	8447
1674.259	8298
1678.732	8032
1683.199	7910
1687.663	7849
1692.122	7520
1696.577	7306
1701.028	7292
1705.474	7167
1709.917	7060
1714.355	6988
1718.788	6995
1723.218	6903
1727.643	6656
1732.064	6604
1736.481	6718
1740.893	6483
1745.301	6328
1749.705	6472
1754.105	6028
1758.501	6038
1762.893	5804
1767.28	5792
1771.663	5612
1776.042	5482
1780.417	5487
1784.787	5296
1789.154	5293
1793.516	5215
1797.874	5381
1802.228	5488
1806.578	5669
1810.924	5500
1815.266	5938
1819.603	5519
1823.937	5554
1828.266	5492
1832.591	5450
1836.913	5414
1841.23	5455
1845.543	5440
1849.852	5240
1854.156	5270
1858.457	5285
1862.754	4949
1867.047	5141
1871.335	5064
1875.62	4985
1879.9	4967
1884.177	5118
1888.449	5038
1892.718	4997
1896.982	4909
1901.243	5067
1905.499	4963
1909.752	4940
1914	5023
1918.245	4865
1922.485	4933
1926.722	4941
1930.954	4936
1935.183	4986
1939.408	4912
1943.628	4918
1947.845	4928
1952.058	4971
1956.267	4910
1960.472	4866
1964.673	4936
1968.87	4967
1973.063	5003
1977.252	4919
1981.438	4807
1985.619	4713
1989.797	4718
1993.971	4627
1998.14	4467
2002.306	4508
2006.469	4510
2010.627	4513
2014.781	4484
2018.932	4556
2023.078	4368
2027.221	4356
2031.36	4385
2035.495	4439
2039.627	4308
2043.754	4248
2047.878	4172
2051.998	4251
2056.114	4257
2060.226	4286
2064.334	4182
2068.439	4079
2072.54	4057
2076.637	4246
2080.73	4125
2084.82	4151
2088.906	4167
2092.988	4089
2097.066	4281
2101.14	4143
2105.211	4215
2109.278	4181
2113.342	4197
2117.401	4252
2121.457	4204
2125.509	4232
2129.558	4020
2133.602	4149
2137.643	4059
2141.681	3985
2145.714	4025
2149.744	3944
2153.77	3976
2157.793	3910
2161.812	3973
2165.827	3970
2169.838	3795
2173.846	3849
2177.851	3747
2181.851	3665
2185.848	3700
2189.841	3683
2193.831	3721
2197.817	3486
2201.799	3542
2205.778	3634
2209.753	3563
2213.725	3548
2217.693	3474
2221.657	3510
2225.618	3374
2229.575	3402
2233.529	3383
2237.479	3376
2241.425	3403
2245.368	3486
2249.307	3373
2253.243	3353
2257.175	3392
2261.104	3335
2265.029	3196
2268.95	3197
2272.868	3151
2276.783	3138
2280.694	2981
2284.601	2986
2288.505	2993
2292.405	2961
2296.302	2983
2300.195	2825
2304.085	2961
2307.971	2905
2311.854	2913
2315.734	2841
2319.609	2815
2323.482	2926
2327.351	2803
2331.216	2808
2335.078	2836
2338.937	2818
2342.792	2852
2346.643	2799
2350.492	2724
2354.336	2752
2358.178	2725
2362.015	2697
2365.85	2849
2369.681	2764
2373.508	2752
2377.333	2668
2381.153	2777
2384.971	2786
2388.785	2821
2392.595	2716
2396.402	2850
2400.206	2858
2404.007	2778
2407.804	2713
2411.597	2610
2415.388	2728
2419.174	2671
2422.958	2652
2426.738	2661
2430.515	2510
2434.289	2653
2438.059	2613
2441.825	2648
2445.589	2398
2449.349	2588
2453.106	2468
2456.859	2514
2460.61	2374
2464.356	2485
2468.1	2366
2471.84	2454
2475.577	2464
2479.311	2380
2483.041	2341
2486.768	2251
2490.492	2126
2494.213	2515
2497.93	2380
2501.644	2370
2505.355	2451
2509.062	2316
2512.766	2312
2516.467	2342
2520.165	2267
2523.859	2360
2527.551	2173
2531.239	2233
2534.923	2305
2538.605	2333
2542.283	2198
2545.958	2233
2549.63	2157
2553.299	2181
2556.964	2182
2560.626	2207
2564.285	2116
2567.941	2218
2571.594	2191
2575.243	2071
2578.89	2216
2582.533	2218
2586.173	2165
2589.809	2107
2593.443	2307
2597.073	2163
2600.701	2009
2604.325	2137
2607.946	2116
2611.564	2065
2615.178	1927
2618.79	1993
2622.398	2065
2626.004	2051
2629.606	1898
2633.205	2083
2636.801	1998
2640.394	1949
2643.983	1934
2647.57	1935
2651.153	1857
2654.734	1767
2658.311	2026
2661.885	1891
2665.456	1801
2669.025	1817
2672.589	1767
2676.151	1747
2679.71	1684
2683.266	1867
2686.819	1685
2690.368	1632
2693.915	1703
2697.458	1729
2700.999	1655
2704.536	1617
2708.071	1630
2711.602	1575
2715.13	1626
2718.656	1638
2722.178	1487
2725.697	1490
2729.214	1280
2732.727	1460
2736.237	1471
2739.744	1509
2743.249	1545
2746.75	1497
2750.248	1636
2753.743	1570
2757.236	1525
2760.725	1515
2764.211	1765
2767.695	1488
2771.175	1514
2774.652	1516
2778.127	1568
2781.598	1510
2785.067	1539
2788.532	1537
2791.995	1514
2795.455	1523
2798.911	1438
2802.365	1611
2805.816	1508
2809.264	1445
2812.709	1575
2816.151	1457
2819.59	1666
2823.026	1659
2826.46	1638
2829.89	1613
2833.318	1765
2836.742	1642
2840.164	1631
2843.583	1688
2846.999	1648
2850.412	1615
2853.822	1694
2857.229	1535
2860.634	1643
2864.035	1695
2867.434	1581
2870.83	1613
2874.223	1719
2877.613	1590
2881	1798
2884.385	1883
2887.766	1784
2891.145	1750
2894.521	1876
2897.894	1928
2901.264	1590
2904.631	1869
2907.996	1886
2911.358	1834
2914.717	1871
2918.073	1855
2921.426	1844
2924.777	1973
2928.124	1971
2931.469	1897
2934.811	2034
2938.15	1963
2941.487	2001
2944.821	1956
2948.152	2032
2951.48	2086
2954.805	2001
2958.128	1925
2961.447	2051
2964.765	1878
2968.079	2056
2971.39	1997
2974.699	2038
2978.005	1986
2981.308	2082
2984.609	2141
2987.907	2069
2991.202	2183
2994.494	2245
2997.784	1855
3001.07	2138
3004.355	2179
3007.636	2262
3010.915	2343
3014.191	2381
3017.464	2304
3020.734	2329
3024.002	2410
3027.267	2415
3030.53	2475
3033.789	2489
3037.046	2657
3040.301	2642
3043.552	2625
3046.801	2786
3050.048	2606
3053.291	2539
3056.532	2805
3059.771	2966
3063.006	2867
3066.239	2932
3069.469	3027
3072.697	3236
3075.922	3271
3079.144	3273
3082.364	3312
3085.581	3548
3088.795	3415
3092.007	3507
3095.216	3747
3098.423	3918
3101.627	4005
3104.828	4024
3108.026	4092
3111.222	4089
3114.416	4151
3117.607	4282
3120.795	4346
3123.98	4447
3127.163	4663
3130.344	4611
3133.521	4650
3136.696	4825
3139.869	4818
3143.039	4906
3146.206	4918
3149.371	5048
3152.533	5233
3155.693	5289
3158.85	5339
3162.005	5381
3165.157	5471
3168.306	5577
3171.453	5419
3174.597	5675
3177.739	5672
3180.878	5521
3184.014	5545
3187.149	5567
3190.28	5550
3193.409	5466
3196.536	5493
3199.659	5473
3202.781	5409
3205.9	5660
3209.016	5534
3212.13	5538
3215.241	5413
3218.35	5508
3221.456	5485
3224.56	5638
3227.661	5623
3230.76	5698
3233.856	5632
3236.95	5537
3240.041	5611
3243.13	5381
3246.216	5473
3249.3	5316
3252.382	5336
3255.46	5431
3258.537	5693
3261.611	5334
3264.682	5276
3267.751	5136
3270.818	5273
3273.882	5010
3276.943	5022
3280.002	5018
3283.059	4968
3286.113	5034
3289.165	5100
3292.214	4999
3295.261	4832
3298.306	4928
3301.348	4788
3304.387	4724
3307.425	4649
3310.459	4723
3313.492	4499
3316.521	4525
3319.549	4380
3322.574	4435
3325.597	4232
3328.617	4287
3331.635	4202
3334.65	4266
3337.663	4240
3340.674	4199
3343.682	4062
3346.688	4033
3349.691	4070
3352.692	4199
3355.691	3925
3358.687	4000
3361.681	4062
3364.673	4021
3367.662	3948
3370.649	3871
3373.633	3958
3376.615	3906
3379.595	4059
3382.572	3936
3385.547	3841
3388.52	3852
3391.49	3674
3394.458	3804
3397.424	3658
3400.387	3700
3403.348	3404
3406.307	3476
3409.263	3523
3412.217	3320
3415.168	3391
3418.118	3350
3421.065	3317
3424.009	3131
3426.951	3225
3429.891	3049
3432.829	3155
3435.764	3181
3438.697	3124
3441.628	2940
3444.557	2993
3447.483	3007
3450.407	2780
3453.328	2625
3456.247	2820
3459.164	2767
3462.079	2560
3464.991	2509
3467.902	2557
3470.809	2475
3473.715	2341
3476.618	2276
3479.519	2195
3482.418	2376
3485.315	2163
3488.209	2061
3491.101	2040
3493.99	2081
3496.878	1736
3499.763	1813
3502.646	1756
3505.527	1856
3508.405	1723
3511.281	1687
3514.155	1699
3517.027	1653
3519.897	1800
3522.764	1519
3525.629	1559
3528.492	1471
3531.352	1357
3534.211	1351
3537.067	1427
3539.921	1288
3542.773	1292
3545.622	1223
3548.469	1222
3551.315	1218
3554.157	1078
3556.998	1033
3559.837	970
3562.673	847
3565.507	945
3568.339	822
3571.169	969
3573.996	847
3576.822	845
3579.645	858
3582.466	827
3585.285	699
3588.101	671
3590.916	744
3593.728	702
3596.538	769
3599.346	629
3602.152	715
3604.956	637
3607.757	488
3610.556	667
3613.354	602
3616.149	576
3618.942	505
3621.732	289
3624.521	537
3627.307	421
3630.092	462
3632.874	347
3635.654	445
3638.432	555
3641.208	387
3643.982	468
3646.753	347
3649.523	420
3652.29	377
3655.055	371
3657.818	271
3660.579	383
3663.338	450
3666.095	242
3668.849	414
3671.602	255
3674.352	400
3677.101	248
3679.847	179
3682.591	343
3685.333	279
3688.073	252
3690.811	262
3693.547	249
3696.281	271
3699.013	173
3701.742	210
3704.47	308
3707.195	117
3709.919	162
3712.64	166
3715.359	66
3718.076	-38
3720.792	185
3723.505	146
3726.216	164
3728.925	210
3731.632	-5
3734.336	239
3737.039	152
3739.74	157
3742.439	230
3745.136	96
3747.83	61
3750.523	136
3753.213	-7
3755.902	108
3758.589	233
3761.273	119
3763.956	-1
3766.636	158
3769.315	-58
3771.991	230
3774.665	-17
3777.338	244
3780.008	170
3782.677	-62
3785.343	188
3788.007	151
3790.67	61
3793.33	35
3795.989	109
3798.645	77
3801.299	188
3803.952	52
3806.602	22
3809.251	146
3811.897	85
3814.542	96
3817.184	94
3819.825	131
3822.463	30
3825.1	106
3827.735	75
3830.367	78
3832.998	-43
3835.627	44
3838.253	32
3840.878	67
3843.501	-55
3846.122	-27
3848.741	-44
3851.358	83
3853.973	222
3856.586	67
3859.197	23
3861.806	21
3864.414	161
3867.019	79
3869.622	-1
3872.224	3
3874.823	123
3877.421	98
3880.016	142
3882.61	248
3885.202	205
3887.792	150
3890.38	63
3892.966	151
3895.55	109
3898.132	79
3900.713	-23
3903.291	61
3905.868	69
3908.442	92
3911.015	76
3913.586	58
3916.155	53
3918.722	104
3921.287	42
3923.85	-35
3926.411	-6
3928.971	-6
3931.528	37
3934.084	9
3936.638	67
3939.19	-87
3941.74	77
3944.288	18
3946.834	107
3949.378	18
3951.921	104
3954.462	43
3957	-40
3959.537	110
3962.072	130
3964.606	189
3967.137	42
3969.667	20
3972.194	52
3974.72	56
3977.244	94
3979.766	106
3982.286	162
3984.805	-15
3987.321	-38
3989.836	17
3992.349	87
3994.86	42
3997.369	62
3999.877	30
4002.382	9
4004.886	125
4007.388	100
4009.888	185
4012.386	60
4014.883	42
4017.377	13
4019.87	-53
4022.361	120
4024.85	91
4027.338	50
4029.823	28
4032.307	86
4034.789	109
4037.269	154
4039.747	141
4042.224	47
4044.699	69
4047.172	48
4049.643	58
4052.112	167
4054.58	42
4057.046	111
4059.51	162
4061.972	54
4064.432	199
4066.891	6
4069.348	95
4071.803	30
4074.256	18
4076.708	79
4079.158	67
4081.606	-1
4084.052	97
4086.497	-32
4088.939	102
4091.38	120
4093.819	68
4096.257	-1032
4098.693	-1048
4101.127	-1095
4103.559	-1117
4105.989	184
4108.418	206
4110.845	431
4113.27	349
4115.694	342
4118.115	400
4120.535	29
4122.954	-11
4125.37	-50
4127.785	69
4130.198	22
4132.609	18
4135.019	-1131
4137.427	-1117
4139.833	-1081
4142.237	-969
