Data from 2018-2-8_conc=4_RamanShift_02.txt Node
Date: Wed Feb 07 10:31:40 IST 2018
User: aro
Spectrometer: QEPB0276
Trigger mode: 0
Integration Time (sec): 3.000000E1
Scans to average: 1
Electric dark correction enabled: true
Nonlinearity correction enabled: false
Boxcar width: 0
XAxis mode: Raman Shifts
Number of Pixels in Spectrum: 1044
>>>>>Begin Spectral Data<<<<<
160.701	504.1
166.742	570.1
172.777	1130.1
178.805	2681.1
184.826	6274.1
190.841	12584.1
196.849	20002.1
202.85	25607.1
208.845	27591.1
214.833	27395.1
220.815	26955.1
226.789	25668.1
232.758	26710.1
238.719	26595.1
244.674	26293.1
250.623	25791.1
256.565	25519.1
262.5	24948.1
268.429	24281.1
274.351	23892.1
280.267	23854.1
286.176	23190.1
292.079	22884.1
297.975	22735.1
303.865	22431.1
309.748	22304.1
315.625	22111.1
321.495	21581.1
327.359	21627.1
333.217	21672.1
339.068	21579.1
344.912	21609.1
350.751	21511.1
356.583	21511.1
362.408	21468.1
368.227	21433.1
374.04	21625.1
379.847	21671.1
385.647	21825.1
391.44	22141.1
397.228	22072.1
403.009	22162.1
408.784	22325.1
414.553	22439.1
420.315	22505.1
426.071	22615.1
431.821	22604.1
437.565	22520.1
443.302	22345.1
449.033	22239.1
454.758	22099.1
460.477	21982.1
466.189	21959.1
471.896	21848.1
477.596	21787.1
483.29	21785.1
488.978	21767.1
494.66	21765.1
500.335	21717.1
506.005	21554.1
511.668	21329.1
517.325	21299.1
522.977	21005.1
528.622	20957.1
534.261	20828.1
539.894	20757.1
545.521	20700.1
551.141	20596.1
556.756	20282.1
562.365	20241.1
567.968	20010.1
573.565	19920.1
579.155	19763.1
584.74	19781.1
590.319	19536.1
595.892	19601.1
601.459	19588.1
607.02	19517.1
612.575	19549.1
618.124	19375.1
623.667	19573.1
629.204	19466.1
634.735	19429.1
640.261	19335.1
645.781	19504.1
651.294	19166.1
656.802	18839.1
662.304	18967.1
667.8	18644.1
673.29	18768.1
678.775	18553.1
684.254	18565.1
689.726	18629.1
695.193	18385.1
700.655	18440.1
706.11	18600.1
711.56	18448.1
717.004	18466.1
722.442	18605.1
727.874	18440.1
733.301	18437.1
738.722	18507.1
744.137	18188.1
749.547	18107.1
754.951	18117.1
760.349	17864.1
765.741	17734.1
771.128	17776.1
776.509	17736.1
781.885	17782.1
787.254	17754.1
792.618	17873.1
797.977	17945.1
803.33	17977.1
808.677	18031.1
814.019	18007.1
819.355	17949.1
824.686	17974.1
830.011	17943.1
835.33	17672.1
840.644	17444.1
845.952	17519.1
851.255	17212.1
856.552	17254.1
861.844	17062.1
867.13	16973.1
872.41	16954.1
877.686	16872.1
882.955	16989.1
888.219	17112.1
893.478	17130.1
898.731	16953.1
903.979	16883.1
909.221	16940.1
914.458	16861.1
919.69	16617.1
924.916	16548.1
930.136	16372.1
935.351	16301.1
940.561	15971.1
945.766	15840.1
950.965	15714.1
956.158	15797.1
961.347	15905.1
966.529	15924.1
971.707	15830.1
976.879	15815.1
982.046	15877.1
987.208	15972.1
992.364	15754.1
997.515	15697.1
1002.66	15591.1
1007.801	15690.1
1012.936	15622.1
1018.066	15573.1
1023.19	15432.1
1028.309	15348.1
1033.423	15446.1
1038.532	15538.1
1043.636	15791.1
1048.734	15701.1
1053.827	15776.1
1058.915	15796.1
1063.998	15614.1
1069.075	15387.1
1074.147	15210.1
1079.214	15267.1
1084.276	14938.1
1089.333	14912.1
1094.385	14849.1
1099.431	14876.1
1104.472	14829.1
1109.509	14922.1
1114.54	15012.1
1119.565	15072.1
1124.586	15068.1
1129.602	15142.1
1134.613	14960.1
1139.618	14863.1
1144.619	14668.1
1149.614	14423.1
1154.604	14295.1
1159.589	14251.1
1164.57	13965.1
1169.545	14058.1
1174.515	14066.1
1179.48	14258.1
1184.44	14297.1
1189.395	14354.1
1194.345	14548.1
1199.29	14558.1
1204.23	14647.1
1209.165	14540.1
1214.095	14392.1
1219.021	14250.1
1223.941	14164.1
1228.856	14255.1
1233.766	14170.1
1238.672	14087.1
1243.572	13968.1
1248.467	14134.1
1253.358	14201.1
1258.244	14193.1
1263.124	14056.1
1268	13976.1
1272.871	13939.1
1277.737	13917.1
1282.599	13680.1
1287.455	13541.1
1292.306	13295.1
1297.153	13357.1
1301.995	13085.1
1306.832	13190.1
1311.664	13037.1
1316.491	13138.1
1321.314	13069.1
1326.132	13104.1
1330.945	13015.1
1335.753	12958.1
1340.556	12720.1
1345.354	12589.1
1350.148	12409.1
1354.937	12206.1
1359.722	12126.1
1364.501	11923.1
1369.276	11779.1
1374.046	11895.1
1378.811	11994.1
1383.572	12104.1
1388.327	11853.1
1393.079	12300.1
1397.825	12326.1
1402.567	12290.1
1407.304	12254.1
1412.036	12264.1
1416.764	12165.1
1421.487	12325.1
1426.205	12005.1
1430.919	11818.1
1435.628	11695.1
1440.333	11587.1
1445.032	11371.1
1449.727	11491.1
1454.418	11491.1
1459.104	11411.1
1463.785	11257.1
1468.462	11311.1
1473.134	11173.1
1477.802	11164.1
1482.465	11175.1
1487.123	10841.1
1491.777	10914.1
1496.426	10846.1
1501.071	10642.1
1505.711	10771.1
1510.347	10693.1
1514.978	10868.1
1519.604	10927.1
1524.226	11069.1
1528.844	11346.1
1533.457	11219.1
1538.065	11395.1
1542.669	11403.1
1547.269	11483.1
1551.864	11383.1
1556.454	11517.1
1561.041	11443.1
1565.622	11359.1
1570.199	11100.1
1574.772	11061.1
1579.34	10875.1
1583.904	11035.1
1588.464	11028.1
1593.019	10950.1
1597.569	11174.1
1602.115	11179.1
1606.657	11213.1
1611.195	11201.1
1615.728	11291.1
1620.256	11480.1
1624.78	11438.1
1629.3	11421.1
1633.816	11254.1
1638.327	11116.1
1642.834	11150.1
1647.336	11071.1
1651.834	11009.1
1656.328	11027.1
1660.817	10944.1
1665.302	11046.1
1669.783	10979.1
1674.259	10875.1
1678.732	10597.1
1683.199	10261.1
1687.663	10196.1
1692.122	9756.1
1696.577	9579.1
1701.028	9673.1
1705.474	9475.1
1709.917	9455.1
1714.355	9469.1
1718.788	9256.1
1723.218	9148.1
1727.643	8880.1
1732.064	8710.1
1736.481	8854.1
1740.893	8561.1
1745.301	8421.1
1749.705	8456.1
1754.105	8039.1
1758.501	8080.1
1762.893	7744.1
1767.28	7649.1
1771.663	7418.1
1776.042	7287.1
1780.417	7156.1
1784.787	6964.1
1789.154	7038.1
1793.516	7027.1
1797.874	7208.1
1802.228	7332.1
1806.578	7584.1
1810.924	7379.1
1815.266	7885.1
1819.603	7491.1
1823.937	7471.1
1828.266	7362.1
1832.591	7294.1
1836.913	7202.1
1841.23	7234.1
1845.543	7149.1
1849.852	7018.1
1854.156	7065.1
1858.457	6935.1
1862.754	6667.1
1867.047	6815.1
1871.335	6748.1
1875.62	6600.1
1879.9	6601.1
1884.177	6773.1
1888.449	6640.1
1892.718	6640.1
1896.982	6605.1
1901.243	6759.1
1905.499	6655.1
1909.752	6662.1
1914	6734.1
1918.245	6547.1
1922.485	6692.1
1926.722	6676.1
1930.954	6662.1
1935.183	6725.1
1939.408	6662.1
1943.628	6712.1
1947.845	6724.1
1952.058	6767.1
1956.267	6615.1
1960.472	6668.1
1964.673	6619.1
1968.87	6722.1
1973.063	6644.1
1977.252	6532.1
1981.438	6458.1
1985.619	6380.1
1989.797	6322.1
1993.971	6202.1
1998.14	6030.1
2002.306	6074.1
2006.469	6055.1
2010.627	6003.1
2014.781	6005.1
2018.932	6052.1
2023.078	5897.1
2027.221	5800.1
2031.36	5821.1
2035.495	5832.1
2039.627	5812.1
2043.754	5727.1
2047.878	5644.1
2051.998	5708.1
2056.114	5698.1
2060.226	5677.1
2064.334	5631.1
2068.439	5466.1
2072.54	5530.1
2076.637	5690.1
2080.73	5575.1
2084.82	5574.1
2088.906	5527.1
2092.988	5706.1
2097.066	5802.1
2101.14	5572.1
2105.211	5753.1
2109.278	5674.1
2113.342	5707.1
2117.401	5806.1
2121.457	5708.1
2125.509	5614.1
2129.558	5498.1
2133.602	5532.1
2137.643	5452.1
2141.681	5346.1
2145.714	5334.1
2149.744	5266.1
2153.77	5297.1
2157.793	5223.1
2161.812	5313.1
2165.827	5282.1
2169.838	5024.1
2173.846	5090.1
2177.851	5007.1
2181.851	4997.1
2185.848	5112.1
2189.841	4863.1
2193.831	4927.1
2197.817	4657.1
2201.799	4690.1
2205.778	4760.1
2209.753	4732.1
2213.725	4666.1
2217.693	4618.1
2221.657	4691.1
2225.618	4211.1
2229.575	4583.1
2233.529	4480.1
2237.479	4533.1
2241.425	4483.1
2245.368	4636.1
2249.307	4554.1
2253.243	4498.1
2257.175	4484.1
2261.104	4382.1
2265.029	4298.1
2268.95	4251.1
2272.868	4197.1
2276.783	4177.1
2280.694	3980.1
2284.601	4033.1
2288.505	4012.1
2292.405	3845.1
2296.302	3873.1
2300.195	3860.1
2304.085	3887.1
2307.971	3730.1
2311.854	3819.1
2315.734	3745.1
2319.609	3776.1
2323.482	3869.1
2327.351	3709.1
2331.216	3703.1
2335.078	3746.1
2338.937	3673.1
2342.792	3734.1
2346.643	3639.1
2350.492	3579.1
2354.336	3594.1
2358.178	3544.1
2362.015	3534.1
2365.85	3587.1
2369.681	3636.1
2373.508	3611.1
2377.333	3491.1
2381.153	3633.1
2384.971	3578.1
2388.785	3612.1
2392.595	3526.1
2396.402	3693.1
2400.206	3656.1
2404.007	3611.1
2407.804	3569.1
2411.597	3445.1
2415.388	3512.1
2419.174	3477.1
2422.958	3431.1
2426.738	3376.1
2430.515	3281.1
2434.289	3443.1
2438.059	3374.1
2441.825	3410.1
2445.589	3203.1
2449.349	3312.1
2453.106	3222.1
2456.859	3219.1
2460.61	3074.1
2464.356	3245.1
2468.1	3145.1
2471.84	3215.1
2475.577	3173.1
2479.311	3019.1
2483.041	3043.1
2486.768	2931.1
2490.492	2729.1
2494.213	3205.1
2497.93	3092.1
2501.644	3068.1
2505.355	3034.1
2509.062	2965.1
2512.766	3014.1
2516.467	2936.1
2520.165	2942.1
2523.859	3034.1
2527.551	2813.1
2531.239	2914.1
2534.923	3001.1
2538.605	3008.1
2542.283	2834.1
2545.958	2900.1
2549.63	2875.1
2553.299	2820.1
2556.964	2847.1
2560.626	2869.1
2564.285	2764.1
2567.941	2866.1
2571.594	2868.1
2575.243	2761.1
2578.89	2855.1
2582.533	2865.1
2586.173	2798.1
2589.809	2764.1
2593.443	2977.1
2597.073	2829.1
2600.701	2682.1
2604.325	2755.1
2607.946	2771.1
2611.564	2678.1
2615.178	2537.1
2618.79	2630.1
2622.398	2669.1
2626.004	2650.1
2629.606	2531.1
2633.205	2751.1
2636.801	2600.1
2640.394	2470.1
2643.983	2548.1
2647.57	2514.1
2651.153	2503.1
2654.734	2381.1
2658.311	2638.1
2661.885	2458.1
2665.456	2364.1
2669.025	2390.1
2672.589	2340.1
2676.151	2282.1
2679.71	2234.1
2683.266	2229.1
2686.819	2218.1
2690.368	2146.1
2693.915	2155.1
2697.458	2195.1
2700.999	2054.1
2704.536	2094.1
2708.071	2088.1
2711.602	2035.1
2715.13	2033.1
2718.656	2058.1
2722.178	1954.1
2725.697	2034.1
2729.214	1708.1
2732.727	1843.1
2736.237	1933.1
2739.744	1885.1
2743.249	1992.1
2746.75	1970.1
2750.248	2022.1
2753.743	2061.1
2757.236	1964.1
2760.725	2010.1
2764.211	2184.1
2767.695	1975.1
2771.175	2033.1
2774.652	1958.1
2778.127	2015.1
2781.598	1971.1
2785.067	2011.1
2788.532	2004.1
2791.995	2169.1
2795.455	1975.1
2798.911	1918.1
2802.365	2104.1
2805.816	1959.1
2809.264	1943.1
2812.709	2042.1
2816.151	1976.1
2819.59	2088.1
2823.026	2120.1
2826.46	2090.1
2829.89	2062.1
2833.318	2303.1
2836.742	2088.1
2840.164	2086.1
2843.583	2113.1
2846.999	2164.1
2850.412	2060.1
2853.822	2094.1
2857.229	2046.1
2860.634	2107.1
2864.035	2182.1
2867.434	2143.1
2870.83	2116.1
2874.223	2231.1
2877.613	2128.1
2881	2319.1
2884.385	2408.1
2887.766	2364.1
2891.145	2302.1
2894.521	2413.1
2897.894	2410.1
2901.264	2156.1
2904.631	2455.1
2907.996	2328.1
2911.358	2390.1
2914.717	2370.1
2918.073	2365.1
2921.426	2348.1
2924.777	2503.1
2928.124	2503.1
2931.469	2443.1
2934.811	2667.1
2938.15	2496.1
2941.487	2545.1
2944.821	2289.1
2948.152	2698.1
2951.48	2594.1
2954.805	2562.1
2958.128	2489.1
2961.447	2635.1
2964.765	2502.1
2968.079	2645.1
2971.39	2566.1
2974.699	2622.1
2978.005	2669.1
2981.308	2661.1
2984.609	2772.1
2987.907	2691.1
2991.202	2810.1
2994.494	2846.1
2997.784	2503.1
3001.07	2841.1
3004.355	2869.1
3007.636	2888.1
3010.915	3019.1
3014.191	3008.1
3017.464	3045.1
3020.734	3062.1
3024.002	3161.1
3027.267	3230.1
3030.53	3215.1
3033.789	3304.1
3037.046	3359.1
3040.301	3390.1
3043.552	3456.1
3046.801	3546.1
3050.048	3398.1
3053.291	3407.1
3056.532	3639.1
3059.771	3818.1
3063.006	3750.1
3066.239	3807.1
3069.469	3899.1
3072.697	4124.1
3075.922	4215.1
3079.144	4302.1
3082.364	4292.1
3085.581	4610.1
3088.795	4394.1
3092.007	4659.1
3095.216	4887.1
3098.423	5030.1
3101.627	5244.1
3104.828	5231.1
3108.026	5288.1
3111.222	5431.1
3114.416	5403.1
3117.607	5698.1
3120.795	5682.1
3123.98	5800.1
3127.163	6021.1
3130.344	6021.1
3133.521	6159.1
3136.696	6294.1
3139.869	6350.1
3143.039	6444.1
3146.206	6448.1
3149.371	6597.1
3152.533	6808.1
3155.693	6925.1
3158.85	7040.1
3162.005	7033.1
3165.157	7158.1
3168.306	7166.1
3171.453	7115.1
3174.597	7342.1
3177.739	7341.1
3180.878	7304.1
3184.014	7248.1
3187.149	7333.1
3190.28	7277.1
3193.409	7209.1
3196.536	7225.1
3199.659	7142.1
3202.781	7126.1
3205.9	7360.1
3209.016	7198.1
3212.13	7212.1
3215.241	7137.1
3218.35	7251.1
3221.456	7293.1
3224.56	7438.1
3227.661	7352.1
3230.76	7437.1
3233.856	7321.1
3236.95	7271.1
3240.041	7334.1
3243.13	7162.1
3246.216	7109.1
3249.3	7054.1
3252.382	7035.1
3255.46	7121.1
3258.537	7259.1
3261.611	7051.1
3264.682	6879.1
3267.751	6761.1
3270.818	6918.1
3273.882	6776.1
3276.943	6597.1
3280.002	6562.1
3283.059	6647.1
3286.113	6599.1
3289.165	6608.1
3292.214	6409.1
3295.261	6349.1
3298.306	6426.1
3301.348	6255.1
3304.387	6255.1
3307.425	6125.1
3310.459	6129.1
3313.492	5854.1
3316.521	5865.1
3319.549	5743.1
3322.574	5708.1
3325.597	5597.1
3328.617	5549.1
3331.635	5480.1
3334.65	5553.1
3337.663	5402.1
3340.674	5416.1
3343.682	5360.1
3346.688	5286.1
3349.691	5375.1
3352.692	5387.1
3355.691	5273.1
3358.687	5280.1
3361.681	5146.1
3364.673	5245.1
3367.662	5132.1
3370.649	5055.1
3373.633	5206.1
3376.615	5081.1
3379.595	5212.1
3382.572	5087.1
3385.547	4947.1
3388.52	4978.1
3391.49	4810.1
3394.458	4886.1
3397.424	4679.1
3400.387	4790.1
3403.348	4419.1
3406.307	4495.1
3409.263	4490.1
3412.217	4348.1
3415.168	4394.1
3418.118	4306.1
3421.065	4251.1
3424.009	4084.1
3426.951	4184.1
3429.891	3885.1
3432.829	4032.1
3435.764	4013.1
3438.697	4005.1
3441.628	3798.1
3444.557	3867.1
3447.483	3863.1
3450.407	3619.1
3453.328	3515.1
3456.247	3615.1
3459.164	3513.1
3462.079	3340.1
3464.991	3269.1
3467.902	3199.1
3470.809	3175.1
3473.715	3091.1
3476.618	3030.1
3479.519	2901.1
3482.418	2948.1
3485.315	2743.1
3488.209	2653.1
3491.101	2666.1
3493.99	2652.1
3496.878	2248.1
3499.763	2324.1
3502.646	2273.1
3505.527	2401.1
3508.405	2207.1
3511.281	2107.1
3514.155	2127.1
3517.027	2147.1
3519.897	2211.1
3522.764	1879.1
3525.629	1929.1
3528.492	1862.1
3531.352	1737.1
3534.211	1708.1
3537.067	1775.1
3539.921	1614.1
3542.773	1545.1
3545.622	1506.1
3548.469	1547.1
3551.315	1457.1
3554.157	1317.1
3556.998	1270.1
3559.837	1153.1
3562.673	1105.1
3565.507	1161.1
3568.339	1033.1
3571.169	1096.1
3573.996	1001.1
3576.822	1085.1
3579.645	1001.1
3582.466	970.1
3585.285	865.1
3588.101	811.1
3590.916	892.1
3593.728	775.1
3596.538	863.1
3599.346	730.1
3602.152	813.1
3604.956	674.1
3607.757	576.1
3610.556	801.1
3613.354	614.1
3616.149	646.1
3618.942	604.1
3621.732	374.1
3624.521	599.1
3627.307	506.1
3630.092	511.1
3632.874	349.1
3635.654	472.1
3638.432	521.1
3641.208	392.1
3643.982	464.1
3646.753	343.1
3649.523	409.1
3652.29	434.1
3655.055	335.1
3657.818	259.1
3660.579	264.1
3663.338	453.1
3666.095	214.1
3668.849	476.1
3671.602	259.1
3674.352	395.1
3677.101	217.1
3679.847	155.1
3682.591	295.1
3685.333	272.1
3688.073	136.1
3690.811	247.1
3693.547	184.1
3696.281	282.1
3699.013	110.1
3701.742	140.1
3704.47	251.1
3707.195	139.1
3709.919	103.1
3712.64	164.1
3715.359	33.1
3718.076	-42.9
3720.792	120.1
3723.505	111.1
3726.216	46.1
3728.925	151.1
3731.632	-47.9
3734.336	167.1
3737.039	86.1
3739.74	130.1
3742.439	177.1
3745.136	73.1
3747.83	14.1
3750.523	63.1
3753.213	432.1
3755.902	22.1
3758.589	169.1
3761.273	120.1
3763.956	-37.9
3766.636	133.1
3769.315	-144.9
3771.991	192.1
3774.665	5.1
3777.338	196.1
3780.008	82.1
3782.677	-3.9
3785.343	154.1
3788.007	148.1
3790.67	-11.9
3793.33	-34.9
3795.989	112.1
3798.645	-63.9
3801.299	145.1
3803.952	13.1
3806.602	-32.9
3809.251	62.1
3811.897	40.1
3814.542	63.1
3817.184	31.1
3819.825	110.1
3822.463	-73.9
3825.1	27.1
3827.735	-5.9
3830.367	-0.9
3832.998	-160.9
3835.627	-52.9
3838.253	-37.9
3840.878	-85.9
3843.501	-89.9
3846.122	-102.9
3848.741	-73.9
3851.358	-4.9
3853.973	89.1
3856.586	11.1
3859.197	-71.9
3861.806	-55.9
3864.414	52.1
3867.019	10.1
3869.622	-81.9
3872.224	-130.9
3874.823	116.1
3877.421	36.1
3880.016	74.1
3882.61	178.1
3885.202	72.1
3887.792	99.1
3890.38	-97.9
3892.966	55.1
3895.55	-27.9
3898.132	-0.9
3900.713	-49.9
3903.291	-1.9
3905.868	-70.9
3908.442	57.1
3911.015	-34.9
3913.586	-44.9
3916.155	19.1
3918.722	59.1
3921.287	-26.9
3923.85	-251.9
3926.411	-63.9
3928.971	-103.9
3931.528	-40.9
3934.084	-39.9
3936.638	-1.9
3939.19	-54.9
3941.74	9.1
3944.288	-83.9
3946.834	-25.9
3949.378	-57.9
3951.921	46.1
3954.462	-60.9
3957	-58.9
3959.537	23.1
3962.072	49.1
3964.606	68.1
3967.137	-72.9
3969.667	-74.9
3972.194	0.1
3974.72	1.1
3977.244	-5.9
3979.766	28.1
3982.286	96.1
3984.805	-42.9
3987.321	-154.9
3989.836	-8.9
3992.349	45.1
3994.86	-12.9
3997.369	3.1
3999.877	-64.9
4002.382	-33.9
4004.886	18.1
4007.388	-41.9
4009.888	121.1
4012.386	-35.9
4014.883	-32.9
4017.377	-53.9
4019.87	-156.9
4022.361	-2.9
4024.85	82.1
4027.338	75.1
4029.823	-64.9
4032.307	-33.9
4034.789	4.1
4037.269	9.1
4039.747	108.1
4042.224	-49.9
4044.699	42.1
4047.172	-27.9
4049.643	-107.9
4052.112	108.1
4054.58	9.1
4057.046	-34.9
4059.51	47.1
4061.972	-41.9
4064.432	114.1
4066.891	-75.9
4069.348	8.1
4071.803	-67.9
4074.256	-86.9
4076.708	75.1
4079.158	-29.9
4081.606	-142.9
4084.052	53.1
4086.497	-44.9
4088.939	62.1
4091.38	7.1
4093.819	-43.9
4096.257	-1190.9
4098.693	-1221.9
4101.127	-1242.9
4103.559	-1286.9
4105.989	166.1
4108.418	160.1
4110.845	394.1
4113.27	215.1
4115.694	336.1
4118.115	356.1
4120.535	-80.9
4122.954	-146.9
4125.37	-160.9
4127.785	-91.9
4130.198	-75.9
4132.609	-65.9
4135.019	-1299.9
4137.427	-1278.9
4139.833	-1219.9
4142.237	-1086.9
