Data from 2018-2-8_conc=3_RamanShift_14.txt Node
Date: Wed Feb 07 10:19:10 IST 2018
User: aro
Spectrometer: QEPB0276
Trigger mode: 0
Integration Time (sec): 3.000000E1
Scans to average: 1
Electric dark correction enabled: true
Nonlinearity correction enabled: false
Boxcar width: 0
XAxis mode: Raman Shifts
Number of Pixels in Spectrum: 1044
>>>>>Begin Spectral Data<<<<<
160.701	392.2
166.742	561.2
172.777	1005.2
178.805	2491.2
184.826	5776.2
190.841	11655.2
196.849	18458.2
202.85	23756.2
208.845	25586.2
214.833	25398.2
220.815	25030.2
226.789	24797.2
232.758	24613.2
238.719	24481.2
244.674	24268.2
250.623	23794.2
256.565	23300.2
262.5	22915.2
268.429	22275.2
274.351	22011.2
280.267	21758.2
286.176	21286.2
292.079	20992.2
297.975	20593.2
303.865	20479.2
309.748	20346.2
315.625	20131.2
321.495	19711.2
327.359	19764.2
333.217	19766.2
339.068	19736.2
344.912	19706.2
350.751	19614.2
356.583	19650.2
362.408	19627.2
368.227	19617.2
374.04	19690.2
379.847	19725.2
385.647	19872.2
391.44	20051.2
397.228	20083.2
403.009	20329.2
408.784	20431.2
414.553	20481.2
420.315	20580.2
426.071	20541.2
431.821	20520.2
437.565	20433.2
443.302	20211.2
449.033	20294.2
454.758	20231.2
460.477	20069.2
466.189	20016.2
471.896	19951.2
477.596	19734.2
483.29	19844.2
488.978	19777.2
494.66	19820.2
500.335	19726.2
506.005	19552.2
511.668	19419.2
517.325	19311.2
522.977	19125.2
528.622	19047.2
534.261	18914.2
539.894	18836.2
545.521	18766.2
551.141	18716.2
556.756	18474.2
562.365	18258.2
567.968	18238.2
573.565	18130.2
579.155	17928.2
584.74	17936.2
590.319	17753.2
595.892	17753.2
601.459	17631.2
607.02	17740.2
612.575	17669.2
618.124	17601.2
623.667	17721.2
629.204	17593.2
634.735	17654.2
640.261	17489.2
645.781	17629.2
651.294	17338.2
656.802	17199.2
662.304	17121.2
667.8	16845.2
673.29	16909.2
678.775	16775.2
684.254	16767.2
689.726	16887.2
695.193	16691.2
700.655	16651.2
706.11	16821.2
711.56	16661.2
717.004	16737.2
722.442	16884.2
727.874	16651.2
733.301	16708.2
738.722	16738.2
744.137	16525.2
749.547	16443.2
754.951	16383.2
760.349	16266.2
765.741	16126.2
771.128	16067.2
776.509	16099.2
781.885	16062.2
787.254	16094.2
792.618	16185.2
797.977	16235.2
803.33	16223.2
808.677	16293.2
814.019	16255.2
819.355	16225.2
824.686	16302.2
830.011	16201.2
835.33	15922.2
840.644	15855.2
845.952	15822.2
851.255	15604.2
856.552	15564.2
861.844	15399.2
867.13	15362.2
872.41	15321.2
877.686	15249.2
882.955	15365.2
888.219	15463.2
893.478	15502.2
898.731	15268.2
903.979	15302.2
909.221	15340.2
914.458	15216.2
919.69	15024.2
924.916	14968.2
930.136	14748.2
935.351	14668.2
940.561	14493.2
945.766	14352.2
950.965	14225.2
956.158	14290.2
961.347	14330.2
966.529	14308.2
971.707	14332.2
976.879	14278.2
982.046	14325.2
987.208	14372.2
992.364	14231.2
997.515	14181.2
1002.66	14057.2
1007.801	14127.2
1012.936	14011.2
1018.066	14131.2
1023.19	13902.2
1028.309	13852.2
1033.423	13974.2
1038.532	14102.2
1043.636	14286.2
1048.734	14198.2
1053.827	14343.2
1058.915	14189.2
1063.998	14197.2
1069.075	13985.2
1074.147	13758.2
1079.214	13805.2
1084.276	13507.2
1089.333	13524.2
1094.385	13410.2
1099.431	13326.2
1104.472	13366.2
1109.509	13516.2
1114.54	13596.2
1119.565	13681.2
1124.586	13625.2
1129.602	13686.2
1134.613	13595.2
1139.618	13431.2
1144.619	13281.2
1149.614	13039.2
1154.604	12977.2
1159.589	12951.2
1164.57	12716.2
1169.545	12692.2
1174.515	12723.2
1179.48	12943.2
1184.44	12927.2
1189.395	13007.2
1194.345	13141.2
1199.29	13173.2
1204.23	13198.2
1209.165	13159.2
1214.095	13023.2
1219.021	12830.2
1223.941	12877.2
1228.856	12848.2
1233.766	12886.2
1238.672	12752.2
1243.572	12743.2
1248.467	12800.2
1253.358	12906.2
1258.244	12918.2
1263.124	12806.2
1268	12675.2
1272.871	12643.2
1277.737	12627.2
1282.599	12462.2
1287.455	12307.2
1292.306	12051.2
1297.153	12126.2
1301.995	11947.2
1306.832	11881.2
1311.664	11817.2
1316.491	11929.2
1321.314	11895.2
1326.132	11905.2
1330.945	11741.2
1335.753	11774.2
1340.556	11587.2
1345.354	11460.2
1350.148	11197.2
1354.937	11067.2
1359.722	11030.2
1364.501	10780.2
1369.276	10645.2
1374.046	10735.2
1378.811	10830.2
1383.572	10958.2
1388.327	10644.2
1393.079	11082.2
1397.825	11196.2
1402.567	11140.2
1407.304	11050.2
1412.036	11157.2
1416.764	11062.2
1421.487	11166.2
1426.205	10875.2
1430.919	10733.2
1435.628	10636.2
1440.333	10595.2
1445.032	10359.2
1449.727	10416.2
1454.418	10418.2
1459.104	10429.2
1463.785	10170.2
1468.462	10251.2
1473.134	10221.2
1477.802	10006.2
1482.465	10121.2
1487.123	9797.2
1491.777	9923.2
1496.426	9764.2
1501.071	9584.2
1505.711	9678.2
1510.347	9677.2
1514.978	9782.2
1519.604	9902.2
1524.226	9923.2
1528.844	10185.2
1533.457	10182.2
1538.065	10310.2
1542.669	10287.2
1547.269	10376.2
1551.864	10313.2
1556.454	10513.2
1561.041	10370.2
1565.622	10392.2
1570.199	10101.2
1574.772	10068.2
1579.34	9925.2
1583.904	10027.2
1588.464	10052.2
1593.019	10040.2
1597.569	10146.2
1602.115	10170.2
1606.657	10270.2
1611.195	10286.2
1615.728	10331.2
1620.256	10466.2
1624.78	10473.2
1629.3	10498.2
1633.816	10319.2
1638.327	10239.2
1642.834	10226.2
1647.336	10080.2
1651.834	10077.2
1656.328	10120.2
1660.817	10006.2
1665.302	10066.2
1669.783	10053.2
1674.259	9882.2
1678.732	9599.2
1683.199	9379.2
1687.663	9258.2
1692.122	8860.2
1696.577	8651.2
1701.028	8477.2
1705.474	8581.2
1709.917	8487.2
1714.355	8489.2
1718.788	8348.2
1723.218	8245.2
1727.643	8033.2
1732.064	7873.2
1736.481	7935.2
1740.893	7707.2
1745.301	7590.2
1749.705	7602.2
1754.105	7296.2
1758.501	7245.2
1762.893	6940.2
1767.28	6914.2
1771.663	6681.2
1776.042	6499.2
1780.417	6398.2
1784.787	6211.2
1789.154	6331.2
1793.516	6277.2
1797.874	6495.2
1802.228	6636.2
1806.578	6752.2
1810.924	6637.2
1815.266	7049.2
1819.603	6736.2
1823.937	6703.2
1828.266	6657.2
1832.591	6640.2
1836.913	6492.2
1841.23	6544.2
1845.543	6483.2
1849.852	6260.2
1854.156	6316.2
1858.457	6265.2
1862.754	5986.2
1867.047	6113.2
1871.335	6017.2
1875.62	5936.2
1879.9	5937.2
1884.177	6105.2
1888.449	5973.2
1892.718	6038.2
1896.982	5876.2
1901.243	6051.2
1905.499	6010.2
1909.752	5927.2
1914	6047.2
1918.245	5935.2
1922.485	5933.2
1926.722	5959.2
1930.954	5981.2
1935.183	6031.2
1939.408	5982.2
1943.628	5982.2
1947.845	6027.2
1952.058	6089.2
1956.267	5930.2
1960.472	5935.2
1964.673	5920.2
1968.87	6059.2
1973.063	6060.2
1977.252	5949.2
1981.438	5884.2
1985.619	5704.2
1989.797	5676.2
1993.971	5597.2
1998.14	5475.2
2002.306	5486.2
2006.469	5493.2
2010.627	5393.2
2014.781	5404.2
2018.932	5447.2
2023.078	5269.2
2027.221	5239.2
2031.36	5292.2
2035.495	5332.2
2039.627	5302.2
2043.754	5182.2
2047.878	5171.2
2051.998	5128.2
2056.114	5118.2
2060.226	5111.2
2064.334	5053.2
2068.439	4935.2
2072.54	4986.2
2076.637	5160.2
2080.73	5091.2
2084.82	4978.2
2088.906	5094.2
2092.988	4980.2
2097.066	5220.2
2101.14	5035.2
2105.211	5117.2
2109.278	5129.2
2113.342	5146.2
2117.401	5214.2
2121.457	5160.2
2125.509	5100.2
2129.558	4907.2
2133.602	5040.2
2137.643	4922.2
2141.681	4817.2
2145.714	4865.2
2149.744	4681.2
2153.77	4797.2
2157.793	4772.2
2161.812	4775.2
2165.827	4753.2
2169.838	4590.2
2173.846	4606.2
2177.851	4550.2
2181.851	4481.2
2185.848	4546.2
2189.841	4393.2
2193.831	4495.2
2197.817	4289.2
2201.799	4289.2
2205.778	4343.2
2209.753	4296.2
2213.725	4283.2
2217.693	4207.2
2221.657	4196.2
2225.618	4141.2
2229.575	4129.2
2233.529	4081.2
2237.479	4122.2
2241.425	4088.2
2245.368	4199.2
2249.307	4093.2
2253.243	4033.2
2257.175	4109.2
2261.104	3985.2
2265.029	3965.2
2268.95	3912.2
2272.868	3816.2
2276.783	3744.2
2280.694	3518.2
2284.601	3678.2
2288.505	3611.2
2292.405	3495.2
2296.302	3577.2
2300.195	3431.2
2304.085	3561.2
2307.971	3487.2
2311.854	3509.2
2315.734	3373.2
2319.609	3403.2
2323.482	3475.2
2327.351	3375.2
2331.216	3374.2
2335.078	3377.2
2338.937	3398.2
2342.792	3373.2
2346.643	3276.2
2350.492	3261.2
2354.336	3266.2
2358.178	3166.2
2362.015	3172.2
2365.85	3270.2
2369.681	3288.2
2373.508	3290.2
2377.333	3203.2
2381.153	3278.2
2384.971	3285.2
2388.785	3238.2
2392.595	3334.2
2396.402	3337.2
2400.206	3390.2
2404.007	3396.2
2407.804	3210.2
2411.597	3130.2
2415.388	3206.2
2419.174	3080.2
2422.958	3149.2
2426.738	3060.2
2430.515	3015.2
2434.289	3107.2
2438.059	3069.2
2441.825	3053.2
2445.589	2905.2
2449.349	3065.2
2453.106	2950.2
2456.859	2893.2
2460.61	2854.2
2464.356	2879.2
2468.1	2876.2
2471.84	2897.2
2475.577	2874.2
2479.311	2766.2
2483.041	2789.2
2486.768	2687.2
2490.492	2560.2
2494.213	2764.2
2497.93	2760.2
2501.644	2851.2
2505.355	2778.2
2509.062	2684.2
2512.766	2690.2
2516.467	2748.2
2520.165	2749.2
2523.859	2780.2
2527.551	2600.2
2531.239	2664.2
2534.923	2690.2
2538.605	2654.2
2542.283	2660.2
2545.958	2684.2
2549.63	2558.2
2553.299	2598.2
2556.964	2612.2
2560.626	2676.2
2564.285	2472.2
2567.941	2610.2
2571.594	2662.2
2575.243	2403.2
2578.89	2617.2
2582.533	2580.2
2586.173	2536.2
2589.809	2564.2
2593.443	2717.2
2597.073	2508.2
2600.701	2444.2
2604.325	2454.2
2607.946	2480.2
2611.564	2441.2
2615.178	2349.2
2618.79	2427.2
2622.398	2485.2
2626.004	2431.2
2629.606	2333.2
2633.205	2493.2
2636.801	2297.2
2640.394	2296.2
2643.983	2286.2
2647.57	2277.2
2651.153	2246.2
2654.734	2128.2
2658.311	2345.2
2661.885	2232.2
2665.456	2161.2
2669.025	2156.2
2672.589	2137.2
2676.151	2050.2
2679.71	1991.2
2683.266	1999.2
2686.819	2049.2
2690.368	1992.2
2693.915	2026.2
2697.458	2067.2
2700.999	1916.2
2704.536	1894.2
2708.071	1905.2
2711.602	1880.2
2715.13	1866.2
2718.656	1843.2
2722.178	1790.2
2725.697	1902.2
2729.214	1555.2
2732.727	1738.2
2736.237	1716.2
2739.744	1718.2
2743.249	1810.2
2746.75	1767.2
2750.248	1877.2
2753.743	1876.2
2757.236	1826.2
2760.725	1816.2
2764.211	2070.2
2767.695	1833.2
2771.175	1845.2
2774.652	1792.2
2778.127	1808.2
2781.598	1831.2
2785.067	1809.2
2788.532	1824.2
2791.995	1775.2
2795.455	1825.2
2798.911	1729.2
2802.365	1868.2
2805.816	1790.2
2809.264	1748.2
2812.709	1837.2
2816.151	1749.2
2819.59	1923.2
2823.026	1897.2
2826.46	1925.2
2829.89	1882.2
2833.318	2029.2
2836.742	1902.2
2840.164	1872.2
2843.583	1972.2
2846.999	1969.2
2850.412	1906.2
2853.822	2004.2
2857.229	1864.2
2860.634	1958.2
2864.035	1972.2
2867.434	1912.2
2870.83	1888.2
2874.223	2036.2
2877.613	1897.2
2881	2133.2
2884.385	2199.2
2887.766	2132.2
2891.145	2069.2
2894.521	2250.2
2897.894	2255.2
2901.264	1932.2
2904.631	2282.2
2907.996	2252.2
2911.358	2182.2
2914.717	2197.2
2918.073	2158.2
2921.426	2179.2
2924.777	2319.2
2928.124	2264.2
2931.469	2234.2
2934.811	2486.2
2938.15	2321.2
2941.487	2358.2
2944.821	2346.2
2948.152	2446.2
2951.48	2425.2
2954.805	2357.2
2958.128	2354.2
2961.447	2384.2
2964.765	2307.2
2968.079	2464.2
2971.39	2354.2
2974.699	2435.2
2978.005	2418.2
2981.308	2523.2
2984.609	2594.2
2987.907	2509.2
2991.202	2619.2
2994.494	2675.2
2997.784	2303.2
3001.07	2539.2
3004.355	2634.2
3007.636	2688.2
3010.915	2766.2
3014.191	2844.2
3017.464	2782.2
3020.734	2776.2
3024.002	2948.2
3027.267	2911.2
3030.53	2965.2
3033.789	3020.2
3037.046	3160.2
3040.301	3129.2
3043.552	3168.2
3046.801	3254.2
3050.048	3114.2
3053.291	3196.2
3056.532	3359.2
3059.771	3492.2
3063.006	3474.2
3066.239	3550.2
3069.469	3644.2
3072.697	3855.2
3075.922	3899.2
3079.144	3953.2
3082.364	4016.2
3085.581	4218.2
3088.795	4204.2
3092.007	4296.2
3095.216	4483.2
3098.423	4692.2
3101.627	4860.2
3104.828	4889.2
3108.026	4964.2
3111.222	4970.2
3114.416	5014.2
3117.607	5247.2
3120.795	5215.2
3123.98	5417.2
3127.163	5538.2
3130.344	5579.2
3133.521	5702.2
3136.696	5888.2
3139.869	5907.2
3143.039	6057.2
3146.206	6067.2
3149.371	6177.2
3152.533	6417.2
3155.693	6467.2
3158.85	6534.2
3162.005	6614.2
3165.157	6690.2
3168.306	6775.2
3171.453	6649.2
3174.597	6919.2
3177.739	6847.2
3180.878	6701.2
3184.014	6795.2
3187.149	6816.2
3190.28	6766.2
3193.409	6701.2
3196.536	6793.2
3199.659	6684.2
3202.781	6737.2
3205.9	6892.2
3209.016	6752.2
3212.13	6788.2
3215.241	6686.2
3218.35	6718.2
3221.456	6817.2
3224.56	6931.2
3227.661	6919.2
3230.76	6941.2
3233.856	6877.2
3236.95	6778.2
3240.041	6835.2
3243.13	6668.2
3246.216	6728.2
3249.3	6526.2
3252.382	6568.2
3255.46	6658.2
3258.537	5866.2
3261.611	6608.2
3264.682	6461.2
3267.751	6366.2
3270.818	6470.2
3273.882	6270.2
3276.943	6199.2
3280.002	6150.2
3283.059	6203.2
3286.113	6121.2
3289.165	6156.2
3292.214	6088.2
3295.261	5955.2
3298.306	6049.2
3301.348	5861.2
3304.387	5861.2
3307.425	5707.2
3310.459	5749.2
3313.492	5548.2
3316.521	5501.2
3319.549	5367.2
3322.574	5361.2
3325.597	5226.2
3328.617	5206.2
3331.635	4995.2
3334.65	5227.2
3337.663	5141.2
3340.674	5099.2
3343.682	4996.2
3346.688	4966.2
3349.691	4987.2
3352.692	5072.2
3355.691	4905.2
3358.687	4907.2
3361.681	4936.2
3364.673	4857.2
3367.662	4848.2
3370.649	4796.2
3373.633	4860.2
3376.615	4819.2
3379.595	4890.2
3382.572	4814.2
3385.547	4617.2
3388.52	4690.2
3391.49	4533.2
3394.458	4551.2
3397.424	4410.2
3400.387	4538.2
3403.348	4168.2
3406.307	4259.2
3409.263	4225.2
3412.217	4061.2
3415.168	4037.2
3418.118	4048.2
3421.065	4033.2
3424.009	3834.2
3426.951	3954.2
3429.891	3642.2
3432.829	3851.2
3435.764	3789.2
3438.697	3754.2
3441.628	3523.2
3444.557	3606.2
3447.483	3632.2
3450.407	3353.2
3453.328	3233.2
3456.247	3405.2
3459.164	3335.2
3462.079	3116.2
3464.991	3127.2
3467.902	3156.2
3470.809	2966.2
3473.715	2887.2
3476.618	2837.2
3479.519	2701.2
3482.418	2790.2
3485.315	2546.2
3488.209	2521.2
3491.101	2509.2
3493.99	2493.2
3496.878	2150.2
3499.763	2190.2
3502.646	2119.2
3505.527	2226.2
3508.405	2068.2
3511.281	1997.2
3514.155	2054.2
3517.027	1990.2
3519.897	2036.2
3522.764	1813.2
3525.629	1875.2
3528.492	1721.2
3531.352	1629.2
3534.211	1556.2
3537.067	1634.2
3539.921	1503.2
3542.773	1432.2
3545.622	1378.2
3548.469	1373.2
3551.315	1335.2
3554.157	1282.2
3556.998	1181.2
3559.837	1037.2
3562.673	1043.2
3565.507	1100.2
3568.339	966.2
3571.169	1025.2
3573.996	946.2
3576.822	991.2
3579.645	956.2
3582.466	860.2
3585.285	799.2
3588.101	786.2
3590.916	794.2
3593.728	752.2
3596.538	774.2
3599.346	667.2
3602.152	733.2
3604.956	653.2
3607.757	536.2
3610.556	712.2
3613.354	627.2
3616.149	543.2
3618.942	503.2
3621.732	288.2
3624.521	517.2
3627.307	460.2
3630.092	490.2
3632.874	318.2
3635.654	443.2
3638.432	516.2
3641.208	369.2
3643.982	381.2
3646.753	282.2
3649.523	403.2
3652.29	384.2
3655.055	397.2
3657.818	259.2
3660.579	349.2
3663.338	417.2
3666.095	236.2
3668.849	353.2
3671.602	259.2
3674.352	337.2
3677.101	232.2
3679.847	107.2
3682.591	256.2
3685.333	248.2
3688.073	146.2
3690.811	213.2
3693.547	279.2
3696.281	175.2
3699.013	113.2
3701.742	128.2
3704.47	198.2
3707.195	61.2
3709.919	121.2
3712.64	122.2
3715.359	-5.8
3718.076	-97.8
3720.792	91.2
3723.505	82.2
3726.216	44.2
3728.925	107.2
3731.632	-119.8
3734.336	154.2
3737.039	-4.8
3739.74	37.2
3742.439	316.2
3745.136	9.2
3747.83	-12.8
3750.523	35.2
3753.213	-104.8
3755.902	43.2
3758.589	101.2
3761.273	99.2
3763.956	-111.8
3766.636	23.2
3769.315	-141.8
3771.991	106.2
3774.665	-79.8
3777.338	135.2
3780.008	48.2
3782.677	57.2
3785.343	56.2
3788.007	-42.8
3790.67	13.2
3793.33	-101.8
3795.989	27.2
3798.645	-112.8
3801.299	112.2
3803.952	-11.8
3806.602	-47.8
3809.251	-10.8
3811.897	-7.8
3814.542	4.2
3817.184	19.2
3819.825	105.2
3822.463	-155.8
3825.1	24.2
3827.735	-2.8
3830.367	1.2
3832.998	-138.8
3835.627	-67.8
3838.253	-22.8
3840.878	-42.8
3843.501	-119.8
3846.122	-71.8
3848.741	-128.8
3851.358	-71.8
3853.973	120.2
3856.586	17.2
3859.197	-82.8
3861.806	-86.8
3864.414	41.2
3867.019	7.2
3869.622	-59.8
3872.224	-175.8
3874.823	5.2
3877.421	31.2
3880.016	72.2
3882.61	127.2
3885.202	124.2
3887.792	91.2
3890.38	-100.8
3892.966	38.2
3895.55	-36.8
3898.132	-22.8
3900.713	-112.8
3903.291	-33.8
3905.868	-21.8
3908.442	-36.8
3911.015	-79.8
3913.586	-39.8
3916.155	-76.8
3918.722	48.2
3921.287	-56.8
3923.85	-121.8
3926.411	-70.8
3928.971	-104.8
3931.528	-79.8
3934.084	-62.8
3936.638	-42.8
3939.19	-151.8
3941.74	-53.8
3944.288	-149.8
3946.834	4.2
3949.378	-76.8
3951.921	2.2
3954.462	-34.8
3957	39.2
3959.537	-35.8
3962.072	56.2
3964.606	78.2
3967.137	-65.8
3969.667	-21.8
3972.194	-50.8
3974.72	-65.8
3977.244	40.2
3979.766	-25.8
3982.286	39.2
3984.805	-91.8
3987.321	-131.8
3989.836	-69.8
3992.349	5.2
3994.86	-36.8
3997.369	-19.8
3999.877	-96.8
4002.382	-48.8
4004.886	-0.8
4007.388	-4.8
4009.888	30.2
4012.386	-103.8
4014.883	-71.8
4017.377	-23.8
4019.87	-109.8
4022.361	35.2
4024.85	-1.8
4027.338	-69.8
4029.823	-103.8
4032.307	-57.8
4034.789	28.2
4037.269	50.2
4039.747	82.2
4042.224	-14.8
4044.699	-65.8
4047.172	-16.8
4049.643	-69.8
4052.112	119.2
4054.58	2.2
4057.046	49.2
4059.51	66.2
4061.972	-68.8
4064.432	21.2
4066.891	-123.8
4069.348	14.2
4071.803	-109.8
4074.256	-99.8
4076.708	-15.8
4079.158	-85.8
4081.606	-112.8
4084.052	44.2
4086.497	-66.8
4088.939	8.2
4091.38	-32.8
4093.819	-45.8
4096.257	-1103.8
4098.693	-1152.8
4101.127	-1160.8
4103.559	-1174.8
4105.989	58.2
4108.418	143.2
4110.845	356.2
4113.27	207.2
4115.694	310.2
4118.115	328.2
4120.535	-80.8
4122.954	-117.8
4125.37	-151.8
4127.785	-79.8
4130.198	-84.8
4132.609	-82.8
4135.019	-1174.8
4137.427	-1161.8
4139.833	-1142.8
4142.237	-970.8
