Data from 2018-2-8_conc=0_RamanShift_19.txt Node
Date: Wed Feb 07 09:37:10 IST 2018
User: aro
Spectrometer: QEPB0276
Trigger mode: 0
Integration Time (sec): 3.000000E1
Scans to average: 1
Electric dark correction enabled: true
Nonlinearity correction enabled: false
Boxcar width: 0
XAxis mode: Raman Shifts
Number of Pixels in Spectrum: 1044
>>>>>Begin Spectral Data<<<<<
160.701	381.1
166.742	551.1
172.777	1011.1
178.805	2680.1
184.826	6213.1
190.841	12287.1
196.849	19698.1
202.85	25041.1
208.845	26979.1
214.833	26756.1
220.815	26451.1
226.789	26124.1
232.758	26047.1
238.719	25950.1
244.674	25639.1
250.623	25160.1
256.565	24757.1
262.5	24191.1
268.429	23566.1
274.351	23289.1
280.267	23091.1
286.176	22536.1
292.079	22234.1
297.975	21956.1
303.865	21752.1
309.748	21534.1
315.625	21301.1
321.495	20942.1
327.359	20907.1
333.217	20951.1
339.068	20929.1
344.912	20940.1
350.751	20899.1
356.583	20920.1
362.408	20791.1
368.227	20797.1
374.04	20969.1
379.847	20960.1
385.647	21112.1
391.44	21364.1
397.228	21370.1
403.009	21531.1
408.784	21743.1
414.553	21809.1
420.315	21877.1
426.071	21900.1
431.821	21927.1
437.565	21785.1
443.302	21585.1
449.033	21548.1
454.758	21490.1
460.477	21371.1
466.189	21218.1
471.896	21201.1
477.596	21045.1
483.29	21126.1
488.978	21097.1
494.66	21054.1
500.335	21011.1
506.005	20920.1
511.668	20721.1
517.325	20595.1
522.977	20394.1
528.622	20381.1
534.261	20170.1
539.894	20076.1
545.521	20087.1
551.141	20003.1
556.756	19600.1
562.365	19554.1
567.968	19473.1
573.565	19349.1
579.155	19150.1
584.74	19078.1
590.319	18991.1
595.892	18879.1
601.459	18976.1
607.02	18885.1
612.575	18900.1
618.124	18768.1
623.667	18965.1
629.204	18788.1
634.735	18829.1
640.261	18801.1
645.781	18837.1
651.294	18625.1
656.802	18431.1
662.304	18309.1
667.8	18040.1
673.29	18072.1
678.775	17978.1
684.254	17876.1
689.726	17970.1
695.193	17813.1
700.655	17891.1
706.11	18010.1
711.56	17791.1
717.004	17884.1
722.442	17959.1
727.874	17819.1
733.301	17832.1
738.722	17848.1
744.137	17605.1
749.547	17647.1
754.951	17533.1
760.349	17293.1
765.741	17294.1
771.128	17219.1
776.509	17174.1
781.885	17112.1
787.254	17178.1
792.618	17170.1
797.977	17321.1
803.33	17324.1
808.677	17368.1
814.019	17333.1
819.355	17374.1
824.686	17392.1
830.011	17348.1
835.33	17064.1
840.644	16904.1
845.952	16924.1
851.255	16647.1
856.552	16591.1
861.844	16470.1
867.13	16400.1
872.41	16439.1
877.686	16294.1
882.955	16367.1
888.219	16492.1
893.478	16506.1
898.731	16404.1
903.979	16240.1
909.221	16349.1
914.458	16258.1
919.69	16111.1
924.916	16006.1
930.136	15736.1
935.351	15704.1
940.561	15351.1
945.766	15282.1
950.965	15158.1
956.158	15268.1
961.347	15325.1
966.529	15242.1
971.707	15311.1
976.879	15279.1
982.046	15389.1
987.208	15329.1
992.364	15272.1
997.515	15098.1
1002.66	14999.1
1007.801	15058.1
1012.936	14970.1
1018.066	15047.1
1023.19	14784.1
1028.309	14730.1
1033.423	14844.1
1038.532	14970.1
1043.636	15169.1
1048.734	15086.1
1053.827	15168.1
1058.915	15116.1
1063.998	15106.1
1069.075	14872.1
1074.147	14642.1
1079.214	14741.1
1084.276	14343.1
1089.333	14316.1
1094.385	14350.1
1099.431	14351.1
1104.472	14206.1
1109.509	14387.1
1114.54	14450.1
1119.565	14550.1
1124.586	14475.1
1129.602	14463.1
1134.613	14413.1
1139.618	14270.1
1144.619	14021.1
1149.614	13863.1
1154.604	13770.1
1159.589	13671.1
1164.57	13491.1
1169.545	13499.1
1174.515	13543.1
1179.48	13717.1
1184.44	13718.1
1189.395	13828.1
1194.345	13970.1
1199.29	13950.1
1204.23	14036.1
1209.165	13922.1
1214.095	13858.1
1219.021	13754.1
1223.941	13824.1
1228.856	13587.1
1233.766	13583.1
1238.672	13452.1
1243.572	13488.1
1248.467	13501.1
1253.358	13705.1
1258.244	13679.1
1263.124	13531.1
1268	13394.1
1272.871	13358.1
1277.737	13329.1
1282.599	13113.1
1287.455	12966.1
1292.306	12752.1
1297.153	12750.1
1301.995	12685.1
1306.832	12631.1
1311.664	12587.1
1316.491	12682.1
1321.314	12650.1
1326.132	12613.1
1330.945	12553.1
1335.753	12397.1
1340.556	12293.1
1345.354	12120.1
1350.148	11845.1
1354.937	11665.1
1359.722	11729.1
1364.501	11458.1
1369.276	11497.1
1374.046	11464.1
1378.811	11468.1
1383.572	11565.1
1388.327	11394.1
1393.079	11695.1
1397.825	11811.1
1402.567	11785.1
1407.304	11756.1
1412.036	11757.1
1416.764	11772.1
1421.487	11849.1
1426.205	11472.1
1430.919	11365.1
1435.628	11188.1
1440.333	11127.1
1445.032	10971.1
1449.727	11053.1
1454.418	11007.1
1459.104	11005.1
1463.785	10847.1
1468.462	10876.1
1473.134	10860.1
1477.802	10728.1
1482.465	10771.1
1487.123	10530.1
1491.777	10570.1
1496.426	10455.1
1501.071	10276.1
1505.711	10309.1
1510.347	10340.1
1514.978	10476.1
1519.604	10533.1
1524.226	10594.1
1528.844	10919.1
1533.457	10809.1
1538.065	10935.1
1542.669	10926.1
1547.269	10968.1
1551.864	11020.1
1556.454	11028.1
1561.041	10930.1
1565.622	10900.1
1570.199	10680.1
1574.772	10698.1
1579.34	10438.1
1583.904	10565.1
1588.464	10558.1
1593.019	10625.1
1597.569	10763.1
1602.115	10702.1
1606.657	10774.1
1611.195	10892.1
1615.728	10914.1
1620.256	10968.1
1624.78	11009.1
1629.3	11072.1
1633.816	10826.1
1638.327	10849.1
1642.834	10756.1
1647.336	10719.1
1651.834	10635.1
1656.328	10758.1
1660.817	10595.1
1665.302	10699.1
1669.783	10658.1
1674.259	10506.1
1678.732	10285.1
1683.199	10023.1
1687.663	9883.1
1692.122	9452.1
1696.577	9290.1
1701.028	9178.1
1705.474	9067.1
1709.917	9110.1
1714.355	9098.1
1718.788	8988.1
1723.218	8815.1
1727.643	8489.1
1732.064	8469.1
1736.481	8426.1
1740.893	8190.1
1745.301	8081.1
1749.705	8099.1
1754.105	7690.1
1758.501	7732.1
1762.893	7350.1
1767.28	7300.1
1771.663	7152.1
1776.042	7019.1
1780.417	6941.1
1784.787	6782.1
1789.154	6805.1
1793.516	6740.1
1797.874	6986.1
1802.228	7023.1
1806.578	7218.1
1810.924	7105.1
1815.266	7509.1
1819.603	7090.1
1823.937	7141.1
1828.266	7066.1
1832.591	6975.1
1836.913	6891.1
1841.23	6937.1
1845.543	6856.1
1849.852	6764.1
1854.156	6716.1
1858.457	6644.1
1862.754	6664.1
1867.047	6531.1
1871.335	6397.1
1875.62	6440.1
1879.9	6405.1
1884.177	6476.1
1888.449	6423.1
1892.718	6402.1
1896.982	6393.1
1901.243	6483.1
1905.499	6359.1
1909.752	6346.1
1914	6475.1
1918.245	6397.1
1922.485	6351.1
1926.722	6410.1
1930.954	6395.1
1935.183	6437.1
1939.408	6386.1
1943.628	6445.1
1947.845	6442.1
1952.058	6509.1
1956.267	6422.1
1960.472	6373.1
1964.673	6451.1
1968.87	6441.1
1973.063	6359.1
1977.252	6244.1
1981.438	6172.1
1985.619	6068.1
1989.797	6042.1
1993.971	5979.1
1998.14	5781.1
2002.306	5841.1
2006.469	5746.1
2010.627	5717.1
2014.781	5679.1
2018.932	5772.1
2023.078	5561.1
2027.221	5580.1
2031.36	5654.1
2035.495	5687.1
2039.627	5596.1
2043.754	5523.1
2047.878	5445.1
2051.998	5432.1
2056.114	5403.1
2060.226	5464.1
2064.334	5391.1
2068.439	5296.1
2072.54	5245.1
2076.637	5420.1
2080.73	5355.1
2084.82	5331.1
2088.906	5356.1
2092.988	5487.1
2097.066	5480.1
2101.14	5387.1
2105.211	5428.1
2109.278	5447.1
2113.342	5481.1
2117.401	5508.1
2121.457	5471.1
2125.509	5385.1
2129.558	5209.1
2133.602	5285.1
2137.643	5191.1
2141.681	5075.1
2145.714	5036.1
2149.744	5013.1
2153.77	5039.1
2157.793	4962.1
2161.812	4987.1
2165.827	4947.1
2169.838	4817.1
2173.846	4823.1
2177.851	4760.1
2181.851	4730.1
2185.848	4820.1
2189.841	4584.1
2193.831	4674.1
2197.817	4478.1
2201.799	4542.1
2205.778	4508.1
2209.753	4459.1
2213.725	4445.1
2217.693	4357.1
2221.657	4404.1
2225.618	4268.1
2229.575	4297.1
2233.529	4262.1
2237.479	4239.1
2241.425	4219.1
2245.368	4386.1
2249.307	4275.1
2253.243	4196.1
2257.175	4249.1
2261.104	4072.1
2265.029	3994.1
2268.95	3969.1
2272.868	3956.1
2276.783	3889.1
2280.694	3798.1
2284.601	3745.1
2288.505	3772.1
2292.405	3600.1
2296.302	3655.1
2300.195	3614.1
2304.085	3747.1
2307.971	3573.1
2311.854	3581.1
2315.734	3476.1
2319.609	3536.1
2323.482	3576.1
2327.351	3462.1
2331.216	3402.1
2335.078	3402.1
2338.937	3377.1
2342.792	3449.1
2346.643	3373.1
2350.492	3313.1
2354.336	3306.1
2358.178	3314.1
2362.015	3287.1
2365.85	3344.1
2369.681	3339.1
2373.508	3333.1
2377.333	3263.1
2381.153	3326.1
2384.971	3338.1
2388.785	3303.1
2392.595	3340.1
2396.402	3367.1
2400.206	3422.1
2404.007	3304.1
2407.804	3261.1
2411.597	3143.1
2415.388	3225.1
2419.174	3178.1
2422.958	3201.1
2426.738	3125.1
2430.515	2951.1
2434.289	3109.1
2438.059	3114.1
2441.825	3100.1
2445.589	2892.1
2449.349	3061.1
2453.106	2919.1
2456.859	2924.1
2460.61	3001.1
2464.356	2927.1
2468.1	2897.1
2471.84	2958.1
2475.577	2928.1
2479.311	2854.1
2483.041	2820.1
2486.768	2671.1
2490.492	2552.1
2494.213	2955.1
2497.93	2748.1
2501.644	2787.1
2505.355	2735.1
2509.062	2656.1
2512.766	2768.1
2516.467	2795.1
2520.165	2797.1
2523.859	2864.1
2527.551	2555.1
2531.239	2716.1
2534.923	2699.1
2538.605	2758.1
2542.283	2716.1
2545.958	2700.1
2549.63	2631.1
2553.299	2604.1
2556.964	2643.1
2560.626	2614.1
2564.285	2515.1
2567.941	2648.1
2571.594	2633.1
2575.243	2444.1
2578.89	2610.1
2582.533	2604.1
2586.173	2550.1
2589.809	2487.1
2593.443	2654.1
2597.073	2546.1
2600.701	2395.1
2604.325	2558.1
2607.946	2509.1
2611.564	2432.1
2615.178	2331.1
2618.79	2395.1
2622.398	2440.1
2626.004	2431.1
2629.606	2317.1
2633.205	2473.1
2636.801	2373.1
2640.394	2329.1
2643.983	2280.1
2647.57	2331.1
2651.153	2236.1
2654.734	2124.1
2658.311	2318.1
2661.885	2233.1
2665.456	2131.1
2669.025	2122.1
2672.589	2092.1
2676.151	1994.1
2679.71	2031.1
2683.266	1906.1
2686.819	1975.1
2690.368	1965.1
2693.915	1982.1
2697.458	2039.1
2700.999	1858.1
2704.536	1893.1
2708.071	1881.1
2711.602	1875.1
2715.13	1854.1
2718.656	1892.1
2722.178	1733.1
2725.697	1790.1
2729.214	1536.1
2732.727	1690.1
2736.237	1834.1
2739.744	1726.1
2743.249	1797.1
2746.75	1790.1
2750.248	1810.1
2753.743	1864.1
2757.236	1799.1
2760.725	1811.1
2764.211	1974.1
2767.695	1825.1
2771.175	1813.1
2774.652	1852.1
2778.127	1805.1
2781.598	1780.1
2785.067	1792.1
2788.532	1809.1
2791.995	1923.1
2795.455	1773.1
2798.911	1766.1
2802.365	1884.1
2805.816	1806.1
2809.264	1742.1
2812.709	1849.1
2816.151	1811.1
2819.59	1924.1
2823.026	1868.1
2826.46	1891.1
2829.89	1838.1
2833.318	1996.1
2836.742	1843.1
2840.164	1899.1
2843.583	1924.1
2846.999	1957.1
2850.412	1877.1
2853.822	1991.1
2857.229	1873.1
2860.634	1851.1
2864.035	1926.1
2867.434	1943.1
2870.83	1861.1
2874.223	2000.1
2877.613	1949.1
2881	2124.1
2884.385	2226.1
2887.766	2156.1
2891.145	2264.1
2894.521	2222.1
2897.894	2217.1
2901.264	1968.1
2904.631	2239.1
2907.996	2217.1
2911.358	2217.1
2914.717	2211.1
2918.073	2141.1
2921.426	2215.1
2924.777	2283.1
2928.124	2342.1
2931.469	2273.1
2934.811	2434.1
2938.15	2330.1
2941.487	2364.1
2944.821	2350.1
2948.152	2452.1
2951.48	2419.1
2954.805	2364.1
2958.128	2359.1
2961.447	2453.1
2964.765	2300.1
2968.079	2487.1
2971.39	2411.1
2974.699	2501.1
2978.005	2464.1
2981.308	2515.1
2984.609	2619.1
2987.907	2575.1
2991.202	2609.1
2994.494	2725.1
2997.784	2458.1
3001.07	2637.1
3004.355	2714.1
3007.636	2711.1
3010.915	2912.1
3014.191	2903.1
3017.464	2837.1
3020.734	2905.1
3024.002	2965.1
3027.267	2975.1
3030.53	3011.1
3033.789	3094.1
3037.046	3236.1
3040.301	3182.1
3043.552	3253.1
3046.801	3341.1
3050.048	3242.1
3053.291	3276.1
3056.532	3453.1
3059.771	3597.1
3063.006	3565.1
3066.239	3647.1
3069.469	3716.1
3072.697	3936.1
3075.922	3996.1
3079.144	4102.1
3082.364	4151.1
3085.581	4394.1
3088.795	4338.1
3092.007	4469.1
3095.216	4684.1
3098.423	4849.1
3101.627	5073.1
3104.828	5136.1
3108.026	5218.1
3111.222	5175.1
3114.416	5300.1
3117.607	5493.1
3120.795	5572.1
3123.98	5586.1
3127.163	5837.1
3130.344	5825.1
3133.521	5937.1
3136.696	6135.1
3139.869	6188.1
3143.039	6314.1
3146.206	6404.1
3149.371	6448.1
3152.533	6656.1
3155.693	6774.1
3158.85	6884.1
3162.005	6921.1
3165.157	7021.1
3168.306	7048.1
3171.453	7042.1
3174.597	7263.1
3177.739	7235.1
3180.878	7143.1
3184.014	7091.1
3187.149	7199.1
3190.28	7081.1
3193.409	7055.1
3196.536	7036.1
3199.659	7054.1
3202.781	7098.1
3205.9	7208.1
3209.016	7093.1
3212.13	7087.1
3215.241	6988.1
3218.35	7072.1
3221.456	7201.1
3224.56	7277.1
3227.661	7269.1
3230.76	7201.1
3233.856	7231.1
3236.95	7171.1
3240.041	7198.1
3243.13	7059.1
3246.216	7139.1
3249.3	6943.1
3252.382	6970.1
3255.46	7068.1
3258.537	6220.1
3261.611	6904.1
3264.682	6726.1
3267.751	6771.1
3270.818	6790.1
3273.882	6565.1
3276.943	6558.1
3280.002	6461.1
3283.059	6518.1
3286.113	6508.1
3289.165	6488.1
3292.214	6401.1
3295.261	6299.1
3298.306	6330.1
3301.348	6189.1
3304.387	6103.1
3307.425	5947.1
3310.459	5979.1
3313.492	5772.1
3316.521	5755.1
3319.549	5684.1
3322.574	5594.1
3325.597	5512.1
3328.617	5428.1
3331.635	5377.1
3334.65	5371.1
3337.663	5314.1
3340.674	5283.1
3343.682	5247.1
3346.688	5215.1
3349.691	5169.1
3352.692	5200.1
3355.691	5053.1
3358.687	5160.1
3361.681	5098.1
3364.673	5090.1
3367.662	5059.1
3370.649	5052.1
3373.633	5032.1
3376.615	4970.1
3379.595	5051.1
3382.572	4916.1
3385.547	4776.1
3388.52	4883.1
3391.49	4755.1
3394.458	4721.1
3397.424	4541.1
3400.387	4654.1
3403.348	4289.1
3406.307	4336.1
3409.263	4426.1
3412.217	4181.1
3415.168	4200.1
3418.118	4158.1
3421.065	4176.1
3424.009	4026.1
3426.951	4050.1
3429.891	3832.1
3432.829	3961.1
3435.764	3937.1
3438.697	3906.1
3441.628	3640.1
3444.557	3798.1
3447.483	3762.1
3450.407	3576.1
3453.328	3557.1
3456.247	3535.1
3459.164	3485.1
3462.079	3266.1
3464.991	3192.1
3467.902	3082.1
3470.809	3052.1
3473.715	2929.1
3476.618	2860.1
3479.519	2792.1
3482.418	2833.1
3485.315	2688.1
3488.209	2587.1
3491.101	2534.1
3493.99	2553.1
3496.878	2186.1
3499.763	2258.1
3502.646	2230.1
3505.527	2265.1
3508.405	2129.1
3511.281	2052.1
3514.155	2060.1
3517.027	2011.1
3519.897	2096.1
3522.764	1780.1
3525.629	1890.1
3528.492	1787.1
3531.352	1830.1
3534.211	1586.1
3537.067	1649.1
3539.921	1552.1
3542.773	1432.1
3545.622	1400.1
3548.469	1447.1
3551.315	1383.1
3554.157	1286.1
3556.998	1169.1
3559.837	1063.1
3562.673	1001.1
3565.507	1057.1
3568.339	1016.1
3571.169	999.1
3573.996	956.1
3576.822	935.1
3579.645	913.1
3582.466	840.1
3585.285	768.1
3588.101	748.1
3590.916	759.1
3593.728	712.1
3596.538	707.1
3599.346	609.1
3602.152	695.1
3604.956	690.1
3607.757	449.1
3610.556	699.1
3613.354	517.1
3616.149	514.1
3618.942	474.1
3621.732	289.1
3624.521	506.1
3627.307	394.1
3630.092	429.1
3632.874	349.1
3635.654	387.1
3638.432	426.1
3641.208	324.1
3643.982	293.1
3646.753	254.1
3649.523	333.1
3652.29	351.1
3655.055	247.1
3657.818	174.1
3660.579	274.1
3663.338	343.1
3666.095	115.1
3668.849	353.1
3671.602	121.1
3674.352	224.1
3677.101	144.1
3679.847	96.1
3682.591	166.1
3685.333	122.1
3688.073	31.1
3690.811	175.1
3693.547	212.1
3696.281	89.1
3699.013	19.1
3701.742	62.1
3704.47	124.1
3707.195	30.1
3709.919	12.1
3712.64	7.1
3715.359	-132.9
3718.076	-33.9
3720.792	21.1
3723.505	-6.9
3726.216	15.1
3728.925	45.1
3731.632	-130.9
3734.336	74.1
3737.039	-28.9
3739.74	-38.9
3742.439	55.1
3745.136	-30.9
3747.83	-109.9
3750.523	-6.9
3753.213	515.1
3755.902	-49.9
3758.589	13.1
3761.273	27.1
3763.956	-179.9
3766.636	-7.9
3769.315	-207.9
3771.991	85.1
3774.665	-108.9
3777.338	-48.9
3780.008	-41.9
3782.677	-26.9
3785.343	64.1
3788.007	-51.9
3790.67	-62.9
3793.33	-156.9
3795.989	-85.9
3798.645	-81.9
3801.299	8.1
3803.952	-115.9
3806.602	-116.9
3809.251	-63.9
3811.897	-73.9
3814.542	-92.9
3817.184	-263.9
3819.825	-21.9
3822.463	-49.9
3825.1	-82.9
3827.735	-110.9
3830.367	-103.9
3832.998	-162.9
3835.627	-145.9
3838.253	-170.9
3840.878	-68.9
3843.501	-185.9
3846.122	-228.9
3848.741	-196.9
3851.358	-114.9
3853.973	-21.9
3856.586	-90.9
3859.197	-147.9
3861.806	-139.9
3864.414	-65.9
3867.019	-99.9
3869.622	-166.9
3872.224	-166.9
3874.823	-78.9
3877.421	-30.9
3880.016	4.1
3882.61	92.1
3885.202	-16.9
3887.792	-4.9
3890.38	-191.9
3892.966	-87.9
3895.55	-73.9
3898.132	-105.9
3900.713	-201.9
3903.291	-96.9
3905.868	-213.9
3908.442	-185.9
3911.015	-117.9
3913.586	-149.9
3916.155	-149.9
3918.722	-28.9
3921.287	-124.9
3923.85	-52.9
3926.411	-183.9
3928.971	-235.9
3931.528	-113.9
3934.084	-153.9
3936.638	-108.9
3939.19	-169.9
3941.74	-138.9
3944.288	-210.9
3946.834	-141.9
3949.378	-143.9
3951.921	-10.9
3954.462	-112.9
3957	-164.9
3959.537	-44.9
3962.072	-4.9
3964.606	-2.9
3967.137	-148.9
3969.667	-128.9
3972.194	-125.9
3974.72	-111.9
3977.244	-63.9
3979.766	-77.9
3982.286	-15.9
3984.805	-127.9
3987.321	-171.9
3989.836	-130.9
3992.349	-76.9
3994.86	-92.9
3997.369	-154.9
3999.877	-128.9
4002.382	-121.9
4004.886	-112.9
4007.388	-135.9
4009.888	5.1
4012.386	-150.9
4014.883	-137.9
4017.377	-172.9
4019.87	-216.9
4022.361	-90.9
4024.85	-119.9
4027.338	-135.9
4029.823	-132.9
4032.307	-185.9
4034.789	-67.9
4037.269	-54.9
4039.747	-52.9
4042.224	-136.9
4044.699	-109.9
4047.172	-103.9
4049.643	-150.9
4052.112	-26.9
4054.58	-123.9
4057.046	-62.9
4059.51	-52.9
4061.972	-157.9
4064.432	-38.9
4066.891	-186.9
4069.348	-89.9
4071.803	-182.9
4074.256	-162.9
4076.708	-101.9
4079.158	-142.9
4081.606	-216.9
4084.052	-134.9
4086.497	-175.9
4088.939	-67.9
4091.38	-50.9
4093.819	-125.9
4096.257	-1149.9
4098.693	-1142.9
4101.127	-1195.9
4103.559	-1215.9
4105.989	250.1
4108.418	61.1
4110.845	336.1
4113.27	153.1
4115.694	243.1
4118.115	309.1
4120.535	-147.9
4122.954	-203.9
4125.37	-273.9
4127.785	-103.9
4130.198	-185.9
4132.609	-180.9
4135.019	-1217.9
4137.427	-1216.9
4139.833	-1167.9
4142.237	-1020.9
