Data from 2018-2-8_conc=5_RamanShift_21.txt Node
Date: Wed Feb 07 11:14:10 IST 2018
User: aro
Spectrometer: QEPB0276
Trigger mode: 0
Integration Time (sec): 3.000000E1
Scans to average: 1
Electric dark correction enabled: true
Nonlinearity correction enabled: false
Boxcar width: 0
XAxis mode: Raman Shifts
Number of Pixels in Spectrum: 1044
>>>>>Begin Spectral Data<<<<<
160.701	679.1
166.742	806.1
172.777	1301.1
178.805	2900.1
184.826	6401.1
190.841	12414.1
196.849	19787.1
202.85	25210.1
208.845	27278.1
214.833	27037.1
220.815	26720.1
226.789	26510.1
232.758	26501.1
238.719	26430.1
244.674	26125.1
250.623	25658.1
256.565	25314.1
262.5	24886.1
268.429	24178.1
274.351	24041.1
280.267	23815.1
286.176	23311.1
292.079	23004.1
297.975	22660.1
303.865	22540.1
309.748	22396.1
315.625	22255.1
321.495	21760.1
327.359	21736.1
333.217	21830.1
339.068	21817.1
344.912	21809.1
350.751	21742.1
356.583	21637.1
362.408	21653.1
368.227	21772.1
374.04	21806.1
379.847	21836.1
385.647	21925.1
391.44	22342.1
397.228	22125.1
403.009	22398.1
408.784	22319.1
414.553	22651.1
420.315	22727.1
426.071	22837.1
431.821	22643.1
437.565	22667.1
443.302	22454.1
449.033	22497.1
454.758	22404.1
460.477	22212.1
466.189	22145.1
471.896	21946.1
477.596	21826.1
483.29	22026.1
488.978	21906.1
494.66	22038.1
500.335	21936.1
506.005	21873.1
511.668	21572.1
517.325	21452.1
522.977	21323.1
528.622	21145.1
534.261	21080.1
539.894	20966.1
545.521	20940.1
551.141	20844.1
556.756	20570.1
562.365	20498.1
567.968	20300.1
573.565	20152.1
579.155	19983.1
584.74	19917.1
590.319	19743.1
595.892	19853.1
601.459	19714.1
607.02	19745.1
612.575	19758.1
618.124	19593.1
623.667	19763.1
629.204	19680.1
634.735	19734.1
640.261	19535.1
645.781	19791.1
651.294	19466.1
656.802	19249.1
662.304	19090.1
667.8	18912.1
673.29	18966.1
678.775	18753.1
684.254	18725.1
689.726	18844.1
695.193	18651.1
700.655	18780.1
706.11	18871.1
711.56	18715.1
717.004	18749.1
722.442	19011.1
727.874	18775.1
733.301	18729.1
738.722	18849.1
744.137	18575.1
749.547	18395.1
754.951	18372.1
760.349	18241.1
765.741	18106.1
771.128	18040.1
776.509	18090.1
781.885	18022.1
787.254	17981.1
792.618	18089.1
797.977	18181.1
803.33	18293.1
808.677	18349.1
814.019	18310.1
819.355	18307.1
824.686	18331.1
830.011	18254.1
835.33	18023.1
840.644	17802.1
845.952	17904.1
851.255	17553.1
856.552	17576.1
861.844	17423.1
867.13	17269.1
872.41	17278.1
877.686	17236.1
882.955	17282.1
888.219	17306.1
893.478	17514.1
898.731	17266.1
903.979	17266.1
909.221	17255.1
914.458	17204.1
919.69	16978.1
924.916	16888.1
930.136	16627.1
935.351	16563.1
940.561	16339.1
945.766	16191.1
950.965	16086.1
956.158	16125.1
961.347	16198.1
966.529	16213.1
971.707	16165.1
976.879	16178.1
982.046	16275.1
987.208	16264.1
992.364	16090.1
997.515	16106.1
1002.66	15938.1
1007.801	16044.1
1012.936	15892.1
1018.066	16038.1
1023.19	15771.1
1028.309	15659.1
1033.423	15788.1
1038.532	15876.1
1043.636	16110.1
1048.734	16058.1
1053.827	16173.1
1058.915	16128.1
1063.998	15992.1
1069.075	15795.1
1074.147	15579.1
1079.214	15671.1
1084.276	15314.1
1089.333	15294.1
1094.385	15132.1
1099.431	15268.1
1104.472	15140.1
1109.509	15348.1
1114.54	15393.1
1119.565	15412.1
1124.586	15412.1
1129.602	15408.1
1134.613	15476.1
1139.618	15323.1
1144.619	15057.1
1149.614	14796.1
1154.604	14720.1
1159.589	14676.1
1164.57	14348.1
1169.545	14485.1
1174.515	14496.1
1179.48	14560.1
1184.44	14658.1
1189.395	14854.1
1194.345	14920.1
1199.29	14868.1
1204.23	14988.1
1209.165	14800.1
1214.095	14806.1
1219.021	14629.1
1223.941	14652.1
1228.856	14601.1
1233.766	14539.1
1238.672	14443.1
1243.572	14350.1
1248.467	14419.1
1253.358	14606.1
1258.244	14623.1
1263.124	14511.1
1268	14361.1
1272.871	14356.1
1277.737	14386.1
1282.599	14107.1
1287.455	13913.1
1292.306	13758.1
1297.153	13779.1
1301.995	13503.1
1306.832	13386.1
1311.664	13468.1
1316.491	13562.1
1321.314	13446.1
1326.132	13505.1
1330.945	13431.1
1335.753	13196.1
1340.556	13168.1
1345.354	13036.1
1350.148	12660.1
1354.937	12541.1
1359.722	12428.1
1364.501	12291.1
1369.276	12009.1
1374.046	12001.1
1378.811	12181.1
1383.572	12319.1
1388.327	12040.1
1393.079	12637.1
1397.825	12752.1
1402.567	12566.1
1407.304	12520.1
1412.036	12621.1
1416.764	12384.1
1421.487	12751.1
1426.205	12339.1
1430.919	12239.1
1435.628	11993.1
1440.333	11936.1
1445.032	11819.1
1449.727	11752.1
1454.418	11782.1
1459.104	11666.1
1463.785	11572.1
1468.462	11562.1
1473.134	11598.1
1477.802	11408.1
1482.465	11462.1
1487.123	10991.1
1491.777	11191.1
1496.426	11091.1
1501.071	10846.1
1505.711	10903.1
1510.347	10864.1
1514.978	10989.1
1519.604	11082.1
1524.226	11155.1
1528.844	11519.1
1533.457	11370.1
1538.065	11688.1
1542.669	11541.1
1547.269	11677.1
1551.864	11668.1
1556.454	11872.1
1561.041	11744.1
1565.622	11638.1
1570.199	11391.1
1574.772	11380.1
1579.34	11173.1
1583.904	11264.1
1588.464	11270.1
1593.019	11256.1
1597.569	11424.1
1602.115	11255.1
1606.657	11601.1
1611.195	11472.1
1615.728	11586.1
1620.256	11719.1
1624.78	11787.1
1629.3	11673.1
1633.816	11531.1
1638.327	11455.1
1642.834	11399.1
1647.336	11333.1
1651.834	11188.1
1656.328	11267.1
1660.817	11141.1
1665.302	11272.1
1669.783	11172.1
1674.259	10997.1
1678.732	10715.1
1683.199	10395.1
1687.663	10372.1
1692.122	9892.1
1696.577	9535.1
1701.028	9554.1
1705.474	9466.1
1709.917	9449.1
1714.355	9498.1
1718.788	9390.1
1723.218	9308.1
1727.643	9060.1
1732.064	8931.1
1736.481	9040.1
1740.893	8753.1
1745.301	8622.1
1749.705	8711.1
1754.105	8268.1
1758.501	8243.1
1762.893	7919.1
1767.28	7896.1
1771.663	7571.1
1776.042	7424.1
1780.417	7351.1
1784.787	7038.1
1789.154	7075.1
1793.516	7219.1
1797.874	7253.1
1802.228	7450.1
1806.578	7601.1
1810.924	7473.1
1815.266	8149.1
1819.603	7553.1
1823.937	7602.1
1828.266	7528.1
1832.591	7502.1
1836.913	7385.1
1841.23	7363.1
1845.543	7400.1
1849.852	7198.1
1854.156	7218.1
1858.457	7101.1
1862.754	6876.1
1867.047	7040.1
1871.335	6852.1
1875.62	6823.1
1879.9	6801.1
1884.177	6981.1
1888.449	6809.1
1892.718	6810.1
1896.982	6699.1
1901.243	6914.1
1905.499	6793.1
1909.752	6664.1
1914	6888.1
1918.245	6599.1
1922.485	6651.1
1926.722	6656.1
1930.954	6632.1
1935.183	6689.1
1939.408	6612.1
1943.628	6721.1
1947.845	6716.1
1952.058	6808.1
1956.267	6857.1
1960.472	6700.1
1964.673	6759.1
1968.87	6850.1
1973.063	6780.1
1977.252	6602.1
1981.438	6602.1
1985.619	6540.1
1989.797	6441.1
1993.971	6380.1
1998.14	6104.1
2002.306	6208.1
2006.469	6213.1
2010.627	6191.1
2014.781	6152.1
2018.932	6153.1
2023.078	5941.1
2027.221	5942.1
2031.36	6045.1
2035.495	5889.1
2039.627	5962.1
2043.754	5875.1
2047.878	5792.1
2051.998	5809.1
2056.114	5841.1
2060.226	5772.1
2064.334	5706.1
2068.439	5605.1
2072.54	5569.1
2076.637	5780.1
2080.73	5639.1
2084.82	5588.1
2088.906	5690.1
2092.988	5612.1
2097.066	5859.1
2101.14	5627.1
2105.211	5760.1
2109.278	5702.1
2113.342	5770.1
2117.401	5865.1
2121.457	5720.1
2125.509	5769.1
2129.558	5531.1
2133.602	5595.1
2137.643	5526.1
2141.681	5479.1
2145.714	5460.1
2149.744	5363.1
2153.77	5374.1
2157.793	5295.1
2161.812	5504.1
2165.827	5369.1
2169.838	5091.1
2173.846	5208.1
2177.851	5163.1
2181.851	5042.1
2185.848	5077.1
2189.841	4931.1
2193.831	5131.1
2197.817	4814.1
2201.799	4872.1
2205.778	4912.1
2209.753	4924.1
2213.725	4809.1
2217.693	4820.1
2221.657	4822.1
2225.618	4697.1
2229.575	4730.1
2233.529	4652.1
2237.479	4703.1
2241.425	4689.1
2245.368	4800.1
2249.307	4688.1
2253.243	4672.1
2257.175	4678.1
2261.104	4501.1
2265.029	4403.1
2268.95	4404.1
2272.868	4338.1
2276.783	4387.1
2280.694	4261.1
2284.601	4181.1
2288.505	4158.1
2292.405	4007.1
2296.302	4143.1
2300.195	4014.1
2304.085	4134.1
2307.971	3968.1
2311.854	4054.1
2315.734	3882.1
2319.609	3986.1
2323.482	4158.1
2327.351	3941.1
2331.216	3889.1
2335.078	3860.1
2338.937	3879.1
2342.792	3891.1
2346.643	3832.1
2350.492	3816.1
2354.336	3817.1
2358.178	3761.1
2362.015	3732.1
2365.85	3996.1
2369.681	3863.1
2373.508	3829.1
2377.333	3650.1
2381.153	3863.1
2384.971	3868.1
2388.785	3898.1
2392.595	3873.1
2396.402	3899.1
2400.206	4011.1
2404.007	3958.1
2407.804	3736.1
2411.597	3679.1
2415.388	3821.1
2419.174	3710.1
2422.958	3717.1
2426.738	3591.1
2430.515	3555.1
2434.289	3690.1
2438.059	3707.1
2441.825	3672.1
2445.589	3380.1
2449.349	3617.1
2453.106	3441.1
2456.859	3499.1
2460.61	3364.1
2464.356	3482.1
2468.1	3414.1
2471.84	3477.1
2475.577	3469.1
2479.311	3383.1
2483.041	3234.1
2486.768	3108.1
2490.492	2971.1
2494.213	3245.1
2497.93	3260.1
2501.644	3322.1
2505.355	3291.1
2509.062	3168.1
2512.766	3261.1
2516.467	3113.1
2520.165	3176.1
2523.859	3342.1
2527.551	2979.1
2531.239	3203.1
2534.923	3198.1
2538.605	3203.1
2542.283	3118.1
2545.958	3136.1
2549.63	3016.1
2553.299	2992.1
2556.964	2902.1
2560.626	3047.1
2564.285	2961.1
2567.941	3055.1
2571.594	3003.1
2575.243	2911.1
2578.89	3064.1
2582.533	3090.1
2586.173	3028.1
2589.809	2935.1
2593.443	3253.1
2597.073	3088.1
2600.701	2853.1
2604.325	2935.1
2607.946	2987.1
2611.564	2925.1
2615.178	2780.1
2618.79	2824.1
2622.398	3006.1
2626.004	2892.1
2629.606	2822.1
2633.205	2992.1
2636.801	2811.1
2640.394	2714.1
2643.983	2787.1
2647.57	2760.1
2651.153	2710.1
2654.734	2567.1
2658.311	2855.1
2661.885	2691.1
2665.456	2716.1
2669.025	2616.1
2672.589	2593.1
2676.151	2432.1
2679.71	2408.1
2683.266	2541.1
2686.819	2469.1
2690.368	2429.1
2693.915	2277.1
2697.458	2446.1
2700.999	2319.1
2704.536	2327.1
2708.071	2349.1
2711.602	2290.1
2715.13	2266.1
2718.656	2306.1
2722.178	2165.1
2725.697	2276.1
2729.214	1944.1
2732.727	2089.1
2736.237	2106.1
2739.744	2016.1
2743.249	2194.1
2746.75	2228.1
2750.248	2178.1
2753.743	2212.1
2757.236	2137.1
2760.725	2143.1
2764.211	2346.1
2767.695	2200.1
2771.175	2186.1
2774.652	2189.1
2778.127	2184.1
2781.598	2111.1
2785.067	2178.1
2788.532	2179.1
2791.995	2101.1
2795.455	2206.1
2798.911	2093.1
2802.365	2279.1
2805.816	2097.1
2809.264	2071.1
2812.709	2190.1
2816.151	2138.1
2819.59	2333.1
2823.026	2296.1
2826.46	2308.1
2829.89	2258.1
2833.318	2443.1
2836.742	2181.1
2840.164	2226.1
2843.583	2343.1
2846.999	2354.1
2850.412	2225.1
2853.822	2632.1
2857.229	2222.1
2860.634	2307.1
2864.035	2453.1
2867.434	2265.1
2870.83	2303.1
2874.223	2410.1
2877.613	2328.1
2881	2546.1
2884.385	2642.1
2887.766	2522.1
2891.145	2540.1
2894.521	2572.1
2897.894	2626.1
2901.264	2317.1
2904.631	2578.1
2907.996	2529.1
2911.358	2539.1
2914.717	2614.1
2918.073	2605.1
2921.426	2608.1
2924.777	2684.1
2928.124	2715.1
2931.469	2556.1
2934.811	2863.1
2938.15	2673.1
2941.487	2721.1
2944.821	2440.1
2948.152	2791.1
2951.48	2792.1
2954.805	2701.1
2958.128	2661.1
2961.447	2731.1
2964.765	2613.1
2968.079	2797.1
2971.39	2691.1
2974.699	2773.1
2978.005	2771.1
2981.308	2782.1
2984.609	2969.1
2987.907	2854.1
2991.202	2939.1
2994.494	2991.1
2997.784	2613.1
3001.07	2879.1
3004.355	2963.1
3007.636	3028.1
3010.915	3069.1
3014.191	3131.1
3017.464	3220.1
3020.734	3084.1
3024.002	3221.1
3027.267	3298.1
3030.53	3253.1
3033.789	3310.1
3037.046	3450.1
3040.301	3497.1
3043.552	3546.1
3046.801	3609.1
3050.048	3481.1
3053.291	3462.1
3056.532	3599.1
3059.771	3825.1
3063.006	3824.1
3066.239	3896.1
3069.469	3987.1
3072.697	4236.1
3075.922	4269.1
3079.144	4254.1
3082.364	4281.1
3085.581	4602.1
3088.795	4353.1
3092.007	4634.1
3095.216	4816.1
3098.423	5085.1
3101.627	5273.1
3104.828	5226.1
3108.026	5336.1
3111.222	5411.1
3114.416	5385.1
3117.607	5634.1
3120.795	5606.1
3123.98	5809.1
3127.163	5990.1
3130.344	6037.1
3133.521	6094.1
3136.696	6193.1
3139.869	6294.1
3143.039	6411.1
3146.206	6364.1
3149.371	6553.1
3152.533	6706.1
3155.693	6844.1
3158.85	6929.1
3162.005	6880.1
3165.157	7065.1
3168.306	7141.1
3171.453	6955.1
3174.597	7246.1
3177.739	7284.1
3180.878	7169.1
3184.014	7103.1
3187.149	7184.1
3190.28	7098.1
3193.409	7111.1
3196.536	7042.1
3199.659	7051.1
3202.781	7058.1
3205.9	7271.1
3209.016	7115.1
3212.13	7176.1
3215.241	7049.1
3218.35	7062.1
3221.456	7290.1
3224.56	7250.1
3227.661	7286.1
3230.76	7303.1
3233.856	7248.1
3236.95	7160.1
3240.041	7216.1
3243.13	6990.1
3246.216	7062.1
3249.3	6899.1
3252.382	6913.1
3255.46	7005.1
3258.537	7336.1
3261.611	6979.1
3264.682	6713.1
3267.751	6720.1
3270.818	6801.1
3273.882	6560.1
3276.943	6546.1
3280.002	6448.1
3283.059	6524.1
3286.113	6528.1
3289.165	6555.1
3292.214	6444.1
3295.261	6293.1
3298.306	6420.1
3301.348	6209.1
3304.387	6217.1
3307.425	6077.1
3310.459	6100.1
3313.492	5801.1
3316.521	5812.1
3319.549	5754.1
3322.574	5668.1
3325.597	5517.1
3328.617	5626.1
3331.635	5562.1
3334.65	5611.1
3337.663	5431.1
3340.674	5453.1
3343.682	5226.1
3346.688	5352.1
3349.691	5285.1
3352.692	5428.1
3355.691	5245.1
3358.687	5225.1
3361.681	5173.1
3364.673	5213.1
3367.662	5150.1
3370.649	5019.1
3373.633	5212.1
3376.615	5081.1
3379.595	5233.1
3382.572	4984.1
3385.547	4978.1
3388.52	5059.1
3391.49	4913.1
3394.458	4858.1
3397.424	4717.1
3400.387	4802.1
3403.348	4420.1
3406.307	4529.1
3409.263	4558.1
3412.217	4353.1
3415.168	4417.1
3418.118	4321.1
3421.065	4257.1
3424.009	4077.1
3426.951	4202.1
3429.891	4226.1
3432.829	4103.1
3435.764	4082.1
3438.697	4067.1
3441.628	3702.1
3444.557	3938.1
3447.483	3895.1
3450.407	3643.1
3453.328	3555.1
3456.247	3646.1
3459.164	3657.1
3462.079	3372.1
3464.991	3359.1
3467.902	3209.1
3470.809	3230.1
3473.715	3085.1
3476.618	3067.1
3479.519	2894.1
3482.418	3119.1
3485.315	2887.1
3488.209	2809.1
3491.101	2603.1
3493.99	2731.1
3496.878	2378.1
3499.763	2442.1
3502.646	2336.1
3505.527	2512.1
3508.405	2333.1
3511.281	2262.1
3514.155	2295.1
3517.027	2203.1
3519.897	2359.1
3522.764	2078.1
3525.629	2113.1
3528.492	2022.1
3531.352	1854.1
3534.211	1824.1
3537.067	1951.1
3539.921	1764.1
3542.773	1668.1
3545.622	1632.1
3548.469	1750.1
3551.315	1613.1
3554.157	1479.1
3556.998	1475.1
3559.837	1299.1
3562.673	1286.1
3565.507	1327.1
3568.339	1213.1
3571.169	1327.1
3573.996	1200.1
3576.822	1265.1
3579.645	1220.1
3582.466	1069.1
3585.285	1057.1
3588.101	976.1
3590.916	1123.1
3593.728	985.1
3596.538	1037.1
3599.346	905.1
3602.152	1040.1
3604.956	911.1
3607.757	801.1
3610.556	975.1
3613.354	769.1
3616.149	728.1
3618.942	754.1
3621.732	582.1
3624.521	790.1
3627.307	716.1
3630.092	701.1
3632.874	592.1
3635.654	684.1
3638.432	814.1
3641.208	634.1
3643.982	657.1
3646.753	530.1
3649.523	614.1
3652.29	616.1
3655.055	628.1
3657.818	451.1
3660.579	432.1
3663.338	674.1
3666.095	444.1
3668.849	597.1
3671.602	442.1
3674.352	655.1
3677.101	433.1
3679.847	277.1
3682.591	529.1
3685.333	489.1
3688.073	470.1
3690.811	505.1
3693.547	296.1
3696.281	454.1
3699.013	392.1
3701.742	375.1
3704.47	504.1
3707.195	346.1
3709.919	344.1
3712.64	345.1
3715.359	253.1
3718.076	79.1
3720.792	450.1
3723.505	292.1
3726.216	208.1
3728.925	379.1
3731.632	178.1
3734.336	364.1
3737.039	271.1
3739.74	335.1
3742.439	411.1
3745.136	296.1
3747.83	215.1
3750.523	267.1
3753.213	466.1
3755.902	244.1
3758.589	465.1
3761.273	357.1
3763.956	98.1
3766.636	333.1
3769.315	87.1
3771.991	414.1
3774.665	244.1
3777.338	394.1
3780.008	326.1
3782.677	84.1
3785.343	433.1
3788.007	471.1
3790.67	206.1
3793.33	206.1
3795.989	368.1
3798.645	182.1
3801.299	393.1
3803.952	179.1
3806.602	167.1
3809.251	215.1
3811.897	234.1
3814.542	259.1
3817.184	277.1
3819.825	283.1
3822.463	-40.9
3825.1	227.1
3827.735	267.1
3830.367	255.1
3832.998	86.1
3835.627	187.1
3838.253	130.1
3840.878	78.1
3843.501	91.1
3846.122	143.1
3848.741	140.1
3851.358	186.1
3853.973	406.1
3856.586	166.1
3859.197	132.1
3861.806	160.1
3864.414	299.1
3867.019	241.1
3869.622	123.1
3872.224	100.1
3874.823	276.1
3877.421	264.1
3880.016	271.1
3882.61	368.1
3885.202	354.1
3887.792	346.1
3890.38	98.1
3892.966	239.1
3895.55	192.1
3898.132	220.1
3900.713	89.1
3903.291	222.1
3905.868	241.1
3908.442	197.1
3911.015	121.1
3913.586	178.1
3916.155	157.1
3918.722	265.1
3921.287	205.1
3923.85	119.1
3926.411	117.1
3928.971	127.1
3931.528	216.1
3934.084	141.1
3936.638	167.1
3939.19	156.1
3941.74	188.1
3944.288	125.1
3946.834	200.1
3949.378	152.1
3951.921	306.1
3954.462	133.1
3957	93.1
3959.537	220.1
3962.072	310.1
3964.606	330.1
3967.137	75.1
3969.667	181.1
3972.194	180.1
3974.72	218.1
3977.244	274.1
3979.766	146.1
3982.286	281.1
3984.805	99.1
3987.321	90.1
3989.836	167.1
3992.349	241.1
3994.86	188.1
3997.369	175.1
3999.877	149.1
4002.382	180.1
4004.886	174.1
4007.388	163.1
4009.888	345.1
4012.386	189.1
4014.883	154.1
4017.377	172.1
4019.87	103.1
4022.361	212.1
4024.85	296.1
4027.338	280.1
4029.823	147.1
4032.307	173.1
4034.789	219.1
4037.269	216.1
4039.747	206.1
4042.224	132.1
4044.699	252.1
4047.172	261.1
4049.643	118.1
4052.112	282.1
4054.58	252.1
4057.046	208.1
4059.51	283.1
4061.972	182.1
4064.432	324.1
4066.891	86.1
4069.348	194.1
4071.803	113.1
4074.256	214.1
4076.708	169.1
4079.158	284.1
4081.606	18.1
4084.052	223.1
4086.497	237.1
4088.939	198.1
4091.38	269.1
4093.819	173.1
4096.257	-1408.9
4098.693	-1465.9
4101.127	-1460.9
4103.559	-1490.9
4105.989	403.1
4108.418	389.1
4110.845	645.1
4113.27	427.1
4115.694	561.1
4118.115	592.1
4120.535	110.1
4122.954	38.1
4125.37	-2.9
4127.785	115.1
4130.198	116.1
4132.609	123.1
4135.019	-1560.9
4137.427	-1460.9
4139.833	-1441.9
4142.237	-1222.9
