Data from 2018-2-8_conc=5_RamanShift_12.txt Node
Date: Wed Feb 07 11:05:10 IST 2018
User: aro
Spectrometer: QEPB0276
Trigger mode: 0
Integration Time (sec): 3.000000E1
Scans to average: 1
Electric dark correction enabled: true
Nonlinearity correction enabled: false
Boxcar width: 0
XAxis mode: Raman Shifts
Number of Pixels in Spectrum: 1044
>>>>>Begin Spectral Data<<<<<
160.701	621.6
166.742	739.6
172.777	1221.6
178.805	2849.6
184.826	6396.6
190.841	12586.6
196.849	19977.6
202.85	25504.6
208.845	27519.6
214.833	27353.6
220.815	26907.6
226.789	25501.6
232.758	26622.6
238.719	26558.6
244.674	26331.6
250.623	25825.6
256.565	25403.6
262.5	24939.6
268.429	24241.6
274.351	24022.6
280.267	23827.6
286.176	23371.6
292.079	23044.6
297.975	22700.6
303.865	22538.6
309.748	22315.6
315.625	22143.6
321.495	21617.6
327.359	21703.6
333.217	21755.6
339.068	21711.6
344.912	21656.6
350.751	21690.6
356.583	21587.6
362.408	21498.6
368.227	21529.6
374.04	21755.6
379.847	21733.6
385.647	21846.6
391.44	22185.6
397.228	22118.6
403.009	22294.6
408.784	22265.6
414.553	22489.6
420.315	22586.6
426.071	22612.6
431.821	22596.6
437.565	22622.6
443.302	22377.6
449.033	22444.6
454.758	22332.6
460.477	22119.6
466.189	22065.6
471.896	21936.6
477.596	21809.6
483.29	21857.6
488.978	21865.6
494.66	21917.6
500.335	21806.6
506.005	21780.6
511.668	21499.6
517.325	21386.6
522.977	21265.6
528.622	21094.6
534.261	21018.6
539.894	20891.6
545.521	20840.6
551.141	20749.6
556.756	20528.6
562.365	20357.6
567.968	20323.6
573.565	20097.6
579.155	19951.6
584.74	19892.6
590.319	19754.6
595.892	19738.6
601.459	19698.6
607.02	19655.6
612.575	19808.6
618.124	19552.6
623.667	19696.6
629.204	19578.6
634.735	19638.6
640.261	19523.6
645.781	19743.6
651.294	19456.6
656.802	19154.6
662.304	19054.6
667.8	18836.6
673.29	18847.6
678.775	18746.6
684.254	18611.6
689.726	18812.6
695.193	18576.6
700.655	18662.6
706.11	18783.6
711.56	18669.6
717.004	18724.6
722.442	18928.6
727.874	18655.6
733.301	18659.6
738.722	18795.6
744.137	18513.6
749.547	18500.6
754.951	18321.6
760.349	18173.6
765.741	17991.6
771.128	18026.6
776.509	18071.6
781.885	18005.6
787.254	17908.6
792.618	18087.6
797.977	18194.6
803.33	18177.6
808.677	18262.6
814.019	18127.6
819.355	18271.6
824.686	18280.6
830.011	18270.6
835.33	17895.6
840.644	17642.6
845.952	17824.6
851.255	17551.6
856.552	17494.6
861.844	17340.6
867.13	17146.6
872.41	17239.6
877.686	17146.6
882.955	17177.6
888.219	17327.6
893.478	17439.6
898.731	17164.6
903.979	17099.6
909.221	17258.6
914.458	17153.6
919.69	16965.6
924.916	16870.6
930.136	16644.6
935.351	16486.6
940.561	16296.6
945.766	16186.6
950.965	15953.6
956.158	16119.6
961.347	16239.6
966.529	16181.6
971.707	16083.6
976.879	16191.6
982.046	16184.6
987.208	16308.6
992.364	16085.6
997.515	16057.6
1002.66	15891.6
1007.801	15979.6
1012.936	15894.6
1018.066	15945.6
1023.19	15754.6
1028.309	15606.6
1033.423	15790.6
1038.532	15757.6
1043.636	16046.6
1048.734	15974.6
1053.827	16150.6
1058.915	16112.6
1063.998	15963.6
1069.075	15786.6
1074.147	15585.6
1079.214	15611.6
1084.276	15200.6
1089.333	15245.6
1094.385	15221.6
1099.431	15137.6
1104.472	15130.6
1109.509	15281.6
1114.54	15397.6
1119.565	15564.6
1124.586	15442.6
1129.602	15361.6
1134.613	15361.6
1139.618	15299.6
1144.619	15079.6
1149.614	14819.6
1154.604	14763.6
1159.589	14605.6
1164.57	14277.6
1169.545	14422.6
1174.515	14465.6
1179.48	14541.6
1184.44	14649.6
1189.395	14776.6
1194.345	14994.6
1199.29	14881.6
1204.23	14947.6
1209.165	14845.6
1214.095	14759.6
1219.021	14625.6
1223.941	14557.6
1228.856	14589.6
1233.766	14530.6
1238.672	14480.6
1243.572	14391.6
1248.467	14405.6
1253.358	14510.6
1258.244	14611.6
1263.124	14562.6
1268	14348.6
1272.871	14425.6
1277.737	14355.6
1282.599	14101.6
1287.455	14001.6
1292.306	13728.6
1297.153	13818.6
1301.995	13541.6
1306.832	13416.6
1311.664	13493.6
1316.491	13574.6
1321.314	13475.6
1326.132	13511.6
1330.945	13339.6
1335.753	13222.6
1340.556	13120.6
1345.354	13029.6
1350.148	12697.6
1354.937	12580.6
1359.722	12494.6
1364.501	12336.6
1369.276	12161.6
1374.046	12264.6
1378.811	12425.6
1383.572	12522.6
1388.327	12298.6
1393.079	12744.6
1397.825	12804.6
1402.567	12714.6
1407.304	12637.6
1412.036	12776.6
1416.764	12497.6
1421.487	12769.6
1426.205	12464.6
1430.919	12296.6
1435.628	12043.6
1440.333	11978.6
1445.032	11849.6
1449.727	11793.6
1454.418	11865.6
1459.104	11848.6
1463.785	11601.6
1468.462	11625.6
1473.134	11572.6
1477.802	11400.6
1482.465	11538.6
1487.123	11125.6
1491.777	11297.6
1496.426	11204.6
1501.071	11029.6
1505.711	11176.6
1510.347	11200.6
1514.978	11341.6
1519.604	11341.6
1524.226	11450.6
1528.844	11807.6
1533.457	11657.6
1538.065	11892.6
1542.669	11823.6
1547.269	11956.6
1551.864	11851.6
1556.454	12088.6
1561.041	11910.6
1565.622	11885.6
1570.199	11585.6
1574.772	11586.6
1579.34	11290.6
1583.904	11414.6
1588.464	11497.6
1593.019	11479.6
1597.569	11643.6
1602.115	11612.6
1606.657	11751.6
1611.195	11676.6
1615.728	11721.6
1620.256	11833.6
1624.78	11940.6
1629.3	11891.6
1633.816	11643.6
1638.327	11635.6
1642.834	11617.6
1647.336	11562.6
1651.834	11379.6
1656.328	11500.6
1660.817	11389.6
1665.302	11406.6
1669.783	11391.6
1674.259	11228.6
1678.732	10988.6
1683.199	10767.6
1687.663	10616.6
1692.122	10117.6
1696.577	9924.6
1701.028	9859.6
1705.474	9921.6
1709.917	9908.6
1714.355	9931.6
1718.788	9697.6
1723.218	9604.6
1727.643	9364.6
1732.064	9202.6
1736.481	9243.6
1740.893	9029.6
1745.301	8867.6
1749.705	8944.6
1754.105	8405.6
1758.501	8434.6
1762.893	8115.6
1767.28	8065.6
1771.663	7798.6
1776.042	7664.6
1780.417	7527.6
1784.787	7294.6
1789.154	7423.6
1793.516	7555.6
1797.874	7663.6
1802.228	7835.6
1806.578	7977.6
1810.924	7816.6
1815.266	8557.6
1819.603	7916.6
1823.937	7845.6
1828.266	7798.6
1832.591	7730.6
1836.913	7673.6
1841.23	7707.6
1845.543	7635.6
1849.852	7348.6
1854.156	7421.6
1858.457	7394.6
1862.754	7078.6
1867.047	7231.6
1871.335	7093.6
1875.62	7006.6
1879.9	7002.6
1884.177	7211.6
1888.449	7041.6
1892.718	7020.6
1896.982	7008.6
1901.243	7207.6
1905.499	7084.6
1909.752	6935.6
1914	7141.6
1918.245	6976.6
1922.485	6973.6
1926.722	6991.6
1930.954	7052.6
1935.183	7134.6
1939.408	7033.6
1943.628	7141.6
1947.845	7111.6
1952.058	7170.6
1956.267	7174.6
1960.472	7044.6
1964.673	7105.6
1968.87	7100.6
1973.063	7153.6
1977.252	6950.6
1981.438	6943.6
1985.619	6780.6
1989.797	6677.6
1993.971	6666.6
1998.14	6437.6
2002.306	6475.6
2006.469	6443.6
2010.627	6416.6
2014.781	6365.6
2018.932	6371.6
2023.078	6238.6
2027.221	6195.6
2031.36	6286.6
2035.495	6300.6
2039.627	6148.6
2043.754	5979.6
2047.878	6052.6
2051.998	6017.6
2056.114	6055.6
2060.226	6047.6
2064.334	5955.6
2068.439	5841.6
2072.54	5802.6
2076.637	6031.6
2080.73	5984.6
2084.82	5897.6
2088.906	6005.6
2092.988	5992.6
2097.066	6155.6
2101.14	5953.6
2105.211	6072.6
2109.278	6091.6
2113.342	6075.6
2117.401	6171.6
2121.457	6118.6
2125.509	6146.6
2129.558	5819.6
2133.602	5903.6
2137.643	5843.6
2141.681	5773.6
2145.714	5715.6
2149.744	5666.6
2153.77	5653.6
2157.793	5612.6
2161.812	5709.6
2165.827	5641.6
2169.838	5376.6
2173.846	5472.6
2177.851	5357.6
2181.851	5265.6
2185.848	5396.6
2189.841	5217.6
2193.831	5238.6
2197.817	5045.6
2201.799	5074.6
2205.778	5164.6
2209.753	5060.6
2213.725	4988.6
2217.693	5031.6
2221.657	4982.6
2225.618	4870.6
2229.575	4937.6
2233.529	4852.6
2237.479	4872.6
2241.425	4847.6
2245.368	4986.6
2249.307	4836.6
2253.243	4841.6
2257.175	4851.6
2261.104	4687.6
2265.029	4615.6
2268.95	4613.6
2272.868	4500.6
2276.783	4518.6
2280.694	4315.6
2284.601	4388.6
2288.505	4362.6
2292.405	4111.6
2296.302	4303.6
2300.195	4127.6
2304.085	4264.6
2307.971	4070.6
2311.854	4218.6
2315.734	4091.6
2319.609	4063.6
2323.482	4239.6
2327.351	4059.6
2331.216	4006.6
2335.078	3970.6
2338.937	4003.6
2342.792	4004.6
2346.643	3998.6
2350.492	3936.6
2354.336	3894.6
2358.178	3868.6
2362.015	3846.6
2365.85	4008.6
2369.681	3937.6
2373.508	3874.6
2377.333	3784.6
2381.153	3920.6
2384.971	3937.6
2388.785	3922.6
2392.595	3937.6
2396.402	3934.6
2400.206	4078.6
2404.007	4008.6
2407.804	3843.6
2411.597	3703.6
2415.388	3848.6
2419.174	3796.6
2422.958	3734.6
2426.738	3700.6
2430.515	3631.6
2434.289	3732.6
2438.059	3721.6
2441.825	3740.6
2445.589	3455.6
2449.349	3658.6
2453.106	3576.6
2456.859	3550.6
2460.61	3434.6
2464.356	3542.6
2468.1	3492.6
2471.84	3510.6
2475.577	3506.6
2479.311	3401.6
2483.041	3346.6
2486.768	3209.6
2490.492	3051.6
2494.213	3338.6
2497.93	3372.6
2501.644	3399.6
2505.355	3391.6
2509.062	3220.6
2512.766	3323.6
2516.467	3235.6
2520.165	3272.6
2523.859	3414.6
2527.551	3139.6
2531.239	3266.6
2534.923	3294.6
2538.605	3309.6
2542.283	3203.6
2545.958	3222.6
2549.63	3172.6
2553.299	3125.6
2556.964	3010.6
2560.626	3215.6
2564.285	3062.6
2567.941	3178.6
2571.594	3156.6
2575.243	3020.6
2578.89	3198.6
2582.533	3135.6
2586.173	3101.6
2589.809	3051.6
2593.443	3302.6
2597.073	3157.6
2600.701	2944.6
2604.325	3039.6
2607.946	3107.6
2611.564	2968.6
2615.178	2858.6
2618.79	2930.6
2622.398	3005.6
2626.004	2998.6
2629.606	2874.6
2633.205	3068.6
2636.801	2891.6
2640.394	2861.6
2643.983	2768.6
2647.57	2891.6
2651.153	2735.6
2654.734	2626.6
2658.311	2889.6
2661.885	2728.6
2665.456	2784.6
2669.025	2614.6
2672.589	2621.6
2676.151	2488.6
2679.71	2457.6
2683.266	2601.6
2686.819	2583.6
2690.368	2458.6
2693.915	2375.6
2697.458	2514.6
2700.999	2356.6
2704.536	2305.6
2708.071	2331.6
2711.602	2299.6
2715.13	2296.6
2718.656	2259.6
2722.178	2188.6
2725.697	2320.6
2729.214	1998.6
2732.727	2083.6
2736.237	2160.6
2739.744	2086.6
2743.249	2248.6
2746.75	2254.6
2750.248	2303.6
2753.743	2267.6
2757.236	2300.6
2760.725	2215.6
2764.211	2470.6
2767.695	2293.6
2771.175	2254.6
2774.652	2241.6
2778.127	2286.6
2781.598	2231.6
2785.067	2252.6
2788.532	2273.6
2791.995	2190.6
2795.455	2226.6
2798.911	2211.6
2802.365	2360.6
2805.816	2201.6
2809.264	2149.6
2812.709	2260.6
2816.151	2222.6
2819.59	2376.6
2823.026	2367.6
2826.46	2336.6
2829.89	2299.6
2833.318	2520.6
2836.742	2322.6
2840.164	2300.6
2843.583	2376.6
2846.999	2391.6
2850.412	2342.6
2853.822	2723.6
2857.229	2298.6
2860.634	2333.6
2864.035	2453.6
2867.434	2314.6
2870.83	2387.6
2874.223	2493.6
2877.613	2346.6
2881	2627.6
2884.385	2708.6
2887.766	2610.6
2891.145	2503.6
2894.521	2677.6
2897.894	2722.6
2901.264	2420.6
2904.631	2706.6
2907.996	2642.6
2911.358	2591.6
2914.717	2588.6
2918.073	2583.6
2921.426	2640.6
2924.777	2833.6
2928.124	2736.6
2931.469	2599.6
2934.811	2936.6
2938.15	2740.6
2941.487	2839.6
2944.821	2469.6
2948.152	2936.6
2951.48	2837.6
2954.805	2794.6
2958.128	2697.6
2961.447	2788.6
2964.765	2670.6
2968.079	2838.6
2971.39	2822.6
2974.699	2847.6
2978.005	2870.6
2981.308	2860.6
2984.609	3033.6
2987.907	2954.6
2991.202	3047.6
2994.494	3127.6
2997.784	2693.6
3001.07	2989.6
3004.355	3010.6
3007.636	3159.6
3010.915	3169.6
3014.191	3202.6
3017.464	3226.6
3020.734	3134.6
3024.002	3334.6
3027.267	3412.6
3030.53	3363.6
3033.789	3478.6
3037.046	3635.6
3040.301	3537.6
3043.552	3623.6
3046.801	3738.6
3050.048	3603.6
3053.291	3560.6
3056.532	3784.6
3059.771	3876.6
3063.006	3902.6
3066.239	3952.6
3069.469	4093.6
3072.697	4354.6
3075.922	4368.6
3079.144	4442.6
3082.364	4422.6
3085.581	4702.6
3088.795	4536.6
3092.007	4777.6
3095.216	4976.6
3098.423	5265.6
3101.627	5360.6
3104.828	5334.6
3108.026	5469.6
3111.222	5563.6
3114.416	5521.6
3117.607	5740.6
3120.795	5863.6
3123.98	5973.6
3127.163	6198.6
3130.344	6189.6
3133.521	6448.6
3136.696	6371.6
3139.869	6424.6
3143.039	6588.6
3146.206	6569.6
3149.371	6819.6
3152.533	6927.6
3155.693	7092.6
3158.85	7084.6
3162.005	7206.6
3165.157	7316.6
3168.306	7320.6
3171.453	7210.6
3174.597	7498.6
3177.739	7530.6
3180.878	7352.6
3184.014	7397.6
3187.149	7427.6
3190.28	7372.6
3193.409	7326.6
3196.536	7314.6
3199.659	7305.6
3202.781	7284.6
3205.9	7468.6
3209.016	7337.6
3212.13	7284.6
3215.241	7269.6
3218.35	7339.6
3221.456	7365.6
3224.56	7520.6
3227.661	7466.6
3230.76	7586.6
3233.856	7437.6
3236.95	7369.6
3240.041	7469.6
3243.13	7256.6
3246.216	7293.6
3249.3	7119.6
3252.382	7132.6
3255.46	7217.6
3258.537	6528.6
3261.611	7146.6
3264.682	7016.6
3267.751	6893.6
3270.818	7017.6
3273.882	6792.6
3276.943	6733.6
3280.002	6630.6
3283.059	6695.6
3286.113	6668.6
3289.165	6754.6
3292.214	6631.6
3295.261	6464.6
3298.306	6627.6
3301.348	6396.6
3304.387	6311.6
3307.425	6204.6
3310.459	6250.6
3313.492	5997.6
3316.521	5888.6
3319.549	5871.6
3322.574	5866.6
3325.597	5759.6
3328.617	5663.6
3331.635	5617.6
3334.65	5680.6
3337.663	5596.6
3340.674	5569.6
3343.682	5432.6
3346.688	5506.6
3349.691	5459.6
3352.692	5547.6
3355.691	5395.6
3358.687	5382.6
3361.681	5321.6
3364.673	5349.6
3367.662	5289.6
3370.649	5114.6
3373.633	5296.6
3376.615	5166.6
3379.595	5395.6
3382.572	5094.6
3385.547	5132.6
3388.52	5172.6
3391.49	4967.6
3394.458	4995.6
3397.424	4804.6
3400.387	4957.6
3403.348	4531.6
3406.307	4638.6
3409.263	4630.6
3412.217	4443.6
3415.168	4479.6
3418.118	4426.6
3421.065	4367.6
3424.009	4170.6
3426.951	4304.6
3429.891	4291.6
3432.829	4198.6
3435.764	4202.6
3438.697	4110.6
3441.628	3900.6
3444.557	3985.6
3447.483	3996.6
3450.407	3752.6
3453.328	3595.6
3456.247	3796.6
3459.164	3757.6
3462.079	3431.6
3464.991	3387.6
3467.902	3330.6
3470.809	3326.6
3473.715	3163.6
3476.618	3045.6
3479.519	2986.6
3482.418	3146.6
3485.315	2913.6
3488.209	2817.6
3491.101	2639.6
3493.99	2673.6
3496.878	2393.6
3499.763	2472.6
3502.646	2347.6
3505.527	2490.6
3508.405	2371.6
3511.281	2293.6
3514.155	2306.6
3517.027	2252.6
3519.897	2352.6
3522.764	2075.6
3525.629	2184.6
3528.492	2022.6
3531.352	1887.6
3534.211	1860.6
3537.067	1906.6
3539.921	1862.6
3542.773	1686.6
3545.622	1694.6
3548.469	1684.6
3551.315	1612.6
3554.157	1489.6
3556.998	1411.6
3559.837	1292.6
3562.673	1229.6
3565.507	1369.6
3568.339	1219.6
3571.169	1292.6
3573.996	1195.6
3576.822	1246.6
3579.645	1149.6
3582.466	1084.6
3585.285	1051.6
3588.101	1013.6
3590.916	1058.6
3593.728	999.6
3596.538	1035.6
3599.346	884.6
3602.152	994.6
3604.956	896.6
3607.757	749.6
3610.556	931.6
3613.354	793.6
3616.149	764.6
3618.942	757.6
3621.732	528.6
3624.521	765.6
3627.307	691.6
3630.092	639.6
3632.874	534.6
3635.654	632.6
3638.432	716.6
3641.208	571.6
3643.982	630.6
3646.753	558.6
3649.523	571.6
3652.29	632.6
3655.055	601.6
3657.818	438.6
3660.579	421.6
3663.338	637.6
3666.095	384.6
3668.849	620.6
3671.602	404.6
3674.352	597.6
3677.101	399.6
3679.847	266.6
3682.591	480.6
3685.333	451.6
3688.073	331.6
3690.811	438.6
3693.547	275.6
3696.281	388.6
3699.013	296.6
3701.742	292.6
3704.47	449.6
3707.195	266.6
3709.919	263.6
3712.64	310.6
3715.359	212.6
3718.076	34.6
3720.792	381.6
3723.505	270.6
3726.216	272.6
3728.925	320.6
3731.632	117.6
3734.336	330.6
3737.039	268.6
3739.74	274.6
3742.439	463.6
3745.136	233.6
3747.83	207.6
3750.523	238.6
3753.213	135.6
3755.902	235.6
3758.589	394.6
3761.273	266.6
3763.956	67.6
3766.636	255.6
3769.315	42.6
3771.991	325.6
3774.665	178.6
3777.338	336.6
3780.008	285.6
3782.677	7.6
3785.343	344.6
3788.007	546.6
3790.67	128.6
3793.33	140.6
3795.989	206.6
3798.645	214.6
3801.299	349.6
3803.952	155.6
3806.602	117.6
3809.251	231.6
3811.897	206.6
3814.542	254.6
3817.184	189.6
3819.825	223.6
3822.463	-90.4
3825.1	183.6
3827.735	233.6
3830.367	160.6
3832.998	29.6
3835.627	85.6
3838.253	98.6
3840.878	-4.4
3843.501	13.6
3846.122	76.6
3848.741	43.6
3851.358	149.6
3853.973	357.6
3856.586	160.6
3859.197	135.6
3861.806	106.6
3864.414	241.6
3867.019	147.6
3869.622	132.6
3872.224	22.6
3874.823	230.6
3877.421	187.6
3880.016	273.6
3882.61	319.6
3885.202	309.6
3887.792	307.6
3890.38	79.6
3892.966	217.6
3895.55	204.6
3898.132	161.6
3900.713	94.6
3903.291	162.6
3905.868	221.6
3908.442	95.6
3911.015	84.6
3913.586	229.6
3916.155	129.6
3918.722	229.6
3921.287	144.6
3923.85	-105.4
3926.411	125.6
3928.971	84.6
3931.528	128.6
3934.084	136.6
3936.638	160.6
3939.19	94.6
3941.74	166.6
3944.288	113.6
3946.834	158.6
3949.378	67.6
3951.921	217.6
3954.462	149.6
3957	112.6
3959.537	165.6
3962.072	258.6
3964.606	304.6
3967.137	47.6
3969.667	85.6
3972.194	170.6
3974.72	200.6
3977.244	171.6
3979.766	119.6
3982.286	252.6
3984.805	114.6
3987.321	29.6
3989.836	132.6
3992.349	198.6
3994.86	164.6
3997.369	111.6
3999.877	154.6
4002.382	125.6
4004.886	129.6
4007.388	116.6
4009.888	332.6
4012.386	137.6
4014.883	152.6
4017.377	183.6
4019.87	0.6
4022.361	263.6
4024.85	242.6
4027.338	252.6
4029.823	117.6
4032.307	124.6
4034.789	224.6
4037.269	145.6
4039.747	173.6
4042.224	95.6
4044.699	162.6
4047.172	175.6
4049.643	83.6
4052.112	177.6
4054.58	192.6
4057.046	157.6
4059.51	207.6
4061.972	156.6
4064.432	269.6
4066.891	73.6
4069.348	98.6
4071.803	97.6
4074.256	121.6
4076.708	141.6
4079.158	207.6
4081.606	-13.4
4084.052	134.6
4086.497	20.6
4088.939	212.6
4091.38	256.6
4093.819	102.6
4096.257	-1356.4
4098.693	-1351.4
4101.127	-1391.4
4103.559	-1436.4
4105.989	315.6
4108.418	330.6
4110.845	532.6
4113.27	436.6
4115.694	526.6
4118.115	560.6
4120.535	68.6
4122.954	31.6
4125.37	-59.4
4127.785	129.6
4130.198	75.6
4132.609	82.6
4135.019	-1468.4
4137.427	-1437.4
4139.833	-1353.4
4142.237	-1173.4
