Data from 2018-2-8_conc=0_RamanShift_01.txt Node
Date: Wed Feb 07 09:20:40 IST 2018
User: aro
Spectrometer: QEPB0276
Trigger mode: 0
Integration Time (sec): 3.000000E1
Scans to average: 1
Electric dark correction enabled: true
Nonlinearity correction enabled: false
Boxcar width: 0
XAxis mode: Raman Shifts
Number of Pixels in Spectrum: 1044
>>>>>Begin Spectral Data<<<<<
160.701	123
166.742	264
172.777	617
178.805	1809
184.826	4508
190.841	9143
196.849	14538
202.85	18411
208.845	19895
214.833	19766
220.815	19507
226.789	19466
232.758	19541
238.719	19485
244.674	19304
250.623	19061
256.565	18789
262.5	18507
268.429	18090
274.351	17926
280.267	17866
286.176	17434
292.079	17228
297.975	17038
303.865	16937
309.748	16893
315.625	16716
321.495	16591
327.359	16591
333.217	16423
339.068	16412
344.912	16409
350.751	16488
356.583	16471
362.408	16446
368.227	16465
374.04	16470
379.847	16547
385.647	16652
391.44	16780
397.228	16810
403.009	16974
408.784	17017
414.553	17095
420.315	17305
426.071	17302
431.821	17175
437.565	17156
443.302	16972
449.033	17047
454.758	16916
460.477	16790
466.189	16783
471.896	16716
477.596	16614
483.29	16605
488.978	16677
494.66	16593
500.335	16555
506.005	16560
511.668	16377
517.325	16292
522.977	16115
528.622	16134
534.261	16055
539.894	15938
545.521	15871
551.141	15867
556.756	15648
562.365	15536
567.968	15579
573.565	15354
579.155	15213
584.74	15155
590.319	15122
595.892	15120
601.459	15170
607.02	15052
612.575	15068
618.124	15033
623.667	15115
629.204	15081
634.735	15020
640.261	15051
645.781	15072
651.294	14880
656.802	14735
662.304	14618
667.8	14511
673.29	14431
678.775	14359
684.254	14289
689.726	14303
695.193	14276
700.655	14223
706.11	14413
711.56	14384
717.004	14333
722.442	14459
727.874	14340
733.301	14308
738.722	14334
744.137	14174
749.547	14120
754.951	14073
760.349	13923
765.741	13868
771.128	13791
776.509	13779
781.885	13820
787.254	13879
792.618	13871
797.977	13926
803.33	13902
808.677	14004
814.019	13948
819.355	13872
824.686	13938
830.011	13991
835.33	13774
840.644	13674
845.952	13581
851.255	13427
856.552	13393
861.844	13319
867.13	13248
872.41	13239
877.686	13177
882.955	13289
888.219	13298
893.478	13412
898.731	13358
903.979	13245
909.221	13211
914.458	13194
919.69	13015
924.916	12851
930.136	12784
935.351	12662
940.561	12469
945.766	12321
950.965	12339
956.158	12359
961.347	12424
966.529	12437
971.707	12403
976.879	12421
982.046	12506
987.208	12423
992.364	12307
997.515	12269
1002.66	12135
1007.801	12175
1012.936	12223
1018.066	12183
1023.19	12005
1028.309	12008
1033.423	12122
1038.532	12218
1043.636	12313
1048.734	12271
1053.827	12382
1058.915	12312
1063.998	12230
1069.075	12134
1074.147	11974
1079.214	11901
1084.276	11675
1089.333	11670
1094.385	11681
1099.431	11535
1104.472	11625
1109.509	11712
1114.54	11764
1119.565	11842
1124.586	11813
1129.602	11845
1134.613	11676
1139.618	11552
1144.619	11501
1149.614	11380
1154.604	11208
1159.589	11185
1164.57	11060
1169.545	11062
1174.515	11008
1179.48	11136
1184.44	11207
1189.395	11329
1194.345	11376
1199.29	11432
1204.23	11422
1209.165	11411
1214.095	11280
1219.021	11209
1223.941	11150
1228.856	11110
1233.766	11083
1238.672	11039
1243.572	11021
1248.467	10988
1253.358	11125
1258.244	11115
1263.124	11088
1268	11020
1272.871	10989
1277.737	10912
1282.599	10630
1287.455	10530
1292.306	10450
1297.153	10361
1301.995	10206
1306.832	10242
1311.664	10194
1316.491	10373
1321.314	10310
1326.132	10291
1330.945	10317
1335.753	10203
1340.556	10093
1345.354	9936
1350.148	9797
1354.937	9638
1359.722	9584
1364.501	9359
1369.276	9394
1374.046	9353
1378.811	9398
1383.572	9376
1388.327	9482
1393.079	9541
1397.825	9588
1402.567	9597
1407.304	9586
1412.036	9537
1416.764	9547
1421.487	9628
1426.205	9344
1430.919	9238
1435.628	9060
1440.333	9101
1445.032	8997
1449.727	8982
1454.418	8986
1459.104	9023
1463.785	9020
1468.462	8903
1473.134	8960
1477.802	8834
1482.465	8826
1487.123	8668
1491.777	8655
1496.426	8533
1501.071	8485
1505.711	8476
1510.347	8479
1514.978	8587
1519.604	8640
1524.226	8684
1528.844	8918
1533.457	8846
1538.065	8903
1542.669	8858
1547.269	8924
1551.864	8919
1556.454	8949
1561.041	8880
1565.622	8890
1570.199	8622
1574.772	8595
1579.34	8433
1583.904	8489
1588.464	8482
1593.019	8503
1597.569	8631
1602.115	8665
1606.657	8679
1611.195	8693
1615.728	8706
1620.256	8760
1624.78	8709
1629.3	8635
1633.816	8588
1638.327	8574
1642.834	8538
1647.336	8573
1651.834	8393
1656.328	8474
1660.817	8375
1665.302	8444
1669.783	8445
1674.259	8328
1678.732	8207
1683.199	8037
1687.663	7868
1692.122	7633
1696.577	7481
1701.028	7556
1705.474	7390
1709.917	7366
1714.355	7321
1718.788	7211
1723.218	7078
1727.643	6839
1732.064	6951
1736.481	6734
1740.893	6774
1745.301	6608
1749.705	6587
1754.105	6278
1758.501	6265
1762.893	6027
1767.28	5935
1771.663	5768
1776.042	5674
1780.417	5678
1784.787	5532
1789.154	5593
1793.516	5433
1797.874	5638
1802.228	5686
1806.578	5853
1810.924	5782
1815.266	6589
1819.603	5851
1823.937	5774
1828.266	5781
1832.591	5689
1836.913	5720
1841.23	5634
1845.543	5557
1849.852	5484
1854.156	5490
1858.457	5406
1862.754	5377
1867.047	5298
1871.335	5252
1875.62	5207
1879.9	5215
1884.177	5225
1888.449	5196
1892.718	5230
1896.982	5200
1901.243	5328
1905.499	5188
1909.752	5276
1914	5227
1918.245	5271
1922.485	5199
1926.722	5250
1930.954	5181
1935.183	5216
1939.408	5171
1943.628	5303
1947.845	5206
1952.058	5304
1956.267	5226
1960.472	5234
1964.673	5237
1968.87	5195
1973.063	5112
1977.252	5044
1981.438	4920
1985.619	4901
1989.797	4865
1993.971	4701
1998.14	4653
2002.306	4624
2006.469	4602
2010.627	4488
2014.781	4506
2018.932	4597
2023.078	4466
2027.221	4470
2031.36	4515
2035.495	4460
2039.627	4432
2043.754	4425
2047.878	4321
2051.998	4337
2056.114	4299
2060.226	4303
2064.334	4247
2068.439	4132
2072.54	4176
2076.637	4292
2080.73	4221
2084.82	4291
2088.906	4262
2092.988	4137
2097.066	4337
2101.14	4309
2105.211	4338
2109.278	4284
2113.342	4346
2117.401	4387
2121.457	4272
2125.509	4257
2129.558	4171
2133.602	4120
2137.643	4072
2141.681	3981
2145.714	4052
2149.744	3933
2153.77	3937
2157.793	3855
2161.812	3883
2165.827	3836
2169.838	3783
2173.846	3826
2177.851	3741
2181.851	3752
2185.848	3820
2189.841	3630
2193.831	3613
2197.817	3478
2201.799	3561
2205.778	3538
2209.753	3473
2213.725	3476
2217.693	3399
2221.657	3405
2225.618	3339
2229.575	3334
2233.529	3359
2237.479	3398
2241.425	3324
2245.368	3377
2249.307	3354
2253.243	3312
2257.175	3299
2261.104	3184
2265.029	3168
2268.95	3071
2272.868	3043
2276.783	3056
2280.694	2981
2284.601	2904
2288.505	2912
2292.405	2840
2296.302	2835
2300.195	2822
2304.085	2831
2307.971	2785
2311.854	2779
2315.734	2740
2319.609	2757
2323.482	2741
2327.351	2718
2331.216	2655
2335.078	2675
2338.937	2691
2342.792	2636
2346.643	2606
2350.492	2561
2354.336	2611
2358.178	2588
2362.015	2563
2365.85	2602
2369.681	2614
2373.508	2614
2377.333	2588
2381.153	2614
2384.971	2637
2388.785	2586
2392.595	2639
2396.402	2621
2400.206	2652
2404.007	2586
2407.804	2603
2411.597	2465
2415.388	2561
2419.174	2504
2422.958	2466
2426.738	2431
2430.515	2336
2434.289	2457
2438.059	2412
2441.825	2370
2445.589	2324
2449.349	2370
2453.106	2379
2456.859	2328
2460.61	2308
2464.356	2302
2468.1	2261
2471.84	2300
2475.577	2289
2479.311	2197
2483.041	2217
2486.768	2102
2490.492	2092
2494.213	2357
2497.93	2134
2501.644	2216
2505.355	2206
2509.062	2160
2512.766	2156
2516.467	2169
2520.165	2143
2523.859	2192
2527.551	2008
2531.239	2108
2534.923	2116
2538.605	2092
2542.283	2117
2545.958	2108
2549.63	2046
2553.299	2009
2556.964	2015
2560.626	2026
2564.285	1981
2567.941	2070
2571.594	2035
2575.243	1984
2578.89	2005
2582.533	1954
2586.173	1944
2589.809	1932
2593.443	2034
2597.073	1977
2600.701	1867
2604.325	1922
2607.946	1886
2611.564	1861
2615.178	1842
2618.79	1812
2622.398	1812
2626.004	1854
2629.606	1806
2633.205	1852
2636.801	1790
2640.394	1731
2643.983	1713
2647.57	1740
2651.153	1685
2654.734	1626
2658.311	1706
2661.885	1674
2665.456	1673
2669.025	1640
2672.589	1572
2676.151	1490
2679.71	1509
2683.266	1381
2686.819	1465
2690.368	1498
2693.915	1528
2697.458	1533
2700.999	1398
2704.536	1409
2708.071	1375
2711.602	1374
2715.13	1364
2718.656	1316
2722.178	1291
2725.697	1345
2729.214	1185
2732.727	1252
2736.237	1279
2739.744	1255
2743.249	1270
2746.75	1251
2750.248	1310
2753.743	1369
2757.236	1309
2760.725	1301
2764.211	1353
2767.695	1275
2771.175	1287
2774.652	1347
2778.127	1356
2781.598	1310
2785.067	1295
2788.532	1339
2791.995	1282
2795.455	1265
2798.911	1299
2802.365	1279
2805.816	1262
2809.264	1251
2812.709	1268
2816.151	1269
2819.59	1380
2823.026	1333
2826.46	1314
2829.89	1319
2833.318	1393
2836.742	1364
2840.164	1326
2843.583	1354
2846.999	1367
2850.412	1301
2853.822	1404
2857.229	1317
2860.634	1326
2864.035	1381
2867.434	1397
2870.83	1274
2874.223	1408
2877.613	1297
2881	1501
2884.385	1484
2887.766	1517
2891.145	1572
2894.521	1506
2897.894	1549
2901.264	1439
2904.631	1500
2907.996	1454
2911.358	1492
2914.717	1469
2918.073	1490
2921.426	1448
2924.777	1562
2928.124	1539
2931.469	1522
2934.811	1646
2938.15	1588
2941.487	1582
2944.821	1556
2948.152	1620
2951.48	1416
2954.805	1546
2958.128	1554
2961.447	1625
2964.765	1552
2968.079	1677
2971.39	1633
2974.699	1601
2978.005	1636
2981.308	1630
2984.609	1781
2987.907	1704
2991.202	1730
2994.494	1751
2997.784	1687
3001.07	1775
3004.355	1809
3007.636	1818
3010.915	1883
3014.191	1895
3017.464	1906
3020.734	1918
3024.002	1980
3027.267	1996
3030.53	1994
3033.789	2018
3037.046	2079
3040.301	2114
3043.552	2130
3046.801	2206
3050.048	2164
3053.291	2165
3056.532	2297
3059.771	2338
3063.006	2318
3066.239	2419
3069.469	2482
3072.697	2545
3075.922	2623
3079.144	2691
3082.364	2779
3085.581	2848
3088.795	2905
3092.007	2937
3095.216	3083
3098.423	3193
3101.627	3256
3104.828	3359
3108.026	3378
3111.222	3432
3114.416	3434
3117.607	3592
3120.795	3597
3123.98	3673
3127.163	3777
3130.344	3879
3133.521	3866
3136.696	3986
3139.869	4035
3143.039	4136
3146.206	4211
3149.371	4296
3152.533	4344
3155.693	4428
3158.85	4470
3162.005	4564
3165.157	4595
3168.306	4596
3171.453	4582
3174.597	4652
3177.739	4657
3180.878	4570
3184.014	4603
3187.149	4627
3190.28	4605
3193.409	4521
3196.536	4595
3199.659	4537
3202.781	4569
3205.9	4646
3209.016	4601
3212.13	4613
3215.241	4557
3218.35	4580
3221.456	4653
3224.56	4694
3227.661	4641
3230.76	4661
3233.856	4630
3236.95	4605
3240.041	4669
3243.13	4594
3246.216	4560
3249.3	4394
3252.382	4472
3255.46	4485
3258.537	4400
3261.611	4393
3264.682	4294
3267.751	4294
3270.818	4272
3273.882	4194
3276.943	4120
3280.002	4110
3283.059	4025
3286.113	4103
3289.165	4130
3292.214	4096
3295.261	3903
3298.306	3949
3301.348	3923
3304.387	3811
3307.425	3803
3310.459	3741
3313.492	3607
3316.521	3622
3319.549	3567
3322.574	3486
3325.597	3450
3328.617	3427
3331.635	3325
3334.65	3428
3337.663	3356
3340.674	3297
3343.682	3259
3346.688	3247
3349.691	3229
3352.692	3253
3355.691	3141
3358.687	3199
3361.681	3215
3364.673	3149
3367.662	3166
3370.649	3164
3373.633	3133
3376.615	3094
3379.595	3144
3382.572	3059
3385.547	3005
3388.52	3020
3391.49	2857
3394.458	2922
3397.424	2828
3400.387	2878
3403.348	2611
3406.307	2619
3409.263	2676
3412.217	2616
3415.168	2573
3418.118	2587
3421.065	2552
3424.009	2453
3426.951	2493
3429.891	2226
3432.829	2411
3435.764	2422
3438.697	2363
3441.628	2280
3444.557	2300
3447.483	2294
3450.407	2161
3453.328	2133
3456.247	2086
3459.164	2034
3462.079	1931
3464.991	1927
3467.902	1857
3470.809	1814
3473.715	1736
3476.618	1730
3479.519	1670
3482.418	1668
3485.315	1598
3488.209	1524
3491.101	1499
3493.99	1480
3496.878	1157
3499.763	1296
3502.646	1318
3505.527	1284
3508.405	1223
3511.281	1101
3514.155	1167
3517.027	1170
3519.897	1204
3522.764	1031
3525.629	1053
3528.492	970
3531.352	883
3534.211	907
3537.067	894
3539.921	817
3542.773	809
3545.622	768
3548.469	770
3551.315	742
3554.157	632
3556.998	595
3559.837	512
3562.673	481
3565.507	522
3568.339	506
3571.169	461
3573.996	442
3576.822	470
3579.645	489
3582.466	387
3585.285	410
3588.101	317
3590.916	356
3593.728	311
3596.538	341
3599.346	257
3602.152	310
3604.956	307
3607.757	252
3610.556	294
3613.354	218
3616.149	220
3618.942	167
3621.732	64
3624.521	136
3627.307	129
3630.092	115
3632.874	74
3635.654	100
3638.432	120
3641.208	37
3643.982	75
3646.753	61
3649.523	38
3652.29	59
3655.055	111
3657.818	-45
3660.579	33
3663.338	33
3666.095	-107
3668.849	17
3671.602	-59
3674.352	-7
3677.101	-58
3679.847	-112
3682.591	-45
3685.333	-87
3688.073	-110
3690.811	-40
3693.547	-20
3696.281	-86
3699.013	-183
3701.742	-165
3704.47	-99
3707.195	-123
3709.919	-127
3712.64	-154
3715.359	-292
3718.076	-153
3720.792	-145
3723.505	-107
3726.216	-161
3728.925	-124
3731.632	-180
3734.336	-134
3737.039	-120
3739.74	-202
3742.439	-6
3745.136	-149
3747.83	-195
3750.523	-156
3753.213	-545
3755.902	-210
3758.589	-163
3761.273	-139
3763.956	-269
3766.636	-225
3769.315	-220
3771.991	-162
3774.665	-180
3777.338	-171
3780.008	-173
3782.677	-201
3785.343	-120
3788.007	-114
3790.67	-154
3793.33	-169
3795.989	-226
3798.645	-233
3801.299	-110
3803.952	-258
3806.602	-229
3809.251	-232
3811.897	-210
3814.542	-221
3817.184	-223
3819.825	-196
3822.463	-268
3825.1	-221
3827.735	-187
3830.367	-215
3832.998	-289
3835.627	-298
3838.253	-262
3840.878	-257
3843.501	-275
3846.122	-273
3848.741	-276
3851.358	-240
3853.973	-176
3856.586	-206
3859.197	-311
3861.806	-290
3864.414	-211
3867.019	-255
3869.622	-292
3872.224	-276
3874.823	-218
3877.421	-183
3880.016	-172
3882.61	-64
3885.202	-146
3887.792	-190
3890.38	-262
3892.966	-230
3895.55	-229
3898.132	-207
3900.713	-272
3903.291	-242
3905.868	-236
3908.442	-235
3911.015	-268
3913.586	-243
3916.155	-279
3918.722	-238
3921.287	-229
3923.85	-222
3926.411	-302
3928.971	-293
3931.528	-274
3934.084	-267
3936.638	-270
3939.19	-296
3941.74	-225
3944.288	-305
3946.834	-262
3949.378	-224
3951.921	-259
3954.462	-269
3957	-272
3959.537	-168
3962.072	-251
3964.606	-217
3967.137	-209
3969.667	-254
3972.194	-234
3974.72	-258
3977.244	-238
3979.766	-208
3982.286	-183
3984.805	-310
3987.321	-244
3989.836	-231
3992.349	-204
3994.86	-251
3997.369	-220
3999.877	-262
4002.382	-268
4004.886	-262
4007.388	-234
4009.888	-74
4012.386	-251
4014.883	-207
4017.377	-278
4019.87	-341
4022.361	-203
4024.85	-179
4027.338	-290
4029.823	-273
4032.307	-235
4034.789	-208
4037.269	-220
4039.747	-207
4042.224	-229
4044.699	-297
4047.172	-280
4049.643	-324
4052.112	-199
4054.58	-234
4057.046	-240
4059.51	-209
4061.972	-276
4064.432	-197
4066.891	-266
4069.348	-215
4071.803	-313
4074.256	-317
4076.708	-217
4079.158	-242
4081.606	-309
4084.052	-245
4086.497	-181
4088.939	-217
4091.38	-232
4093.819	-227
4096.257	-667
4098.693	-691
4101.127	-726
4103.559	-704
4105.989	17
4108.418	32
4110.845	77
4113.27	-31
4115.694	58
4118.115	21
4120.535	-268
4122.954	-262
4125.37	-313
4127.785	-245
4130.198	-311
4132.609	-265
4135.019	-725
4137.427	-728
4139.833	-717
4142.237	-643
