Data from 2018-2-8_conc=4_RamanShift_12.txt Node
Date: Wed Feb 07 10:40:10 IST 2018
User: aro
Spectrometer: QEPB0276
Trigger mode: 0
Integration Time (sec): 3.000000E1
Scans to average: 1
Electric dark correction enabled: true
Nonlinearity correction enabled: false
Boxcar width: 0
XAxis mode: Raman Shifts
Number of Pixels in Spectrum: 1044
>>>>>Begin Spectral Data<<<<<
160.701	510.6
166.742	554.6
172.777	1060.6
178.805	2622.6
184.826	5984.6
190.841	11929.6
196.849	19080.6
202.85	24375.6
208.845	26347.6
214.833	26244.6
220.815	25855.6
226.789	25673.6
232.758	25646.6
238.719	25533.6
244.674	25271.6
250.623	24928.6
256.565	24548.6
262.5	24023.6
268.429	23395.6
274.351	23148.6
280.267	22989.6
286.176	22434.6
292.079	22214.6
297.975	21856.6
303.865	21709.6
309.748	21557.6
315.625	21417.6
321.495	20960.6
327.359	21042.6
333.217	21026.6
339.068	20988.6
344.912	20991.6
350.751	20920.6
356.583	20899.6
362.408	20943.6
368.227	20869.6
374.04	21000.6
379.847	20984.6
385.647	21194.6
391.44	21367.6
397.228	21414.6
403.009	21557.6
408.784	21659.6
414.553	21783.6
420.315	21841.6
426.071	21917.6
431.821	21892.6
437.565	21812.6
443.302	21628.6
449.033	21677.6
454.758	21496.6
460.477	21376.6
466.189	21282.6
471.896	21200.6
477.596	21153.6
483.29	21196.6
488.978	21193.6
494.66	21175.6
500.335	21088.6
506.005	20971.6
511.668	20749.6
517.325	20655.6
522.977	20571.6
528.622	20399.6
534.261	20302.6
539.894	20200.6
545.521	20195.6
551.141	20053.6
556.756	19830.6
562.365	19730.6
567.968	19632.6
573.565	19446.6
579.155	19308.6
584.74	19237.6
590.319	19069.6
595.892	19199.6
601.459	19088.6
607.02	19117.6
612.575	19099.6
618.124	18949.6
623.667	19168.6
629.204	19030.6
634.735	19004.6
640.261	18968.6
645.781	19116.6
651.294	18845.6
656.802	18474.6
662.304	18517.6
667.8	18233.6
673.29	18290.6
678.775	18218.6
684.254	18244.6
689.726	18306.6
695.193	18072.6
700.655	18071.6
706.11	18198.6
711.56	18119.6
717.004	18146.6
722.442	18248.6
727.874	18144.6
733.301	18071.6
738.722	18182.6
744.137	17964.6
749.547	17938.6
754.951	17823.6
760.349	17679.6
765.741	17558.6
771.128	17536.6
776.509	17519.6
781.885	17448.6
787.254	17492.6
792.618	17613.6
797.977	17687.6
803.33	17683.6
808.677	17718.6
814.019	17694.6
819.355	17704.6
824.686	17806.6
830.011	17789.6
835.33	17468.6
840.644	17191.6
845.952	17280.6
851.255	16993.6
856.552	16971.6
861.844	16894.6
867.13	16786.6
872.41	16795.6
877.686	16692.6
882.955	16848.6
888.219	16902.6
893.478	16996.6
898.731	16834.6
903.979	16799.6
909.221	16758.6
914.458	16794.6
919.69	16441.6
924.916	16362.6
930.136	16223.6
935.351	16076.6
940.561	15796.6
945.766	15760.6
950.965	15673.6
956.158	15754.6
961.347	15792.6
966.529	15818.6
971.707	15784.6
976.879	15805.6
982.046	15772.6
987.208	15813.6
992.364	15747.6
997.515	15730.6
1002.66	15479.6
1007.801	15626.6
1012.936	15513.6
1018.066	15566.6
1023.19	15470.6
1028.309	15367.6
1033.423	15381.6
1038.532	15600.6
1043.636	15747.6
1048.734	15753.6
1053.827	15751.6
1058.915	15793.6
1063.998	15590.6
1069.075	15499.6
1074.147	15199.6
1079.214	15258.6
1084.276	14883.6
1089.333	14944.6
1094.385	14806.6
1099.431	14872.6
1104.472	14873.6
1109.509	15002.6
1114.54	15074.6
1119.565	15168.6
1124.586	15093.6
1129.602	15150.6
1134.613	15061.6
1139.618	14972.6
1144.619	14760.6
1149.614	14536.6
1154.604	14389.6
1159.589	14323.6
1164.57	14092.6
1169.545	14084.6
1174.515	14118.6
1179.48	14275.6
1184.44	14389.6
1189.395	14519.6
1194.345	14678.6
1199.29	14545.6
1204.23	14687.6
1209.165	14607.6
1214.095	14493.6
1219.021	14277.6
1223.941	14295.6
1228.856	14340.6
1233.766	14276.6
1238.672	14216.6
1243.572	14211.6
1248.467	14174.6
1253.358	14380.6
1258.244	14343.6
1263.124	14264.6
1268	14119.6
1272.871	14092.6
1277.737	14122.6
1282.599	13868.6
1287.455	13691.6
1292.306	13440.6
1297.153	13619.6
1301.995	13258.6
1306.832	13295.6
1311.664	13290.6
1316.491	13340.6
1321.314	13270.6
1326.132	13227.6
1330.945	13185.6
1335.753	13043.6
1340.556	12924.6
1345.354	12803.6
1350.148	12527.6
1354.937	12312.6
1359.722	12324.6
1364.501	12167.6
1369.276	11954.6
1374.046	12021.6
1378.811	12198.6
1383.572	12367.6
1388.327	12007.6
1393.079	12556.6
1397.825	12605.6
1402.567	12525.6
1407.304	12494.6
1412.036	12522.6
1416.764	12443.6
1421.487	12618.6
1426.205	12245.6
1430.919	11984.6
1435.628	11901.6
1440.333	11762.6
1445.032	11707.6
1449.727	11744.6
1454.418	11671.6
1459.104	11585.6
1463.785	11420.6
1468.462	11470.6
1473.134	11431.6
1477.802	11299.6
1482.465	11331.6
1487.123	11070.6
1491.777	11115.6
1496.426	10999.6
1501.071	10865.6
1505.711	10950.6
1510.347	10954.6
1514.978	11079.6
1519.604	11179.6
1524.226	11368.6
1528.844	11596.6
1533.457	11439.6
1538.065	11611.6
1542.669	11733.6
1547.269	11757.6
1551.864	11668.6
1556.454	11764.6
1561.041	11698.6
1565.622	11655.6
1570.199	11387.6
1574.772	11382.6
1579.34	11091.6
1583.904	11299.6
1588.464	11260.6
1593.019	11186.6
1597.569	11437.6
1602.115	11371.6
1606.657	11459.6
1611.195	11525.6
1615.728	11579.6
1620.256	11681.6
1624.78	11597.6
1629.3	11674.6
1633.816	11429.6
1638.327	11363.6
1642.834	11304.6
1647.336	11232.6
1651.834	11148.6
1656.328	11265.6
1660.817	11095.6
1665.302	11173.6
1669.783	11036.6
1674.259	10889.6
1678.732	10616.6
1683.199	10440.6
1687.663	10275.6
1692.122	9853.6
1696.577	9678.6
1701.028	9876.6
1705.474	9736.6
1709.917	9700.6
1714.355	9813.6
1718.788	9600.6
1723.218	9431.6
1727.643	9164.6
1732.064	8969.6
1736.481	9017.6
1740.893	8807.6
1745.301	8664.6
1749.705	8687.6
1754.105	8336.6
1758.501	8340.6
1762.893	7976.6
1767.28	7879.6
1771.663	7653.6
1776.042	7502.6
1780.417	7417.6
1784.787	7203.6
1789.154	7306.6
1793.516	7271.6
1797.874	7485.6
1802.228	7684.6
1806.578	7909.6
1810.924	7764.6
1815.266	8367.6
1819.603	7810.6
1823.937	7844.6
1828.266	7633.6
1832.591	7669.6
1836.913	7578.6
1841.23	7521.6
1845.543	7508.6
1849.852	7255.6
1854.156	7245.6
1858.457	7270.6
1862.754	6926.6
1867.047	7116.6
1871.335	6961.6
1875.62	6951.6
1879.9	6938.6
1884.177	7012.6
1888.449	6898.6
1892.718	6977.6
1896.982	6837.6
1901.243	6992.6
1905.499	6908.6
1909.752	6889.6
1914	6924.6
1918.245	6825.6
1922.485	6874.6
1926.722	6876.6
1930.954	6949.6
1935.183	6981.6
1939.408	6946.6
1943.628	7096.6
1947.845	7107.6
1952.058	7107.6
1956.267	6913.6
1960.472	6929.6
1964.673	6989.6
1968.87	7064.6
1973.063	6955.6
1977.252	6930.6
1981.438	6760.6
1985.619	6676.6
1989.797	6561.6
1993.971	6516.6
1998.14	6373.6
2002.306	6282.6
2006.469	6361.6
2010.627	6312.6
2014.781	6268.6
2018.932	6250.6
2023.078	6071.6
2027.221	6075.6
2031.36	6126.6
2035.495	6182.6
2039.627	6093.6
2043.754	5872.6
2047.878	5952.6
2051.998	5917.6
2056.114	5986.6
2060.226	5861.6
2064.334	5865.6
2068.439	5755.6
2072.54	5773.6
2076.637	5956.6
2080.73	5844.6
2084.82	5841.6
2088.906	5928.6
2092.988	5959.6
2097.066	6070.6
2101.14	5891.6
2105.211	6033.6
2109.278	5986.6
2113.342	5999.6
2117.401	6059.6
2121.457	6016.6
2125.509	5937.6
2129.558	5743.6
2133.602	5773.6
2137.643	5753.6
2141.681	5626.6
2145.714	5595.6
2149.744	5511.6
2153.77	5500.6
2157.793	5520.6
2161.812	5605.6
2165.827	5488.6
2169.838	5270.6
2173.846	5382.6
2177.851	5270.6
2181.851	5139.6
2185.848	5203.6
2189.841	5050.6
2193.831	5236.6
2197.817	4958.6
2201.799	4986.6
2205.778	5005.6
2209.753	4948.6
2213.725	4952.6
2217.693	4939.6
2221.657	4923.6
2225.618	4478.6
2229.575	4859.6
2233.529	4736.6
2237.479	4807.6
2241.425	4736.6
2245.368	4868.6
2249.307	4765.6
2253.243	4694.6
2257.175	4787.6
2261.104	4641.6
2265.029	4577.6
2268.95	4490.6
2272.868	4417.6
2276.783	4446.6
2280.694	4268.6
2284.601	4219.6
2288.505	4245.6
2292.405	4118.6
2296.302	4184.6
2300.195	4046.6
2304.085	4193.6
2307.971	4060.6
2311.854	4105.6
2315.734	4007.6
2319.609	4013.6
2323.482	4149.6
2327.351	3951.6
2331.216	3941.6
2335.078	3941.6
2338.937	3926.6
2342.792	3876.6
2346.643	3810.6
2350.492	3811.6
2354.336	3847.6
2358.178	3781.6
2362.015	3777.6
2365.85	3868.6
2369.681	3882.6
2373.508	3831.6
2377.333	3704.6
2381.153	3849.6
2384.971	3839.6
2388.785	3889.6
2392.595	3844.6
2396.402	3941.6
2400.206	3906.6
2404.007	3965.6
2407.804	3878.6
2411.597	3705.6
2415.388	3820.6
2419.174	3678.6
2422.958	3668.6
2426.738	3638.6
2430.515	3523.6
2434.289	3684.6
2438.059	3625.6
2441.825	3582.6
2445.589	3457.6
2449.349	3619.6
2453.106	3468.6
2456.859	3407.6
2460.61	3370.6
2464.356	3467.6
2468.1	3445.6
2471.84	3460.6
2475.577	3416.6
2479.311	3231.6
2483.041	3319.6
2486.768	3152.6
2490.492	2997.6
2494.213	3318.6
2497.93	3234.6
2501.644	3290.6
2505.355	3295.6
2509.062	3270.6
2512.766	3229.6
2516.467	3186.6
2520.165	3217.6
2523.859	3377.6
2527.551	3073.6
2531.239	3158.6
2534.923	3214.6
2538.605	3184.6
2542.283	3110.6
2545.958	3164.6
2549.63	3050.6
2553.299	3020.6
2556.964	3060.6
2560.626	3135.6
2564.285	3039.6
2567.941	3142.6
2571.594	3176.6
2575.243	3000.6
2578.89	3095.6
2582.533	3073.6
2586.173	3026.6
2589.809	2989.6
2593.443	3241.6
2597.073	3049.6
2600.701	2901.6
2604.325	2985.6
2607.946	2978.6
2611.564	2923.6
2615.178	2798.6
2618.79	2820.6
2622.398	2874.6
2626.004	2903.6
2629.606	2767.6
2633.205	2984.6
2636.801	2765.6
2640.394	2811.6
2643.983	2786.6
2647.57	2781.6
2651.153	2668.6
2654.734	2582.6
2658.311	2771.6
2661.885	2645.6
2665.456	2584.6
2669.025	2586.6
2672.589	2592.6
2676.151	2387.6
2679.71	2370.6
2683.266	2402.6
2686.819	2422.6
2690.368	2350.6
2693.915	2413.6
2697.458	2432.6
2700.999	2232.6
2704.536	2286.6
2708.071	2242.6
2711.602	2224.6
2715.13	2210.6
2718.656	2156.6
2722.178	2066.6
2725.697	2144.6
2729.214	1856.6
2732.727	2013.6
2736.237	1996.6
2739.744	2031.6
2743.249	2187.6
2746.75	2110.6
2750.248	2215.6
2753.743	2162.6
2757.236	2183.6
2760.725	2164.6
2764.211	2359.6
2767.695	2166.6
2771.175	2181.6
2774.652	2183.6
2778.127	2125.6
2781.598	2122.6
2785.067	2150.6
2788.532	2146.6
2791.995	2238.6
2795.455	2129.6
2798.911	2051.6
2802.365	2247.6
2805.816	2055.6
2809.264	2063.6
2812.709	2161.6
2816.151	2157.6
2819.59	2226.6
2823.026	2208.6
2826.46	2292.6
2829.89	2194.6
2833.318	2351.6
2836.742	2214.6
2840.164	2229.6
2843.583	2299.6
2846.999	2295.6
2850.412	2191.6
2853.822	2371.6
2857.229	2162.6
2860.634	2200.6
2864.035	2388.6
2867.434	2195.6
2870.83	2250.6
2874.223	2371.6
2877.613	2258.6
2881	2435.6
2884.385	2527.6
2887.766	2445.6
2891.145	2356.6
2894.521	2488.6
2897.894	2579.6
2901.264	2209.6
2904.631	2535.6
2907.996	2482.6
2911.358	2440.6
2914.717	2470.6
2918.073	2486.6
2921.426	2452.6
2924.777	2547.6
2928.124	2511.6
2931.469	2465.6
2934.811	2670.6
2938.15	2572.6
2941.487	2575.6
2944.821	2354.6
2948.152	2633.6
2951.48	2660.6
2954.805	2557.6
2958.128	2503.6
2961.447	2649.6
2964.765	2539.6
2968.079	2655.6
2971.39	2615.6
2974.699	2638.6
2978.005	2667.6
2981.308	2678.6
2984.609	2851.6
2987.907	2752.6
2991.202	2828.6
2994.494	2886.6
2997.784	2552.6
3001.07	2812.6
3004.355	2859.6
3007.636	2881.6
3010.915	3001.6
3014.191	3013.6
3017.464	3019.6
3020.734	2967.6
3024.002	3101.6
3027.267	3160.6
3030.53	3123.6
3033.789	3202.6
3037.046	3378.6
3040.301	3360.6
3043.552	3392.6
3046.801	3484.6
3050.048	3380.6
3053.291	3343.6
3056.532	3507.6
3059.771	3620.6
3063.006	3619.6
3066.239	3680.6
3069.469	3802.6
3072.697	4016.6
3075.922	4047.6
3079.144	4179.6
3082.364	4178.6
3085.581	4372.6
3088.795	4173.6
3092.007	4471.6
3095.216	4645.6
3098.423	4869.6
3101.627	4951.6
3104.828	5052.6
3108.026	5109.6
3111.222	5154.6
3114.416	5191.6
3117.607	5377.6
3120.795	5351.6
3123.98	5497.6
3127.163	5647.6
3130.344	5712.6
3133.521	5871.6
3136.696	5855.6
3139.869	6029.6
3143.039	6175.6
3146.206	6175.6
3149.371	6348.6
3152.533	6414.6
3155.693	6607.6
3158.85	6604.6
3162.005	6687.6
3165.157	6783.6
3168.306	6799.6
3171.453	6722.6
3174.597	6937.6
3177.739	6986.6
3180.878	6809.6
3184.014	6829.6
3187.149	6886.6
3190.28	6824.6
3193.409	6809.6
3196.536	6771.6
3199.659	6746.6
3202.781	6740.6
3205.9	6940.6
3209.016	6857.6
3212.13	6836.6
3215.241	6728.6
3218.35	6791.6
3221.456	6821.6
3224.56	6970.6
3227.661	6931.6
3230.76	6953.6
3233.856	6921.6
3236.95	6847.6
3240.041	6903.6
3243.13	6706.6
3246.216	6766.6
3249.3	6649.6
3252.382	6637.6
3255.46	6716.6
3258.537	5939.6
3261.611	6560.6
3264.682	6470.6
3267.751	6375.6
3270.818	6490.6
3273.882	6280.6
3276.943	6249.6
3280.002	6196.6
3283.059	6198.6
3286.113	6163.6
3289.165	6259.6
3292.214	6157.6
3295.261	5980.6
3298.306	6095.6
3301.348	5889.6
3304.387	5847.6
3307.425	5779.6
3310.459	5783.6
3313.492	5507.6
3316.521	5516.6
3319.549	5453.6
3322.574	5290.6
3325.597	5245.6
3328.617	5310.6
3331.635	5190.6
3334.65	5223.6
3337.663	5147.6
3340.674	5116.6
3343.682	5046.6
3346.688	4993.6
3349.691	4951.6
3352.692	5050.6
3355.691	4909.6
3358.687	4937.6
3361.681	4901.6
3364.673	4889.6
3367.662	4866.6
3370.649	4753.6
3373.633	4844.6
3376.615	4821.6
3379.595	4925.6
3382.572	4791.6
3385.547	4648.6
3388.52	4680.6
3391.49	4620.6
3394.458	4540.6
3397.424	4429.6
3400.387	4515.6
3403.348	4152.6
3406.307	4195.6
3409.263	4214.6
3412.217	4065.6
3415.168	4062.6
3418.118	4043.6
3421.065	3975.6
3424.009	3863.6
3426.951	3806.6
3429.891	3708.6
3432.829	3781.6
3435.764	3820.6
3438.697	3754.6
3441.628	3510.6
3444.557	3628.6
3447.483	3634.6
3450.407	3358.6
3453.328	3278.6
3456.247	3368.6
3459.164	3392.6
3462.079	3155.6
3464.991	3091.6
3467.902	3050.6
3470.809	3017.6
3473.715	2813.6
3476.618	2726.6
3479.519	2709.6
3482.418	2793.6
3485.315	2628.6
3488.209	2538.6
3491.101	2487.6
3493.99	2516.6
3496.878	2167.6
3499.763	2210.6
3502.646	2116.6
3505.527	2244.6
3508.405	2054.6
3511.281	2034.6
3514.155	2072.6
3517.027	1978.6
3519.897	2091.6
3522.764	1802.6
3525.629	1894.6
3528.492	1772.6
3531.352	1594.6
3534.211	1605.6
3537.067	1669.6
3539.921	1578.6
3542.773	1441.6
3545.622	1440.6
3548.469	1472.6
3551.315	1414.6
3554.157	1261.6
3556.998	1179.6
3559.837	1106.6
3562.673	1032.6
3565.507	1098.6
3568.339	969.6
3571.169	1055.6
3573.996	1036.6
3576.822	1004.6
3579.645	1005.6
3582.466	903.6
3585.285	838.6
3588.101	800.6
3590.916	864.6
3593.728	777.6
3596.538	794.6
3599.346	650.6
3602.152	815.6
3604.956	743.6
3607.757	580.6
3610.556	713.6
3613.354	620.6
3616.149	577.6
3618.942	556.6
3621.732	396.6
3624.521	552.6
3627.307	478.6
3630.092	488.6
3632.874	334.6
3635.654	495.6
3638.432	486.6
3641.208	427.6
3643.982	378.6
3646.753	408.6
3649.523	375.6
3652.29	392.6
3655.055	438.6
3657.818	305.6
3660.579	210.6
3663.338	466.6
3666.095	267.6
3668.849	418.6
3671.602	260.6
3674.352	352.6
3677.101	275.6
3679.847	103.6
3682.591	269.6
3685.333	262.6
3688.073	230.6
3690.811	240.6
3693.547	122.6
3696.281	222.6
3699.013	149.6
3701.742	185.6
3704.47	263.6
3707.195	172.6
3709.919	155.6
3712.64	145.6
3715.359	23.6
3718.076	-45.4
3720.792	154.6
3723.505	108.6
3726.216	102.6
3728.925	121.6
3731.632	-37.4
3734.336	217.6
3737.039	79.6
3739.74	77.6
3742.439	172.6
3745.136	93.6
3747.83	63.6
3750.523	55.6
3753.213	541.6
3755.902	67.6
3758.589	169.6
3761.273	148.6
3763.956	-33.4
3766.636	82.6
3769.315	-125.4
3771.991	197.6
3774.665	-19.4
3777.338	199.6
3780.008	83.6
3782.677	34.6
3785.343	154.6
3788.007	133.6
3790.67	42.6
3793.33	5.6
3795.989	85.6
3798.645	-43.4
3801.299	132.6
3803.952	-5.4
3806.602	-23.4
3809.251	78.6
3811.897	46.6
3814.542	61.6
3817.184	45.6
3819.825	81.6
3822.463	-61.4
3825.1	41.6
3827.735	46.6
3830.367	-0.4
3832.998	-97.4
3835.627	-55.4
3838.253	-72.4
3840.878	-172.4
3843.501	-58.4
3846.122	-81.4
3848.741	-101.4
3851.358	-0.4
3853.973	163.6
3856.586	34.6
3859.197	-18.4
3861.806	-37.4
3864.414	59.6
3867.019	-4.4
3869.622	-107.4
3872.224	-143.4
3874.823	36.6
3877.421	-0.4
3880.016	101.6
3882.61	192.6
3885.202	169.6
3887.792	108.6
3890.38	-38.4
3892.966	22.6
3895.55	-21.4
3898.132	-11.4
3900.713	-58.4
3903.291	11.6
3905.868	0.6
3908.442	-23.4
3911.015	3.6
3913.586	-16.4
3916.155	-27.4
3918.722	26.6
3921.287	-2.4
3923.85	-216.4
3926.411	-56.4
3928.971	-68.4
3931.528	10.6
3934.084	-65.4
3936.638	-16.4
3939.19	-67.4
3941.74	-38.4
3944.288	-75.4
3946.834	-7.4
3949.378	-77.4
3951.921	32.6
3954.462	47.6
3957	-35.4
3959.537	-35.4
3962.072	122.6
3964.606	80.6
3967.137	-16.4
3969.667	110.6
3972.194	29.6
3974.72	-22.4
3977.244	61.6
3979.766	-10.4
3982.286	43.6
3984.805	-84.4
3987.321	-129.4
3989.836	-67.4
3992.349	35.6
3994.86	1.6
3997.369	44.6
3999.877	-57.4
4002.382	-49.4
4004.886	-21.4
4007.388	20.6
4009.888	116.6
4012.386	-66.4
4014.883	-44.4
4017.377	10.6
4019.87	-99.4
4022.361	81.6
4024.85	78.6
4027.338	114.6
4029.823	-15.4
4032.307	-38.4
4034.789	36.6
4037.269	18.6
4039.747	68.6
4042.224	-15.4
4044.699	40.6
4047.172	-7.4
4049.643	-57.4
4052.112	64.6
4054.58	-4.4
4057.046	2.6
4059.51	49.6
4061.972	-58.4
4064.432	67.6
4066.891	-115.4
4069.348	-28.4
4071.803	-91.4
4074.256	-6.4
4076.708	62.6
4079.158	48.6
4081.606	-103.4
4084.052	-38.4
4086.497	-38.4
4088.939	54.6
4091.38	-11.4
4093.819	-80.4
4096.257	-1164.4
4098.693	-1191.4
4101.127	-1201.4
4103.559	-1245.4
4105.989	166.6
4108.418	115.6
4110.845	303.6
4113.27	213.6
4115.694	435.6
4118.115	380.6
4120.535	-63.4
4122.954	-135.4
4125.37	-149.4
4127.785	-23.4
4130.198	-80.4
4132.609	-45.4
4135.019	-1252.4
4137.427	-1239.4
4139.833	-1189.4
4142.237	-1067.4
