Data from 2018-2-8_conc=3_RamanShift_17.txt Node
Date: Wed Feb 07 10:22:10 IST 2018
User: aro
Spectrometer: QEPB0276
Trigger mode: 0
Integration Time (sec): 3.000000E1
Scans to average: 1
Electric dark correction enabled: true
Nonlinearity correction enabled: false
Boxcar width: 0
XAxis mode: Raman Shifts
Number of Pixels in Spectrum: 1044
>>>>>Begin Spectral Data<<<<<
160.701	423.2
166.742	600.2
172.777	1076.2
178.805	2581.2
184.826	5986.2
190.841	11810.2
196.849	18948.2
202.85	24241.2
208.845	26190.2
214.833	26002.2
220.815	25703.2
226.789	25450.2
232.758	25520.2
238.719	25441.2
244.674	25276.2
250.623	24864.2
256.565	24446.2
262.5	24040.2
268.429	23479.2
274.351	23287.2
280.267	23146.2
286.176	22543.2
292.079	22345.2
297.975	22062.2
303.865	21883.2
309.748	21825.2
315.625	21633.2
321.495	21168.2
327.359	21229.2
333.217	21271.2
339.068	21274.2
344.912	21222.2
350.751	21261.2
356.583	21130.2
362.408	21307.2
368.227	21165.2
374.04	21281.2
379.847	21344.2
385.647	21417.2
391.44	21583.2
397.228	21653.2
403.009	21839.2
408.784	22027.2
414.553	22102.2
420.315	22169.2
426.071	22146.2
431.821	22207.2
437.565	22145.2
443.302	21922.2
449.033	21897.2
454.758	21718.2
460.477	21721.2
466.189	21627.2
471.896	21555.2
477.596	21404.2
483.29	21359.2
488.978	21424.2
494.66	21458.2
500.335	21425.2
506.005	21304.2
511.668	20980.2
517.325	21055.2
522.977	20740.2
528.622	20714.2
534.261	20644.2
539.894	20460.2
545.521	20391.2
551.141	20355.2
556.756	20119.2
562.365	20027.2
567.968	19902.2
573.565	19746.2
579.155	19617.2
584.74	19498.2
590.319	19428.2
595.892	19406.2
601.459	19290.2
607.02	19316.2
612.575	19341.2
618.124	19189.2
623.667	19363.2
629.204	19236.2
634.735	19282.2
640.261	19209.2
645.781	19273.2
651.294	19088.2
656.802	18857.2
662.304	18721.2
667.8	18516.2
673.29	18547.2
678.775	18381.2
684.254	18420.2
689.726	18497.2
695.193	18236.2
700.655	18299.2
706.11	18467.2
711.56	18317.2
717.004	18386.2
722.442	18600.2
727.874	18308.2
733.301	18334.2
738.722	18395.2
744.137	18222.2
749.547	18098.2
754.951	17984.2
760.349	17850.2
765.741	17758.2
771.128	17692.2
776.509	17667.2
781.885	17656.2
787.254	17655.2
792.618	17775.2
797.977	17817.2
803.33	17926.2
808.677	17967.2
814.019	17884.2
819.355	17941.2
824.686	17869.2
830.011	17923.2
835.33	17617.2
840.644	17377.2
845.952	17483.2
851.255	17182.2
856.552	17044.2
861.844	16994.2
867.13	16979.2
872.41	17008.2
877.686	16864.2
882.955	16874.2
888.219	17012.2
893.478	17111.2
898.731	16895.2
903.979	16965.2
909.221	16926.2
914.458	16844.2
919.69	16712.2
924.916	16528.2
930.136	16422.2
935.351	16314.2
940.561	15956.2
945.766	15905.2
950.965	15747.2
956.158	15921.2
961.347	15939.2
966.529	15903.2
971.707	15926.2
976.879	15866.2
982.046	15960.2
987.208	15985.2
992.364	15776.2
997.515	15790.2
1002.66	15595.2
1007.801	15750.2
1012.936	15596.2
1018.066	15717.2
1023.19	15459.2
1028.309	15325.2
1033.423	15507.2
1038.532	15650.2
1043.636	15880.2
1048.734	15751.2
1053.827	15854.2
1058.915	15827.2
1063.998	15721.2
1069.075	15613.2
1074.147	15347.2
1079.214	15329.2
1084.276	14912.2
1089.333	15040.2
1094.385	14882.2
1099.431	14994.2
1104.472	14921.2
1109.509	14965.2
1114.54	15115.2
1119.565	15218.2
1124.586	15212.2
1129.602	15196.2
1134.613	15167.2
1139.618	14966.2
1144.619	14751.2
1149.614	14601.2
1154.604	14463.2
1159.589	14354.2
1164.57	14179.2
1169.545	14139.2
1174.515	14220.2
1179.48	14341.2
1184.44	14358.2
1189.395	14535.2
1194.345	14690.2
1199.29	14606.2
1204.23	14702.2
1209.165	14622.2
1214.095	14446.2
1219.021	14297.2
1223.941	14321.2
1228.856	14276.2
1233.766	14329.2
1238.672	14251.2
1243.572	14109.2
1248.467	14196.2
1253.358	14317.2
1258.244	14362.2
1263.124	14237.2
1268	14114.2
1272.871	14040.2
1277.737	14118.2
1282.599	13855.2
1287.455	13623.2
1292.306	13454.2
1297.153	13481.2
1301.995	13267.2
1306.832	13274.2
1311.664	13246.2
1316.491	13270.2
1321.314	13317.2
1326.132	13293.2
1330.945	13152.2
1335.753	13030.2
1340.556	12918.2
1345.354	12726.2
1350.148	12452.2
1354.937	12281.2
1359.722	12220.2
1364.501	11947.2
1369.276	11790.2
1374.046	11930.2
1378.811	12058.2
1383.572	12162.2
1388.327	11904.2
1393.079	12351.2
1397.825	12434.2
1402.567	12360.2
1407.304	12319.2
1412.036	12348.2
1416.764	12356.2
1421.487	12471.2
1426.205	12069.2
1430.919	11947.2
1435.628	11808.2
1440.333	11669.2
1445.032	11550.2
1449.727	11629.2
1454.418	11640.2
1459.104	11522.2
1463.785	11315.2
1468.462	11392.2
1473.134	11300.2
1477.802	11175.2
1482.465	11225.2
1487.123	10962.2
1491.777	11018.2
1496.426	10847.2
1501.071	10693.2
1505.711	10670.2
1510.347	10719.2
1514.978	10903.2
1519.604	10953.2
1524.226	11031.2
1528.844	11322.2
1533.457	11255.2
1538.065	11393.2
1542.669	11495.2
1547.269	11538.2
1551.864	11530.2
1556.454	11686.2
1561.041	11473.2
1565.622	11404.2
1570.199	11223.2
1574.772	11183.2
1579.34	10950.2
1583.904	11032.2
1588.464	11072.2
1593.019	11020.2
1597.569	11207.2
1602.115	11180.2
1606.657	11259.2
1611.195	11306.2
1615.728	11282.2
1620.256	11410.2
1624.78	11452.2
1629.3	11365.2
1633.816	11182.2
1638.327	11146.2
1642.834	11062.2
1647.336	11044.2
1651.834	10887.2
1656.328	11013.2
1660.817	10855.2
1665.302	10926.2
1669.783	10865.2
1674.259	10713.2
1678.732	10479.2
1683.199	10245.2
1687.663	10121.2
1692.122	9729.2
1696.577	9451.2
1701.028	9465.2
1705.474	9288.2
1709.917	9340.2
1714.355	9360.2
1718.788	9209.2
1723.218	9164.2
1727.643	8903.2
1732.064	8716.2
1736.481	8804.2
1740.893	8538.2
1745.301	8464.2
1749.705	8495.2
1754.105	8087.2
1758.501	8080.2
1762.893	7768.2
1767.28	7685.2
1771.663	7439.2
1776.042	7288.2
1780.417	7148.2
1784.787	6986.2
1789.154	7044.2
1793.516	7009.2
1797.874	7132.2
1802.228	7324.2
1806.578	7527.2
1810.924	7420.2
1815.266	8086.2
1819.603	7514.2
1823.937	7507.2
1828.266	7438.2
1832.591	7356.2
1836.913	7296.2
1841.23	7312.2
1845.543	7239.2
1849.852	6987.2
1854.156	7061.2
1858.457	6967.2
1862.754	6691.2
1867.047	6849.2
1871.335	6746.2
1875.62	6675.2
1879.9	6631.2
1884.177	6764.2
1888.449	6665.2
1892.718	6663.2
1896.982	6596.2
1901.243	6733.2
1905.499	6688.2
1909.752	6574.2
1914	6655.2
1918.245	6553.2
1922.485	6632.2
1926.722	6640.2
1930.954	6672.2
1935.183	6596.2
1939.408	6651.2
1943.628	6638.2
1947.845	6669.2
1952.058	6751.2
1956.267	6597.2
1960.472	6597.2
1964.673	6643.2
1968.87	6676.2
1973.063	6652.2
1977.252	6624.2
1981.438	6480.2
1985.619	6367.2
1989.797	6265.2
1993.971	6221.2
1998.14	6063.2
2002.306	6032.2
2006.469	6012.2
2010.627	6000.2
2014.781	6015.2
2018.932	5997.2
2023.078	5800.2
2027.221	5797.2
2031.36	5825.2
2035.495	5844.2
2039.627	5792.2
2043.754	5693.2
2047.878	5719.2
2051.998	5667.2
2056.114	5656.2
2060.226	5642.2
2064.334	5551.2
2068.439	5452.2
2072.54	5450.2
2076.637	5646.2
2080.73	5500.2
2084.82	5495.2
2088.906	5539.2
2092.988	5512.2
2097.066	5657.2
2101.14	5480.2
2105.211	5576.2
2109.278	5556.2
2113.342	5695.2
2117.401	5738.2
2121.457	5690.2
2125.509	5636.2
2129.558	5419.2
2133.602	5517.2
2137.643	5390.2
2141.681	5334.2
2145.714	5297.2
2149.744	5220.2
2153.77	5266.2
2157.793	5173.2
2161.812	5252.2
2165.827	5152.2
2169.838	5004.2
2173.846	5101.2
2177.851	5016.2
2181.851	4921.2
2185.848	4919.2
2189.841	4827.2
2193.831	4913.2
2197.817	4669.2
2201.799	4733.2
2205.778	4723.2
2209.753	4676.2
2213.725	4713.2
2217.693	4575.2
2221.657	4587.2
2225.618	4515.2
2229.575	4607.2
2233.529	4430.2
2237.479	4532.2
2241.425	4461.2
2245.368	4594.2
2249.307	4458.2
2253.243	4408.2
2257.175	4450.2
2261.104	4351.2
2265.029	4284.2
2268.95	4298.2
2272.868	4174.2
2276.783	4165.2
2280.694	3955.2
2284.601	3999.2
2288.505	3983.2
2292.405	3885.2
2296.302	3957.2
2300.195	3786.2
2304.085	3866.2
2307.971	3822.2
2311.854	3860.2
2315.734	3729.2
2319.609	3773.2
2323.482	3843.2
2327.351	3727.2
2331.216	3703.2
2335.078	3643.2
2338.937	3690.2
2342.792	3758.2
2346.643	3631.2
2350.492	3622.2
2354.336	3650.2
2358.178	3563.2
2362.015	3540.2
2365.85	3747.2
2369.681	3653.2
2373.508	3593.2
2377.333	3527.2
2381.153	3652.2
2384.971	3722.2
2388.785	3618.2
2392.595	3660.2
2396.402	3674.2
2400.206	3718.2
2404.007	3734.2
2407.804	3572.2
2411.597	3451.2
2415.388	3577.2
2419.174	3538.2
2422.958	3474.2
2426.738	3451.2
2430.515	3350.2
2434.289	3436.2
2438.059	3439.2
2441.825	3436.2
2445.589	3228.2
2449.349	3362.2
2453.106	3268.2
2456.859	3266.2
2460.61	3170.2
2464.356	3228.2
2468.1	3205.2
2471.84	3246.2
2475.577	3213.2
2479.311	3080.2
2483.041	3090.2
2486.768	2916.2
2490.492	2801.2
2494.213	3073.2
2497.93	3037.2
2501.644	3122.2
2505.355	3074.2
2509.062	3084.2
2512.766	3034.2
2516.467	2998.2
2520.165	2984.2
2523.859	3077.2
2527.551	2845.2
2531.239	2955.2
2534.923	2984.2
2538.605	2960.2
2542.283	2898.2
2545.958	2916.2
2549.63	2863.2
2553.299	2828.2
2556.964	2881.2
2560.626	2878.2
2564.285	2785.2
2567.941	2899.2
2571.594	2892.2
2575.243	2692.2
2578.89	2872.2
2582.533	2874.2
2586.173	2829.2
2589.809	2753.2
2593.443	2976.2
2597.073	2855.2
2600.701	2636.2
2604.325	2681.2
2607.946	2747.2
2611.564	2702.2
2615.178	2594.2
2618.79	2643.2
2622.398	2746.2
2626.004	2655.2
2629.606	2567.2
2633.205	2768.2
2636.801	2597.2
2640.394	2555.2
2643.983	2560.2
2647.57	2560.2
2651.153	2476.2
2654.734	2352.2
2658.311	2639.2
2661.885	2452.2
2665.456	2374.2
2669.025	2389.2
2672.589	2319.2
2676.151	2236.2
2679.71	2279.2
2683.266	2212.2
2686.819	2229.2
2690.368	2190.2
2693.915	2196.2
2697.458	2233.2
2700.999	2072.2
2704.536	2089.2
2708.071	2113.2
2711.602	2032.2
2715.13	2038.2
2718.656	2032.2
2722.178	1944.2
2725.697	2038.2
2729.214	1730.2
2732.727	1900.2
2736.237	1850.2
2739.744	1871.2
2743.249	1958.2
2746.75	1964.2
2750.248	1984.2
2753.743	2000.2
2757.236	1982.2
2760.725	1918.2
2764.211	2108.2
2767.695	1949.2
2771.175	1993.2
2774.652	1984.2
2778.127	1977.2
2781.598	1923.2
2785.067	1989.2
2788.532	1961.2
2791.995	1912.2
2795.455	1940.2
2798.911	1917.2
2802.365	1979.2
2805.816	1942.2
2809.264	1889.2
2812.709	1967.2
2816.151	1901.2
2819.59	2010.2
2823.026	2065.2
2826.46	2081.2
2829.89	2051.2
2833.318	2204.2
2836.742	2045.2
2840.164	2012.2
2843.583	2100.2
2846.999	2053.2
2850.412	2021.2
2853.822	2172.2
2857.229	1984.2
2860.634	2030.2
2864.035	2109.2
2867.434	2073.2
2870.83	2009.2
2874.223	2215.2
2877.613	2077.2
2881	2303.2
2884.385	2337.2
2887.766	2271.2
2891.145	2229.2
2894.521	2332.2
2897.894	2374.2
2901.264	2032.2
2904.631	2296.2
2907.996	2274.2
2911.358	2241.2
2914.717	2292.2
2918.073	2310.2
2921.426	2262.2
2924.777	2456.2
2928.124	2354.2
2931.469	2265.2
2934.811	2509.2
2938.15	2389.2
2941.487	2430.2
2944.821	2205.2
2948.152	2455.2
2951.48	2498.2
2954.805	2406.2
2958.128	2343.2
2961.447	2459.2
2964.765	2371.2
2968.079	2525.2
2971.39	2520.2
2974.699	2438.2
2978.005	2447.2
2981.308	2497.2
2984.609	2620.2
2987.907	2515.2
2991.202	2640.2
2994.494	2681.2
2997.784	2323.2
3001.07	2622.2
3004.355	2667.2
3007.636	2715.2
3010.915	2767.2
3014.191	2815.2
3017.464	2781.2
3020.734	2848.2
3024.002	2918.2
3027.267	2962.2
3030.53	2967.2
3033.789	3025.2
3037.046	3104.2
3040.301	3101.2
3043.552	3165.2
3046.801	3235.2
3050.048	3146.2
3053.291	3148.2
3056.532	3349.2
3059.771	3461.2
3063.006	3424.2
3066.239	3516.2
3069.469	3597.2
3072.697	3788.2
3075.922	3857.2
3079.144	3869.2
3082.364	3932.2
3085.581	4182.2
3088.795	3978.2
3092.007	4205.2
3095.216	4413.2
3098.423	4645.2
3101.627	4745.2
3104.828	4711.2
3108.026	4902.2
3111.222	4831.2
3114.416	4952.2
3117.607	5135.2
3120.795	5174.2
3123.98	5215.2
3127.163	5423.2
3130.344	5491.2
3133.521	5558.2
3136.696	5623.2
3139.869	5736.2
3143.039	5866.2
3146.206	5850.2
3149.371	5984.2
3152.533	6189.2
3155.693	6253.2
3158.85	6298.2
3162.005	6340.2
3165.157	6471.2
3168.306	6533.2
3171.453	6400.2
3174.597	6667.2
3177.739	6609.2
3180.878	6523.2
3184.014	6535.2
3187.149	6586.2
3190.28	6551.2
3193.409	6499.2
3196.536	6450.2
3199.659	6485.2
3202.781	6423.2
3205.9	6642.2
3209.016	6512.2
3212.13	6556.2
3215.241	6405.2
3218.35	6557.2
3221.456	6690.2
3224.56	6702.2
3227.661	6662.2
3230.76	6728.2
3233.856	6605.2
3236.95	6557.2
3240.041	6643.2
3243.13	6449.2
3246.216	6562.2
3249.3	6324.2
3252.382	6402.2
3255.46	6446.2
3258.537	6025.2
3261.611	6375.2
3264.682	6249.2
3267.751	6112.2
3270.818	6235.2
3273.882	6092.2
3276.943	6012.2
3280.002	5918.2
3283.059	5953.2
3286.113	5952.2
3289.165	5980.2
3292.214	5857.2
3295.261	5711.2
3298.306	5813.2
3301.348	5664.2
3304.387	5559.2
3307.425	5522.2
3310.459	5519.2
3313.492	5304.2
3316.521	5249.2
3319.549	5150.2
3322.574	5134.2
3325.597	5011.2
3328.617	5068.2
3331.635	4969.2
3334.65	4994.2
3337.663	4906.2
3340.674	4947.2
3343.682	4822.2
3346.688	4823.2
3349.691	4759.2
3352.692	4880.2
3355.691	4702.2
3358.687	4764.2
3361.681	4740.2
3364.673	4669.2
3367.662	4604.2
3370.649	4565.2
3373.633	4712.2
3376.615	4591.2
3379.595	4758.2
3382.572	4657.2
3385.547	4465.2
3388.52	4513.2
3391.49	4454.2
3394.458	4410.2
3397.424	4247.2
3400.387	4314.2
3403.348	4021.2
3406.307	4070.2
3409.263	4081.2
3412.217	3893.2
3415.168	3979.2
3418.118	3908.2
3421.065	3811.2
3424.009	3731.2
3426.951	3745.2
3429.891	3507.2
3432.829	3669.2
3435.764	3632.2
3438.697	3611.2
3441.628	3414.2
3444.557	3477.2
3447.483	3513.2
3450.407	3247.2
3453.328	3155.2
3456.247	3257.2
3459.164	3216.2
3462.079	3032.2
3464.991	2979.2
3467.902	2911.2
3470.809	2842.2
3473.715	2722.2
3476.618	2626.2
3479.519	2600.2
3482.418	2677.2
3485.315	2517.2
3488.209	2392.2
3491.101	2411.2
3493.99	2395.2
3496.878	2034.2
3499.763	2124.2
3502.646	2078.2
3505.527	2141.2
3508.405	1975.2
3511.281	1933.2
3514.155	1938.2
3517.027	1928.2
3519.897	2011.2
3522.764	1722.2
3525.629	1767.2
3528.492	1712.2
3531.352	1573.2
3534.211	1526.2
3537.067	1627.2
3539.921	1485.2
3542.773	1416.2
3545.622	1309.2
3548.469	1430.2
3551.315	1339.2
3554.157	1215.2
3556.998	1153.2
3559.837	1065.2
3562.673	987.2
3565.507	1092.2
3568.339	934.2
3571.169	1004.2
3573.996	933.2
3576.822	948.2
3579.645	978.2
3582.466	903.2
3585.285	793.2
3588.101	760.2
3590.916	828.2
3593.728	726.2
3596.538	811.2
3599.346	641.2
3602.152	752.2
3604.956	663.2
3607.757	574.2
3610.556	727.2
3613.354	575.2
3616.149	568.2
3618.942	561.2
3621.732	325.2
3624.521	561.2
3627.307	445.2
3630.092	439.2
3632.874	354.2
3635.654	448.2
3638.432	492.2
3641.208	360.2
3643.982	408.2
3646.753	313.2
3649.523	398.2
3652.29	395.2
3655.055	344.2
3657.818	270.2
3660.579	323.2
3663.338	391.2
3666.095	217.2
3668.849	374.2
3671.602	254.2
3674.352	375.2
3677.101	204.2
3679.847	83.2
3682.591	246.2
3685.333	251.2
3688.073	184.2
3690.811	263.2
3693.547	196.2
3696.281	178.2
3699.013	149.2
3701.742	136.2
3704.47	288.2
3707.195	110.2
3709.919	148.2
3712.64	96.2
3715.359	-9.8
3718.076	-59.8
3720.792	136.2
3723.505	82.2
3726.216	40.2
3728.925	117.2
3731.632	-18.8
3734.336	205.2
3737.039	59.2
3739.74	96.2
3742.439	364.2
3745.136	33.2
3747.83	20.2
3750.523	94.2
3753.213	-67.8
3755.902	62.2
3758.589	189.2
3761.273	90.2
3763.956	-75.8
3766.636	145.2
3769.315	-134.8
3771.991	147.2
3774.665	31.2
3777.338	151.2
3780.008	75.2
3782.677	-0.8
3785.343	126.2
3788.007	-74.8
3790.67	21.2
3793.33	-47.8
3795.989	70.2
3798.645	-8.8
3801.299	146.2
3803.952	-4.8
3806.602	17.2
3809.251	28.2
3811.897	30.2
3814.542	53.2
3817.184	56.2
3819.825	33.2
3822.463	-59.8
3825.1	51.2
3827.735	78.2
3830.367	28.2
3832.998	-120.8
3835.627	-47.8
3838.253	-40.8
3840.878	-15.8
3843.501	-102.8
3846.122	-57.8
3848.741	-95.8
3851.358	-1.8
3853.973	170.2
3856.586	30.2
3859.197	-96.8
3861.806	-44.8
3864.414	92.2
3867.019	23.2
3869.622	-94.8
3872.224	-92.8
3874.823	35.2
3877.421	40.2
3880.016	96.2
3882.61	187.2
3885.202	147.2
3887.792	124.2
3890.38	-13.8
3892.966	18.2
3895.55	-42.8
3898.132	41.2
3900.713	-59.8
3903.291	-40.8
3905.868	-68.8
3908.442	-25.8
3911.015	-17.8
3913.586	-7.8
3916.155	32.2
3918.722	26.2
3921.287	-34.8
3923.85	-129.8
3926.411	-104.8
3928.971	-62.8
3931.528	-68.8
3934.084	-67.8
3936.638	-11.8
3939.19	-167.8
3941.74	70.2
3944.288	-86.8
3946.834	-59.8
3949.378	-45.8
3951.921	70.2
3954.462	13.2
3957	-87.8
3959.537	37.2
3962.072	55.2
3964.606	108.2
3967.137	-49.8
3969.667	-36.8
3972.194	-7.8
3974.72	6.2
3977.244	57.2
3979.766	28.2
3982.286	53.2
3984.805	-47.8
3987.321	-87.8
3989.836	-0.8
3992.349	62.2
3994.86	-37.8
3997.369	-14.8
3999.877	-15.8
4002.382	-29.8
4004.886	2.2
4007.388	-42.8
4009.888	101.2
4012.386	-88.8
4014.883	-24.8
4017.377	-19.8
4019.87	-143.8
4022.361	-25.8
4024.85	45.2
4027.338	83.2
4029.823	-84.8
4032.307	-19.8
4034.789	65.2
4037.269	17.2
4039.747	61.2
4042.224	-80.8
4044.699	5.2
4047.172	40.2
4049.643	-74.8
4052.112	99.2
4054.58	-10.8
4057.046	-4.8
4059.51	7.2
4061.972	-44.8
4064.432	81.2
4066.891	-88.8
4069.348	39.2
4071.803	-55.8
4074.256	-45.8
4076.708	45.2
4079.158	-28.8
4081.606	-137.8
4084.052	61.2
4086.497	-129.8
4088.939	28.2
4091.38	-10.8
4093.819	-9.8
4096.257	-1141.8
4098.693	-1152.8
4101.127	-1196.8
4103.559	-1230.8
4105.989	166.2
4108.418	151.2
4110.845	403.2
4113.27	262.2
4115.694	342.2
4118.115	389.2
4120.535	-78.8
4122.954	-141.8
4125.37	-153.8
4127.785	-44.8
4130.198	-49.8
4132.609	-73.8
4135.019	-1235.8
4137.427	-1232.8
4139.833	-1179.8
4142.237	-1032.8
