Data from 2018-2-8_conc=6_RamanShift_01.txt Node
Date: Wed Feb 07 11:21:40 IST 2018
User: aro
Spectrometer: QEPB0276
Trigger mode: 0
Integration Time (sec): 3.000000E1
Scans to average: 1
Electric dark correction enabled: true
Nonlinearity correction enabled: false
Boxcar width: 0
XAxis mode: Raman Shifts
Number of Pixels in Spectrum: 1044
>>>>>Begin Spectral Data<<<<<
160.701	758.4
166.742	873.4
172.777	1361.4
178.805	2978.4
184.826	6460.4
190.841	12378.4
196.849	19708.4
202.85	25065.4
208.845	27035.4
214.833	26806.4
220.815	26483.4
226.789	25969.4
232.758	26278.4
238.719	26163.4
244.674	26013.4
250.623	25424.4
256.565	25073.4
262.5	24736.4
268.429	24071.4
274.351	23814.4
280.267	23729.4
286.176	23123.4
292.079	22871.4
297.975	22713.4
303.865	22365.4
309.748	22266.4
315.625	22249.4
321.495	21695.4
327.359	21770.4
333.217	21816.4
339.068	21673.4
344.912	21670.4
350.751	21705.4
356.583	21469.4
362.408	21587.4
368.227	21626.4
374.04	21749.4
379.847	21779.4
385.647	21862.4
391.44	22153.4
397.228	22187.4
403.009	22457.4
408.784	22352.4
414.553	22494.4
420.315	22589.4
426.071	22652.4
431.821	22646.4
437.565	22663.4
443.302	22469.4
449.033	22466.4
454.758	22337.4
460.477	22105.4
466.189	22041.4
471.896	21922.4
477.596	21874.4
483.29	21945.4
488.978	21964.4
494.66	21947.4
500.335	21789.4
506.005	21784.4
511.668	21525.4
517.325	21429.4
522.977	21213.4
528.622	21204.4
534.261	21031.4
539.894	21020.4
545.521	20926.4
551.141	20843.4
556.756	20602.4
562.365	20369.4
567.968	20321.4
573.565	20147.4
579.155	19995.4
584.74	19968.4
590.319	19828.4
595.892	19842.4
601.459	19675.4
607.02	19745.4
612.575	19755.4
618.124	19661.4
623.667	19783.4
629.204	19628.4
634.735	19679.4
640.261	19605.4
645.781	19857.4
651.294	19496.4
656.802	19206.4
662.304	19192.4
667.8	18927.4
673.29	18966.4
678.775	18749.4
684.254	18791.4
689.726	18940.4
695.193	18660.4
700.655	18787.4
706.11	18883.4
711.56	18741.4
717.004	18775.4
722.442	18949.4
727.874	18754.4
733.301	18746.4
738.722	18907.4
744.137	18506.4
749.547	18521.4
754.951	18424.4
760.349	18295.4
765.741	18176.4
771.128	18140.4
776.509	18155.4
781.885	18054.4
787.254	18090.4
792.618	18117.4
797.977	18310.4
803.33	18304.4
808.677	18376.4
814.019	18264.4
819.355	18327.4
824.686	18379.4
830.011	18358.4
835.33	18129.4
840.644	17789.4
845.952	17909.4
851.255	17632.4
856.552	17549.4
861.844	17371.4
867.13	17373.4
872.41	17282.4
877.686	17249.4
882.955	17339.4
888.219	17424.4
893.478	17442.4
898.731	17276.4
903.979	17203.4
909.221	17348.4
914.458	17272.4
919.69	17046.4
924.916	16939.4
930.136	16773.4
935.351	16587.4
940.561	16369.4
945.766	16298.4
950.965	16116.4
956.158	16307.4
961.347	16358.4
966.529	16313.4
971.707	16307.4
976.879	16207.4
982.046	16356.4
987.208	16409.4
992.364	16158.4
997.515	16174.4
1002.66	16014.4
1007.801	16205.4
1012.936	16113.4
1018.066	16155.4
1023.19	15931.4
1028.309	15780.4
1033.423	15963.4
1038.532	15939.4
1043.636	16240.4
1048.734	16116.4
1053.827	16305.4
1058.915	16211.4
1063.998	16018.4
1069.075	15935.4
1074.147	15695.4
1079.214	15765.4
1084.276	15351.4
1089.333	15372.4
1094.385	15355.4
1099.431	15382.4
1104.472	15177.4
1109.509	15398.4
1114.54	15547.4
1119.565	15621.4
1124.586	15548.4
1129.602	15504.4
1134.613	15515.4
1139.618	15415.4
1144.619	15167.4
1149.614	14899.4
1154.604	14765.4
1159.589	14786.4
1164.57	14518.4
1169.545	14491.4
1174.515	14515.4
1179.48	14661.4
1184.44	14663.4
1189.395	14912.4
1194.345	15092.4
1199.29	14999.4
1204.23	15052.4
1209.165	15029.4
1214.095	14822.4
1219.021	14684.4
1223.941	14702.4
1228.856	14803.4
1233.766	14663.4
1238.672	14582.4
1243.572	14449.4
1248.467	14497.4
1253.358	14735.4
1258.244	14773.4
1263.124	14638.4
1268	14463.4
1272.871	14467.4
1277.737	14405.4
1282.599	14244.4
1287.455	14060.4
1292.306	13815.4
1297.153	13958.4
1301.995	13603.4
1306.832	13559.4
1311.664	13620.4
1316.491	13615.4
1321.314	13645.4
1326.132	13535.4
1330.945	13496.4
1335.753	13293.4
1340.556	13189.4
1345.354	13051.4
1350.148	12815.4
1354.937	12605.4
1359.722	12563.4
1364.501	12374.4
1369.276	12150.4
1374.046	12256.4
1378.811	12546.4
1383.572	12495.4
1388.327	12277.4
1393.079	12792.4
1397.825	12859.4
1402.567	12777.4
1407.304	12717.4
1412.036	12787.4
1416.764	12545.4
1421.487	12894.4
1426.205	12580.4
1430.919	12343.4
1435.628	12201.4
1440.333	12081.4
1445.032	11978.4
1449.727	11819.4
1454.418	11918.4
1459.104	11833.4
1463.785	11749.4
1468.462	11679.4
1473.134	11774.4
1477.802	11520.4
1482.465	11662.4
1487.123	11172.4
1491.777	11339.4
1496.426	11232.4
1501.071	11037.4
1505.711	11065.4
1510.347	11110.4
1514.978	11233.4
1519.604	11424.4
1524.226	11384.4
1528.844	11833.4
1533.457	11534.4
1538.065	11826.4
1542.669	11817.4
1547.269	11871.4
1551.864	11820.4
1556.454	12022.4
1561.041	11909.4
1565.622	11903.4
1570.199	11651.4
1574.772	11554.4
1579.34	11364.4
1583.904	11451.4
1588.464	11505.4
1593.019	11382.4
1597.569	11655.4
1602.115	11418.4
1606.657	11673.4
1611.195	11659.4
1615.728	11735.4
1620.256	11823.4
1624.78	11874.4
1629.3	11826.4
1633.816	11669.4
1638.327	11663.4
1642.834	11479.4
1647.336	11435.4
1651.834	11308.4
1656.328	11415.4
1660.817	11323.4
1665.302	11461.4
1669.783	11338.4
1674.259	11205.4
1678.732	10896.4
1683.199	10646.4
1687.663	10563.4
1692.122	10157.4
1696.577	9822.4
1701.028	9826.4
1705.474	9760.4
1709.917	9718.4
1714.355	9788.4
1718.788	9628.4
1723.218	9578.4
1727.643	9282.4
1732.064	9178.4
1736.481	9303.4
1740.893	8988.4
1745.301	8832.4
1749.705	8994.4
1754.105	8457.4
1758.501	8431.4
1762.893	8152.4
1767.28	8135.4
1771.663	7853.4
1776.042	7666.4
1780.417	7596.4
1784.787	7355.4
1789.154	7351.4
1793.516	7481.4
1797.874	7542.4
1802.228	7708.4
1806.578	7973.4
1810.924	7767.4
1815.266	9166.4
1819.603	7852.4
1823.937	7892.4
1828.266	7754.4
1832.591	7699.4
1836.913	7590.4
1841.23	7685.4
1845.543	7591.4
1849.852	7412.4
1854.156	7427.4
1858.457	7378.4
1862.754	7113.4
1867.047	7288.4
1871.335	7085.4
1875.62	7006.4
1879.9	7000.4
1884.177	7230.4
1888.449	7041.4
1892.718	7111.4
1896.982	6923.4
1901.243	7208.4
1905.499	7059.4
1909.752	6927.4
1914	7139.4
1918.245	6934.4
1922.485	6999.4
1926.722	6950.4
1930.954	6956.4
1935.183	7048.4
1939.408	6972.4
1943.628	7066.4
1947.845	7106.4
1952.058	7147.4
1956.267	7042.4
1960.472	7032.4
1964.673	7052.4
1968.87	7104.4
1973.063	7065.4
1977.252	6911.4
1981.438	6857.4
1985.619	6690.4
1989.797	6628.4
1993.971	6584.4
1998.14	6405.4
2002.306	6403.4
2006.469	6366.4
2010.627	6451.4
2014.781	6411.4
2018.932	6390.4
2023.078	6144.4
2027.221	6152.4
2031.36	6281.4
2035.495	6291.4
2039.627	6193.4
2043.754	6066.4
2047.878	6100.4
2051.998	6069.4
2056.114	6043.4
2060.226	6040.4
2064.334	5947.4
2068.439	5835.4
2072.54	5849.4
2076.637	5998.4
2080.73	5927.4
2084.82	5822.4
2088.906	5951.4
2092.988	5899.4
2097.066	6139.4
2101.14	5862.4
2105.211	6005.4
2109.278	6038.4
2113.342	5982.4
2117.401	6154.4
2121.457	6046.4
2125.509	6039.4
2129.558	5799.4
2133.602	5889.4
2137.643	5820.4
2141.681	5713.4
2145.714	5665.4
2149.744	5582.4
2153.77	5650.4
2157.793	5580.4
2161.812	5785.4
2165.827	5748.4
2169.838	5320.4
2173.846	5487.4
2177.851	5361.4
2181.851	5320.4
2185.848	5466.4
2189.841	5147.4
2193.831	5336.4
2197.817	5025.4
2201.799	5040.4
2205.778	5182.4
2209.753	5128.4
2213.725	4982.4
2217.693	5035.4
2221.657	5011.4
2225.618	4903.4
2229.575	4909.4
2233.529	4857.4
2237.479	4846.4
2241.425	4848.4
2245.368	5030.4
2249.307	4873.4
2253.243	4856.4
2257.175	4839.4
2261.104	4748.4
2265.029	4652.4
2268.95	4579.4
2272.868	4537.4
2276.783	4568.4
2280.694	4344.4
2284.601	4378.4
2288.505	4343.4
2292.405	4204.4
2296.302	4345.4
2300.195	4150.4
2304.085	4373.4
2307.971	4145.4
2311.854	4216.4
2315.734	4075.4
2319.609	4125.4
2323.482	4292.4
2327.351	4123.4
2331.216	4077.4
2335.078	4040.4
2338.937	4071.4
2342.792	4039.4
2346.643	4043.4
2350.492	3943.4
2354.336	3964.4
2358.178	3945.4
2362.015	3923.4
2365.85	4091.4
2369.681	4036.4
2373.508	3945.4
2377.333	3824.4
2381.153	4012.4
2384.971	3996.4
2388.785	4013.4
2392.595	4031.4
2396.402	3971.4
2400.206	4044.4
2404.007	4058.4
2407.804	3960.4
2411.597	3824.4
2415.388	3957.4
2419.174	3874.4
2422.958	3863.4
2426.738	3791.4
2430.515	3711.4
2434.289	3842.4
2438.059	3880.4
2441.825	3799.4
2445.589	3528.4
2449.349	3771.4
2453.106	3608.4
2456.859	3664.4
2460.61	3579.4
2464.356	3619.4
2468.1	3590.4
2471.84	3641.4
2475.577	3626.4
2479.311	3526.4
2483.041	3460.4
2486.768	3299.4
2490.492	3171.4
2494.213	3399.4
2497.93	3464.4
2501.644	3456.4
2505.355	3492.4
2509.062	3240.4
2512.766	3491.4
2516.467	3370.4
2520.165	3346.4
2523.859	3527.4
2527.551	3164.4
2531.239	3370.4
2534.923	3353.4
2538.605	3320.4
2542.283	3240.4
2545.958	3296.4
2549.63	3182.4
2553.299	3172.4
2556.964	3064.4
2560.626	3274.4
2564.285	3134.4
2567.941	3215.4
2571.594	3232.4
2575.243	3167.4
2578.89	3296.4
2582.533	3236.4
2586.173	3206.4
2589.809	3129.4
2593.443	3477.4
2597.073	3218.4
2600.701	2996.4
2604.325	3122.4
2607.946	3153.4
2611.564	3030.4
2615.178	2925.4
2618.79	2999.4
2622.398	3150.4
2626.004	3122.4
2629.606	2928.4
2633.205	3181.4
2636.801	2962.4
2640.394	2969.4
2643.983	2959.4
2647.57	2928.4
2651.153	2851.4
2654.734	2699.4
2658.311	3026.4
2661.885	2872.4
2665.456	2763.4
2669.025	2747.4
2672.589	2749.4
2676.151	2565.4
2679.71	2509.4
2683.266	2741.4
2686.819	2645.4
2690.368	2559.4
2693.915	2409.4
2697.458	2637.4
2700.999	2491.4
2704.536	2442.4
2708.071	2485.4
2711.602	2425.4
2715.13	2414.4
2718.656	2393.4
2722.178	2283.4
2725.697	2411.4
2729.214	2081.4
2732.727	2183.4
2736.237	2253.4
2739.744	2152.4
2743.249	2356.4
2746.75	2322.4
2750.248	2351.4
2753.743	2373.4
2757.236	2364.4
2760.725	2321.4
2764.211	2545.4
2767.695	2353.4
2771.175	2377.4
2774.652	2302.4
2778.127	2375.4
2781.598	2292.4
2785.067	2364.4
2788.532	2328.4
2791.995	2469.4
2795.455	2334.4
2798.911	2229.4
2802.365	2436.4
2805.816	2298.4
2809.264	2231.4
2812.709	2362.4
2816.151	2277.4
2819.59	2451.4
2823.026	2450.4
2826.46	2445.4
2829.89	2372.4
2833.318	2653.4
2836.742	2366.4
2840.164	2326.4
2843.583	2481.4
2846.999	2473.4
2850.412	2427.4
2853.822	2766.4
2857.229	2371.4
2860.634	2426.4
2864.035	2505.4
2867.434	2330.4
2870.83	2510.4
2874.223	2589.4
2877.613	2455.4
2881	2669.4
2884.385	2771.4
2887.766	2634.4
2891.145	2590.4
2894.521	2744.4
2897.894	2802.4
2901.264	2430.4
2904.631	2719.4
2907.996	2696.4
2911.358	2646.4
2914.717	2727.4
2918.073	2716.4
2921.426	2692.4
2924.777	2863.4
2928.124	2815.4
2931.469	2675.4
2934.811	3043.4
2938.15	2806.4
2941.487	2820.4
2944.821	2533.4
2948.152	2933.4
2951.48	2861.4
2954.805	2816.4
2958.128	2734.4
2961.447	2850.4
2964.765	2702.4
2968.079	2948.4
2971.39	2888.4
2974.699	2940.4
2978.005	2851.4
2981.308	2856.4
2984.609	3175.4
2987.907	2927.4
2991.202	3029.4
2994.494	3083.4
2997.784	2695.4
3001.07	3040.4
3004.355	3114.4
3007.636	3162.4
3010.915	3216.4
3014.191	3224.4
3017.464	3283.4
3020.734	3192.4
3024.002	3396.4
3027.267	3436.4
3030.53	3397.4
3033.789	3443.4
3037.046	3542.4
3040.301	3569.4
3043.552	3604.4
3046.801	3747.4
3050.048	3563.4
3053.291	3526.4
3056.532	3736.4
3059.771	3918.4
3063.006	3910.4
3066.239	3918.4
3069.469	4059.4
3072.697	4335.4
3075.922	4374.4
3079.144	4394.4
3082.364	4351.4
3085.581	4686.4
3088.795	4400.4
3092.007	4729.4
3095.216	4901.4
3098.423	5154.4
3101.627	5280.4
3104.828	5244.4
3108.026	5401.4
3111.222	5516.4
3114.416	5396.4
3117.607	5689.4
3120.795	5697.4
3123.98	5842.4
3127.163	6048.4
3130.344	6024.4
3133.521	6171.4
3136.696	6208.4
3139.869	6300.4
3143.039	6418.4
3146.206	6337.4
3149.371	6588.4
3152.533	6771.4
3155.693	6877.4
3158.85	6980.4
3162.005	6969.4
3165.157	7078.4
3168.306	7191.4
3171.453	7032.4
3174.597	7302.4
3177.739	7272.4
3180.878	7124.4
3184.014	7188.4
3187.149	7203.4
3190.28	7094.4
3193.409	7098.4
3196.536	7161.4
3199.659	7060.4
3202.781	7047.4
3205.9	7274.4
3209.016	7120.4
3212.13	7076.4
3215.241	7065.4
3218.35	7132.4
3221.456	7099.4
3224.56	7299.4
3227.661	7290.4
3230.76	7380.4
3233.856	7248.4
3236.95	7182.4
3240.041	7258.4
3243.13	6991.4
3246.216	7040.4
3249.3	6966.4
3252.382	6900.4
3255.46	7074.4
3258.537	6320.4
3261.611	7000.4
3264.682	6732.4
3267.751	6739.4
3270.818	6851.4
3273.882	6586.4
3276.943	6515.4
3280.002	6452.4
3283.059	6523.4
3286.113	6521.4
3289.165	6549.4
3292.214	6453.4
3295.261	6233.4
3298.306	6399.4
3301.348	6248.4
3304.387	6110.4
3307.425	6081.4
3310.459	6147.4
3313.492	5791.4
3316.521	5809.4
3319.549	5762.4
3322.574	5649.4
3325.597	5601.4
3328.617	5561.4
3331.635	5439.4
3334.65	5577.4
3337.663	5484.4
3340.674	5446.4
3343.682	5235.4
3346.688	5405.4
3349.691	5330.4
3352.692	5459.4
3355.691	5201.4
3358.687	5288.4
3361.681	5169.4
3364.673	5216.4
3367.662	5143.4
3370.649	4975.4
3373.633	5186.4
3376.615	5032.4
3379.595	5266.4
3382.572	5002.4
3385.547	4988.4
3388.52	5097.4
3391.49	4935.4
3394.458	4919.4
3397.424	4737.4
3400.387	4824.4
3403.348	4481.4
3406.307	4596.4
3409.263	4596.4
3412.217	4396.4
3415.168	4357.4
3418.118	4369.4
3421.065	4357.4
3424.009	4075.4
3426.951	4221.4
3429.891	4202.4
3432.829	4110.4
3435.764	4028.4
3438.697	3996.4
3441.628	3763.4
3444.557	3911.4
3447.483	3923.4
3450.407	3659.4
3453.328	3535.4
3456.247	3658.4
3459.164	3750.4
3462.079	3396.4
3464.991	3361.4
3467.902	3246.4
3470.809	3287.4
3473.715	3100.4
3476.618	3011.4
3479.519	2948.4
3482.418	3143.4
3485.315	2907.4
3488.209	2787.4
3491.101	2594.4
3493.99	2667.4
3496.878	2428.4
3499.763	2524.4
3502.646	2346.4
3505.527	2526.4
3508.405	2392.4
3511.281	2287.4
3514.155	2334.4
3517.027	2237.4
3519.897	2361.4
3522.764	2082.4
3525.629	2193.4
3528.492	2081.4
3531.352	1879.4
3534.211	1870.4
3537.067	1942.4
3539.921	1848.4
3542.773	1766.4
3545.622	1701.4
3548.469	1797.4
3551.315	1701.4
3554.157	1574.4
3556.998	1459.4
3559.837	1379.4
3562.673	1311.4
3565.507	1377.4
3568.339	1222.4
3571.169	1356.4
3573.996	1266.4
3576.822	1201.4
3579.645	1272.4
3582.466	1130.4
3585.285	1104.4
3588.101	1066.4
3590.916	1185.4
3593.728	1060.4
3596.538	1106.4
3599.346	962.4
3602.152	1100.4
3604.956	1026.4
3607.757	840.4
3610.556	1053.4
3613.354	912.4
3616.149	806.4
3618.942	834.4
3621.732	605.4
3624.521	913.4
3627.307	790.4
3630.092	643.4
3632.874	641.4
3635.654	794.4
3638.432	836.4
3641.208	679.4
3643.982	703.4
3646.753	631.4
3649.523	735.4
3652.29	693.4
3655.055	713.4
3657.818	590.4
3660.579	553.4
3663.338	809.4
3666.095	507.4
3668.849	776.4
3671.602	530.4
3674.352	728.4
3677.101	521.4
3679.847	356.4
3682.591	583.4
3685.333	585.4
3688.073	486.4
3690.811	563.4
3693.547	396.4
3696.281	512.4
3699.013	444.4
3701.742	467.4
3704.47	582.4
3707.195	430.4
3709.919	398.4
3712.64	400.4
3715.359	281.4
3718.076	155.4
3720.792	513.4
3723.505	401.4
3726.216	288.4
3728.925	461.4
3731.632	295.4
3734.336	481.4
3737.039	388.4
3739.74	426.4
3742.439	528.4
3745.136	350.4
3747.83	371.4
3750.523	335.4
3753.213	774.4
3755.902	287.4
3758.589	530.4
3761.273	467.4
3763.956	143.4
3766.636	459.4
3769.315	144.4
3771.991	440.4
3774.665	295.4
3777.338	480.4
3780.008	420.4
3782.677	141.4
3785.343	516.4
3788.007	713.4
3790.67	300.4
3793.33	327.4
3795.989	446.4
3798.645	277.4
3801.299	464.4
3803.952	322.4
3806.602	264.4
3809.251	376.4
3811.897	318.4
3814.542	332.4
3817.184	119.4
3819.825	375.4
3822.463	10.4
3825.1	304.4
3827.735	334.4
3830.367	312.4
3832.998	125.4
3835.627	222.4
3838.253	247.4
3840.878	141.4
3843.501	102.4
3846.122	173.4
3848.741	189.4
3851.358	291.4
3853.973	450.4
3856.586	284.4
3859.197	240.4
3861.806	265.4
3864.414	422.4
3867.019	284.4
3869.622	206.4
3872.224	146.4
3874.823	478.4
3877.421	356.4
3880.016	421.4
3882.61	512.4
3885.202	438.4
3887.792	393.4
3890.38	170.4
3892.966	373.4
3895.55	355.4
3898.132	310.4
3900.713	200.4
3903.291	263.4
3905.868	356.4
3908.442	239.4
3911.015	236.4
3913.586	275.4
3916.155	202.4
3918.722	390.4
3921.287	261.4
3923.85	100.4
3926.411	235.4
3928.971	208.4
3931.528	269.4
3934.084	252.4
3936.638	267.4
3939.19	261.4
3941.74	314.4
3944.288	193.4
3946.834	294.4
3949.378	196.4
3951.921	358.4
3954.462	245.4
3957	222.4
3959.537	278.4
3962.072	409.4
3964.606	412.4
3967.137	213.4
3969.667	309.4
3972.194	322.4
3974.72	302.4
3977.244	393.4
3979.766	230.4
3982.286	437.4
3984.805	202.4
3987.321	173.4
3989.836	234.4
3992.349	332.4
3994.86	259.4
3997.369	277.4
3999.877	238.4
4002.382	282.4
4004.886	310.4
4007.388	270.4
4009.888	425.4
4012.386	174.4
4014.883	245.4
4017.377	291.4
4019.87	195.4
4022.361	390.4
4024.85	397.4
4027.338	371.4
4029.823	212.4
4032.307	251.4
4034.789	313.4
4037.269	288.4
4039.747	316.4
4042.224	227.4
4044.699	360.4
4047.172	315.4
4049.643	214.4
4052.112	366.4
4054.58	333.4
4057.046	261.4
4059.51	351.4
4061.972	211.4
4064.432	407.4
4066.891	182.4
4069.348	332.4
4071.803	224.4
4074.256	284.4
4076.708	209.4
4079.158	371.4
4081.606	115.4
4084.052	305.4
4086.497	191.4
4088.939	349.4
4091.38	333.4
4093.819	270.4
4096.257	-1415.6
4098.693	-1538.6
4101.127	-1563.6
4103.559	-1583.6
4105.989	473.4
4108.418	420.4
4110.845	706.4
4113.27	507.4
4115.694	657.4
4118.115	664.4
4120.535	197.4
4122.954	109.4
4125.37	85.4
4127.785	244.4
4130.198	197.4
4132.609	199.4
4135.019	-1630.6
4137.427	-1539.6
4139.833	-1524.6
4142.237	-1276.6
