Data from 2018-2-8_conc=2_RamanShift_01.txt Node
Date: Wed Feb 07 09:48:10 IST 2018
User: aro
Spectrometer: QEPB0276
Trigger mode: 0
Integration Time (sec): 3.000000E1
Scans to average: 1
Electric dark correction enabled: true
Nonlinearity correction enabled: false
Boxcar width: 0
XAxis mode: Raman Shifts
Number of Pixels in Spectrum: 1044
>>>>>Begin Spectral Data<<<<<
160.701	530
166.742	677
172.777	1107
178.805	2752
184.826	6028
190.841	11672
196.849	18577
202.85	23594
208.845	25430
214.833	25155
220.815	24785
226.789	23398
232.758	24667
238.719	24553
244.674	24408
250.623	23861
256.565	23533
262.5	23138
268.429	22556
274.351	22253
280.267	22141
286.176	21640
292.079	21453
297.975	21063
303.865	20937
309.748	20734
315.625	20578
321.495	20249
327.359	20204
333.217	20255
339.068	20204
344.912	20230
350.751	20245
356.583	20266
362.408	20171
368.227	20137
374.04	20279
379.847	20280
385.647	20404
391.44	20602
397.228	20669
403.009	20844
408.784	20983
414.553	21170
420.315	21171
426.071	21236
431.821	21125
437.565	21115
443.302	20846
449.033	20878
454.758	20807
460.477	20660
466.189	20538
471.896	20540
477.596	20373
483.29	20456
488.978	20437
494.66	20428
500.335	20380
506.005	20259
511.668	20094
517.325	19975
522.977	19799
528.622	19764
534.261	19593
539.894	19416
545.521	19468
551.141	19408
556.756	19114
562.365	19067
567.968	18944
573.565	18781
579.155	18694
584.74	18584
590.319	18460
595.892	18514
601.459	18452
607.02	18410
612.575	18409
618.124	18257
623.667	18423
629.204	18329
634.735	18387
640.261	18278
645.781	18468
651.294	18146
656.802	18001
662.304	17904
667.8	17651
673.29	17645
678.775	17526
684.254	17515
689.726	17542
695.193	17381
700.655	17458
706.11	17591
711.56	17457
717.004	17515
722.442	17700
727.874	17424
733.301	17519
738.722	17497
744.137	17254
749.547	17150
754.951	17137
760.349	16993
765.741	16833
771.128	16878
776.509	16845
781.885	16818
787.254	16769
792.618	16856
797.977	16962
803.33	17028
808.677	17076
814.019	17046
819.355	17063
824.686	17052
830.011	17025
835.33	16771
840.644	16582
845.952	16592
851.255	16297
856.552	16284
861.844	16192
867.13	16164
872.41	16171
877.686	15996
882.955	16054
888.219	16158
893.478	16335
898.731	16106
903.979	16060
909.221	16066
914.458	16029
919.69	15849
924.916	15795
930.136	15482
935.351	15552
940.561	15187
945.766	15095
950.965	14948
956.158	15041
961.347	15092
966.529	15148
971.707	15059
976.879	15079
982.046	15103
987.208	15282
992.364	15010
997.515	14965
1002.66	14806
1007.801	14929
1012.936	14810
1018.066	14910
1023.19	14623
1028.309	14615
1033.423	14732
1038.532	14793
1043.636	14908
1048.734	14835
1053.827	14939
1058.915	14982
1063.998	14873
1069.075	14715
1074.147	14486
1079.214	14551
1084.276	14108
1089.333	14194
1094.385	14171
1099.431	14339
1104.472	14111
1109.509	14280
1114.54	14285
1119.565	14360
1124.586	14321
1129.602	14348
1134.613	14345
1139.618	14181
1144.619	13916
1149.614	13794
1154.604	13624
1159.589	13637
1164.57	13373
1169.545	13400
1174.515	13452
1179.48	13553
1184.44	13617
1189.395	13743
1194.345	13855
1199.29	13851
1204.23	13902
1209.165	13812
1214.095	13729
1219.021	13592
1223.941	13701
1228.856	13549
1233.766	13530
1238.672	13405
1243.572	13367
1248.467	13405
1253.358	13600
1258.244	13538
1263.124	13445
1268	13293
1272.871	13356
1277.737	13216
1282.599	13094
1287.455	12941
1292.306	12700
1297.153	12753
1301.995	12543
1306.832	12490
1311.664	12531
1316.491	12571
1321.314	12628
1326.132	12445
1330.945	12491
1335.753	12295
1340.556	12192
1345.354	12061
1350.148	11898
1354.937	11703
1359.722	11625
1364.501	11471
1369.276	11387
1374.046	11324
1378.811	11469
1383.572	11482
1388.327	11240
1393.079	11702
1397.825	11799
1402.567	11702
1407.304	11596
1412.036	11623
1416.764	11671
1421.487	11836
1426.205	11484
1430.919	11324
1435.628	11168
1440.333	11149
1445.032	11041
1449.727	11000
1454.418	11002
1459.104	10931
1463.785	10741
1468.462	10810
1473.134	10788
1477.802	10607
1482.465	10672
1487.123	10454
1491.777	10554
1496.426	10414
1501.071	10192
1505.711	10191
1510.347	10227
1514.978	10346
1519.604	10465
1524.226	10533
1528.844	10802
1533.457	10681
1538.065	10861
1542.669	10856
1547.269	10877
1551.864	10890
1556.454	11021
1561.041	10881
1565.622	10901
1570.199	10586
1574.772	10577
1579.34	10364
1583.904	10506
1588.464	10533
1593.019	10500
1597.569	10672
1602.115	10617
1606.657	10758
1611.195	10677
1615.728	10798
1620.256	10842
1624.78	10860
1629.3	10866
1633.816	10588
1638.327	10665
1642.834	10627
1647.336	10535
1651.834	10422
1656.328	10548
1660.817	10452
1665.302	10544
1669.783	10558
1674.259	10307
1678.732	10062
1683.199	9851
1687.663	9756
1692.122	9320
1696.577	9113
1701.028	9109
1705.474	9075
1709.917	8990
1714.355	8994
1718.788	8886
1723.218	8751
1727.643	8489
1732.064	8331
1736.481	8419
1740.893	8245
1745.301	8092
1749.705	8156
1754.105	7703
1758.501	7717
1762.893	7389
1767.28	7377
1771.663	7163
1776.042	7044
1780.417	6963
1784.787	6729
1789.154	6820
1793.516	6740
1797.874	6954
1802.228	7072
1806.578	7272
1810.924	7102
1815.266	7477
1819.603	7146
1823.937	7224
1828.266	7143
1832.591	7051
1836.913	6960
1841.23	7008
1845.543	6944
1849.852	6771
1854.156	6748
1858.457	6707
1862.754	6668
1867.047	6609
1871.335	6498
1875.62	6500
1879.9	6545
1884.177	6551
1888.449	6402
1892.718	6419
1896.982	6373
1901.243	6491
1905.499	6488
1909.752	6387
1914	6477
1918.245	6368
1922.485	6356
1926.722	6386
1930.954	6396
1935.183	6420
1939.408	6435
1943.628	6446
1947.845	6358
1952.058	6513
1956.267	6378
1960.472	6316
1964.673	6432
1968.87	6448
1973.063	6421
1977.252	6312
1981.438	6256
1985.619	6148
1989.797	6044
1993.971	6044
1998.14	5779
2002.306	5932
2006.469	5805
2010.627	5786
2014.781	5773
2018.932	5815
2023.078	5657
2027.221	5656
2031.36	5678
2035.495	5716
2039.627	5654
2043.754	5550
2047.878	5511
2051.998	5494
2056.114	5464
2060.226	5499
2064.334	5380
2068.439	5259
2072.54	5303
2076.637	5533
2080.73	5356
2084.82	5337
2088.906	5373
2092.988	5347
2097.066	5490
2101.14	5348
2105.211	5370
2109.278	5431
2113.342	5461
2117.401	5508
2121.457	5446
2125.509	5379
2129.558	5217
2133.602	5302
2137.643	5187
2141.681	5162
2145.714	5170
2149.744	5097
2153.77	5089
2157.793	5018
2161.812	5065
2165.827	5065
2169.838	4839
2173.846	4879
2177.851	4808
2181.851	4722
2185.848	4908
2189.841	4619
2193.831	4749
2197.817	4513
2201.799	4523
2205.778	4604
2209.753	4564
2213.725	4585
2217.693	4412
2221.657	4503
2225.618	4355
2229.575	4422
2233.529	4337
2237.479	4367
2241.425	4333
2245.368	4452
2249.307	4378
2253.243	4297
2257.175	4291
2261.104	4243
2265.029	4146
2268.95	4119
2272.868	3999
2276.783	4038
2280.694	3886
2284.601	3850
2288.505	3834
2292.405	3708
2296.302	3828
2300.195	3720
2304.085	3785
2307.971	3715
2311.854	3700
2315.734	3605
2319.609	3658
2323.482	3708
2327.351	3633
2331.216	3581
2335.078	3609
2338.937	3534
2342.792	3602
2346.643	3533
2350.492	3511
2354.336	3441
2358.178	3458
2362.015	3419
2365.85	3522
2369.681	3482
2373.508	3489
2377.333	3417
2381.153	3511
2384.971	3513
2388.785	3545
2392.595	3546
2396.402	3600
2400.206	3613
2404.007	3501
2407.804	3454
2411.597	3394
2415.388	3463
2419.174	3371
2422.958	3359
2426.738	3285
2430.515	3131
2434.289	3326
2438.059	3340
2441.825	3275
2445.589	3072
2449.349	3244
2453.106	3139
2456.859	3154
2460.61	3014
2464.356	3139
2468.1	3075
2471.84	3060
2475.577	3105
2479.311	2996
2483.041	2937
2486.768	2877
2490.492	2762
2494.213	2925
2497.93	2956
2501.644	3027
2505.355	3019
2509.062	2914
2512.766	2989
2516.467	2959
2520.165	2946
2523.859	3027
2527.551	2705
2531.239	2829
2534.923	2950
2538.605	2977
2542.283	2747
2545.958	2867
2549.63	2722
2553.299	2759
2556.964	2811
2560.626	2827
2564.285	2676
2567.941	2883
2571.594	2825
2575.243	2732
2578.89	2822
2582.533	2766
2586.173	2761
2589.809	2713
2593.443	2913
2597.073	2738
2600.701	2539
2604.325	2718
2607.946	2691
2611.564	2586
2615.178	2549
2618.79	2532
2622.398	2618
2626.004	2643
2629.606	2445
2633.205	2692
2636.801	2541
2640.394	2433
2643.983	2411
2647.57	2471
2651.153	2409
2654.734	2277
2658.311	2543
2661.885	2400
2665.456	2331
2669.025	2297
2672.589	2318
2676.151	2140
2679.71	2227
2683.266	2160
2686.819	2261
2690.368	2195
2693.915	2130
2697.458	2217
2700.999	2065
2704.536	2042
2708.071	2045
2711.602	2028
2715.13	1995
2718.656	2025
2722.178	1948
2725.697	1999
2729.214	1714
2732.727	1874
2736.237	2027
2739.744	1906
2743.249	1961
2746.75	1910
2750.248	1999
2753.743	2061
2757.236	1965
2760.725	1983
2764.211	2118
2767.695	1995
2771.175	1952
2774.652	1968
2778.127	1949
2781.598	1954
2785.067	1954
2788.532	2044
2791.995	2078
2795.455	1951
2798.911	1912
2802.365	2059
2805.816	1925
2809.264	1870
2812.709	1981
2816.151	1944
2819.59	2044
2823.026	2061
2826.46	2046
2829.89	1966
2833.318	2253
2836.742	2015
2840.164	2042
2843.583	2094
2846.999	2051
2850.412	2021
2853.822	2218
2857.229	1993
2860.634	1986
2864.035	2168
2867.434	2029
2870.83	2040
2874.223	2193
2877.613	2076
2881	2275
2884.385	2324
2887.766	2246
2891.145	2145
2894.521	2350
2897.894	2384
2901.264	2054
2904.631	2394
2907.996	2271
2911.358	2287
2914.717	2305
2918.073	2267
2921.426	2302
2924.777	2415
2928.124	2438
2931.469	2286
2934.811	2545
2938.15	2431
2941.487	2440
2944.821	2383
2948.152	2545
2951.48	2478
2954.805	2477
2958.128	2353
2961.447	2481
2964.765	2367
2968.079	2539
2971.39	2441
2974.699	2514
2978.005	2501
2981.308	2517
2984.609	2666
2987.907	2589
2991.202	2626
2994.494	2720
2997.784	2456
3001.07	2676
3004.355	2668
3007.636	2757
3010.915	2856
3014.191	2860
3017.464	2849
3020.734	2859
3024.002	2993
3027.267	2964
3030.53	2998
3033.789	3059
3037.046	3223
3040.301	3195
3043.552	3170
3046.801	3221
3050.048	3162
3053.291	3121
3056.532	3381
3059.771	3475
3063.006	3465
3066.239	3555
3069.469	3655
3072.697	3896
3075.922	3849
3079.144	3882
3082.364	3981
3085.581	4167
3088.795	4142
3092.007	4262
3095.216	4451
3098.423	4699
3101.627	4801
3104.828	4797
3108.026	4896
3111.222	4909
3114.416	4949
3117.607	5191
3120.795	5211
3123.98	5313
3127.163	5449
3130.344	5539
3133.521	5565
3136.696	5661
3139.869	5749
3143.039	5886
3146.206	5922
3149.371	6031
3152.533	6174
3155.693	6267
3158.85	6299
3162.005	6387
3165.157	6525
3168.306	6562
3171.453	6467
3174.597	6696
3177.739	6725
3180.878	6565
3184.014	6524
3187.149	6613
3190.28	6581
3193.409	6503
3196.536	6534
3199.659	6499
3202.781	6506
3205.9	6703
3209.016	6555
3212.13	6497
3215.241	6490
3218.35	6498
3221.456	6679
3224.56	6756
3227.661	6650
3230.76	6715
3233.856	6640
3236.95	6604
3240.041	6693
3243.13	6452
3246.216	6492
3249.3	6357
3252.382	6347
3255.46	6405
3258.537	6758
3261.611	6377
3264.682	6227
3267.751	6196
3270.818	6269
3273.882	6023
3276.943	5949
3280.002	5905
3283.059	5971
3286.113	5968
3289.165	5995
3292.214	5914
3295.261	5704
3298.306	5866
3301.348	5683
3304.387	5647
3307.425	5571
3310.459	5533
3313.492	5334
3316.521	5370
3319.549	5220
3322.574	5156
3325.597	5152
3328.617	5003
3331.635	4956
3334.65	5056
3337.663	4970
3340.674	4936
3343.682	4827
3346.688	4847
3349.691	4797
3352.692	4916
3355.691	4626
3358.687	4732
3361.681	4764
3364.673	4730
3367.662	4686
3370.649	4686
3373.633	4686
3376.615	4519
3379.595	4745
3382.572	4497
3385.547	4467
3388.52	4600
3391.49	4466
3394.458	4457
3397.424	4265
3400.387	4419
3403.348	4021
3406.307	4025
3409.263	4116
3412.217	3953
3415.168	3917
3418.118	3881
3421.065	3893
3424.009	3651
3426.951	3815
3429.891	3610
3432.829	3652
3435.764	3690
3438.697	3676
3441.628	3419
3444.557	3525
3447.483	3527
3450.407	3368
3453.328	3404
3456.247	3300
3459.164	3264
3462.079	3084
3464.991	3034
3467.902	3060
3470.809	2878
3473.715	2779
3476.618	2742
3479.519	2606
3482.418	2699
3485.315	2591
3488.209	2491
3491.101	2481
3493.99	2441
3496.878	2132
3499.763	2184
3502.646	2180
3505.527	2234
3508.405	2079
3511.281	1992
3514.155	2022
3517.027	1966
3519.897	2119
3522.764	1816
3525.629	1854
3528.492	1767
3531.352	1625
3534.211	1621
3537.067	1686
3539.921	1560
3542.773	1506
3545.622	1369
3548.469	1490
3551.315	1443
3554.157	1337
3556.998	1235
3559.837	1123
3562.673	1039
3565.507	1150
3568.339	1086
3571.169	1085
3573.996	1014
3576.822	1031
3579.645	1049
3582.466	984
3585.285	915
3588.101	884
3590.916	902
3593.728	816
3596.538	868
3599.346	761
3602.152	795
3604.956	823
3607.757	630
3610.556	817
3613.354	655
3616.149	621
3618.942	633
3621.732	400
3624.521	617
3627.307	555
3630.092	530
3632.874	434
3635.654	574
3638.432	632
3641.208	480
3643.982	523
3646.753	415
3649.523	506
3652.29	503
3655.055	515
3657.818	357
3660.579	448
3663.338	535
3666.095	298
3668.849	554
3671.602	320
3674.352	491
3677.101	293
3679.847	234
3682.591	335
3685.333	327
3688.073	238
3690.811	359
3693.547	495
3696.281	303
3699.013	217
3701.742	240
3704.47	365
3707.195	199
3709.919	220
3712.64	271
3715.359	100
3718.076	6
3720.792	195
3723.505	166
3726.216	148
3728.925	259
3731.632	142
3734.336	287
3737.039	145
3739.74	214
3742.439	213
3745.136	176
3747.83	114
3750.523	178
3753.213	-230
3755.902	162
3758.589	231
3761.273	267
3763.956	31
3766.636	167
3769.315	1
3771.991	212
3774.665	62
3777.338	241
3780.008	191
3782.677	139
3785.343	276
3788.007	246
3790.67	121
3793.33	69
3795.989	163
3798.645	102
3801.299	254
3803.952	87
3806.602	67
3809.251	148
3811.897	158
3814.542	110
3817.184	-81
3819.825	208
3822.463	158
3825.1	109
3827.735	131
3830.367	122
3832.998	26
3835.627	12
3838.253	59
3840.878	140
3843.501	-32
3846.122	-8
3848.741	13
3851.358	45
3853.973	175
3856.586	101
3859.197	18
3861.806	98
3864.414	151
3867.019	84
3869.622	6
3872.224	43
3874.823	270
3877.421	213
3880.016	198
3882.61	264
3885.202	215
3887.792	228
3890.38	44
3892.966	202
3895.55	107
3898.132	115
3900.713	0
3903.291	74
3905.868	84
3908.442	89
3911.015	39
3913.586	71
3916.155	19
3918.722	101
3921.287	103
3923.85	168
3926.411	11
3928.971	24
3931.528	51
3934.084	48
3936.638	98
3939.19	44
3941.74	62
3944.288	28
3946.834	63
3949.378	33
3951.921	199
3954.462	48
3957	30
3959.537	122
3962.072	162
3964.606	214
3967.137	77
3969.667	70
3972.194	64
3974.72	87
3977.244	130
3979.766	112
3982.286	198
3984.805	23
3987.321	35
3989.836	66
3992.349	104
3994.86	88
3997.369	69
3999.877	40
4002.382	89
4004.886	68
4007.388	83
4009.888	179
4012.386	-18
4014.883	23
4017.377	81
4019.87	-27
4022.361	111
4024.85	109
4027.338	208
4029.823	37
4032.307	41
4034.789	124
4037.269	154
4039.747	198
4042.224	23
4044.699	133
4047.172	97
4049.643	36
4052.112	212
4054.58	124
4057.046	90
4059.51	146
4061.972	53
4064.432	211
4066.891	-4
4069.348	190
4071.803	-9
4074.256	60
4076.708	91
4079.158	70
4081.606	-23
4084.052	113
4086.497	111
4088.939	98
4091.38	156
4093.819	38
4096.257	-1240
4098.693	-1247
4101.127	-1283
4103.559	-1316
4105.989	456
4108.418	278
4110.845	478
4113.27	365
4115.694	411
4118.115	504
4120.535	2
4122.954	-19
4125.37	-68
4127.785	101
4130.198	37
4132.609	37
4135.019	-1330
4137.427	-1348
4139.833	-1253
4142.237	-1135
