Data from 2018-2-8_conc=5_RamanShift_20.txt Node
Date: Wed Feb 07 11:12:40 IST 2018
User: aro
Spectrometer: QEPB0276
Trigger mode: 0
Integration Time (sec): 3.000000E1
Scans to average: 1
Electric dark correction enabled: true
Nonlinearity correction enabled: false
Boxcar width: 0
XAxis mode: Raman Shifts
Number of Pixels in Spectrum: 1044
>>>>>Begin Spectral Data<<<<<
160.701	592.2
166.742	750.2
172.777	1245.2
178.805	2852.2
184.826	6310.2
190.841	12267.2
196.849	19590.2
202.85	25003.2
208.845	26907.2
214.833	26784.2
220.815	26405.2
226.789	26298.2
232.758	26202.2
238.719	26135.2
244.674	25784.2
250.623	25364.2
256.565	24879.2
262.5	24579.2
268.429	23876.2
274.351	23652.2
280.267	23443.2
286.176	22839.2
292.079	22580.2
297.975	22258.2
303.865	22144.2
309.748	21999.2
315.625	21856.2
321.495	21394.2
327.359	21394.2
333.217	21493.2
339.068	21292.2
344.912	21360.2
350.751	21315.2
356.583	21174.2
362.408	21222.2
368.227	21262.2
374.04	21339.2
379.847	21415.2
385.647	21552.2
391.44	21746.2
397.228	21741.2
403.009	21927.2
408.784	22001.2
414.553	22214.2
420.315	22246.2
426.071	22330.2
431.821	22255.2
437.565	22274.2
443.302	21968.2
449.033	22037.2
454.758	21913.2
460.477	21747.2
466.189	21712.2
471.896	21608.2
477.596	21430.2
483.29	21577.2
488.978	21568.2
494.66	21522.2
500.335	21494.2
506.005	21363.2
511.668	21106.2
517.325	21004.2
522.977	20874.2
528.622	20766.2
534.261	20624.2
539.894	20565.2
545.521	20489.2
551.141	20420.2
556.756	20244.2
562.365	20085.2
567.968	19880.2
573.565	19801.2
579.155	19604.2
584.74	19668.2
590.319	19449.2
595.892	19466.2
601.459	19343.2
607.02	19374.2
612.575	19414.2
618.124	19209.2
623.667	19381.2
629.204	19311.2
634.735	19323.2
640.261	19218.2
645.781	19407.2
651.294	19102.2
656.802	18763.2
662.304	18776.2
667.8	18519.2
673.29	18569.2
678.775	18398.2
684.254	18382.2
689.726	18536.2
695.193	18288.2
700.655	18298.2
706.11	18523.2
711.56	18348.2
717.004	18423.2
722.442	18619.2
727.874	18433.2
733.301	18370.2
738.722	18445.2
744.137	18216.2
749.547	18114.2
754.951	18134.2
760.349	17899.2
765.741	17758.2
771.128	17771.2
776.509	17832.2
781.885	17698.2
787.254	17672.2
792.618	17807.2
797.977	17905.2
803.33	17884.2
808.677	18013.2
814.019	17875.2
819.355	17991.2
824.686	17928.2
830.011	17951.2
835.33	17661.2
840.644	17410.2
845.952	17516.2
851.255	17234.2
856.552	17281.2
861.844	17089.2
867.13	17019.2
872.41	16988.2
877.686	16918.2
882.955	17025.2
888.219	17083.2
893.478	17157.2
898.731	16995.2
903.979	16931.2
909.221	17086.2
914.458	16926.2
919.69	16737.2
924.916	16645.2
930.136	16415.2
935.351	16305.2
940.561	16044.2
945.766	16013.2
950.965	15741.2
956.158	15940.2
961.347	16012.2
966.529	15929.2
971.707	15974.2
976.879	15951.2
982.046	16028.2
987.208	16089.2
992.364	15868.2
997.515	15890.2
1002.66	15721.2
1007.801	15801.2
1012.936	15699.2
1018.066	15867.2
1023.19	15644.2
1028.309	15475.2
1033.423	15592.2
1038.532	15684.2
1043.636	15916.2
1048.734	15792.2
1053.827	15979.2
1058.915	15923.2
1063.998	15785.2
1069.075	15604.2
1074.147	15386.2
1079.214	15481.2
1084.276	15081.2
1089.333	15130.2
1094.385	15058.2
1099.431	14997.2
1104.472	14977.2
1109.509	15173.2
1114.54	15241.2
1119.565	15328.2
1124.586	15231.2
1129.602	15209.2
1134.613	15189.2
1139.618	15194.2
1144.619	14927.2
1149.614	14646.2
1154.604	14519.2
1159.589	14471.2
1164.57	14240.2
1169.545	14313.2
1174.515	14308.2
1179.48	14457.2
1184.44	14456.2
1189.395	14641.2
1194.345	14790.2
1199.29	14672.2
1204.23	14864.2
1209.165	14704.2
1214.095	14577.2
1219.021	14476.2
1223.941	14494.2
1228.856	14503.2
1233.766	14461.2
1238.672	14369.2
1243.572	14239.2
1248.467	14345.2
1253.358	14489.2
1258.244	14534.2
1263.124	14374.2
1268	14293.2
1272.871	14258.2
1277.737	14201.2
1282.599	14020.2
1287.455	13912.2
1292.306	13647.2
1297.153	13695.2
1301.995	13377.2
1306.832	13384.2
1311.664	13370.2
1316.491	13520.2
1321.314	13431.2
1326.132	13427.2
1330.945	13287.2
1335.753	13181.2
1340.556	13091.2
1345.354	12926.2
1350.148	12616.2
1354.937	12486.2
1359.722	12445.2
1364.501	12201.2
1369.276	12029.2
1374.046	12088.2
1378.811	12217.2
1383.572	12349.2
1388.327	12076.2
1393.079	12612.2
1397.825	12654.2
1402.567	12621.2
1407.304	12483.2
1412.036	12616.2
1416.764	12350.2
1421.487	12655.2
1426.205	12403.2
1430.919	12140.2
1435.628	12008.2
1440.333	11848.2
1445.032	11813.2
1449.727	11685.2
1454.418	11808.2
1459.104	11729.2
1463.785	11602.2
1468.462	11561.2
1473.134	11462.2
1477.802	11371.2
1482.465	11475.2
1487.123	11026.2
1491.777	11181.2
1496.426	11054.2
1501.071	10876.2
1505.711	10909.2
1510.347	10885.2
1514.978	11025.2
1519.604	11204.2
1524.226	11238.2
1528.844	11655.2
1533.457	11446.2
1538.065	11739.2
1542.669	11735.2
1547.269	11785.2
1551.864	11754.2
1556.454	11884.2
1561.041	11774.2
1565.622	11740.2
1570.199	11510.2
1574.772	11405.2
1579.34	11222.2
1583.904	11372.2
1588.464	11323.2
1593.019	11318.2
1597.569	11533.2
1602.115	11359.2
1606.657	11589.2
1611.195	11547.2
1615.728	11612.2
1620.256	11743.2
1624.78	11843.2
1629.3	11727.2
1633.816	11579.2
1638.327	11516.2
1642.834	11438.2
1647.336	11427.2
1651.834	11214.2
1656.328	11327.2
1660.817	11182.2
1665.302	11374.2
1669.783	11248.2
1674.259	10983.2
1678.732	10721.2
1683.199	10497.2
1687.663	10439.2
1692.122	9899.2
1696.577	9651.2
1701.028	9657.2
1705.474	9615.2
1709.917	9633.2
1714.355	9676.2
1718.788	9472.2
1723.218	9466.2
1727.643	9186.2
1732.064	9021.2
1736.481	9138.2
1740.893	8802.2
1745.301	8702.2
1749.705	8796.2
1754.105	8334.2
1758.501	8317.2
1762.893	7977.2
1767.28	7928.2
1771.663	7665.2
1776.042	7466.2
1780.417	7389.2
1784.787	7121.2
1789.154	7241.2
1793.516	7346.2
1797.874	7378.2
1802.228	7541.2
1806.578	7804.2
1810.924	7620.2
1815.266	8414.2
1819.603	7684.2
1823.937	7782.2
1828.266	7620.2
1832.591	7580.2
1836.913	7486.2
1841.23	7506.2
1845.543	7485.2
1849.852	7290.2
1854.156	7291.2
1858.457	7239.2
1862.754	7005.2
1867.047	7118.2
1871.335	6966.2
1875.62	6938.2
1879.9	6856.2
1884.177	7096.2
1888.449	6878.2
1892.718	6900.2
1896.982	6784.2
1901.243	7040.2
1905.499	6902.2
1909.752	6765.2
1914	6982.2
1918.245	6778.2
1922.485	6776.2
1926.722	6781.2
1930.954	6814.2
1935.183	6900.2
1939.408	6870.2
1943.628	6918.2
1947.845	6876.2
1952.058	6969.2
1956.267	7038.2
1960.472	6882.2
1964.673	6885.2
1968.87	7040.2
1973.063	6982.2
1977.252	6814.2
1981.438	6774.2
1985.619	6639.2
1989.797	6560.2
1993.971	6468.2
1998.14	6310.2
2002.306	6333.2
2006.469	6310.2
2010.627	6294.2
2014.781	6307.2
2018.932	6322.2
2023.078	6090.2
2027.221	6054.2
2031.36	6127.2
2035.495	6050.2
2039.627	6097.2
2043.754	5992.2
2047.878	5983.2
2051.998	5976.2
2056.114	5913.2
2060.226	5907.2
2064.334	5779.2
2068.439	5727.2
2072.54	5698.2
2076.637	5911.2
2080.73	5796.2
2084.82	5806.2
2088.906	5783.2
2092.988	5780.2
2097.066	6013.2
2101.14	5800.2
2105.211	5938.2
2109.278	5909.2
2113.342	5910.2
2117.401	6041.2
2121.457	5926.2
2125.509	5934.2
2129.558	5645.2
2133.602	5707.2
2137.643	5695.2
2141.681	5635.2
2145.714	5734.2
2149.744	5436.2
2153.77	5555.2
2157.793	5500.2
2161.812	5568.2
2165.827	5577.2
2169.838	5255.2
2173.846	5390.2
2177.851	5320.2
2181.851	5204.2
2185.848	5206.2
2189.841	5106.2
2193.831	5255.2
2197.817	4997.2
2201.799	5048.2
2205.778	5085.2
2209.753	5008.2
2213.725	4941.2
2217.693	4966.2
2221.657	4938.2
2225.618	4800.2
2229.575	4861.2
2233.529	4806.2
2237.479	4850.2
2241.425	4797.2
2245.368	4939.2
2249.307	4824.2
2253.243	4763.2
2257.175	4796.2
2261.104	4651.2
2265.029	4553.2
2268.95	4578.2
2272.868	4477.2
2276.783	4522.2
2280.694	4234.2
2284.601	4298.2
2288.505	4250.2
2292.405	4135.2
2296.302	4309.2
2300.195	4081.2
2304.085	4265.2
2307.971	4049.2
2311.854	4158.2
2315.734	4060.2
2319.609	4067.2
2323.482	4213.2
2327.351	4054.2
2331.216	4025.2
2335.078	3960.2
2338.937	4007.2
2342.792	3988.2
2346.643	3923.2
2350.492	3949.2
2354.336	3952.2
2358.178	3862.2
2362.015	3844.2
2365.85	3994.2
2369.681	3920.2
2373.508	3897.2
2377.333	3825.2
2381.153	3914.2
2384.971	3968.2
2388.785	3989.2
2392.595	3977.2
2396.402	3930.2
2400.206	4068.2
2404.007	4074.2
2407.804	3937.2
2411.597	3818.2
2415.388	3902.2
2419.174	3827.2
2422.958	3790.2
2426.738	3770.2
2430.515	3668.2
2434.289	3772.2
2438.059	3780.2
2441.825	3736.2
2445.589	3494.2
2449.349	3729.2
2453.106	3559.2
2456.859	3591.2
2460.61	3518.2
2464.356	3542.2
2468.1	3564.2
2471.84	3557.2
2475.577	3597.2
2479.311	3464.2
2483.041	3439.2
2486.768	3246.2
2490.492	3091.2
2494.213	3368.2
2497.93	3442.2
2501.644	3411.2
2505.355	3452.2
2509.062	3274.2
2512.766	3411.2
2516.467	3326.2
2520.165	3295.2
2523.859	3454.2
2527.551	3129.2
2531.239	3326.2
2534.923	3334.2
2538.605	3308.2
2542.283	3196.2
2545.958	3311.2
2549.63	3212.2
2553.299	3106.2
2556.964	3026.2
2560.626	3249.2
2564.285	3129.2
2567.941	3198.2
2571.594	3168.2
2575.243	3011.2
2578.89	3209.2
2582.533	3194.2
2586.173	3165.2
2589.809	3059.2
2593.443	3366.2
2597.073	3164.2
2600.701	2978.2
2604.325	3046.2
2607.946	3039.2
2611.564	2973.2
2615.178	2888.2
2618.79	2932.2
2622.398	3027.2
2626.004	3020.2
2629.606	2879.2
2633.205	3140.2
2636.801	2909.2
2640.394	2898.2
2643.983	2889.2
2647.57	2900.2
2651.153	2798.2
2654.734	2690.2
2658.311	2973.2
2661.885	2774.2
2665.456	2831.2
2669.025	2701.2
2672.589	2729.2
2676.151	2526.2
2679.71	2513.2
2683.266	2631.2
2686.819	2588.2
2690.368	2567.2
2693.915	2388.2
2697.458	2549.2
2700.999	2391.2
2704.536	2443.2
2708.071	2411.2
2711.602	2341.2
2715.13	2352.2
2718.656	2378.2
2722.178	2232.2
2725.697	2368.2
2729.214	2014.2
2732.727	2142.2
2736.237	2118.2
2739.744	2135.2
2743.249	2240.2
2746.75	2273.2
2750.248	2291.2
2753.743	2290.2
2757.236	2253.2
2760.725	2258.2
2764.211	2478.2
2767.695	2277.2
2771.175	2331.2
2774.652	2242.2
2778.127	2308.2
2781.598	2292.2
2785.067	2294.2
2788.532	2292.2
2791.995	2252.2
2795.455	2263.2
2798.911	2228.2
2802.365	2394.2
2805.816	2216.2
2809.264	2184.2
2812.709	2295.2
2816.151	2225.2
2819.59	2440.2
2823.026	2389.2
2826.46	2434.2
2829.89	2364.2
2833.318	2612.2
2836.742	2257.2
2840.164	2323.2
2843.583	2496.2
2846.999	2462.2
2850.412	2356.2
2853.822	2736.2
2857.229	2321.2
2860.634	2424.2
2864.035	2485.2
2867.434	2335.2
2870.83	2471.2
2874.223	2529.2
2877.613	2417.2
2881	2637.2
2884.385	2685.2
2887.766	2640.2
2891.145	2551.2
2894.521	2690.2
2897.894	2767.2
2901.264	2382.2
2904.631	2687.2
2907.996	2630.2
2911.358	2591.2
2914.717	2627.2
2918.073	2677.2
2921.426	2635.2
2924.777	2767.2
2928.124	2798.2
2931.469	2692.2
2934.811	2915.2
2938.15	2729.2
2941.487	2858.2
2944.821	2436.2
2948.152	2897.2
2951.48	2871.2
2954.805	2750.2
2958.128	2704.2
2961.447	2827.2
2964.765	2700.2
2968.079	2819.2
2971.39	2798.2
2974.699	2828.2
2978.005	2796.2
2981.308	2863.2
2984.609	3038.2
2987.907	2933.2
2991.202	3012.2
2994.494	3032.2
2997.784	2684.2
3001.07	2953.2
3004.355	3058.2
3007.636	3119.2
3010.915	3147.2
3014.191	3217.2
3017.464	3197.2
3020.734	3189.2
3024.002	3325.2
3027.267	3355.2
3030.53	3309.2
3033.789	3390.2
3037.046	3548.2
3040.301	3523.2
3043.552	3595.2
3046.801	3722.2
3050.048	3543.2
3053.291	3517.2
3056.532	3710.2
3059.771	3891.2
3063.006	3889.2
3066.239	3935.2
3069.469	3991.2
3072.697	4276.2
3075.922	4375.2
3079.144	4386.2
3082.364	4419.2
3085.581	4680.2
3088.795	4419.2
3092.007	4742.2
3095.216	4942.2
3098.423	5132.2
3101.627	5206.2
3104.828	5290.2
3108.026	5434.2
3111.222	5467.2
3114.416	5432.2
3117.607	5678.2
3120.795	5735.2
3123.98	5853.2
3127.163	6040.2
3130.344	6100.2
3133.521	6141.2
3136.696	6259.2
3139.869	6359.2
3143.039	6487.2
3146.206	6400.2
3149.371	6561.2
3152.533	6778.2
3155.693	6878.2
3158.85	7009.2
3162.005	6993.2
3165.157	7199.2
3168.306	7254.2
3171.453	7053.2
3174.597	7296.2
3177.739	7358.2
3180.878	7248.2
3184.014	7249.2
3187.149	7281.2
3190.28	7171.2
3193.409	7096.2
3196.536	7097.2
3199.659	7154.2
3202.781	7091.2
3205.9	7289.2
3209.016	7206.2
3212.13	7165.2
3215.241	7115.2
3218.35	7164.2
3221.456	7248.2
3224.56	7293.2
3227.661	7300.2
3230.76	7410.2
3233.856	7303.2
3236.95	7208.2
3240.041	7357.2
3243.13	7095.2
3246.216	7141.2
3249.3	7022.2
3252.382	6991.2
3255.46	7095.2
3258.537	7437.2
3261.611	7035.2
3264.682	6783.2
3267.751	6776.2
3270.818	6942.2
3273.882	6640.2
3276.943	6646.2
3280.002	6480.2
3283.059	6529.2
3286.113	6539.2
3289.165	6613.2
3292.214	6520.2
3295.261	6286.2
3298.306	6451.2
3301.348	6272.2
3304.387	6215.2
3307.425	6167.2
3310.459	6120.2
3313.492	6010.2
3316.521	5853.2
3319.549	5773.2
3322.574	5759.2
3325.597	5638.2
3328.617	5593.2
3331.635	5543.2
3334.65	5601.2
3337.663	5468.2
3340.674	5440.2
3343.682	5310.2
3346.688	5408.2
3349.691	5371.2
3352.692	5454.2
3355.691	5216.2
3358.687	5263.2
3361.681	5230.2
3364.673	5279.2
3367.662	5192.2
3370.649	5087.2
3373.633	5176.2
3376.615	5111.2
3379.595	5249.2
3382.572	5029.2
3385.547	4983.2
3388.52	5086.2
3391.49	4948.2
3394.458	4949.2
3397.424	4717.2
3400.387	4849.2
3403.348	4498.2
3406.307	4662.2
3409.263	4580.2
3412.217	4363.2
3415.168	4383.2
3418.118	4382.2
3421.065	4306.2
3424.009	4109.2
3426.951	4227.2
3429.891	4177.2
3432.829	4128.2
3435.764	4123.2
3438.697	4038.2
3441.628	3785.2
3444.557	3947.2
3447.483	3961.2
3450.407	3682.2
3453.328	3538.2
3456.247	3648.2
3459.164	3713.2
3462.079	3442.2
3464.991	3365.2
3467.902	3306.2
3470.809	3259.2
3473.715	3106.2
3476.618	3100.2
3479.519	2921.2
3482.418	3076.2
3485.315	2904.2
3488.209	2763.2
3491.101	2588.2
3493.99	2733.2
3496.878	2406.2
3499.763	2441.2
3502.646	2393.2
3505.527	2509.2
3508.405	2326.2
3511.281	2249.2
3514.155	2273.2
3517.027	2263.2
3519.897	2341.2
3522.764	2064.2
3525.629	2159.2
3528.492	2010.2
3531.352	1846.2
3534.211	1887.2
3537.067	1873.2
3539.921	1784.2
3542.773	1688.2
3545.622	1660.2
3548.469	1711.2
3551.315	1627.2
3554.157	1503.2
3556.998	1428.2
3559.837	1343.2
3562.673	1249.2
3565.507	1362.2
3568.339	1247.2
3571.169	1291.2
3573.996	1208.2
3576.822	1239.2
3579.645	1215.2
3582.466	1120.2
3585.285	1070.2
3588.101	1028.2
3590.916	1089.2
3593.728	971.2
3596.538	1039.2
3599.346	890.2
3602.152	1022.2
3604.956	919.2
3607.757	761.2
3610.556	944.2
3613.354	831.2
3616.149	735.2
3618.942	753.2
3621.732	554.2
3624.521	787.2
3627.307	721.2
3630.092	663.2
3632.874	585.2
3635.654	680.2
3638.432	777.2
3641.208	632.2
3643.982	650.2
3646.753	584.2
3649.523	667.2
3652.29	601.2
3655.055	493.2
3657.818	433.2
3660.579	390.2
3663.338	634.2
3666.095	462.2
3668.849	655.2
3671.602	405.2
3674.352	617.2
3677.101	452.2
3679.847	267.2
3682.591	508.2
3685.333	499.2
3688.073	360.2
3690.811	469.2
3693.547	389.2
3696.281	400.2
3699.013	353.2
3701.742	351.2
3704.47	458.2
3707.195	326.2
3709.919	278.2
3712.64	381.2
3715.359	235.2
3718.076	101.2
3720.792	423.2
3723.505	328.2
3726.216	267.2
3728.925	395.2
3731.632	158.2
3734.336	406.2
3737.039	274.2
3739.74	284.2
3742.439	385.2
3745.136	276.2
3747.83	202.2
3750.523	260.2
3753.213	776.2
3755.902	281.2
3758.589	399.2
3761.273	352.2
3763.956	124.2
3766.636	318.2
3769.315	46.2
3771.991	352.2
3774.665	248.2
3777.338	390.2
3780.008	305.2
3782.677	98.2
3785.343	387.2
3788.007	391.2
3790.67	205.2
3793.33	191.2
3795.989	311.2
3798.645	160.2
3801.299	350.2
3803.952	173.2
3806.602	173.2
3809.251	238.2
3811.897	229.2
3814.542	259.2
3817.184	178.2
3819.825	295.2
3822.463	-98.8
3825.1	217.2
3827.735	225.2
3830.367	223.2
3832.998	41.2
3835.627	108.2
3838.253	121.2
3840.878	15.2
3843.501	60.2
3846.122	120.2
3848.741	51.2
3851.358	182.2
3853.973	371.2
3856.586	186.2
3859.197	142.2
3861.806	200.2
3864.414	276.2
3867.019	227.2
3869.622	97.2
3872.224	63.2
3874.823	286.2
3877.421	250.2
3880.016	263.2
3882.61	343.2
3885.202	347.2
3887.792	302.2
3890.38	95.2
3892.966	238.2
3895.55	214.2
3898.132	239.2
3900.713	112.2
3903.291	180.2
3905.868	270.2
3908.442	143.2
3911.015	126.2
3913.586	201.2
3916.155	118.2
3918.722	268.2
3921.287	150.2
3923.85	-53.8
3926.411	101.2
3928.971	85.2
3931.528	144.2
3934.084	141.2
3936.638	191.2
3939.19	101.2
3941.74	193.2
3944.288	68.2
3946.834	202.2
3949.378	97.2
3951.921	270.2
3954.462	162.2
3957	84.2
3959.537	240.2
3962.072	306.2
3964.606	295.2
3967.137	64.2
3969.667	214.2
3972.194	185.2
3974.72	214.2
3977.244	293.2
3979.766	98.2
3982.286	299.2
3984.805	127.2
3987.321	58.2
3989.836	181.2
3992.349	292.2
3994.86	212.2
3997.369	161.2
3999.877	129.2
4002.382	206.2
4004.886	159.2
4007.388	201.2
4009.888	297.2
4012.386	128.2
4014.883	144.2
4017.377	190.2
4019.87	58.2
4022.361	263.2
4024.85	302.2
4027.338	132.2
4029.823	108.2
4032.307	133.2
4034.789	275.2
4037.269	214.2
4039.747	182.2
4042.224	120.2
4044.699	231.2
4047.172	254.2
4049.643	118.2
4052.112	235.2
4054.58	217.2
4057.046	144.2
4059.51	245.2
4061.972	154.2
4064.432	342.2
4066.891	77.2
4069.348	266.2
4071.803	116.2
4074.256	160.2
4076.708	117.2
4079.158	268.2
4081.606	22.2
4084.052	205.2
4086.497	146.2
4088.939	273.2
4091.38	224.2
4093.819	148.2
4096.257	-1334.8
4098.693	-1374.8
4101.127	-1400.8
4103.559	-1406.8
4105.989	372.2
4108.418	368.2
4110.845	596.2
4113.27	407.2
4115.694	549.2
4118.115	542.2
4120.535	144.2
4122.954	50.2
4125.37	32.2
4127.785	119.2
4130.198	132.2
4132.609	76.2
4135.019	-1474.8
4137.427	-1394.8
4139.833	-1399.8
4142.237	-1170.8
