Data from 2018-2-8_conc=2_RamanShift_14.txt Node
Date: Wed Feb 07 09:59:40 IST 2018
User: aro
Spectrometer: QEPB0276
Trigger mode: 0
Integration Time (sec): 3.000000E1
Scans to average: 1
Electric dark correction enabled: true
Nonlinearity correction enabled: false
Boxcar width: 0
XAxis mode: Raman Shifts
Number of Pixels in Spectrum: 1044
>>>>>Begin Spectral Data<<<<<
160.701	396.2
166.742	504.2
172.777	977.2
178.805	2656.2
184.826	6160.2
190.841	12314.2
196.849	19718.2
202.85	25289.2
208.845	27342.2
214.833	27080.2
220.815	26682.2
226.789	25298.2
232.758	26383.2
238.719	26250.2
244.674	26075.2
250.623	25517.2
256.565	25113.2
262.5	24632.2
268.429	24014.2
274.351	23704.2
280.267	23499.2
286.176	22963.2
292.079	22665.2
297.975	22264.2
303.865	22130.2
309.748	21942.2
315.625	21777.2
321.495	21395.2
327.359	21401.2
333.217	21376.2
339.068	21379.2
344.912	21362.2
350.751	21234.2
356.583	21260.2
362.408	21284.2
368.227	21300.2
374.04	21371.2
379.847	21433.2
385.647	21528.2
391.44	21747.2
397.228	21779.2
403.009	22012.2
408.784	22105.2
414.553	22191.2
420.315	22251.2
426.071	22297.2
431.821	22311.2
437.565	22293.2
443.302	22043.2
449.033	21988.2
454.758	21947.2
460.477	21807.2
466.189	21629.2
471.896	21660.2
477.596	21472.2
483.29	21487.2
488.978	21539.2
494.66	21534.2
500.335	21442.2
506.005	21222.2
511.668	21076.2
517.325	20967.2
522.977	20764.2
528.622	20757.2
534.261	20584.2
539.894	20500.2
545.521	20367.2
551.141	20380.2
556.756	20088.2
562.365	20000.2
567.968	19823.2
573.565	19675.2
579.155	19593.2
584.74	19516.2
590.319	19315.2
595.892	19342.2
601.459	19363.2
607.02	19332.2
612.575	19358.2
618.124	19196.2
623.667	19335.2
629.204	19206.2
634.735	19289.2
640.261	19128.2
645.781	19271.2
651.294	19014.2
656.802	18820.2
662.304	18652.2
667.8	18428.2
673.29	18509.2
678.775	18226.2
684.254	18353.2
689.726	18353.2
695.193	18213.2
700.655	18137.2
706.11	18380.2
711.56	18197.2
717.004	18259.2
722.442	18213.2
727.874	18222.2
733.301	18242.2
738.722	18224.2
744.137	18122.2
749.547	17989.2
754.951	17904.2
760.349	17717.2
765.741	17635.2
771.128	17631.2
776.509	17602.2
781.885	17589.2
787.254	17606.2
792.618	17634.2
797.977	17766.2
803.33	17842.2
808.677	17810.2
814.019	17768.2
819.355	17712.2
824.686	17809.2
830.011	17789.2
835.33	17564.2
840.644	17309.2
845.952	17333.2
851.255	17081.2
856.552	17103.2
861.844	16927.2
867.13	16823.2
872.41	16806.2
877.686	16759.2
882.955	16837.2
888.219	16889.2
893.478	16945.2
898.731	16784.2
903.979	16757.2
909.221	16821.2
914.458	16712.2
919.69	16445.2
924.916	16408.2
930.136	16178.2
935.351	16117.2
940.561	15804.2
945.766	15768.2
950.965	15594.2
956.158	15730.2
961.347	15796.2
966.529	15711.2
971.707	15720.2
976.879	15687.2
982.046	15761.2
987.208	15827.2
992.364	15748.2
997.515	15585.2
1002.66	15517.2
1007.801	15587.2
1012.936	15440.2
1018.066	15444.2
1023.19	15322.2
1028.309	15309.2
1033.423	15358.2
1038.532	15514.2
1043.636	15592.2
1048.734	15578.2
1053.827	15625.2
1058.915	15682.2
1063.998	15477.2
1069.075	15338.2
1074.147	15213.2
1079.214	15119.2
1084.276	14875.2
1089.333	14792.2
1094.385	14672.2
1099.431	14782.2
1104.472	14678.2
1109.509	14812.2
1114.54	14997.2
1119.565	15004.2
1124.586	15028.2
1129.602	15044.2
1134.613	14929.2
1139.618	14830.2
1144.619	14533.2
1149.614	14403.2
1154.604	14263.2
1159.589	14146.2
1164.57	13990.2
1169.545	13995.2
1174.515	14077.2
1179.48	14160.2
1184.44	14242.2
1189.395	14349.2
1194.345	14427.2
1199.29	14440.2
1204.23	14505.2
1209.165	14358.2
1214.095	14301.2
1219.021	14155.2
1223.941	14183.2
1228.856	14221.2
1233.766	14074.2
1238.672	13971.2
1243.572	14032.2
1248.467	14032.2
1253.358	14174.2
1258.244	14204.2
1263.124	14041.2
1268	13981.2
1272.871	13947.2
1277.737	13888.2
1282.599	13650.2
1287.455	13558.2
1292.306	13284.2
1297.153	13303.2
1301.995	13195.2
1306.832	13143.2
1311.664	13124.2
1316.491	13135.2
1321.314	13131.2
1326.132	13123.2
1330.945	12935.2
1335.753	12878.2
1340.556	12709.2
1345.354	12579.2
1350.148	12316.2
1354.937	12122.2
1359.722	12085.2
1364.501	11903.2
1369.276	11946.2
1374.046	11865.2
1378.811	12044.2
1383.572	12033.2
1388.327	11882.2
1393.079	12309.2
1397.825	12309.2
1402.567	12315.2
1407.304	12220.2
1412.036	12303.2
1416.764	12209.2
1421.487	12401.2
1426.205	12021.2
1430.919	11794.2
1435.628	11752.2
1440.333	11624.2
1445.032	11475.2
1449.727	11540.2
1454.418	11433.2
1459.104	11491.2
1463.785	11274.2
1468.462	11293.2
1473.134	11261.2
1477.802	11077.2
1482.465	11162.2
1487.123	10878.2
1491.777	10988.2
1496.426	10808.2
1501.071	10676.2
1505.711	10746.2
1510.347	10728.2
1514.978	10908.2
1519.604	11064.2
1524.226	11022.2
1528.844	11477.2
1533.457	11229.2
1538.065	11420.2
1542.669	11445.2
1547.269	11510.2
1551.864	11506.2
1556.454	11544.2
1561.041	11444.2
1565.622	11423.2
1570.199	11162.2
1574.772	11159.2
1579.34	10976.2
1583.904	11054.2
1588.464	11076.2
1593.019	11075.2
1597.569	11161.2
1602.115	11205.2
1606.657	11415.2
1611.195	11297.2
1615.728	11392.2
1620.256	11490.2
1624.78	11524.2
1629.3	11483.2
1633.816	11242.2
1638.327	11301.2
1642.834	11164.2
1647.336	11205.2
1651.834	11024.2
1656.328	11104.2
1660.817	10982.2
1665.302	11036.2
1669.783	11043.2
1674.259	10837.2
1678.732	10617.2
1683.199	10326.2
1687.663	10145.2
1692.122	9757.2
1696.577	9517.2
1701.028	9575.2
1705.474	9491.2
1709.917	9458.2
1714.355	9531.2
1718.788	9314.2
1723.218	9202.2
1727.643	8954.2
1732.064	8749.2
1736.481	8854.2
1740.893	8609.2
1745.301	8493.2
1749.705	8498.2
1754.105	8044.2
1758.501	7999.2
1762.893	7712.2
1767.28	7636.2
1771.663	7429.2
1776.042	7256.2
1780.417	7185.2
1784.787	7012.2
1789.154	7027.2
1793.516	7041.2
1797.874	7203.2
1802.228	7333.2
1806.578	7557.2
1810.924	7435.2
1815.266	7876.2
1819.603	7500.2
1823.937	7496.2
1828.266	7415.2
1832.591	7363.2
1836.913	7257.2
1841.23	7243.2
1845.543	7156.2
1849.852	7051.2
1854.156	7000.2
1858.457	6993.2
1862.754	6700.2
1867.047	6849.2
1871.335	6749.2
1875.62	6640.2
1879.9	6627.2
1884.177	6752.2
1888.449	6662.2
1892.718	6717.2
1896.982	6612.2
1901.243	6732.2
1905.499	6671.2
1909.752	6604.2
1914	6675.2
1918.245	6592.2
1922.485	6617.2
1926.722	6690.2
1930.954	6665.2
1935.183	6633.2
1939.408	6692.2
1943.628	6769.2
1947.845	6785.2
1952.058	6807.2
1956.267	6650.2
1960.472	6685.2
1964.673	6725.2
1968.87	6802.2
1973.063	6740.2
1977.252	6592.2
1981.438	6514.2
1985.619	6407.2
1989.797	6274.2
1993.971	6260.2
1998.14	6094.2
2002.306	6148.2
2006.469	6113.2
2010.627	6038.2
2014.781	6047.2
2018.932	6068.2
2023.078	5842.2
2027.221	5883.2
2031.36	5905.2
2035.495	5971.2
2039.627	5846.2
2043.754	5784.2
2047.878	5705.2
2051.998	5686.2
2056.114	5738.2
2060.226	5705.2
2064.334	5601.2
2068.439	5492.2
2072.54	5532.2
2076.637	5712.2
2080.73	5630.2
2084.82	5582.2
2088.906	5681.2
2092.988	5543.2
2097.066	5782.2
2101.14	5606.2
2105.211	5701.2
2109.278	5728.2
2113.342	5729.2
2117.401	5756.2
2121.457	5742.2
2125.509	5688.2
2129.558	5475.2
2133.602	5596.2
2137.643	5464.2
2141.681	5407.2
2145.714	5391.2
2149.744	5279.2
2153.77	5315.2
2157.793	5236.2
2161.812	5276.2
2165.827	5273.2
2169.838	5081.2
2173.846	5125.2
2177.851	5005.2
2181.851	4999.2
2185.848	4982.2
2189.841	4906.2
2193.831	4936.2
2197.817	4705.2
2201.799	4740.2
2205.778	4812.2
2209.753	4704.2
2213.725	4739.2
2217.693	4651.2
2221.657	4712.2
2225.618	4261.2
2229.575	4565.2
2233.529	4521.2
2237.479	4534.2
2241.425	4515.2
2245.368	4636.2
2249.307	4545.2
2253.243	4533.2
2257.175	4491.2
2261.104	4406.2
2265.029	4341.2
2268.95	4308.2
2272.868	4192.2
2276.783	4165.2
2280.694	3892.2
2284.601	3971.2
2288.505	4056.2
2292.405	3883.2
2296.302	3953.2
2300.195	3886.2
2304.085	3957.2
2307.971	3863.2
2311.854	3866.2
2315.734	3824.2
2319.609	3752.2
2323.482	3881.2
2327.351	3741.2
2331.216	3692.2
2335.078	3721.2
2338.937	3713.2
2342.792	3761.2
2346.643	3608.2
2350.492	3507.2
2354.336	3584.2
2358.178	3519.2
2362.015	3517.2
2365.85	3650.2
2369.681	3642.2
2373.508	3613.2
2377.333	3533.2
2381.153	3641.2
2384.971	3612.2
2388.785	3619.2
2392.595	3628.2
2396.402	3666.2
2400.206	3672.2
2404.007	3653.2
2407.804	3532.2
2411.597	3455.2
2415.388	3530.2
2419.174	3517.2
2422.958	3395.2
2426.738	3411.2
2430.515	3262.2
2434.289	3451.2
2438.059	3360.2
2441.825	3357.2
2445.589	3147.2
2449.349	3329.2
2453.106	3244.2
2456.859	3221.2
2460.61	3094.2
2464.356	3162.2
2468.1	3164.2
2471.84	3181.2
2475.577	3143.2
2479.311	3123.2
2483.041	3048.2
2486.768	2922.2
2490.492	2812.2
2494.213	3215.2
2497.93	3049.2
2501.644	3075.2
2505.355	3064.2
2509.062	3016.2
2512.766	2994.2
2516.467	3037.2
2520.165	3001.2
2523.859	3021.2
2527.551	2885.2
2531.239	2951.2
2534.923	3000.2
2538.605	3026.2
2542.283	2913.2
2545.958	2939.2
2549.63	2819.2
2553.299	2916.2
2556.964	2890.2
2560.626	2906.2
2564.285	2802.2
2567.941	2903.2
2571.594	2874.2
2575.243	2802.2
2578.89	2827.2
2582.533	2878.2
2586.173	2826.2
2589.809	2770.2
2593.443	2918.2
2597.073	2790.2
2600.701	2658.2
2604.325	2753.2
2607.946	2739.2
2611.564	2696.2
2615.178	2602.2
2618.79	2581.2
2622.398	2654.2
2626.004	2636.2
2629.606	2522.2
2633.205	2689.2
2636.801	2519.2
2640.394	2550.2
2643.983	2534.2
2647.57	2565.2
2651.153	2414.2
2654.734	2366.2
2658.311	2550.2
2661.885	2401.2
2665.456	2362.2
2669.025	2298.2
2672.589	2314.2
2676.151	2270.2
2679.71	2249.2
2683.266	2218.2
2686.819	2224.2
2690.368	2163.2
2693.915	2143.2
2697.458	2234.2
2700.999	2116.2
2704.536	2078.2
2708.071	2044.2
2711.602	2016.2
2715.13	1986.2
2718.656	2028.2
2722.178	1910.2
2725.697	2000.2
2729.214	1679.2
2732.727	1878.2
2736.237	1999.2
2739.744	1855.2
2743.249	1917.2
2746.75	1854.2
2750.248	2046.2
2753.743	2021.2
2757.236	2004.2
2760.725	2028.2
2764.211	2191.2
2767.695	1995.2
2771.175	2009.2
2774.652	1990.2
2778.127	1998.2
2781.598	2020.2
2785.067	1955.2
2788.532	1964.2
2791.995	1943.2
2795.455	1974.2
2798.911	2001.2
2802.365	2060.2
2805.816	1965.2
2809.264	1931.2
2812.709	1992.2
2816.151	1971.2
2819.59	2064.2
2823.026	2116.2
2826.46	2054.2
2829.89	2018.2
2833.318	2237.2
2836.742	2059.2
2840.164	2084.2
2843.583	2100.2
2846.999	2096.2
2850.412	2034.2
2853.822	2115.2
2857.229	2041.2
2860.634	2072.2
2864.035	2093.2
2867.434	2038.2
2870.83	2095.2
2874.223	2192.2
2877.613	2091.2
2881	2289.2
2884.385	2315.2
2887.766	2294.2
2891.145	2239.2
2894.521	2400.2
2897.894	2372.2
2901.264	2157.2
2904.631	2393.2
2907.996	2338.2
2911.358	2387.2
2914.717	2311.2
2918.073	2333.2
2921.426	2335.2
2924.777	2435.2
2928.124	2458.2
2931.469	2345.2
2934.811	2557.2
2938.15	2458.2
2941.487	2502.2
2944.821	2486.2
2948.152	2564.2
2951.48	2554.2
2954.805	2500.2
2958.128	2452.2
2961.447	2590.2
2964.765	2458.2
2968.079	2591.2
2971.39	2555.2
2974.699	2572.2
2978.005	2562.2
2981.308	2625.2
2984.609	2740.2
2987.907	2670.2
2991.202	2732.2
2994.494	2833.2
2997.784	2465.2
3001.07	2697.2
3004.355	2813.2
3007.636	2870.2
3010.915	2917.2
3014.191	3012.2
3017.464	2985.2
3020.734	3029.2
3024.002	3048.2
3027.267	3101.2
3030.53	3179.2
3033.789	3173.2
3037.046	3353.2
3040.301	3278.2
3043.552	3356.2
3046.801	3451.2
3050.048	3340.2
3053.291	3385.2
3056.532	3588.2
3059.771	3668.2
3063.006	3610.2
3066.239	3702.2
3069.469	3805.2
3072.697	4045.2
3075.922	4111.2
3079.144	4121.2
3082.364	4207.2
3085.581	4479.2
3088.795	4409.2
3092.007	4502.2
3095.216	4770.2
3098.423	4911.2
3101.627	5087.2
3104.828	5188.2
3108.026	5243.2
3111.222	5321.2
3114.416	5335.2
3117.607	5463.2
3120.795	5606.2
3123.98	5673.2
3127.163	5878.2
3130.344	5923.2
3133.521	5976.2
3136.696	6122.2
3139.869	6235.2
3143.039	6401.2
3146.206	6342.2
3149.371	6547.2
3152.533	6718.2
3155.693	6827.2
3158.85	6875.2
3162.005	6965.2
3165.157	7092.2
3168.306	7054.2
3171.453	7027.2
3174.597	7250.2
3177.739	7288.2
3180.878	7083.2
3184.014	7197.2
3187.149	7175.2
3190.28	7131.2
3193.409	7070.2
3196.536	7125.2
3199.659	7093.2
3202.781	7099.2
3205.9	7264.2
3209.016	7121.2
3212.13	7164.2
3215.241	6984.2
3218.35	7091.2
3221.456	7230.2
3224.56	7255.2
3227.661	7233.2
3230.76	7321.2
3233.856	7232.2
3236.95	7148.2
3240.041	7265.2
3243.13	7058.2
3246.216	7069.2
3249.3	6933.2
3252.382	6965.2
3255.46	6981.2
3258.537	6161.2
3261.611	6970.2
3264.682	6793.2
3267.751	6760.2
3270.818	6776.2
3273.882	6585.2
3276.943	6540.2
3280.002	6462.2
3283.059	6524.2
3286.113	6480.2
3289.165	6486.2
3292.214	6433.2
3295.261	6287.2
3298.306	6408.2
3301.348	6124.2
3304.387	6206.2
3307.425	5999.2
3310.459	6013.2
3313.492	5795.2
3316.521	5790.2
3319.549	5661.2
3322.574	5668.2
3325.597	5555.2
3328.617	5537.2
3331.635	5452.2
3334.65	5453.2
3337.663	5400.2
3340.674	5379.2
3343.682	5252.2
3346.688	5228.2
3349.691	5272.2
3352.692	5286.2
3355.691	5027.2
3358.687	5195.2
3361.681	5182.2
3364.673	5170.2
3367.662	5079.2
3370.649	4977.2
3373.633	5086.2
3376.615	4873.2
3379.595	5079.2
3382.572	4881.2
3385.547	4813.2
3388.52	4925.2
3391.49	4776.2
3394.458	4805.2
3397.424	4630.2
3400.387	4659.2
3403.348	4410.2
3406.307	4444.2
3409.263	4426.2
3412.217	4292.2
3415.168	4249.2
3418.118	4227.2
3421.065	4168.2
3424.009	4024.2
3426.951	4073.2
3429.891	3759.2
3432.829	4012.2
3435.764	3883.2
3438.697	3963.2
3441.628	3774.2
3444.557	3757.2
3447.483	3783.2
3450.407	3597.2
3453.328	3510.2
3456.247	3565.2
3459.164	3429.2
3462.079	3298.2
3464.991	3267.2
3467.902	3269.2
3470.809	3101.2
3473.715	2981.2
3476.618	2930.2
3479.519	2822.2
3482.418	2840.2
3485.315	2684.2
3488.209	2551.2
3491.101	2581.2
3493.99	2576.2
3496.878	2190.2
3499.763	2242.2
3502.646	2248.2
3505.527	2322.2
3508.405	2117.2
3511.281	2090.2
3514.155	2091.2
3517.027	1994.2
3519.897	2104.2
3522.764	1855.2
3525.629	1876.2
3528.492	1805.2
3531.352	1821.2
3534.211	1624.2
3537.067	1643.2
3539.921	1568.2
3542.773	1488.2
3545.622	1426.2
3548.469	1458.2
3551.315	1386.2
3554.157	1273.2
3556.998	1170.2
3559.837	1077.2
3562.673	1019.2
3565.507	1069.2
3568.339	1036.2
3571.169	1034.2
3573.996	967.2
3576.822	973.2
3579.645	914.2
3582.466	911.2
3585.285	783.2
3588.101	774.2
3590.916	819.2
3593.728	758.2
3596.538	758.2
3599.346	689.2
3602.152	707.2
3604.956	606.2
3607.757	555.2
3610.556	676.2
3613.354	617.2
3616.149	532.2
3618.942	502.2
3621.732	344.2
3624.521	525.2
3627.307	414.2
3630.092	445.2
3632.874	277.2
3635.654	408.2
3638.432	481.2
3641.208	372.2
3643.982	374.2
3646.753	278.2
3649.523	389.2
3652.29	311.2
3655.055	392.2
3657.818	212.2
3660.579	333.2
3663.338	345.2
3666.095	168.2
3668.849	346.2
3671.602	183.2
3674.352	283.2
3677.101	162.2
3679.847	121.2
3682.591	192.2
3685.333	174.2
3688.073	127.2
3690.811	180.2
3693.547	282.2
3696.281	130.2
3699.013	57.2
3701.742	70.2
3704.47	161.2
3707.195	81.2
3709.919	53.2
3712.64	58.2
3715.359	-113.8
3718.076	-168.8
3720.792	40.2
3723.505	54.2
3726.216	20.2
3728.925	40.2
3731.632	-151.8
3734.336	102.2
3737.039	31.2
3739.74	15.2
3742.439	219.2
3745.136	-30.8
3747.83	-69.8
3750.523	-79.8
3753.213	40.2
3755.902	29.2
3758.589	10.2
3761.273	62.2
3763.956	-148.8
3766.636	-0.8
3769.315	-168.8
3771.991	68.2
3774.665	-139.8
3777.338	83.2
3780.008	15.2
3782.677	-20.8
3785.343	113.2
3788.007	4.2
3790.67	-82.8
3793.33	-136.8
3795.989	10.2
3798.645	-112.8
3801.299	76.2
3803.952	-49.8
3806.602	-87.8
3809.251	-76.8
3811.897	-80.8
3814.542	-70.8
3817.184	-89.8
3819.825	-19.8
3822.463	-29.8
3825.1	-33.8
3827.735	-29.8
3830.367	-85.8
3832.998	-184.8
3835.627	-188.8
3838.253	-74.8
3840.878	-91.8
3843.501	-199.8
3846.122	-164.8
3848.741	-218.8
3851.358	-90.8
3853.973	-42.8
3856.586	-87.8
3859.197	-115.8
3861.806	-153.8
3864.414	-11.8
3867.019	-97.8
3869.622	-101.8
3872.224	-172.8
3874.823	-25.8
3877.421	-7.8
3880.016	8.2
3882.61	102.2
3885.202	-19.8
3887.792	45.2
3890.38	-96.8
3892.966	-7.8
3895.55	-105.8
3898.132	-65.8
3900.713	-148.8
3903.291	-148.8
3905.868	-130.8
3908.442	-59.8
3911.015	-123.8
3913.586	-130.8
3916.155	-50.8
3918.722	-37.8
3921.287	-137.8
3923.85	-43.8
3926.411	-172.8
3928.971	-183.8
3931.528	-128.8
3934.084	-141.8
3936.638	-94.8
3939.19	-145.8
3941.74	-165.8
3944.288	-177.8
3946.834	-158.8
3949.378	-128.8
3951.921	-49.8
3954.462	-128.8
3957	-140.8
3959.537	-65.8
3962.072	-39.8
3964.606	37.2
3967.137	-131.8
3969.667	-112.8
3972.194	-92.8
3974.72	-97.8
3977.244	-60.8
3979.766	-36.8
3982.286	37.2
3984.805	-145.8
3987.321	-131.8
3989.836	-136.8
3992.349	-75.8
3994.86	-114.8
3997.369	-82.8
3999.877	-191.8
4002.382	-139.8
4004.886	-102.8
4007.388	-23.8
4009.888	-33.8
4012.386	-130.8
4014.883	-90.8
4017.377	-89.8
4019.87	-202.8
4022.361	-31.8
4024.85	-100.8
4027.338	-43.8
4029.823	-156.8
4032.307	-136.8
4034.789	-75.8
4037.269	-29.8
4039.747	-38.8
4042.224	-118.8
4044.699	-70.8
4047.172	-77.8
4049.643	-144.8
4052.112	25.2
4054.58	-39.8
4057.046	-89.8
4059.51	-68.8
4061.972	-130.8
4064.432	59.2
4066.891	-208.8
4069.348	-76.8
4071.803	-149.8
4074.256	-133.8
4076.708	-22.8
4079.158	-105.8
4081.606	-172.8
4084.052	-105.8
4086.497	-128.8
4088.939	-19.8
4091.38	-47.8
4093.819	-76.8
4096.257	-1106.8
4098.693	-1121.8
4101.127	-1158.8
4103.559	-1186.8
4105.989	89.2
4108.418	62.2
4110.845	238.2
4113.27	166.2
4115.694	279.2
4118.115	306.2
4120.535	-184.8
4122.954	-178.8
4125.37	-254.8
4127.785	-99.8
4130.198	-165.8
4132.609	-134.8
4135.019	-1202.8
4137.427	-1192.8
4139.833	-1123.8
4142.237	-1014.8
