Data from 2018-2-8_conc=0_RamanShift_22.txt Node
Date: Wed Feb 07 09:39:40 IST 2018
User: aro
Spectrometer: QEPB0276
Trigger mode: 0
Integration Time (sec): 3.000000E1
Scans to average: 1
Electric dark correction enabled: true
Nonlinearity correction enabled: false
Boxcar width: 0
XAxis mode: Raman Shifts
Number of Pixels in Spectrum: 1044
>>>>>Begin Spectral Data<<<<<
160.701	425
166.742	560
172.777	1072
178.805	2546
184.826	5949
190.841	11698
196.849	18552
202.85	23589
208.845	25404
214.833	25165
220.815	24886
226.789	24620
232.758	24546
238.719	24312
244.674	24115
250.623	23655
256.565	23211
262.5	22734
268.429	22096
274.351	21848
280.267	21730
286.176	21123
292.079	20882
297.975	20493
303.865	20359
309.748	20168
315.625	20075
321.495	19607
327.359	19635
333.217	19645
339.068	19658
344.912	19607
350.751	19577
356.583	19473
362.408	19509
368.227	19558
374.04	19531
379.847	19617
385.647	19782
391.44	19945
397.228	20031
403.009	20191
408.784	20237
414.553	20419
420.315	20477
426.071	20479
431.821	20454
437.565	20446
443.302	20200
449.033	20217
454.758	20123
460.477	19945
466.189	19887
471.896	19809
477.596	19651
483.29	19776
488.978	19766
494.66	19659
500.335	19631
506.005	19585
511.668	19340
517.325	19216
522.977	19088
528.622	19039
534.261	18836
539.894	18809
545.521	18636
551.141	18565
556.756	18356
562.365	18327
567.968	18112
573.565	18053
579.155	17982
584.74	17796
590.319	17682
595.892	17695
601.459	17689
607.02	17639
612.575	17660
618.124	17516
623.667	17634
629.204	17581
634.735	17590
640.261	17452
645.781	17562
651.294	17338
656.802	17177
662.304	17027
667.8	16812
673.29	16919
678.775	16771
684.254	16787
689.726	16733
695.193	16584
700.655	16614
706.11	16756
711.56	16577
717.004	16683
722.442	16866
727.874	16660
733.301	16730
738.722	16778
744.137	16460
749.547	16409
754.951	16416
760.349	16260
765.741	16028
771.128	16077
776.509	16116
781.885	16046
787.254	16022
792.618	16100
797.977	16252
803.33	16254
808.677	16228
814.019	16160
819.355	16239
824.686	16272
830.011	16210
835.33	15917
840.644	15799
845.952	15881
851.255	15622
856.552	15562
861.844	15344
867.13	15360
872.41	15245
877.686	15205
882.955	15345
888.219	15343
893.478	15486
898.731	15370
903.979	15276
909.221	15342
914.458	15236
919.69	15041
924.916	15012
930.136	14722
935.351	14735
940.561	14386
945.766	14384
950.965	14239
956.158	14260
961.347	14370
966.529	14385
971.707	14290
976.879	14293
982.046	14290
987.208	14356
992.364	14192
997.515	14174
1002.66	14059
1007.801	14174
1012.936	14051
1018.066	14137
1023.19	13852
1028.309	13851
1033.423	13965
1038.532	14005
1043.636	14231
1048.734	14147
1053.827	14312
1058.915	14240
1063.998	14083
1069.075	13864
1074.147	13762
1079.214	13743
1084.276	13449
1089.333	13440
1094.385	13459
1099.431	13360
1104.472	13321
1109.509	13488
1114.54	13637
1119.565	13611
1124.586	13631
1129.602	13593
1134.613	13596
1139.618	13407
1144.619	13243
1149.614	13053
1154.604	12888
1159.589	12884
1164.57	12687
1169.545	12722
1174.515	12714
1179.48	12812
1184.44	12896
1189.395	13028
1194.345	13125
1199.29	13078
1204.23	13159
1209.165	13106
1214.095	12987
1219.021	12937
1223.941	12942
1228.856	12800
1233.766	12831
1238.672	12667
1243.572	12655
1248.467	12764
1253.358	12806
1258.244	12852
1263.124	12738
1268	12637
1272.871	12630
1277.737	12593
1282.599	12355
1287.455	12080
1292.306	12071
1297.153	12056
1301.995	11855
1306.832	11891
1311.664	11860
1316.491	11904
1321.314	11920
1326.132	11826
1330.945	11873
1335.753	11759
1340.556	11597
1345.354	11448
1350.148	11256
1354.937	11021
1359.722	11058
1364.501	10795
1369.276	10781
1374.046	10692
1378.811	10806
1383.572	10825
1388.327	10702
1393.079	11060
1397.825	11202
1402.567	11078
1407.304	11026
1412.036	11076
1416.764	11074
1421.487	11137
1426.205	10830
1430.919	10636
1435.628	10556
1440.333	10578
1445.032	10426
1449.727	10452
1454.418	10402
1459.104	10335
1463.785	10235
1468.462	10321
1473.134	10149
1477.802	10134
1482.465	10134
1487.123	9865
1491.777	9949
1496.426	9871
1501.071	9691
1505.711	9760
1510.347	9732
1514.978	9831
1519.604	9897
1524.226	10010
1528.844	10250
1533.457	10128
1538.065	10285
1542.669	10264
1547.269	10365
1551.864	10306
1556.454	10329
1561.041	10400
1565.622	10336
1570.199	10100
1574.772	10067
1579.34	9822
1583.904	10029
1588.464	10006
1593.019	9980
1597.569	10204
1602.115	10223
1606.657	10299
1611.195	10226
1615.728	10334
1620.256	10382
1624.78	10380
1629.3	10366
1633.816	10261
1638.327	10201
1642.834	10162
1647.336	10226
1651.834	10010
1656.328	10161
1660.817	9966
1665.302	10084
1669.783	10031
1674.259	9863
1678.732	9680
1683.199	9410
1687.663	9370
1692.122	8910
1696.577	8726
1701.028	8742
1705.474	8569
1709.917	8511
1714.355	8574
1718.788	8378
1723.218	8264
1727.643	8042
1732.064	7994
1736.481	7997
1740.893	7697
1745.301	7597
1749.705	7685
1754.105	7247
1758.501	7271
1762.893	6939
1767.28	6871
1771.663	6676
1776.042	6608
1780.417	6497
1784.787	6324
1789.154	6361
1793.516	6305
1797.874	6529
1802.228	6627
1806.578	6768
1810.924	6645
1815.266	7387
1819.603	6714
1823.937	6760
1828.266	6673
1832.591	6577
1836.913	6495
1841.23	6556
1845.543	6463
1849.852	6263
1854.156	6312
1858.457	6270
1862.754	6338
1867.047	6181
1871.335	6022
1875.62	6111
1879.9	6044
1884.177	6127
1888.449	6006
1892.718	6017
1896.982	5939
1901.243	6095
1905.499	6038
1909.752	5969
1914	6023
1918.245	5994
1922.485	5943
1926.722	6012
1930.954	5994
1935.183	6044
1939.408	6015
1943.628	6013
1947.845	6038
1952.058	6098
1956.267	6073
1960.472	5960
1964.673	6054
1968.87	6015
1973.063	6028
1977.252	5936
1981.438	5856
1985.619	5749
1989.797	5700
1993.971	5615
1998.14	5439
2002.306	5517
2006.469	5468
2010.627	5478
2014.781	5409
2018.932	5494
2023.078	5229
2027.221	5332
2031.36	5319
2035.495	5438
2039.627	5248
2043.754	5271
2047.878	5147
2051.998	5160
2056.114	5127
2060.226	5143
2064.334	5093
2068.439	4986
2072.54	5005
2076.637	5169
2080.73	5071
2084.82	5067
2088.906	5129
2092.988	5177
2097.066	5189
2101.14	5086
2105.211	5127
2109.278	5105
2113.342	5234
2117.401	5226
2121.457	5142
2125.509	5143
2129.558	4936
2133.602	5045
2137.643	4927
2141.681	4855
2145.714	4887
2149.744	4796
2153.77	4796
2157.793	4720
2161.812	4793
2165.827	4733
2169.838	4604
2173.846	4628
2177.851	4479
2181.851	4434
2185.848	4638
2189.841	4399
2193.831	4468
2197.817	4294
2201.799	4232
2205.778	4320
2209.753	4247
2213.725	4267
2217.693	4202
2221.657	4201
2225.618	4113
2229.575	4161
2233.529	4005
2237.479	4106
2241.425	4091
2245.368	4203
2249.307	4105
2253.243	4061
2257.175	4088
2261.104	3948
2265.029	3853
2268.95	3835
2272.868	3721
2276.783	3794
2280.694	3645
2284.601	3647
2288.505	3600
2292.405	3486
2296.302	3557
2300.195	3544
2304.085	3567
2307.971	3479
2311.854	3443
2315.734	3362
2319.609	3401
2323.482	3481
2327.351	3363
2331.216	3361
2335.078	3334
2338.937	3291
2342.792	3314
2346.643	3286
2350.492	3233
2354.336	3270
2358.178	3244
2362.015	3168
2365.85	3258
2369.681	3263
2373.508	3329
2377.333	3237
2381.153	3264
2384.971	3276
2388.785	3202
2392.595	3282
2396.402	3320
2400.206	3302
2404.007	3322
2407.804	3218
2411.597	3108
2415.388	3210
2419.174	3143
2422.958	3111
2426.738	3051
2430.515	2945
2434.289	3046
2438.059	3077
2441.825	3089
2445.589	2862
2449.349	3003
2453.106	2924
2456.859	2867
2460.61	2931
2464.356	2939
2468.1	2951
2471.84	2915
2475.577	2904
2479.311	2837
2483.041	2776
2486.768	2649
2490.492	2531
2494.213	2926
2497.93	2733
2501.644	2785
2505.355	2752
2509.062	2611
2512.766	2745
2516.467	2747
2520.165	2715
2523.859	2765
2527.551	2605
2531.239	2673
2534.923	2660
2538.605	2744
2542.283	2591
2545.958	2699
2549.63	2535
2553.299	2601
2556.964	2631
2560.626	2599
2564.285	2525
2567.941	2627
2571.594	2651
2575.243	2476
2578.89	2608
2582.533	2572
2586.173	2562
2589.809	2494
2593.443	2713
2597.073	2584
2600.701	2380
2604.325	2526
2607.946	2528
2611.564	2399
2615.178	2349
2618.79	2342
2622.398	2440
2626.004	2382
2629.606	2312
2633.205	2527
2636.801	2344
2640.394	2268
2643.983	2280
2647.57	2396
2651.153	2247
2654.734	2157
2658.311	2331
2661.885	2212
2665.456	2169
2669.025	2181
2672.589	2141
2676.151	2052
2679.71	2027
2683.266	1982
2686.819	2034
2690.368	1986
2693.915	1977
2697.458	2057
2700.999	1888
2704.536	1893
2708.071	1904
2711.602	1892
2715.13	1894
2718.656	1906
2722.178	1787
2725.697	1875
2729.214	1576
2732.727	1729
2736.237	1857
2739.744	1723
2743.249	1785
2746.75	1799
2750.248	1864
2753.743	1845
2757.236	1814
2760.725	1849
2764.211	2069
2767.695	1835
2771.175	1837
2774.652	1858
2778.127	1846
2781.598	1794
2785.067	1772
2788.532	1871
2791.995	1773
2795.455	1743
2798.911	1740
2802.365	1863
2805.816	1800
2809.264	1800
2812.709	1869
2816.151	1850
2819.59	1926
2823.026	1877
2826.46	1914
2829.89	1889
2833.318	2128
2836.742	1902
2840.164	1885
2843.583	1943
2846.999	1923
2850.412	1865
2853.822	2030
2857.229	1828
2860.634	1933
2864.035	2003
2867.434	1912
2870.83	1912
2874.223	2088
2877.613	2013
2881	2143
2884.385	2194
2887.766	2166
2891.145	2362
2894.521	2146
2897.894	2220
2901.264	1938
2904.631	2222
2907.996	2184
2911.358	2228
2914.717	2224
2918.073	2203
2921.426	2158
2924.777	2308
2928.124	2335
2931.469	2230
2934.811	2439
2938.15	2344
2941.487	2393
2944.821	2290
2948.152	2440
2951.48	2390
2954.805	2375
2958.128	2317
2961.447	2417
2964.765	2309
2968.079	2487
2971.39	2422
2974.699	2461
2978.005	2428
2981.308	2509
2984.609	2602
2987.907	2507
2991.202	2634
2994.494	2695
2997.784	2431
3001.07	2623
3004.355	2652
3007.636	2718
3010.915	2813
3014.191	2899
3017.464	2851
3020.734	2837
3024.002	2914
3027.267	2933
3030.53	2935
3033.789	3028
3037.046	3204
3040.301	3133
3043.552	3161
3046.801	3313
3050.048	3169
3053.291	3186
3056.532	3409
3059.771	3445
3063.006	3450
3066.239	3529
3069.469	3693
3072.697	3873
3075.922	3950
3079.144	3984
3082.364	3988
3085.581	4231
3088.795	4235
3092.007	4323
3095.216	4536
3098.423	4728
3101.627	4866
3104.828	4957
3108.026	5040
3111.222	5032
3114.416	5053
3117.607	5316
3120.795	5355
3123.98	5463
3127.163	5633
3130.344	5650
3133.521	5695
3136.696	5820
3139.869	5909
3143.039	6051
3146.206	6097
3149.371	6249
3152.533	6372
3155.693	6491
3158.85	6574
3162.005	6607
3165.157	6717
3168.306	6738
3171.453	6728
3174.597	6888
3177.739	6958
3180.878	6833
3184.014	6734
3187.149	6890
3190.28	6835
3193.409	6767
3196.536	6818
3199.659	6752
3202.781	6723
3205.9	6866
3209.016	6795
3212.13	6777
3215.241	6723
3218.35	6795
3221.456	6887
3224.56	6925
3227.661	6944
3230.76	6907
3233.856	6949
3236.95	6869
3240.041	6951
3243.13	6712
3246.216	6862
3249.3	6620
3252.382	6635
3255.46	6722
3258.537	5972
3261.611	6631
3264.682	6476
3267.751	6468
3270.818	6474
3273.882	6316
3276.943	6200
3280.002	6177
3283.059	6176
3286.113	6190
3289.165	6191
3292.214	6131
3295.261	5983
3298.306	5988
3301.348	5893
3304.387	5806
3307.425	5698
3310.459	5788
3313.492	5481
3316.521	5557
3319.549	5412
3322.574	5377
3325.597	5244
3328.617	5270
3331.635	5158
3334.65	5215
3337.663	5129
3340.674	5104
3343.682	4999
3346.688	5001
3349.691	4975
3352.692	5052
3355.691	4870
3358.687	4934
3361.681	4966
3364.673	4918
3367.662	4858
3370.649	4861
3373.633	4900
3376.615	4778
3379.595	4914
3382.572	4684
3385.547	4607
3388.52	4669
3391.49	4589
3394.458	4539
3397.424	4385
3400.387	4494
3403.348	4154
3406.307	4193
3409.263	4196
3412.217	4081
3415.168	4069
3418.118	4071
3421.065	3941
3424.009	3870
3426.951	3912
3429.891	3690
3432.829	3819
3435.764	3781
3438.697	3821
3441.628	3586
3444.557	3699
3447.483	3616
3450.407	3462
3453.328	3467
3456.247	3397
3459.164	3393
3462.079	3141
3464.991	3100
3467.902	3054
3470.809	2951
3473.715	2842
3476.618	2822
3479.519	2670
3482.418	2812
3485.315	2605
3488.209	2535
3491.101	2459
3493.99	2509
3496.878	2158
3499.763	2160
3502.646	2173
3505.527	2238
3508.405	2100
3511.281	2047
3514.155	2012
3517.027	1990
3519.897	2096
3522.764	1820
3525.629	1854
3528.492	1756
3531.352	1800
3534.211	1592
3537.067	1626
3539.921	1533
3542.773	1503
3545.622	1475
3548.469	1426
3551.315	1380
3554.157	1262
3556.998	1168
3559.837	1132
3562.673	979
3565.507	1085
3568.339	1035
3571.169	1017
3573.996	983
3576.822	991
3579.645	917
3582.466	915
3585.285	792
3588.101	745
3590.916	837
3593.728	717
3596.538	844
3599.346	699
3602.152	749
3604.956	748
3607.757	568
3610.556	750
3613.354	592
3616.149	629
3618.942	549
3621.732	327
3624.521	578
3627.307	474
3630.092	492
3632.874	367
3635.654	473
3638.432	523
3641.208	397
3643.982	416
3646.753	399
3649.523	446
3652.29	425
3655.055	359
3657.818	243
3660.579	408
3663.338	462
3666.095	220
3668.849	441
3671.602	226
3674.352	384
3677.101	222
3679.847	155
3682.591	272
3685.333	253
3688.073	139
3690.811	272
3693.547	348
3696.281	224
3699.013	110
3701.742	178
3704.47	282
3707.195	143
3709.919	159
3712.64	142
3715.359	3
3718.076	46
3720.792	73
3723.505	101
3726.216	74
3728.925	117
3731.632	24
3734.336	173
3737.039	58
3739.74	110
3742.439	125
3745.136	54
3747.83	36
3750.523	53
3753.213	127
3755.902	34
3758.589	72
3761.273	107
3763.956	-56
3766.636	63
3769.315	-106
3771.991	169
3774.665	9
3777.338	40
3780.008	112
3782.677	117
3785.343	180
3788.007	129
3790.67	4
3793.33	-22
3795.989	78
3798.645	20
3801.299	123
3803.952	-77
3806.602	10
3809.251	-9
3811.897	93
3814.542	15
3817.184	-160
3819.825	125
3822.463	75
3825.1	26
3827.735	31
3830.367	22
3832.998	-86
3835.627	-53
3838.253	-57
3840.878	6
3843.501	-77
3846.122	-114
3848.741	-69
3851.358	-23
3853.973	60
3856.586	2
3859.197	-47
3861.806	-24
3864.414	42
3867.019	-8
3869.622	-77
3872.224	-6
3874.823	-1
3877.421	88
3880.016	71
3882.61	189
3885.202	108
3887.792	82
3890.38	-38
3892.966	45
3895.55	45
3898.132	39
3900.713	-73
3903.291	11
3905.868	-96
3908.442	-11
3911.015	-22
3913.586	-28
3916.155	-13
3918.722	39
3921.287	3
3923.85	56
3926.411	-72
3928.971	-97
3931.528	-18
3934.084	-66
3936.638	26
3939.19	-58
3941.74	-42
3944.288	-64
3946.834	-12
3949.378	-59
3951.921	42
3954.462	-13
3957	-69
3959.537	4
3962.072	68
3964.606	80
3967.137	-10
3969.667	-31
3972.194	6
3974.72	-17
3977.244	30
3979.766	7
3982.286	71
3984.805	-42
3987.321	-80
3989.836	-29
3992.349	51
3994.86	20
3997.369	0
3999.877	-20
4002.382	-24
4004.886	-29
4007.388	-34
4009.888	83
4012.386	-107
4014.883	-6
4017.377	-16
4019.87	-127
4022.361	49
4024.85	12
4027.338	-28
4029.823	-19
4032.307	-9
4034.789	54
4037.269	16
4039.747	64
4042.224	-40
4044.699	36
4047.172	-13
4049.643	2
4052.112	78
4054.58	23
4057.046	27
4059.51	19
4061.972	-58
4064.432	119
4066.891	-108
4069.348	69
4071.803	-111
4074.256	-64
4076.708	-23
4079.158	22
4081.606	-104
4084.052	-29
4086.497	-24
4088.939	46
4091.38	21
4093.819	-42
4096.257	-1132
4098.693	-1133
4101.127	-1196
4103.559	-1192
4105.989	305
4108.418	137
4110.845	393
4113.27	244
4115.694	390
4118.115	391
4120.535	-61
4122.954	-109
4125.37	-101
4127.785	3
4130.198	-50
4132.609	-53
4135.019	-1218
4137.427	-1236
4139.833	-1167
4142.237	-982
