Data from 2018-2-8_conc=0_RamanShift_17.txt Node
Date: Wed Feb 07 09:35:10 IST 2018
User: aro
Spectrometer: QEPB0276
Trigger mode: 0
Integration Time (sec): 3.000000E1
Scans to average: 1
Electric dark correction enabled: true
Nonlinearity correction enabled: false
Boxcar width: 0
XAxis mode: Raman Shifts
Number of Pixels in Spectrum: 1044
>>>>>Begin Spectral Data<<<<<
160.701	324.4
166.742	525.4
172.777	953.4
178.805	2532.4
184.826	6115.4
190.841	12174.4
196.849	19469.4
202.85	24786.4
208.845	26865.4
214.833	26615.4
220.815	26270.4
226.789	26071.4
232.758	26073.4
238.719	25914.4
244.674	25804.4
250.623	25384.4
256.565	24962.4
262.5	24553.4
268.429	24094.4
274.351	23766.4
280.267	23599.4
286.176	23040.4
292.079	22801.4
297.975	22515.4
303.865	22378.4
309.748	22244.4
315.625	22000.4
321.495	21656.4
327.359	21706.4
333.217	21663.4
339.068	21660.4
344.912	21639.4
350.751	21663.4
356.583	21632.4
362.408	21606.4
368.227	21616.4
374.04	21727.4
379.847	21703.4
385.647	21868.4
391.44	22120.4
397.228	22145.4
403.009	22282.4
408.784	22403.4
414.553	22536.4
420.315	22601.4
426.071	22666.4
431.821	22669.4
437.565	22611.4
443.302	22308.4
449.033	22364.4
454.758	22285.4
460.477	22124.4
466.189	22026.4
471.896	21950.4
477.596	21841.4
483.29	21844.4
488.978	21897.4
494.66	21857.4
500.335	21843.4
506.005	21747.4
511.668	21476.4
517.325	21494.4
522.977	21274.4
528.622	21231.4
534.261	21087.4
539.894	21043.4
545.521	20951.4
551.141	20834.4
556.756	20637.4
562.365	20492.4
567.968	20297.4
573.565	20261.4
579.155	20123.4
584.74	20039.4
590.319	19905.4
595.892	19852.4
601.459	19975.4
607.02	19866.4
612.575	19916.4
618.124	19872.4
623.667	19909.4
629.204	19826.4
634.735	19766.4
640.261	19698.4
645.781	19840.4
651.294	19613.4
656.802	19459.4
662.304	19305.4
667.8	19083.4
673.29	19039.4
678.775	18940.4
684.254	18940.4
689.726	18946.4
695.193	18817.4
700.655	18845.4
706.11	18978.4
711.56	18828.4
717.004	18910.4
722.442	19046.4
727.874	18938.4
733.301	18909.4
738.722	18898.4
744.137	18702.4
749.547	18707.4
754.951	18545.4
760.349	18353.4
765.741	18266.4
771.128	18295.4
776.509	18237.4
781.885	18197.4
787.254	18219.4
792.618	18246.4
797.977	18360.4
803.33	18394.4
808.677	18481.4
814.019	18382.4
819.355	18466.4
824.686	18431.4
830.011	18373.4
835.33	18188.4
840.644	17954.4
845.952	18007.4
851.255	17749.4
856.552	17741.4
861.844	17530.4
867.13	17439.4
872.41	17459.4
877.686	17418.4
882.955	17520.4
888.219	17594.4
893.478	17701.4
898.731	17549.4
903.979	17483.4
909.221	17550.4
914.458	17456.4
919.69	17167.4
924.916	17106.4
930.136	16896.4
935.351	16831.4
940.561	16569.4
945.766	16470.4
950.965	16333.4
956.158	16420.4
961.347	16484.4
966.529	16425.4
971.707	16476.4
976.879	16430.4
982.046	16483.4
987.208	16567.4
992.364	16380.4
997.515	16357.4
1002.66	16123.4
1007.801	16209.4
1012.936	16223.4
1018.066	16174.4
1023.19	15964.4
1028.309	15960.4
1033.423	16072.4
1038.532	16146.4
1043.636	16397.4
1048.734	16288.4
1053.827	16386.4
1058.915	16414.4
1063.998	16278.4
1069.075	16089.4
1074.147	15887.4
1079.214	15851.4
1084.276	15530.4
1089.333	15493.4
1094.385	15498.4
1099.431	15451.4
1104.472	15442.4
1109.509	15626.4
1114.54	15692.4
1119.565	15773.4
1124.586	15782.4
1129.602	15733.4
1134.613	15588.4
1139.618	15529.4
1144.619	15316.4
1149.614	15097.4
1154.604	14987.4
1159.589	14881.4
1164.57	14665.4
1169.545	14760.4
1174.515	14709.4
1179.48	14906.4
1184.44	14913.4
1189.395	15104.4
1194.345	15227.4
1199.29	15172.4
1204.23	15215.4
1209.165	15149.4
1214.095	15034.4
1219.021	14972.4
1223.941	14969.4
1228.856	14933.4
1233.766	14856.4
1238.672	14737.4
1243.572	14651.4
1248.467	14761.4
1253.358	14894.4
1258.244	14855.4
1263.124	14810.4
1268	14620.4
1272.871	14682.4
1277.737	14642.4
1282.599	14315.4
1287.455	14240.4
1292.306	13979.4
1297.153	14031.4
1301.995	13780.4
1306.832	13754.4
1311.664	13774.4
1316.491	13844.4
1321.314	13816.4
1326.132	13820.4
1330.945	13751.4
1335.753	13596.4
1340.556	13365.4
1345.354	13216.4
1350.148	12909.4
1354.937	12699.4
1359.722	12677.4
1364.501	12438.4
1369.276	12452.4
1374.046	12523.4
1378.811	12626.4
1383.572	12710.4
1388.327	12546.4
1393.079	12872.4
1397.825	12970.4
1402.567	12936.4
1407.304	12785.4
1412.036	12947.4
1416.764	12789.4
1421.487	12885.4
1426.205	12622.4
1430.919	12426.4
1435.628	12244.4
1440.333	12212.4
1445.032	12073.4
1449.727	12088.4
1454.418	11994.4
1459.104	11967.4
1463.785	11774.4
1468.462	11801.4
1473.134	11800.4
1477.802	11609.4
1482.465	11615.4
1487.123	11389.4
1491.777	11469.4
1496.426	11294.4
1501.071	11273.4
1505.711	11220.4
1510.347	11271.4
1514.978	11371.4
1519.604	11513.4
1524.226	11679.4
1528.844	11904.4
1533.457	11881.4
1538.065	11937.4
1542.669	12020.4
1547.269	12100.4
1551.864	12063.4
1556.454	12103.4
1561.041	12035.4
1565.622	11936.4
1570.199	11692.4
1574.772	11686.4
1579.34	11434.4
1583.904	11526.4
1588.464	11588.4
1593.019	11520.4
1597.569	11649.4
1602.115	11682.4
1606.657	11695.4
1611.195	11776.4
1615.728	11841.4
1620.256	11818.4
1624.78	11860.4
1629.3	11817.4
1633.816	11671.4
1638.327	11606.4
1642.834	11587.4
1647.336	11381.4
1651.834	11371.4
1656.328	11484.4
1660.817	11367.4
1665.302	11399.4
1669.783	11371.4
1674.259	11204.4
1678.732	10969.4
1683.199	10669.4
1687.663	10470.4
1692.122	10107.4
1696.577	9923.4
1701.028	9996.4
1705.474	9833.4
1709.917	9875.4
1714.355	9945.4
1718.788	9777.4
1723.218	9646.4
1727.643	9369.4
1732.064	9348.4
1736.481	9265.4
1740.893	9063.4
1745.301	8846.4
1749.705	8896.4
1754.105	8495.4
1758.501	8517.4
1762.893	8141.4
1767.28	8005.4
1771.663	7825.4
1776.042	7648.4
1780.417	7487.4
1784.787	7360.4
1789.154	7370.4
1793.516	7324.4
1797.874	7624.4
1802.228	7763.4
1806.578	7968.4
1810.924	7873.4
1815.266	8516.4
1819.603	7854.4
1823.937	7911.4
1828.266	7806.4
1832.591	7804.4
1836.913	7622.4
1841.23	7676.4
1845.543	7546.4
1849.852	7464.4
1854.156	7429.4
1858.457	7295.4
1862.754	7292.4
1867.047	7200.4
1871.335	7022.4
1875.62	7107.4
1879.9	7088.4
1884.177	7105.4
1888.449	7064.4
1892.718	7064.4
1896.982	6942.4
1901.243	7125.4
1905.499	6994.4
1909.752	6983.4
1914	6987.4
1918.245	6968.4
1922.485	6960.4
1926.722	6989.4
1930.954	7009.4
1935.183	7074.4
1939.408	7002.4
1943.628	7129.4
1947.845	7155.4
1952.058	7184.4
1956.267	7093.4
1960.472	7103.4
1964.673	7146.4
1968.87	7112.4
1973.063	7068.4
1977.252	6896.4
1981.438	6837.4
1985.619	6791.4
1989.797	6688.4
1993.971	6596.4
1998.14	6454.4
2002.306	6471.4
2006.469	6339.4
2010.627	6257.4
2014.781	6280.4
2018.932	6295.4
2023.078	6126.4
2027.221	6150.4
2031.36	6222.4
2035.495	6191.4
2039.627	6090.4
2043.754	6039.4
2047.878	5978.4
2051.998	5950.4
2056.114	5895.4
2060.226	5882.4
2064.334	5798.4
2068.439	5674.4
2072.54	5747.4
2076.637	5952.4
2080.73	5804.4
2084.82	5801.4
2088.906	5918.4
2092.988	5921.4
2097.066	6023.4
2101.14	5922.4
2105.211	5931.4
2109.278	5921.4
2113.342	5945.4
2117.401	6008.4
2121.457	5955.4
2125.509	5915.4
2129.558	5686.4
2133.602	5799.4
2137.643	5712.4
2141.681	5599.4
2145.714	5597.4
2149.744	5525.4
2153.77	5522.4
2157.793	5469.4
2161.812	5457.4
2165.827	5421.4
2169.838	5351.4
2173.846	5326.4
2177.851	5281.4
2181.851	5122.4
2185.848	5387.4
2189.841	5109.4
2193.831	5138.4
2197.817	5034.4
2201.799	4940.4
2205.778	4949.4
2209.753	4895.4
2213.725	4948.4
2217.693	4821.4
2221.657	4880.4
2225.618	4727.4
2229.575	4777.4
2233.529	4716.4
2237.479	4761.4
2241.425	4710.4
2245.368	4743.4
2249.307	4734.4
2253.243	4735.4
2257.175	4661.4
2261.104	4532.4
2265.029	4477.4
2268.95	4464.4
2272.868	4373.4
2276.783	4367.4
2280.694	4248.4
2284.601	4171.4
2288.505	4195.4
2292.405	4062.4
2296.302	4137.4
2300.195	3976.4
2304.085	4079.4
2307.971	3992.4
2311.854	4027.4
2315.734	3935.4
2319.609	3915.4
2323.482	4026.4
2327.351	3883.4
2331.216	3877.4
2335.078	3936.4
2338.937	3805.4
2342.792	3854.4
2346.643	3744.4
2350.492	3734.4
2354.336	3789.4
2358.178	3760.4
2362.015	3751.4
2365.85	3794.4
2369.681	3796.4
2373.508	3721.4
2377.333	3687.4
2381.153	3785.4
2384.971	3845.4
2388.785	3764.4
2392.595	3753.4
2396.402	3874.4
2400.206	3904.4
2404.007	3799.4
2407.804	3725.4
2411.597	3642.4
2415.388	3710.4
2419.174	3691.4
2422.958	3611.4
2426.738	3498.4
2430.515	3420.4
2434.289	3564.4
2438.059	3541.4
2441.825	3547.4
2445.589	3348.4
2449.349	3533.4
2453.106	3422.4
2456.859	3383.4
2460.61	3413.4
2464.356	3365.4
2468.1	3290.4
2471.84	3355.4
2475.577	3345.4
2479.311	3216.4
2483.041	3204.4
2486.768	3123.4
2490.492	3001.4
2494.213	3172.4
2497.93	3190.4
2501.644	3260.4
2505.355	3024.4
2509.062	3086.4
2512.766	3109.4
2516.467	3154.4
2520.165	3134.4
2523.859	3203.4
2527.551	2964.4
2531.239	3068.4
2534.923	3005.4
2538.605	3127.4
2542.283	3049.4
2545.958	3034.4
2549.63	2993.4
2553.299	2969.4
2556.964	2954.4
2560.626	2993.4
2564.285	2918.4
2567.941	3061.4
2571.594	3004.4
2575.243	2821.4
2578.89	2987.4
2582.533	2958.4
2586.173	2906.4
2589.809	2859.4
2593.443	3049.4
2597.073	2884.4
2600.701	2789.4
2604.325	2883.4
2607.946	2852.4
2611.564	2753.4
2615.178	2744.4
2618.79	2773.4
2622.398	2828.4
2626.004	2791.4
2629.606	2661.4
2633.205	2857.4
2636.801	2729.4
2640.394	2591.4
2643.983	2686.4
2647.57	2646.4
2651.153	2603.4
2654.734	2460.4
2658.311	2605.4
2661.885	2545.4
2665.456	2470.4
2669.025	2505.4
2672.589	2403.4
2676.151	2421.4
2679.71	2306.4
2683.266	2267.4
2686.819	2303.4
2690.368	2265.4
2693.915	2250.4
2697.458	2284.4
2700.999	2205.4
2704.536	2132.4
2708.071	2193.4
2711.602	2081.4
2715.13	2089.4
2718.656	2070.4
2722.178	1873.4
2725.697	1968.4
2729.214	1767.4
2732.727	1861.4
2736.237	1970.4
2739.744	1929.4
2743.249	1967.4
2746.75	1937.4
2750.248	2017.4
2753.743	2068.4
2757.236	2017.4
2760.725	1987.4
2764.211	2230.4
2767.695	2052.4
2771.175	2086.4
2774.652	2060.4
2778.127	2084.4
2781.598	1978.4
2785.067	2002.4
2788.532	2092.4
2791.995	2126.4
2795.455	1965.4
2798.911	1925.4
2802.365	2093.4
2805.816	1985.4
2809.264	1931.4
2812.709	1998.4
2816.151	2031.4
2819.59	2053.4
2823.026	2111.4
2826.46	2101.4
2829.89	2064.4
2833.318	2254.4
2836.742	2078.4
2840.164	2064.4
2843.583	2071.4
2846.999	2111.4
2850.412	2057.4
2853.822	2187.4
2857.229	2065.4
2860.634	2133.4
2864.035	2171.4
2867.434	2092.4
2870.83	2055.4
2874.223	2211.4
2877.613	2062.4
2881	2268.4
2884.385	2373.4
2887.766	2320.4
2891.145	2445.4
2894.521	2322.4
2897.894	2344.4
2901.264	2106.4
2904.631	2362.4
2907.996	2278.4
2911.358	2341.4
2914.717	2311.4
2918.073	2253.4
2921.426	2312.4
2924.777	2392.4
2928.124	2418.4
2931.469	2326.4
2934.811	2515.4
2938.15	2462.4
2941.487	2471.4
2944.821	2379.4
2948.152	2535.4
2951.48	2473.4
2954.805	2448.4
2958.128	2409.4
2961.447	2473.4
2964.765	2317.4
2968.079	2514.4
2971.39	2470.4
2974.699	2476.4
2978.005	2453.4
2981.308	2525.4
2984.609	2690.4
2987.907	2605.4
2991.202	2652.4
2994.494	2677.4
2997.784	2634.4
3001.07	2658.4
3004.355	2726.4
3007.636	2740.4
3010.915	2839.4
3014.191	2918.4
3017.464	2916.4
3020.734	2928.4
3024.002	2929.4
3027.267	2977.4
3030.53	3026.4
3033.789	3006.4
3037.046	3173.4
3040.301	3103.4
3043.552	3150.4
3046.801	3224.4
3050.048	3156.4
3053.291	3017.4
3056.532	3351.4
3059.771	3448.4
3063.006	3441.4
3066.239	3537.4
3069.469	3655.4
3072.697	3856.4
3075.922	3920.4
3079.144	3930.4
3082.364	3979.4
3085.581	4226.4
3088.795	4227.4
3092.007	4279.4
3095.216	4529.4
3098.423	4653.4
3101.627	4819.4
3104.828	4869.4
3108.026	4960.4
3111.222	5010.4
3114.416	4982.4
3117.607	5263.4
3120.795	5282.4
3123.98	5386.4
3127.163	5576.4
3130.344	5551.4
3133.521	5659.4
3136.696	5827.4
3139.869	5896.4
3143.039	5952.4
3146.206	6006.4
3149.371	6102.4
3152.533	6326.4
3155.693	6404.4
3158.85	6453.4
3162.005	6513.4
3165.157	6651.4
3168.306	6630.4
3171.453	6610.4
3174.597	6785.4
3177.739	6816.4
3180.878	6730.4
3184.014	6696.4
3187.149	6749.4
3190.28	6659.4
3193.409	6618.4
3196.536	6607.4
3199.659	6659.4
3202.781	6640.4
3205.9	6735.4
3209.016	6671.4
3212.13	6652.4
3215.241	6560.4
3218.35	6631.4
3221.456	6674.4
3224.56	6748.4
3227.661	6779.4
3230.76	6742.4
3233.856	6791.4
3236.95	6690.4
3240.041	6735.4
3243.13	6553.4
3246.216	6659.4
3249.3	6399.4
3252.382	6474.4
3255.46	6547.4
3258.537	5676.4
3261.611	6473.4
3264.682	6326.4
3267.751	6286.4
3270.818	6331.4
3273.882	6071.4
3276.943	6076.4
3280.002	6001.4
3283.059	5990.4
3286.113	6006.4
3289.165	6076.4
3292.214	5965.4
3295.261	5831.4
3298.306	5814.4
3301.348	5736.4
3304.387	5673.4
3307.425	5591.4
3310.459	5568.4
3313.492	5354.4
3316.521	5397.4
3319.549	5245.4
3322.574	5179.4
3325.597	5145.4
3328.617	5094.4
3331.635	5008.4
3334.65	5024.4
3337.663	4984.4
3340.674	4927.4
3343.682	4862.4
3346.688	4863.4
3349.691	4804.4
3352.692	4875.4
3355.691	4696.4
3358.687	4705.4
3361.681	4774.4
3364.673	4798.4
3367.662	4635.4
3370.649	4679.4
3373.633	4708.4
3376.615	4637.4
3379.595	4676.4
3382.572	4564.4
3385.547	4407.4
3388.52	4474.4
3391.49	4406.4
3394.458	4369.4
3397.424	4290.4
3400.387	4298.4
3403.348	3972.4
3406.307	4012.4
3409.263	4088.4
3412.217	3904.4
3415.168	3883.4
3418.118	3924.4
3421.065	3836.4
3424.009	3674.4
3426.951	3785.4
3429.891	3525.4
3432.829	3648.4
3435.764	3616.4
3438.697	3561.4
3441.628	3403.4
3444.557	3482.4
3447.483	3401.4
3450.407	3323.4
3453.328	3294.4
3456.247	3219.4
3459.164	3170.4
3462.079	3007.4
3464.991	2952.4
3467.902	2848.4
3470.809	2808.4
3473.715	2654.4
3476.618	2668.4
3479.519	2527.4
3482.418	2634.4
3485.315	2371.4
3488.209	2345.4
3491.101	2356.4
3493.99	2305.4
3496.878	1983.4
3499.763	2045.4
3502.646	2023.4
3505.527	2095.4
3508.405	1963.4
3511.281	1880.4
3514.155	1877.4
3517.027	1816.4
3519.897	1896.4
3522.764	1708.4
3525.629	1713.4
3528.492	1604.4
3531.352	1627.4
3534.211	1502.4
3537.067	1491.4
3539.921	1344.4
3542.773	1384.4
3545.622	1289.4
3548.469	1334.4
3551.315	1270.4
3554.157	1107.4
3556.998	1028.4
3559.837	955.4
3562.673	931.4
3565.507	952.4
3568.339	924.4
3571.169	920.4
3573.996	874.4
3576.822	862.4
3579.645	850.4
3582.466	795.4
3585.285	712.4
3588.101	673.4
3590.916	728.4
3593.728	636.4
3596.538	671.4
3599.346	537.4
3602.152	630.4
3604.956	595.4
3607.757	427.4
3610.556	685.4
3613.354	471.4
3616.149	455.4
3618.942	432.4
3621.732	229.4
3624.521	410.4
3627.307	364.4
3630.092	361.4
3632.874	286.4
3635.654	373.4
3638.432	425.4
3641.208	273.4
3643.982	295.4
3646.753	245.4
3649.523	298.4
3652.29	303.4
3655.055	301.4
3657.818	150.4
3660.579	279.4
3663.338	283.4
3666.095	113.4
3668.849	310.4
3671.602	112.4
3674.352	242.4
3677.101	138.4
3679.847	67.4
3682.591	127.4
3685.333	108.4
3688.073	35.4
3690.811	148.4
3693.547	203.4
3696.281	79.4
3699.013	27.4
3701.742	63.4
3704.47	142.4
3707.195	18.4
3709.919	-13.6
3712.64	41.4
3715.359	-152.6
3718.076	-173.6
3720.792	-37.6
3723.505	10.4
3726.216	-13.6
3728.925	-12.6
3731.632	-108.6
3734.336	65.4
3737.039	-55.6
3739.74	-88.6
3742.439	-23.6
3745.136	-45.6
3747.83	-61.6
3750.523	-47.6
3753.213	416.4
3755.902	-67.6
3758.589	-8.6
3761.273	-4.6
3763.956	-164.6
3766.636	-24.6
3769.315	-234.6
3771.991	35.4
3774.665	-58.6
3777.338	-63.6
3780.008	-8.6
3782.677	2.4
3785.343	63.4
3788.007	47.4
3790.67	-59.6
3793.33	-147.6
3795.989	-83.6
3798.645	-132.6
3801.299	4.4
3803.952	-82.6
3806.602	-125.6
3809.251	-57.6
3811.897	-69.6
3814.542	-152.6
3817.184	-90.6
3819.825	-32.6
3822.463	-78.6
3825.1	-115.6
3827.735	-87.6
3830.367	-123.6
3832.998	-170.6
3835.627	-162.6
3838.253	-174.6
3840.878	-60.6
3843.501	-236.6
3846.122	-156.6
3848.741	-174.6
3851.358	-124.6
3853.973	-92.6
3856.586	-100.6
3859.197	-222.6
3861.806	-167.6
3864.414	-13.6
3867.019	-144.6
3869.622	-168.6
3872.224	-140.6
3874.823	-100.6
3877.421	-69.6
3880.016	-33.6
3882.61	37.4
3885.202	-1.6
3887.792	-31.6
3890.38	-147.6
3892.966	-69.6
3895.55	-118.6
3898.132	-83.6
3900.713	-174.6
3903.291	-115.6
3905.868	-133.6
3908.442	-180.6
3911.015	-195.6
3913.586	-92.6
3916.155	-143.6
3918.722	-96.6
3921.287	-151.6
3923.85	-78.6
3926.411	-227.6
3928.971	-242.6
3931.528	-187.6
3934.084	-177.6
3936.638	-155.6
3939.19	-196.6
3941.74	-173.6
3944.288	-184.6
3946.834	-111.6
3949.378	-132.6
3951.921	-134.6
3954.462	-113.6
3957	-163.6
3959.537	-69.6
3962.072	-85.6
3964.606	-67.6
3967.137	-122.6
3969.667	-119.6
3972.194	-166.6
3974.72	-132.6
3977.244	-117.6
3979.766	-120.6
3982.286	-9.6
3984.805	-177.6
3987.321	-153.6
3989.836	-194.6
3992.349	-79.6
3994.86	-167.6
3997.369	-99.6
3999.877	-151.6
4002.382	-131.6
4004.886	-103.6
4007.388	-161.6
4009.888	-40.6
4012.386	-181.6
4014.883	-124.6
4017.377	-140.6
4019.87	-218.6
4022.361	-87.6
4024.85	-112.6
4027.338	-23.6
4029.823	-138.6
4032.307	-185.6
4034.789	-147.6
4037.269	-71.6
4039.747	-62.6
4042.224	-170.6
4044.699	-117.6
4047.172	-132.6
4049.643	-225.6
4052.112	-68.6
4054.58	-153.6
4057.046	-85.6
4059.51	-92.6
4061.972	-182.6
4064.432	-6.6
4066.891	-212.6
4069.348	-113.6
4071.803	-179.6
4074.256	-194.6
4076.708	-129.6
4079.158	-142.6
4081.606	-253.6
4084.052	-113.6
4086.497	-267.6
4088.939	-73.6
4091.38	-121.6
4093.819	-174.6
4096.257	-1081.6
4098.693	-1100.6
4101.127	-1126.6
4103.559	-1144.6
4105.989	201.4
4108.418	36.4
4110.845	220.4
4113.27	71.4
4115.694	225.4
4118.115	266.4
4120.535	-218.6
4122.954	-234.6
4125.37	-278.6
4127.785	-175.6
4130.198	-198.6
4132.609	-215.6
4135.019	-1149.6
4137.427	-1147.6
4139.833	-1097.6
4142.237	-940.6
