Data from 2018-2-8_conc=2_RamanShift_16.txt Node
Date: Wed Feb 07 10:01:10 IST 2018
User: aro
Spectrometer: QEPB0276
Trigger mode: 0
Integration Time (sec): 3.000000E1
Scans to average: 1
Electric dark correction enabled: true
Nonlinearity correction enabled: false
Boxcar width: 0
XAxis mode: Raman Shifts
Number of Pixels in Spectrum: 1044
>>>>>Begin Spectral Data<<<<<
160.701	406
166.742	567
172.777	1014
178.805	2569
184.826	6089
190.841	12177
196.849	19513
202.85	24916
208.845	27035
214.833	26819
220.815	26404
226.789	25040
232.758	26076
238.719	25945
244.674	25748
250.623	25249
256.565	24788
262.5	24325
268.429	23693
274.351	23345
280.267	23276
286.176	22742
292.079	22535
297.975	22069
303.865	22008
309.748	21792
315.625	21705
321.495	21195
327.359	21207
333.217	21222
339.068	21165
344.912	21162
350.751	21072
356.583	21132
362.408	21079
368.227	21076
374.04	21241
379.847	21228
385.647	21444
391.44	21629
397.228	21586
403.009	21786
408.784	21927
414.553	22044
420.315	22027
426.071	22079
431.821	22078
437.565	22125
443.302	21811
449.033	21788
454.758	21755
460.477	21622
466.189	21457
471.896	21444
477.596	21252
483.29	21285
488.978	21300
494.66	21306
500.335	21241
506.005	21143
511.668	20947
517.325	20765
522.977	20668
528.622	20620
534.261	20405
539.894	20449
545.521	20222
551.141	20246
556.756	19953
562.365	19816
567.968	19730
573.565	19571
579.155	19439
584.74	19356
590.319	19174
595.892	19191
601.459	19205
607.02	19106
612.575	19142
618.124	19036
623.667	19177
629.204	19047
634.735	19143
640.261	18917
645.781	19088
651.294	18792
656.802	18673
662.304	18597
667.8	18302
673.29	18295
678.775	18185
684.254	18269
689.726	18221
695.193	18045
700.655	18086
706.11	18211
711.56	18170
717.004	18149
722.442	18062
727.874	18138
733.301	18155
738.722	18164
744.137	17943
749.547	17821
754.951	17792
760.349	17613
765.741	17480
771.128	17472
776.509	17443
781.885	17409
787.254	17483
792.618	17497
797.977	17587
803.33	17683
808.677	17661
814.019	17640
819.355	17642
824.686	17655
830.011	17612
835.33	17407
840.644	17239
845.952	17205
851.255	16922
856.552	16923
861.844	16762
867.13	16706
872.41	16706
877.686	16582
882.955	16667
888.219	16759
893.478	16904
898.731	16698
903.979	16629
909.221	16718
914.458	16627
919.69	16404
924.916	16346
930.136	16041
935.351	16020
940.561	15691
945.766	15674
950.965	15537
956.158	15576
961.347	15614
966.529	15685
971.707	15668
976.879	15583
982.046	15654
987.208	15749
992.364	15520
997.515	15429
1002.66	15335
1007.801	15428
1012.936	15380
1018.066	15327
1023.19	15253
1028.309	15161
1033.423	15267
1038.532	15393
1043.636	15569
1048.734	15498
1053.827	15576
1058.915	15550
1063.998	15419
1069.075	15180
1074.147	15020
1079.214	15033
1084.276	14706
1089.333	14644
1094.385	14692
1099.431	14682
1104.472	14676
1109.509	14772
1114.54	14862
1119.565	14910
1124.586	14877
1129.602	14881
1134.613	14800
1139.618	14695
1144.619	14462
1149.614	14286
1154.604	14122
1159.589	14062
1164.57	13936
1169.545	13839
1174.515	13963
1179.48	14008
1184.44	14203
1189.395	14259
1194.345	14401
1199.29	14371
1204.23	14403
1209.165	14350
1214.095	14217
1219.021	14046
1223.941	14085
1228.856	14058
1233.766	14075
1238.672	13859
1243.572	13865
1248.467	13915
1253.358	14046
1258.244	14152
1263.124	13960
1268	13867
1272.871	13856
1277.737	13816
1282.599	13535
1287.455	13464
1292.306	13202
1297.153	13208
1301.995	13090
1306.832	12980
1311.664	12957
1316.491	13037
1321.314	13044
1326.132	13005
1330.945	12943
1335.753	12829
1340.556	12705
1345.354	12533
1350.148	12249
1354.937	12128
1359.722	12080
1364.501	11824
1369.276	11718
1374.046	11741
1378.811	11846
1383.572	11927
1388.327	11737
1393.079	12127
1397.825	12249
1402.567	12203
1407.304	12232
1412.036	12183
1416.764	12104
1421.487	12260
1426.205	11910
1430.919	11703
1435.628	11590
1440.333	11592
1445.032	11427
1449.727	11445
1454.418	11420
1459.104	11341
1463.785	11172
1468.462	11272
1473.134	11117
1477.802	11016
1482.465	11092
1487.123	10776
1491.777	10827
1496.426	10756
1501.071	10553
1505.711	10606
1510.347	10634
1514.978	10783
1519.604	10834
1524.226	10876
1528.844	11284
1533.457	11099
1538.065	11251
1542.669	11248
1547.269	11384
1551.864	11321
1556.454	11420
1561.041	11351
1565.622	11325
1570.199	11082
1574.772	11135
1579.34	10801
1583.904	10991
1588.464	10938
1593.019	10994
1597.569	11045
1602.115	11087
1606.657	11157
1611.195	11201
1615.728	11371
1620.256	11334
1624.78	11329
1629.3	11385
1633.816	11187
1638.327	11154
1642.834	11108
1647.336	10982
1651.834	10923
1656.328	11047
1660.817	10890
1665.302	10960
1669.783	10905
1674.259	10783
1678.732	10403
1683.199	10298
1687.663	10085
1692.122	9691
1696.577	9504
1701.028	9428
1705.474	9318
1709.917	9320
1714.355	9286
1718.788	9173
1723.218	9006
1727.643	8765
1732.064	8688
1736.481	8708
1740.893	8444
1745.301	8314
1749.705	8323
1754.105	7901
1758.501	7978
1762.893	7697
1767.28	7619
1771.663	7327
1776.042	7196
1780.417	7147
1784.787	6894
1789.154	6942
1793.516	6886
1797.874	7137
1802.228	7225
1806.578	7351
1810.924	7287
1815.266	7328
1819.603	7384
1823.937	7463
1828.266	7186
1832.591	7171
1836.913	7106
1841.23	7149
1845.543	7121
1849.852	6881
1854.156	6981
1858.457	6808
1862.754	6657
1867.047	6704
1871.335	6618
1875.62	6509
1879.9	6558
1884.177	6709
1888.449	6563
1892.718	6568
1896.982	6453
1901.243	6699
1905.499	6587
1909.752	6499
1914	6601
1918.245	6526
1922.485	6568
1926.722	6635
1930.954	6570
1935.183	6577
1939.408	6507
1943.628	6612
1947.845	6605
1952.058	6669
1956.267	6539
1960.472	6543
1964.673	6497
1968.87	6608
1973.063	6590
1977.252	6487
1981.438	6409
1985.619	6311
1989.797	6198
1993.971	6104
1998.14	5969
2002.306	6000
2006.469	5915
2010.627	5966
2014.781	5907
2018.932	5938
2023.078	5775
2027.221	5742
2031.36	5831
2035.495	5791
2039.627	5690
2043.754	5712
2047.878	5649
2051.998	5558
2056.114	5605
2060.226	5630
2064.334	5528
2068.439	5384
2072.54	5416
2076.637	5595
2080.73	5501
2084.82	5411
2088.906	5545
2092.988	5405
2097.066	5669
2101.14	5527
2105.211	5558
2109.278	5593
2113.342	5576
2117.401	5681
2121.457	5632
2125.509	5559
2129.558	5356
2133.602	5439
2137.643	5422
2141.681	5254
2145.714	5241
2149.744	5214
2153.77	5263
2157.793	5088
2161.812	5195
2165.827	5105
2169.838	4941
2173.846	5030
2177.851	4935
2181.851	4887
2185.848	4883
2189.841	4783
2193.831	4809
2197.817	4642
2201.799	4683
2205.778	4701
2209.753	4646
2213.725	4661
2217.693	4532
2221.657	4528
2225.618	4445
2229.575	4531
2233.529	4429
2237.479	4486
2241.425	4401
2245.368	4585
2249.307	4453
2253.243	4403
2257.175	4449
2261.104	4259
2265.029	4244
2268.95	4179
2272.868	4042
2276.783	4135
2280.694	3891
2284.601	3921
2288.505	3970
2292.405	3874
2296.302	3881
2300.195	3804
2304.085	3842
2307.971	3752
2311.854	3779
2315.734	3662
2319.609	3730
2323.482	3760
2327.351	3675
2331.216	3624
2335.078	3687
2338.937	3635
2342.792	3633
2346.643	3514
2350.492	3523
2354.336	3540
2358.178	3473
2362.015	3492
2365.85	3655
2369.681	3494
2373.508	3523
2377.333	3522
2381.153	3580
2384.971	3570
2388.785	3604
2392.595	3599
2396.402	3597
2400.206	3647
2404.007	3611
2407.804	3533
2411.597	3425
2415.388	3486
2419.174	3461
2422.958	3365
2426.738	3346
2430.515	3280
2434.289	3360
2438.059	3329
2441.825	3324
2445.589	3141
2449.349	3279
2453.106	3182
2456.859	3162
2460.61	3050
2464.356	3109
2468.1	3102
2471.84	3173
2475.577	3119
2479.311	3066
2483.041	3006
2486.768	2907
2490.492	2739
2494.213	3165
2497.93	2993
2501.644	3029
2505.355	3023
2509.062	2948
2512.766	2964
2516.467	3028
2520.165	2900
2523.859	2990
2527.551	2793
2531.239	2896
2534.923	2912
2538.605	2967
2542.283	2832
2545.958	2893
2549.63	2821
2553.299	2791
2556.964	2793
2560.626	2836
2564.285	2751
2567.941	2866
2571.594	2844
2575.243	2716
2578.89	2808
2582.533	2816
2586.173	2748
2589.809	2750
2593.443	2896
2597.073	2790
2600.701	2611
2604.325	2688
2607.946	2710
2611.564	2587
2615.178	2534
2618.79	2566
2622.398	2592
2626.004	2652
2629.606	2522
2633.205	2685
2636.801	2524
2640.394	2511
2643.983	2436
2647.57	2479
2651.153	2406
2654.734	2327
2658.311	2526
2661.885	2417
2665.456	2257
2669.025	2329
2672.589	2315
2676.151	2302
2679.71	2188
2683.266	2213
2686.819	2183
2690.368	2116
2693.915	2177
2697.458	2253
2700.999	2032
2704.536	2098
2708.071	2032
2711.602	1993
2715.13	1996
2718.656	1990
2722.178	1891
2725.697	1951
2729.214	1695
2732.727	1858
2736.237	1979
2739.744	1828
2743.249	1914
2746.75	1978
2750.248	2011
2753.743	1974
2757.236	1951
2760.725	1898
2764.211	2156
2767.695	1921
2771.175	1968
2774.652	1918
2778.127	1941
2781.598	1978
2785.067	1939
2788.532	1877
2791.995	1879
2795.455	1967
2798.911	1881
2802.365	2040
2805.816	1917
2809.264	1899
2812.709	2013
2816.151	1960
2819.59	2052
2823.026	2027
2826.46	2025
2829.89	2035
2833.318	2183
2836.742	2028
2840.164	2015
2843.583	2065
2846.999	2122
2850.412	1993
2853.822	2139
2857.229	1976
2860.634	2053
2864.035	2150
2867.434	2088
2870.83	1979
2874.223	2174
2877.613	2101
2881	2252
2884.385	2341
2887.766	2275
2891.145	2201
2894.521	2342
2897.894	2396
2901.264	2076
2904.631	2357
2907.996	2379
2911.358	2286
2914.717	2320
2918.073	2343
2921.426	2251
2924.777	2429
2928.124	2457
2931.469	2355
2934.811	2597
2938.15	2389
2941.487	2512
2944.821	2429
2948.152	2529
2951.48	2499
2954.805	2448
2958.128	2414
2961.447	2576
2964.765	2419
2968.079	2528
2971.39	2530
2974.699	2514
2978.005	2495
2981.308	2617
2984.609	2680
2987.907	2613
2991.202	2716
2994.494	2766
2997.784	2414
3001.07	2721
3004.355	2762
3007.636	2821
3010.915	2890
3014.191	2956
3017.464	2977
3020.734	2984
3024.002	3023
3027.267	3082
3030.53	3076
3033.789	3138
3037.046	3332
3040.301	3215
3043.552	3276
3046.801	3375
3050.048	3294
3053.291	3260
3056.532	3489
3059.771	3609
3063.006	3581
3066.239	3665
3069.469	3774
3072.697	3998
3075.922	4073
3079.144	4088
3082.364	4185
3085.581	4402
3088.795	4316
3092.007	4486
3095.216	4677
3098.423	4842
3101.627	5005
3104.828	5132
3108.026	5208
3111.222	5192
3114.416	5223
3117.607	5408
3120.795	5480
3123.98	5535
3127.163	5788
3130.344	5800
3133.521	5909
3136.696	6088
3139.869	6105
3143.039	6242
3146.206	6291
3149.371	6454
3152.533	6568
3155.693	6716
3158.85	6777
3162.005	6835
3165.157	6947
3168.306	6967
3171.453	6911
3174.597	7077
3177.739	7150
3180.878	7020
3184.014	7034
3187.149	7082
3190.28	7074
3193.409	6961
3196.536	6947
3199.659	7003
3202.781	6964
3205.9	7146
3209.016	7014
3212.13	7004
3215.241	6924
3218.35	6959
3221.456	7045
3224.56	7151
3227.661	7065
3230.76	7200
3233.856	7142
3236.95	7085
3240.041	7086
3243.13	6984
3246.216	6962
3249.3	6816
3252.382	6860
3255.46	6856
3258.537	6886
3261.611	6801
3264.682	6678
3267.751	6648
3270.818	6735
3273.882	6506
3276.943	6486
3280.002	6394
3283.059	6411
3286.113	6375
3289.165	6401
3292.214	6324
3295.261	6142
3298.306	6272
3301.348	6084
3304.387	5953
3307.425	5952
3310.459	5992
3313.492	5701
3316.521	5728
3319.549	5632
3322.574	5560
3325.597	5427
3328.617	5379
3331.635	5377
3334.65	5401
3337.663	5350
3340.674	5308
3343.682	5158
3346.688	5179
3349.691	5166
3352.692	5225
3355.691	5010
3358.687	5112
3361.681	5137
3364.673	5055
3367.662	5070
3370.649	4917
3373.633	5084
3376.615	4859
3379.595	5085
3382.572	4973
3385.547	4810
3388.52	4832
3391.49	4703
3394.458	4710
3397.424	4560
3400.387	4637
3403.348	4303
3406.307	4342
3409.263	4372
3412.217	4228
3415.168	4240
3418.118	4164
3421.065	4197
3424.009	3997
3426.951	4035
3429.891	3685
3432.829	3947
3435.764	3916
3438.697	3884
3441.628	3675
3444.557	3763
3447.483	3737
3450.407	3637
3453.328	3529
3456.247	3508
3459.164	3457
3462.079	3252
3464.991	3215
3467.902	3217
3470.809	3062
3473.715	2923
3476.618	2886
3479.519	2781
3482.418	2793
3485.315	2692
3488.209	2579
3491.101	2569
3493.99	2423
3496.878	2156
3499.763	2212
3502.646	2235
3505.527	2321
3508.405	2145
3511.281	2061
3514.155	2094
3517.027	1964
3519.897	2149
3522.764	1814
3525.629	1932
3528.492	1771
3531.352	1679
3534.211	1638
3537.067	1676
3539.921	1540
3542.773	1530
3545.622	1425
3548.469	1436
3551.315	1401
3554.157	1311
3556.998	1195
3559.837	1146
3562.673	1057
3565.507	1126
3568.339	1048
3571.169	1087
3573.996	988
3576.822	979
3579.645	922
3582.466	883
3585.285	812
3588.101	783
3590.916	822
3593.728	759
3596.538	795
3599.346	663
3602.152	732
3604.956	631
3607.757	577
3610.556	733
3613.354	569
3616.149	580
3618.942	544
3621.732	312
3624.521	545
3627.307	483
3630.092	453
3632.874	292
3635.654	433
3638.432	514
3641.208	355
3643.982	353
3646.753	324
3649.523	426
3652.29	367
3655.055	351
3657.818	176
3660.579	301
3663.338	395
3666.095	204
3668.849	410
3671.602	221
3674.352	318
3677.101	209
3679.847	95
3682.591	220
3685.333	208
3688.073	97
3690.811	193
3693.547	249
3696.281	172
3699.013	77
3701.742	86
3704.47	178
3707.195	104
3709.919	79
3712.64	123
3715.359	-53
3718.076	-48
3720.792	65
3723.505	15
3726.216	28
3728.925	91
3731.632	-94
3734.336	116
3737.039	11
3739.74	60
3742.439	289
3745.136	16
3747.83	-41
3750.523	16
3753.213	-56
3755.902	-3
3758.589	58
3761.273	74
3763.956	-85
3766.636	67
3769.315	-147
3771.991	66
3774.665	-136
3777.338	70
3780.008	10
3782.677	41
3785.343	97
3788.007	59
3790.67	-45
3793.33	-109
3795.989	6
3798.645	-95
3801.299	71
3803.952	-40
3806.602	-62
3809.251	-1
3811.897	-26
3814.542	-32
3817.184	6
3819.825	38
3822.463	50
3825.1	-50
3827.735	-2
3830.367	-32
3832.998	-161
3835.627	-116
3838.253	-74
3840.878	-27
3843.501	-200
3846.122	-140
3848.741	-172
3851.358	-70
3853.973	15
3856.586	-23
3859.197	-96
3861.806	-133
3864.414	20
3867.019	-59
3869.622	-93
3872.224	-177
3874.823	135
3877.421	15
3880.016	50
3882.61	135
3885.202	43
3887.792	81
3890.38	-106
3892.966	-33
3895.55	-75
3898.132	-97
3900.713	-101
3903.291	-54
3905.868	-83
3908.442	-60
3911.015	-100
3913.586	-97
3916.155	-127
3918.722	-78
3921.287	-92
3923.85	-137
3926.411	-126
3928.971	-155
3931.528	-110
3934.084	-125
3936.638	-82
3939.19	-70
3941.74	-69
3944.288	-117
3946.834	-63
3949.378	-154
3951.921	-21
3954.462	-59
3957	-66
3959.537	-62
3962.072	8
3964.606	14
3967.137	-85
3969.667	-89
3972.194	-85
3974.72	-71
3977.244	-19
3979.766	-69
3982.286	31
3984.805	-127
3987.321	-176
3989.836	-97
3992.349	-13
3994.86	-88
3997.369	-50
3999.877	-147
4002.382	-68
4004.886	-33
4007.388	-33
4009.888	75
4012.386	-164
4014.883	-64
4017.377	-93
4019.87	-181
4022.361	-55
4024.85	-52
4027.338	-19
4029.823	-118
4032.307	-83
4034.789	14
4037.269	-18
4039.747	13
4042.224	-97
4044.699	-81
4047.172	-46
4049.643	-127
4052.112	21
4054.58	-59
4057.046	-44
4059.51	-20
4061.972	-125
4064.432	76
4066.891	-101
4069.348	-18
4071.803	-144
4074.256	-107
4076.708	-41
4079.158	-68
4081.606	-170
4084.052	-35
4086.497	-77
4088.939	13
4091.38	-58
4093.819	-69
4096.257	-1102
4098.693	-1104
4101.127	-1137
4103.559	-1217
4105.989	79
4108.418	158
4110.845	295
4113.27	185
4115.694	264
4118.115	323
4120.535	-105
4122.954	-178
4125.37	-191
4127.785	-84
4130.198	-112
4132.609	-106
4135.019	-1203
4137.427	-1181
4139.833	-1150
4142.237	-1022
