Data from 2018-2-8_conc=6_RamanShift_19.txt Node
Date: Wed Feb 07 11:36:40 IST 2018
User: aro
Spectrometer: QEPB0276
Trigger mode: 0
Integration Time (sec): 3.000000E1
Scans to average: 1
Electric dark correction enabled: true
Nonlinearity correction enabled: false
Boxcar width: 0
XAxis mode: Raman Shifts
Number of Pixels in Spectrum: 1044
>>>>>Begin Spectral Data<<<<<
160.701	843.2
166.742	947.2
172.777	1451.2
178.805	3056.2
184.826	6554.2
190.841	12366.2
196.849	19559.2
202.85	24860.2
208.845	26864.2
214.833	26556.2
220.815	26282.2
226.789	24999.2
232.758	25953.2
238.719	25912.2
244.674	25656.2
250.623	25058.2
256.565	24648.2
262.5	24229.2
268.429	23598.2
274.351	23333.2
280.267	23165.2
286.176	22476.2
292.079	22310.2
297.975	22114.2
303.865	21783.2
309.748	21575.2
315.625	21622.2
321.495	20970.2
327.359	21032.2
333.217	21084.2
339.068	21019.2
344.912	21074.2
350.751	21018.2
356.583	20833.2
362.408	20821.2
368.227	20842.2
374.04	21077.2
379.847	21059.2
385.647	21150.2
391.44	21420.2
397.228	21367.2
403.009	21572.2
408.784	21508.2
414.553	21851.2
420.315	21864.2
426.071	21935.2
431.821	21926.2
437.565	21841.2
443.302	21540.2
449.033	21595.2
454.758	21552.2
460.477	21349.2
466.189	21284.2
471.896	21205.2
477.596	20997.2
483.29	21137.2
488.978	21098.2
494.66	21168.2
500.335	21054.2
506.005	20997.2
511.668	20697.2
517.325	20550.2
522.977	20302.2
528.622	20367.2
534.261	20184.2
539.894	20089.2
545.521	20039.2
551.141	19961.2
556.756	19691.2
562.365	19536.2
567.968	19478.2
573.565	19343.2
579.155	19085.2
584.74	19163.2
590.319	18859.2
595.892	18862.2
601.459	18793.2
607.02	18875.2
612.575	18873.2
618.124	18743.2
623.667	18930.2
629.204	18756.2
634.735	18897.2
640.261	18614.2
645.781	18889.2
651.294	18587.2
656.802	18225.2
662.304	18257.2
667.8	17952.2
673.29	18071.2
678.775	17923.2
684.254	17987.2
689.726	18077.2
695.193	17798.2
700.655	17871.2
706.11	17978.2
711.56	17780.2
717.004	17814.2
722.442	18150.2
727.874	17850.2
733.301	17852.2
738.722	17987.2
744.137	17695.2
749.547	17602.2
754.951	17574.2
760.349	17415.2
765.741	17188.2
771.128	17255.2
776.509	17188.2
781.885	17226.2
787.254	17166.2
792.618	17226.2
797.977	17407.2
803.33	17395.2
808.677	17491.2
814.019	17302.2
819.355	17429.2
824.686	17471.2
830.011	17447.2
835.33	17104.2
840.644	16917.2
845.952	17073.2
851.255	16654.2
856.552	16620.2
861.844	16572.2
867.13	16372.2
872.41	16483.2
877.686	16247.2
882.955	16394.2
888.219	16415.2
893.478	16553.2
898.731	16387.2
903.979	16329.2
909.221	16456.2
914.458	16194.2
919.69	16160.2
924.916	16071.2
930.136	15876.2
935.351	15709.2
940.561	15445.2
945.766	15428.2
950.965	15101.2
956.158	15350.2
961.347	15474.2
966.529	15434.2
971.707	15317.2
976.879	15298.2
982.046	15352.2
987.208	15510.2
992.364	15270.2
997.515	15239.2
1002.66	15083.2
1007.801	15234.2
1012.936	15233.2
1018.066	15251.2
1023.19	14904.2
1028.309	14858.2
1033.423	14943.2
1038.532	14979.2
1043.636	15344.2
1048.734	15275.2
1053.827	15313.2
1058.915	15384.2
1063.998	15102.2
1069.075	15008.2
1074.147	14786.2
1079.214	14810.2
1084.276	14466.2
1089.333	14489.2
1094.385	14407.2
1099.431	14607.2
1104.472	14297.2
1109.509	14449.2
1114.54	14587.2
1119.565	14625.2
1124.586	14639.2
1129.602	14574.2
1134.613	14603.2
1139.618	14487.2
1144.619	14247.2
1149.614	13988.2
1154.604	13958.2
1159.589	13897.2
1164.57	13530.2
1169.545	13612.2
1174.515	13616.2
1179.48	13811.2
1184.44	13854.2
1189.395	13977.2
1194.345	14152.2
1199.29	14017.2
1204.23	14204.2
1209.165	14142.2
1214.095	13931.2
1219.021	13789.2
1223.941	13874.2
1228.856	13821.2
1233.766	13773.2
1238.672	13605.2
1243.572	13561.2
1248.467	13633.2
1253.358	13808.2
1258.244	13838.2
1263.124	13649.2
1268	13558.2
1272.871	13654.2
1277.737	13550.2
1282.599	13298.2
1287.455	13157.2
1292.306	12921.2
1297.153	13098.2
1301.995	12774.2
1306.832	12694.2
1311.664	12698.2
1316.491	12873.2
1321.314	12780.2
1326.132	12752.2
1330.945	12609.2
1335.753	12473.2
1340.556	12438.2
1345.354	12257.2
1350.148	12029.2
1354.937	11935.2
1359.722	11956.2
1364.501	11646.2
1369.276	11389.2
1374.046	11509.2
1378.811	11769.2
1383.572	11714.2
1388.327	11456.2
1393.079	11942.2
1397.825	12038.2
1402.567	11962.2
1407.304	11959.2
1412.036	11964.2
1416.764	11711.2
1421.487	12013.2
1426.205	11744.2
1430.919	11526.2
1435.628	11443.2
1440.333	11349.2
1445.032	11233.2
1449.727	11119.2
1454.418	11196.2
1459.104	11097.2
1463.785	11042.2
1468.462	11014.2
1473.134	11016.2
1477.802	10785.2
1482.465	10979.2
1487.123	10427.2
1491.777	10776.2
1496.426	10685.2
1501.071	10400.2
1505.711	10442.2
1510.347	10435.2
1514.978	10579.2
1519.604	10732.2
1524.226	10635.2
1528.844	11130.2
1533.457	10798.2
1538.065	11102.2
1542.669	11022.2
1547.269	11153.2
1551.864	11026.2
1556.454	11300.2
1561.041	11232.2
1565.622	11187.2
1570.199	10928.2
1574.772	10895.2
1579.34	10761.2
1583.904	10796.2
1588.464	10790.2
1593.019	10724.2
1597.569	10948.2
1602.115	10810.2
1606.657	11076.2
1611.195	11030.2
1615.728	11025.2
1620.256	11228.2
1624.78	11281.2
1629.3	11219.2
1633.816	11022.2
1638.327	11059.2
1642.834	10836.2
1647.336	10954.2
1651.834	10756.2
1656.328	10909.2
1660.817	10738.2
1665.302	10900.2
1669.783	10870.2
1674.259	10562.2
1678.732	10336.2
1683.199	10171.2
1687.663	10056.2
1692.122	9584.2
1696.577	9416.2
1701.028	9257.2
1705.474	9259.2
1709.917	9267.2
1714.355	9274.2
1718.788	9002.2
1723.218	9007.2
1727.643	8797.2
1732.064	8534.2
1736.481	8702.2
1740.893	8448.2
1745.301	8262.2
1749.705	8451.2
1754.105	7934.2
1758.501	7967.2
1762.893	7659.2
1767.28	7656.2
1771.663	7365.2
1776.042	7269.2
1780.417	7209.2
1784.787	6862.2
1789.154	7001.2
1793.516	7086.2
1797.874	7139.2
1802.228	7294.2
1806.578	7456.2
1810.924	7277.2
1815.266	8259.2
1819.603	7325.2
1823.937	7421.2
1828.266	7324.2
1832.591	7276.2
1836.913	7107.2
1841.23	7222.2
1845.543	7221.2
1849.852	6986.2
1854.156	6986.2
1858.457	6914.2
1862.754	6615.2
1867.047	6842.2
1871.335	6580.2
1875.62	6578.2
1879.9	6606.2
1884.177	6773.2
1888.449	6623.2
1892.718	6628.2
1896.982	6531.2
1901.243	6764.2
1905.499	6710.2
1909.752	6565.2
1914	6749.2
1918.245	6496.2
1922.485	6563.2
1926.722	6535.2
1930.954	6634.2
1935.183	6619.2
1939.408	6595.2
1943.628	6616.2
1947.845	6639.2
1952.058	6697.2
1956.267	6602.2
1960.472	6526.2
1964.673	6600.2
1968.87	6757.2
1973.063	6680.2
1977.252	6474.2
1981.438	6520.2
1985.619	6376.2
1989.797	6311.2
1993.971	6254.2
1998.14	6066.2
2002.306	6118.2
2006.469	5907.2
2010.627	6065.2
2014.781	6010.2
2018.932	6102.2
2023.078	5817.2
2027.221	5808.2
2031.36	5894.2
2035.495	5914.2
2039.627	5876.2
2043.754	5631.2
2047.878	5780.2
2051.998	5757.2
2056.114	5728.2
2060.226	5719.2
2064.334	5653.2
2068.439	5564.2
2072.54	5538.2
2076.637	5744.2
2080.73	5645.2
2084.82	5544.2
2088.906	5592.2
2092.988	5605.2
2097.066	5838.2
2101.14	5491.2
2105.211	5654.2
2109.278	5678.2
2113.342	5694.2
2117.401	5871.2
2121.457	5749.2
2125.509	5755.2
2129.558	5500.2
2133.602	5563.2
2137.643	5565.2
2141.681	5409.2
2145.714	5440.2
2149.744	5289.2
2153.77	5308.2
2157.793	5285.2
2161.812	5479.2
2165.827	5433.2
2169.838	5021.2
2173.846	5211.2
2177.851	5064.2
2181.851	5038.2
2185.848	5061.2
2189.841	4952.2
2193.831	5084.2
2197.817	4836.2
2201.799	4790.2
2205.778	4951.2
2209.753	4941.2
2213.725	4854.2
2217.693	4756.2
2221.657	4805.2
2225.618	4656.2
2229.575	4698.2
2233.529	4585.2
2237.479	4669.2
2241.425	4638.2
2245.368	4813.2
2249.307	4685.2
2253.243	4626.2
2257.175	4631.2
2261.104	4509.2
2265.029	4373.2
2268.95	4398.2
2272.868	4324.2
2276.783	4349.2
2280.694	4047.2
2284.601	4161.2
2288.505	4162.2
2292.405	3992.2
2296.302	4200.2
2300.195	4053.2
2304.085	4160.2
2307.971	3954.2
2311.854	4074.2
2315.734	3857.2
2319.609	3983.2
2323.482	4101.2
2327.351	3932.2
2331.216	3861.2
2335.078	3822.2
2338.937	3907.2
2342.792	3818.2
2346.643	3842.2
2350.492	3713.2
2354.336	3845.2
2358.178	3715.2
2362.015	3739.2
2365.85	3808.2
2369.681	3863.2
2373.508	3783.2
2377.333	3651.2
2381.153	3759.2
2384.971	3821.2
2388.785	3834.2
2392.595	3844.2
2396.402	3768.2
2400.206	3925.2
2404.007	3927.2
2407.804	3777.2
2411.597	3664.2
2415.388	3799.2
2419.174	3752.2
2422.958	3627.2
2426.738	3608.2
2430.515	3523.2
2434.289	3644.2
2438.059	3639.2
2441.825	3631.2
2445.589	3343.2
2449.349	3591.2
2453.106	3489.2
2456.859	3497.2
2460.61	3364.2
2464.356	3466.2
2468.1	3389.2
2471.84	3456.2
2475.577	3454.2
2479.311	3349.2
2483.041	3307.2
2486.768	3131.2
2490.492	3012.2
2494.213	3480.2
2497.93	3267.2
2501.644	3359.2
2505.355	3410.2
2509.062	3188.2
2512.766	3305.2
2516.467	3229.2
2520.165	3188.2
2523.859	3412.2
2527.551	3030.2
2531.239	3269.2
2534.923	3170.2
2538.605	3267.2
2542.283	3113.2
2545.958	3216.2
2549.63	3114.2
2553.299	2991.2
2556.964	2925.2
2560.626	3189.2
2564.285	2915.2
2567.941	3148.2
2571.594	3046.2
2575.243	2901.2
2578.89	3151.2
2582.533	3157.2
2586.173	3125.2
2589.809	3006.2
2593.443	3341.2
2597.073	3091.2
2600.701	2928.2
2604.325	2983.2
2607.946	3016.2
2611.564	2927.2
2615.178	2920.2
2618.79	2919.2
2622.398	3099.2
2626.004	2953.2
2629.606	2793.2
2633.205	3084.2
2636.801	2881.2
2640.394	2806.2
2643.983	2839.2
2647.57	2852.2
2651.153	2775.2
2654.734	2611.2
2658.311	2945.2
2661.885	2757.2
2665.456	2728.2
2669.025	2652.2
2672.589	2667.2
2676.151	2479.2
2679.71	2476.2
2683.266	2694.2
2686.819	2282.2
2690.368	2490.2
2693.915	2434.2
2697.458	2509.2
2700.999	2401.2
2704.536	2340.2
2708.071	2399.2
2711.602	2263.2
2715.13	2299.2
2718.656	2356.2
2722.178	2259.2
2725.697	2394.2
2729.214	2067.2
2732.727	2139.2
2736.237	2211.2
2739.744	2188.2
2743.249	2306.2
2746.75	2314.2
2750.248	2329.2
2753.743	2309.2
2757.236	2318.2
2760.725	2226.2
2764.211	2549.2
2767.695	2315.2
2771.175	2305.2
2774.652	2228.2
2778.127	2309.2
2781.598	2256.2
2785.067	2324.2
2788.532	2286.2
2791.995	2262.2
2795.455	2288.2
2798.911	2219.2
2802.365	2456.2
2805.816	2207.2
2809.264	2185.2
2812.709	2343.2
2816.151	2252.2
2819.59	2410.2
2823.026	2388.2
2826.46	2398.2
2829.89	2355.2
2833.318	2598.2
2836.742	2319.2
2840.164	2382.2
2843.583	2505.2
2846.999	2486.2
2850.412	2389.2
2853.822	2825.2
2857.229	2268.2
2860.634	2442.2
2864.035	2522.2
2867.434	2403.2
2870.83	2487.2
2874.223	2556.2
2877.613	2450.2
2881	2668.2
2884.385	2737.2
2887.766	2676.2
2891.145	2674.2
2894.521	2780.2
2897.894	2842.2
2901.264	2416.2
2904.631	2714.2
2907.996	2733.2
2911.358	2656.2
2914.717	2736.2
2918.073	2781.2
2921.426	2741.2
2924.777	2895.2
2928.124	2858.2
2931.469	2688.2
2934.811	3098.2
2938.15	2784.2
2941.487	2899.2
2944.821	2569.2
2948.152	2995.2
2951.48	2953.2
2954.805	2899.2
2958.128	2784.2
2961.447	2933.2
2964.765	2798.2
2968.079	3022.2
2971.39	2892.2
2974.699	2926.2
2978.005	2979.2
2981.308	2998.2
2984.609	3165.2
2987.907	3059.2
2991.202	3083.2
2994.494	3188.2
2997.784	2780.2
3001.07	3066.2
3004.355	3179.2
3007.636	3177.2
3010.915	3246.2
3014.191	3314.2
3017.464	3360.2
3020.734	3264.2
3024.002	3430.2
3027.267	3534.2
3030.53	3427.2
3033.789	3561.2
3037.046	3658.2
3040.301	3640.2
3043.552	3768.2
3046.801	3984.2
3050.048	3666.2
3053.291	3614.2
3056.532	3793.2
3059.771	4106.2
3063.006	3987.2
3066.239	4059.2
3069.469	4156.2
3072.697	4407.2
3075.922	4569.2
3079.144	4538.2
3082.364	4499.2
3085.581	4824.2
3088.795	4532.2
3092.007	4890.2
3095.216	5072.2
3098.423	5368.2
3101.627	5512.2
3104.828	5441.2
3108.026	5600.2
3111.222	5616.2
3114.416	5627.2
3117.607	5812.2
3120.795	5930.2
3123.98	6069.2
3127.163	6355.2
3130.344	6217.2
3133.521	6392.2
3136.696	6359.2
3139.869	6504.2
3143.039	6700.2
3146.206	6566.2
3149.371	6819.2
3152.533	6982.2
3155.693	7147.2
3158.85	7213.2
3162.005	7223.2
3165.157	7361.2
3168.306	7388.2
3171.453	7262.2
3174.597	7616.2
3177.739	7606.2
3180.878	7436.2
3184.014	7446.2
3187.149	7486.2
3190.28	7432.2
3193.409	7297.2
3196.536	7335.2
3199.659	7377.2
3202.781	7315.2
3205.9	7507.2
3209.016	7393.2
3212.13	7415.2
3215.241	7328.2
3218.35	7422.2
3221.456	7395.2
3224.56	7628.2
3227.661	7557.2
3230.76	7672.2
3233.856	7536.2
3236.95	7484.2
3240.041	7584.2
3243.13	7332.2
3246.216	7404.2
3249.3	7285.2
3252.382	7315.2
3255.46	7386.2
3258.537	7790.2
3261.611	7361.2
3264.682	7036.2
3267.751	7061.2
3270.818	7138.2
3273.882	6908.2
3276.943	6869.2
3280.002	6741.2
3283.059	6873.2
3286.113	6824.2
3289.165	6857.2
3292.214	6843.2
3295.261	6509.2
3298.306	6762.2
3301.348	6558.2
3304.387	6490.2
3307.425	6311.2
3310.459	6381.2
3313.492	6124.2
3316.521	6137.2
3319.549	6045.2
3322.574	5956.2
3325.597	5851.2
3328.617	5854.2
3331.635	5748.2
3334.65	5877.2
3337.663	5696.2
3340.674	5731.2
3343.682	5510.2
3346.688	5650.2
3349.691	5584.2
3352.692	5736.2
3355.691	5464.2
3358.687	5507.2
3361.681	5421.2
3364.673	5472.2
3367.662	5385.2
3370.649	5311.2
3373.633	5436.2
3376.615	5367.2
3379.595	5529.2
3382.572	5218.2
3385.547	5294.2
3388.52	5298.2
3391.49	5188.2
3394.458	5144.2
3397.424	4947.2
3400.387	5127.2
3403.348	4717.2
3406.307	4817.2
3409.263	4842.2
3412.217	4583.2
3415.168	4582.2
3418.118	4594.2
3421.065	4561.2
3424.009	4320.2
3426.951	4489.2
3429.891	4462.2
3432.829	4366.2
3435.764	4347.2
3438.697	4328.2
3441.628	3977.2
3444.557	4169.2
3447.483	4195.2
3450.407	3927.2
3453.328	3758.2
3456.247	3957.2
3459.164	3951.2
3462.079	3702.2
3464.991	3517.2
3467.902	3537.2
3470.809	3522.2
3473.715	3331.2
3476.618	3342.2
3479.519	3184.2
3482.418	3384.2
3485.315	3143.2
3488.209	3063.2
3491.101	2814.2
3493.99	3091.2
3496.878	2659.2
3499.763	2732.2
3502.646	2584.2
3505.527	2725.2
3508.405	2561.2
3511.281	2539.2
3514.155	2534.2
3517.027	2452.2
3519.897	2587.2
3522.764	2269.2
3525.629	2396.2
3528.492	2224.2
3531.352	2096.2
3534.211	2021.2
3537.067	2159.2
3539.921	2044.2
3542.773	1989.2
3545.622	1844.2
3548.469	1949.2
3551.315	1881.2
3554.157	1735.2
3556.998	1652.2
3559.837	1534.2
3562.673	1467.2
3565.507	1564.2
3568.339	1437.2
3571.169	1528.2
3573.996	1431.2
3576.822	1329.2
3579.645	1370.2
3582.466	1387.2
3585.285	1255.2
3588.101	1260.2
3590.916	1373.2
3593.728	1173.2
3596.538	1239.2
3599.346	1099.2
3602.152	1235.2
3604.956	1201.2
3607.757	988.2
3610.556	1195.2
3613.354	1024.2
3616.149	958.2
3618.942	960.2
3621.732	746.2
3624.521	1027.2
3627.307	961.2
3630.092	783.2
3632.874	743.2
3635.654	862.2
3638.432	1003.2
3641.208	798.2
3643.982	866.2
3646.753	781.2
3649.523	863.2
3652.29	857.2
3655.055	809.2
3657.818	690.2
3660.579	595.2
3663.338	894.2
3666.095	640.2
3668.849	851.2
3671.602	626.2
3674.352	866.2
3677.101	596.2
3679.847	512.2
3682.591	715.2
3685.333	762.2
3688.073	547.2
3690.811	713.2
3693.547	540.2
3696.281	627.2
3699.013	522.2
3701.742	578.2
3704.47	751.2
3707.195	491.2
3709.919	572.2
3712.64	565.2
3715.359	490.2
3718.076	275.2
3720.792	832.2
3723.505	553.2
3726.216	403.2
3728.925	604.2
3731.632	387.2
3734.336	603.2
3737.039	438.2
3739.74	552.2
3742.439	719.2
3745.136	489.2
3747.83	447.2
3750.523	427.2
3753.213	776.2
3755.902	469.2
3758.589	717.2
3761.273	576.2
3763.956	309.2
3766.636	547.2
3769.315	248.2
3771.991	610.2
3774.665	501.2
3777.338	606.2
3780.008	534.2
3782.677	270.2
3785.343	609.2
3788.007	882.2
3790.67	432.2
3793.33	415.2
3795.989	538.2
3798.645	350.2
3801.299	633.2
3803.952	409.2
3806.602	333.2
3809.251	453.2
3811.897	482.2
3814.542	526.2
3817.184	258.2
3819.825	503.2
3822.463	126.2
3825.1	437.2
3827.735	452.2
3830.367	470.2
3832.998	260.2
3835.627	330.2
3838.253	385.2
3840.878	246.2
3843.501	213.2
3846.122	319.2
3848.741	205.2
3851.358	391.2
3853.973	658.2
3856.586	393.2
3859.197	348.2
3861.806	370.2
3864.414	560.2
3867.019	440.2
3869.622	325.2
3872.224	310.2
3874.823	593.2
3877.421	463.2
3880.016	520.2
3882.61	589.2
3885.202	570.2
3887.792	560.2
3890.38	345.2
3892.966	366.2
3895.55	445.2
3898.132	418.2
3900.713	271.2
3903.291	398.2
3905.868	549.2
3908.442	355.2
3911.015	371.2
3913.586	438.2
3916.155	342.2
3918.722	496.2
3921.287	411.2
3923.85	221.2
3926.411	326.2
3928.971	332.2
3931.528	348.2
3934.084	400.2
3936.638	412.2
3939.19	330.2
3941.74	436.2
3944.288	332.2
3946.834	453.2
3949.378	292.2
3951.921	530.2
3954.462	398.2
3957	388.2
3959.537	418.2
3962.072	513.2
3964.606	561.2
3967.137	227.2
3969.667	374.2
3972.194	414.2
3974.72	407.2
3977.244	528.2
3979.766	320.2
3982.286	544.2
3984.805	318.2
3987.321	195.2
3989.836	329.2
3992.349	474.2
3994.86	401.2
3997.369	342.2
3999.877	327.2
4002.382	374.2
4004.886	418.2
4007.388	497.2
4009.888	474.2
4012.386	262.2
4014.883	342.2
4017.377	410.2
4019.87	244.2
4022.361	477.2
4024.85	488.2
4027.338	371.2
4029.823	297.2
4032.307	367.2
4034.789	492.2
4037.269	402.2
4039.747	457.2
4042.224	346.2
4044.699	388.2
4047.172	418.2
4049.643	335.2
4052.112	509.2
4054.58	410.2
4057.046	392.2
4059.51	458.2
4061.972	357.2
4064.432	578.2
4066.891	281.2
4069.348	422.2
4071.803	278.2
4074.256	396.2
4076.708	373.2
4079.158	469.2
4081.606	218.2
4084.052	452.2
4086.497	360.2
4088.939	442.2
4091.38	475.2
4093.819	377.2
4096.257	-1531.8
4098.693	-1601.8
4101.127	-1649.8
4103.559	-1681.8
4105.989	594.2
4108.418	634.2
4110.845	830.2
4113.27	574.2
4115.694	793.2
4118.115	824.2
4120.535	293.2
4122.954	237.2
4125.37	190.2
4127.785	376.2
4130.198	298.2
4132.609	323.2
4135.019	-1727.8
4137.427	-1663.8
4139.833	-1601.8
4142.237	-1304.8
