Data from 2018-2-8_conc=6_RamanShift_02.txt Node
Date: Wed Feb 07 11:22:10 IST 2018
User: aro
Spectrometer: QEPB0276
Trigger mode: 0
Integration Time (sec): 3.000000E1
Scans to average: 1
Electric dark correction enabled: true
Nonlinearity correction enabled: false
Boxcar width: 0
XAxis mode: Raman Shifts
Number of Pixels in Spectrum: 1044
>>>>>Begin Spectral Data<<<<<
160.701	714
166.742	844
172.777	1334
178.805	2946
184.826	6335
190.841	12177
196.849	19357
202.85	24605
208.845	26457
214.833	26221
220.815	25838
226.789	25820
232.758	25535
238.719	25683
244.674	25247
250.623	24820
256.565	24352
262.5	23957
268.429	23372
274.351	23023
280.267	22912
286.176	22398
292.079	22048
297.975	21827
303.865	21585
309.748	21456
315.625	21352
321.495	20759
327.359	20901
333.217	20890
339.068	20847
344.912	20857
350.751	20799
356.583	20625
362.408	20737
368.227	20685
374.04	20869
379.847	20863
385.647	21015
391.44	21260
397.228	21233
403.009	21552
408.784	21339
414.553	21644
420.315	21600
426.071	21715
431.821	21694
437.565	21714
443.302	21486
449.033	21548
454.758	21384
460.477	21152
466.189	21127
471.896	21013
477.596	20927
483.29	21032
488.978	21008
494.66	21021
500.335	20929
506.005	20883
511.668	20529
517.325	20427
522.977	20244
528.622	20280
534.261	20073
539.894	20070
545.521	19938
551.141	19871
556.756	19632
562.365	19483
567.968	19465
573.565	19264
579.155	19094
584.74	19086
590.319	18921
595.892	18967
601.459	18766
607.02	18839
612.575	18883
618.124	18630
623.667	18832
629.204	18766
634.735	18826
640.261	18710
645.781	18902
651.294	18571
656.802	18312
662.304	18231
667.8	17975
673.29	18034
678.775	17919
684.254	17986
689.726	17972
695.193	17745
700.655	17908
706.11	17975
711.56	17882
717.004	17854
722.442	18126
727.874	17873
733.301	17910
738.722	17972
744.137	17704
749.547	17639
754.951	17610
760.349	17427
765.741	17239
771.128	17277
776.509	17261
781.885	17153
787.254	17189
792.618	17296
797.977	17393
803.33	17512
808.677	17461
814.019	17425
819.355	17451
824.686	17475
830.011	17534
835.33	17220
840.644	16940
845.952	17042
851.255	16700
856.552	16695
861.844	16580
867.13	16521
872.41	16549
877.686	16400
882.955	16520
888.219	16583
893.478	16690
898.731	16511
903.979	16445
909.221	16553
914.458	16443
919.69	16232
924.916	16172
930.136	15885
935.351	15849
940.561	15598
945.766	15413
950.965	15253
956.158	15506
961.347	15509
966.529	15502
971.707	15389
976.879	15449
982.046	15507
987.208	15498
992.364	15290
997.515	15343
1002.66	15220
1007.801	15440
1012.936	15341
1018.066	15353
1023.19	15035
1028.309	14978
1033.423	15134
1038.532	15231
1043.636	15502
1048.734	15387
1053.827	15535
1058.915	15470
1063.998	15302
1069.075	15164
1074.147	14922
1079.214	15017
1084.276	14643
1089.333	14608
1094.385	14499
1099.431	14599
1104.472	14477
1109.509	14732
1114.54	14779
1119.565	14902
1124.586	14735
1129.602	14795
1134.613	14757
1139.618	14703
1144.619	14417
1149.614	14229
1154.604	14164
1159.589	14057
1164.57	13794
1169.545	13812
1174.515	13891
1179.48	13989
1184.44	14066
1189.395	14140
1194.345	14371
1199.29	14205
1204.23	14419
1209.165	14261
1214.095	14129
1219.021	14006
1223.941	14006
1228.856	14034
1233.766	14075
1238.672	13919
1243.572	13820
1248.467	13915
1253.358	13996
1258.244	14024
1263.124	13975
1268	13775
1272.871	13801
1277.737	13822
1282.599	13628
1287.455	13426
1292.306	13161
1297.153	13265
1301.995	12972
1306.832	12942
1311.664	12901
1316.491	13058
1321.314	12980
1326.132	12988
1330.945	12866
1335.753	12755
1340.556	12679
1345.354	12530
1350.148	12200
1354.937	12037
1359.722	12018
1364.501	11829
1369.276	11595
1374.046	11672
1378.811	11949
1383.572	11975
1388.327	11666
1393.079	12178
1397.825	12242
1402.567	12216
1407.304	12121
1412.036	12199
1416.764	11959
1421.487	12290
1426.205	11947
1430.919	11803
1435.628	11664
1440.333	11448
1445.032	11411
1449.727	11370
1454.418	11354
1459.104	11359
1463.785	11232
1468.462	11185
1473.134	11195
1477.802	10967
1482.465	11114
1487.123	10558
1491.777	10774
1496.426	10770
1501.071	10503
1505.711	10566
1510.347	10566
1514.978	10714
1519.604	10845
1524.226	10850
1528.844	11263
1533.457	11075
1538.065	11221
1542.669	11278
1547.269	11433
1551.864	11296
1556.454	11536
1561.041	11458
1565.622	11429
1570.199	11070
1574.772	11102
1579.34	10850
1583.904	11029
1588.464	10965
1593.019	10985
1597.569	11106
1602.115	10984
1606.657	11244
1611.195	11233
1615.728	11200
1620.256	11302
1624.78	11481
1629.3	11393
1633.816	11150
1638.327	11191
1642.834	11036
1647.336	11000
1651.834	10885
1656.328	11004
1660.817	10909
1665.302	11029
1669.783	10944
1674.259	10689
1678.732	10430
1683.199	10261
1687.663	10075
1692.122	9616
1696.577	9445
1701.028	9349
1705.474	9373
1709.917	9377
1714.355	9350
1718.788	9160
1723.218	9124
1727.643	8938
1732.064	8762
1736.481	8872
1740.893	8582
1745.301	8438
1749.705	8621
1754.105	8073
1758.501	8069
1762.893	7770
1767.28	7757
1771.663	7475
1776.042	7294
1780.417	7237
1784.787	6996
1789.154	7037
1793.516	7146
1797.874	7158
1802.228	7394
1806.578	7551
1810.924	7407
1815.266	8800
1819.603	7540
1823.937	7529
1828.266	7428
1832.591	7348
1836.913	7311
1841.23	7354
1845.543	7318
1849.852	7093
1854.156	7123
1858.457	7069
1862.754	6783
1867.047	6921
1871.335	6760
1875.62	6753
1879.9	6717
1884.177	6900
1888.449	6687
1892.718	6693
1896.982	6666
1901.243	6888
1905.499	6805
1909.752	6629
1914	6854
1918.245	6642
1922.485	6593
1926.722	6647
1930.954	6731
1935.183	6755
1939.408	6736
1943.628	6738
1947.845	6717
1952.058	6775
1956.267	6719
1960.472	6659
1964.673	6789
1968.87	6868
1973.063	6822
1977.252	6618
1981.438	6578
1985.619	6472
1989.797	6419
1993.971	6344
1998.14	6156
2002.306	6137
2006.469	6153
2010.627	6170
2014.781	6134
2018.932	6136
2023.078	5920
2027.221	5905
2031.36	6047
2035.495	6041
2039.627	5927
2043.754	5884
2047.878	5816
2051.998	5810
2056.114	5807
2060.226	5736
2064.334	5673
2068.439	5597
2072.54	5608
2076.637	5769
2080.73	5730
2084.82	5613
2088.906	5725
2092.988	5634
2097.066	5836
2101.14	5603
2105.211	5740
2109.278	5732
2113.342	5793
2117.401	5906
2121.457	5802
2125.509	5817
2129.558	5564
2133.602	5604
2137.643	5589
2141.681	5529
2145.714	5492
2149.744	5366
2153.77	5409
2157.793	5370
2161.812	5494
2165.827	5456
2169.838	5086
2173.846	5252
2177.851	5129
2181.851	5088
2185.848	5256
2189.841	4965
2193.831	5147
2197.817	4877
2201.799	4915
2205.778	5020
2209.753	4950
2213.725	4845
2217.693	4898
2221.657	4828
2225.618	4674
2229.575	4781
2233.529	4653
2237.479	4763
2241.425	4730
2245.368	4857
2249.307	4746
2253.243	4679
2257.175	4706
2261.104	4583
2265.029	4431
2268.95	4422
2272.868	4411
2276.783	4415
2280.694	4142
2284.601	4173
2288.505	4190
2292.405	4049
2296.302	4215
2300.195	4034
2304.085	4160
2307.971	3991
2311.854	4070
2315.734	3891
2319.609	4042
2323.482	4178
2327.351	3961
2331.216	3947
2335.078	3856
2338.937	3902
2342.792	3861
2346.643	3858
2350.492	3803
2354.336	3881
2358.178	3770
2362.015	3817
2365.85	3968
2369.681	3859
2373.508	3861
2377.333	3681
2381.153	3864
2384.971	3918
2388.785	3868
2392.595	3847
2396.402	3893
2400.206	3964
2404.007	3968
2407.804	3824
2411.597	3726
2415.388	3829
2419.174	3751
2422.958	3721
2426.738	3702
2430.515	3540
2434.289	3727
2438.059	3691
2441.825	3715
2445.589	3437
2449.349	3664
2453.106	3521
2456.859	3513
2460.61	3406
2464.356	3504
2468.1	3485
2471.84	3525
2475.577	3518
2479.311	3392
2483.041	3319
2486.768	3233
2490.492	3039
2494.213	3311
2497.93	3388
2501.644	3362
2505.355	3431
2509.062	3201
2512.766	3304
2516.467	3282
2520.165	3271
2523.859	3373
2527.551	3032
2531.239	3228
2534.923	3264
2538.605	3300
2542.283	3173
2545.958	3163
2549.63	3073
2553.299	3099
2556.964	2973
2560.626	3180
2564.285	3054
2567.941	3153
2571.594	3039
2575.243	2944
2578.89	3167
2582.533	3220
2586.173	3131
2589.809	3061
2593.443	3378
2597.073	3137
2600.701	2994
2604.325	2989
2607.946	3088
2611.564	2956
2615.178	2831
2618.79	2919
2622.398	3058
2626.004	2939
2629.606	2838
2633.205	3092
2636.801	2941
2640.394	2870
2643.983	2879
2647.57	2884
2651.153	2773
2654.734	2618
2658.311	2996
2661.885	2756
2665.456	2710
2669.025	2694
2672.589	2659
2676.151	2525
2679.71	2457
2683.266	2635
2686.819	2550
2690.368	2483
2693.915	2365
2697.458	2562
2700.999	2378
2704.536	2356
2708.071	2366
2711.602	2354
2715.13	2345
2718.656	2368
2722.178	2281
2725.697	2376
2729.214	2034
2732.727	2140
2736.237	2165
2739.744	2085
2743.249	2269
2746.75	2284
2750.248	2329
2753.743	2307
2757.236	2308
2760.725	2260
2764.211	2492
2767.695	2333
2771.175	2312
2774.652	2275
2778.127	2299
2781.598	2214
2785.067	2268
2788.532	2314
2791.995	2411
2795.455	2257
2798.911	2242
2802.365	2426
2805.816	2250
2809.264	2182
2812.709	2311
2816.151	2265
2819.59	2434
2823.026	2352
2826.46	2440
2829.89	2324
2833.318	2593
2836.742	2303
2840.164	2359
2843.583	2458
2846.999	2443
2850.412	2384
2853.822	2667
2857.229	2320
2860.634	2375
2864.035	2482
2867.434	2362
2870.83	2403
2874.223	2513
2877.613	2410
2881	2604
2884.385	2777
2887.766	2598
2891.145	2575
2894.521	2688
2897.894	2770
2901.264	2432
2904.631	2658
2907.996	2695
2911.358	2641
2914.717	2675
2918.073	2716
2921.426	2696
2924.777	2800
2928.124	2784
2931.469	2683
2934.811	2963
2938.15	2732
2941.487	2841
2944.821	2487
2948.152	2892
2951.48	2889
2954.805	2794
2958.128	2726
2961.447	2880
2964.765	2704
2968.079	2885
2971.39	2847
2974.699	2843
2978.005	2829
2981.308	2911
2984.609	3088
2987.907	2902
2991.202	3011
2994.494	3134
2997.784	2721
3001.07	3013
3004.355	3068
3007.636	3146
3010.915	3189
3014.191	3201
3017.464	3245
3020.734	3137
3024.002	3361
3027.267	3381
3030.53	3381
3033.789	3462
3037.046	3544
3040.301	3594
3043.552	3666
3046.801	3736
3050.048	3603
3053.291	3543
3056.532	3708
3059.771	3924
3063.006	3885
3066.239	3952
3069.469	4051
3072.697	4359
3075.922	4334
3079.144	4374
3082.364	4340
3085.581	4605
3088.795	4406
3092.007	4658
3095.216	4950
3098.423	5157
3101.627	5282
3104.828	5284
3108.026	5409
3111.222	5453
3114.416	5383
3117.607	5682
3120.795	5728
3123.98	5869
3127.163	6096
3130.344	6064
3133.521	6153
3136.696	6221
3139.869	6336
3143.039	6394
3146.206	6385
3149.371	6656
3152.533	6813
3155.693	6858
3158.85	7012
3162.005	6946
3165.157	7112
3168.306	7151
3171.453	7009
3174.597	7386
3177.739	7374
3180.878	7184
3184.014	7204
3187.149	7295
3190.28	7214
3193.409	7162
3196.536	7102
3199.659	7089
3202.781	7116
3205.9	7261
3209.016	7167
3212.13	7120
3215.241	7088
3218.35	7124
3221.456	7193
3224.56	7358
3227.661	7292
3230.76	7440
3233.856	7328
3236.95	7122
3240.041	7295
3243.13	7011
3246.216	7116
3249.3	7007
3252.382	6983
3255.46	7118
3258.537	7071
3261.611	7002
3264.682	6739
3267.751	6803
3270.818	6929
3273.882	6627
3276.943	6571
3280.002	6466
3283.059	6576
3286.113	6560
3289.165	6613
3292.214	6499
3295.261	6306
3298.306	6409
3301.348	6234
3304.387	6214
3307.425	6087
3310.459	6159
3313.492	5884
3316.521	5843
3319.549	5772
3322.574	5748
3325.597	5607
3328.617	5614
3331.635	5530
3334.65	5576
3337.663	5493
3340.674	5464
3343.682	5312
3346.688	5402
3349.691	5407
3352.692	5471
3355.691	5252
3358.687	5210
3361.681	5204
3364.673	5269
3367.662	5196
3370.649	5023
3373.633	5197
3376.615	4977
3379.595	5252
3382.572	5052
3385.547	4982
3388.52	5061
3391.49	4912
3394.458	4940
3397.424	4717
3400.387	4800
3403.348	4524
3406.307	4588
3409.263	4611
3412.217	4401
3415.168	4377
3418.118	4475
3421.065	4329
3424.009	4171
3426.951	4271
3429.891	4251
3432.829	4165
3435.764	4118
3438.697	4061
3441.628	3773
3444.557	3977
3447.483	3985
3450.407	3643
3453.328	3621
3456.247	3718
3459.164	3737
3462.079	3420
3464.991	3412
3467.902	3298
3470.809	3247
3473.715	3139
3476.618	3052
3479.519	2993
3482.418	3146
3485.315	2932
3488.209	2821
3491.101	2636
3493.99	2864
3496.878	2471
3499.763	2538
3502.646	2384
3505.527	2579
3508.405	2426
3511.281	2320
3514.155	2327
3517.027	2292
3519.897	2400
3522.764	2137
3525.629	2230
3528.492	2039
3531.352	1873
3534.211	1865
3537.067	1992
3539.921	1855
3542.773	1763
3545.622	1662
3548.469	1807
3551.315	1710
3554.157	1578
3556.998	1546
3559.837	1399
3562.673	1290
3565.507	1428
3568.339	1257
3571.169	1329
3573.996	1220
3576.822	1198
3579.645	1264
3582.466	1182
3585.285	1111
3588.101	1088
3590.916	1156
3593.728	1061
3596.538	1101
3599.346	958
3602.152	1085
3604.956	1052
3607.757	850
3610.556	1062
3613.354	883
3616.149	850
3618.942	818
3621.732	579
3624.521	873
3627.307	806
3630.092	683
3632.874	626
3635.654	738
3638.432	859
3641.208	692
3643.982	748
3646.753	657
3649.523	726
3652.29	734
3655.055	688
3657.818	555
3660.579	481
3663.338	764
3666.095	532
3668.849	788
3671.602	558
3674.352	749
3677.101	513
3679.847	413
3682.591	590
3685.333	609
3688.073	491
3690.811	602
3693.547	398
3696.281	475
3699.013	419
3701.742	492
3704.47	587
3707.195	450
3709.919	449
3712.64	443
3715.359	369
3718.076	157
3720.792	492
3723.505	367
3726.216	287
3728.925	458
3731.632	264
3734.336	495
3737.039	338
3739.74	400
3742.439	686
3745.136	385
3747.83	328
3750.523	364
3753.213	-29
3755.902	363
3758.589	531
3761.273	452
3763.956	204
3766.636	440
3769.315	136
3771.991	460
3774.665	308
3777.338	528
3780.008	443
3782.677	161
3785.343	486
3788.007	719
3790.67	308
3793.33	312
3795.989	423
3798.645	284
3801.299	471
3803.952	350
3806.602	251
3809.251	323
3811.897	344
3814.542	403
3817.184	145
3819.825	364
3822.463	79
3825.1	311
3827.735	362
3830.367	390
3832.998	179
3835.627	217
3838.253	274
3840.878	172
3843.501	158
3846.122	206
3848.741	202
3851.358	286
3853.973	481
3856.586	279
3859.197	257
3861.806	252
3864.414	434
3867.019	338
3869.622	257
3872.224	160
3874.823	486
3877.421	389
3880.016	372
3882.61	500
3885.202	432
3887.792	468
3890.38	212
3892.966	368
3895.55	287
3898.132	310
3900.713	227
3903.291	290
3905.868	393
3908.442	227
3911.015	224
3913.586	302
3916.155	231
3918.722	422
3921.287	322
3923.85	71
3926.411	189
3928.971	196
3931.528	227
3934.084	264
3936.638	279
3939.19	217
3941.74	302
3944.288	185
3946.834	257
3949.378	228
3951.921	378
3954.462	263
3957	232
3959.537	332
3962.072	367
3964.606	453
3967.137	177
3969.667	255
3972.194	310
3974.72	323
3977.244	391
3979.766	190
3982.286	427
3984.805	243
3987.321	145
3989.836	194
3992.349	355
3994.86	292
3997.369	281
3999.877	258
4002.382	278
4004.886	319
4007.388	266
4009.888	404
4012.386	253
4014.883	263
4017.377	307
4019.87	172
4022.361	378
4024.85	397
4027.338	381
4029.823	186
4032.307	241
4034.789	320
4037.269	291
4039.747	359
4042.224	258
4044.699	273
4047.172	336
4049.643	151
4052.112	336
4054.58	325
4057.046	303
4059.51	350
4061.972	263
4064.432	445
4066.891	190
4069.348	311
4071.803	193
4074.256	191
4076.708	259
4079.158	314
4081.606	121
4084.052	323
4086.497	261
4088.939	314
4091.38	303
4093.819	238
4096.257	-1401
4098.693	-1495
4101.127	-1520
4103.559	-1552
4105.989	512
4108.418	437
4110.845	709
4113.27	522
4115.694	752
4118.115	695
4120.535	216
4122.954	140
4125.37	111
4127.785	228
4130.198	189
4132.609	212
4135.019	-1582
4137.427	-1501
4139.833	-1502
4142.237	-1253
