Data from 2018-2-8_dark_RamanShift_02.txt Node
Date: Wed Feb 07 09:16:10 IST 2018
User: aro
Spectrometer: QEPB0276
Trigger mode: 0
Integration Time (sec): 3.000000E1
Scans to average: 1
Electric dark correction enabled: true
Nonlinearity correction enabled: false
Boxcar width: 0
XAxis mode: Raman Shifts
Number of Pixels in Spectrum: 1044
>>>>>Begin Spectral Data<<<<<
160.701	68.2
166.742	51.2
172.777	4.2
178.805	23.2
184.826	71.2
190.841	35.2
196.849	7.2
202.85	36.2
208.845	27.2
214.833	28.2
220.815	119.2
226.789	18.2
232.758	42.2
238.719	45.2
244.674	40.2
250.623	38.2
256.565	46.2
262.5	61.2
268.429	26.2
274.351	104.2
280.267	102.2
286.176	46.2
292.079	77.2
297.975	22.2
303.865	31.2
309.748	76.2
315.625	-25.8
321.495	10.2
327.359	46.2
333.217	8.2
339.068	31.2
344.912	-5.8
350.751	-8.8
356.583	-6.8
362.408	32.2
368.227	24.2
374.04	62.2
379.847	33.2
385.647	38.2
391.44	33.2
397.228	35.2
403.009	-6.8
408.784	30.2
414.553	56.2
420.315	41.2
426.071	19.2
431.821	37.2
437.565	1.2
443.302	-38.8
449.033	56.2
454.758	21.2
460.477	-21.8
466.189	15.2
471.896	-3.8
477.596	14.2
483.29	26.2
488.978	31.2
494.66	-20.8
500.335	42.2
506.005	1.2
511.668	77.2
517.325	50.2
522.977	-30.8
528.622	59.2
534.261	77.2
539.894	55.2
545.521	30.2
551.141	47.2
556.756	24.2
562.365	36.2
567.968	37.2
573.565	38.2
579.155	14.2
584.74	60.2
590.319	14.2
595.892	25.2
601.459	25.2
607.02	18.2
612.575	30.2
618.124	8.2
623.667	79.2
629.204	65.2
634.735	6.2
640.261	84.2
645.781	80.2
651.294	60.2
656.802	37.2
662.304	7.2
667.8	23.2
673.29	23.2
678.775	34.2
684.254	12.2
689.726	62.2
695.193	19.2
700.655	-56.8
706.11	42.2
711.56	66.2
717.004	35.2
722.442	56.2
727.874	1.2
733.301	72.2
738.722	77.2
744.137	29.2
749.547	26.2
754.951	47.2
760.349	47.2
765.741	31.2
771.128	69.2
776.509	67.2
781.885	84.2
787.254	66.2
792.618	21.2
797.977	64.2
803.33	9.2
808.677	61.2
814.019	35.2
819.355	48.2
824.686	67.2
830.011	70.2
835.33	-11.8
840.644	33.2
845.952	30.2
851.255	-2.8
856.552	63.2
861.844	-27.8
867.13	21.2
872.41	46.2
877.686	60.2
882.955	32.2
888.219	-8.8
893.478	107.2
898.731	47.2
903.979	9.2
909.221	11.2
914.458	111.2
919.69	43.2
924.916	84.2
930.136	10.2
935.351	139.2
940.561	38.2
945.766	-47.8
950.965	15.2
956.158	79.2
961.347	49.2
966.529	50.2
971.707	15.2
976.879	60.2
982.046	75.2
987.208	72.2
992.364	7.2
997.515	59.2
1002.66	18.2
1007.801	75.2
1012.936	95.2
1018.066	100.2
1023.19	92.2
1028.309	39.2
1033.423	-7.8
1038.532	126.2
1043.636	55.2
1048.734	31.2
1053.827	93.2
1058.915	120.2
1063.998	39.2
1069.075	48.2
1074.147	22.2
1079.214	38.2
1084.276	-40.8
1089.333	60.2
1094.385	87.2
1099.431	24.2
1104.472	7.2
1109.509	85.2
1114.54	81.2
1119.565	22.2
1124.586	35.2
1129.602	38.2
1134.613	8.2
1139.618	25.2
1144.619	39.2
1149.614	37.2
1154.604	30.2
1159.589	66.2
1164.57	9.2
1169.545	55.2
1174.515	45.2
1179.48	29.2
1184.44	60.2
1189.395	58.2
1194.345	8.2
1199.29	16.2
1204.23	17.2
1209.165	21.2
1214.095	48.2
1219.021	-1.8
1223.941	51.2
1228.856	62.2
1233.766	73.2
1238.672	28.2
1243.572	23.2
1248.467	35.2
1253.358	72.2
1258.244	58.2
1263.124	61.2
1268	27.2
1272.871	48.2
1277.737	67.2
1282.599	-7.8
1287.455	-21.8
1292.306	23.2
1297.153	67.2
1301.995	9.2
1306.832	-41.8
1311.664	24.2
1316.491	59.2
1321.314	9.2
1326.132	15.2
1330.945	74.2
1335.753	38.2
1340.556	37.2
1345.354	63.2
1350.148	4.2
1354.937	37.2
1359.722	17.2
1364.501	-9.8
1369.276	30.2
1374.046	43.2
1378.811	26.2
1383.572	37.2
1388.327	6.2
1393.079	6.2
1397.825	50.2
1402.567	81.2
1407.304	45.2
1412.036	1.2
1416.764	3.2
1421.487	101.2
1426.205	21.2
1430.919	68.2
1435.628	5.2
1440.333	87.2
1445.032	-27.8
1449.727	62.2
1454.418	61.2
1459.104	50.2
1463.785	21.2
1468.462	43.2
1473.134	25.2
1477.802	35.2
1482.465	62.2
1487.123	21.2
1491.777	67.2
1496.426	-58.8
1501.071	47.2
1505.711	18.2
1510.347	2.2
1514.978	55.2
1519.604	-10.8
1524.226	-25.8
1528.844	38.2
1533.457	-22.8
1538.065	23.2
1542.669	53.2
1547.269	81.2
1551.864	48.2
1556.454	6.2
1561.041	35.2
1565.622	80.2
1570.199	19.2
1574.772	70.2
1579.34	-6.8
1583.904	-14.8
1588.464	32.2
1593.019	11.2
1597.569	46.2
1602.115	-25.8
1606.657	23.2
1611.195	5.2
1615.728	-40.8
1620.256	-11.8
1624.78	68.2
1629.3	38.2
1633.816	-1.8
1638.327	52.2
1642.834	46.2
1647.336	50.2
1651.834	11.2
1656.328	46.2
1660.817	-10.8
1665.302	14.2
1669.783	104.2
1674.259	72.2
1678.732	-15.8
1683.199	31.2
1687.663	69.2
1692.122	64.2
1696.577	69.2
1701.028	55.2
1705.474	45.2
1709.917	79.2
1714.355	75.2
1718.788	17.2
1723.218	-45.8
1727.643	-8.8
1732.064	45.2
1736.481	-25.8
1740.893	28.2
1745.301	24.2
1749.705	64.2
1754.105	-9.8
1758.501	51.2
1762.893	63.2
1767.28	53.2
1771.663	-25.8
1776.042	48.2
1780.417	57.2
1784.787	58.2
1789.154	9.2
1793.516	-91.8
1797.874	-21.8
1802.228	-15.8
1806.578	80.2
1810.924	22.2
1815.266	364.2
1819.603	11.2
1823.937	32.2
1828.266	12.2
1832.591	29.2
1836.913	-6.8
1841.23	58.2
1845.543	33.2
1849.852	66.2
1854.156	76.2
1858.457	40.2
1862.754	19.2
1867.047	79.2
1871.335	68.2
1875.62	42.2
1879.9	30.2
1884.177	34.2
1888.449	50.2
1892.718	25.2
1896.982	30.2
1901.243	50.2
1905.499	21.2
1909.752	18.2
1914	-18.8
1918.245	40.2
1922.485	19.2
1926.722	11.2
1930.954	46.2
1935.183	9.2
1939.408	22.2
1943.628	49.2
1947.845	23.2
1952.058	55.2
1956.267	-4.8
1960.472	15.2
1964.673	40.2
1968.87	72.2
1973.063	99.2
1977.252	46.2
1981.438	38.2
1985.619	11.2
1989.797	-6.8
1993.971	29.2
1998.14	26.2
2002.306	53.2
2006.469	34.2
2010.627	16.2
2014.781	46.2
2018.932	79.2
2023.078	82.2
2027.221	41.2
2031.36	24.2
2035.495	121.2
2039.627	29.2
2043.754	-13.8
2047.878	-7.8
2051.998	20.2
2056.114	30.2
2060.226	8.2
2064.334	94.2
2068.439	12.2
2072.54	-5.8
2076.637	43.2
2080.73	3.2
2084.82	61.2
2088.906	29.2
2092.988	-112.8
2097.066	49.2
2101.14	38.2
2105.211	30.2
2109.278	-49.8
2113.342	56.2
2117.401	88.2
2121.457	-17.8
2125.509	29.2
2129.558	81.2
2133.602	34.2
2137.643	25.2
2141.681	-3.8
2145.714	41.2
2149.744	80.2
2153.77	36.2
2157.793	11.2
2161.812	47.2
2165.827	59.2
2169.838	50.2
2173.846	53.2
2177.851	50.2
2181.851	37.2
2185.848	-6.8
2189.841	53.2
2193.831	26.2
2197.817	6.2
2201.799	29.2
2205.778	37.2
2209.753	-5.8
2213.725	46.2
2217.693	50.2
2221.657	65.2
2225.618	37.2
2229.575	26.2
2233.529	37.2
2237.479	53.2
2241.425	53.2
2245.368	2.2
2249.307	57.2
2253.243	24.2
2257.175	69.2
2261.104	-10.8
2265.029	38.2
2268.95	74.2
2272.868	18.2
2276.783	11.2
2280.694	17.2
2284.601	12.2
2288.505	6.2
2292.405	34.2
2296.302	-30.8
2300.195	42.2
2304.085	16.2
2307.971	40.2
2311.854	8.2
2315.734	67.2
2319.609	53.2
2323.482	37.2
2327.351	23.2
2331.216	36.2
2335.078	34.2
2338.937	42.2
2342.792	62.2
2346.643	3.2
2350.492	70.2
2354.336	36.2
2358.178	36.2
2362.015	49.2
2365.85	123.2
2369.681	5.2
2373.508	71.2
2377.333	16.2
2381.153	55.2
2384.971	69.2
2388.785	-6.8
2392.595	35.2
2396.402	85.2
2400.206	63.2
2404.007	70.2
2407.804	58.2
2411.597	27.2
2415.388	73.2
2419.174	58.2
2422.958	12.2
2426.738	69.2
2430.515	-36.8
2434.289	87.2
2438.059	23.2
2441.825	80.2
2445.589	25.2
2449.349	24.2
2453.106	30.2
2456.859	19.2
2460.61	31.2
2464.356	33.2
2468.1	-11.8
2471.84	61.2
2475.577	54.2
2479.311	52.2
2483.041	40.2
2486.768	6.2
2490.492	70.2
2494.213	17.2
2497.93	67.2
2501.644	62.2
2505.355	-8.8
2509.062	49.2
2512.766	56.2
2516.467	28.2
2520.165	22.2
2523.859	27.2
2527.551	10.2
2531.239	23.2
2534.923	74.2
2538.605	86.2
2542.283	83.2
2545.958	58.2
2549.63	31.2
2553.299	59.2
2556.964	20.2
2560.626	-3.8
2564.285	9.2
2567.941	32.2
2571.594	39.2
2575.243	9.2
2578.89	16.2
2582.533	18.2
2586.173	14.2
2589.809	2.2
2593.443	79.2
2597.073	27.2
2600.701	-34.8
2604.325	27.2
2607.946	1.2
2611.564	5.2
2615.178	-15.8
2618.79	-25.8
2622.398	35.2
2626.004	75.2
2629.606	72.2
2633.205	67.2
2636.801	70.2
2640.394	-9.8
2643.983	5.2
2647.57	74.2
2651.153	-30.8
2654.734	29.2
2658.311	56.2
2661.885	54.2
2665.456	28.2
2669.025	49.2
2672.589	34.2
2676.151	24.2
2679.71	0.2
2683.266	76.2
2686.819	60.2
2690.368	27.2
2693.915	9.2
2697.458	93.2
2700.999	24.2
2704.536	67.2
2708.071	43.2
2711.602	65.2
2715.13	57.2
2718.656	37.2
2722.178	44.2
2725.697	22.2
2729.214	-52.8
2732.727	13.2
2736.237	84.2
2739.744	54.2
2743.249	27.2
2746.75	32.2
2750.248	56.2
2753.743	65.2
2757.236	25.2
2760.725	41.2
2764.211	73.2
2767.695	-10.8
2771.175	7.2
2774.652	26.2
2778.127	89.2
2781.598	47.2
2785.067	19.2
2788.532	31.2
2791.995	22.2
2795.455	52.2
2798.911	27.2
2802.365	40.2
2805.816	37.2
2809.264	36.2
2812.709	38.2
2816.151	66.2
2819.59	63.2
2823.026	32.2
2826.46	-5.8
2829.89	59.2
2833.318	48.2
2836.742	38.2
2840.164	54.2
2843.583	40.2
2846.999	99.2
2850.412	12.2
2853.822	54.2
2857.229	58.2
2860.634	11.2
2864.035	23.2
2867.434	30.2
2870.83	31.2
2874.223	56.2
2877.613	61.2
2881	34.2
2884.385	32.2
2887.766	1.2
2891.145	92.2
2894.521	41.2
2897.894	30.2
2901.264	-17.8
2904.631	64.2
2907.996	45.2
2911.358	53.2
2914.717	37.2
2918.073	43.2
2921.426	53.2
2924.777	19.2
2928.124	105.2
2931.469	30.2
2934.811	82.2
2938.15	50.2
2941.487	-19.8
2944.821	81.2
2948.152	25.2
2951.48	-28.8
2954.805	30.2
2958.128	2.2
2961.447	79.2
2964.765	28.2
2968.079	40.2
2971.39	26.2
2974.699	29.2
2978.005	12.2
2981.308	52.2
2984.609	-2.8
2987.907	-2.8
2991.202	58.2
2994.494	36.2
2997.784	27.2
3001.07	12.2
3004.355	-1.8
3007.636	18.2
3010.915	40.2
3014.191	118.2
3017.464	16.2
3020.734	42.2
3024.002	53.2
3027.267	23.2
3030.53	56.2
3033.789	55.2
3037.046	60.2
3040.301	38.2
3043.552	70.2
3046.801	72.2
3050.048	80.2
3053.291	-13.8
3056.532	69.2
3059.771	8.2
3063.006	12.2
3066.239	-39.8
3069.469	38.2
3072.697	39.2
3075.922	-3.8
3079.144	34.2
3082.364	14.2
3085.581	68.2
3088.795	37.2
3092.007	-57.8
3095.216	-10.8
3098.423	50.2
3101.627	58.2
3104.828	46.2
3108.026	69.2
3111.222	54.2
3114.416	31.2
3117.607	24.2
3120.795	3.2
3123.98	57.2
3127.163	40.2
3130.344	56.2
3133.521	-60.8
3136.696	68.2
3139.869	20.2
3143.039	38.2
3146.206	101.2
3149.371	38.2
3152.533	7.2
3155.693	4.2
3158.85	3.2
3162.005	52.2
3165.157	49.2
3168.306	40.2
3171.453	12.2
3174.597	78.2
3177.739	71.2
3180.878	7.2
3184.014	-18.8
3187.149	62.2
3190.28	50.2
3193.409	47.2
3196.536	53.2
3199.659	2.2
3202.781	7.2
3205.9	48.2
3209.016	63.2
3212.13	63.2
3215.241	52.2
3218.35	29.2
3221.456	202.2
3224.56	16.2
3227.661	61.2
3230.76	50.2
3233.856	81.2
3236.95	24.2
3240.041	37.2
3243.13	19.2
3246.216	62.2
3249.3	39.2
3252.382	57.2
3255.46	34.2
3258.537	-740.8
3261.611	64.2
3264.682	5.2
3267.751	6.2
3270.818	85.2
3273.882	12.2
3276.943	-27.8
3280.002	3.2
3283.059	-32.8
3286.113	25.2
3289.165	87.2
3292.214	69.2
3295.261	-12.8
3298.306	17.2
3301.348	41.2
3304.387	37.2
3307.425	79.2
3310.459	36.2
3313.492	16.2
3316.521	37.2
3319.549	33.2
3322.574	46.2
3325.597	52.2
3328.617	35.2
3331.635	38.2
3334.65	38.2
3337.663	85.2
3340.674	33.2
3343.682	13.2
3346.688	15.2
3349.691	-8.8
3352.692	87.2
3355.691	20.2
3358.687	55.2
3361.681	103.2
3364.673	-13.8
3367.662	20.2
3370.649	89.2
3373.633	57.2
3376.615	27.2
3379.595	53.2
3382.572	37.2
3385.547	23.2
3388.52	50.2
3391.49	23.2
3394.458	82.2
3397.424	-2.8
3400.387	92.2
3403.348	-11.8
3406.307	32.2
3409.263	40.2
3412.217	8.2
3415.168	-8.8
3418.118	45.2
3421.065	16.2
3424.009	13.2
3426.951	8.2
3429.891	-194.8
3432.829	40.2
3435.764	39.2
3438.697	66.2
3441.628	-38.8
3444.557	58.2
3447.483	87.2
3450.407	107.2
3453.328	14.2
3456.247	17.2
3459.164	19.2
3462.079	15.2
3464.991	51.2
3467.902	3.2
3470.809	61.2
3473.715	43.2
3476.618	51.2
3479.519	22.2
3482.418	76.2
3485.315	1.2
3488.209	24.2
3491.101	58.2
3493.99	93.2
3496.878	25.2
3499.763	-9.8
3502.646	14.2
3505.527	61.2
3508.405	-5.8
3511.281	-23.8
3514.155	55.2
3517.027	39.2
3519.897	85.2
3522.764	22.2
3525.629	35.2
3528.492	13.2
3531.352	45.2
3534.211	50.2
3537.067	36.2
3539.921	55.2
3542.773	83.2
3545.622	-21.8
3548.469	21.2
3551.315	106.2
3554.157	-9.8
3556.998	-65.8
3559.837	30.2
3562.673	17.2
3565.507	-8.8
3568.339	31.2
3571.169	43.2
3573.996	21.2
3576.822	62.2
3579.645	79.2
3582.466	28.2
3585.285	34.2
3588.101	7.2
3590.916	-13.8
3593.728	48.2
3596.538	20.2
3599.346	15.2
3602.152	50.2
3604.956	50.2
3607.757	50.2
3610.556	115.2
3613.354	59.2
3616.149	66.2
3618.942	40.2
3621.732	49.2
3624.521	41.2
3627.307	-39.8
3630.092	56.2
3632.874	26.2
3635.654	49.2
3638.432	59.2
3641.208	7.2
3643.982	55.2
3646.753	42.2
3649.523	35.2
3652.29	48.2
3655.055	110.2
3657.818	-36.8
3660.579	86.2
3663.338	55.2
3666.095	-4.8
3668.849	79.2
3671.602	22.2
3674.352	14.2
3677.101	42.2
3679.847	36.2
3682.591	95.2
3685.333	-16.8
3688.073	1.2
3690.811	75.2
3693.547	124.2
3696.281	29.2
3699.013	21.2
3701.742	7.2
3704.47	55.2
3707.195	53.2
3709.919	28.2
3712.64	45.2
3715.359	17.2
3718.076	46.2
3720.792	39.2
3723.505	15.2
3726.216	-17.8
3728.925	30.2
3731.632	35.2
3734.336	53.2
3737.039	38.2
3739.74	41.2
3742.439	116.2
3745.136	34.2
3747.83	95.2
3750.523	41.2
3753.213	-482.8
3755.902	67.2
3758.589	88.2
3761.273	35.2
3763.956	59.2
3766.636	17.2
3769.315	25.2
3771.991	72.2
3774.665	57.2
3777.338	71.2
3780.008	97.2
3782.677	49.2
3785.343	61.2
3788.007	125.2
3790.67	46.2
3793.33	11.2
3795.989	-16.8
3798.645	-9.8
3801.299	67.2
3803.952	-26.8
3806.602	12.2
3809.251	49.2
3811.897	37.2
3814.542	37.2
3817.184	12.2
3819.825	55.2
3822.463	1.2
3825.1	56.2
3827.735	71.2
3830.367	18.2
3832.998	14.2
3835.627	2.2
3838.253	-14.8
3840.878	-6.8
3843.501	19.2
3846.122	22.2
3848.741	22.2
3851.358	64.2
3853.973	60.2
3856.586	62.2
3859.197	-24.8
3861.806	-10.8
3864.414	93.2
3867.019	23.2
3869.622	40.2
3872.224	33.2
3874.823	56.2
3877.421	32.2
3880.016	-1.8
3882.61	110.2
3885.202	15.2
3887.792	68.2
3890.38	57.2
3892.966	-20.8
3895.55	-6.8
3898.132	53.2
3900.713	6.2
3903.291	17.2
3905.868	6.2
3908.442	29.2
3911.015	20.2
3913.586	-13.8
3916.155	87.2
3918.722	38.2
3921.287	44.2
3923.85	3.2
3926.411	27.2
3928.971	-30.8
3931.528	27.2
3934.084	-15.8
3936.638	30.2
3939.19	33.2
3941.74	44.2
3944.288	-2.8
3946.834	27.2
3949.378	44.2
3951.921	45.2
3954.462	26.2
3957	29.2
3959.537	81.2
3962.072	5.2
3964.606	23.2
3967.137	49.2
3969.667	1.2
3972.194	53.2
3974.72	66.2
3977.244	-16.8
3979.766	26.2
3982.286	67.2
3984.805	48.2
3987.321	47.2
3989.836	-8.8
3992.349	47.2
3994.86	-5.8
3997.369	9.2
3999.877	29.2
4002.382	-8.8
4004.886	-33.8
4007.388	45.2
4009.888	-1.8
4012.386	-19.8
4014.883	24.2
4017.377	7.2
4019.87	38.2
4022.361	8.2
4024.85	60.2
4027.338	8.2
4029.823	8.2
4032.307	5.2
4034.789	44.2
4037.269	84.2
4039.747	78.2
4042.224	52.2
4044.699	39.2
4047.172	-8.8
4049.643	13.2
4052.112	20.2
4054.58	35.2
4057.046	42.2
4059.51	66.2
4061.972	11.2
4064.432	41.2
4066.891	14.2
4069.348	99.2
4071.803	21.2
4074.256	-6.8
4076.708	77.2
4079.158	53.2
4081.606	59.2
4084.052	41.2
4086.497	79.2
4088.939	49.2
4091.38	39.2
4093.819	79.2
4096.257	-47.8
4098.693	-23.8
4101.127	-37.8
4103.559	-53.8
4105.989	40.2
4108.418	43.2
4110.845	32.2
4113.27	-34.8
4115.694	14.2
4118.115	56.2
4120.535	20.2
4122.954	-22.8
4125.37	31.2
4127.785	5.2
4130.198	22.2
4132.609	39.2
4135.019	-29.8
4137.427	-36.8
4139.833	-25.8
4142.237	-54.8
