Data from 2018-2-8_conc=4_RamanShift_06.txt Node
Date: Wed Feb 07 10:34:40 IST 2018
User: aro
Spectrometer: QEPB0276
Trigger mode: 0
Integration Time (sec): 3.000000E1
Scans to average: 1
Electric dark correction enabled: true
Nonlinearity correction enabled: false
Boxcar width: 0
XAxis mode: Raman Shifts
Number of Pixels in Spectrum: 1044
>>>>>Begin Spectral Data<<<<<
160.701	468.1
166.742	542.1
172.777	1083.1
178.805	2592.1
184.826	6057.1
190.841	11975.1
196.849	19161.1
202.85	24544.1
208.845	26448.1
214.833	26235.1
220.815	25822.1
226.789	24442.1
232.758	25511.1
238.719	25321.1
244.674	25028.1
250.623	24554.1
256.565	24209.1
262.5	23740.1
268.429	23092.1
274.351	22758.1
280.267	22551.1
286.176	21986.1
292.079	21713.1
297.975	21426.1
303.865	21224.1
309.748	21053.1
315.625	20916.1
321.495	20418.1
327.359	20461.1
333.217	20433.1
339.068	20412.1
344.912	20381.1
350.751	20348.1
356.583	20335.1
362.408	20318.1
368.227	20328.1
374.04	20483.1
379.847	20491.1
385.647	20576.1
391.44	20778.1
397.228	20822.1
403.009	21008.1
408.784	21206.1
414.553	21221.1
420.315	21283.1
426.071	21375.1
431.821	21210.1
437.565	21255.1
443.302	21078.1
449.033	21041.1
454.758	20959.1
460.477	20848.1
466.189	20705.1
471.896	20697.1
477.596	20547.1
483.29	20577.1
488.978	20445.1
494.66	20590.1
500.335	20449.1
506.005	20365.1
511.668	20146.1
517.325	20036.1
522.977	19856.1
528.622	19850.1
534.261	19661.1
539.894	19612.1
545.521	19579.1
551.141	19393.1
556.756	19189.1
562.365	18992.1
567.968	18943.1
573.565	18745.1
579.155	18655.1
584.74	18628.1
590.319	18428.1
595.892	18453.1
601.459	18368.1
607.02	18388.1
612.575	18364.1
618.124	18321.1
623.667	18424.1
629.204	18315.1
634.735	18319.1
640.261	18137.1
645.781	18301.1
651.294	18102.1
656.802	17873.1
662.304	17762.1
667.8	17555.1
673.29	17601.1
678.775	17443.1
684.254	17456.1
689.726	17552.1
695.193	17262.1
700.655	17308.1
706.11	17433.1
711.56	17348.1
717.004	17418.1
722.442	17514.1
727.874	17351.1
733.301	17368.1
738.722	17411.1
744.137	17215.1
749.547	17053.1
754.951	17076.1
760.349	16903.1
765.741	16780.1
771.128	16770.1
776.509	16736.1
781.885	16690.1
787.254	16701.1
792.618	16807.1
797.977	16898.1
803.33	16911.1
808.677	16973.1
814.019	16891.1
819.355	16966.1
824.686	16923.1
830.011	16960.1
835.33	16641.1
840.644	16420.1
845.952	16533.1
851.255	16241.1
856.552	16195.1
861.844	16062.1
867.13	15962.1
872.41	15894.1
877.686	15893.1
882.955	15927.1
888.219	16039.1
893.478	16106.1
898.731	15961.1
903.979	15915.1
909.221	15938.1
914.458	15870.1
919.69	15639.1
924.916	15548.1
930.136	15316.1
935.351	15350.1
940.561	15004.1
945.766	14931.1
950.965	14731.1
956.158	14901.1
961.347	15017.1
966.529	14921.1
971.707	14860.1
976.879	14892.1
982.046	14979.1
987.208	14974.1
992.364	14818.1
997.515	14803.1
1002.66	14652.1
1007.801	14763.1
1012.936	14603.1
1018.066	14691.1
1023.19	14507.1
1028.309	14439.1
1033.423	14569.1
1038.532	14587.1
1043.636	14857.1
1048.734	14751.1
1053.827	14873.1
1058.915	14794.1
1063.998	14639.1
1069.075	14534.1
1074.147	14298.1
1079.214	14368.1
1084.276	14037.1
1089.333	13985.1
1094.385	13880.1
1099.431	14210.1
1104.472	13941.1
1109.509	14115.1
1114.54	14172.1
1119.565	14244.1
1124.586	14192.1
1129.602	14204.1
1134.613	14095.1
1139.618	14039.1
1144.619	13813.1
1149.614	13617.1
1154.604	13498.1
1159.589	13418.1
1164.57	13166.1
1169.545	13242.1
1174.515	13225.1
1179.48	13366.1
1184.44	13439.1
1189.395	13609.1
1194.345	13711.1
1199.29	13660.1
1204.23	13743.1
1209.165	13700.1
1214.095	13547.1
1219.021	13389.1
1223.941	13388.1
1228.856	13373.1
1233.766	13366.1
1238.672	13242.1
1243.572	13203.1
1248.467	13276.1
1253.358	13423.1
1258.244	13323.1
1263.124	13282.1
1268	13255.1
1272.871	13180.1
1277.737	13091.1
1282.599	12934.1
1287.455	12747.1
1292.306	12542.1
1297.153	12579.1
1301.995	12358.1
1306.832	12408.1
1311.664	12411.1
1316.491	12430.1
1321.314	12439.1
1326.132	12411.1
1330.945	12341.1
1335.753	12186.1
1340.556	12044.1
1345.354	11961.1
1350.148	11641.1
1354.937	11405.1
1359.722	11425.1
1364.501	11203.1
1369.276	11100.1
1374.046	11104.1
1378.811	11279.1
1383.572	11429.1
1388.327	11058.1
1393.079	11512.1
1397.825	11639.1
1402.567	11609.1
1407.304	11533.1
1412.036	11582.1
1416.764	11518.1
1421.487	11691.1
1426.205	11332.1
1430.919	11230.1
1435.628	11084.1
1440.333	10946.1
1445.032	10747.1
1449.727	10877.1
1454.418	10829.1
1459.104	10823.1
1463.785	10640.1
1468.462	10646.1
1473.134	10585.1
1477.802	10471.1
1482.465	10468.1
1487.123	10139.1
1491.777	10228.1
1496.426	10181.1
1501.071	9936.1
1505.711	10094.1
1510.347	10047.1
1514.978	10174.1
1519.604	10235.1
1524.226	10344.1
1528.844	10640.1
1533.457	10508.1
1538.065	10633.1
1542.669	10768.1
1547.269	10809.1
1551.864	10702.1
1556.454	10935.1
1561.041	10834.1
1565.622	10783.1
1570.199	10524.1
1574.772	10456.1
1579.34	10294.1
1583.904	10457.1
1588.464	10408.1
1593.019	10477.1
1597.569	10564.1
1602.115	10671.1
1606.657	10672.1
1611.195	10670.1
1615.728	10784.1
1620.256	10880.1
1624.78	10874.1
1629.3	10826.1
1633.816	10644.1
1638.327	10652.1
1642.834	10627.1
1647.336	10505.1
1651.834	10411.1
1656.328	10534.1
1660.817	10359.1
1665.302	10478.1
1669.783	10390.1
1674.259	10264.1
1678.732	9972.1
1683.199	9749.1
1687.663	9561.1
1692.122	9154.1
1696.577	8918.1
1701.028	9142.1
1705.474	8873.1
1709.917	8862.1
1714.355	8821.1
1718.788	8696.1
1723.218	8598.1
1727.643	8321.1
1732.064	8157.1
1736.481	8291.1
1740.893	8012.1
1745.301	7914.1
1749.705	7980.1
1754.105	7528.1
1758.501	7553.1
1762.893	7261.1
1767.28	7140.1
1771.663	6939.1
1776.042	6777.1
1780.417	6715.1
1784.787	6513.1
1789.154	6518.1
1793.516	6480.1
1797.874	6719.1
1802.228	6849.1
1806.578	7012.1
1810.924	6949.1
1815.266	7694.1
1819.603	6980.1
1823.937	6947.1
1828.266	6901.1
1832.591	6843.1
1836.913	6722.1
1841.23	6801.1
1845.543	6686.1
1849.852	6516.1
1854.156	6572.1
1858.457	6485.1
1862.754	6272.1
1867.047	6414.1
1871.335	6237.1
1875.62	6223.1
1879.9	6156.1
1884.177	6310.1
1888.449	6235.1
1892.718	6182.1
1896.982	6143.1
1901.243	6291.1
1905.499	6225.1
1909.752	6160.1
1914	6265.1
1918.245	6133.1
1922.485	6142.1
1926.722	6270.1
1930.954	6211.1
1935.183	6185.1
1939.408	6224.1
1943.628	6253.1
1947.845	6258.1
1952.058	6272.1
1956.267	6226.1
1960.472	6174.1
1964.673	6168.1
1968.87	6251.1
1973.063	6221.1
1977.252	6116.1
1981.438	6058.1
1985.619	5967.1
1989.797	5933.1
1993.971	5831.1
1998.14	5659.1
2002.306	5637.1
2006.469	5591.1
2010.627	5632.1
2014.781	5607.1
2018.932	5605.1
2023.078	5443.1
2027.221	5441.1
2031.36	5487.1
2035.495	5523.1
2039.627	5391.1
2043.754	5321.1
2047.878	5336.1
2051.998	5296.1
2056.114	5342.1
2060.226	5245.1
2064.334	5215.1
2068.439	5122.1
2072.54	5141.1
2076.637	5302.1
2080.73	5170.1
2084.82	5162.1
2088.906	5178.1
2092.988	5317.1
2097.066	5372.1
2101.14	5223.1
2105.211	5270.1
2109.278	5258.1
2113.342	5281.1
2117.401	5441.1
2121.457	5370.1
2125.509	5299.1
2129.558	5076.1
2133.602	5145.1
2137.643	5111.1
2141.681	5044.1
2145.714	5004.1
2149.744	4975.1
2153.77	4926.1
2157.793	4892.1
2161.812	4903.1
2165.827	4902.1
2169.838	4768.1
2173.846	4816.1
2177.851	4738.1
2181.851	4625.1
2185.848	4811.1
2189.841	4510.1
2193.831	4600.1
2197.817	4415.1
2201.799	4461.1
2205.778	4507.1
2209.753	4401.1
2213.725	4375.1
2217.693	4350.1
2221.657	4404.1
2225.618	3923.1
2229.575	4324.1
2233.529	4201.1
2237.479	4280.1
2241.425	4214.1
2245.368	4352.1
2249.307	4185.1
2253.243	4152.1
2257.175	4211.1
2261.104	4132.1
2265.029	4014.1
2268.95	4003.1
2272.868	3894.1
2276.783	3921.1
2280.694	3753.1
2284.601	3748.1
2288.505	3745.1
2292.405	3554.1
2296.302	3710.1
2300.195	3578.1
2304.085	3667.1
2307.971	3532.1
2311.854	3626.1
2315.734	3485.1
2319.609	3542.1
2323.482	3626.1
2327.351	3491.1
2331.216	3481.1
2335.078	3498.1
2338.937	3496.1
2342.792	3444.1
2346.643	3374.1
2350.492	3348.1
2354.336	3388.1
2358.178	3292.1
2362.015	3329.1
2365.85	3406.1
2369.681	3359.1
2373.508	3355.1
2377.333	3292.1
2381.153	3439.1
2384.971	3404.1
2388.785	3373.1
2392.595	3396.1
2396.402	3457.1
2400.206	3426.1
2404.007	3401.1
2407.804	3354.1
2411.597	3227.1
2415.388	3308.1
2419.174	3225.1
2422.958	3252.1
2426.738	3175.1
2430.515	3024.1
2434.289	3200.1
2438.059	3210.1
2441.825	3157.1
2445.589	2994.1
2449.349	3141.1
2453.106	2989.1
2456.859	2998.1
2460.61	2954.1
2464.356	3044.1
2468.1	2969.1
2471.84	3016.1
2475.577	2964.1
2479.311	2836.1
2483.041	2876.1
2486.768	2764.1
2490.492	2665.1
2494.213	2857.1
2497.93	2855.1
2501.644	2875.1
2505.355	2908.1
2509.062	2856.1
2512.766	2836.1
2516.467	2787.1
2520.165	2764.1
2523.859	2838.1
2527.551	2614.1
2531.239	2806.1
2534.923	2795.1
2538.605	2737.1
2542.283	2673.1
2545.958	2804.1
2549.63	2633.1
2553.299	2607.1
2556.964	2688.1
2560.626	2722.1
2564.285	2601.1
2567.941	2706.1
2571.594	2735.1
2575.243	2559.1
2578.89	2712.1
2582.533	2670.1
2586.173	2650.1
2589.809	2614.1
2593.443	2816.1
2597.073	2618.1
2600.701	2482.1
2604.325	2577.1
2607.946	2577.1
2611.564	2536.1
2615.178	2411.1
2618.79	2430.1
2622.398	2465.1
2626.004	2473.1
2629.606	2360.1
2633.205	2579.1
2636.801	2501.1
2640.394	2368.1
2643.983	2373.1
2647.57	2396.1
2651.153	2319.1
2654.734	2207.1
2658.311	2488.1
2661.885	2255.1
2665.456	2250.1
2669.025	2208.1
2672.589	2192.1
2676.151	2114.1
2679.71	2090.1
2683.266	2097.1
2686.819	2140.1
2690.368	2034.1
2693.915	2097.1
2697.458	2086.1
2700.999	1950.1
2704.536	1959.1
2708.071	1964.1
2711.602	1953.1
2715.13	1921.1
2718.656	1938.1
2722.178	1833.1
2725.697	1972.1
2729.214	1609.1
2732.727	1782.1
2736.237	1811.1
2739.744	1780.1
2743.249	1883.1
2746.75	1839.1
2750.248	1878.1
2753.743	1951.1
2757.236	1855.1
2760.725	1881.1
2764.211	2032.1
2767.695	1865.1
2771.175	1903.1
2774.652	1903.1
2778.127	1877.1
2781.598	1862.1
2785.067	1895.1
2788.532	1833.1
2791.995	1848.1
2795.455	1824.1
2798.911	1745.1
2802.365	1970.1
2805.816	1784.1
2809.264	1786.1
2812.709	1919.1
2816.151	1846.1
2819.59	1998.1
2823.026	1957.1
2826.46	1994.1
2829.89	1919.1
2833.318	2162.1
2836.742	1971.1
2840.164	1936.1
2843.583	1994.1
2846.999	2022.1
2850.412	1976.1
2853.822	2066.1
2857.229	1883.1
2860.634	2029.1
2864.035	2108.1
2867.434	2017.1
2870.83	2011.1
2874.223	2087.1
2877.613	2002.1
2881	2198.1
2884.385	2245.1
2887.766	2196.1
2891.145	2127.1
2894.521	2318.1
2897.894	2368.1
2901.264	2057.1
2904.631	2297.1
2907.996	2239.1
2911.358	2300.1
2914.717	2300.1
2918.073	2266.1
2921.426	2237.1
2924.777	2405.1
2928.124	2406.1
2931.469	2302.1
2934.811	2536.1
2938.15	2374.1
2941.487	2458.1
2944.821	2210.1
2948.152	2561.1
2951.48	2495.1
2954.805	2424.1
2958.128	2415.1
2961.447	2521.1
2964.765	2323.1
2968.079	2536.1
2971.39	2499.1
2974.699	2525.1
2978.005	2528.1
2981.308	2543.1
2984.609	2736.1
2987.907	2635.1
2991.202	2677.1
2994.494	2729.1
2997.784	2505.1
3001.07	2706.1
3004.355	2727.1
3007.636	2768.1
3010.915	2835.1
3014.191	2923.1
3017.464	2894.1
3020.734	2872.1
3024.002	3026.1
3027.267	3024.1
3030.53	3102.1
3033.789	3141.1
3037.046	3268.1
3040.301	3220.1
3043.552	3311.1
3046.801	3411.1
3050.048	3292.1
3053.291	3287.1
3056.532	3508.1
3059.771	3672.1
3063.006	3654.1
3066.239	3674.1
3069.469	3830.1
3072.697	4009.1
3075.922	4045.1
3079.144	4085.1
3082.364	4187.1
3085.581	4411.1
3088.795	4174.1
3092.007	4463.1
3095.216	4698.1
3098.423	4877.1
3101.627	5026.1
3104.828	5151.1
3108.026	5162.1
3111.222	5239.1
3114.416	5220.1
3117.607	5459.1
3120.795	5469.1
3123.98	5647.1
3127.163	5856.1
3130.344	5872.1
3133.521	5935.1
3136.696	6073.1
3139.869	6167.1
3143.039	6270.1
3146.206	6291.1
3149.371	6475.1
3152.533	6636.1
3155.693	6725.1
3158.85	6793.1
3162.005	6875.1
3165.157	6986.1
3168.306	6960.1
3171.453	6942.1
3174.597	7183.1
3177.739	7162.1
3180.878	7081.1
3184.014	7054.1
3187.149	7063.1
3190.28	7074.1
3193.409	7030.1
3196.536	7005.1
3199.659	6952.1
3202.781	6992.1
3205.9	7128.1
3209.016	7044.1
3212.13	7059.1
3215.241	7000.1
3218.35	7068.1
3221.456	7069.1
3224.56	7195.1
3227.661	7160.1
3230.76	7233.1
3233.856	7156.1
3236.95	7087.1
3240.041	7149.1
3243.13	6922.1
3246.216	6988.1
3249.3	6846.1
3252.382	6790.1
3255.46	6893.1
3258.537	7200.1
3261.611	6833.1
3264.682	6690.1
3267.751	6582.1
3270.818	6677.1
3273.882	6541.1
3276.943	6401.1
3280.002	6379.1
3283.059	6396.1
3286.113	6403.1
3289.165	6431.1
3292.214	6354.1
3295.261	6192.1
3298.306	6300.1
3301.348	6128.1
3304.387	6025.1
3307.425	5959.1
3310.459	5939.1
3313.492	5712.1
3316.521	5705.1
3319.549	5632.1
3322.574	5539.1
3325.597	5510.1
3328.617	5448.1
3331.635	5344.1
3334.65	5350.1
3337.663	5319.1
3340.674	5321.1
3343.682	5198.1
3346.688	5221.1
3349.691	5203.1
3352.692	5246.1
3355.691	5087.1
3358.687	5100.1
3361.681	5055.1
3364.673	5052.1
3367.662	4990.1
3370.649	4903.1
3373.633	5064.1
3376.615	4974.1
3379.595	5076.1
3382.572	5008.1
3385.547	4795.1
3388.52	4882.1
3391.49	4725.1
3394.458	4700.1
3397.424	4611.1
3400.387	4728.1
3403.348	4327.1
3406.307	4398.1
3409.263	4409.1
3412.217	4203.1
3415.168	4199.1
3418.118	4155.1
3421.065	4115.1
3424.009	3939.1
3426.951	4061.1
3429.891	3808.1
3432.829	3945.1
3435.764	3953.1
3438.697	3888.1
3441.628	3662.1
3444.557	3770.1
3447.483	3768.1
3450.407	3492.1
3453.328	3435.1
3456.247	3492.1
3459.164	3474.1
3462.079	3245.1
3464.991	3198.1
3467.902	3142.1
3470.809	3114.1
3473.715	2954.1
3476.618	2896.1
3479.519	2779.1
3482.418	2860.1
3485.315	2684.1
3488.209	2561.1
3491.101	2562.1
3493.99	2533.1
3496.878	2226.1
3499.763	2309.1
3502.646	2191.1
3505.527	2343.1
3508.405	2200.1
3511.281	2051.1
3514.155	2081.1
3517.027	1986.1
3519.897	2118.1
3522.764	1822.1
3525.629	1909.1
3528.492	1802.1
3531.352	1694.1
3534.211	1650.1
3537.067	1719.1
3539.921	1565.1
3542.773	1514.1
3545.622	1466.1
3548.469	1471.1
3551.315	1368.1
3554.157	1258.1
3556.998	1252.1
3559.837	1098.1
3562.673	1051.1
3565.507	1137.1
3568.339	982.1
3571.169	1073.1
3573.996	1046.1
3576.822	1021.1
3579.645	983.1
3582.466	931.1
3585.285	859.1
3588.101	781.1
3590.916	825.1
3593.728	722.1
3596.538	824.1
3599.346	717.1
3602.152	837.1
3604.956	706.1
3607.757	614.1
3610.556	759.1
3613.354	619.1
3616.149	616.1
3618.942	582.1
3621.732	349.1
3624.521	592.1
3627.307	482.1
3630.092	489.1
3632.874	376.1
3635.654	491.1
3638.432	533.1
3641.208	340.1
3643.982	422.1
3646.753	376.1
3649.523	412.1
3652.29	406.1
3655.055	412.1
3657.818	277.1
3660.579	207.1
3663.338	433.1
3666.095	249.1
3668.849	430.1
3671.602	243.1
3674.352	414.1
3677.101	208.1
3679.847	153.1
3682.591	276.1
3685.333	244.1
3688.073	175.1
3690.811	280.1
3693.547	256.1
3696.281	234.1
3699.013	119.1
3701.742	209.1
3704.47	253.1
3707.195	164.1
3709.919	160.1
3712.64	108.1
3715.359	68.1
3718.076	-94.9
3720.792	113.1
3723.505	98.1
3726.216	72.1
3728.925	172.1
3731.632	-26.9
3734.336	191.1
3737.039	86.1
3739.74	97.1
3742.439	124.1
3745.136	67.1
3747.83	-0.9
3750.523	30.1
3753.213	-8.9
3755.902	62.1
3758.589	166.1
3761.273	135.1
3763.956	-54.9
3766.636	114.1
3769.315	-122.9
3771.991	172.1
3774.665	19.1
3777.338	155.1
3780.008	117.1
3782.677	44.1
3785.343	129.1
3788.007	132.1
3790.67	-11.9
3793.33	1.1
3795.989	23.1
3798.645	-20.9
3801.299	146.1
3803.952	-4.9
3806.602	-36.9
3809.251	59.1
3811.897	22.1
3814.542	72.1
3817.184	14.1
3819.825	45.1
3822.463	-20.9
3825.1	42.1
3827.735	35.1
3830.367	-13.9
3832.998	-105.9
3835.627	-45.9
3838.253	-22.9
3840.878	-163.9
3843.501	-156.9
3846.122	-66.9
3848.741	-90.9
3851.358	-2.9
3853.973	117.1
3856.586	-2.9
3859.197	4.1
3861.806	-13.9
3864.414	84.1
3867.019	-25.9
3869.622	-92.9
3872.224	-73.9
3874.823	65.1
3877.421	9.1
3880.016	110.1
3882.61	209.1
3885.202	109.1
3887.792	96.1
3890.38	-50.9
3892.966	63.1
3895.55	7.1
3898.132	10.1
3900.713	-85.9
3903.291	15.1
3905.868	-49.9
3908.442	-1.9
3911.015	-31.9
3913.586	-45.9
3916.155	-69.9
3918.722	32.1
3921.287	2.1
3923.85	-288.9
3926.411	-46.9
3928.971	-96.9
3931.528	-43.9
3934.084	-66.9
3936.638	-35.9
3939.19	-77.9
3941.74	-64.9
3944.288	-45.9
3946.834	-65.9
3949.378	-52.9
3951.921	7.1
3954.462	-6.9
3957	-42.9
3959.537	22.1
3962.072	58.1
3964.606	104.1
3967.137	-28.9
3969.667	-61.9
3972.194	-36.9
3974.72	-35.9
3977.244	60.1
3979.766	46.1
3982.286	118.1
3984.805	-135.9
3987.321	-109.9
3989.836	-51.9
3992.349	27.1
3994.86	-37.9
3997.369	-10.9
3999.877	-82.9
4002.382	2.1
4004.886	-57.9
4007.388	5.1
4009.888	85.1
4012.386	-50.9
4014.883	-29.9
4017.377	-102.9
4019.87	-160.9
4022.361	44.1
4024.85	106.1
4027.338	49.1
4029.823	-60.9
4032.307	-8.9
4034.789	22.1
4037.269	35.1
4039.747	75.1
4042.224	-60.9
4044.699	21.1
4047.172	-29.9
4049.643	-110.9
4052.112	107.1
4054.58	-45.9
4057.046	57.1
4059.51	58.1
4061.972	-82.9
4064.432	76.1
4066.891	-72.9
4069.348	10.1
4071.803	-50.9
4074.256	-42.9
4076.708	6.1
4079.158	37.1
4081.606	-102.9
4084.052	22.1
4086.497	-43.9
4088.939	-13.9
4091.38	10.1
4093.819	-61.9
4096.257	-1154.9
4098.693	-1160.9
4101.127	-1233.9
4103.559	-1212.9
4105.989	123.1
4108.418	151.1
4110.845	381.1
4113.27	233.1
4115.694	367.1
4118.115	350.1
4120.535	-48.9
4122.954	-124.9
4125.37	-136.9
4127.785	-51.9
4130.198	-32.9
4132.609	-64.9
4135.019	-1243.9
4137.427	-1227.9
4139.833	-1173.9
4142.237	-1039.9
