Data from 2018-2-8_conc=2_RamanShift_07.txt Node
Date: Wed Feb 07 09:53:40 IST 2018
User: aro
Spectrometer: QEPB0276
Trigger mode: 0
Integration Time (sec): 3.000000E1
Scans to average: 1
Electric dark correction enabled: true
Nonlinearity correction enabled: false
Boxcar width: 0
XAxis mode: Raman Shifts
Number of Pixels in Spectrum: 1044
>>>>>Begin Spectral Data<<<<<
160.701	553.4
166.742	737.4
172.777	1178.4
178.805	2845.4
184.826	6353.4
190.841	12486.4
196.849	19799.4
202.85	25188.4
208.845	27213.4
214.833	27014.4
220.815	26707.4
226.789	26653.4
232.758	26612.4
238.719	26517.4
244.674	26447.4
250.623	25904.4
256.565	25578.4
262.5	25138.4
268.429	24630.4
274.351	24435.4
280.267	24266.4
286.176	23694.4
292.079	23463.4
297.975	23164.4
303.865	23092.4
309.748	22970.4
315.625	22905.4
321.495	22290.4
327.359	22350.4
333.217	22426.4
339.068	22330.4
344.912	22417.4
350.751	22303.4
356.583	22350.4
362.408	22293.4
368.227	22249.4
374.04	22388.4
379.847	22495.4
385.647	22548.4
391.44	22753.4
397.228	22843.4
403.009	23030.4
408.784	23185.4
414.553	23269.4
420.315	23418.4
426.071	23368.4
431.821	23442.4
437.565	23339.4
443.302	23072.4
449.033	23097.4
454.758	23053.4
460.477	22846.4
466.189	22757.4
471.896	22685.4
477.596	22551.4
483.29	22640.4
488.978	22641.4
494.66	22584.4
500.335	22580.4
506.005	22473.4
511.668	22171.4
517.325	22111.4
522.977	21923.4
528.622	21835.4
534.261	21700.4
539.894	21653.4
545.521	21563.4
551.141	21512.4
556.756	21285.4
562.365	21186.4
567.968	20995.4
573.565	20886.4
579.155	20658.4
584.74	20614.4
590.319	20444.4
595.892	20488.4
601.459	20471.4
607.02	20468.4
612.575	20480.4
618.124	20382.4
623.667	20494.4
629.204	20381.4
634.735	20385.4
640.261	20304.4
645.781	20460.4
651.294	20131.4
656.802	20042.4
662.304	19872.4
667.8	19586.4
673.29	19609.4
678.775	19477.4
684.254	19595.4
689.726	19550.4
695.193	19340.4
700.655	19367.4
706.11	19559.4
711.56	19396.4
717.004	19527.4
722.442	19399.4
727.874	19444.4
733.301	19398.4
738.722	19441.4
744.137	19313.4
749.547	19216.4
754.951	19127.4
760.349	18918.4
765.741	18787.4
771.128	18796.4
776.509	18834.4
781.885	18751.4
787.254	18783.4
792.618	18856.4
797.977	19045.4
803.33	18971.4
808.677	19028.4
814.019	18980.4
819.355	18989.4
824.686	18991.4
830.011	18990.4
835.33	18661.4
840.644	18498.4
845.952	18622.4
851.255	18256.4
856.552	18252.4
861.844	18066.4
867.13	18041.4
872.41	17961.4
877.686	17946.4
882.955	17979.4
888.219	18082.4
893.478	18182.4
898.731	17995.4
903.979	18019.4
909.221	18064.4
914.458	18015.4
919.69	17735.4
924.916	17622.4
930.136	17304.4
935.351	17369.4
940.561	16984.4
945.766	16999.4
950.965	16773.4
956.158	16915.4
961.347	17005.4
966.529	16971.4
971.707	16897.4
976.879	16988.4
982.046	17050.4
987.208	17047.4
992.364	16837.4
997.515	16817.4
1002.66	16642.4
1007.801	16816.4
1012.936	16660.4
1018.066	16732.4
1023.19	16412.4
1028.309	16438.4
1033.423	16530.4
1038.532	16646.4
1043.636	16856.4
1048.734	16847.4
1053.827	16960.4
1058.915	16981.4
1063.998	16784.4
1069.075	16623.4
1074.147	16389.4
1079.214	16404.4
1084.276	16041.4
1089.333	15983.4
1094.385	15999.4
1099.431	16168.4
1104.472	15903.4
1109.509	16102.4
1114.54	16194.4
1119.565	16199.4
1124.586	16221.4
1129.602	16220.4
1134.613	16213.4
1139.618	16054.4
1144.619	15784.4
1149.614	15573.4
1154.604	15477.4
1159.589	15444.4
1164.57	15022.4
1169.545	15207.4
1174.515	15216.4
1179.48	15446.4
1184.44	15411.4
1189.395	15478.4
1194.345	15641.4
1199.29	15662.4
1204.23	15788.4
1209.165	15614.4
1214.095	15637.4
1219.021	15483.4
1223.941	15397.4
1228.856	15356.4
1233.766	15312.4
1238.672	15160.4
1243.572	15149.4
1248.467	15220.4
1253.358	15322.4
1258.244	15444.4
1263.124	15287.4
1268	15174.4
1272.871	15098.4
1277.737	15129.4
1282.599	14871.4
1287.455	14665.4
1292.306	14396.4
1297.153	14466.4
1301.995	14380.4
1306.832	14274.4
1311.664	14240.4
1316.491	14252.4
1321.314	14293.4
1326.132	14218.4
1330.945	14111.4
1335.753	14044.4
1340.556	13837.4
1345.354	13661.4
1350.148	13369.4
1354.937	13069.4
1359.722	12969.4
1364.501	12782.4
1369.276	12732.4
1374.046	12680.4
1378.811	12921.4
1383.572	13041.4
1388.327	12817.4
1393.079	13303.4
1397.825	13393.4
1402.567	13363.4
1407.304	13270.4
1412.036	13327.4
1416.764	13261.4
1421.487	13429.4
1426.205	13008.4
1430.919	12771.4
1435.628	12699.4
1440.333	12629.4
1445.032	12448.4
1449.727	12435.4
1454.418	12455.4
1459.104	12378.4
1463.785	12229.4
1468.462	12206.4
1473.134	12191.4
1477.802	11957.4
1482.465	12050.4
1487.123	11628.4
1491.777	11737.4
1496.426	11534.4
1501.071	11334.4
1505.711	11378.4
1510.347	11468.4
1514.978	11568.4
1519.604	11684.4
1524.226	11757.4
1528.844	12137.4
1533.457	12103.4
1538.065	12133.4
1542.669	12252.4
1547.269	12332.4
1551.864	12309.4
1556.454	12500.4
1561.041	12262.4
1565.622	12262.4
1570.199	12077.4
1574.772	11991.4
1579.34	11790.4
1583.904	11913.4
1588.464	11856.4
1593.019	11863.4
1597.569	12016.4
1602.115	11998.4
1606.657	12073.4
1611.195	12090.4
1615.728	12137.4
1620.256	12285.4
1624.78	12283.4
1629.3	12181.4
1633.816	12016.4
1638.327	11867.4
1642.834	11825.4
1647.336	11778.4
1651.834	11664.4
1656.328	11782.4
1660.817	11566.4
1665.302	11639.4
1669.783	11561.4
1674.259	11520.4
1678.732	11127.4
1683.199	10889.4
1687.663	10740.4
1692.122	10203.4
1696.577	9923.4
1701.028	9902.4
1705.474	9833.4
1709.917	9878.4
1714.355	9849.4
1718.788	9911.4
1723.218	9796.4
1727.643	9485.4
1732.064	9344.4
1736.481	9504.4
1740.893	9190.4
1745.301	9100.4
1749.705	9225.4
1754.105	8716.4
1758.501	8702.4
1762.893	8313.4
1767.28	8240.4
1771.663	7933.4
1776.042	7737.4
1780.417	7588.4
1784.787	7387.4
1789.154	7372.4
1793.516	7361.4
1797.874	7494.4
1802.228	7708.4
1806.578	7909.4
1810.924	7756.4
1815.266	8380.4
1819.603	7954.4
1823.937	7994.4
1828.266	7946.4
1832.591	7788.4
1836.913	7752.4
1841.23	7816.4
1845.543	7723.4
1849.852	7532.4
1854.156	7535.4
1858.457	7473.4
1862.754	7436.4
1867.047	7356.4
1871.335	7167.4
1875.62	7126.4
1879.9	7102.4
1884.177	7246.4
1888.449	7058.4
1892.718	7096.4
1896.982	6985.4
1901.243	7153.4
1905.499	6997.4
1909.752	6935.4
1914	7036.4
1918.245	6880.4
1922.485	6910.4
1926.722	6915.4
1930.954	6950.4
1935.183	6938.4
1939.408	6844.4
1943.628	7014.4
1947.845	7013.4
1952.058	7091.4
1956.267	7009.4
1960.472	6988.4
1964.673	7151.4
1968.87	7114.4
1973.063	7139.4
1977.252	6925.4
1981.438	6862.4
1985.619	6751.4
1989.797	6727.4
1993.971	6647.4
1998.14	6472.4
2002.306	6525.4
2006.469	6439.4
2010.627	6383.4
2014.781	6385.4
2018.932	6456.4
2023.078	6203.4
2027.221	6247.4
2031.36	6240.4
2035.495	6257.4
2039.627	6164.4
2043.754	6115.4
2047.878	6033.4
2051.998	6002.4
2056.114	6022.4
2060.226	6041.4
2064.334	5871.4
2068.439	5707.4
2072.54	5709.4
2076.637	5891.4
2080.73	5847.4
2084.82	5795.4
2088.906	5806.4
2092.988	5710.4
2097.066	5977.4
2101.14	5852.4
2105.211	5889.4
2109.278	5973.4
2113.342	5942.4
2117.401	6019.4
2121.457	5919.4
2125.509	5914.4
2129.558	5743.4
2133.602	5796.4
2137.643	5725.4
2141.681	5698.4
2145.714	5651.4
2149.744	5584.4
2153.77	5631.4
2157.793	5523.4
2161.812	5543.4
2165.827	5582.4
2169.838	5334.4
2173.846	5429.4
2177.851	5315.4
2181.851	5264.4
2185.848	5474.4
2189.841	5192.4
2193.831	5265.4
2197.817	4989.4
2201.799	5072.4
2205.778	5163.4
2209.753	5057.4
2213.725	5075.4
2217.693	4994.4
2221.657	5011.4
2225.618	4874.4
2229.575	4898.4
2233.529	4767.4
2237.479	4853.4
2241.425	4783.4
2245.368	4945.4
2249.307	4822.4
2253.243	4829.4
2257.175	4793.4
2261.104	4705.4
2265.029	4567.4
2268.95	4616.4
2272.868	4546.4
2276.783	4521.4
2280.694	4265.4
2284.601	4285.4
2288.505	4342.4
2292.405	4214.4
2296.302	4333.4
2300.195	4157.4
2304.085	4247.4
2307.971	4178.4
2311.854	4196.4
2315.734	4074.4
2319.609	4139.4
2323.482	4229.4
2327.351	4100.4
2331.216	4064.4
2335.078	4074.4
2338.937	4126.4
2342.792	4070.4
2346.643	3963.4
2350.492	3950.4
2354.336	3991.4
2358.178	3924.4
2362.015	3961.4
2365.85	4018.4
2369.681	4034.4
2373.508	4024.4
2377.333	3920.4
2381.153	4013.4
2384.971	4021.4
2388.785	4018.4
2392.595	4126.4
2396.402	4115.4
2400.206	4192.4
2404.007	4051.4
2407.804	4060.4
2411.597	3866.4
2415.388	4002.4
2419.174	3921.4
2422.958	3889.4
2426.738	3816.4
2430.515	3741.4
2434.289	3876.4
2438.059	3803.4
2441.825	3850.4
2445.589	3594.4
2449.349	3788.4
2453.106	3677.4
2456.859	3714.4
2460.61	3580.4
2464.356	3575.4
2468.1	3635.4
2471.84	3567.4
2475.577	3568.4
2479.311	3550.4
2483.041	3488.4
2486.768	3352.4
2490.492	3156.4
2494.213	3555.4
2497.93	3471.4
2501.644	3488.4
2505.355	3472.4
2509.062	3376.4
2512.766	3397.4
2516.467	3450.4
2520.165	3339.4
2523.859	3466.4
2527.551	3183.4
2531.239	3335.4
2534.923	3343.4
2538.605	3332.4
2542.283	3175.4
2545.958	3278.4
2549.63	3184.4
2553.299	3191.4
2556.964	3192.4
2560.626	3214.4
2564.285	3059.4
2567.941	3234.4
2571.594	3206.4
2575.243	3091.4
2578.89	3260.4
2582.533	3192.4
2586.173	3181.4
2589.809	3134.4
2593.443	3328.4
2597.073	3204.4
2600.701	2968.4
2604.325	3105.4
2607.946	3117.4
2611.564	3036.4
2615.178	2945.4
2618.79	2961.4
2622.398	3100.4
2626.004	2973.4
2629.606	2878.4
2633.205	3104.4
2636.801	2960.4
2640.394	2878.4
2643.983	2954.4
2647.57	2867.4
2651.153	2804.4
2654.734	2669.4
2658.311	2890.4
2661.885	2748.4
2665.456	2713.4
2669.025	2709.4
2672.589	2659.4
2676.151	2544.4
2679.71	2485.4
2683.266	2541.4
2686.819	2552.4
2690.368	2509.4
2693.915	2507.4
2697.458	2667.4
2700.999	2389.4
2704.536	2394.4
2708.071	2388.4
2711.602	2318.4
2715.13	2299.4
2718.656	2278.4
2722.178	2162.4
2725.697	2297.4
2729.214	1956.4
2732.727	2079.4
2736.237	2283.4
2739.744	2137.4
2743.249	2214.4
2746.75	2169.4
2750.248	2221.4
2753.743	2162.4
2757.236	2125.4
2760.725	2137.4
2764.211	2362.4
2767.695	2183.4
2771.175	2207.4
2774.652	2241.4
2778.127	2215.4
2781.598	2214.4
2785.067	2246.4
2788.532	2180.4
2791.995	2135.4
2795.455	2174.4
2798.911	2060.4
2802.365	2293.4
2805.816	2159.4
2809.264	2128.4
2812.709	2208.4
2816.151	2243.4
2819.59	2246.4
2823.026	2291.4
2826.46	2339.4
2829.89	2231.4
2833.318	2460.4
2836.742	2301.4
2840.164	2239.4
2843.583	2367.4
2846.999	2275.4
2850.412	2273.4
2853.822	2302.4
2857.229	2182.4
2860.634	2342.4
2864.035	2401.4
2867.434	2294.4
2870.83	2315.4
2874.223	2408.4
2877.613	2377.4
2881	2511.4
2884.385	2567.4
2887.766	2547.4
2891.145	2458.4
2894.521	2601.4
2897.894	2606.4
2901.264	2321.4
2904.631	2582.4
2907.996	2484.4
2911.358	2573.4
2914.717	2564.4
2918.073	2532.4
2921.426	2519.4
2924.777	2639.4
2928.124	2648.4
2931.469	2518.4
2934.811	2753.4
2938.15	2583.4
2941.487	2656.4
2944.821	2608.4
2948.152	2728.4
2951.48	2713.4
2954.805	2641.4
2958.128	2610.4
2961.447	2679.4
2964.765	2563.4
2968.079	2718.4
2971.39	2641.4
2974.699	2697.4
2978.005	2634.4
2981.308	2705.4
2984.609	2821.4
2987.907	2699.4
2991.202	2840.4
2994.494	2893.4
2997.784	2485.4
3001.07	2822.4
3004.355	2898.4
3007.636	2955.4
3010.915	3016.4
3014.191	3022.4
3017.464	3069.4
3020.734	3023.4
3024.002	3148.4
3027.267	3168.4
3030.53	3171.4
3033.789	3244.4
3037.046	3378.4
3040.301	3323.4
3043.552	3365.4
3046.801	3443.4
3050.048	3313.4
3053.291	3359.4
3056.532	3554.4
3059.771	3692.4
3063.006	3660.4
3066.239	3705.4
3069.469	3860.4
3072.697	4107.4
3075.922	4100.4
3079.144	4171.4
3082.364	4157.4
3085.581	4423.4
3088.795	4334.4
3092.007	4466.4
3095.216	4643.4
3098.423	4863.4
3101.627	5033.4
3104.828	5038.4
3108.026	5136.4
3111.222	5110.4
3114.416	5134.4
3117.607	5398.4
3120.795	5391.4
3123.98	5533.4
3127.163	5732.4
3130.344	5760.4
3133.521	5845.4
3136.696	5923.4
3139.869	5993.4
3143.039	6126.4
3146.206	6138.4
3149.371	6233.4
3152.533	6442.4
3155.693	6538.4
3158.85	6580.4
3162.005	6629.4
3165.157	6781.4
3168.306	6715.4
3171.453	6714.4
3174.597	6923.4
3177.739	6913.4
3180.878	6854.4
3184.014	6817.4
3187.149	6873.4
3190.28	6815.4
3193.409	6765.4
3196.536	6734.4
3199.659	6722.4
3202.781	6745.4
3205.9	6856.4
3209.016	6800.4
3212.13	6745.4
3215.241	6717.4
3218.35	6755.4
3221.456	6996.4
3224.56	6940.4
3227.661	6878.4
3230.76	6844.4
3233.856	6911.4
3236.95	6792.4
3240.041	6921.4
3243.13	6666.4
3246.216	6762.4
3249.3	6541.4
3252.382	6548.4
3255.46	6678.4
3258.537	7062.4
3261.611	6627.4
3264.682	6402.4
3267.751	6504.4
3270.818	6507.4
3273.882	6257.4
3276.943	6214.4
3280.002	6131.4
3283.059	6188.4
3286.113	6160.4
3289.165	6222.4
3292.214	6146.4
3295.261	5966.4
3298.306	6038.4
3301.348	5915.4
3304.387	5814.4
3307.425	5674.4
3310.459	5786.4
3313.492	5520.4
3316.521	5510.4
3319.549	5411.4
3322.574	5369.4
3325.597	5318.4
3328.617	5238.4
3331.635	5123.4
3334.65	5265.4
3337.663	5155.4
3340.674	5151.4
3343.682	5047.4
3346.688	4974.4
3349.691	4976.4
3352.692	5124.4
3355.691	4827.4
3358.687	4904.4
3361.681	4917.4
3364.673	4861.4
3367.662	4833.4
3370.649	4723.4
3373.633	4802.4
3376.615	4688.4
3379.595	4886.4
3382.572	4652.4
3385.547	4651.4
3388.52	4728.4
3391.49	4606.4
3394.458	4552.4
3397.424	4390.4
3400.387	4505.4
3403.348	4157.4
3406.307	4223.4
3409.263	4227.4
3412.217	4064.4
3415.168	4095.4
3418.118	4078.4
3421.065	4019.4
3424.009	3838.4
3426.951	3955.4
3429.891	3699.4
3432.829	3790.4
3435.764	3848.4
3438.697	3800.4
3441.628	3522.4
3444.557	3614.4
3447.483	3665.4
3450.407	3491.4
3453.328	3404.4
3456.247	3389.4
3459.164	3378.4
3462.079	3168.4
3464.991	3097.4
3467.902	3180.4
3470.809	2999.4
3473.715	2880.4
3476.618	2841.4
3479.519	2707.4
3482.418	2802.4
3485.315	2609.4
3488.209	2537.4
3491.101	2512.4
3493.99	2431.4
3496.878	2143.4
3499.763	2191.4
3502.646	2254.4
3505.527	2322.4
3508.405	2125.4
3511.281	2065.4
3514.155	2075.4
3517.027	2084.4
3519.897	2156.4
3522.764	1889.4
3525.629	1914.4
3528.492	1855.4
3531.352	1682.4
3534.211	1638.4
3537.067	1777.4
3539.921	1623.4
3542.773	1573.4
3545.622	1549.4
3548.469	1538.4
3551.315	1469.4
3554.157	1408.4
3556.998	1305.4
3559.837	1126.4
3562.673	1042.4
3565.507	1183.4
3568.339	1105.4
3571.169	1118.4
3573.996	1030.4
3576.822	1057.4
3579.645	1038.4
3582.466	1014.4
3585.285	940.4
3588.101	841.4
3590.916	964.4
3593.728	795.4
3596.538	925.4
3599.346	763.4
3602.152	862.4
3604.956	841.4
3607.757	650.4
3610.556	865.4
3613.354	662.4
3616.149	656.4
3618.942	629.4
3621.732	433.4
3624.521	654.4
3627.307	554.4
3630.092	560.4
3632.874	437.4
3635.654	581.4
3638.432	630.4
3641.208	499.4
3643.982	514.4
3646.753	452.4
3649.523	559.4
3652.29	508.4
3655.055	507.4
3657.818	344.4
3660.579	361.4
3663.338	528.4
3666.095	304.4
3668.849	604.4
3671.602	268.4
3674.352	452.4
3677.101	290.4
3679.847	226.4
3682.591	361.4
3685.333	380.4
3688.073	239.4
3690.811	357.4
3693.547	451.4
3696.281	289.4
3699.013	225.4
3701.742	232.4
3704.47	363.4
3707.195	232.4
3709.919	221.4
3712.64	230.4
3715.359	104.4
3718.076	-69.6
3720.792	226.4
3723.505	219.4
3726.216	78.4
3728.925	211.4
3731.632	101.4
3734.336	285.4
3737.039	187.4
3739.74	180.4
3742.439	427.4
3745.136	143.4
3747.83	79.4
3750.523	123.4
3753.213	-100.6
3755.902	177.4
3758.589	198.4
3761.273	225.4
3763.956	10.4
3766.636	150.4
3769.315	-34.6
3771.991	238.4
3774.665	47.4
3777.338	244.4
3780.008	189.4
3782.677	89.4
3785.343	239.4
3788.007	137.4
3790.67	60.4
3793.33	62.4
3795.989	134.4
3798.645	86.4
3801.299	245.4
3803.952	73.4
3806.602	79.4
3809.251	97.4
3811.897	163.4
3814.542	169.4
3817.184	158.4
3819.825	110.4
3822.463	221.4
3825.1	65.4
3827.735	91.4
3830.367	115.4
3832.998	14.4
3835.627	-21.6
3838.253	-11.6
3840.878	92.4
3843.501	-37.6
3846.122	28.4
3848.741	-29.6
3851.358	100.4
3853.973	241.4
3856.586	21.4
3859.197	26.4
3861.806	107.4
3864.414	141.4
3867.019	60.4
3869.622	-13.6
3872.224	-76.6
3874.823	80.4
3877.421	108.4
3880.016	149.4
3882.61	246.4
3885.202	224.4
3887.792	217.4
3890.38	-40.6
3892.966	172.4
3895.55	72.4
3898.132	103.4
3900.713	-8.6
3903.291	62.4
3905.868	51.4
3908.442	34.4
3911.015	23.4
3913.586	46.4
3916.155	44.4
3918.722	131.4
3921.287	37.4
3923.85	156.4
3926.411	55.4
3928.971	-21.6
3931.528	43.4
3934.084	83.4
3936.638	96.4
3939.19	42.4
3941.74	-4.6
3944.288	8.4
3946.834	75.4
3949.378	11.4
3951.921	109.4
3954.462	47.4
3957	-17.6
3959.537	1.4
3962.072	111.4
3964.606	220.4
3967.137	43.4
3969.667	24.4
3972.194	61.4
3974.72	79.4
3977.244	173.4
3979.766	121.4
3982.286	195.4
3984.805	33.4
3987.321	-17.6
3989.836	18.4
3992.349	101.4
3994.86	95.4
3997.369	83.4
3999.877	39.4
4002.382	25.4
4004.886	143.4
4007.388	115.4
4009.888	189.4
4012.386	10.4
4014.883	40.4
4017.377	49.4
4019.87	-18.6
4022.361	81.4
4024.85	112.4
4027.338	181.4
4029.823	64.4
4032.307	52.4
4034.789	139.4
4037.269	112.4
4039.747	177.4
4042.224	34.4
4044.699	97.4
4047.172	70.4
4049.643	50.4
4052.112	305.4
4054.58	97.4
4057.046	125.4
4059.51	151.4
4061.972	41.4
4064.432	188.4
4066.891	-33.6
4069.348	156.4
4071.803	9.4
4074.256	43.4
4076.708	130.4
4079.158	3.4
4081.606	-76.6
4084.052	139.4
4086.497	8.4
4088.939	82.4
4091.38	117.4
4093.819	-6.6
4096.257	-1303.6
4098.693	-1316.6
4101.127	-1378.6
4103.559	-1380.6
4105.989	431.4
4108.418	249.4
4110.845	481.4
4113.27	328.4
4115.694	501.4
4118.115	424.4
4120.535	19.4
4122.954	-15.6
4125.37	-57.6
4127.785	57.4
4130.198	30.4
4132.609	-3.6
4135.019	-1403.6
4137.427	-1382.6
4139.833	-1348.6
4142.237	-1179.6
