Data from 2018-2-8_conc=6_RamanShift_06.txt Node
Date: Wed Feb 07 11:25:40 IST 2018
User: aro
Spectrometer: QEPB0276
Trigger mode: 0
Integration Time (sec): 3.000000E1
Scans to average: 1
Electric dark correction enabled: true
Nonlinearity correction enabled: false
Boxcar width: 0
XAxis mode: Raman Shifts
Number of Pixels in Spectrum: 1044
>>>>>Begin Spectral Data<<<<<
160.701	714.9
166.742	876.9
172.777	1385.9
178.805	2979.9
184.826	6460.9
190.841	12518.9
196.849	19811.9
202.85	25282.9
208.845	27211.9
214.833	26996.9
220.815	26676.9
226.789	26508.9
232.758	26308.9
238.719	26259.9
244.674	26039.9
250.623	25451.9
256.565	25036.9
262.5	24698.9
268.429	23876.9
274.351	23720.9
280.267	23474.9
286.176	22853.9
292.079	22648.9
297.975	22254.9
303.865	22163.9
309.748	21836.9
315.625	21880.9
321.495	21283.9
327.359	21357.9
333.217	21342.9
339.068	21322.9
344.912	21276.9
350.751	21295.9
356.583	21088.9
362.408	21223.9
368.227	21147.9
374.04	21333.9
379.847	21382.9
385.647	21444.9
391.44	21855.9
397.228	21614.9
403.009	21896.9
408.784	21841.9
414.553	22083.9
420.315	22148.9
426.071	22220.9
431.821	22160.9
437.565	22144.9
443.302	21968.9
449.033	21911.9
454.758	21902.9
460.477	21722.9
466.189	21648.9
471.896	21538.9
477.596	21383.9
483.29	21503.9
488.978	21498.9
494.66	21402.9
500.335	21347.9
506.005	21274.9
511.668	21036.9
517.325	20993.9
522.977	20672.9
528.622	20686.9
534.261	20579.9
539.894	20518.9
545.521	20418.9
551.141	20259.9
556.756	20055.9
562.365	19939.9
567.968	19794.9
573.565	19733.9
579.155	19485.9
584.74	19482.9
590.319	19245.9
595.892	19246.9
601.459	19155.9
607.02	19214.9
612.575	19319.9
618.124	19072.9
623.667	19277.9
629.204	19132.9
634.735	19177.9
640.261	19060.9
645.781	19319.9
651.294	18990.9
656.802	18615.9
662.304	18596.9
667.8	18318.9
673.29	18438.9
678.775	18246.9
684.254	18269.9
689.726	18380.9
695.193	18184.9
700.655	18193.9
706.11	18324.9
711.56	18176.9
717.004	18232.9
722.442	18464.9
727.874	18256.9
733.301	18213.9
738.722	18277.9
744.137	18020.9
749.547	18024.9
754.951	17922.9
760.349	17745.9
765.741	17530.9
771.128	17634.9
776.509	17641.9
781.885	17576.9
787.254	17597.9
792.618	17623.9
797.977	17728.9
803.33	17852.9
808.677	17898.9
814.019	17664.9
819.355	17816.9
824.686	17871.9
830.011	17792.9
835.33	17498.9
840.644	17272.9
845.952	17418.9
851.255	17108.9
856.552	17011.9
861.844	16997.9
867.13	16790.9
872.41	16657.9
877.686	16706.9
882.955	16804.9
888.219	16887.9
893.478	16996.9
898.731	16822.9
903.979	16686.9
909.221	16866.9
914.458	16750.9
919.69	16482.9
924.916	16444.9
930.136	16185.9
935.351	16139.9
940.561	15838.9
945.766	15850.9
950.965	15527.9
956.158	15764.9
961.347	15758.9
966.529	15844.9
971.707	15740.9
976.879	15730.9
982.046	15759.9
987.208	15907.9
992.364	15692.9
997.515	15625.9
1002.66	15478.9
1007.801	15687.9
1012.936	15581.9
1018.066	15655.9
1023.19	15383.9
1028.309	15266.9
1033.423	15407.9
1038.532	15482.9
1043.636	15682.9
1048.734	15559.9
1053.827	15786.9
1058.915	15733.9
1063.998	15552.9
1069.075	15412.9
1074.147	15163.9
1079.214	15270.9
1084.276	14900.9
1089.333	14900.9
1094.385	14779.9
1099.431	14818.9
1104.472	14667.9
1109.509	14979.9
1114.54	14963.9
1119.565	15087.9
1124.586	15041.9
1129.602	15022.9
1134.613	15055.9
1139.618	15007.9
1144.619	14689.9
1149.614	14503.9
1154.604	14354.9
1159.589	14277.9
1164.57	14089.9
1169.545	14046.9
1174.515	14052.9
1179.48	14178.9
1184.44	14262.9
1189.395	14458.9
1194.345	14591.9
1199.29	14477.9
1204.23	14636.9
1209.165	14575.9
1214.095	14352.9
1219.021	14316.9
1223.941	14150.9
1228.856	14281.9
1233.766	14205.9
1238.672	14190.9
1243.572	14058.9
1248.467	14102.9
1253.358	14277.9
1258.244	14311.9
1263.124	14125.9
1268	13981.9
1272.871	14109.9
1277.737	14014.9
1282.599	13859.9
1287.455	13635.9
1292.306	13456.9
1297.153	13454.9
1301.995	13205.9
1306.832	13101.9
1311.664	13221.9
1316.491	13269.9
1321.314	13201.9
1326.132	13177.9
1330.945	13098.9
1335.753	12986.9
1340.556	12830.9
1345.354	12723.9
1350.148	12446.9
1354.937	12327.9
1359.722	12312.9
1364.501	12021.9
1369.276	11787.9
1374.046	11902.9
1378.811	12158.9
1383.572	12141.9
1388.327	11851.9
1393.079	12429.9
1397.825	12524.9
1402.567	12418.9
1407.304	12392.9
1412.036	12472.9
1416.764	12240.9
1421.487	12423.9
1426.205	12222.9
1430.919	11922.9
1435.628	11914.9
1440.333	11769.9
1445.032	11557.9
1449.727	11529.9
1454.418	11506.9
1459.104	11552.9
1463.785	11384.9
1468.462	11451.9
1473.134	11310.9
1477.802	11247.9
1482.465	11338.9
1487.123	10732.9
1491.777	11082.9
1496.426	10980.9
1501.071	10708.9
1505.711	10782.9
1510.347	10799.9
1514.978	10877.9
1519.604	11050.9
1524.226	11096.9
1528.844	11385.9
1533.457	11291.9
1538.065	11456.9
1542.669	11520.9
1547.269	11598.9
1551.864	11479.9
1556.454	11735.9
1561.041	11604.9
1565.622	11617.9
1570.199	11276.9
1574.772	11287.9
1579.34	11092.9
1583.904	11196.9
1588.464	11183.9
1593.019	11228.9
1597.569	11345.9
1602.115	11163.9
1606.657	11479.9
1611.195	11422.9
1615.728	11448.9
1620.256	11661.9
1624.78	11640.9
1629.3	11620.9
1633.816	11427.9
1638.327	11383.9
1642.834	11242.9
1647.336	11286.9
1651.834	11273.9
1656.328	11160.9
1660.817	11129.9
1665.302	11323.9
1669.783	11199.9
1674.259	10996.9
1678.732	10728.9
1683.199	10476.9
1687.663	10375.9
1692.122	9889.9
1696.577	9702.9
1701.028	9608.9
1705.474	9617.9
1709.917	9493.9
1714.355	9550.9
1718.788	9413.9
1723.218	9363.9
1727.643	9103.9
1732.064	8908.9
1736.481	9088.9
1740.893	8734.9
1745.301	8586.9
1749.705	8703.9
1754.105	8240.9
1758.501	8217.9
1762.893	7924.9
1767.28	7839.9
1771.663	7605.9
1776.042	7391.9
1780.417	7364.9
1784.787	7092.9
1789.154	7210.9
1793.516	7319.9
1797.874	7337.9
1802.228	7533.9
1806.578	7732.9
1810.924	7577.9
1815.266	8564.9
1819.603	7630.9
1823.937	7721.9
1828.266	7546.9
1832.591	7518.9
1836.913	7466.9
1841.23	7473.9
1845.543	7437.9
1849.852	7186.9
1854.156	7218.9
1858.457	7188.9
1862.754	6917.9
1867.047	7046.9
1871.335	6880.9
1875.62	6827.9
1879.9	6806.9
1884.177	7032.9
1888.449	6836.9
1892.718	6864.9
1896.982	6683.9
1901.243	6908.9
1905.499	6844.9
1909.752	6734.9
1914	6951.9
1918.245	6750.9
1922.485	6789.9
1926.722	6761.9
1930.954	6833.9
1935.183	6893.9
1939.408	6859.9
1943.628	6826.9
1947.845	6926.9
1952.058	6959.9
1956.267	6885.9
1960.472	6838.9
1964.673	6841.9
1968.87	6934.9
1973.063	6910.9
1977.252	6773.9
1981.438	6671.9
1985.619	6592.9
1989.797	6543.9
1993.971	6508.9
1998.14	6267.9
2002.306	6278.9
2006.469	6301.9
2010.627	6290.9
2014.781	6264.9
2018.932	6280.9
2023.078	6075.9
2027.221	6035.9
2031.36	6077.9
2035.495	6060.9
2039.627	6073.9
2043.754	5841.9
2047.878	5920.9
2051.998	5967.9
2056.114	5937.9
2060.226	5941.9
2064.334	5831.9
2068.439	5715.9
2072.54	5724.9
2076.637	5872.9
2080.73	5861.9
2084.82	5749.9
2088.906	5834.9
2092.988	5779.9
2097.066	6024.9
2101.14	5725.9
2105.211	5926.9
2109.278	5915.9
2113.342	5935.9
2117.401	6053.9
2121.457	5968.9
2125.509	5994.9
2129.558	5703.9
2133.602	5773.9
2137.643	5664.9
2141.681	5662.9
2145.714	5604.9
2149.744	5584.9
2153.77	5564.9
2157.793	5493.9
2161.812	5689.9
2165.827	5636.9
2169.838	5229.9
2173.846	5377.9
2177.851	5257.9
2181.851	5223.9
2185.848	5415.9
2189.841	5205.9
2193.831	5244.9
2197.817	4979.9
2201.799	5000.9
2205.778	5111.9
2209.753	5122.9
2213.725	4928.9
2217.693	4933.9
2221.657	4923.9
2225.618	4440.9
2229.575	4843.9
2233.529	4741.9
2237.479	4846.9
2241.425	4789.9
2245.368	4974.9
2249.307	4822.9
2253.243	4772.9
2257.175	4805.9
2261.104	4722.9
2265.029	4559.9
2268.95	4540.9
2272.868	4447.9
2276.783	4571.9
2280.694	4257.9
2284.601	4282.9
2288.505	4273.9
2292.405	4109.9
2296.302	4318.9
2300.195	4170.9
2304.085	4291.9
2307.971	4075.9
2311.854	4167.9
2315.734	4114.9
2319.609	4073.9
2323.482	4238.9
2327.351	4025.9
2331.216	4016.9
2335.078	4012.9
2338.937	4020.9
2342.792	3989.9
2346.643	3977.9
2350.492	3896.9
2354.336	3965.9
2358.178	3866.9
2362.015	3882.9
2365.85	4006.9
2369.681	3977.9
2373.508	3890.9
2377.333	3726.9
2381.153	3978.9
2384.971	3959.9
2388.785	3970.9
2392.595	3959.9
2396.402	3945.9
2400.206	4076.9
2404.007	4049.9
2407.804	3919.9
2411.597	3782.9
2415.388	3923.9
2419.174	3832.9
2422.958	3803.9
2426.738	3745.9
2430.515	3635.9
2434.289	3777.9
2438.059	3785.9
2441.825	3795.9
2445.589	3469.9
2449.349	3733.9
2453.106	3584.9
2456.859	3555.9
2460.61	3490.9
2464.356	3555.9
2468.1	3523.9
2471.84	3564.9
2475.577	3531.9
2479.311	3460.9
2483.041	3424.9
2486.768	3286.9
2490.492	3052.9
2494.213	3412.9
2497.93	3415.9
2501.644	3461.9
2505.355	3487.9
2509.062	3274.9
2512.766	3346.9
2516.467	3308.9
2520.165	3326.9
2523.859	3463.9
2527.551	3084.9
2531.239	3333.9
2534.923	3336.9
2538.605	3359.9
2542.283	3193.9
2545.958	3322.9
2549.63	3148.9
2553.299	3144.9
2556.964	3044.9
2560.626	3265.9
2564.285	3082.9
2567.941	3202.9
2571.594	3175.9
2575.243	3110.9
2578.89	3269.9
2582.533	3237.9
2586.173	3188.9
2589.809	3123.9
2593.443	3412.9
2597.073	3181.9
2600.701	2993.9
2604.325	3067.9
2607.946	3076.9
2611.564	2994.9
2615.178	2844.9
2618.79	2946.9
2622.398	3100.9
2626.004	2986.9
2629.606	2857.9
2633.205	3150.9
2636.801	2946.9
2640.394	2829.9
2643.983	2910.9
2647.57	2942.9
2651.153	2835.9
2654.734	2659.9
2658.311	2964.9
2661.885	2859.9
2665.456	2752.9
2669.025	2733.9
2672.589	2735.9
2676.151	2463.9
2679.71	2518.9
2683.266	2695.9
2686.819	2346.9
2690.368	2525.9
2693.915	2438.9
2697.458	2629.9
2700.999	2429.9
2704.536	2431.9
2708.071	2456.9
2711.602	2377.9
2715.13	2389.9
2718.656	2395.9
2722.178	2296.9
2725.697	2415.9
2729.214	2050.9
2732.727	2209.9
2736.237	2242.9
2739.744	2182.9
2743.249	2292.9
2746.75	2324.9
2750.248	2395.9
2753.743	2399.9
2757.236	2346.9
2760.725	2321.9
2764.211	2574.9
2767.695	2359.9
2771.175	2386.9
2774.652	2349.9
2778.127	2335.9
2781.598	2267.9
2785.067	2310.9
2788.532	2341.9
2791.995	2292.9
2795.455	2313.9
2798.911	2273.9
2802.365	2495.9
2805.816	2278.9
2809.264	2219.9
2812.709	2407.9
2816.151	2311.9
2819.59	2472.9
2823.026	2475.9
2826.46	2453.9
2829.89	2382.9
2833.318	2647.9
2836.742	2351.9
2840.164	2400.9
2843.583	2548.9
2846.999	2484.9
2850.412	2454.9
2853.822	2693.9
2857.229	2376.9
2860.634	2468.9
2864.035	2547.9
2867.434	2412.9
2870.83	2538.9
2874.223	2587.9
2877.613	2492.9
2881	2752.9
2884.385	2749.9
2887.766	2689.9
2891.145	2657.9
2894.521	2801.9
2897.894	2826.9
2901.264	2473.9
2904.631	2707.9
2907.996	2720.9
2911.358	2702.9
2914.717	2721.9
2918.073	2765.9
2921.426	2791.9
2924.777	2858.9
2928.124	2857.9
2931.469	2682.9
2934.811	3081.9
2938.15	2817.9
2941.487	2959.9
2944.821	2617.9
2948.152	3014.9
2951.48	2938.9
2954.805	2902.9
2958.128	2816.9
2961.447	2906.9
2964.765	2771.9
2968.079	3014.9
2971.39	2931.9
2974.699	2980.9
2978.005	2920.9
2981.308	2992.9
2984.609	3195.9
2987.907	2963.9
2991.202	3117.9
2994.494	3178.9
2997.784	2807.9
3001.07	3073.9
3004.355	3237.9
3007.636	3241.9
3010.915	3371.9
3014.191	3357.9
3017.464	3385.9
3020.734	3310.9
3024.002	3434.9
3027.267	3527.9
3030.53	3487.9
3033.789	3561.9
3037.046	3699.9
3040.301	3669.9
3043.552	3753.9
3046.801	3841.9
3050.048	3722.9
3053.291	3673.9
3056.532	3874.9
3059.771	4039.9
3063.006	4073.9
3066.239	4080.9
3069.469	4240.9
3072.697	4533.9
3075.922	4556.9
3079.144	4565.9
3082.364	4529.9
3085.581	4853.9
3088.795	4651.9
3092.007	4920.9
3095.216	5133.9
3098.423	5450.9
3101.627	5540.9
3104.828	5484.9
3108.026	5661.9
3111.222	5736.9
3114.416	5600.9
3117.607	5890.9
3120.795	5939.9
3123.98	6059.9
3127.163	6361.9
3130.344	6346.9
3133.521	6442.9
3136.696	6386.9
3139.869	6625.9
3143.039	6761.9
3146.206	6683.9
3149.371	6868.9
3152.533	7094.9
3155.693	7303.9
3158.85	7277.9
3162.005	7231.9
3165.157	7426.9
3168.306	7502.9
3171.453	7358.9
3174.597	7614.9
3177.739	7657.9
3180.878	7518.9
3184.014	7527.9
3187.149	7531.9
3190.28	7561.9
3193.409	7475.9
3196.536	7408.9
3199.659	7395.9
3202.781	7421.9
3205.9	7638.9
3209.016	7464.9
3212.13	7483.9
3215.241	7400.9
3218.35	7454.9
3221.456	7544.9
3224.56	7699.9
3227.661	7598.9
3230.76	7668.9
3233.856	7679.9
3236.95	7527.9
3240.041	7602.9
3243.13	7324.9
3246.216	7499.9
3249.3	7321.9
3252.382	7310.9
3255.46	7391.9
3258.537	7729.9
3261.611	7352.9
3264.682	7084.9
3267.751	7096.9
3270.818	7185.9
3273.882	6981.9
3276.943	6868.9
3280.002	6791.9
3283.059	6816.9
3286.113	6871.9
3289.165	6989.9
3292.214	6801.9
3295.261	6604.9
3298.306	6712.9
3301.348	6566.9
3304.387	6517.9
3307.425	6397.9
3310.459	6479.9
3313.492	6079.9
3316.521	6140.9
3319.549	6065.9
3322.574	5953.9
3325.597	5881.9
3328.617	5885.9
3331.635	5746.9
3334.65	5903.9
3337.663	5686.9
3340.674	5677.9
3343.682	5515.9
3346.688	5675.9
3349.691	5605.9
3352.692	5687.9
3355.691	5460.9
3358.687	5501.9
3361.681	5464.9
3364.673	5426.9
3367.662	5407.9
3370.649	5238.9
3373.633	5511.9
3376.615	5284.9
3379.595	5535.9
3382.572	5255.9
3385.547	5259.9
3388.52	5316.9
3391.49	5186.9
3394.458	5159.9
3397.424	4938.9
3400.387	5068.9
3403.348	4727.9
3406.307	4763.9
3409.263	4860.9
3412.217	4567.9
3415.168	4669.9
3418.118	4583.9
3421.065	4466.9
3424.009	4281.9
3426.951	4475.9
3429.891	4469.9
3432.829	4365.9
3435.764	4322.9
3438.697	4297.9
3441.628	3923.9
3444.557	4176.9
3447.483	4142.9
3450.407	3838.9
3453.328	3751.9
3456.247	3921.9
3459.164	3889.9
3462.079	3601.9
3464.991	3559.9
3467.902	3485.9
3470.809	3382.9
3473.715	3294.9
3476.618	3281.9
3479.519	3072.9
3482.418	3277.9
3485.315	3057.9
3488.209	2982.9
3491.101	2775.9
3493.99	2951.9
3496.878	2609.9
3499.763	2649.9
3502.646	2535.9
3505.527	2640.9
3508.405	2525.9
3511.281	2435.9
3514.155	2432.9
3517.027	2399.9
3519.897	2460.9
3522.764	2212.9
3525.629	2335.9
3528.492	2160.9
3531.352	1959.9
3534.211	1979.9
3537.067	2049.9
3539.921	1968.9
3542.773	1840.9
3545.622	1853.9
3548.469	1835.9
3551.315	1761.9
3554.157	1633.9
3556.998	1608.9
3559.837	1436.9
3562.673	1361.9
3565.507	1530.9
3568.339	1333.9
3571.169	1499.9
3573.996	1310.9
3576.822	1256.9
3579.645	1282.9
3582.466	1254.9
3585.285	1158.9
3588.101	1129.9
3590.916	1210.9
3593.728	1054.9
3596.538	1104.9
3599.346	982.9
3602.152	1083.9
3604.956	1081.9
3607.757	919.9
3610.556	1083.9
3613.354	876.9
3616.149	846.9
3618.942	898.9
3621.732	623.9
3624.521	965.9
3627.307	773.9
3630.092	689.9
3632.874	687.9
3635.654	786.9
3638.432	924.9
3641.208	693.9
3643.982	762.9
3646.753	663.9
3649.523	758.9
3652.29	674.9
3655.055	732.9
3657.818	560.9
3660.579	551.9
3663.338	850.9
3666.095	565.9
3668.849	737.9
3671.602	513.9
3674.352	795.9
3677.101	559.9
3679.847	380.9
3682.591	608.9
3685.333	591.9
3688.073	483.9
3690.811	594.9
3693.547	409.9
3696.281	535.9
3699.013	433.9
3701.742	442.9
3704.47	597.9
3707.195	412.9
3709.919	425.9
3712.64	414.9
3715.359	350.9
3718.076	162.9
3720.792	539.9
3723.505	372.9
3726.216	254.9
3728.925	485.9
3731.632	287.9
3734.336	510.9
3737.039	362.9
3739.74	367.9
3742.439	583.9
3745.136	397.9
3747.83	338.9
3750.523	359.9
3753.213	515.9
3755.902	374.9
3758.589	508.9
3761.273	472.9
3763.956	249.9
3766.636	476.9
3769.315	98.9
3771.991	451.9
3774.665	250.9
3777.338	523.9
3780.008	415.9
3782.677	146.9
3785.343	544.9
3788.007	551.9
3790.67	265.9
3793.33	313.9
3795.989	433.9
3798.645	265.9
3801.299	477.9
3803.952	291.9
3806.602	253.9
3809.251	314.9
3811.897	334.9
3814.542	348.9
3817.184	297.9
3819.825	377.9
3822.463	36.9
3825.1	342.9
3827.735	308.9
3830.367	408.9
3832.998	134.9
3835.627	242.9
3838.253	251.9
3840.878	129.9
3843.501	131.9
3846.122	229.9
3848.741	194.9
3851.358	261.9
3853.973	482.9
3856.586	316.9
3859.197	261.9
3861.806	280.9
3864.414	415.9
3867.019	303.9
3869.622	292.9
3872.224	199.9
3874.823	398.9
3877.421	395.9
3880.016	385.9
3882.61	511.9
3885.202	428.9
3887.792	449.9
3890.38	204.9
3892.966	404.9
3895.55	339.9
3898.132	324.9
3900.713	201.9
3903.291	270.9
3905.868	324.9
3908.442	209.9
3911.015	230.9
3913.586	306.9
3916.155	188.9
3918.722	403.9
3921.287	283.9
3923.85	119.9
3926.411	169.9
3928.971	203.9
3931.528	259.9
3934.084	239.9
3936.638	310.9
3939.19	188.9
3941.74	312.9
3944.288	248.9
3946.834	329.9
3949.378	190.9
3951.921	376.9
3954.462	309.9
3957	294.9
3959.537	332.9
3962.072	430.9
3964.606	434.9
3967.137	170.9
3969.667	277.9
3972.194	287.9
3974.72	277.9
3977.244	364.9
3979.766	218.9
3982.286	465.9
3984.805	226.9
3987.321	150.9
3989.836	256.9
3992.349	316.9
3994.86	263.9
3997.369	286.9
3999.877	248.9
4002.382	301.9
4004.886	403.9
4007.388	278.9
4009.888	424.9
4012.386	237.9
4014.883	266.9
4017.377	280.9
4019.87	169.9
4022.361	365.9
4024.85	383.9
4027.338	404.9
4029.823	267.9
4032.307	258.9
4034.789	344.9
4037.269	321.9
4039.747	321.9
4042.224	240.9
4044.699	301.9
4047.172	329.9
4049.643	209.9
4052.112	301.9
4054.58	296.9
4057.046	330.9
4059.51	346.9
4061.972	266.9
4064.432	385.9
4066.891	133.9
4069.348	337.9
4071.803	206.9
4074.256	232.9
4076.708	222.9
4079.158	381.9
4081.606	90.9
4084.052	295.9
4086.497	161.9
4088.939	320.9
4091.38	323.9
4093.819	222.9
4096.257	-1409.1
4098.693	-1535.1
4101.127	-1533.1
4103.559	-1584.1
4105.989	408.9
4108.418	429.9
4110.845	681.9
4113.27	557.9
4115.694	669.9
4118.115	716.9
4120.535	220.9
4122.954	121.9
4125.37	55.9
4127.785	219.9
4130.198	174.9
4132.609	228.9
4135.019	-1637.1
4137.427	-1541.1
4139.833	-1502.1
4142.237	-1277.1
