Data from 2018-2-8_conc=0_RamanShift_18.txt Node
Date: Wed Feb 07 09:35:40 IST 2018
User: aro
Spectrometer: QEPB0276
Trigger mode: 0
Integration Time (sec): 3.000000E1
Scans to average: 1
Electric dark correction enabled: true
Nonlinearity correction enabled: false
Boxcar width: 0
XAxis mode: Raman Shifts
Number of Pixels in Spectrum: 1044
>>>>>Begin Spectral Data<<<<<
160.701	331.1
166.742	501.1
172.777	934.1
178.805	2496.1
184.826	5888.1
190.841	11790.1
196.849	18860.1
202.85	24012.1
208.845	25941.1
214.833	25661.1
220.815	25387.1
226.789	25173.1
232.758	25135.1
238.719	25031.1
244.674	24787.1
250.623	24286.1
256.565	23939.1
262.5	23505.1
268.429	22937.1
274.351	22614.1
280.267	22506.1
286.176	21923.1
292.079	21688.1
297.975	21353.1
303.865	21204.1
309.748	21052.1
315.625	20866.1
321.495	20577.1
327.359	20464.1
333.217	20547.1
339.068	20524.1
344.912	20491.1
350.751	20492.1
356.583	20473.1
362.408	20352.1
368.227	20393.1
374.04	20562.1
379.847	20536.1
385.647	20682.1
391.44	20911.1
397.228	20893.1
403.009	21071.1
408.784	21190.1
414.553	21268.1
420.315	21396.1
426.071	21426.1
431.821	21397.1
437.565	21304.1
443.302	21074.1
449.033	21113.1
454.758	21034.1
460.477	20911.1
466.189	20812.1
471.896	20748.1
477.596	20605.1
483.29	20583.1
488.978	20692.1
494.66	20660.1
500.335	20567.1
506.005	20495.1
511.668	20245.1
517.325	20175.1
522.977	20025.1
528.622	19926.1
534.261	19845.1
539.894	19708.1
545.521	19662.1
551.141	19662.1
556.756	19334.1
562.365	19206.1
567.968	19179.1
573.565	19011.1
579.155	18946.1
584.74	18824.1
590.319	18620.1
595.892	18682.1
601.459	18715.1
607.02	18662.1
612.575	18675.1
618.124	18606.1
623.667	18722.1
629.204	18607.1
634.735	18634.1
640.261	18553.1
645.781	18621.1
651.294	18389.1
656.802	18196.1
662.304	18062.1
667.8	17802.1
673.29	17859.1
678.775	17716.1
684.254	17709.1
689.726	17779.1
695.193	17669.1
700.655	17638.1
706.11	17826.1
711.56	17676.1
717.004	17748.1
722.442	17841.1
727.874	17707.1
733.301	17678.1
738.722	17741.1
744.137	17525.1
749.547	17495.1
754.951	17346.1
760.349	17202.1
765.741	17041.1
771.128	17091.1
776.509	17134.1
781.885	17139.1
787.254	17155.1
792.618	17152.1
797.977	17232.1
803.33	17324.1
808.677	17413.1
814.019	17276.1
819.355	17295.1
824.686	17306.1
830.011	17226.1
835.33	16992.1
840.644	16850.1
845.952	16869.1
851.255	16589.1
856.552	16597.1
861.844	16398.1
867.13	16373.1
872.41	16368.1
877.686	16337.1
882.955	16361.1
888.219	16454.1
893.478	16550.1
898.731	16414.1
903.979	16286.1
909.221	16354.1
914.458	16283.1
919.69	16086.1
924.916	16064.1
930.136	15770.1
935.351	15727.1
940.561	15513.1
945.766	15371.1
950.965	15234.1
956.158	15378.1
961.347	15435.1
966.529	15349.1
971.707	15370.1
976.879	15450.1
982.046	15415.1
987.208	15400.1
992.364	15277.1
997.515	15237.1
1002.66	15132.1
1007.801	15186.1
1012.936	15204.1
1018.066	15111.1
1023.19	14914.1
1028.309	14903.1
1033.423	15006.1
1038.532	15094.1
1043.636	15228.1
1048.734	15265.1
1053.827	15388.1
1058.915	15318.1
1063.998	15153.1
1069.075	15050.1
1074.147	14812.1
1079.214	14780.1
1084.276	14542.1
1089.333	14518.1
1094.385	14454.1
1099.431	14507.1
1104.472	14472.1
1109.509	14585.1
1114.54	14677.1
1119.565	14737.1
1124.586	14719.1
1129.602	14709.1
1134.613	14570.1
1139.618	14497.1
1144.619	14255.1
1149.614	14134.1
1154.604	13977.1
1159.589	13906.1
1164.57	13689.1
1169.545	13746.1
1174.515	13780.1
1179.48	13868.1
1184.44	14017.1
1189.395	14126.1
1194.345	14165.1
1199.29	14210.1
1204.23	14279.1
1209.165	14161.1
1214.095	14092.1
1219.021	14017.1
1223.941	13969.1
1228.856	13917.1
1233.766	13905.1
1238.672	13778.1
1243.572	13757.1
1248.467	13804.1
1253.358	13984.1
1258.244	13988.1
1263.124	13889.1
1268	13790.1
1272.871	13763.1
1277.737	13676.1
1282.599	13441.1
1287.455	13291.1
1292.306	13069.1
1297.153	13084.1
1301.995	12870.1
1306.832	12841.1
1311.664	12889.1
1316.491	13024.1
1321.314	12963.1
1326.132	12916.1
1330.945	12928.1
1335.753	12657.1
1340.556	12540.1
1345.354	12350.1
1350.148	12122.1
1354.937	11909.1
1359.722	11892.1
1364.501	11683.1
1369.276	11632.1
1374.046	11668.1
1378.811	11776.1
1383.572	11813.1
1388.327	11612.1
1393.079	12088.1
1397.825	12138.1
1402.567	12079.1
1407.304	12052.1
1412.036	12139.1
1416.764	11994.1
1421.487	12106.1
1426.205	11894.1
1430.919	11663.1
1435.628	11500.1
1440.333	11446.1
1445.032	11312.1
1449.727	11352.1
1454.418	11323.1
1459.104	11259.1
1463.785	11073.1
1468.462	11082.1
1473.134	11032.1
1477.802	10874.1
1482.465	10924.1
1487.123	10652.1
1491.777	10745.1
1496.426	10634.1
1501.071	10419.1
1505.711	10506.1
1510.347	10566.1
1514.978	10711.1
1519.604	10828.1
1524.226	10900.1
1528.844	11172.1
1533.457	11139.1
1538.065	11168.1
1542.669	11178.1
1547.269	11330.1
1551.864	11185.1
1556.454	11370.1
1561.041	11260.1
1565.622	11196.1
1570.199	10938.1
1574.772	10941.1
1579.34	10684.1
1583.904	10838.1
1588.464	10840.1
1593.019	10902.1
1597.569	10981.1
1602.115	11029.1
1606.657	11058.1
1611.195	11130.1
1615.728	11100.1
1620.256	11205.1
1624.78	11178.1
1629.3	11214.1
1633.816	11047.1
1638.327	10971.1
1642.834	10900.1
1647.336	10753.1
1651.834	10724.1
1656.328	10862.1
1660.817	10732.1
1665.302	10732.1
1669.783	10772.1
1674.259	10632.1
1678.732	10373.1
1683.199	10118.1
1687.663	9940.1
1692.122	9504.1
1696.577	9300.1
1701.028	9370.1
1705.474	9318.1
1709.917	9287.1
1714.355	9302.1
1718.788	9139.1
1723.218	9063.1
1727.643	8760.1
1732.064	8797.1
1736.481	8646.1
1740.893	8501.1
1745.301	8338.1
1749.705	8372.1
1754.105	7926.1
1758.501	7889.1
1762.893	7606.1
1767.28	7561.1
1771.663	7297.1
1776.042	7114.1
1780.417	7009.1
1784.787	6851.1
1789.154	6957.1
1793.516	6837.1
1797.874	7122.1
1802.228	7211.1
1806.578	7430.1
1810.924	7310.1
1815.266	8031.1
1819.603	7434.1
1823.937	7426.1
1828.266	7362.1
1832.591	7291.1
1836.913	7184.1
1841.23	7160.1
1845.543	7094.1
1849.852	6925.1
1854.156	6950.1
1858.457	6850.1
1862.754	6858.1
1867.047	6772.1
1871.335	6676.1
1875.62	6669.1
1879.9	6654.1
1884.177	6689.1
1888.449	6593.1
1892.718	6605.1
1896.982	6533.1
1901.243	6595.1
1905.499	6586.1
1909.752	6515.1
1914	6614.1
1918.245	6486.1
1922.485	6452.1
1926.722	6607.1
1930.954	6596.1
1935.183	6606.1
1939.408	6545.1
1943.628	6630.1
1947.845	6636.1
1952.058	6659.1
1956.267	6672.1
1960.472	6657.1
1964.673	6672.1
1968.87	6713.1
1973.063	6518.1
1977.252	6452.1
1981.438	6427.1
1985.619	6313.1
1989.797	6261.1
1993.971	6157.1
1998.14	6037.1
2002.306	6079.1
2006.469	5991.1
2010.627	5939.1
2014.781	5886.1
2018.932	5972.1
2023.078	5757.1
2027.221	5777.1
2031.36	5843.1
2035.495	5886.1
2039.627	5685.1
2043.754	5690.1
2047.878	5562.1
2051.998	5598.1
2056.114	5550.1
2060.226	5556.1
2064.334	5499.1
2068.439	5407.1
2072.54	5391.1
2076.637	5523.1
2080.73	5474.1
2084.82	5513.1
2088.906	5540.1
2092.988	5569.1
2097.066	5621.1
2101.14	5590.1
2105.211	5644.1
2109.278	5654.1
2113.342	5626.1
2117.401	5627.1
2121.457	5571.1
2125.509	5593.1
2129.558	5423.1
2133.602	5481.1
2137.643	5380.1
2141.681	5253.1
2145.714	5320.1
2149.744	5207.1
2153.77	5202.1
2157.793	5138.1
2161.812	5235.1
2165.827	5101.1
2169.838	4998.1
2173.846	4963.1
2177.851	4986.1
2181.851	4911.1
2185.848	5040.1
2189.841	4804.1
2193.831	4852.1
2197.817	4655.1
2201.799	4670.1
2205.778	4728.1
2209.753	4602.1
2213.725	4645.1
2217.693	4587.1
2221.657	4553.1
2225.618	4451.1
2229.575	4568.1
2233.529	4456.1
2237.479	4466.1
2241.425	4482.1
2245.368	4561.1
2249.307	4441.1
2253.243	4456.1
2257.175	4432.1
2261.104	4306.1
2265.029	4225.1
2268.95	4168.1
2272.868	4112.1
2276.783	4119.1
2280.694	3994.1
2284.601	3980.1
2288.505	3952.1
2292.405	3862.1
2296.302	3894.1
2300.195	3762.1
2304.085	3819.1
2307.971	3789.1
2311.854	3776.1
2315.734	3717.1
2319.609	3692.1
2323.482	3764.1
2327.351	3743.1
2331.216	3706.1
2335.078	3656.1
2338.937	3606.1
2342.792	3654.1
2346.643	3619.1
2350.492	3549.1
2354.336	3570.1
2358.178	3538.1
2362.015	3561.1
2365.85	3615.1
2369.681	3558.1
2373.508	3512.1
2377.333	3516.1
2381.153	3623.1
2384.971	3609.1
2388.785	3612.1
2392.595	3598.1
2396.402	3650.1
2400.206	3639.1
2404.007	3619.1
2407.804	3576.1
2411.597	3431.1
2415.388	3561.1
2419.174	3436.1
2422.958	3438.1
2426.738	3397.1
2430.515	3222.1
2434.289	3365.1
2438.059	3342.1
2441.825	3368.1
2445.589	3174.1
2449.349	3218.1
2453.106	3261.1
2456.859	3222.1
2460.61	3236.1
2464.356	3192.1
2468.1	3161.1
2471.84	3194.1
2475.577	3149.1
2479.311	3117.1
2483.041	3022.1
2486.768	2933.1
2490.492	2789.1
2494.213	3011.1
2497.93	3003.1
2501.644	3057.1
2505.355	2929.1
2509.062	2879.1
2512.766	2999.1
2516.467	3001.1
2520.165	3055.1
2523.859	2978.1
2527.551	2819.1
2531.239	2927.1
2534.923	2862.1
2538.605	2957.1
2542.283	2895.1
2545.958	2917.1
2549.63	2797.1
2553.299	2843.1
2556.964	2874.1
2560.626	2868.1
2564.285	2783.1
2567.941	2820.1
2571.594	2871.1
2575.243	2782.1
2578.89	2792.1
2582.533	2848.1
2586.173	2806.1
2589.809	2745.1
2593.443	2958.1
2597.073	2756.1
2600.701	2645.1
2604.325	2747.1
2607.946	2693.1
2611.564	2682.1
2615.178	2597.1
2618.79	2592.1
2622.398	2666.1
2626.004	2620.1
2629.606	2528.1
2633.205	2717.1
2636.801	2558.1
2640.394	2555.1
2643.983	2525.1
2647.57	2560.1
2651.153	2485.1
2654.734	2350.1
2658.311	2483.1
2661.885	2375.1
2665.456	2344.1
2669.025	2260.1
2672.589	2329.1
2676.151	2216.1
2679.71	2230.1
2683.266	2111.1
2686.819	2182.1
2690.368	2156.1
2693.915	2228.1
2697.458	2242.1
2700.999	2071.1
2704.536	2042.1
2708.071	2016.1
2711.602	2004.1
2715.13	1997.1
2718.656	1957.1
2722.178	1888.1
2725.697	1944.1
2729.214	1651.1
2732.727	1843.1
2736.237	1930.1
2739.744	1819.1
2743.249	1861.1
2746.75	1904.1
2750.248	1928.1
2753.743	1941.1
2757.236	1902.1
2760.725	1930.1
2764.211	2082.1
2767.695	1948.1
2771.175	1949.1
2774.652	1942.1
2778.127	1947.1
2781.598	1944.1
2785.067	1890.1
2788.532	1973.1
2791.995	2053.1
2795.455	1883.1
2798.911	1864.1
2802.365	1988.1
2805.816	1917.1
2809.264	1856.1
2812.709	1922.1
2816.151	1962.1
2819.59	1973.1
2823.026	1981.1
2826.46	1967.1
2829.89	1981.1
2833.318	2091.1
2836.742	2016.1
2840.164	1986.1
2843.583	2006.1
2846.999	1989.1
2850.412	1959.1
2853.822	2127.1
2857.229	1967.1
2860.634	2006.1
2864.035	2026.1
2867.434	2073.1
2870.83	1948.1
2874.223	2127.1
2877.613	1991.1
2881	2243.1
2884.385	2262.1
2887.766	2247.1
2891.145	2342.1
2894.521	2290.1
2897.894	2286.1
2901.264	2039.1
2904.631	2273.1
2907.996	2258.1
2911.358	2287.1
2914.717	2233.1
2918.073	2282.1
2921.426	2202.1
2924.777	2322.1
2928.124	2386.1
2931.469	2307.1
2934.811	2485.1
2938.15	2388.1
2941.487	2420.1
2944.821	2348.1
2948.152	2428.1
2951.48	2462.1
2954.805	2394.1
2958.128	2344.1
2961.447	2434.1
2964.765	2319.1
2968.079	2454.1
2971.39	2367.1
2974.699	2466.1
2978.005	2404.1
2981.308	2502.1
2984.609	2580.1
2987.907	2544.1
2991.202	2605.1
2994.494	2653.1
2997.784	2587.1
3001.07	2669.1
3004.355	2677.1
3007.636	2696.1
3010.915	2796.1
3014.191	2887.1
3017.464	2818.1
3020.734	2840.1
3024.002	2884.1
3027.267	2967.1
3030.53	2984.1
3033.789	3025.1
3037.046	3153.1
3040.301	3101.1
3043.552	3176.1
3046.801	3213.1
3050.048	3124.1
3053.291	3148.1
3056.532	3338.1
3059.771	3421.1
3063.006	3444.1
3066.239	3519.1
3069.469	3601.1
3072.697	3865.1
3075.922	3839.1
3079.144	3912.1
3082.364	4010.1
3085.581	4196.1
3088.795	4144.1
3092.007	4264.1
3095.216	4426.1
3098.423	4642.1
3101.627	4760.1
3104.828	4800.1
3108.026	4939.1
3111.222	4998.1
3114.416	4983.1
3117.607	5171.1
3120.795	5219.1
3123.98	5366.1
3127.163	5541.1
3130.344	5505.1
3133.521	5566.1
3136.696	5779.1
3139.869	5802.1
3143.039	5974.1
3146.206	6070.1
3149.371	6079.1
3152.533	6258.1
3155.693	6361.1
3158.85	6445.1
3162.005	6511.1
3165.157	6630.1
3168.306	6593.1
3171.453	6593.1
3174.597	6792.1
3177.739	6754.1
3180.878	6670.1
3184.014	6669.1
3187.149	6696.1
3190.28	6658.1
3193.409	6575.1
3196.536	6613.1
3199.659	6583.1
3202.781	6557.1
3205.9	6746.1
3209.016	6632.1
3212.13	6628.1
3215.241	6525.1
3218.35	6705.1
3221.456	6861.1
3224.56	6691.1
3227.661	6734.1
3230.76	6726.1
3233.856	6793.1
3236.95	6718.1
3240.041	6717.1
3243.13	6537.1
3246.216	6594.1
3249.3	6487.1
3252.382	6465.1
3255.46	6504.1
3258.537	5740.1
3261.611	6425.1
3264.682	6308.1
3267.751	6288.1
3270.818	6339.1
3273.882	6096.1
3276.943	6037.1
3280.002	5996.1
3283.059	6028.1
3286.113	6027.1
3289.165	6097.1
3292.214	5976.1
3295.261	5818.1
3298.306	5870.1
3301.348	5732.1
3304.387	5667.1
3307.425	5538.1
3310.459	5596.1
3313.492	5366.1
3316.521	5330.1
3319.549	5289.1
3322.574	5207.1
3325.597	5120.1
3328.617	5126.1
3331.635	5015.1
3334.65	5009.1
3337.663	4973.1
3340.674	4979.1
3343.682	4805.1
3346.688	4835.1
3349.691	4804.1
3352.692	4914.1
3355.691	4662.1
3358.687	4765.1
3361.681	4781.1
3364.673	4720.1
3367.662	4706.1
3370.649	4680.1
3373.633	4704.1
3376.615	4677.1
3379.595	4657.1
3382.572	4563.1
3385.547	4451.1
3388.52	4531.1
3391.49	4414.1
3394.458	4396.1
3397.424	4249.1
3400.387	4265.1
3403.348	3954.1
3406.307	3991.1
3409.263	4059.1
3412.217	3854.1
3415.168	3972.1
3418.118	3882.1
3421.065	3817.1
3424.009	3701.1
3426.951	3755.1
3429.891	3553.1
3432.829	3661.1
3435.764	3652.1
3438.697	3579.1
3441.628	3477.1
3444.557	3486.1
3447.483	3434.1
3450.407	3280.1
3453.328	3281.1
3456.247	3202.1
3459.164	3122.1
3462.079	3035.1
3464.991	2988.1
3467.902	2869.1
3470.809	2818.1
3473.715	2740.1
3476.618	2653.1
3479.519	2516.1
3482.418	2628.1
3485.315	2428.1
3488.209	2380.1
3491.101	2346.1
3493.99	2348.1
3496.878	1999.1
3499.763	2068.1
3502.646	2061.1
3505.527	2066.1
3508.405	1896.1
3511.281	1875.1
3514.155	1910.1
3517.027	1738.1
3519.897	1906.1
3522.764	1665.1
3525.629	1717.1
3528.492	1643.1
3531.352	1690.1
3534.211	1462.1
3537.067	1527.1
3539.921	1433.1
3542.773	1412.1
3545.622	1325.1
3548.469	1286.1
3551.315	1243.1
3554.157	1135.1
3556.998	1009.1
3559.837	942.1
3562.673	893.1
3565.507	991.1
3568.339	905.1
3571.169	946.1
3573.996	852.1
3576.822	860.1
3579.645	777.1
3582.466	785.1
3585.285	699.1
3588.101	658.1
3590.916	715.1
3593.728	626.1
3596.538	673.1
3599.346	562.1
3602.152	628.1
3604.956	587.1
3607.757	482.1
3610.556	608.1
3613.354	469.1
3616.149	481.1
3618.942	422.1
3621.732	253.1
3624.521	451.1
3627.307	319.1
3630.092	364.1
3632.874	311.1
3635.654	388.1
3638.432	358.1
3641.208	282.1
3643.982	290.1
3646.753	247.1
3649.523	318.1
3652.29	321.1
3655.055	197.1
3657.818	151.1
3660.579	287.1
3663.338	285.1
3666.095	60.1
3668.849	272.1
3671.602	89.1
3674.352	221.1
3677.101	118.1
3679.847	53.1
3682.591	122.1
3685.333	126.1
3688.073	97.1
3690.811	108.1
3693.547	265.1
3696.281	99.1
3699.013	-11.9
3701.742	48.1
3704.47	164.1
3707.195	-11.9
3709.919	-5.9
3712.64	34.1
3715.359	-142.9
3718.076	-117.9
3720.792	-1.9
3723.505	1.1
3726.216	10.1
3728.925	11.1
3731.632	-130.9
3734.336	82.1
3737.039	-25.9
3739.74	-14.9
3742.439	26.1
3745.136	-46.9
3747.83	-57.9
3750.523	-82.9
3753.213	562.1
3755.902	-61.9
3758.589	9.1
3761.273	24.1
3763.956	-153.9
3766.636	9.1
3769.315	-219.9
3771.991	77.1
3774.665	-109.9
3777.338	-72.9
3780.008	-43.9
3782.677	-51.9
3785.343	39.1
3788.007	-26.9
3790.67	-83.9
3793.33	-144.9
3795.989	-81.9
3798.645	-128.9
3801.299	-12.9
3803.952	-121.9
3806.602	-119.9
3809.251	-82.9
3811.897	-55.9
3814.542	-124.9
3817.184	-144.9
3819.825	-84.9
3822.463	-55.9
3825.1	-71.9
3827.735	-51.9
3830.367	-83.9
3832.998	-190.9
3835.627	-179.9
3838.253	-143.9
3840.878	-96.9
3843.501	-189.9
3846.122	-165.9
3848.741	-151.9
3851.358	-128.9
3853.973	-61.9
3856.586	-141.9
3859.197	-191.9
3861.806	-152.9
3864.414	-80.9
3867.019	-134.9
3869.622	-190.9
3872.224	-173.9
3874.823	-22.9
3877.421	-62.9
3880.016	-66.9
3882.61	59.1
3885.202	-15.9
3887.792	-30.9
3890.38	-169.9
3892.966	-56.9
3895.55	-42.9
3898.132	-147.9
3900.713	-197.9
3903.291	-130.9
3905.868	-103.9
3908.442	-199.9
3911.015	-158.9
3913.586	-153.9
3916.155	-197.9
3918.722	-87.9
3921.287	-90.9
3923.85	-60.9
3926.411	-182.9
3928.971	-207.9
3931.528	-132.9
3934.084	-150.9
3936.638	-127.9
3939.19	-174.9
3941.74	-186.9
3944.288	-188.9
3946.834	-188.9
3949.378	-128.9
3951.921	-73.9
3954.462	-102.9
3957	-228.9
3959.537	-65.9
3962.072	-128.9
3964.606	-80.9
3967.137	-129.9
3969.667	-172.9
3972.194	-115.9
3974.72	-118.9
3977.244	-87.9
3979.766	-110.9
3982.286	-74.9
3984.805	-178.9
3987.321	-167.9
3989.836	-134.9
3992.349	-40.9
3994.86	-175.9
3997.369	-94.9
3999.877	-207.9
4002.382	-162.9
4004.886	-142.9
4007.388	-110.9
4009.888	29.1
4012.386	-175.9
4014.883	-135.9
4017.377	-153.9
4019.87	-230.9
4022.361	-96.9
4024.85	-114.9
4027.338	-194.9
4029.823	-164.9
4032.307	-135.9
4034.789	-140.9
4037.269	-89.9
4039.747	-90.9
4042.224	-162.9
4044.699	-103.9
4047.172	-90.9
4049.643	-205.9
4052.112	-76.9
4054.58	-100.9
4057.046	-82.9
4059.51	-83.9
4061.972	-184.9
4064.432	-34.9
4066.891	-214.9
4069.348	-63.9
4071.803	-209.9
4074.256	-182.9
4076.708	-106.9
4079.158	-159.9
4081.606	-213.9
4084.052	-130.9
4086.497	-141.9
4088.939	-161.9
4091.38	-102.9
4093.819	-170.9
4096.257	-1051.9
4098.693	-1065.9
4101.127	-1098.9
4103.559	-1103.9
4105.989	247.1
4108.418	38.1
4110.845	240.1
4113.27	142.1
4115.694	216.1
4118.115	233.1
4120.535	-166.9
4122.954	-231.9
4125.37	-195.9
4127.785	-154.9
4130.198	-211.9
4132.609	-187.9
4135.019	-1130.9
4137.427	-1113.9
4139.833	-1075.9
4142.237	-941.9
