Data from 2018-2-8_conc=4_RamanShift_14.txt Node
Date: Wed Feb 07 10:42:10 IST 2018
User: aro
Spectrometer: QEPB0276
Trigger mode: 0
Integration Time (sec): 3.000000E1
Scans to average: 1
Electric dark correction enabled: true
Nonlinearity correction enabled: false
Boxcar width: 0
XAxis mode: Raman Shifts
Number of Pixels in Spectrum: 1044
>>>>>Begin Spectral Data<<<<<
160.701	465
166.742	584
172.777	1084
178.805	2679
184.826	6035
190.841	11873
196.849	18937
202.85	24246
208.845	26123
214.833	25997
220.815	25584
226.789	25480
232.758	25413
238.719	25212
244.674	24960
250.623	24585
256.565	24141
262.5	23702
268.429	23109
274.351	22927
280.267	22648
286.176	22112
292.079	21908
297.975	21456
303.865	21398
309.748	21206
315.625	21012
321.495	20623
327.359	20676
333.217	20703
339.068	20615
344.912	20649
350.751	20643
356.583	20573
362.408	20585
368.227	20480
374.04	20624
379.847	20679
385.647	20787
391.44	21078
397.228	21038
403.009	21251
408.784	21379
414.553	21424
420.315	21515
426.071	21521
431.821	21525
437.565	21502
443.302	21247
449.033	21248
454.758	21151
460.477	21022
466.189	20992
471.896	20915
477.596	20774
483.29	20791
488.978	20792
494.66	20828
500.335	20681
506.005	20640
511.668	20357
517.325	20259
522.977	20111
528.622	20111
534.261	19876
539.894	19832
545.521	19762
551.141	19704
556.756	19546
562.365	19403
567.968	19276
573.565	19113
579.155	18887
584.74	18886
590.319	18838
595.892	18828
601.459	18637
607.02	18650
612.575	18691
618.124	18591
623.667	18684
629.204	18569
634.735	18662
640.261	18509
645.781	18774
651.294	18464
656.802	18158
662.304	18172
667.8	17830
673.29	17908
678.775	17834
684.254	17850
689.726	17939
695.193	17715
700.655	17717
706.11	17845
711.56	17740
717.004	17767
722.442	17962
727.874	17786
733.301	17716
738.722	17776
744.137	17630
749.547	17519
754.951	17508
760.349	17270
765.741	17105
771.128	17131
776.509	17150
781.885	17057
787.254	17088
792.618	17185
797.977	17335
803.33	17320
808.677	17393
814.019	17304
819.355	17334
824.686	17337
830.011	17343
835.33	17106
840.644	16848
845.952	16929
851.255	16701
856.552	16652
861.844	16456
867.13	16480
872.41	16351
877.686	16315
882.955	16404
888.219	16554
893.478	16591
898.731	16468
903.979	16334
909.221	16361
914.458	16349
919.69	16101
924.916	16082
930.136	15872
935.351	15659
940.561	15498
945.766	15417
950.965	15272
956.158	15382
961.347	15391
966.529	15449
971.707	15422
976.879	15348
982.046	15407
987.208	15505
992.364	15308
997.515	15326
1002.66	15132
1007.801	15309
1012.936	15118
1018.066	15196
1023.19	15071
1028.309	14967
1033.423	15048
1038.532	15129
1043.636	15322
1048.734	15321
1053.827	15372
1058.915	15403
1063.998	15263
1069.075	15130
1074.147	14855
1079.214	14861
1084.276	14570
1089.333	14586
1094.385	14550
1099.431	14468
1104.472	14458
1109.509	14640
1114.54	14664
1119.565	14766
1124.586	14753
1129.602	14726
1134.613	14628
1139.618	14557
1144.619	14328
1149.614	14132
1154.604	14053
1159.589	13996
1164.57	13739
1169.545	13748
1174.515	13844
1179.48	14029
1184.44	13968
1189.395	14149
1194.345	14252
1199.29	14207
1204.23	14335
1209.165	14243
1214.095	14126
1219.021	13915
1223.941	13987
1228.856	13972
1233.766	13966
1238.672	13799
1243.572	13842
1248.467	13763
1253.358	14030
1258.244	14008
1263.124	13941
1268	13842
1272.871	13795
1277.737	13789
1282.599	13479
1287.455	13314
1292.306	13124
1297.153	13162
1301.995	12966
1306.832	12979
1311.664	12927
1316.491	12982
1321.314	12962
1326.132	12941
1330.945	12791
1335.753	12733
1340.556	12592
1345.354	12411
1350.148	12121
1354.937	11999
1359.722	11987
1364.501	11763
1369.276	11533
1374.046	11702
1378.811	11810
1383.572	11929
1388.327	11699
1393.079	12172
1397.825	12220
1402.567	12255
1407.304	12121
1412.036	12135
1416.764	12092
1421.487	12194
1426.205	11850
1430.919	11709
1435.628	11554
1440.333	11485
1445.032	11331
1449.727	11311
1454.418	11287
1459.104	11305
1463.785	11115
1468.462	11186
1473.134	11119
1477.802	10911
1482.465	11033
1487.123	10659
1491.777	10674
1496.426	10692
1501.071	10441
1505.711	10534
1510.347	10511
1514.978	10697
1519.604	10812
1524.226	10863
1528.844	11202
1533.457	11043
1538.065	11283
1542.669	11326
1547.269	11334
1551.864	11301
1556.454	11457
1561.041	11349
1565.622	11285
1570.199	11063
1574.772	11033
1579.34	10755
1583.904	10990
1588.464	10923
1593.019	10932
1597.569	11037
1602.115	11091
1606.657	11137
1611.195	11163
1615.728	11229
1620.256	11309
1624.78	11355
1629.3	11267
1633.816	11055
1638.327	11048
1642.834	10998
1647.336	10966
1651.834	10818
1656.328	10912
1660.817	10844
1665.302	10934
1669.783	10770
1674.259	10676
1678.732	10397
1683.199	10149
1687.663	10023
1692.122	9572
1696.577	9329
1701.028	9502
1705.474	9264
1709.917	9309
1714.355	9308
1718.788	9198
1723.218	9054
1727.643	8866
1732.064	8677
1736.481	8762
1740.893	8533
1745.301	8391
1749.705	8456
1754.105	8075
1758.501	8026
1762.893	7701
1767.28	7673
1771.663	7411
1776.042	7273
1780.417	7165
1784.787	6897
1789.154	7010
1793.516	6880
1797.874	7167
1802.228	7350
1806.578	7472
1810.924	7341
1815.266	7843
1819.603	7480
1823.937	7428
1828.266	7379
1832.591	7341
1836.913	7198
1841.23	7205
1845.543	7209
1849.852	6980
1854.156	6973
1858.457	6945
1862.754	6689
1867.047	6791
1871.335	6666
1875.62	6681
1879.9	6574
1884.177	6842
1888.449	6640
1892.718	6618
1896.982	6582
1901.243	6727
1905.499	6593
1909.752	6566
1914	6683
1918.245	6588
1922.485	6558
1926.722	6570
1930.954	6637
1935.183	6673
1939.408	6658
1943.628	6669
1947.845	6695
1952.058	6759
1956.267	6732
1960.472	6574
1964.673	6692
1968.87	6789
1973.063	6719
1977.252	6581
1981.438	6530
1985.619	6400
1989.797	6265
1993.971	6191
1998.14	6092
2002.306	6061
2006.469	6098
2010.627	6029
2014.781	6030
2018.932	6075
2023.078	5884
2027.221	5758
2031.36	5917
2035.495	5883
2039.627	5881
2043.754	5693
2047.878	5783
2051.998	5724
2056.114	5727
2060.226	5663
2064.334	5563
2068.439	5449
2072.54	5533
2076.637	5691
2080.73	5631
2084.82	5507
2088.906	5599
2092.988	5510
2097.066	5773
2101.14	5574
2105.211	5682
2109.278	5652
2113.342	5675
2117.401	5799
2121.457	5678
2125.509	5728
2129.558	5537
2133.602	5574
2137.643	5493
2141.681	5395
2145.714	5379
2149.744	5308
2153.77	5272
2157.793	5269
2161.812	5320
2165.827	5304
2169.838	4991
2173.846	5164
2177.851	5129
2181.851	4942
2185.848	4996
2189.841	4828
2193.831	4961
2197.817	4713
2201.799	4758
2205.778	4867
2209.753	4802
2213.725	4699
2217.693	4699
2221.657	4740
2225.618	4586
2229.575	4631
2233.529	4536
2237.479	4631
2241.425	4583
2245.368	4732
2249.307	4572
2253.243	4558
2257.175	4642
2261.104	4445
2265.029	4324
2268.95	4359
2272.868	4226
2276.783	4238
2280.694	4038
2284.601	4057
2288.505	4078
2292.405	3962
2296.302	4093
2300.195	3872
2304.085	3974
2307.971	3872
2311.854	3925
2315.734	3815
2319.609	3868
2323.482	3934
2327.351	3877
2331.216	3819
2335.078	3801
2338.937	3831
2342.792	3720
2346.643	3745
2350.492	3657
2354.336	3707
2358.178	3684
2362.015	3681
2365.85	3862
2369.681	3717
2373.508	3723
2377.333	3571
2381.153	3734
2384.971	3786
2388.785	3693
2392.595	3765
2396.402	3849
2400.206	3844
2404.007	3766
2407.804	3683
2411.597	3549
2415.388	3659
2419.174	3677
2422.958	3531
2426.738	3523
2430.515	3382
2434.289	3568
2438.059	3493
2441.825	3501
2445.589	3318
2449.349	3505
2453.106	3426
2456.859	3327
2460.61	3239
2464.356	3308
2468.1	3280
2471.84	3344
2475.577	3283
2479.311	3145
2483.041	3171
2486.768	3059
2490.492	2887
2494.213	3121
2497.93	3188
2501.644	3188
2505.355	3175
2509.062	3189
2512.766	3164
2516.467	3105
2520.165	3081
2523.859	3145
2527.551	2905
2531.239	3035
2534.923	3100
2538.605	3126
2542.283	3015
2545.958	3002
2549.63	2982
2553.299	2907
2556.964	2999
2560.626	2996
2564.285	2893
2567.941	3018
2571.594	3040
2575.243	2796
2578.89	2979
2582.533	2981
2586.173	2950
2589.809	2879
2593.443	3123
2597.073	2930
2600.701	2803
2604.325	2807
2607.946	2870
2611.564	2828
2615.178	2690
2618.79	2758
2622.398	2786
2626.004	2784
2629.606	2685
2633.205	2906
2636.801	2722
2640.394	2714
2643.983	2666
2647.57	2691
2651.153	2564
2654.734	2515
2658.311	2726
2661.885	2537
2665.456	2525
2669.025	2484
2672.589	2505
2676.151	2355
2679.71	2357
2683.266	2384
2686.819	2351
2690.368	2252
2693.915	2352
2697.458	2410
2700.999	2169
2704.536	2202
2708.071	2224
2711.602	2161
2715.13	2197
2718.656	2126
2722.178	2064
2725.697	2127
2729.214	1869
2732.727	1962
2736.237	1922
2739.744	1979
2743.249	2095
2746.75	2052
2750.248	2047
2753.743	2124
2757.236	2055
2760.725	2063
2764.211	2244
2767.695	2072
2771.175	2131
2774.652	2073
2778.127	2093
2781.598	2026
2785.067	2113
2788.532	2067
2791.995	2032
2795.455	2104
2798.911	2029
2802.365	2121
2805.816	2042
2809.264	2009
2812.709	2097
2816.151	2006
2819.59	2129
2823.026	2096
2826.46	2172
2829.89	2175
2833.318	2293
2836.742	2197
2840.164	2148
2843.583	2224
2846.999	2230
2850.412	2142
2853.822	2315
2857.229	2079
2860.634	2189
2864.035	2214
2867.434	2217
2870.83	2217
2874.223	2379
2877.613	2177
2881	2393
2884.385	2452
2887.766	2428
2891.145	2313
2894.521	2529
2897.894	2481
2901.264	2201
2904.631	2424
2907.996	2399
2911.358	2453
2914.717	2431
2918.073	2403
2921.426	2443
2924.777	2516
2928.124	2541
2931.469	2362
2934.811	2679
2938.15	2544
2941.487	2552
2944.821	2290
2948.152	2610
2951.48	2586
2954.805	2554
2958.128	2542
2961.447	2645
2964.765	2493
2968.079	2651
2971.39	2587
2974.699	2678
2978.005	2565
2981.308	2658
2984.609	2796
2987.907	2712
2991.202	2824
2994.494	2831
2997.784	2482
3001.07	2785
3004.355	2837
3007.636	2929
3010.915	2947
3014.191	2989
3017.464	3006
3020.734	2936
3024.002	3104
3027.267	3111
3030.53	3161
3033.789	3206
3037.046	3327
3040.301	3311
3043.552	3386
3046.801	3488
3050.048	3397
3053.291	3276
3056.532	3502
3059.771	3630
3063.006	3579
3066.239	3698
3069.469	3775
3072.697	4025
3075.922	4089
3079.144	4048
3082.364	4157
3085.581	4403
3088.795	4189
3092.007	4431
3095.216	4638
3098.423	4780
3101.627	4980
3104.828	4989
3108.026	5159
3111.222	5205
3114.416	5173
3117.607	5282
3120.795	5453
3123.98	5514
3127.163	5702
3130.344	5746
3133.521	5876
3136.696	5922
3139.869	6070
3143.039	6142
3146.206	6140
3149.371	6297
3152.533	6483
3155.693	6569
3158.85	6692
3162.005	6719
3165.157	6879
3168.306	6854
3171.453	6779
3174.597	7016
3177.739	6973
3180.878	6904
3184.014	6901
3187.149	6906
3190.28	6861
3193.409	6860
3196.536	6823
3199.659	6804
3202.781	6813
3205.9	6959
3209.016	6928
3212.13	6895
3215.241	6792
3218.35	6843
3221.456	6913
3224.56	6996
3227.661	6994
3230.76	7118
3233.856	6972
3236.95	6899
3240.041	6965
3243.13	6795
3246.216	6893
3249.3	6764
3252.382	6717
3255.46	6789
3258.537	5954
3261.611	6656
3264.682	6526
3267.751	6401
3270.818	6587
3273.882	6346
3276.943	6312
3280.002	6260
3283.059	6270
3286.113	6241
3289.165	6315
3292.214	6223
3295.261	6012
3298.306	6065
3301.348	5979
3304.387	5915
3307.425	5773
3310.459	5740
3313.492	5533
3316.521	5592
3319.549	5494
3322.574	5436
3325.597	5312
3328.617	5340
3331.635	5202
3334.65	5263
3337.663	5189
3340.674	5165
3343.682	5041
3346.688	5065
3349.691	4993
3352.692	5087
3355.691	4967
3358.687	4958
3361.681	4927
3364.673	4920
3367.662	4910
3370.649	4813
3373.633	4930
3376.615	4801
3379.595	4989
3382.572	4873
3385.547	4701
3388.52	4728
3391.49	4662
3394.458	4606
3397.424	4428
3400.387	4537
3403.348	4162
3406.307	4276
3409.263	4286
3412.217	4163
3415.168	4147
3418.118	4148
3421.065	4016
3424.009	3945
3426.951	3961
3429.891	3800
3432.829	3871
3435.764	3806
3438.697	3748
3441.628	3511
3444.557	3638
3447.483	3685
3450.407	3422
3453.328	3303
3456.247	3465
3459.164	3421
3462.079	3173
3464.991	3117
3467.902	3027
3470.809	2984
3473.715	2912
3476.618	2778
3479.519	2744
3482.418	2841
3485.315	2595
3488.209	2512
3491.101	2541
3493.99	2540
3496.878	2165
3499.763	2235
3502.646	2126
3505.527	2311
3508.405	2136
3511.281	2070
3514.155	2068
3517.027	1988
3519.897	2120
3522.764	1844
3525.629	1906
3528.492	1793
3531.352	1596
3534.211	1653
3537.067	1701
3539.921	1638
3542.773	1529
3545.622	1473
3548.469	1492
3551.315	1413
3554.157	1346
3556.998	1274
3559.837	1111
3562.673	1035
3565.507	1206
3568.339	984
3571.169	1071
3573.996	1047
3576.822	1030
3579.645	1019
3582.466	917
3585.285	870
3588.101	829
3590.916	897
3593.728	824
3596.538	896
3599.346	732
3602.152	851
3604.956	789
3607.757	605
3610.556	854
3613.354	651
3616.149	642
3618.942	602
3621.732	425
3624.521	649
3627.307	527
3630.092	576
3632.874	387
3635.654	482
3638.432	593
3641.208	441
3643.982	471
3646.753	363
3649.523	418
3652.29	401
3655.055	455
3657.818	316
3660.579	257
3663.338	454
3666.095	268
3668.849	454
3671.602	285
3674.352	418
3677.101	293
3679.847	156
3682.591	328
3685.333	307
3688.073	213
3690.811	300
3693.547	198
3696.281	277
3699.013	164
3701.742	199
3704.47	313
3707.195	186
3709.919	175
3712.64	143
3715.359	39
3718.076	-74
3720.792	23
3723.505	136
3726.216	67
3728.925	222
3731.632	-3
3734.336	232
3737.039	103
3739.74	109
3742.439	249
3745.136	140
3747.83	85
3750.523	121
3753.213	973
3755.902	110
3758.589	224
3761.273	194
3763.956	-3
3766.636	124
3769.315	-30
3771.991	209
3774.665	52
3777.338	184
3780.008	156
3782.677	56
3785.343	198
3788.007	176
3790.67	68
3793.33	-12
3795.989	138
3798.645	33
3801.299	174
3803.952	65
3806.602	9
3809.251	68
3811.897	75
3814.542	81
3817.184	95
3819.825	129
3822.463	-5
3825.1	59
3827.735	44
3830.367	28
3832.998	-41
3835.627	-50
3838.253	3
3840.878	-170
3843.501	-71
3846.122	-64
3848.741	-63
3851.358	-89
3853.973	173
3856.586	71
3859.197	11
3861.806	26
3864.414	110
3867.019	47
3869.622	-45
3872.224	-52
3874.823	84
3877.421	62
3880.016	131
3882.61	249
3885.202	144
3887.792	150
3890.38	-123
3892.966	92
3895.55	47
3898.132	61
3900.713	-25
3903.291	38
3905.868	-15
3908.442	21
3911.015	-30
3913.586	19
3916.155	-28
3918.722	74
3921.287	44
3923.85	-244
3926.411	-5
3928.971	-72
3931.528	-19
3934.084	62
3936.638	20
3939.19	-40
3941.74	-58
3944.288	-23
3946.834	-8
3949.378	-11
3951.921	94
3954.462	12
3957	-7
3959.537	76
3962.072	110
3964.606	149
3967.137	6
3969.667	-37
3972.194	17
3974.72	8
3977.244	77
3979.766	79
3982.286	126
3984.805	-34
3987.321	-68
3989.836	14
3992.349	66
3994.86	-21
3997.369	-4
3999.877	-19
4002.382	57
4004.886	-3
4007.388	14
4009.888	130
4012.386	-72
4014.883	39
4017.377	1
4019.87	-122
4022.361	47
4024.85	131
4027.338	112
4029.823	0
4032.307	25
4034.789	46
4037.269	16
4039.747	60
4042.224	11
4044.699	4
4047.172	-26
4049.643	-62
4052.112	134
4054.58	33
4057.046	37
4059.51	87
4061.972	12
4064.432	140
4066.891	-70
4069.348	46
4071.803	-37
4074.256	7
4076.708	76
4079.158	108
4081.606	-78
4084.052	92
4086.497	-38
4088.939	70
4091.38	22
4093.819	-1
4096.257	-1195
4098.693	-1191
4101.127	-1253
4103.559	-1269
4105.989	180
4108.418	197
4110.845	361
4113.27	327
4115.694	449
4118.115	434
4120.535	-37
4122.954	-58
4125.37	-125
4127.785	-8
4130.198	-41
4132.609	-37
4135.019	-1273
4137.427	-1269
4139.833	-1209
4142.237	-1061
