Data from 2018-2-8_conc=6_RamanShift_17.txt Node
Date: Wed Feb 07 11:35:10 IST 2018
User: aro
Spectrometer: QEPB0276
Trigger mode: 0
Integration Time (sec): 3.000000E1
Scans to average: 1
Electric dark correction enabled: true
Nonlinearity correction enabled: false
Boxcar width: 0
XAxis mode: Raman Shifts
Number of Pixels in Spectrum: 1044
>>>>>Begin Spectral Data<<<<<
160.701	819.6
166.742	981.6
172.777	1395.6
178.805	2850.6
184.826	5899.6
190.841	11053.6
196.849	17336.6
202.85	22043.6
208.845	23762.6
214.833	23605.6
220.815	23362.6
226.789	23308.6
232.758	23176.6
238.719	23152.6
244.674	22985.6
250.623	22606.6
256.565	22226.6
262.5	21874.6
268.429	21394.6
274.351	21134.6
280.267	21033.6
286.176	20503.6
292.079	20351.6
297.975	20162.6
303.865	19913.6
309.748	19799.6
315.625	19777.6
321.495	19285.6
327.359	19355.6
333.217	19364.6
339.068	19344.6
344.912	19352.6
350.751	19350.6
356.583	19235.6
362.408	19244.6
368.227	19163.6
374.04	19374.6
379.847	19401.6
385.647	19508.6
391.44	19834.6
397.228	19680.6
403.009	19886.6
408.784	19830.6
414.553	20020.6
420.315	20201.6
426.071	20286.6
431.821	20157.6
437.565	20133.6
443.302	19889.6
449.033	19910.6
454.758	19883.6
460.477	19712.6
466.189	19594.6
471.896	19516.6
477.596	19376.6
483.29	19470.6
488.978	19396.6
494.66	19473.6
500.335	19440.6
506.005	19410.6
511.668	19026.6
517.325	18947.6
522.977	18758.6
528.622	18768.6
534.261	18592.6
539.894	18553.6
545.521	18487.6
551.141	18426.6
556.756	18152.6
562.365	18019.6
567.968	17971.6
573.565	17762.6
579.155	17620.6
584.74	17595.6
590.319	17433.6
595.892	17412.6
601.459	17356.6
607.02	17380.6
612.575	17436.6
618.124	17209.6
623.667	17436.6
629.204	17321.6
634.735	17384.6
640.261	17210.6
645.781	17436.6
651.294	17193.6
656.802	16871.6
662.304	16890.6
667.8	16541.6
673.29	16772.6
678.775	16551.6
684.254	16628.6
689.726	16622.6
695.193	16424.6
700.655	16519.6
706.11	16638.6
711.56	16362.6
717.004	16528.6
722.442	16746.6
727.874	16485.6
733.301	16481.6
738.722	16569.6
744.137	16336.6
749.547	16278.6
754.951	16183.6
760.349	16037.6
765.741	15831.6
771.128	15945.6
776.509	15935.6
781.885	15893.6
787.254	15831.6
792.618	15940.6
797.977	16041.6
803.33	16166.6
808.677	16175.6
814.019	16097.6
819.355	16167.6
824.686	16156.6
830.011	16113.6
835.33	15839.6
840.644	15575.6
845.952	15755.6
851.255	15392.6
856.552	15391.6
861.844	15332.6
867.13	15209.6
872.41	15165.6
877.686	15082.6
882.955	15170.6
888.219	15277.6
893.478	15384.6
898.731	15164.6
903.979	15066.6
909.221	15251.6
914.458	15036.6
919.69	14925.6
924.916	14905.6
930.136	14635.6
935.351	14606.6
940.561	14325.6
945.766	14311.6
950.965	14057.6
956.158	14255.6
961.347	14338.6
966.529	14310.6
971.707	14221.6
976.879	14242.6
982.046	14222.6
987.208	14344.6
992.364	14110.6
997.515	14152.6
1002.66	13986.6
1007.801	14159.6
1012.936	14110.6
1018.066	14141.6
1023.19	13897.6
1028.309	13726.6
1033.423	13881.6
1038.532	13875.6
1043.636	14297.6
1048.734	14114.6
1053.827	14341.6
1058.915	14245.6
1063.998	14044.6
1069.075	13944.6
1074.147	13745.6
1079.214	13791.6
1084.276	13445.6
1089.333	13431.6
1094.385	13452.6
1099.431	13515.6
1104.472	13345.6
1109.509	13484.6
1114.54	13568.6
1119.565	13592.6
1124.586	13562.6
1129.602	13489.6
1134.613	13529.6
1139.618	13540.6
1144.619	13226.6
1149.614	12976.6
1154.604	12950.6
1159.589	12867.6
1164.57	12621.6
1169.545	12595.6
1174.515	12592.6
1179.48	12831.6
1184.44	12863.6
1189.395	12942.6
1194.345	13119.6
1199.29	13037.6
1204.23	13215.6
1209.165	13121.6
1214.095	12906.6
1219.021	12787.6
1223.941	12775.6
1228.856	12859.6
1233.766	12814.6
1238.672	12596.6
1243.572	12617.6
1248.467	12686.6
1253.358	12857.6
1258.244	12839.6
1263.124	12761.6
1268	12588.6
1272.871	12609.6
1277.737	12602.6
1282.599	12451.6
1287.455	12259.6
1292.306	12051.6
1297.153	12136.6
1301.995	11897.6
1306.832	11728.6
1311.664	11832.6
1316.491	11925.6
1321.314	11870.6
1326.132	11839.6
1330.945	11685.6
1335.753	11615.6
1340.556	11599.6
1345.354	11482.6
1350.148	11149.6
1354.937	11082.6
1359.722	11106.6
1364.501	10853.6
1369.276	10609.6
1374.046	10638.6
1378.811	10877.6
1383.572	10852.6
1388.327	10577.6
1393.079	11048.6
1397.825	11111.6
1402.567	11091.6
1407.304	11008.6
1412.036	11106.6
1416.764	10894.6
1421.487	11151.6
1426.205	10839.6
1430.919	10655.6
1435.628	10597.6
1440.333	10475.6
1445.032	10479.6
1449.727	10297.6
1454.418	10292.6
1459.104	10322.6
1463.785	10277.6
1468.462	10138.6
1473.134	10156.6
1477.802	10082.6
1482.465	10210.6
1487.123	9673.6
1491.777	9949.6
1496.426	9902.6
1501.071	9585.6
1505.711	9663.6
1510.347	9608.6
1514.978	9753.6
1519.604	9760.6
1524.226	9794.6
1528.844	10286.6
1533.457	9927.6
1538.065	10098.6
1542.669	10174.6
1547.269	10253.6
1551.864	10150.6
1556.454	10409.6
1561.041	10365.6
1565.622	10305.6
1570.199	10002.6
1574.772	9978.6
1579.34	9897.6
1583.904	9951.6
1588.464	9838.6
1593.019	9889.6
1597.569	10013.6
1602.115	9861.6
1606.657	10060.6
1611.195	10059.6
1615.728	10087.6
1620.256	10240.6
1624.78	10350.6
1629.3	10266.6
1633.816	10078.6
1638.327	10119.6
1642.834	9864.6
1647.336	9966.6
1651.834	9835.6
1656.328	9925.6
1660.817	9724.6
1665.302	9938.6
1669.783	9882.6
1674.259	9689.6
1678.732	9411.6
1683.199	9325.6
1687.663	9264.6
1692.122	8811.6
1696.577	8607.6
1701.028	8536.6
1705.474	8495.6
1709.917	8502.6
1714.355	8444.6
1718.788	8325.6
1723.218	8314.6
1727.643	8031.6
1732.064	7942.6
1736.481	8121.6
1740.893	7758.6
1745.301	7644.6
1749.705	7785.6
1754.105	7341.6
1758.501	7319.6
1762.893	7063.6
1767.28	7037.6
1771.663	6829.6
1776.042	6732.6
1780.417	6656.6
1784.787	6362.6
1789.154	6433.6
1793.516	6493.6
1797.874	6461.6
1802.228	6629.6
1806.578	6741.6
1810.924	6668.6
1815.266	8091.6
1819.603	6839.6
1823.937	6824.6
1828.266	6705.6
1832.591	6591.6
1836.913	6565.6
1841.23	6638.6
1845.543	6632.6
1849.852	6444.6
1854.156	6457.6
1858.457	6412.6
1862.754	6130.6
1867.047	6298.6
1871.335	6107.6
1875.62	6111.6
1879.9	6115.6
1884.177	6316.6
1888.449	6134.6
1892.718	6094.6
1896.982	6014.6
1901.243	6262.6
1905.499	6187.6
1909.752	6045.6
1914	6292.6
1918.245	5962.6
1922.485	6010.6
1926.722	6074.6
1930.954	6051.6
1935.183	6129.6
1939.408	6012.6
1943.628	6073.6
1947.845	6127.6
1952.058	6187.6
1956.267	6060.6
1960.472	6076.6
1964.673	6051.6
1968.87	6155.6
1973.063	6197.6
1977.252	5941.6
1981.438	5978.6
1985.619	5832.6
1989.797	5744.6
1993.971	5715.6
1998.14	5523.6
2002.306	5518.6
2006.469	5476.6
2010.627	5507.6
2014.781	5579.6
2018.932	5607.6
2023.078	5318.6
2027.221	5350.6
2031.36	5435.6
2035.495	5307.6
2039.627	5377.6
2043.754	5287.6
2047.878	5316.6
2051.998	5254.6
2056.114	5227.6
2060.226	5282.6
2064.334	5130.6
2068.439	5030.6
2072.54	5062.6
2076.637	5300.6
2080.73	5191.6
2084.82	5056.6
2088.906	5168.6
2092.988	5122.6
2097.066	5338.6
2101.14	5031.6
2105.211	5180.6
2109.278	5241.6
2113.342	5211.6
2117.401	5348.6
2121.457	5237.6
2125.509	5191.6
2129.558	5010.6
2133.602	5090.6
2137.643	4997.6
2141.681	4972.6
2145.714	4967.6
2149.744	4875.6
2153.77	4916.6
2157.793	4835.6
2161.812	5038.6
2165.827	4927.6
2169.838	4597.6
2173.846	4754.6
2177.851	4657.6
2181.851	4549.6
2185.848	4622.6
2189.841	4560.6
2193.831	4639.6
2197.817	4420.6
2201.799	4442.6
2205.778	4537.6
2209.753	4552.6
2213.725	4425.6
2217.693	4378.6
2221.657	4381.6
2225.618	4276.6
2229.575	4345.6
2233.529	4179.6
2237.479	4259.6
2241.425	4182.6
2245.368	4430.6
2249.307	4270.6
2253.243	4269.6
2257.175	4284.6
2261.104	4171.6
2265.029	4010.6
2268.95	4009.6
2272.868	3939.6
2276.783	4057.6
2280.694	3749.6
2284.601	3820.6
2288.505	3828.6
2292.405	3662.6
2296.302	3847.6
2300.195	3735.6
2304.085	3842.6
2307.971	3615.6
2311.854	3738.6
2315.734	3557.6
2319.609	3658.6
2323.482	3823.6
2327.351	3571.6
2331.216	3607.6
2335.078	3552.6
2338.937	3632.6
2342.792	3594.6
2346.643	3560.6
2350.492	3473.6
2354.336	3523.6
2358.178	3482.6
2362.015	3500.6
2365.85	3663.6
2369.681	3592.6
2373.508	3516.6
2377.333	3353.6
2381.153	3553.6
2384.971	3593.6
2388.785	3556.6
2392.595	3605.6
2396.402	3542.6
2400.206	3735.6
2404.007	3682.6
2407.804	3508.6
2411.597	3393.6
2415.388	3560.6
2419.174	3485.6
2422.958	3442.6
2426.738	3389.6
2430.515	3271.6
2434.289	3396.6
2438.059	3453.6
2441.825	3401.6
2445.589	3080.6
2449.349	3373.6
2453.106	3202.6
2456.859	3200.6
2460.61	3186.6
2464.356	3214.6
2468.1	3189.6
2471.84	3252.6
2475.577	3217.6
2479.311	3084.6
2483.041	3080.6
2486.768	2937.6
2490.492	2753.6
2494.213	3307.6
2497.93	3086.6
2501.644	3122.6
2505.355	3134.6
2509.062	2999.6
2512.766	3051.6
2516.467	2999.6
2520.165	2987.6
2523.859	3151.6
2527.551	2754.6
2531.239	2990.6
2534.923	2985.6
2538.605	3069.6
2542.283	2910.6
2545.958	2951.6
2549.63	2854.6
2553.299	2792.6
2556.964	2757.6
2560.626	2962.6
2564.285	2737.6
2567.941	2954.6
2571.594	2883.6
2575.243	2770.6
2578.89	2952.6
2582.533	2929.6
2586.173	2880.6
2589.809	2844.6
2593.443	3144.6
2597.073	2837.6
2600.701	2733.6
2604.325	2763.6
2607.946	2847.6
2611.564	2759.6
2615.178	2646.6
2618.79	2661.6
2622.398	2864.6
2626.004	2721.6
2629.606	2654.6
2633.205	2887.6
2636.801	2693.6
2640.394	2589.6
2643.983	2664.6
2647.57	2679.6
2651.153	2523.6
2654.734	2394.6
2658.311	2786.6
2661.885	2538.6
2665.456	2520.6
2669.025	2495.6
2672.589	2464.6
2676.151	2289.6
2679.71	2268.6
2683.266	2475.6
2686.819	2140.6
2690.368	2314.6
2693.915	2308.6
2697.458	2404.6
2700.999	2171.6
2704.536	2193.6
2708.071	2226.6
2711.602	2168.6
2715.13	2212.6
2718.656	2200.6
2722.178	2091.6
2725.697	2279.6
2729.214	1905.6
2732.727	2002.6
2736.237	2069.6
2739.744	2051.6
2743.249	2101.6
2746.75	2159.6
2750.248	2193.6
2753.743	2187.6
2757.236	2089.6
2760.725	2084.6
2764.211	2436.6
2767.695	2158.6
2771.175	2168.6
2774.652	2131.6
2778.127	2134.6
2781.598	2100.6
2785.067	2171.6
2788.532	2146.6
2791.995	2069.6
2795.455	2197.6
2798.911	2036.6
2802.365	2237.6
2805.816	2091.6
2809.264	2066.6
2812.709	2198.6
2816.151	2112.6
2819.59	2247.6
2823.026	2254.6
2826.46	2304.6
2829.89	2236.6
2833.318	2487.6
2836.742	2081.6
2840.164	2138.6
2843.583	2356.6
2846.999	2268.6
2850.412	2261.6
2853.822	2629.6
2857.229	2173.6
2860.634	2257.6
2864.035	2402.6
2867.434	2189.6
2870.83	2199.6
2874.223	2334.6
2877.613	2255.6
2881	2530.6
2884.385	2584.6
2887.766	2440.6
2891.145	2406.6
2894.521	2554.6
2897.894	2520.6
2901.264	2129.6
2904.631	2481.6
2907.996	2488.6
2911.358	2451.6
2914.717	2548.6
2918.073	2513.6
2921.426	2451.6
2924.777	2622.6
2928.124	2601.6
2931.469	2433.6
2934.811	2769.6
2938.15	2545.6
2941.487	2579.6
2944.821	2218.6
2948.152	2667.6
2951.48	2650.6
2954.805	2636.6
2958.128	2498.6
2961.447	2639.6
2964.765	2491.6
2968.079	2706.6
2971.39	2580.6
2974.699	2692.6
2978.005	2635.6
2981.308	2698.6
2984.609	2860.6
2987.907	2704.6
2991.202	2781.6
2994.494	2826.6
2997.784	2454.6
3001.07	2703.6
3004.355	2773.6
3007.636	2868.6
3010.915	2979.6
3014.191	2967.6
3017.464	2964.6
3020.734	2909.6
3024.002	3069.6
3027.267	3104.6
3030.53	3097.6
3033.789	3110.6
3037.046	3285.6
3040.301	3244.6
3043.552	3304.6
3046.801	3503.6
3050.048	3198.6
3053.291	3122.6
3056.532	3358.6
3059.771	3570.6
3063.006	3532.6
3066.239	3573.6
3069.469	3616.6
3072.697	3870.6
3075.922	3969.6
3079.144	3983.6
3082.364	3911.6
3085.581	4255.6
3088.795	3913.6
3092.007	4220.6
3095.216	4434.6
3098.423	4608.6
3101.627	4768.6
3104.828	4718.6
3108.026	4810.6
3111.222	4901.6
3114.416	4844.6
3117.607	5031.6
3120.795	5151.6
3123.98	5232.6
3127.163	5508.6
3130.344	5443.6
3133.521	5569.6
3136.696	5468.6
3139.869	5681.6
3143.039	5812.6
3146.206	5706.6
3149.371	5871.6
3152.533	6041.6
3155.693	6187.6
3158.85	6217.6
3162.005	6139.6
3165.157	6352.6
3168.306	6424.6
3171.453	6207.6
3174.597	6554.6
3177.739	6572.6
3180.878	6398.6
3184.014	6389.6
3187.149	6397.6
3190.28	6382.6
3193.409	6341.6
3196.536	6321.6
3199.659	6311.6
3202.781	6298.6
3205.9	6475.6
3209.016	6334.6
3212.13	6324.6
3215.241	6280.6
3218.35	6332.6
3221.456	6458.6
3224.56	6581.6
3227.661	6485.6
3230.76	6616.6
3233.856	6479.6
3236.95	6377.6
3240.041	6544.6
3243.13	6258.6
3246.216	6415.6
3249.3	6196.6
3252.382	6159.6
3255.46	6388.6
3258.537	6862.6
3261.611	6251.6
3264.682	6083.6
3267.751	6003.6
3270.818	6217.6
3273.882	5862.6
3276.943	5941.6
3280.002	5796.6
3283.059	5837.6
3286.113	5821.6
3289.165	5955.6
3292.214	5833.6
3295.261	5581.6
3298.306	5838.6
3301.348	5634.6
3304.387	5561.6
3307.425	5452.6
3310.459	5463.6
3313.492	5206.6
3316.521	5210.6
3319.549	5137.6
3322.574	5081.6
3325.597	5085.6
3328.617	5017.6
3331.635	4942.6
3334.65	5085.6
3337.663	4854.6
3340.674	4903.6
3343.682	4693.6
3346.688	4835.6
3349.691	4826.6
3352.692	4944.6
3355.691	4687.6
3358.687	4687.6
3361.681	4668.6
3364.673	4677.6
3367.662	4654.6
3370.649	4518.6
3373.633	4708.6
3376.615	4493.6
3379.595	4799.6
3382.572	4499.6
3385.547	4506.6
3388.52	4630.6
3391.49	4454.6
3394.458	4458.6
3397.424	4244.6
3400.387	4401.6
3403.348	3971.6
3406.307	4142.6
3409.263	4156.6
3412.217	3947.6
3415.168	3981.6
3418.118	3908.6
3421.065	3913.6
3424.009	3691.6
3426.951	3887.6
3429.891	3895.6
3432.829	3798.6
3435.764	3749.6
3438.697	3679.6
3441.628	3384.6
3444.557	3623.6
3447.483	3631.6
3450.407	3326.6
3453.328	3250.6
3456.247	3368.6
3459.164	3484.6
3462.079	3118.6
3464.991	3110.6
3467.902	3072.6
3470.809	3078.6
3473.715	2874.6
3476.618	2890.6
3479.519	2791.6
3482.418	2942.6
3485.315	2752.6
3488.209	2661.6
3491.101	2500.6
3493.99	2708.6
3496.878	2247.6
3499.763	2346.6
3502.646	2251.6
3505.527	2480.6
3508.405	2261.6
3511.281	2186.6
3514.155	2306.6
3517.027	2200.6
3519.897	2326.6
3522.764	2014.6
3525.629	2150.6
3528.492	1959.6
3531.352	1781.6
3534.211	1837.6
3537.067	1943.6
3539.921	1823.6
3542.773	1726.6
3545.622	1732.6
3548.469	1793.6
3551.315	1701.6
3554.157	1560.6
3556.998	1507.6
3559.837	1336.6
3562.673	1276.6
3565.507	1496.6
3568.339	1338.6
3571.169	1363.6
3573.996	1313.6
3576.822	1246.6
3579.645	1308.6
3582.466	1247.6
3585.285	1095.6
3588.101	1157.6
3590.916	1256.6
3593.728	1055.6
3596.538	1181.6
3599.346	1039.6
3602.152	1197.6
3604.956	1116.6
3607.757	943.6
3610.556	1166.6
3613.354	958.6
3616.149	946.6
3618.942	903.6
3621.732	670.6
3624.521	979.6
3627.307	900.6
3630.092	723.6
3632.874	695.6
3635.654	855.6
3638.432	970.6
3641.208	782.6
3643.982	823.6
3646.753	734.6
3649.523	873.6
3652.29	798.6
3655.055	724.6
3657.818	629.6
3660.579	598.6
3663.338	922.6
3666.095	662.6
3668.849	856.6
3671.602	619.6
3674.352	881.6
3677.101	616.6
3679.847	455.6
3682.591	748.6
3685.333	706.6
3688.073	585.6
3690.811	693.6
3693.547	664.6
3696.281	649.6
3699.013	507.6
3701.742	580.6
3704.47	773.6
3707.195	546.6
3709.919	551.6
3712.64	546.6
3715.359	513.6
3718.076	345.6
3720.792	645.6
3723.505	573.6
3726.216	420.6
3728.925	626.6
3731.632	369.6
3734.336	657.6
3737.039	534.6
3739.74	571.6
3742.439	779.6
3745.136	485.6
3747.83	452.6
3750.523	483.6
3753.213	121.6
3755.902	507.6
3758.589	674.6
3761.273	583.6
3763.956	378.6
3766.636	633.6
3769.315	227.6
3771.991	601.6
3774.665	559.6
3777.338	610.6
3780.008	571.6
3782.677	280.6
3785.343	677.6
3788.007	878.6
3790.67	453.6
3793.33	447.6
3795.989	523.6
3798.645	429.6
3801.299	705.6
3803.952	440.6
3806.602	403.6
3809.251	496.6
3811.897	516.6
3814.542	510.6
3817.184	356.6
3819.825	574.6
3822.463	214.6
3825.1	507.6
3827.735	542.6
3830.367	471.6
3832.998	283.6
3835.627	402.6
3838.253	360.6
3840.878	308.6
3843.501	278.6
3846.122	354.6
3848.741	290.6
3851.358	411.6
3853.973	692.6
3856.586	373.6
3859.197	388.6
3861.806	422.6
3864.414	559.6
3867.019	476.6
3869.622	359.6
3872.224	363.6
3874.823	652.6
3877.421	511.6
3880.016	522.6
3882.61	604.6
3885.202	587.6
3887.792	621.6
3890.38	331.6
3892.966	537.6
3895.55	516.6
3898.132	457.6
3900.713	381.6
3903.291	477.6
3905.868	575.6
3908.442	387.6
3911.015	390.6
3913.586	453.6
3916.155	382.6
3918.722	536.6
3921.287	459.6
3923.85	258.6
3926.411	380.6
3928.971	347.6
3931.528	399.6
3934.084	429.6
3936.638	479.6
3939.19	393.6
3941.74	456.6
3944.288	342.6
3946.834	504.6
3949.378	325.6
3951.921	556.6
3954.462	351.6
3957	389.6
3959.537	461.6
3962.072	535.6
3964.606	610.6
3967.137	343.6
3969.667	448.6
3972.194	415.6
3974.72	432.6
3977.244	551.6
3979.766	384.6
3982.286	567.6
3984.805	378.6
3987.321	299.6
3989.836	417.6
3992.349	512.6
3994.86	406.6
3997.369	389.6
3999.877	384.6
4002.382	432.6
4004.886	440.6
4007.388	415.6
4009.888	520.6
4012.386	397.6
4014.883	392.6
4017.377	444.6
4019.87	335.6
4022.361	525.6
4024.85	509.6
4027.338	425.6
4029.823	370.6
4032.307	459.6
4034.789	548.6
4037.269	525.6
4039.747	544.6
4042.224	392.6
4044.699	463.6
4047.172	427.6
4049.643	309.6
4052.112	532.6
4054.58	458.6
4057.046	420.6
4059.51	515.6
4061.972	388.6
4064.432	576.6
4066.891	328.6
4069.348	495.6
4071.803	388.6
4074.256	408.6
4076.708	400.6
4079.158	524.6
4081.606	294.6
4084.052	458.6
4086.497	296.6
4088.939	501.6
4091.38	509.6
4093.819	357.6
4096.257	-1460.4
4098.693	-1568.4
4101.127	-1573.4
4103.559	-1598.4
4105.989	596.6
4108.418	650.6
4110.845	878.6
4113.27	652.6
4115.694	789.6
4118.115	833.6
4120.535	369.6
4122.954	282.6
4125.37	208.6
4127.785	394.6
4130.198	336.6
4132.609	353.6
4135.019	-1653.4
4137.427	-1600.4
4139.833	-1542.4
4142.237	-1251.4
