Data from 2018-2-8_conc=4_RamanShift_20.txt Node
Date: Wed Feb 07 10:49:10 IST 2018
User: aro
Spectrometer: QEPB0276
Trigger mode: 0
Integration Time (sec): 3.000000E1
Scans to average: 1
Electric dark correction enabled: true
Nonlinearity correction enabled: false
Boxcar width: 0
XAxis mode: Raman Shifts
Number of Pixels in Spectrum: 1044
>>>>>Begin Spectral Data<<<<<
160.701	556.9
166.742	606.9
172.777	1093.9
178.805	2609.9
184.826	5908.9
190.841	11716.9
196.849	18533.9
202.85	23747.9
208.845	25606.9
214.833	25413.9
220.815	24938.9
226.789	23628.9
232.758	24697.9
238.719	24498.9
244.674	24281.9
250.623	23815.9
256.565	23342.9
262.5	22808.9
268.429	22284.9
274.351	22028.9
280.267	21779.9
286.176	21148.9
292.079	20943.9
297.975	20711.9
303.865	20373.9
309.748	20265.9
315.625	20141.9
321.495	19637.9
327.359	19591.9
333.217	19767.9
339.068	19679.9
344.912	19693.9
350.751	19572.9
356.583	19516.9
362.408	19511.9
368.227	19509.9
374.04	19673.9
379.847	19619.9
385.647	19858.9
391.44	19963.9
397.228	20017.9
403.009	20233.9
408.784	20245.9
414.553	20307.9
420.315	20445.9
426.071	20572.9
431.821	20473.9
437.565	20490.9
443.302	20218.9
449.033	20238.9
454.758	20161.9
460.477	20009.9
466.189	19934.9
471.896	19769.9
477.596	19683.9
483.29	19843.9
488.978	19799.9
494.66	19778.9
500.335	19678.9
506.005	19562.9
511.668	19382.9
517.325	19296.9
522.977	19084.9
528.622	19032.9
534.261	18863.9
539.894	18736.9
545.521	18723.9
551.141	18592.9
556.756	18385.9
562.365	18300.9
567.968	18177.9
573.565	18022.9
579.155	17812.9
584.74	17835.9
590.319	17658.9
595.892	17660.9
601.459	17603.9
607.02	17598.9
612.575	17619.9
618.124	17542.9
623.667	17629.9
629.204	17472.9
634.735	17591.9
640.261	17448.9
645.781	17615.9
651.294	17381.9
656.802	17021.9
662.304	17004.9
667.8	16784.9
673.29	16809.9
678.775	16761.9
684.254	16687.9
689.726	16828.9
695.193	16571.9
700.655	16618.9
706.11	16745.9
711.56	16594.9
717.004	16649.9
722.442	16833.9
727.874	16558.9
733.301	16621.9
738.722	16739.9
744.137	16457.9
749.547	16423.9
754.951	16358.9
760.349	16182.9
765.741	15983.9
771.128	16027.9
776.509	16049.9
781.885	15966.9
787.254	16054.9
792.618	16032.9
797.977	16149.9
803.33	16231.9
808.677	16177.9
814.019	16117.9
819.355	16124.9
824.686	16182.9
830.011	16116.9
835.33	15952.9
840.644	15734.9
845.952	15791.9
851.255	15478.9
856.552	15502.9
861.844	15364.9
867.13	15303.9
872.41	15264.9
877.686	15152.9
882.955	15269.9
888.219	15271.9
893.478	15392.9
898.731	15238.9
903.979	15180.9
909.221	15239.9
914.458	15136.9
919.69	14993.9
924.916	14931.9
930.136	14756.9
935.351	14518.9
940.561	14331.9
945.766	14286.9
950.965	14127.9
956.158	14244.9
961.347	14289.9
966.529	14196.9
971.707	14208.9
976.879	14191.9
982.046	14172.9
987.208	14314.9
992.364	14114.9
997.515	14145.9
1002.66	13912.9
1007.801	14080.9
1012.936	14028.9
1018.066	14098.9
1023.19	13857.9
1028.309	13765.9
1033.423	13923.9
1038.532	13934.9
1043.636	14228.9
1048.734	14037.9
1053.827	14171.9
1058.915	14184.9
1063.998	14005.9
1069.075	13893.9
1074.147	13693.9
1079.214	13731.9
1084.276	13380.9
1089.333	13405.9
1094.385	13243.9
1099.431	13328.9
1104.472	13289.9
1109.509	13415.9
1114.54	13513.9
1119.565	13682.9
1124.586	13474.9
1129.602	13537.9
1134.613	13471.9
1139.618	13319.9
1144.619	13211.9
1149.614	13021.9
1154.604	12941.9
1159.589	12883.9
1164.57	12591.9
1169.545	12682.9
1174.515	12729.9
1179.48	12762.9
1184.44	12815.9
1189.395	12956.9
1194.345	13100.9
1199.29	13010.9
1204.23	13095.9
1209.165	13064.9
1214.095	12902.9
1219.021	12762.9
1223.941	12785.9
1228.856	12754.9
1233.766	12714.9
1238.672	12655.9
1243.572	12627.9
1248.467	12702.9
1253.358	12816.9
1258.244	12826.9
1263.124	12759.9
1268	12541.9
1272.871	12621.9
1277.737	12571.9
1282.599	12314.9
1287.455	12191.9
1292.306	12011.9
1297.153	12075.9
1301.995	11741.9
1306.832	11796.9
1311.664	11819.9
1316.491	11849.9
1321.314	11904.9
1326.132	11834.9
1330.945	11736.9
1335.753	11575.9
1340.556	11555.9
1345.354	11385.9
1350.148	11077.9
1354.937	10974.9
1359.722	10998.9
1364.501	10750.9
1369.276	10505.9
1374.046	10586.9
1378.811	10763.9
1383.572	10819.9
1388.327	10538.9
1393.079	11029.9
1397.825	11088.9
1402.567	11103.9
1407.304	11015.9
1412.036	11052.9
1416.764	10827.9
1421.487	11112.9
1426.205	10766.9
1430.919	10678.9
1435.628	10560.9
1440.333	10407.9
1445.032	10306.9
1449.727	10307.9
1454.418	10384.9
1459.104	10297.9
1463.785	10186.9
1468.462	10174.9
1473.134	10094.9
1477.802	9970.9
1482.465	10058.9
1487.123	9637.9
1491.777	9739.9
1496.426	9726.9
1501.071	9537.9
1505.711	9528.9
1510.347	9563.9
1514.978	9674.9
1519.604	9747.9
1524.226	9854.9
1528.844	10174.9
1533.457	10010.9
1538.065	10194.9
1542.669	10185.9
1547.269	10337.9
1551.864	10313.9
1556.454	10415.9
1561.041	10338.9
1565.622	10301.9
1570.199	10073.9
1574.772	10061.9
1579.34	9778.9
1583.904	9934.9
1588.464	9964.9
1593.019	9963.9
1597.569	10081.9
1602.115	10123.9
1606.657	10273.9
1611.195	10216.9
1615.728	10264.9
1620.256	10420.9
1624.78	10407.9
1629.3	10393.9
1633.816	10257.9
1638.327	10209.9
1642.834	10162.9
1647.336	10123.9
1651.834	10038.9
1656.328	10013.9
1660.817	9962.9
1665.302	10023.9
1669.783	10038.9
1674.259	9805.9
1678.732	9523.9
1683.199	9284.9
1687.663	9128.9
1692.122	8779.9
1696.577	8495.9
1701.028	8613.9
1705.474	8440.9
1709.917	8348.9
1714.355	8472.9
1718.788	8311.9
1723.218	8147.9
1727.643	7966.9
1732.064	7827.9
1736.481	7831.9
1740.893	7664.9
1745.301	7575.9
1749.705	7630.9
1754.105	7206.9
1758.501	7205.9
1762.893	6937.9
1767.28	6866.9
1771.663	6607.9
1776.042	6500.9
1780.417	6428.9
1784.787	6264.9
1789.154	6294.9
1793.516	6331.9
1797.874	6409.9
1802.228	6526.9
1806.578	6645.9
1810.924	6577.9
1815.266	7654.9
1819.603	6648.9
1823.937	6611.9
1828.266	6551.9
1832.591	6534.9
1836.913	6386.9
1841.23	6467.9
1845.543	6454.9
1849.852	6249.9
1854.156	6220.9
1858.457	6218.9
1862.754	5930.9
1867.047	6087.9
1871.335	5980.9
1875.62	5931.9
1879.9	5959.9
1884.177	6067.9
1888.449	5903.9
1892.718	5929.9
1896.982	5863.9
1901.243	5965.9
1905.499	5982.9
1909.752	5916.9
1914	5999.9
1918.245	5853.9
1922.485	5809.9
1926.722	5885.9
1930.954	5937.9
1935.183	5926.9
1939.408	5930.9
1943.628	5912.9
1947.845	5906.9
1952.058	6016.9
1956.267	6037.9
1960.472	5904.9
1964.673	5971.9
1968.87	6022.9
1973.063	5958.9
1977.252	5820.9
1981.438	5834.9
1985.619	5647.9
1989.797	5653.9
1993.971	5604.9
1998.14	5440.9
2002.306	5436.9
2006.469	5370.9
2010.627	5447.9
2014.781	5383.9
2018.932	5475.9
2023.078	5220.9
2027.221	5242.9
2031.36	5311.9
2035.495	5305.9
2039.627	5186.9
2043.754	5205.9
2047.878	5135.9
2051.998	5097.9
2056.114	5132.9
2060.226	5078.9
2064.334	5030.9
2068.439	4918.9
2072.54	5001.9
2076.637	5097.9
2080.73	5061.9
2084.82	4964.9
2088.906	5052.9
2092.988	4933.9
2097.066	5206.9
2101.14	4999.9
2105.211	5168.9
2109.278	5086.9
2113.342	5107.9
2117.401	5237.9
2121.457	5123.9
2125.509	5103.9
2129.558	4959.9
2133.602	5026.9
2137.643	4899.9
2141.681	4851.9
2145.714	4831.9
2149.744	4753.9
2153.77	4746.9
2157.793	4735.9
2161.812	4828.9
2165.827	4745.9
2169.838	4488.9
2173.846	4612.9
2177.851	4590.9
2181.851	4486.9
2185.848	4660.9
2189.841	4390.9
2193.831	4507.9
2197.817	4279.9
2201.799	4291.9
2205.778	4354.9
2209.753	4327.9
2213.725	4251.9
2217.693	4231.9
2221.657	4259.9
2225.618	4116.9
2229.575	4203.9
2233.529	4128.9
2237.479	4113.9
2241.425	4084.9
2245.368	4254.9
2249.307	4142.9
2253.243	4049.9
2257.175	4205.9
2261.104	3969.9
2265.029	3881.9
2268.95	3914.9
2272.868	3841.9
2276.783	3858.9
2280.694	3632.9
2284.601	3644.9
2288.505	3669.9
2292.405	3514.9
2296.302	3636.9
2300.195	3510.9
2304.085	3602.9
2307.971	3488.9
2311.854	3511.9
2315.734	3421.9
2319.609	3420.9
2323.482	3591.9
2327.351	3387.9
2331.216	3433.9
2335.078	3414.9
2338.937	3391.9
2342.792	3358.9
2346.643	3317.9
2350.492	3355.9
2354.336	3294.9
2358.178	3332.9
2362.015	3234.9
2365.85	3431.9
2369.681	3338.9
2373.508	3275.9
2377.333	3163.9
2381.153	3340.9
2384.971	3357.9
2388.785	3287.9
2392.595	3329.9
2396.402	3410.9
2400.206	3422.9
2404.007	3344.9
2407.804	3296.9
2411.597	3166.9
2415.388	3309.9
2419.174	3192.9
2422.958	3148.9
2426.738	3115.9
2430.515	3016.9
2434.289	3220.9
2438.059	3147.9
2441.825	3123.9
2445.589	2898.9
2449.349	3115.9
2453.106	2989.9
2456.859	3005.9
2460.61	2901.9
2464.356	2989.9
2468.1	2963.9
2471.84	2981.9
2475.577	2945.9
2479.311	2828.9
2483.041	2870.9
2486.768	2745.9
2490.492	2560.9
2494.213	2782.9
2497.93	2929.9
2501.644	2844.9
2505.355	2860.9
2509.062	2709.9
2512.766	2804.9
2516.467	2705.9
2520.165	2778.9
2523.859	2831.9
2527.551	2571.9
2531.239	2760.9
2534.923	2697.9
2538.605	2832.9
2542.283	2696.9
2545.958	2718.9
2549.63	2672.9
2553.299	2587.9
2556.964	2626.9
2560.626	2707.9
2564.285	2619.9
2567.941	2728.9
2571.594	2634.9
2575.243	2545.9
2578.89	2683.9
2582.533	2651.9
2586.173	2592.9
2589.809	2590.9
2593.443	2764.9
2597.073	2621.9
2600.701	2449.9
2604.325	2527.9
2607.946	2561.9
2611.564	2486.9
2615.178	2435.9
2618.79	2424.9
2622.398	2588.9
2626.004	2476.9
2629.606	2403.9
2633.205	2569.9
2636.801	2425.9
2640.394	2390.9
2643.983	2301.9
2647.57	2432.9
2651.153	2335.9
2654.734	2241.9
2658.311	2479.9
2661.885	2312.9
2665.456	2245.9
2669.025	2249.9
2672.589	2209.9
2676.151	2100.9
2679.71	2067.9
2683.266	2128.9
2686.819	2100.9
2690.368	2054.9
2693.915	2116.9
2697.458	2131.9
2700.999	1955.9
2704.536	1981.9
2708.071	2021.9
2711.602	1946.9
2715.13	2015.9
2718.656	2002.9
2722.178	1856.9
2725.697	1932.9
2729.214	1653.9
2732.727	1793.9
2736.237	1810.9
2739.744	1829.9
2743.249	1898.9
2746.75	1884.9
2750.248	1991.9
2753.743	1886.9
2757.236	1896.9
2760.725	1905.9
2764.211	2088.9
2767.695	1909.9
2771.175	1966.9
2774.652	1917.9
2778.127	1921.9
2781.598	1880.9
2785.067	1869.9
2788.532	1885.9
2791.995	1864.9
2795.455	1874.9
2798.911	1838.9
2802.365	1981.9
2805.816	1818.9
2809.264	1801.9
2812.709	1947.9
2816.151	1860.9
2819.59	1988.9
2823.026	1975.9
2826.46	2009.9
2829.89	1940.9
2833.318	2127.9
2836.742	1957.9
2840.164	2005.9
2843.583	2036.9
2846.999	2054.9
2850.412	1988.9
2853.822	2109.9
2857.229	1930.9
2860.634	2035.9
2864.035	2079.9
2867.434	2023.9
2870.83	2077.9
2874.223	2159.9
2877.613	2038.9
2881	2265.9
2884.385	2319.9
2887.766	2271.9
2891.145	2185.9
2894.521	2344.9
2897.894	2376.9
2901.264	2067.9
2904.631	2396.9
2907.996	2288.9
2911.358	2290.9
2914.717	2336.9
2918.073	2313.9
2921.426	2394.9
2924.777	2414.9
2928.124	2432.9
2931.469	2281.9
2934.811	2594.9
2938.15	2435.9
2941.487	2509.9
2944.821	2219.9
2948.152	2540.9
2951.48	2566.9
2954.805	2535.9
2958.128	2412.9
2961.447	2539.9
2964.765	2391.9
2968.079	2546.9
2971.39	2480.9
2974.699	2532.9
2978.005	2510.9
2981.308	2523.9
2984.609	2733.9
2987.907	2620.9
2991.202	2725.9
2994.494	2733.9
2997.784	2360.9
3001.07	2681.9
3004.355	2760.9
3007.636	2820.9
3010.915	2900.9
3014.191	2857.9
3017.464	2979.9
3020.734	2879.9
3024.002	2985.9
3027.267	3092.9
3030.53	3094.9
3033.789	3182.9
3037.046	3245.9
3040.301	3257.9
3043.552	3336.9
3046.801	3466.9
3050.048	3269.9
3053.291	3254.9
3056.532	3397.9
3059.771	3624.9
3063.006	3555.9
3066.239	3590.9
3069.469	3736.9
3072.697	3979.9
3075.922	4034.9
3079.144	4085.9
3082.364	4253.9
3085.581	4373.9
3088.795	4203.9
3092.007	4368.9
3095.216	4641.9
3098.423	4837.9
3101.627	4949.9
3104.828	5036.9
3108.026	5062.9
3111.222	5120.9
3114.416	5186.9
3117.607	5350.9
3120.795	5488.9
3123.98	5520.9
3127.163	5691.9
3130.344	5791.9
3133.521	5881.9
3136.696	5916.9
3139.869	6051.9
3143.039	6163.9
3146.206	6204.9
3149.371	6333.9
3152.533	6500.9
3155.693	6649.9
3158.85	6721.9
3162.005	6702.9
3165.157	6858.9
3168.306	6848.9
3171.453	6789.9
3174.597	7016.9
3177.739	7065.9
3180.878	6904.9
3184.014	6883.9
3187.149	6984.9
3190.28	6945.9
3193.409	6850.9
3196.536	6839.9
3199.659	6868.9
3202.781	6815.9
3205.9	7027.9
3209.016	6862.9
3212.13	6841.9
3215.241	6843.9
3218.35	6887.9
3221.456	6995.9
3224.56	7089.9
3227.661	7003.9
3230.76	7162.9
3233.856	7068.9
3236.95	6924.9
3240.041	7019.9
3243.13	6746.9
3246.216	6878.9
3249.3	6719.9
3252.382	6702.9
3255.46	6862.9
3258.537	7107.9
3261.611	6706.9
3264.682	6580.9
3267.751	6507.9
3270.818	6647.9
3273.882	6360.9
3276.943	6335.9
3280.002	6250.9
3283.059	6238.9
3286.113	6302.9
3289.165	6379.9
3292.214	6193.9
3295.261	6092.9
3298.306	6201.9
3301.348	6018.9
3304.387	5999.9
3307.425	5876.9
3310.459	5917.9
3313.492	5738.9
3316.521	5639.9
3319.549	5569.9
3322.574	5462.9
3325.597	5374.9
3328.617	5394.9
3331.635	5265.9
3334.65	5358.9
3337.663	5231.9
3340.674	5324.9
3343.682	5172.9
3346.688	5156.9
3349.691	5120.9
3352.692	5208.9
3355.691	5021.9
3358.687	5069.9
3361.681	5004.9
3364.673	5071.9
3367.662	5029.9
3370.649	4841.9
3373.633	4992.9
3376.615	4944.9
3379.595	5054.9
3382.572	4969.9
3385.547	4854.9
3388.52	4887.9
3391.49	4755.9
3394.458	4691.9
3397.424	4520.9
3400.387	4646.9
3403.348	4283.9
3406.307	4360.9
3409.263	4403.9
3412.217	4189.9
3415.168	4268.9
3418.118	4156.9
3421.065	4091.9
3424.009	3951.9
3426.951	4064.9
3429.891	4015.9
3432.829	3959.9
3435.764	3876.9
3438.697	3864.9
3441.628	3608.9
3444.557	3769.9
3447.483	3746.9
3450.407	3530.9
3453.328	3361.9
3456.247	3506.9
3459.164	3442.9
3462.079	3253.9
3464.991	3213.9
3467.902	3133.9
3470.809	3028.9
3473.715	2964.9
3476.618	2843.9
3479.519	2847.9
3482.418	2877.9
3485.315	2701.9
3488.209	2643.9
3491.101	2580.9
3493.99	2632.9
3496.878	2254.9
3499.763	2279.9
3502.646	2195.9
3505.527	2351.9
3508.405	2242.9
3511.281	2105.9
3514.155	2139.9
3517.027	2078.9
3519.897	2197.9
3522.764	1958.9
3525.629	2018.9
3528.492	1870.9
3531.352	1722.9
3534.211	1694.9
3537.067	1817.9
3539.921	1663.9
3542.773	1577.9
3545.622	1530.9
3548.469	1584.9
3551.315	1452.9
3554.157	1406.9
3556.998	1340.9
3559.837	1183.9
3562.673	1139.9
3565.507	1265.9
3568.339	1106.9
3571.169	1150.9
3573.996	1083.9
3576.822	1095.9
3579.645	1054.9
3582.466	1016.9
3585.285	928.9
3588.101	867.9
3590.916	959.9
3593.728	839.9
3596.538	922.9
3599.346	794.9
3602.152	878.9
3604.956	829.9
3607.757	688.9
3610.556	864.9
3613.354	707.9
3616.149	680.9
3618.942	679.9
3621.732	465.9
3624.521	732.9
3627.307	591.9
3630.092	554.9
3632.874	442.9
3635.654	561.9
3638.432	613.9
3641.208	539.9
3643.982	534.9
3646.753	468.9
3649.523	509.9
3652.29	500.9
3655.055	508.9
3657.818	366.9
3660.579	326.9
3663.338	526.9
3666.095	319.9
3668.849	551.9
3671.602	328.9
3674.352	491.9
3677.101	370.9
3679.847	224.9
3682.591	416.9
3685.333	391.9
3688.073	300.9
3690.811	369.9
3693.547	199.9
3696.281	268.9
3699.013	252.9
3701.742	229.9
3704.47	358.9
3707.195	217.9
3709.919	214.9
3712.64	251.9
3715.359	71.9
3718.076	36.9
3720.792	168.9
3723.505	184.9
3726.216	214.9
3728.925	282.9
3731.632	74.9
3734.336	310.9
3737.039	154.9
3739.74	233.9
3742.439	466.9
3745.136	144.9
3747.83	116.9
3750.523	127.9
3753.213	-86.1
3755.902	145.9
3758.589	280.9
3761.273	234.9
3763.956	39.9
3766.636	261.9
3769.315	-11.1
3771.991	217.9
3774.665	111.9
3777.338	318.9
3780.008	216.9
3782.677	192.9
3785.343	258.9
3788.007	488.9
3790.67	76.9
3793.33	102.9
3795.989	131.9
3798.645	93.9
3801.299	271.9
3803.952	119.9
3806.602	35.9
3809.251	144.9
3811.897	117.9
3814.542	139.9
3817.184	135.9
3819.825	205.9
3822.463	-0.1
3825.1	97.9
3827.735	230.9
3830.367	131.9
3832.998	6.9
3835.627	63.9
3838.253	110.9
3840.878	-48.1
3843.501	0.9
3846.122	32.9
3848.741	-35.1
3851.358	66.9
3853.973	252.9
3856.586	87.9
3859.197	59.9
3861.806	119.9
3864.414	192.9
3867.019	56.9
3869.622	44.9
3872.224	-12.1
3874.823	162.9
3877.421	135.9
3880.016	170.9
3882.61	256.9
3885.202	252.9
3887.792	195.9
3890.38	36.9
3892.966	215.9
3895.55	129.9
3898.132	140.9
3900.713	31.9
3903.291	128.9
3905.868	184.9
3908.442	91.9
3911.015	28.9
3913.586	79.9
3916.155	50.9
3918.722	199.9
3921.287	110.9
3923.85	-159.1
3926.411	-6.1
3928.971	16.9
3931.528	35.9
3934.084	43.9
3936.638	99.9
3939.19	38.9
3941.74	82.9
3944.288	5.9
3946.834	17.9
3949.378	23.9
3951.921	165.9
3954.462	10.9
3957	57.9
3959.537	118.9
3962.072	163.9
3964.606	221.9
3967.137	10.9
3969.667	67.9
3972.194	127.9
3974.72	94.9
3977.244	177.9
3979.766	6.9
3982.286	192.9
3984.805	-11.1
3987.321	-8.1
3989.836	20.9
3992.349	170.9
3994.86	64.9
3997.369	77.9
3999.877	-40.1
4002.382	75.9
4004.886	100.9
4007.388	88.9
4009.888	238.9
4012.386	53.9
4014.883	88.9
4017.377	67.9
4019.87	11.9
4022.361	146.9
4024.85	183.9
4027.338	44.9
4029.823	-6.1
4032.307	146.9
4034.789	168.9
4037.269	105.9
4039.747	106.9
4042.224	56.9
4044.699	164.9
4047.172	44.9
4049.643	0.9
4052.112	74.9
4054.58	103.9
4057.046	101.9
4059.51	123.9
4061.972	22.9
4064.432	148.9
4066.891	15.9
4069.348	161.9
4071.803	49.9
4074.256	77.9
4076.708	127.9
4079.158	150.9
4081.606	-5.1
4084.052	105.9
4086.497	37.9
4088.939	148.9
4091.38	109.9
4093.819	55.9
4096.257	-1203.1
4098.693	-1231.1
4101.127	-1268.1
4103.559	-1293.1
4105.989	213.9
4108.418	282.9
4110.845	485.9
4113.27	376.9
4115.694	428.9
4118.115	448.9
4120.535	38.9
4122.954	-8.1
4125.37	-55.1
4127.785	95.9
4130.198	66.9
4132.609	-6.1
4135.019	-1318.1
4137.427	-1288.1
4139.833	-1211.1
4142.237	-1050.1
