Data from 2018-2-8_conc=2_RamanShift_13.txt Node
Date: Wed Feb 07 09:59:10 IST 2018
User: aro
Spectrometer: QEPB0276
Trigger mode: 0
Integration Time (sec): 3.000000E1
Scans to average: 1
Electric dark correction enabled: true
Nonlinearity correction enabled: false
Boxcar width: 0
XAxis mode: Raman Shifts
Number of Pixels in Spectrum: 1044
>>>>>Begin Spectral Data<<<<<
160.701	412.8
166.742	556.8
172.777	1038.8
178.805	2661.8
184.826	6297.8
190.841	12591.8
196.849	20140.8
202.85	25824.8
208.845	27933.8
214.833	27642.8
220.815	27252.8
226.789	25836.8
232.758	26982.8
238.719	26893.8
244.674	26676.8
250.623	26191.8
256.565	25763.8
262.5	25229.8
268.429	24721.8
274.351	24343.8
280.267	24217.8
286.176	23600.8
292.079	23452.8
297.975	23050.8
303.865	22971.8
309.748	22672.8
315.625	22566.8
321.495	22162.8
327.359	22070.8
333.217	22091.8
339.068	22064.8
344.912	22200.8
350.751	22064.8
356.583	22077.8
362.408	22077.8
368.227	22012.8
374.04	22125.8
379.847	22208.8
385.647	22358.8
391.44	22484.8
397.228	22524.8
403.009	22745.8
408.784	22879.8
414.553	22934.8
420.315	23047.8
426.071	23137.8
431.821	23087.8
437.565	23016.8
443.302	22816.8
449.033	22830.8
454.758	22758.8
460.477	22566.8
466.189	22426.8
471.896	22469.8
477.596	22289.8
483.29	22335.8
488.978	22307.8
494.66	22206.8
500.335	22211.8
506.005	22183.8
511.668	21822.8
517.325	21755.8
522.977	21550.8
528.622	21578.8
534.261	21399.8
539.894	21227.8
545.521	21187.8
551.141	21102.8
556.756	20871.8
562.365	20807.8
567.968	20625.8
573.565	20515.8
579.155	20290.8
584.74	20230.8
590.319	20075.8
595.892	20151.8
601.459	20121.8
607.02	20074.8
612.575	20146.8
618.124	19979.8
623.667	20082.8
629.204	19941.8
634.735	19984.8
640.261	19944.8
645.781	20039.8
651.294	19750.8
656.802	19556.8
662.304	19476.8
667.8	19217.8
673.29	19228.8
678.775	19120.8
684.254	19075.8
689.726	19113.8
695.193	18981.8
700.655	18935.8
706.11	19078.8
711.56	19039.8
717.004	19064.8
722.442	18926.8
727.874	18978.8
733.301	18972.8
738.722	19068.8
744.137	18826.8
749.547	18699.8
754.951	18674.8
760.349	18566.8
765.741	18365.8
771.128	18358.8
776.509	18292.8
781.885	18334.8
787.254	18348.8
792.618	18442.8
797.977	18410.8
803.33	18534.8
808.677	18525.8
814.019	18602.8
819.355	18494.8
824.686	18566.8
830.011	18553.8
835.33	18238.8
840.644	18052.8
845.952	18033.8
851.255	17777.8
856.552	17741.8
861.844	17558.8
867.13	17573.8
872.41	17542.8
877.686	17416.8
882.955	17577.8
888.219	17542.8
893.478	17703.8
898.731	17547.8
903.979	17450.8
909.221	17529.8
914.458	17440.8
919.69	17232.8
924.916	17122.8
930.136	16880.8
935.351	16851.8
940.561	16521.8
945.766	16423.8
950.965	16279.8
956.158	16454.8
961.347	16453.8
966.529	16383.8
971.707	16385.8
976.879	16413.8
982.046	16438.8
987.208	16495.8
992.364	16365.8
997.515	16315.8
1002.66	16138.8
1007.801	16170.8
1012.936	16065.8
1018.066	16123.8
1023.19	15972.8
1028.309	15891.8
1033.423	16074.8
1038.532	16138.8
1043.636	16334.8
1048.734	16253.8
1053.827	16349.8
1058.915	16342.8
1063.998	16171.8
1069.075	16040.8
1074.147	15854.8
1079.214	15793.8
1084.276	15598.8
1089.333	15437.8
1094.385	15331.8
1099.431	15506.8
1104.472	15416.8
1109.509	15504.8
1114.54	15614.8
1119.565	15683.8
1124.586	15640.8
1129.602	15587.8
1134.613	15627.8
1139.618	15449.8
1144.619	15216.8
1149.614	15033.8
1154.604	14846.8
1159.589	14858.8
1164.57	14557.8
1169.545	14630.8
1174.515	14633.8
1179.48	14835.8
1184.44	14854.8
1189.395	14970.8
1194.345	15179.8
1199.29	15122.8
1204.23	15153.8
1209.165	15005.8
1214.095	14989.8
1219.021	14826.8
1223.941	14759.8
1228.856	14814.8
1233.766	14710.8
1238.672	14579.8
1243.572	14629.8
1248.467	14607.8
1253.358	14764.8
1258.244	14810.8
1263.124	14724.8
1268	14512.8
1272.871	14535.8
1277.737	14451.8
1282.599	14219.8
1287.455	14092.8
1292.306	13898.8
1297.153	13912.8
1301.995	13743.8
1306.832	13715.8
1311.664	13651.8
1316.491	13690.8
1321.314	13672.8
1326.132	13535.8
1330.945	13567.8
1335.753	13370.8
1340.556	13264.8
1345.354	13130.8
1350.148	12853.8
1354.937	12645.8
1359.722	12688.8
1364.501	12425.8
1369.276	12462.8
1374.046	12388.8
1378.811	12595.8
1383.572	12612.8
1388.327	12432.8
1393.079	12828.8
1397.825	12944.8
1402.567	12839.8
1407.304	12784.8
1412.036	12801.8
1416.764	12713.8
1421.487	12837.8
1426.205	12576.8
1430.919	12316.8
1435.628	12221.8
1440.333	12138.8
1445.032	11954.8
1449.727	11970.8
1454.418	11950.8
1459.104	11929.8
1463.785	11736.8
1468.462	11715.8
1473.134	11709.8
1477.802	11555.8
1482.465	11662.8
1487.123	11348.8
1491.777	11418.8
1496.426	11228.8
1501.071	11159.8
1505.711	11245.8
1510.347	11215.8
1514.978	11356.8
1519.604	11497.8
1524.226	11593.8
1528.844	11854.8
1533.457	11871.8
1538.065	11958.8
1542.669	11930.8
1547.269	12102.8
1551.864	12006.8
1556.454	12116.8
1561.041	12009.8
1565.622	11975.8
1570.199	11701.8
1574.772	11697.8
1579.34	11432.8
1583.904	11543.8
1588.464	11522.8
1593.019	11524.8
1597.569	11725.8
1602.115	11721.8
1606.657	11818.8
1611.195	11721.8
1615.728	11788.8
1620.256	11913.8
1624.78	11943.8
1629.3	11896.8
1633.816	11696.8
1638.327	11646.8
1642.834	11565.8
1647.336	11534.8
1651.834	11389.8
1656.328	11533.8
1660.817	11356.8
1665.302	11372.8
1669.783	11445.8
1674.259	11216.8
1678.732	10922.8
1683.199	10741.8
1687.663	10616.8
1692.122	10172.8
1696.577	10004.8
1701.028	10073.8
1705.474	9890.8
1709.917	9925.8
1714.355	10008.8
1718.788	9762.8
1723.218	9619.8
1727.643	9307.8
1732.064	9221.8
1736.481	9188.8
1740.893	8938.8
1745.301	8868.8
1749.705	8905.8
1754.105	8464.8
1758.501	8374.8
1762.893	8116.8
1767.28	8046.8
1771.663	7783.8
1776.042	7626.8
1780.417	7501.8
1784.787	7333.8
1789.154	7372.8
1793.516	7380.8
1797.874	7588.8
1802.228	7729.8
1806.578	7898.8
1810.924	7878.8
1815.266	8277.8
1819.603	7867.8
1823.937	7806.8
1828.266	7770.8
1832.591	7721.8
1836.913	7555.8
1841.23	7572.8
1845.543	7517.8
1849.852	7346.8
1854.156	7351.8
1858.457	7250.8
1862.754	7239.8
1867.047	7143.8
1871.335	7048.8
1875.62	6943.8
1879.9	6969.8
1884.177	7131.8
1888.449	6966.8
1892.718	7024.8
1896.982	6905.8
1901.243	7072.8
1905.499	6963.8
1909.752	6979.8
1914	7023.8
1918.245	6911.8
1922.485	6939.8
1926.722	7035.8
1930.954	7020.8
1935.183	7046.8
1939.408	7022.8
1943.628	7088.8
1947.845	7088.8
1952.058	7166.8
1956.267	7049.8
1960.472	6989.8
1964.673	7120.8
1968.87	7112.8
1973.063	7085.8
1977.252	6948.8
1981.438	6843.8
1985.619	6731.8
1989.797	6656.8
1993.971	6533.8
1998.14	6373.8
2002.306	6468.8
2006.469	6329.8
2010.627	6270.8
2014.781	6304.8
2018.932	6295.8
2023.078	6152.8
2027.221	6174.8
2031.36	6122.8
2035.495	6191.8
2039.627	6106.8
2043.754	6053.8
2047.878	5995.8
2051.998	5969.8
2056.114	5926.8
2060.226	5940.8
2064.334	5877.8
2068.439	5712.8
2072.54	5771.8
2076.637	5991.8
2080.73	5850.8
2084.82	5851.8
2088.906	5875.8
2092.988	5827.8
2097.066	6087.8
2101.14	5889.8
2105.211	6019.8
2109.278	5996.8
2113.342	6005.8
2117.401	6048.8
2121.457	5995.8
2125.509	5955.8
2129.558	5730.8
2133.602	5784.8
2137.643	5717.8
2141.681	5667.8
2145.714	5640.8
2149.744	5434.8
2153.77	5613.8
2157.793	5485.8
2161.812	5537.8
2165.827	5503.8
2169.838	5287.8
2173.846	5312.8
2177.851	5198.8
2181.851	5224.8
2185.848	5218.8
2189.841	5124.8
2193.831	5157.8
2197.817	4910.8
2201.799	4918.8
2205.778	4956.8
2209.753	4934.8
2213.725	4915.8
2217.693	4855.8
2221.657	4882.8
2225.618	4423.8
2229.575	4781.8
2233.529	4677.8
2237.479	4733.8
2241.425	4738.8
2245.368	4865.8
2249.307	4710.8
2253.243	4668.8
2257.175	4682.8
2261.104	4628.8
2265.029	4490.8
2268.95	4477.8
2272.868	4371.8
2276.783	4387.8
2280.694	4156.8
2284.601	4179.8
2288.505	4173.8
2292.405	4056.8
2296.302	4088.8
2300.195	4053.8
2304.085	4143.8
2307.971	4021.8
2311.854	4010.8
2315.734	3949.8
2319.609	3962.8
2323.482	4023.8
2327.351	3892.8
2331.216	3900.8
2335.078	3905.8
2338.937	3849.8
2342.792	3887.8
2346.643	3773.8
2350.492	3720.8
2354.336	3781.8
2358.178	3686.8
2362.015	3678.8
2365.85	3756.8
2369.681	3814.8
2373.508	3757.8
2377.333	3688.8
2381.153	3767.8
2384.971	3785.8
2388.785	3822.8
2392.595	3787.8
2396.402	3821.8
2400.206	3831.8
2404.007	3796.8
2407.804	3720.8
2411.597	3632.8
2415.388	3700.8
2419.174	3657.8
2422.958	3607.8
2426.738	3519.8
2430.515	3386.8
2434.289	3521.8
2438.059	3514.8
2441.825	3424.8
2445.589	3335.8
2449.349	3454.8
2453.106	3364.8
2456.859	3406.8
2460.61	3260.8
2464.356	3276.8
2468.1	3321.8
2471.84	3344.8
2475.577	3292.8
2479.311	3270.8
2483.041	3185.8
2486.768	3098.8
2490.492	2911.8
2494.213	3338.8
2497.93	3154.8
2501.644	3170.8
2505.355	3197.8
2509.062	3098.8
2512.766	3134.8
2516.467	3206.8
2520.165	3100.8
2523.859	3177.8
2527.551	2942.8
2531.239	3072.8
2534.923	3123.8
2538.605	3124.8
2542.283	3023.8
2545.958	3085.8
2549.63	2964.8
2553.299	2980.8
2556.964	2973.8
2560.626	2967.8
2564.285	2891.8
2567.941	3043.8
2571.594	2991.8
2575.243	2885.8
2578.89	2966.8
2582.533	2990.8
2586.173	2959.8
2589.809	2866.8
2593.443	3082.8
2597.073	2934.8
2600.701	2756.8
2604.325	2860.8
2607.946	2808.8
2611.564	2796.8
2615.178	2673.8
2618.79	2748.8
2622.398	2775.8
2626.004	2742.8
2629.606	2649.8
2633.205	2853.8
2636.801	2645.8
2640.394	2648.8
2643.983	2721.8
2647.57	2651.8
2651.153	2506.8
2654.734	2476.8
2658.311	2660.8
2661.885	2537.8
2665.456	2464.8
2669.025	2459.8
2672.589	2470.8
2676.151	2355.8
2679.71	2323.8
2683.266	2285.8
2686.819	2339.8
2690.368	2286.8
2693.915	2249.8
2697.458	2400.8
2700.999	2157.8
2704.536	2202.8
2708.071	2135.8
2711.602	2105.8
2715.13	2090.8
2718.656	2119.8
2722.178	1977.8
2725.697	2030.8
2729.214	1823.8
2732.727	1953.8
2736.237	2075.8
2739.744	1956.8
2743.249	2003.8
2746.75	2027.8
2750.248	2124.8
2753.743	2087.8
2757.236	2084.8
2760.725	2065.8
2764.211	2304.8
2767.695	2058.8
2771.175	2089.8
2774.652	2069.8
2778.127	2029.8
2781.598	2066.8
2785.067	2091.8
2788.532	2029.8
2791.995	2031.8
2795.455	1974.8
2798.911	2020.8
2802.365	2134.8
2805.816	2037.8
2809.264	2028.8
2812.709	2070.8
2816.151	2059.8
2819.59	2151.8
2823.026	2111.8
2826.46	2148.8
2829.89	2050.8
2833.318	2311.8
2836.742	2135.8
2840.164	2148.8
2843.583	2178.8
2846.999	2169.8
2850.412	2131.8
2853.822	2294.8
2857.229	2057.8
2860.634	2197.8
2864.035	2236.8
2867.434	2118.8
2870.83	2215.8
2874.223	2312.8
2877.613	2143.8
2881	2376.8
2884.385	2429.8
2887.766	2423.8
2891.145	2331.8
2894.521	2453.8
2897.894	2463.8
2901.264	2200.8
2904.631	2473.8
2907.996	2396.8
2911.358	2404.8
2914.717	2395.8
2918.073	2412.8
2921.426	2396.8
2924.777	2478.8
2928.124	2469.8
2931.469	2404.8
2934.811	2632.8
2938.15	2509.8
2941.487	2557.8
2944.821	2519.8
2948.152	2616.8
2951.48	2618.8
2954.805	2578.8
2958.128	2500.8
2961.447	2636.8
2964.765	2484.8
2968.079	2634.8
2971.39	2567.8
2974.699	2616.8
2978.005	2602.8
2981.308	2702.8
2984.609	2819.8
2987.907	2763.8
2991.202	2805.8
2994.494	2931.8
2997.784	2532.8
3001.07	2758.8
3004.355	2894.8
3007.636	2931.8
3010.915	3055.8
3014.191	3087.8
3017.464	3030.8
3020.734	3054.8
3024.002	3119.8
3027.267	3159.8
3030.53	3201.8
3033.789	3230.8
3037.046	3327.8
3040.301	3329.8
3043.552	3384.8
3046.801	3525.8
3050.048	3389.8
3053.291	3371.8
3056.532	3614.8
3059.771	3654.8
3063.006	3690.8
3066.239	3778.8
3069.469	3850.8
3072.697	4136.8
3075.922	4139.8
3079.144	4159.8
3082.364	4303.8
3085.581	4440.8
3088.795	4461.8
3092.007	4601.8
3095.216	4800.8
3098.423	4999.8
3101.627	5146.8
3104.828	5144.8
3108.026	5318.8
3111.222	5308.8
3114.416	5382.8
3117.607	5504.8
3120.795	5636.8
3123.98	5747.8
3127.163	5916.8
3130.344	5925.8
3133.521	6062.8
3136.696	6206.8
3139.869	6261.8
3143.039	6355.8
3146.206	6440.8
3149.371	6628.8
3152.533	6784.8
3155.693	6861.8
3158.85	6971.8
3162.005	6971.8
3165.157	7028.8
3168.306	7099.8
3171.453	7049.8
3174.597	7321.8
3177.739	7295.8
3180.878	7187.8
3184.014	7165.8
3187.149	7216.8
3190.28	7174.8
3193.409	7126.8
3196.536	7105.8
3199.659	7131.8
3202.781	7054.8
3205.9	7248.8
3209.016	7119.8
3212.13	7167.8
3215.241	7123.8
3218.35	7127.8
3221.456	7344.8
3224.56	7313.8
3227.661	7241.8
3230.76	7319.8
3233.856	7295.8
3236.95	7169.8
3240.041	7314.8
3243.13	7085.8
3246.216	7146.8
3249.3	6976.8
3252.382	6951.8
3255.46	7037.8
3258.537	6202.8
3261.611	6961.8
3264.682	6767.8
3267.751	6773.8
3270.818	6799.8
3273.882	6619.8
3276.943	6589.8
3280.002	6483.8
3283.059	6527.8
3286.113	6517.8
3289.165	6563.8
3292.214	6441.8
3295.261	6290.8
3298.306	6413.8
3301.348	6201.8
3304.387	6142.8
3307.425	6075.8
3310.459	6067.8
3313.492	5869.8
3316.521	5803.8
3319.549	5625.8
3322.574	5621.8
3325.597	5515.8
3328.617	5549.8
3331.635	5425.8
3334.65	5473.8
3337.663	5451.8
3340.674	5363.8
3343.682	5249.8
3346.688	5252.8
3349.691	5231.8
3352.692	5282.8
3355.691	5097.8
3358.687	5172.8
3361.681	5152.8
3364.673	5169.8
3367.662	5109.8
3370.649	4996.8
3373.633	5105.8
3376.615	4950.8
3379.595	5081.8
3382.572	4918.8
3385.547	4859.8
3388.52	4925.8
3391.49	4699.8
3394.458	4795.8
3397.424	4570.8
3400.387	4721.8
3403.348	4404.8
3406.307	4407.8
3409.263	4449.8
3412.217	4245.8
3415.168	4274.8
3418.118	4253.8
3421.065	4210.8
3424.009	4074.8
3426.951	4088.8
3429.891	3773.8
3432.829	3979.8
3435.764	3948.8
3438.697	3972.8
3441.628	3736.8
3444.557	3794.8
3447.483	3804.8
3450.407	3655.8
3453.328	3560.8
3456.247	3543.8
3459.164	3490.8
3462.079	3300.8
3464.991	3276.8
3467.902	3277.8
3470.809	3121.8
3473.715	3016.8
3476.618	2949.8
3479.519	2839.8
3482.418	2875.8
3485.315	2701.8
3488.209	2640.8
3491.101	2585.8
3493.99	2551.8
3496.878	2191.8
3499.763	2267.8
3502.646	2241.8
3505.527	2343.8
3508.405	2188.8
3511.281	2066.8
3514.155	2122.8
3517.027	2093.8
3519.897	2117.8
3522.764	1866.8
3525.629	1949.8
3528.492	1822.8
3531.352	1849.8
3534.211	1653.8
3537.067	1671.8
3539.921	1562.8
3542.773	1515.8
3545.622	1428.8
3548.469	1502.8
3551.315	1436.8
3554.157	1288.8
3556.998	1198.8
3559.837	1106.8
3562.673	1032.8
3565.507	1099.8
3568.339	1074.8
3571.169	1087.8
3573.996	991.8
3576.822	1021.8
3579.645	946.8
3582.466	904.8
3585.285	824.8
3588.101	800.8
3590.916	856.8
3593.728	754.8
3596.538	827.8
3599.346	668.8
3602.152	768.8
3604.956	649.8
3607.757	564.8
3610.556	719.8
3613.354	601.8
3616.149	591.8
3618.942	512.8
3621.732	311.8
3624.521	535.8
3627.307	447.8
3630.092	465.8
3632.874	332.8
3635.654	468.8
3638.432	471.8
3641.208	340.8
3643.982	369.8
3646.753	341.8
3649.523	453.8
3652.29	345.8
3655.055	359.8
3657.818	280.8
3660.579	298.8
3663.338	408.8
3666.095	183.8
3668.849	343.8
3671.602	203.8
3674.352	301.8
3677.101	236.8
3679.847	149.8
3682.591	200.8
3685.333	213.8
3688.073	100.8
3690.811	197.8
3693.547	258.8
3696.281	204.8
3699.013	54.8
3701.742	131.8
3704.47	219.8
3707.195	59.8
3709.919	81.8
3712.64	78.8
3715.359	-43.2
3718.076	-127.2
3720.792	19.8
3723.505	21.8
3726.216	79.8
3728.925	47.8
3731.632	-131.2
3734.336	135.8
3737.039	15.8
3739.74	59.8
3742.439	268.8
3745.136	-17.2
3747.83	-46.2
3750.523	-35.2
3753.213	563.8
3755.902	-5.2
3758.589	25.8
3761.273	35.8
3763.956	-100.2
3766.636	40.8
3769.315	-163.2
3771.991	102.8
3774.665	-97.2
3777.338	52.8
3780.008	-8.2
3782.677	13.8
3785.343	81.8
3788.007	52.8
3790.67	-0.2
3793.33	-117.2
3795.989	28.8
3798.645	-114.2
3801.299	125.8
3803.952	-64.2
3806.602	-52.2
3809.251	-36.2
3811.897	3.8
3814.542	-52.2
3817.184	-50.2
3819.825	-47.2
3822.463	77.8
3825.1	-38.2
3827.735	-6.2
3830.367	-53.2
3832.998	-161.2
3835.627	-111.2
3838.253	-89.2
3840.878	-48.2
3843.501	-171.2
3846.122	-88.2
3848.741	-193.2
3851.358	-73.2
3853.973	18.8
3856.586	-79.2
3859.197	-66.2
3861.806	-124.2
3864.414	33.8
3867.019	-36.2
3869.622	-122.2
3872.224	-173.2
3874.823	-13.2
3877.421	-27.2
3880.016	25.8
3882.61	130.8
3885.202	35.8
3887.792	53.8
3890.38	-161.2
3892.966	-35.2
3895.55	-81.2
3898.132	-41.2
3900.713	-91.2
3903.291	-112.2
3905.868	-57.2
3908.442	-170.2
3911.015	-99.2
3913.586	-119.2
3916.155	-95.2
3918.722	20.8
3921.287	-70.2
3923.85	-4.2
3926.411	-121.2
3928.971	-158.2
3931.528	-85.2
3934.084	-102.2
3936.638	-100.2
3939.19	-144.2
3941.74	-97.2
3944.288	-176.2
3946.834	-41.2
3949.378	-127.2
3951.921	-27.2
3954.462	-77.2
3957	-134.2
3959.537	-64.2
3962.072	3.8
3964.606	9.8
3967.137	-109.2
3969.667	-50.2
3972.194	-70.2
3974.72	-97.2
3977.244	-21.2
3979.766	-59.2
3982.286	9.8
3984.805	-114.2
3987.321	-174.2
3989.836	-100.2
3992.349	-16.2
3994.86	-111.2
3997.369	-95.2
3999.877	-89.2
4002.382	-121.2
4004.886	-88.2
4007.388	11.8
4009.888	5.8
4012.386	-161.2
4014.883	-98.2
4017.377	-132.2
4019.87	-191.2
4022.361	-13.2
4024.85	-58.2
4027.338	3.8
4029.823	-137.2
4032.307	-98.2
4034.789	-59.2
4037.269	-0.2
4039.747	-37.2
4042.224	-160.2
4044.699	-74.2
4047.172	-86.2
4049.643	-81.2
4052.112	45.8
4054.58	-88.2
4057.046	-37.2
4059.51	-38.2
4061.972	-81.2
4064.432	40.8
4066.891	-192.2
4069.348	-47.2
4071.803	-134.2
4074.256	-88.2
4076.708	-67.2
4079.158	-101.2
4081.606	-178.2
4084.052	-79.2
4086.497	-97.2
4088.939	-45.2
4091.38	-47.2
4093.819	-86.2
4096.257	-1139.2
4098.693	-1138.2
4101.127	-1188.2
4103.559	-1196.2
4105.989	83.8
4108.418	52.8
4110.845	299.8
4113.27	173.8
4115.694	252.8
4118.115	296.8
4120.535	-159.2
4122.954	-142.2
4125.37	-233.2
4127.785	-113.2
4130.198	-128.2
4132.609	-117.2
4135.019	-1216.2
4137.427	-1222.2
4139.833	-1174.2
4142.237	-1057.2
