Data from 2018-2-8_conc=2_RamanShift_12.txt Node
Date: Wed Feb 07 09:57:40 IST 2018
User: aro
Spectrometer: QEPB0276
Trigger mode: 0
Integration Time (sec): 3.000000E1
Scans to average: 1
Electric dark correction enabled: true
Nonlinearity correction enabled: false
Boxcar width: 0
XAxis mode: Raman Shifts
Number of Pixels in Spectrum: 1044
>>>>>Begin Spectral Data<<<<<
160.701	480
166.742	503
172.777	1043
178.805	2643
184.826	6095
190.841	12216
196.849	19579
202.85	24997
208.845	27045
214.833	26796
220.815	26351
226.789	26148
232.758	26031
238.719	25817
244.674	25708
250.623	25149
256.565	24801
262.5	24190
268.429	23655
274.351	23355
280.267	23111
286.176	22495
292.079	22218
297.975	21840
303.865	21723
309.748	21538
315.625	21458
321.495	20930
327.359	20985
333.217	21046
339.068	20874
344.912	20854
350.751	20843
356.583	20909
362.408	20848
368.227	20918
374.04	20963
379.847	21013
385.647	21060
391.44	21327
397.228	21339
403.009	21508
408.784	21619
414.553	21798
420.315	21784
426.071	21915
431.821	21864
437.565	21796
443.302	21561
449.033	21610
454.758	21477
460.477	21279
466.189	21263
471.896	21131
477.596	21083
483.29	21123
488.978	21068
494.66	21002
500.335	21018
506.005	20914
511.668	20612
517.325	20558
522.977	20372
528.622	20299
534.261	20097
539.894	20047
545.521	20031
551.141	19946
556.756	19679
562.365	19578
567.968	19397
573.565	19298
579.155	19109
584.74	19057
590.319	18951
595.892	18932
601.459	18892
607.02	18869
612.575	18936
618.124	18790
623.667	18831
629.204	18808
634.735	18802
640.261	18732
645.781	18814
651.294	18525
656.802	18429
662.304	18314
667.8	17948
673.29	18084
678.775	17850
684.254	18015
689.726	17981
695.193	17815
700.655	17791
706.11	17995
711.56	17890
717.004	17926
722.442	17766
727.874	17825
733.301	17876
738.722	17868
744.137	17686
749.547	17604
754.951	17501
760.349	17374
765.741	17203
771.128	17203
776.509	17215
781.885	17271
787.254	17183
792.618	17253
797.977	17332
803.33	17440
808.677	17506
814.019	17411
819.355	17382
824.686	17364
830.011	17366
835.33	17115
840.644	16919
845.952	16933
851.255	16809
856.552	16674
861.844	16474
867.13	16492
872.41	16444
877.686	16372
882.955	16412
888.219	16520
893.478	16624
898.731	16415
903.979	16356
909.221	16361
914.458	16435
919.69	16138
924.916	15975
930.136	15909
935.351	15812
940.561	15434
945.766	15449
950.965	15254
956.158	15306
961.347	15388
966.529	15392
971.707	15322
976.879	15279
982.046	15379
987.208	15340
992.364	15280
997.515	15220
1002.66	15015
1007.801	15135
1012.936	15011
1018.066	15109
1023.19	14821
1028.309	14865
1033.423	14974
1038.532	15094
1043.636	15266
1048.734	15223
1053.827	15201
1058.915	15295
1063.998	15157
1069.075	14996
1074.147	14776
1079.214	14771
1084.276	14473
1089.333	14416
1094.385	14335
1099.431	14460
1104.472	14328
1109.509	14523
1114.54	14605
1119.565	14654
1124.586	14663
1129.602	14655
1134.613	14526
1139.618	14493
1144.619	14232
1149.614	14030
1154.604	13915
1159.589	13867
1164.57	13647
1169.545	13645
1174.515	13715
1179.48	13833
1184.44	13880
1189.395	13968
1194.345	14109
1199.29	14093
1204.23	14215
1209.165	14096
1214.095	13956
1219.021	13860
1223.941	13758
1228.856	13810
1233.766	13804
1238.672	13689
1243.572	13630
1248.467	13704
1253.358	13865
1258.244	13833
1263.124	13693
1268	13584
1272.871	13589
1277.737	13514
1282.599	13306
1287.455	13208
1292.306	12982
1297.153	13020
1301.995	12894
1306.832	12834
1311.664	12812
1316.491	12811
1321.314	12795
1326.132	12788
1330.945	12704
1335.753	12536
1340.556	12429
1345.354	12319
1350.148	12084
1354.937	11894
1359.722	11823
1364.501	11647
1369.276	11680
1374.046	11606
1378.811	11725
1383.572	11775
1388.327	11601
1393.079	11995
1397.825	12040
1402.567	12034
1407.304	11943
1412.036	11938
1416.764	11922
1421.487	12011
1426.205	11754
1430.919	11508
1435.628	11351
1440.333	11360
1445.032	11186
1449.727	11191
1454.418	11219
1459.104	11214
1463.785	10949
1468.462	11008
1473.134	11058
1477.802	10854
1482.465	10861
1487.123	10629
1491.777	10682
1496.426	10551
1501.071	10399
1505.711	10440
1510.347	10522
1514.978	10643
1519.604	10672
1524.226	10783
1528.844	11041
1533.457	10988
1538.065	11175
1542.669	11129
1547.269	11271
1551.864	11182
1556.454	11249
1561.041	11171
1565.622	11089
1570.199	10902
1574.772	10919
1579.34	10650
1583.904	10766
1588.464	10763
1593.019	10793
1597.569	10876
1602.115	10978
1606.657	11030
1611.195	11079
1615.728	11128
1620.256	11200
1624.78	11184
1629.3	11291
1633.816	11070
1638.327	10983
1642.834	10952
1647.336	10939
1651.834	10841
1656.328	10857
1660.817	10755
1665.302	10828
1669.783	10815
1674.259	10569
1678.732	10294
1683.199	10068
1687.663	9937
1692.122	9579
1696.577	9285
1701.028	9379
1705.474	9280
1709.917	9239
1714.355	9233
1718.788	9127
1723.218	8944
1727.643	8716
1732.064	8537
1736.481	8631
1740.893	8405
1745.301	8278
1749.705	8310
1754.105	7841
1758.501	7850
1762.893	7495
1767.28	7454
1771.663	7262
1776.042	7046
1780.417	6999
1784.787	6811
1789.154	6899
1793.516	6841
1797.874	7130
1802.228	7172
1806.578	7339
1810.924	7268
1815.266	7255
1819.603	7328
1823.937	7349
1828.266	7234
1832.591	7098
1836.913	7077
1841.23	7045
1845.543	7032
1849.852	6825
1854.156	6804
1858.457	6758
1862.754	6783
1867.047	6654
1871.335	6505
1875.62	6470
1879.9	6489
1884.177	6625
1888.449	6508
1892.718	6508
1896.982	6440
1901.243	6592
1905.499	6507
1909.752	6455
1914	6542
1918.245	6448
1922.485	6458
1926.722	6509
1930.954	6589
1935.183	6519
1939.408	6512
1943.628	6595
1947.845	6558
1952.058	6627
1956.267	6507
1960.472	6491
1964.673	6605
1968.87	6581
1973.063	6617
1977.252	6429
1981.438	6409
1985.619	6245
1989.797	6158
1993.971	6190
1998.14	5945
2002.306	6009
2006.469	5905
2010.627	5834
2014.781	5922
2018.932	5877
2023.078	5767
2027.221	5759
2031.36	5704
2035.495	5767
2039.627	5685
2043.754	5670
2047.878	5596
2051.998	5570
2056.114	5599
2060.226	5599
2064.334	5471
2068.439	5326
2072.54	5408
2076.637	5606
2080.73	5487
2084.82	5477
2088.906	5527
2092.988	5440
2097.066	5643
2101.14	5521
2105.211	5626
2109.278	5621
2113.342	5588
2117.401	5658
2121.457	5621
2125.509	5542
2129.558	5337
2133.602	5431
2137.643	5359
2141.681	5309
2145.714	5256
2149.744	5181
2153.77	5175
2157.793	5164
2161.812	5221
2165.827	5140
2169.838	4979
2173.846	5012
2177.851	4938
2181.851	4836
2185.848	4873
2189.841	4816
2193.831	4801
2197.817	4574
2201.799	4585
2205.778	4603
2209.753	4622
2213.725	4643
2217.693	4555
2221.657	4551
2225.618	4081
2229.575	4474
2233.529	4398
2237.479	4434
2241.425	4419
2245.368	4537
2249.307	4399
2253.243	4396
2257.175	4381
2261.104	4293
2265.029	4218
2268.95	4211
2272.868	4078
2276.783	4092
2280.694	3880
2284.601	3951
2288.505	3919
2292.405	3790
2296.302	3847
2300.195	3833
2304.085	3848
2307.971	3725
2311.854	3788
2315.734	3649
2319.609	3682
2323.482	3760
2327.351	3674
2331.216	3657
2335.078	3649
2338.937	3603
2342.792	3605
2346.643	3541
2350.492	3464
2354.336	3525
2358.178	3497
2362.015	3443
2365.85	3588
2369.681	3510
2373.508	3490
2377.333	3431
2381.153	3490
2384.971	3538
2388.785	3495
2392.595	3570
2396.402	3586
2400.206	3630
2404.007	3563
2407.804	3488
2411.597	3386
2415.388	3418
2419.174	3350
2422.958	3375
2426.738	3357
2430.515	3179
2434.289	3321
2438.059	3272
2441.825	3285
2445.589	3141
2449.349	3239
2453.106	3148
2456.859	3131
2460.61	3056
2464.356	3100
2468.1	3098
2471.84	3110
2475.577	3126
2479.311	3001
2483.041	3003
2486.768	2855
2490.492	2698
2494.213	3112
2497.93	2952
2501.644	3009
2505.355	2998
2509.062	2885
2512.766	2894
2516.467	2991
2520.165	2909
2523.859	2968
2527.551	2760
2531.239	2863
2534.923	2930
2538.605	2928
2542.283	2834
2545.958	2847
2549.63	2785
2553.299	2794
2556.964	2806
2560.626	2802
2564.285	2697
2567.941	2841
2571.594	2771
2575.243	2699
2578.89	2792
2582.533	2799
2586.173	2707
2589.809	2691
2593.443	2860
2597.073	2720
2600.701	2598
2604.325	2707
2607.946	2678
2611.564	2621
2615.178	2541
2618.79	2575
2622.398	2658
2626.004	2573
2629.606	2468
2633.205	2648
2636.801	2460
2640.394	2448
2643.983	2468
2647.57	2540
2651.153	2353
2654.734	2353
2658.311	2495
2661.885	2382
2665.456	2282
2669.025	2323
2672.589	2255
2676.151	2222
2679.71	2185
2683.266	2109
2686.819	2157
2690.368	2166
2693.915	2141
2697.458	2187
2700.999	2041
2704.536	2040
2708.071	2025
2711.602	1984
2715.13	1961
2718.656	2012
2722.178	1854
2725.697	1996
2729.214	1687
2732.727	1828
2736.237	1961
2739.744	1851
2743.249	1876
2746.75	1884
2750.248	1969
2753.743	1977
2757.236	1942
2760.725	1973
2764.211	2152
2767.695	1920
2771.175	1947
2774.652	1891
2778.127	1910
2781.598	1950
2785.067	1926
2788.532	1952
2791.995	1896
2795.455	1948
2798.911	1922
2802.365	2061
2805.816	1920
2809.264	1878
2812.709	1973
2816.151	1975
2819.59	1983
2823.026	2038
2826.46	2033
2829.89	2032
2833.318	2133
2836.742	2025
2840.164	2021
2843.583	2097
2846.999	2103
2850.412	2044
2853.822	2055
2857.229	1965
2860.634	2041
2864.035	2133
2867.434	2113
2870.83	2119
2874.223	2166
2877.613	2074
2881	2291
2884.385	2326
2887.766	2247
2891.145	2232
2894.521	2359
2897.894	2402
2901.264	2115
2904.631	2365
2907.996	2319
2911.358	2331
2914.717	2298
2918.073	2358
2921.426	2310
2924.777	2435
2928.124	2470
2931.469	2318
2934.811	2615
2938.15	2431
2941.487	2503
2944.821	2431
2948.152	2516
2951.48	2554
2954.805	2468
2958.128	2432
2961.447	2550
2964.765	2452
2968.079	2600
2971.39	2555
2974.699	2569
2978.005	2563
2981.308	2631
2984.609	2685
2987.907	2671
2991.202	2733
2994.494	2792
2997.784	2412
3001.07	2735
3004.355	2805
3007.636	2856
3010.915	2934
3014.191	2989
3017.464	2942
3020.734	2963
3024.002	3086
3027.267	3056
3030.53	3176
3033.789	3192
3037.046	3330
3040.301	3330
3043.552	3366
3046.801	3470
3050.048	3330
3053.291	3355
3056.532	3557
3059.771	3701
3063.006	3649
3066.239	3714
3069.469	3819
3072.697	4063
3075.922	4107
3079.144	4145
3082.364	4209
3085.581	4448
3088.795	4422
3092.007	4502
3095.216	4776
3098.423	4952
3101.627	5064
3104.828	5132
3108.026	5184
3111.222	5276
3114.416	5267
3117.607	5472
3120.795	5595
3123.98	5718
3127.163	5907
3130.344	5937
3133.521	5983
3136.696	6180
3139.869	6166
3143.039	6325
3146.206	6364
3149.371	6533
3152.533	6719
3155.693	6812
3158.85	6863
3162.005	6917
3165.157	7012
3168.306	7022
3171.453	7016
3174.597	7218
3177.739	7206
3180.878	7122
3184.014	7141
3187.149	7175
3190.28	7072
3193.409	7065
3196.536	7072
3199.659	7093
3202.781	7054
3205.9	7200
3209.016	7083
3212.13	7124
3215.241	7015
3218.35	7124
3221.456	7278
3224.56	7270
3227.661	7231
3230.76	7272
3233.856	7255
3236.95	7133
3240.041	7214
3243.13	7011
3246.216	7020
3249.3	6874
3252.382	6935
3255.46	6982
3258.537	6169
3261.611	6932
3264.682	6702
3267.751	6810
3270.818	6802
3273.882	6594
3276.943	6450
3280.002	6493
3283.059	6475
3286.113	6423
3289.165	6458
3292.214	6384
3295.261	6177
3298.306	6317
3301.348	6193
3304.387	6091
3307.425	6041
3310.459	6002
3313.492	5832
3316.521	5816
3319.549	5705
3322.574	5622
3325.597	5510
3328.617	5423
3331.635	5464
3334.65	5384
3337.663	5375
3340.674	5299
3343.682	5262
3346.688	5258
3349.691	5239
3352.692	5299
3355.691	5054
3358.687	5152
3361.681	5114
3364.673	5089
3367.662	5103
3370.649	5030
3373.633	5088
3376.615	4898
3379.595	5088
3382.572	4872
3385.547	4855
3388.52	4902
3391.49	4753
3394.458	4766
3397.424	4642
3400.387	4667
3403.348	4345
3406.307	4389
3409.263	4475
3412.217	4280
3415.168	4258
3418.118	4238
3421.065	4210
3424.009	3989
3426.951	4077
3429.891	3726
3432.829	3988
3435.764	3962
3438.697	3958
3441.628	3748
3444.557	3791
3447.483	3780
3450.407	3611
3453.328	3517
3456.247	3580
3459.164	3440
3462.079	3260
3464.991	3258
3467.902	3292
3470.809	3100
3473.715	2949
3476.618	2929
3479.519	2768
3482.418	2814
3485.315	2685
3488.209	2596
3491.101	2553
3493.99	2490
3496.878	2252
3499.763	2285
3502.646	2262
3505.527	2314
3508.405	2169
3511.281	2084
3514.155	2091
3517.027	2014
3519.897	2062
3522.764	1894
3525.629	1880
3528.492	1830
3531.352	1857
3534.211	1696
3537.067	1661
3539.921	1571
3542.773	1503
3545.622	1432
3548.469	1466
3551.315	1427
3554.157	1264
3556.998	1205
3559.837	1093
3562.673	1031
3565.507	1097
3568.339	1072
3571.169	1017
3573.996	1019
3576.822	972
3579.645	983
3582.466	866
3585.285	838
3588.101	831
3590.916	869
3593.728	765
3596.538	765
3599.346	705
3602.152	790
3604.956	680
3607.757	522
3610.556	717
3613.354	611
3616.149	577
3618.942	568
3621.732	366
3624.521	542
3627.307	456
3630.092	425
3632.874	356
3635.654	471
3638.432	484
3641.208	407
3643.982	414
3646.753	323
3649.523	396
3652.29	411
3655.055	362
3657.818	245
3660.579	294
3663.338	356
3666.095	217
3668.849	408
3671.602	209
3674.352	266
3677.101	241
3679.847	118
3682.591	222
3685.333	233
3688.073	154
3690.811	207
3693.547	236
3696.281	170
3699.013	67
3701.742	83
3704.47	223
3707.195	115
3709.919	70
3712.64	56
3715.359	-76
3718.076	-181
3720.792	51
3723.505	43
3726.216	52
3728.925	84
3731.632	-32
3734.336	112
3737.039	30
3739.74	56
3742.439	77
3745.136	-3
3747.83	-15
3750.523	-8
3753.213	562
3755.902	21
3758.589	49
3761.273	52
3763.956	-94
3766.636	80
3769.315	-106
3771.991	83
3774.665	-15
3777.338	122
3780.008	65
3782.677	4
3785.343	138
3788.007	-28
3790.67	-43
3793.33	-111
3795.989	9
3798.645	-55
3801.299	119
3803.952	-63
3806.602	-45
3809.251	-35
3811.897	-25
3814.542	-37
3817.184	-22
3819.825	-8
3822.463	60
3825.1	-50
3827.735	3
3830.367	-20
3832.998	-161
3835.627	-107
3838.253	-80
3840.878	-56
3843.501	-173
3846.122	-127
3848.741	-186
3851.358	-89
3853.973	87
3856.586	-46
3859.197	-102
3861.806	-53
3864.414	59
3867.019	-68
3869.622	-96
3872.224	-203
3874.823	-29
3877.421	19
3880.016	-21
3882.61	116
3885.202	85
3887.792	64
3890.38	-123
3892.966	0
3895.55	-57
3898.132	-60
3900.713	-91
3903.291	-89
3905.868	-20
3908.442	-80
3911.015	-110
3913.586	-90
3916.155	-91
3918.722	-25
3921.287	-48
3923.85	40
3926.411	-131
3928.971	-164
3931.528	-49
3934.084	-86
3936.638	-140
3939.19	-86
3941.74	-107
3944.288	-146
3946.834	-47
3949.378	-87
3951.921	13
3954.462	-73
3957	-126
3959.537	-27
3962.072	41
3964.606	19
3967.137	-59
3969.667	-80
3972.194	-26
3974.72	-37
3977.244	35
3979.766	-29
3982.286	44
3984.805	-105
3987.321	-154
3989.836	-134
3992.349	-40
3994.86	-66
3997.369	-55
3999.877	-115
4002.382	-76
4004.886	-59
4007.388	2
4009.888	51
4012.386	-161
4014.883	-106
4017.377	-90
4019.87	-193
4022.361	-3
4024.85	-18
4027.338	49
4029.823	-125
4032.307	-101
4034.789	-8
4037.269	36
4039.747	2
4042.224	-81
4044.699	-71
4047.172	-33
4049.643	-102
4052.112	78
4054.58	-55
4057.046	-98
4059.51	-30
4061.972	-132
4064.432	29
4066.891	-164
4069.348	26
4071.803	-103
4074.256	-127
4076.708	10
4079.158	-55
4081.606	-194
4084.052	-18
4086.497	-178
4088.939	-25
4091.38	-65
4093.819	-100
4096.257	-1130
4098.693	-1156
4101.127	-1182
4103.559	-1203
4105.989	66
4108.418	83
4110.845	310
4113.27	151
4115.694	320
4118.115	339
4120.535	-112
4122.954	-163
4125.37	-221
4127.785	-61
4130.198	-112
4132.609	-185
4135.019	-1233
4137.427	-1233
4139.833	-1171
4142.237	-1032
