Data from 2018-2-8_conc=6_RamanShift_14.txt Node
Date: Wed Feb 07 11:32:10 IST 2018
User: aro
Spectrometer: QEPB0276
Trigger mode: 0
Integration Time (sec): 3.000000E1
Scans to average: 1
Electric dark correction enabled: true
Nonlinearity correction enabled: false
Boxcar width: 0
XAxis mode: Raman Shifts
Number of Pixels in Spectrum: 1044
>>>>>Begin Spectral Data<<<<<
160.701	797.1
166.742	913.1
172.777	1420.1
178.805	3035.1
184.826	6460.1
190.841	12436.1
196.849	19836.1
202.85	25266.1
208.845	27239.1
214.833	27067.1
220.815	26588.1
226.789	26422.1
232.758	26252.1
238.719	26176.1
244.674	25882.1
250.623	25332.1
256.565	24875.1
262.5	24494.1
268.429	23697.1
274.351	23400.1
280.267	23299.1
286.176	22621.1
292.079	22383.1
297.975	22133.1
303.865	21871.1
309.748	21704.1
315.625	21587.1
321.495	20986.1
327.359	21030.1
333.217	21056.1
339.068	21057.1
344.912	20971.1
350.751	21018.1
356.583	20862.1
362.408	20938.1
368.227	20872.1
374.04	21035.1
379.847	21068.1
385.647	21182.1
391.44	21434.1
397.228	21377.1
403.009	21582.1
408.784	21563.1
414.553	21767.1
420.315	21875.1
426.071	22043.1
431.821	21884.1
437.565	21909.1
443.302	21640.1
449.033	21612.1
454.758	21526.1
460.477	21398.1
466.189	21302.1
471.896	21166.1
477.596	21063.1
483.29	21281.1
488.978	21102.1
494.66	21184.1
500.335	21120.1
506.005	21089.1
511.668	20710.1
517.325	20658.1
522.977	20361.1
528.622	20409.1
534.261	20238.1
539.894	20169.1
545.521	20043.1
551.141	20046.1
556.756	19765.1
562.365	19633.1
567.968	19515.1
573.565	19316.1
579.155	19187.1
584.74	19069.1
590.319	18931.1
595.892	18936.1
601.459	18883.1
607.02	18959.1
612.575	18984.1
618.124	18728.1
623.667	18922.1
629.204	18791.1
634.735	18907.1
640.261	18653.1
645.781	18986.1
651.294	18731.1
656.802	18392.1
662.304	18340.1
667.8	18047.1
673.29	18140.1
678.775	17988.1
684.254	18032.1
689.726	18066.1
695.193	17847.1
700.655	17912.1
706.11	18058.1
711.56	17814.1
717.004	17878.1
722.442	18144.1
727.874	17890.1
733.301	17838.1
738.722	17993.1
744.137	17747.1
749.547	17710.1
754.951	17606.1
760.349	17448.1
765.741	17233.1
771.128	17308.1
776.509	17270.1
781.885	17246.1
787.254	17071.1
792.618	17318.1
797.977	17361.1
803.33	17460.1
808.677	17500.1
814.019	17379.1
819.355	17492.1
824.686	17405.1
830.011	17439.1
835.33	17175.1
840.644	16895.1
845.952	17070.1
851.255	16699.1
856.552	16720.1
861.844	16634.1
867.13	16504.1
872.41	16518.1
877.686	16317.1
882.955	16427.1
888.219	16523.1
893.478	16637.1
898.731	16464.1
903.979	16373.1
909.221	16421.1
914.458	16362.1
919.69	16258.1
924.916	16087.1
930.136	15869.1
935.351	15720.1
940.561	15536.1
945.766	15469.1
950.965	15123.1
956.158	15413.1
961.347	15455.1
966.529	15424.1
971.707	15410.1
976.879	15324.1
982.046	15425.1
987.208	15514.1
992.364	15306.1
997.515	15324.1
1002.66	15121.1
1007.801	15255.1
1012.936	15243.1
1018.066	15250.1
1023.19	14966.1
1028.309	14847.1
1033.423	15001.1
1038.532	15065.1
1043.636	15282.1
1048.734	15241.1
1053.827	15341.1
1058.915	15292.1
1063.998	15146.1
1069.075	15014.1
1074.147	14816.1
1079.214	14886.1
1084.276	14463.1
1089.333	14562.1
1094.385	14461.1
1099.431	14458.1
1104.472	14390.1
1109.509	14581.1
1114.54	14536.1
1119.565	14714.1
1124.586	14605.1
1129.602	14639.1
1134.613	14678.1
1139.618	14490.1
1144.619	14320.1
1149.614	14101.1
1154.604	13961.1
1159.589	13908.1
1164.57	13670.1
1169.545	13765.1
1174.515	13750.1
1179.48	13789.1
1184.44	13817.1
1189.395	14024.1
1194.345	14183.1
1199.29	14146.1
1204.23	14281.1
1209.165	14173.1
1214.095	13996.1
1219.021	13940.1
1223.941	13838.1
1228.856	13927.1
1233.766	13813.1
1238.672	13732.1
1243.572	13793.1
1248.467	13745.1
1253.358	13849.1
1258.244	13947.1
1263.124	13739.1
1268	13707.1
1272.871	13660.1
1277.737	13648.1
1282.599	13448.1
1287.455	13297.1
1292.306	13025.1
1297.153	13111.1
1301.995	12862.1
1306.832	12783.1
1311.664	12788.1
1316.491	12970.1
1321.314	12893.1
1326.132	12812.1
1330.945	12751.1
1335.753	12568.1
1340.556	12473.1
1345.354	12388.1
1350.148	12014.1
1354.937	11916.1
1359.722	11927.1
1364.501	11684.1
1369.276	11464.1
1374.046	11564.1
1378.811	11837.1
1383.572	11787.1
1388.327	11545.1
1393.079	12092.1
1397.825	12133.1
1402.567	12069.1
1407.304	12008.1
1412.036	12028.1
1416.764	11892.1
1421.487	12175.1
1426.205	11853.1
1430.919	11602.1
1435.628	11523.1
1440.333	11400.1
1445.032	11280.1
1449.727	11241.1
1454.418	11270.1
1459.104	11224.1
1463.785	11083.1
1468.462	11052.1
1473.134	10979.1
1477.802	10869.1
1482.465	10995.1
1487.123	10463.1
1491.777	10812.1
1496.426	10674.1
1501.071	10345.1
1505.711	10420.1
1510.347	10401.1
1514.978	10597.1
1519.604	10661.1
1524.226	10731.1
1528.844	11146.1
1533.457	10917.1
1538.065	11216.1
1542.669	11111.1
1547.269	11213.1
1551.864	11043.1
1556.454	11399.1
1561.041	11250.1
1565.622	11275.1
1570.199	10993.1
1574.772	10958.1
1579.34	10773.1
1583.904	10885.1
1588.464	10827.1
1593.019	10857.1
1597.569	11019.1
1602.115	10882.1
1606.657	11163.1
1611.195	11151.1
1615.728	11198.1
1620.256	11352.1
1624.78	11431.1
1629.3	11347.1
1633.816	11171.1
1638.327	11221.1
1642.834	11008.1
1647.336	11037.1
1651.834	10925.1
1656.328	11020.1
1660.817	10896.1
1665.302	11080.1
1669.783	10959.1
1674.259	10693.1
1678.732	10400.1
1683.199	10260.1
1687.663	10176.1
1692.122	9596.1
1696.577	9345.1
1701.028	9362.1
1705.474	9321.1
1709.917	9330.1
1714.355	9340.1
1718.788	9101.1
1723.218	9042.1
1727.643	8832.1
1732.064	8670.1
1736.481	8752.1
1740.893	8440.1
1745.301	8288.1
1749.705	8446.1
1754.105	7935.1
1758.501	7997.1
1762.893	7672.1
1767.28	7628.1
1771.663	7379.1
1776.042	7223.1
1780.417	7171.1
1784.787	6884.1
1789.154	6933.1
1793.516	7043.1
1797.874	7050.1
1802.228	7238.1
1806.578	7438.1
1810.924	7255.1
1815.266	8231.1
1819.603	7411.1
1823.937	7453.1
1828.266	7306.1
1832.591	7272.1
1836.913	7192.1
1841.23	7257.1
1845.543	7173.1
1849.852	6948.1
1854.156	7019.1
1858.457	6941.1
1862.754	6689.1
1867.047	6821.1
1871.335	6628.1
1875.62	6609.1
1879.9	6574.1
1884.177	6756.1
1888.449	6575.1
1892.718	6655.1
1896.982	6522.1
1901.243	6740.1
1905.499	6654.1
1909.752	6555.1
1914	6777.1
1918.245	6497.1
1922.485	6529.1
1926.722	6530.1
1930.954	6650.1
1935.183	6655.1
1939.408	6559.1
1943.628	6595.1
1947.845	6678.1
1952.058	6740.1
1956.267	6644.1
1960.472	6576.1
1964.673	6634.1
1968.87	6692.1
1973.063	6692.1
1977.252	6535.1
1981.438	6472.1
1985.619	6407.1
1989.797	6312.1
1993.971	6233.1
1998.14	6097.1
2002.306	6170.1
2006.469	6101.1
2010.627	6044.1
2014.781	6065.1
2018.932	6066.1
2023.078	5817.1
2027.221	5898.1
2031.36	5924.1
2035.495	5939.1
2039.627	5874.1
2043.754	5730.1
2047.878	5819.1
2051.998	5748.1
2056.114	5753.1
2060.226	5718.1
2064.334	5709.1
2068.439	5585.1
2072.54	5567.1
2076.637	5785.1
2080.73	5665.1
2084.82	5613.1
2088.906	5668.1
2092.988	5633.1
2097.066	5826.1
2101.14	5574.1
2105.211	5641.1
2109.278	5707.1
2113.342	5748.1
2117.401	5877.1
2121.457	5737.1
2125.509	5754.1
2129.558	5528.1
2133.602	5646.1
2137.643	5555.1
2141.681	5473.1
2145.714	5386.1
2149.744	5369.1
2153.77	5358.1
2157.793	5359.1
2161.812	5455.1
2165.827	5389.1
2169.838	5042.1
2173.846	5227.1
2177.851	5107.1
2181.851	5033.1
2185.848	5194.1
2189.841	4969.1
2193.831	5098.1
2197.817	4828.1
2201.799	4843.1
2205.778	4928.1
2209.753	4908.1
2213.725	4828.1
2217.693	4827.1
2221.657	4813.1
2225.618	4683.1
2229.575	4717.1
2233.529	4626.1
2237.479	4720.1
2241.425	4621.1
2245.368	4867.1
2249.307	4663.1
2253.243	4620.1
2257.175	4689.1
2261.104	4567.1
2265.029	4405.1
2268.95	4421.1
2272.868	4419.1
2276.783	4422.1
2280.694	4129.1
2284.601	4230.1
2288.505	4193.1
2292.405	3968.1
2296.302	4180.1
2300.195	4098.1
2304.085	4167.1
2307.971	3986.1
2311.854	4052.1
2315.734	3944.1
2319.609	3944.1
2323.482	4117.1
2327.351	3973.1
2331.216	3916.1
2335.078	3837.1
2338.937	3938.1
2342.792	3905.1
2346.643	3900.1
2350.492	3734.1
2354.336	3861.1
2358.178	3766.1
2362.015	3732.1
2365.85	3953.1
2369.681	3915.1
2373.508	3803.1
2377.333	3702.1
2381.153	3826.1
2384.971	3890.1
2388.785	3812.1
2392.595	3837.1
2396.402	3794.1
2400.206	3953.1
2404.007	3956.1
2407.804	3813.1
2411.597	3653.1
2415.388	3749.1
2419.174	3761.1
2422.958	3663.1
2426.738	3655.1
2430.515	3571.1
2434.289	3662.1
2438.059	3689.1
2441.825	3656.1
2445.589	3389.1
2449.349	3656.1
2453.106	3486.1
2456.859	3459.1
2460.61	3375.1
2464.356	3499.1
2468.1	3408.1
2471.84	3473.1
2475.577	3453.1
2479.311	3357.1
2483.041	3272.1
2486.768	3196.1
2490.492	3002.1
2494.213	3284.1
2497.93	3266.1
2501.644	3349.1
2505.355	3428.1
2509.062	3156.1
2512.766	3300.1
2516.467	3198.1
2520.165	3205.1
2523.859	3366.1
2527.551	3022.1
2531.239	3265.1
2534.923	3223.1
2538.605	3242.1
2542.283	3149.1
2545.958	3204.1
2549.63	3109.1
2553.299	3010.1
2556.964	2963.1
2560.626	3164.1
2564.285	2954.1
2567.941	3178.1
2571.594	3081.1
2575.243	2887.1
2578.89	3171.1
2582.533	3124.1
2586.173	3101.1
2589.809	3059.1
2593.443	3338.1
2597.073	3088.1
2600.701	2862.1
2604.325	2941.1
2607.946	3031.1
2611.564	2926.1
2615.178	2770.1
2618.79	2870.1
2622.398	3000.1
2626.004	2964.1
2629.606	2839.1
2633.205	3086.1
2636.801	2845.1
2640.394	2794.1
2643.983	2875.1
2647.57	2868.1
2651.153	2792.1
2654.734	2618.1
2658.311	2906.1
2661.885	2757.1
2665.456	2681.1
2669.025	2610.1
2672.589	2668.1
2676.151	2470.1
2679.71	2510.1
2683.266	2627.1
2686.819	2307.1
2690.368	2518.1
2693.915	2525.1
2697.458	2528.1
2700.999	2362.1
2704.536	2371.1
2708.071	2404.1
2711.602	2280.1
2715.13	2393.1
2718.656	2317.1
2722.178	2240.1
2725.697	2404.1
2729.214	2051.1
2732.727	2151.1
2736.237	2230.1
2739.744	2172.1
2743.249	2272.1
2746.75	2263.1
2750.248	2350.1
2753.743	2322.1
2757.236	2326.1
2760.725	2237.1
2764.211	2541.1
2767.695	2327.1
2771.175	2278.1
2774.652	2308.1
2778.127	2294.1
2781.598	2226.1
2785.067	2317.1
2788.532	2335.1
2791.995	2304.1
2795.455	2280.1
2798.911	2316.1
2802.365	2383.1
2805.816	2209.1
2809.264	2216.1
2812.709	2351.1
2816.151	2206.1
2819.59	2427.1
2823.026	2454.1
2826.46	2429.1
2829.89	2375.1
2833.318	2632.1
2836.742	2311.1
2840.164	2389.1
2843.583	2510.1
2846.999	2452.1
2850.412	2405.1
2853.822	2793.1
2857.229	2354.1
2860.634	2439.1
2864.035	2529.1
2867.434	2391.1
2870.83	2454.1
2874.223	2539.1
2877.613	2495.1
2881	2714.1
2884.385	2767.1
2887.766	2651.1
2891.145	2622.1
2894.521	2764.1
2897.894	2805.1
2901.264	2395.1
2904.631	2761.1
2907.996	2700.1
2911.358	2703.1
2914.717	2786.1
2918.073	2771.1
2921.426	2795.1
2924.777	2906.1
2928.124	2877.1
2931.469	2681.1
2934.811	3048.1
2938.15	2804.1
2941.487	2917.1
2944.821	2592.1
2948.152	2995.1
2951.48	2979.1
2954.805	2921.1
2958.128	2810.1
2961.447	2977.1
2964.765	2813.1
2968.079	3048.1
2971.39	2956.1
2974.699	3016.1
2978.005	2988.1
2981.308	2954.1
2984.609	3219.1
2987.907	3033.1
2991.202	3150.1
2994.494	3189.1
2997.784	2817.1
3001.07	3105.1
3004.355	3273.1
3007.636	3303.1
3010.915	3306.1
3014.191	3369.1
3017.464	3413.1
3020.734	3336.1
3024.002	3475.1
3027.267	3611.1
3030.53	3523.1
3033.789	3654.1
3037.046	3764.1
3040.301	3742.1
3043.552	3867.1
3046.801	3955.1
3050.048	3687.1
3053.291	3698.1
3056.532	3933.1
3059.771	4153.1
3063.006	4133.1
3066.239	4126.1
3069.469	4237.1
3072.697	4582.1
3075.922	4569.1
3079.144	4653.1
3082.364	4653.1
3085.581	4972.1
3088.795	4632.1
3092.007	4966.1
3095.216	5177.1
3098.423	5465.1
3101.627	5633.1
3104.828	5632.1
3108.026	5752.1
3111.222	5763.1
3114.416	5776.1
3117.607	6038.1
3120.795	6072.1
3123.98	6206.1
3127.163	6453.1
3130.344	6401.1
3133.521	6569.1
3136.696	6482.1
3139.869	6716.1
3143.039	6860.1
3146.206	6824.1
3149.371	7101.1
3152.533	7218.1
3155.693	7341.1
3158.85	7464.1
3162.005	7424.1
3165.157	7596.1
3168.306	7639.1
3171.453	7484.1
3174.597	7889.1
3177.739	7816.1
3180.878	7718.1
3184.014	7720.1
3187.149	7769.1
3190.28	7667.1
3193.409	7649.1
3196.536	7600.1
3199.659	7609.1
3202.781	7605.1
3205.9	7812.1
3209.016	7613.1
3212.13	7621.1
3215.241	7618.1
3218.35	7666.1
3221.456	7772.1
3224.56	7865.1
3227.661	7788.1
3230.76	7893.1
3233.856	7907.1
3236.95	7755.1
3240.041	7830.1
3243.13	7569.1
3246.216	7719.1
3249.3	7507.1
3252.382	7504.1
3255.46	7669.1
3258.537	6966.1
3261.611	7570.1
3264.682	7353.1
3267.751	7337.1
3270.818	7454.1
3273.882	7161.1
3276.943	7060.1
3280.002	7039.1
3283.059	6986.1
3286.113	7040.1
3289.165	7090.1
3292.214	6971.1
3295.261	6815.1
3298.306	6986.1
3301.348	6783.1
3304.387	6674.1
3307.425	6539.1
3310.459	6614.1
3313.492	6313.1
3316.521	6307.1
3319.549	6174.1
3322.574	6140.1
3325.597	6053.1
3328.617	6074.1
3331.635	5922.1
3334.65	6030.1
3337.663	5804.1
3340.674	5879.1
3343.682	5711.1
3346.688	5810.1
3349.691	5806.1
3352.692	5902.1
3355.691	5676.1
3358.687	5620.1
3361.681	5620.1
3364.673	5635.1
3367.662	5609.1
3370.649	5473.1
3373.633	5608.1
3376.615	5394.1
3379.595	5653.1
3382.572	5411.1
3385.547	5427.1
3388.52	5478.1
3391.49	5345.1
3394.458	5326.1
3397.424	5112.1
3400.387	5224.1
3403.348	4835.1
3406.307	4986.1
3409.263	4950.1
3412.217	4708.1
3415.168	4841.1
3418.118	4747.1
3421.065	4631.1
3424.009	4444.1
3426.951	4670.1
3429.891	4577.1
3432.829	4460.1
3435.764	4413.1
3438.697	4445.1
3441.628	4080.1
3444.557	4268.1
3447.483	4326.1
3450.407	4060.1
3453.328	3908.1
3456.247	4036.1
3459.164	4063.1
3462.079	3711.1
3464.991	3654.1
3467.902	3568.1
3470.809	3540.1
3473.715	3397.1
3476.618	3329.1
3479.519	3230.1
3482.418	3412.1
3485.315	3190.1
3488.209	3085.1
3491.101	2899.1
3493.99	3103.1
3496.878	2665.1
3499.763	2751.1
3502.646	2630.1
3505.527	2798.1
3508.405	2626.1
3511.281	2484.1
3514.155	2541.1
3517.027	2514.1
3519.897	2575.1
3522.764	2311.1
3525.629	2405.1
3528.492	2233.1
3531.352	2272.1
3534.211	2053.1
3537.067	2181.1
3539.921	2055.1
3542.773	1894.1
3545.622	1954.1
3548.469	1947.1
3551.315	1855.1
3554.157	1683.1
3556.998	1648.1
3559.837	1518.1
3562.673	1453.1
3565.507	1552.1
3568.339	1398.1
3571.169	1508.1
3573.996	1427.1
3576.822	1340.1
3579.645	1433.1
3582.466	1314.1
3585.285	1231.1
3588.101	1182.1
3590.916	1230.1
3593.728	1170.1
3596.538	1217.1
3599.346	1082.1
3602.152	1209.1
3604.956	1137.1
3607.757	944.1
3610.556	1167.1
3613.354	986.1
3616.149	905.1
3618.942	957.1
3621.732	725.1
3624.521	974.1
3627.307	935.1
3630.092	733.1
3632.874	700.1
3635.654	856.1
3638.432	963.1
3641.208	756.1
3643.982	780.1
3646.753	715.1
3649.523	840.1
3652.29	795.1
3655.055	797.1
3657.818	648.1
3660.579	613.1
3663.338	824.1
3666.095	602.1
3668.849	794.1
3671.602	624.1
3674.352	825.1
3677.101	644.1
3679.847	420.1
3682.591	695.1
3685.333	704.1
3688.073	538.1
3690.811	616.1
3693.547	558.1
3696.281	508.1
3699.013	483.1
3701.742	513.1
3704.47	646.1
3707.195	471.1
3709.919	473.1
3712.64	502.1
3715.359	458.1
3718.076	209.1
3720.792	574.1
3723.505	409.1
3726.216	292.1
3728.925	592.1
3731.632	335.1
3734.336	566.1
3737.039	441.1
3739.74	461.1
3742.439	554.1
3745.136	429.1
3747.83	387.1
3750.523	397.1
3753.213	131.1
3755.902	384.1
3758.589	600.1
3761.273	538.1
3763.956	246.1
3766.636	534.1
3769.315	216.1
3771.991	527.1
3774.665	372.1
3777.338	540.1
3780.008	418.1
3782.677	203.1
3785.343	578.1
3788.007	784.1
3790.67	337.1
3793.33	320.1
3795.989	397.1
3798.645	338.1
3801.299	568.1
3803.952	342.1
3806.602	280.1
3809.251	382.1
3811.897	382.1
3814.542	451.1
3817.184	380.1
3819.825	391.1
3822.463	37.1
3825.1	404.1
3827.735	410.1
3830.367	382.1
3832.998	196.1
3835.627	267.1
3838.253	283.1
3840.878	193.1
3843.501	194.1
3846.122	250.1
3848.741	236.1
3851.358	296.1
3853.973	587.1
3856.586	360.1
3859.197	281.1
3861.806	379.1
3864.414	440.1
3867.019	402.1
3869.622	273.1
3872.224	311.1
3874.823	378.1
3877.421	409.1
3880.016	466.1
3882.61	544.1
3885.202	493.1
3887.792	490.1
3890.38	231.1
3892.966	443.1
3895.55	360.1
3898.132	397.1
3900.713	278.1
3903.291	334.1
3905.868	456.1
3908.442	292.1
3911.015	279.1
3913.586	354.1
3916.155	355.1
3918.722	441.1
3921.287	355.1
3923.85	140.1
3926.411	222.1
3928.971	246.1
3931.528	343.1
3934.084	351.1
3936.638	345.1
3939.19	266.1
3941.74	339.1
3944.288	249.1
3946.834	318.1
3949.378	264.1
3951.921	444.1
3954.462	358.1
3957	288.1
3959.537	367.1
3962.072	433.1
3964.606	535.1
3967.137	211.1
3969.667	295.1
3972.194	347.1
3974.72	314.1
3977.244	441.1
3979.766	234.1
3982.286	478.1
3984.805	229.1
3987.321	160.1
3989.836	265.1
3992.349	389.1
3994.86	364.1
3997.369	289.1
3999.877	307.1
4002.382	335.1
4004.886	342.1
4007.388	373.1
4009.888	428.1
4012.386	290.1
4014.883	286.1
4017.377	332.1
4019.87	209.1
4022.361	416.1
4024.85	421.1
4027.338	254.1
4029.823	238.1
4032.307	356.1
4034.789	372.1
4037.269	380.1
4039.747	417.1
4042.224	310.1
4044.699	405.1
4047.172	356.1
4049.643	244.1
4052.112	422.1
4054.58	383.1
4057.046	334.1
4059.51	370.1
4061.972	280.1
4064.432	481.1
4066.891	197.1
4069.348	364.1
4071.803	215.1
4074.256	300.1
4076.708	307.1
4079.158	393.1
4081.606	134.1
4084.052	328.1
4086.497	122.1
4088.939	409.1
4091.38	404.1
4093.819	304.1
4096.257	-1477.9
4098.693	-1593.9
4101.127	-1610.9
4103.559	-1658.9
4105.989	510.1
4108.418	549.1
4110.845	765.1
4113.27	617.1
4115.694	716.1
4118.115	737.1
4120.535	240.1
4122.954	176.1
4125.37	112.1
4127.785	277.1
4130.198	272.1
4132.609	232.1
4135.019	-1715.9
4137.427	-1590.9
4139.833	-1562.9
4142.237	-1295.9
