Data from 2018-2-8_conc=6_RamanShift_08.txt Node
Date: Wed Feb 07 11:27:10 IST 2018
User: aro
Spectrometer: QEPB0276
Trigger mode: 0
Integration Time (sec): 3.000000E1
Scans to average: 1
Electric dark correction enabled: true
Nonlinearity correction enabled: false
Boxcar width: 0
XAxis mode: Raman Shifts
Number of Pixels in Spectrum: 1044
>>>>>Begin Spectral Data<<<<<
160.701	793
166.742	876
172.777	1375
178.805	2945
184.826	6434
190.841	12392
196.849	19747
202.85	25171
208.845	27171
214.833	27012
220.815	26656
226.789	26639
232.758	26464
238.719	26442
244.674	26227
250.623	25787
256.565	25377
262.5	24905
268.429	24300
274.351	24127
280.267	23907
286.176	23382
292.079	23143
297.975	22852
303.865	22648
309.748	22541
315.625	22459
321.495	21905
327.359	21970
333.217	22008
339.068	21904
344.912	21944
350.751	21930
356.583	21714
362.408	21831
368.227	21821
374.04	21985
379.847	22014
385.647	22107
391.44	22422
397.228	22314
403.009	22550
408.784	22511
414.553	22787
420.315	22748
426.071	22917
431.821	22854
437.565	22863
443.302	22598
449.033	22637
454.758	22474
460.477	22370
466.189	22247
471.896	22149
477.596	21981
483.29	22072
488.978	22119
494.66	22098
500.335	22044
506.005	21966
511.668	21698
517.325	21556
522.977	21288
528.622	21364
534.261	21137
539.894	21158
545.521	21020
551.141	20913
556.756	20668
562.365	20532
567.968	20335
573.565	20302
579.155	20093
584.74	20061
590.319	19832
595.892	19821
601.459	19743
607.02	19840
612.575	19925
618.124	19609
623.667	19825
629.204	19768
634.735	19782
640.261	19602
645.781	19857
651.294	19582
656.802	19330
662.304	19182
667.8	18816
673.29	18999
678.775	18833
684.254	18881
689.726	18889
695.193	18720
700.655	18775
706.11	18945
711.56	18727
717.004	18717
722.442	19037
727.874	18711
733.301	18839
738.722	18876
744.137	18685
749.547	18507
754.951	18460
760.349	18256
765.741	18037
771.128	18132
776.509	18098
781.885	18008
787.254	17964
792.618	18104
797.977	18323
803.33	18243
808.677	18404
814.019	18228
819.355	18316
824.686	18362
830.011	18281
835.33	17972
840.644	17733
845.952	17829
851.255	17447
856.552	17438
861.844	17319
867.13	17222
872.41	17240
877.686	17093
882.955	17151
888.219	17281
893.478	17394
898.731	17197
903.979	17190
909.221	17226
914.458	17171
919.69	17009
924.916	16890
930.136	16611
935.351	16501
940.561	16294
945.766	16245
950.965	15865
956.158	16164
961.347	16227
966.529	16180
971.707	16152
976.879	16173
982.046	16161
987.208	16256
992.364	16067
997.515	15986
1002.66	15803
1007.801	15960
1012.936	16007
1018.066	15937
1023.19	15692
1028.309	15569
1033.423	15703
1038.532	15763
1043.636	16050
1048.734	15925
1053.827	16114
1058.915	16169
1063.998	15866
1069.075	15787
1074.147	15416
1079.214	15556
1084.276	15206
1089.333	15145
1094.385	15089
1099.431	15150
1104.472	15047
1109.509	15257
1114.54	15207
1119.565	15425
1124.586	15301
1129.602	15278
1134.613	15300
1139.618	15164
1144.619	14920
1149.614	14715
1154.604	14607
1159.589	14580
1164.57	14317
1169.545	14215
1174.515	14308
1179.48	14419
1184.44	14525
1189.395	14649
1194.345	14751
1199.29	14750
1204.23	14850
1209.165	14748
1214.095	14650
1219.021	14455
1223.941	14471
1228.856	14529
1233.766	14419
1238.672	14277
1243.572	14236
1248.467	14332
1253.358	14442
1258.244	14520
1263.124	14332
1268	14204
1272.871	14229
1277.737	14161
1282.599	13939
1287.455	13845
1292.306	13558
1297.153	13641
1301.995	13300
1306.832	13237
1311.664	13253
1316.491	13301
1321.314	13281
1326.132	13215
1330.945	13192
1335.753	13027
1340.556	12907
1345.354	12844
1350.148	12459
1354.937	12436
1359.722	12399
1364.501	12200
1369.276	11938
1374.046	11987
1378.811	12312
1383.572	12280
1388.327	11916
1393.079	12453
1397.825	12539
1402.567	12415
1407.304	12404
1412.036	12462
1416.764	12294
1421.487	12520
1426.205	12220
1430.919	12022
1435.628	11895
1440.333	11758
1445.032	11630
1449.727	11528
1454.418	11579
1459.104	11535
1463.785	11356
1468.462	11437
1473.134	11338
1477.802	11170
1482.465	11347
1487.123	10818
1491.777	11070
1496.426	10960
1501.071	10734
1505.711	10739
1510.347	10802
1514.978	10881
1519.604	11053
1524.226	11083
1528.844	11405
1533.457	11244
1538.065	11448
1542.669	11419
1547.269	11618
1551.864	11466
1556.454	11654
1561.041	11582
1565.622	11606
1570.199	11290
1574.772	11259
1579.34	10935
1583.904	11141
1588.464	11162
1593.019	11063
1597.569	11299
1602.115	11050
1606.657	11275
1611.195	11293
1615.728	11369
1620.256	11564
1624.78	11599
1629.3	11460
1633.816	11314
1638.327	11326
1642.834	11041
1647.336	11099
1651.834	11011
1656.328	11113
1660.817	10984
1665.302	11092
1669.783	11035
1674.259	10776
1678.732	10476
1683.199	10249
1687.663	10209
1692.122	9784
1696.577	9581
1701.028	9549
1705.474	9490
1709.917	9444
1714.355	9420
1718.788	9238
1723.218	9169
1727.643	8929
1732.064	8784
1736.481	8823
1740.893	8655
1745.301	8462
1749.705	8636
1754.105	8034
1758.501	8088
1762.893	7762
1767.28	7648
1771.663	7520
1776.042	7317
1780.417	7277
1784.787	7053
1789.154	7135
1793.516	7257
1797.874	7270
1802.228	7443
1806.578	7661
1810.924	7396
1815.266	8657
1819.603	7459
1823.937	7524
1828.266	7413
1832.591	7379
1836.913	7322
1841.23	7305
1845.543	7340
1849.852	7114
1854.156	7063
1858.457	7012
1862.754	6825
1867.047	6939
1871.335	6730
1875.62	6719
1879.9	6626
1884.177	6908
1888.449	6708
1892.718	6703
1896.982	6578
1901.243	6843
1905.499	6728
1909.752	6612
1914	6804
1918.245	6587
1922.485	6624
1926.722	6636
1930.954	6658
1935.183	6659
1939.408	6639
1943.628	6696
1947.845	6718
1952.058	6845
1956.267	6677
1960.472	6644
1964.673	6674
1968.87	6828
1973.063	6742
1977.252	6574
1981.438	6534
1985.619	6437
1989.797	6290
1993.971	6321
1998.14	6104
2002.306	6180
2006.469	6146
2010.627	6054
2014.781	6110
2018.932	6118
2023.078	5817
2027.221	5887
2031.36	5948
2035.495	5865
2039.627	5962
2043.754	5822
2047.878	5756
2051.998	5764
2056.114	5769
2060.226	5748
2064.334	5636
2068.439	5503
2072.54	5523
2076.637	5764
2080.73	5643
2084.82	5621
2088.906	5628
2092.988	5544
2097.066	5789
2101.14	5563
2105.211	5645
2109.278	5635
2113.342	5695
2117.401	5868
2121.457	5778
2125.509	5730
2129.558	5442
2133.602	5509
2137.643	5504
2141.681	5423
2145.714	5382
2149.744	5297
2153.77	5321
2157.793	5326
2161.812	5438
2165.827	5414
2169.838	5028
2173.846	5195
2177.851	5131
2181.851	5025
2185.848	5181
2189.841	4979
2193.831	5038
2197.817	4786
2201.799	4834
2205.778	4891
2209.753	4848
2213.725	4772
2217.693	4732
2221.657	4773
2225.618	4629
2229.575	4675
2233.529	4568
2237.479	4582
2241.425	4557
2245.368	4777
2249.307	4655
2253.243	4609
2257.175	4656
2261.104	4506
2265.029	4420
2268.95	4347
2272.868	4298
2276.783	4325
2280.694	4096
2284.601	4076
2288.505	4125
2292.405	3989
2296.302	4124
2300.195	3994
2304.085	4153
2307.971	3929
2311.854	4026
2315.734	3898
2319.609	3895
2323.482	4042
2327.351	3864
2331.216	3817
2335.078	3814
2338.937	3914
2342.792	3838
2346.643	3763
2350.492	3730
2354.336	3788
2358.178	3707
2362.015	3705
2365.85	3847
2369.681	3801
2373.508	3722
2377.333	3576
2381.153	3817
2384.971	3840
2388.785	3726
2392.595	3756
2396.402	3836
2400.206	3880
2404.007	3807
2407.804	3704
2411.597	3627
2415.388	3782
2419.174	3682
2422.958	3623
2426.738	3603
2430.515	3511
2434.289	3594
2438.059	3595
2441.825	3607
2445.589	3332
2449.349	3566
2453.106	3343
2456.859	3400
2460.61	3315
2464.356	3372
2468.1	3331
2471.84	3397
2475.577	3351
2479.311	3329
2483.041	3236
2486.768	3092
2490.492	2913
2494.213	3194
2497.93	3241
2501.644	3257
2505.355	3265
2509.062	3091
2512.766	3231
2516.467	3145
2520.165	3171
2523.859	3243
2527.551	2900
2531.239	3147
2534.923	3175
2538.605	3157
2542.283	2986
2545.958	3111
2549.63	2961
2553.299	2947
2556.964	2885
2560.626	3058
2564.285	2924
2567.941	3076
2571.594	2992
2575.243	2870
2578.89	3044
2582.533	3054
2586.173	3010
2589.809	2902
2593.443	3243
2597.073	3007
2600.701	2860
2604.325	2918
2607.946	2947
2611.564	2900
2615.178	2739
2618.79	2815
2622.398	2925
2626.004	2873
2629.606	2714
2633.205	2981
2636.801	2778
2640.394	2721
2643.983	2748
2647.57	2737
2651.153	2684
2654.734	2528
2658.311	2832
2661.885	2640
2665.456	2613
2669.025	2573
2672.589	2532
2676.151	2398
2679.71	2344
2683.266	2557
2686.819	2206
2690.368	2359
2693.915	2212
2697.458	2445
2700.999	2274
2704.536	2254
2708.071	2241
2711.602	2220
2715.13	2264
2718.656	2287
2722.178	2123
2725.697	2270
2729.214	1984
2732.727	2034
2736.237	2147
2739.744	2104
2743.249	2225
2746.75	2217
2750.248	2230
2753.743	2202
2757.236	2137
2760.725	2161
2764.211	2375
2767.695	2185
2771.175	2220
2774.652	2157
2778.127	2168
2781.598	2146
2785.067	2209
2788.532	2188
2791.995	2111
2795.455	2154
2798.911	2201
2802.365	2327
2805.816	2132
2809.264	2057
2812.709	2216
2816.151	2175
2819.59	2287
2823.026	2261
2826.46	2280
2829.89	2246
2833.318	2489
2836.742	2179
2840.164	2230
2843.583	2351
2846.999	2337
2850.412	2274
2853.822	2447
2857.229	2189
2860.634	2310
2864.035	2443
2867.434	2266
2870.83	2348
2874.223	2437
2877.613	2320
2881	2528
2884.385	2614
2887.766	2520
2891.145	2498
2894.521	2617
2897.894	2680
2901.264	2344
2904.631	2532
2907.996	2558
2911.358	2557
2914.717	2583
2918.073	2578
2921.426	2561
2924.777	2722
2928.124	2685
2931.469	2501
2934.811	2873
2938.15	2661
2941.487	2759
2944.821	2428
2948.152	2795
2951.48	2740
2954.805	2759
2958.128	2596
2961.447	2746
2964.765	2626
2968.079	2850
2971.39	2800
2974.699	2796
2978.005	2771
2981.308	2808
2984.609	3012
2987.907	2852
2991.202	2982
2994.494	2993
2997.784	2624
3001.07	2899
3004.355	3003
3007.636	3054
3010.915	3098
3014.191	3121
3017.464	3172
3020.734	3057
3024.002	3209
3027.267	3345
3030.53	3333
3033.789	3350
3037.046	3490
3040.301	3479
3043.552	3511
3046.801	3709
3050.048	3478
3053.291	3399
3056.532	3582
3059.771	3864
3063.006	3822
3066.239	3888
3069.469	3903
3072.697	4237
3075.922	4271
3079.144	4300
3082.364	4294
3085.581	4581
3088.795	4309
3092.007	4650
3095.216	4858
3098.423	5108
3101.627	5197
3104.828	5184
3108.026	5357
3111.222	5339
3114.416	5340
3117.607	5549
3120.795	5614
3123.98	5792
3127.163	5991
3130.344	5975
3133.521	6153
3136.696	6055
3139.869	6269
3143.039	6338
3146.206	6288
3149.371	6532
3152.533	6690
3155.693	6846
3158.85	6882
3162.005	6903
3165.157	7065
3168.306	7096
3171.453	6992
3174.597	7249
3177.739	7287
3180.878	7131
3184.014	7089
3187.149	7186
3190.28	7165
3193.409	7046
3196.536	7038
3199.659	7031
3202.781	6961
3205.9	7214
3209.016	7063
3212.13	7089
3215.241	7012
3218.35	7086
3221.456	7088
3224.56	7282
3227.661	7206
3230.76	7320
3233.856	7253
3236.95	7168
3240.041	7281
3243.13	7013
3246.216	7072
3249.3	6955
3252.382	6911
3255.46	7044
3258.537	7499
3261.611	6937
3264.682	6781
3267.751	6733
3270.818	6866
3273.882	6607
3276.943	6563
3280.002	6458
3283.059	6501
3286.113	6509
3289.165	6570
3292.214	6463
3295.261	6217
3298.306	6458
3301.348	6237
3304.387	6196
3307.425	6087
3310.459	6075
3313.492	5751
3316.521	5785
3319.549	5671
3322.574	5673
3325.597	5607
3328.617	5592
3331.635	5495
3334.65	5545
3337.663	5398
3340.674	5443
3343.682	5279
3346.688	5333
3349.691	5316
3352.692	5476
3355.691	5180
3358.687	5196
3361.681	5243
3364.673	5256
3367.662	5123
3370.649	4994
3373.633	5174
3376.615	4995
3379.595	5219
3382.572	4974
3385.547	4978
3388.52	5055
3391.49	4927
3394.458	4851
3397.424	4742
3400.387	4829
3403.348	4474
3406.307	4558
3409.263	4653
3412.217	4366
3415.168	4444
3418.118	4340
3421.065	4346
3424.009	4117
3426.951	4229
3429.891	4242
3432.829	4148
3435.764	4070
3438.697	4124
3441.628	3820
3444.557	3941
3447.483	3970
3450.407	3654
3453.328	3573
3456.247	3714
3459.164	3763
3462.079	3434
3464.991	3396
3467.902	3252
3470.809	3275
3473.715	3142
3476.618	3081
3479.519	2905
3482.418	3115
3485.315	2947
3488.209	2833
3491.101	2607
3493.99	2787
3496.878	2471
3499.763	2492
3502.646	2328
3505.527	2521
3508.405	2386
3511.281	2270
3514.155	2313
3517.027	2220
3519.897	2382
3522.764	2102
3525.629	2195
3528.492	1995
3531.352	1869
3534.211	1856
3537.067	1999
3539.921	1882
3542.773	1765
3545.622	1748
3548.469	1754
3551.315	1718
3554.157	1534
3556.998	1486
3559.837	1409
3562.673	1272
3565.507	1499
3568.339	1254
3571.169	1364
3573.996	1267
3576.822	1220
3579.645	1300
3582.466	1200
3585.285	1092
3588.101	1115
3590.916	1160
3593.728	1055
3596.538	1086
3599.346	937
3602.152	1099
3604.956	1029
3607.757	805
3610.556	994
3613.354	931
3616.149	854
3618.942	833
3621.732	626
3624.521	902
3627.307	807
3630.092	638
3632.874	631
3635.654	722
3638.432	880
3641.208	729
3643.982	763
3646.753	664
3649.523	733
3652.29	698
3655.055	670
3657.818	569
3660.579	562
3663.338	752
3666.095	534
3668.849	704
3671.602	508
3674.352	724
3677.101	521
3679.847	367
3682.591	574
3685.333	549
3688.073	439
3690.811	592
3693.547	436
3696.281	486
3699.013	420
3701.742	394
3704.47	609
3707.195	414
3709.919	415
3712.64	401
3715.359	348
3718.076	159
3720.792	506
3723.505	416
3726.216	292
3728.925	466
3731.632	294
3734.336	461
3737.039	323
3739.74	397
3742.439	530
3745.136	311
3747.83	297
3750.523	334
3753.213	-295
3755.902	302
3758.589	484
3761.273	391
3763.956	169
3766.636	470
3769.315	110
3771.991	439
3774.665	293
3777.338	501
3780.008	383
3782.677	98
3785.343	469
3788.007	695
3790.67	294
3793.33	283
3795.989	328
3798.645	259
3801.299	480
3803.952	270
3806.602	244
3809.251	271
3811.897	339
3814.542	348
3817.184	363
3819.825	379
3822.463	-42
3825.1	305
3827.735	367
3830.367	309
3832.998	142
3835.627	248
3838.253	209
3840.878	101
3843.501	142
3846.122	182
3848.741	129
3851.358	225
3853.973	485
3856.586	257
3859.197	195
3861.806	276
3864.414	392
3867.019	309
3869.622	229
3872.224	202
3874.823	386
3877.421	352
3880.016	406
3882.61	491
3885.202	442
3887.792	414
3890.38	220
3892.966	391
3895.55	307
3898.132	284
3900.713	151
3903.291	331
3905.868	341
3908.442	246
3911.015	186
3913.586	246
3916.155	253
3918.722	342
3921.287	238
3923.85	70
3926.411	213
3928.971	189
3931.528	225
3934.084	255
3936.638	278
3939.19	220
3941.74	285
3944.288	183
3946.834	238
3949.378	175
3951.921	418
3954.462	283
3957	315
3959.537	270
3962.072	390
3964.606	434
3967.137	89
3969.667	236
3972.194	307
3974.72	336
3977.244	427
3979.766	172
3982.286	399
3984.805	228
3987.321	142
3989.836	189
3992.349	334
3994.86	264
3997.369	239
3999.877	133
4002.382	252
4004.886	211
4007.388	237
4009.888	396
4012.386	261
4014.883	216
4017.377	306
4019.87	167
4022.361	342
4024.85	370
4027.338	346
4029.823	196
4032.307	265
4034.789	318
4037.269	322
4039.747	313
4042.224	247
4044.699	314
4047.172	314
4049.643	147
4052.112	309
4054.58	278
4057.046	295
4059.51	335
4061.972	257
4064.432	410
4066.891	169
4069.348	292
4071.803	209
4074.256	214
4076.708	267
4079.158	346
4081.606	107
4084.052	299
4086.497	221
4088.939	365
4091.38	356
4093.819	238
4096.257	-1426
4098.693	-1505
4101.127	-1554
4103.559	-1604
4105.989	456
4108.418	453
4110.845	697
4113.27	486
4115.694	664
4118.115	695
4120.535	195
4122.954	144
4125.37	84
4127.785	227
4130.198	199
4132.609	223
4135.019	-1629
4137.427	-1534
4139.833	-1524
4142.237	-1302
