Data from 2018-2-8_conc=5_RamanShift_13.txt Node
Date: Wed Feb 07 11:06:40 IST 2018
User: aro
Spectrometer: QEPB0276
Trigger mode: 0
Integration Time (sec): 3.000000E1
Scans to average: 1
Electric dark correction enabled: true
Nonlinearity correction enabled: false
Boxcar width: 0
XAxis mode: Raman Shifts
Number of Pixels in Spectrum: 1044
>>>>>Begin Spectral Data<<<<<
160.701	645.6
166.742	745.6
172.777	1279.6
178.805	2807.6
184.826	6299.6
190.841	12268.6
196.849	19646.6
202.85	25056.6
208.845	27075.6
214.833	26826.6
220.815	26532.6
226.789	25162.6
232.758	26319.6
238.719	26268.6
244.674	25976.6
250.623	25516.6
256.565	25065.6
262.5	24701.6
268.429	24091.6
274.351	23780.6
280.267	23699.6
286.176	23132.6
292.079	22859.6
297.975	22611.6
303.865	22328.6
309.748	22291.6
315.625	22053.6
321.495	21653.6
327.359	21664.6
333.217	21686.6
339.068	21723.6
344.912	21623.6
350.751	21520.6
356.583	21464.6
362.408	21522.6
368.227	21570.6
374.04	21633.6
379.847	21705.6
385.647	21738.6
391.44	22093.6
397.228	22059.6
403.009	22260.6
408.784	22197.6
414.553	22476.6
420.315	22531.6
426.071	22583.6
431.821	22531.6
437.565	22517.6
443.302	22260.6
449.033	22264.6
454.758	22251.6
460.477	22102.6
466.189	21993.6
471.896	21873.6
477.596	21697.6
483.29	21820.6
488.978	21823.6
494.66	21797.6
500.335	21721.6
506.005	21628.6
511.668	21408.6
517.325	21314.6
522.977	21054.6
528.622	21110.6
534.261	20880.6
539.894	20815.6
545.521	20763.6
551.141	20776.6
556.756	20336.6
562.365	20317.6
567.968	20158.6
573.565	20033.6
579.155	19825.6
584.74	19855.6
590.319	19698.6
595.892	19702.6
601.459	19560.6
607.02	19568.6
612.575	19662.6
618.124	19461.6
623.667	19663.6
629.204	19526.6
634.735	19600.6
640.261	19491.6
645.781	19569.6
651.294	19431.6
656.802	19079.6
662.304	19002.6
667.8	18726.6
673.29	18817.6
678.775	18656.6
684.254	18640.6
689.726	18708.6
695.193	18547.6
700.655	18609.6
706.11	18662.6
711.56	18543.6
717.004	18633.6
722.442	18853.6
727.874	18560.6
733.301	18591.6
738.722	18651.6
744.137	18422.6
749.547	18317.6
754.951	18332.6
760.349	18115.6
765.741	17986.6
771.128	17987.6
776.509	17980.6
781.885	17866.6
787.254	17914.6
792.618	18045.6
797.977	18166.6
803.33	18165.6
808.677	18286.6
814.019	18135.6
819.355	18189.6
824.686	18107.6
830.011	18144.6
835.33	17931.6
840.644	17700.6
845.952	17755.6
851.255	17431.6
856.552	17468.6
861.844	17290.6
867.13	17172.6
872.41	17175.6
877.686	17088.6
882.955	17148.6
888.219	17222.6
893.478	17383.6
898.731	17118.6
903.979	17116.6
909.221	17200.6
914.458	17095.6
919.69	16921.6
924.916	16843.6
930.136	16595.6
935.351	16463.6
940.561	16181.6
945.766	16192.6
950.965	15997.6
956.158	16177.6
961.347	16172.6
966.529	16134.6
971.707	16030.6
976.879	16016.6
982.046	16189.6
987.208	16284.6
992.364	16004.6
997.515	15971.6
1002.66	15820.6
1007.801	15926.6
1012.936	15851.6
1018.066	15940.6
1023.19	15725.6
1028.309	15648.6
1033.423	15764.6
1038.532	15800.6
1043.636	16013.6
1048.734	15966.6
1053.827	16012.6
1058.915	16060.6
1063.998	15862.6
1069.075	15702.6
1074.147	15457.6
1079.214	15545.6
1084.276	15162.6
1089.333	15235.6
1094.385	15105.6
1099.431	15149.6
1104.472	15016.6
1109.509	15215.6
1114.54	15304.6
1119.565	15464.6
1124.586	15366.6
1129.602	15299.6
1134.613	15293.6
1139.618	15196.6
1144.619	14949.6
1149.614	14799.6
1154.604	14634.6
1159.589	14562.6
1164.57	14288.6
1169.545	14347.6
1174.515	14443.6
1179.48	14509.6
1184.44	14571.6
1189.395	14662.6
1194.345	14838.6
1199.29	14740.6
1204.23	14924.6
1209.165	14846.6
1214.095	14680.6
1219.021	14558.6
1223.941	14523.6
1228.856	14582.6
1233.766	14458.6
1238.672	14352.6
1243.572	14400.6
1248.467	14378.6
1253.358	14512.6
1258.244	14553.6
1263.124	14423.6
1268	14275.6
1272.871	14278.6
1277.737	14283.6
1282.599	14044.6
1287.455	13919.6
1292.306	13666.6
1297.153	13676.6
1301.995	13451.6
1306.832	13449.6
1311.664	13455.6
1316.491	13500.6
1321.314	13398.6
1326.132	13412.6
1330.945	13313.6
1335.753	13135.6
1340.556	13046.6
1345.354	12881.6
1350.148	12660.6
1354.937	12497.6
1359.722	12467.6
1364.501	12227.6
1369.276	12124.6
1374.046	12213.6
1378.811	12317.6
1383.572	12375.6
1388.327	12184.6
1393.079	12660.6
1397.825	12743.6
1402.567	12638.6
1407.304	12546.6
1412.036	12556.6
1416.764	12332.6
1421.487	12720.6
1426.205	12382.6
1430.919	12186.6
1435.628	12006.6
1440.333	11870.6
1445.032	11791.6
1449.727	11679.6
1454.418	11794.6
1459.104	11716.6
1463.785	11575.6
1468.462	11573.6
1473.134	11521.6
1477.802	11338.6
1482.465	11475.6
1487.123	11098.6
1491.777	11197.6
1496.426	11142.6
1501.071	11015.6
1505.711	11069.6
1510.347	11005.6
1514.978	11166.6
1519.604	11273.6
1524.226	11420.6
1528.844	11736.6
1533.457	11501.6
1538.065	11782.6
1542.669	11721.6
1547.269	11793.6
1551.864	11702.6
1556.454	11905.6
1561.041	11760.6
1565.622	11776.6
1570.199	11459.6
1574.772	11454.6
1579.34	11184.6
1583.904	11337.6
1588.464	11363.6
1593.019	11334.6
1597.569	11511.6
1602.115	11527.6
1606.657	11598.6
1611.195	11542.6
1615.728	11557.6
1620.256	11665.6
1624.78	11745.6
1629.3	11711.6
1633.816	11498.6
1638.327	11499.6
1642.834	11522.6
1647.336	11389.6
1651.834	11249.6
1656.328	11314.6
1660.817	11168.6
1665.302	11302.6
1669.783	11227.6
1674.259	11137.6
1678.732	10789.6
1683.199	10565.6
1687.663	10454.6
1692.122	9961.6
1696.577	9752.6
1701.028	9809.6
1705.474	9752.6
1709.917	9651.6
1714.355	9796.6
1718.788	9568.6
1723.218	9478.6
1727.643	9223.6
1732.064	9042.6
1736.481	9116.6
1740.893	8854.6
1745.301	8717.6
1749.705	8834.6
1754.105	8362.6
1758.501	8352.6
1762.893	8018.6
1767.28	7964.6
1771.663	7707.6
1776.042	7504.6
1780.417	7415.6
1784.787	7187.6
1789.154	7283.6
1793.516	7390.6
1797.874	7517.6
1802.228	7739.6
1806.578	7833.6
1810.924	7765.6
1815.266	7914.6
1819.603	7818.6
1823.937	7823.6
1828.266	7721.6
1832.591	7610.6
1836.913	7495.6
1841.23	7514.6
1845.543	7511.6
1849.852	7314.6
1854.156	7303.6
1858.457	7200.6
1862.754	7020.6
1867.047	7164.6
1871.335	6993.6
1875.62	6874.6
1879.9	6907.6
1884.177	7091.6
1888.449	6951.6
1892.718	6962.6
1896.982	6853.6
1901.243	7055.6
1905.499	6940.6
1909.752	6843.6
1914	7073.6
1918.245	6863.6
1922.485	6865.6
1926.722	6885.6
1930.954	6961.6
1935.183	7014.6
1939.408	6977.6
1943.628	7014.6
1947.845	7020.6
1952.058	7063.6
1956.267	7071.6
1960.472	6950.6
1964.673	7000.6
1968.87	7038.6
1973.063	7066.6
1977.252	6843.6
1981.438	6791.6
1985.619	6683.6
1989.797	6652.6
1993.971	6519.6
1998.14	6333.6
2002.306	6363.6
2006.469	6368.6
2010.627	6318.6
2014.781	6289.6
2018.932	6341.6
2023.078	6099.6
2027.221	6026.6
2031.36	6161.6
2035.495	6155.6
2039.627	6082.6
2043.754	6042.6
2047.878	5944.6
2051.998	5983.6
2056.114	5969.6
2060.226	5940.6
2064.334	5832.6
2068.439	5744.6
2072.54	5722.6
2076.637	5947.6
2080.73	5892.6
2084.82	5797.6
2088.906	5854.6
2092.988	5767.6
2097.066	6084.6
2101.14	5835.6
2105.211	5968.6
2109.278	5964.6
2113.342	5970.6
2117.401	6121.6
2121.457	6005.6
2125.509	5913.6
2129.558	5717.6
2133.602	5805.6
2137.643	5750.6
2141.681	5681.6
2145.714	5638.6
2149.744	5561.6
2153.77	5615.6
2157.793	5547.6
2161.812	5613.6
2165.827	5522.6
2169.838	5260.6
2173.846	5341.6
2177.851	5315.6
2181.851	5193.6
2185.848	5416.6
2189.841	5139.6
2193.831	5212.6
2197.817	4967.6
2201.799	4986.6
2205.778	5027.6
2209.753	5064.6
2213.725	4949.6
2217.693	4941.6
2221.657	4916.6
2225.618	4812.6
2229.575	4867.6
2233.529	4756.6
2237.479	4772.6
2241.425	4742.6
2245.368	4898.6
2249.307	4765.6
2253.243	4761.6
2257.175	4786.6
2261.104	4637.6
2265.029	4572.6
2268.95	4536.6
2272.868	4423.6
2276.783	4532.6
2280.694	4271.6
2284.601	4227.6
2288.505	4203.6
2292.405	4060.6
2296.302	4192.6
2300.195	4071.6
2304.085	4227.6
2307.971	4027.6
2311.854	4144.6
2315.734	3967.6
2319.609	3998.6
2323.482	4174.6
2327.351	4025.6
2331.216	3944.6
2335.078	3882.6
2338.937	3976.6
2342.792	3899.6
2346.643	3841.6
2350.492	3878.6
2354.336	3840.6
2358.178	3743.6
2362.015	3776.6
2365.85	3936.6
2369.681	3896.6
2373.508	3813.6
2377.333	3725.6
2381.153	3885.6
2384.971	3883.6
2388.785	3818.6
2392.595	3924.6
2396.402	3892.6
2400.206	3982.6
2404.007	3950.6
2407.804	3807.6
2411.597	3679.6
2415.388	3828.6
2419.174	3760.6
2422.958	3684.6
2426.738	3676.6
2430.515	3568.6
2434.289	3659.6
2438.059	3694.6
2441.825	3676.6
2445.589	3414.6
2449.349	3616.6
2453.106	3449.6
2456.859	3473.6
2460.61	3402.6
2464.356	3471.6
2468.1	3409.6
2471.84	3479.6
2475.577	3436.6
2479.311	3370.6
2483.041	3301.6
2486.768	3180.6
2490.492	3003.6
2494.213	3228.6
2497.93	3354.6
2501.644	3339.6
2505.355	3391.6
2509.062	3195.6
2512.766	3253.6
2516.467	3254.6
2520.165	3232.6
2523.859	3366.6
2527.551	3041.6
2531.239	3237.6
2534.923	3242.6
2538.605	3256.6
2542.283	3247.6
2545.958	3241.6
2549.63	3136.6
2553.299	3073.6
2556.964	2918.6
2560.626	3173.6
2564.285	3022.6
2567.941	3139.6
2571.594	3117.6
2575.243	2977.6
2578.89	3174.6
2582.533	3098.6
2586.173	3111.6
2589.809	3038.6
2593.443	3273.6
2597.073	3097.6
2600.701	2946.6
2604.325	3022.6
2607.946	3078.6
2611.564	2944.6
2615.178	2798.6
2618.79	2848.6
2622.398	2915.6
2626.004	2965.6
2629.606	2810.6
2633.205	3052.6
2636.801	2835.6
2640.394	2756.6
2643.983	2779.6
2647.57	2788.6
2651.153	2719.6
2654.734	2632.6
2658.311	2845.6
2661.885	2682.6
2665.456	2708.6
2669.025	2596.6
2672.589	2610.6
2676.151	2455.6
2679.71	2421.6
2683.266	2570.6
2686.819	2448.6
2690.368	2446.6
2693.915	2325.6
2697.458	2437.6
2700.999	2396.6
2704.536	2293.6
2708.071	2290.6
2711.602	2253.6
2715.13	2252.6
2718.656	2272.6
2722.178	2175.6
2725.697	2253.6
2729.214	1971.6
2732.727	2089.6
2736.237	2114.6
2739.744	2027.6
2743.249	2201.6
2746.75	2178.6
2750.248	2248.6
2753.743	2216.6
2757.236	2209.6
2760.725	2219.6
2764.211	2468.6
2767.695	2245.6
2771.175	2220.6
2774.652	2173.6
2778.127	2245.6
2781.598	2197.6
2785.067	2259.6
2788.532	2224.6
2791.995	2196.6
2795.455	2246.6
2798.911	2216.6
2802.365	2325.6
2805.816	2120.6
2809.264	2130.6
2812.709	2196.6
2816.151	2181.6
2819.59	2320.6
2823.026	2300.6
2826.46	2292.6
2829.89	2313.6
2833.318	2491.6
2836.742	2318.6
2840.164	2271.6
2843.583	2386.6
2846.999	2355.6
2850.412	2292.6
2853.822	2647.6
2857.229	2228.6
2860.634	2325.6
2864.035	2382.6
2867.434	2251.6
2870.83	2361.6
2874.223	2444.6
2877.613	2393.6
2881	2566.6
2884.385	2636.6
2887.766	2548.6
2891.145	2496.6
2894.521	2654.6
2897.894	2643.6
2901.264	2355.6
2904.631	2627.6
2907.996	2553.6
2911.358	2584.6
2914.717	2564.6
2918.073	2650.6
2921.426	2632.6
2924.777	2758.6
2928.124	2678.6
2931.469	2528.6
2934.811	2826.6
2938.15	2658.6
2941.487	2744.6
2944.821	2401.6
2948.152	2849.6
2951.48	2805.6
2954.805	2721.6
2958.128	2629.6
2961.447	2783.6
2964.765	2608.6
2968.079	2788.6
2971.39	2697.6
2974.699	2762.6
2978.005	2767.6
2981.308	2822.6
2984.609	2967.6
2987.907	2834.6
2991.202	2952.6
2994.494	2951.6
2997.784	2583.6
3001.07	2868.6
3004.355	2954.6
3007.636	3085.6
3010.915	3108.6
3014.191	3156.6
3017.464	3170.6
3020.734	3080.6
3024.002	3226.6
3027.267	3303.6
3030.53	3292.6
3033.789	3333.6
3037.046	3463.6
3040.301	3457.6
3043.552	3511.6
3046.801	3595.6
3050.048	3497.6
3053.291	3458.6
3056.532	3659.6
3059.771	3836.6
3063.006	3790.6
3066.239	3886.6
3069.469	3963.6
3072.697	4189.6
3075.922	4336.6
3079.144	4308.6
3082.364	4336.6
3085.581	4561.6
3088.795	4367.6
3092.007	4626.6
3095.216	4891.6
3098.423	5075.6
3101.627	5224.6
3104.828	5194.6
3108.026	5377.6
3111.222	5401.6
3114.416	5339.6
3117.607	5645.6
3120.795	5697.6
3123.98	5768.6
3127.163	6032.6
3130.344	6022.6
3133.521	6230.6
3136.696	6144.6
3139.869	6249.6
3143.039	6394.6
3146.206	6360.6
3149.371	6583.6
3152.533	6692.6
3155.693	6791.6
3158.85	6899.6
3162.005	6874.6
3165.157	7037.6
3168.306	7116.6
3171.453	6935.6
3174.597	7167.6
3177.739	7215.6
3180.878	7077.6
3184.014	7085.6
3187.149	7191.6
3190.28	7146.6
3193.409	7029.6
3196.536	7034.6
3199.659	6963.6
3202.781	6977.6
3205.9	7246.6
3209.016	7052.6
3212.13	7056.6
3215.241	7020.6
3218.35	7040.6
3221.456	7062.6
3224.56	7218.6
3227.661	7154.6
3230.76	7308.6
3233.856	7214.6
3236.95	7104.6
3240.041	7275.6
3243.13	6902.6
3246.216	6984.6
3249.3	6874.6
3252.382	6868.6
3255.46	6970.6
3258.537	6231.6
3261.611	6898.6
3264.682	6735.6
3267.751	6649.6
3270.818	6783.6
3273.882	6498.6
3276.943	6475.6
3280.002	6408.6
3283.059	6465.6
3286.113	6440.6
3289.165	6505.6
3292.214	6416.6
3295.261	6201.6
3298.306	6332.6
3301.348	6169.6
3304.387	6122.6
3307.425	5975.6
3310.459	5986.6
3313.492	5793.6
3316.521	5814.6
3319.549	5668.6
3322.574	5631.6
3325.597	5496.6
3328.617	5501.6
3331.635	5372.6
3334.65	5434.6
3337.663	5393.6
3340.674	5382.6
3343.682	5277.6
3346.688	5272.6
3349.691	5270.6
3352.692	5360.6
3355.691	5119.6
3358.687	5170.6
3361.681	5130.6
3364.673	5143.6
3367.662	5117.6
3370.649	5046.6
3373.633	5092.6
3376.615	5041.6
3379.595	5162.6
3382.572	4931.6
3385.547	4904.6
3388.52	5006.6
3391.49	4815.6
3394.458	4829.6
3397.424	4676.6
3400.387	4761.6
3403.348	4399.6
3406.307	4470.6
3409.263	4494.6
3412.217	4285.6
3415.168	4290.6
3418.118	4305.6
3421.065	4212.6
3424.009	4062.6
3426.951	4197.6
3429.891	4111.6
3432.829	4059.6
3435.764	4049.6
3438.697	3934.6
3441.628	3666.6
3444.557	3854.6
3447.483	3864.6
3450.407	3605.6
3453.328	3494.6
3456.247	3651.6
3459.164	3591.6
3462.079	3277.6
3464.991	3293.6
3467.902	3197.6
3470.809	3175.6
3473.715	3040.6
3476.618	2954.6
3479.519	2846.6
3482.418	3072.6
3485.315	2833.6
3488.209	2758.6
3491.101	2497.6
3493.99	2585.6
3496.878	2354.6
3499.763	2366.6
3502.646	2335.6
3505.527	2493.6
3508.405	2311.6
3511.281	2252.6
3514.155	2210.6
3517.027	2174.6
3519.897	2321.6
3522.764	2020.6
3525.629	2091.6
3528.492	1935.6
3531.352	1861.6
3534.211	1800.6
3537.067	1879.6
3539.921	1785.6
3542.773	1673.6
3545.622	1606.6
3548.469	1734.6
3551.315	1587.6
3554.157	1486.6
3556.998	1409.6
3559.837	1288.6
3562.673	1198.6
3565.507	1344.6
3568.339	1139.6
3571.169	1226.6
3573.996	1181.6
3576.822	1199.6
3579.645	1130.6
3582.466	1095.6
3585.285	1022.6
3588.101	949.6
3590.916	1047.6
3593.728	919.6
3596.538	963.6
3599.346	874.6
3602.152	915.6
3604.956	926.6
3607.757	760.6
3610.556	922.6
3613.354	830.6
3616.149	668.6
3618.942	707.6
3621.732	489.6
3624.521	746.6
3627.307	691.6
3630.092	663.6
3632.874	505.6
3635.654	630.6
3638.432	722.6
3641.208	597.6
3643.982	630.6
3646.753	519.6
3649.523	594.6
3652.29	605.6
3655.055	529.6
3657.818	461.6
3660.579	388.6
3663.338	639.6
3666.095	428.6
3668.849	594.6
3671.602	406.6
3674.352	610.6
3677.101	427.6
3679.847	270.6
3682.591	520.6
3685.333	494.6
3688.073	337.6
3690.811	431.6
3693.547	290.6
3696.281	334.6
3699.013	286.6
3701.742	334.6
3704.47	436.6
3707.195	260.6
3709.919	317.6
3712.64	298.6
3715.359	195.6
3718.076	36.6
3720.792	389.6
3723.505	295.6
3726.216	139.6
3728.925	294.6
3731.632	138.6
3734.336	364.6
3737.039	219.6
3739.74	289.6
3742.439	571.6
3745.136	229.6
3747.83	217.6
3750.523	217.6
3753.213	507.6
3755.902	233.6
3758.589	384.6
3761.273	269.6
3763.956	40.6
3766.636	294.6
3769.315	33.6
3771.991	340.6
3774.665	219.6
3777.338	333.6
3780.008	263.6
3782.677	14.6
3785.343	353.6
3788.007	560.6
3790.67	201.6
3793.33	189.6
3795.989	243.6
3798.645	177.6
3801.299	386.6
3803.952	169.6
3806.602	142.6
3809.251	215.6
3811.897	176.6
3814.542	210.6
3817.184	192.6
3819.825	224.6
3822.463	-125.4
3825.1	171.6
3827.735	246.6
3830.367	104.6
3832.998	79.6
3835.627	144.6
3838.253	119.6
3840.878	-6.4
3843.501	46.6
3846.122	111.6
3848.741	63.6
3851.358	149.6
3853.973	334.6
3856.586	133.6
3859.197	137.6
3861.806	97.6
3864.414	262.6
3867.019	190.6
3869.622	94.6
3872.224	35.6
3874.823	201.6
3877.421	201.6
3880.016	270.6
3882.61	318.6
3885.202	318.6
3887.792	301.6
3890.38	102.6
3892.966	208.6
3895.55	163.6
3898.132	173.6
3900.713	92.6
3903.291	202.6
3905.868	182.6
3908.442	156.6
3911.015	51.6
3913.586	163.6
3916.155	141.6
3918.722	214.6
3921.287	136.6
3923.85	-61.4
3926.411	101.6
3928.971	64.6
3931.528	123.6
3934.084	81.6
3936.638	163.6
3939.19	87.6
3941.74	153.6
3944.288	53.6
3946.834	81.6
3949.378	101.6
3951.921	243.6
3954.462	130.6
3957	113.6
3959.537	178.6
3962.072	239.6
3964.606	292.6
3967.137	41.6
3969.667	114.6
3972.194	168.6
3974.72	155.6
3977.244	269.6
3979.766	68.6
3982.286	281.6
3984.805	113.6
3987.321	43.6
3989.836	155.6
3992.349	191.6
3994.86	143.6
3997.369	117.6
3999.877	90.6
4002.382	178.6
4004.886	210.6
4007.388	138.6
4009.888	300.6
4012.386	116.6
4014.883	145.6
4017.377	144.6
4019.87	42.6
4022.361	176.6
4024.85	243.6
4027.338	85.6
4029.823	110.6
4032.307	118.6
4034.789	190.6
4037.269	178.6
4039.747	159.6
4042.224	109.6
4044.699	223.6
4047.172	189.6
4049.643	24.6
4052.112	179.6
4054.58	191.6
4057.046	146.6
4059.51	142.6
4061.972	131.6
4064.432	243.6
4066.891	38.6
4069.348	163.6
4071.803	39.6
4074.256	129.6
4076.708	154.6
4079.158	180.6
4081.606	-25.4
4084.052	154.6
4086.497	41.6
4088.939	235.6
4091.38	211.6
4093.819	115.6
4096.257	-1319.4
4098.693	-1352.4
4101.127	-1418.4
4103.559	-1469.4
4105.989	342.6
4108.418	372.6
4110.845	514.6
4113.27	404.6
4115.694	525.6
4118.115	531.6
4120.535	66.6
4122.954	-12.4
4125.37	-15.4
4127.785	95.6
4130.198	97.6
4132.609	125.6
4135.019	-1476.4
4137.427	-1446.4
4139.833	-1371.4
4142.237	-1184.4
