Data from 2018-2-8_conc=6_RamanShift_18.txt Node
Date: Wed Feb 07 11:35:40 IST 2018
User: aro
Spectrometer: QEPB0276
Trigger mode: 0
Integration Time (sec): 3.000000E1
Scans to average: 1
Electric dark correction enabled: true
Nonlinearity correction enabled: false
Boxcar width: 0
XAxis mode: Raman Shifts
Number of Pixels in Spectrum: 1044
>>>>>Begin Spectral Data<<<<<
160.701	897.4
166.742	936.4
172.777	1417.4
178.805	2811.4
184.826	5768.4
190.841	10736.4
196.849	16845.4
202.85	21402.4
208.845	23046.4
214.833	22842.4
220.815	22536.4
226.789	22505.4
232.758	22306.4
238.719	22353.4
244.674	22167.4
250.623	21609.4
256.565	21351.4
262.5	20971.4
268.429	20344.4
274.351	20161.4
280.267	20123.4
286.176	19563.4
292.079	19357.4
297.975	18954.4
303.865	18934.4
309.748	18821.4
315.625	18679.4
321.495	18270.4
327.359	18258.4
333.217	18377.4
339.068	18327.4
344.912	18341.4
350.751	18326.4
356.583	18162.4
362.408	18186.4
368.227	18113.4
374.04	18282.4
379.847	18347.4
385.647	18400.4
391.44	18693.4
397.228	18576.4
403.009	18777.4
408.784	18694.4
414.553	19020.4
420.315	19102.4
426.071	19196.4
431.821	19030.4
437.565	19032.4
443.302	18793.4
449.033	18833.4
454.758	18697.4
460.477	18656.4
466.189	18606.4
471.896	18396.4
477.596	18357.4
483.29	18477.4
488.978	18315.4
494.66	18467.4
500.335	18329.4
506.005	18251.4
511.668	17953.4
517.325	17851.4
522.977	17653.4
528.622	17642.4
534.261	17443.4
539.894	17432.4
545.521	17423.4
551.141	17331.4
556.756	17052.4
562.365	16962.4
567.968	16839.4
573.565	16724.4
579.155	16589.4
584.74	16558.4
590.319	16414.4
595.892	16351.4
601.459	16309.4
607.02	16380.4
612.575	16449.4
618.124	16177.4
623.667	16404.4
629.204	16240.4
634.735	16349.4
640.261	16100.4
645.781	16467.4
651.294	16146.4
656.802	15830.4
662.304	15808.4
667.8	15508.4
673.29	15680.4
678.775	15515.4
684.254	15557.4
689.726	15645.4
695.193	15371.4
700.655	15533.4
706.11	15582.4
711.56	15389.4
717.004	15501.4
722.442	15727.4
727.874	15421.4
733.301	15418.4
738.722	15560.4
744.137	15357.4
749.547	15311.4
754.951	15284.4
760.349	15115.4
765.741	14846.4
771.128	14955.4
776.509	14996.4
781.885	14896.4
787.254	14862.4
792.618	15014.4
797.977	15093.4
803.33	15180.4
808.677	15189.4
814.019	15133.4
819.355	15242.4
824.686	15157.4
830.011	15201.4
835.33	14847.4
840.644	14683.4
845.952	14866.4
851.255	14449.4
856.552	14463.4
861.844	14358.4
867.13	14283.4
872.41	14301.4
877.686	14072.4
882.955	14197.4
888.219	14340.4
893.478	14394.4
898.731	14217.4
903.979	14124.4
909.221	14260.4
914.458	14048.4
919.69	14070.4
924.916	13940.4
930.136	13773.4
935.351	13655.4
940.561	13422.4
945.766	13439.4
950.965	13158.4
956.158	13420.4
961.347	13424.4
966.529	13429.4
971.707	13275.4
976.879	13343.4
982.046	13393.4
987.208	13517.4
992.364	13305.4
997.515	13263.4
1002.66	13132.4
1007.801	13218.4
1012.936	13304.4
1018.066	13349.4
1023.19	13006.4
1028.309	12913.4
1033.423	13069.4
1038.532	13068.4
1043.636	13309.4
1048.734	13240.4
1053.827	13430.4
1058.915	13419.4
1063.998	13189.4
1069.075	13060.4
1074.147	12884.4
1079.214	12954.4
1084.276	12588.4
1089.333	12631.4
1094.385	12577.4
1099.431	12552.4
1104.472	12473.4
1109.509	12706.4
1114.54	12724.4
1119.565	12800.4
1124.586	12682.4
1129.602	12705.4
1134.613	12736.4
1139.618	12698.4
1144.619	12460.4
1149.614	12289.4
1154.604	12236.4
1159.589	12131.4
1164.57	11867.4
1169.545	11925.4
1174.515	11926.4
1179.48	12068.4
1184.44	12017.4
1189.395	12223.4
1194.345	12375.4
1199.29	12332.4
1204.23	12418.4
1209.165	12381.4
1214.095	12171.4
1219.021	12050.4
1223.941	12069.4
1228.856	12132.4
1233.766	12065.4
1238.672	11947.4
1243.572	11847.4
1248.467	11927.4
1253.358	12141.4
1258.244	12131.4
1263.124	11959.4
1268	11775.4
1272.871	11914.4
1277.737	11920.4
1282.599	11744.4
1287.455	11551.4
1292.306	11324.4
1297.153	11488.4
1301.995	11190.4
1306.832	11132.4
1311.664	11153.4
1316.491	11172.4
1321.314	11149.4
1326.132	11112.4
1330.945	11064.4
1335.753	10960.4
1340.556	10921.4
1345.354	10755.4
1350.148	10528.4
1354.937	10455.4
1359.722	10444.4
1364.501	10229.4
1369.276	9988.4
1374.046	10072.4
1378.811	10292.4
1383.572	10199.4
1388.327	9932.4
1393.079	10445.4
1397.825	10481.4
1402.567	10450.4
1407.304	10432.4
1412.036	10472.4
1416.764	10315.4
1421.487	10630.4
1426.205	10317.4
1430.919	10077.4
1435.628	9988.4
1440.333	9951.4
1445.032	9791.4
1449.727	9725.4
1454.418	9789.4
1459.104	9746.4
1463.785	9697.4
1468.462	9619.4
1473.134	9618.4
1477.802	9489.4
1482.465	9680.4
1487.123	9139.4
1491.777	9448.4
1496.426	9396.4
1501.071	9090.4
1505.711	9076.4
1510.347	9140.4
1514.978	9191.4
1519.604	9233.4
1524.226	9274.4
1528.844	9683.4
1533.457	9445.4
1538.065	9641.4
1542.669	9613.4
1547.269	9683.4
1551.864	9573.4
1556.454	9864.4
1561.041	9792.4
1565.622	9772.4
1570.199	9483.4
1574.772	9499.4
1579.34	9357.4
1583.904	9456.4
1588.464	9376.4
1593.019	9402.4
1597.569	9548.4
1602.115	9382.4
1606.657	9615.4
1611.195	9566.4
1615.728	9630.4
1620.256	9821.4
1624.78	9883.4
1629.3	9794.4
1633.816	9587.4
1638.327	9639.4
1642.834	9414.4
1647.336	9491.4
1651.834	9345.4
1656.328	9480.4
1660.817	9345.4
1665.302	9498.4
1669.783	9459.4
1674.259	9183.4
1678.732	8932.4
1683.199	8853.4
1687.663	8838.4
1692.122	8363.4
1696.577	8226.4
1701.028	8140.4
1705.474	8097.4
1709.917	8017.4
1714.355	8005.4
1718.788	7892.4
1723.218	7880.4
1727.643	7686.4
1732.064	7499.4
1736.481	7658.4
1740.893	7402.4
1745.301	7229.4
1749.705	7405.4
1754.105	6890.4
1758.501	7021.4
1762.893	6643.4
1767.28	6708.4
1771.663	6493.4
1776.042	6393.4
1780.417	6311.4
1784.787	6053.4
1789.154	6087.4
1793.516	6125.4
1797.874	6190.4
1802.228	6303.4
1806.578	6500.4
1810.924	6277.4
1815.266	7570.4
1819.603	6414.4
1823.937	6498.4
1828.266	6429.4
1832.591	6261.4
1836.913	6298.4
1841.23	6321.4
1845.543	6290.4
1849.852	6157.4
1854.156	6145.4
1858.457	6101.4
1862.754	5874.4
1867.047	5975.4
1871.335	5779.4
1875.62	5836.4
1879.9	5754.4
1884.177	6002.4
1888.449	5765.4
1892.718	5813.4
1896.982	5691.4
1901.243	5953.4
1905.499	5845.4
1909.752	5776.4
1914	5976.4
1918.245	5748.4
1922.485	5724.4
1926.722	5713.4
1930.954	5783.4
1935.183	5740.4
1939.408	5707.4
1943.628	5809.4
1947.845	5741.4
1952.058	5877.4
1956.267	5760.4
1960.472	5683.4
1964.673	5736.4
1968.87	5825.4
1973.063	5884.4
1977.252	5654.4
1981.438	5684.4
1985.619	5574.4
1989.797	5542.4
1993.971	5467.4
1998.14	5270.4
2002.306	5313.4
2006.469	5129.4
2010.627	5281.4
2014.781	5309.4
2018.932	5351.4
2023.078	5048.4
2027.221	5084.4
2031.36	5155.4
2035.495	5095.4
2039.627	5116.4
2043.754	5053.4
2047.878	4971.4
2051.998	5006.4
2056.114	5059.4
2060.226	5065.4
2064.334	5004.4
2068.439	4851.4
2072.54	4892.4
2076.637	5039.4
2080.73	4983.4
2084.82	4855.4
2088.906	4946.4
2092.988	4807.4
2097.066	5048.4
2101.14	4775.4
2105.211	4917.4
2109.278	4968.4
2113.342	4921.4
2117.401	5141.4
2121.457	4988.4
2125.509	5037.4
2129.558	4768.4
2133.602	4870.4
2137.643	4836.4
2141.681	4791.4
2145.714	4805.4
2149.744	4586.4
2153.77	4731.4
2157.793	4631.4
2161.812	4839.4
2165.827	4772.4
2169.838	4389.4
2173.846	4538.4
2177.851	4505.4
2181.851	4354.4
2185.848	4480.4
2189.841	4362.4
2193.831	4487.4
2197.817	4227.4
2201.799	4182.4
2205.778	4337.4
2209.753	4373.4
2213.725	4251.4
2217.693	4263.4
2221.657	4237.4
2225.618	4061.4
2229.575	4141.4
2233.529	4035.4
2237.479	4132.4
2241.425	4072.4
2245.368	4258.4
2249.307	4059.4
2253.243	4060.4
2257.175	4146.4
2261.104	4020.4
2265.029	3845.4
2268.95	3891.4
2272.868	3856.4
2276.783	3953.4
2280.694	3621.4
2284.601	3616.4
2288.505	3711.4
2292.405	3496.4
2296.302	3687.4
2300.195	3610.4
2304.085	3730.4
2307.971	3497.4
2311.854	3606.4
2315.734	3467.4
2319.609	3529.4
2323.482	3627.4
2327.351	3532.4
2331.216	3486.4
2335.078	3420.4
2338.937	3419.4
2342.792	3443.4
2346.643	3470.4
2350.492	3402.4
2354.336	3422.4
2358.178	3382.4
2362.015	3340.4
2365.85	3406.4
2369.681	3458.4
2373.508	3390.4
2377.333	3247.4
2381.153	3453.4
2384.971	3437.4
2388.785	3398.4
2392.595	3419.4
2396.402	3442.4
2400.206	3524.4
2404.007	3505.4
2407.804	3376.4
2411.597	3262.4
2415.388	3415.4
2419.174	3358.4
2422.958	3344.4
2426.738	3263.4
2430.515	3224.4
2434.289	3335.4
2438.059	3341.4
2441.825	3315.4
2445.589	2995.4
2449.349	3324.4
2453.106	3078.4
2456.859	3099.4
2460.61	3101.4
2464.356	3129.4
2468.1	3085.4
2471.84	3166.4
2475.577	3083.4
2479.311	3055.4
2483.041	2967.4
2486.768	2787.4
2490.492	2678.4
2494.213	3170.4
2497.93	3003.4
2501.644	3053.4
2505.355	3095.4
2509.062	2887.4
2512.766	2932.4
2516.467	2924.4
2520.165	2897.4
2523.859	3062.4
2527.551	2701.4
2531.239	2917.4
2534.923	2848.4
2538.605	2930.4
2542.283	2889.4
2545.958	2893.4
2549.63	2823.4
2553.299	2647.4
2556.964	2647.4
2560.626	2891.4
2564.285	2675.4
2567.941	2854.4
2571.594	2824.4
2575.243	2659.4
2578.89	2876.4
2582.533	2839.4
2586.173	2820.4
2589.809	2694.4
2593.443	3041.4
2597.073	2776.4
2600.701	2630.4
2604.325	2666.4
2607.946	2729.4
2611.564	2677.4
2615.178	2603.4
2618.79	2658.4
2622.398	2757.4
2626.004	2674.4
2629.606	2537.4
2633.205	2838.4
2636.801	2636.4
2640.394	2539.4
2643.983	2573.4
2647.57	2590.4
2651.153	2489.4
2654.734	2353.4
2658.311	2700.4
2661.885	2513.4
2665.456	2453.4
2669.025	2459.4
2672.589	2435.4
2676.151	2248.4
2679.71	2167.4
2683.266	2428.4
2686.819	2107.4
2690.368	2301.4
2693.915	2271.4
2697.458	2326.4
2700.999	2128.4
2704.536	2232.4
2708.071	2153.4
2711.602	2144.4
2715.13	2170.4
2718.656	2162.4
2722.178	2056.4
2725.697	2215.4
2729.214	1857.4
2732.727	1977.4
2736.237	2025.4
2739.744	2014.4
2743.249	2104.4
2746.75	2133.4
2750.248	2189.4
2753.743	2155.4
2757.236	2079.4
2760.725	2075.4
2764.211	2371.4
2767.695	2094.4
2771.175	2151.4
2774.652	2088.4
2778.127	2120.4
2781.598	2069.4
2785.067	2127.4
2788.532	2106.4
2791.995	2108.4
2795.455	2157.4
2798.911	2031.4
2802.365	2260.4
2805.816	2069.4
2809.264	2009.4
2812.709	2142.4
2816.151	2014.4
2819.59	2270.4
2823.026	2205.4
2826.46	2226.4
2829.89	2198.4
2833.318	2441.4
2836.742	2135.4
2840.164	2168.4
2843.583	2328.4
2846.999	2312.4
2850.412	2196.4
2853.822	2577.4
2857.229	2093.4
2860.634	2203.4
2864.035	2326.4
2867.434	2154.4
2870.83	2302.4
2874.223	2369.4
2877.613	2231.4
2881	2450.4
2884.385	2473.4
2887.766	2394.4
2891.145	2332.4
2894.521	2525.4
2897.894	2584.4
2901.264	2098.4
2904.631	2469.4
2907.996	2430.4
2911.358	2361.4
2914.717	2541.4
2918.073	2494.4
2921.426	2461.4
2924.777	2629.4
2928.124	2527.4
2931.469	2432.4
2934.811	2785.4
2938.15	2535.4
2941.487	2586.4
2944.821	2280.4
2948.152	2647.4
2951.48	2653.4
2954.805	2578.4
2958.128	2482.4
2961.447	2633.4
2964.765	2455.4
2968.079	2742.4
2971.39	2576.4
2974.699	2710.4
2978.005	2642.4
2981.308	2677.4
2984.609	2840.4
2987.907	2660.4
2991.202	2771.4
2994.494	2813.4
2997.784	2456.4
3001.07	2672.4
3004.355	2833.4
3007.636	2819.4
3010.915	2865.4
3014.191	2932.4
3017.464	3004.4
3020.734	2890.4
3024.002	3041.4
3027.267	3108.4
3030.53	3041.4
3033.789	3112.4
3037.046	3273.4
3040.301	3238.4
3043.552	3327.4
3046.801	3397.4
3050.048	3208.4
3053.291	3163.4
3056.532	3383.4
3059.771	3591.4
3063.006	3456.4
3066.239	3563.4
3069.469	3668.4
3072.697	3923.4
3075.922	3963.4
3079.144	4033.4
3082.364	3908.4
3085.581	4254.4
3088.795	3957.4
3092.007	4203.4
3095.216	4418.4
3098.423	4669.4
3101.627	4733.4
3104.828	4773.4
3108.026	4928.4
3111.222	4871.4
3114.416	4884.4
3117.607	5036.4
3120.795	5142.4
3123.98	5247.4
3127.163	5516.4
3130.344	5423.4
3133.521	5531.4
3136.696	5479.4
3139.869	5711.4
3143.039	5787.4
3146.206	5712.4
3149.371	5899.4
3152.533	6072.4
3155.693	6126.4
3158.85	6186.4
3162.005	6263.4
3165.157	6357.4
3168.306	6364.4
3171.453	6233.4
3174.597	6572.4
3177.739	6529.4
3180.878	6400.4
3184.014	6434.4
3187.149	6446.4
3190.28	6395.4
3193.409	6376.4
3196.536	6258.4
3199.659	6250.4
3202.781	6246.4
3205.9	6444.4
3209.016	6376.4
3212.13	6350.4
3215.241	6343.4
3218.35	6284.4
3221.456	6423.4
3224.56	6582.4
3227.661	6518.4
3230.76	6651.4
3233.856	6523.4
3236.95	6437.4
3240.041	6545.4
3243.13	6242.4
3246.216	6460.4
3249.3	6268.4
3252.382	6205.4
3255.46	6411.4
3258.537	6951.4
3261.611	6362.4
3264.682	6058.4
3267.751	6084.4
3270.818	6163.4
3273.882	5920.4
3276.943	5920.4
3280.002	5786.4
3283.059	5917.4
3286.113	5839.4
3289.165	5947.4
3292.214	5899.4
3295.261	5651.4
3298.306	5838.4
3301.348	5635.4
3304.387	5575.4
3307.425	5466.4
3310.459	5458.4
3313.492	5282.4
3316.521	5276.4
3319.549	5091.4
3322.574	5127.4
3325.597	5029.4
3328.617	4976.4
3331.635	4936.4
3334.65	5083.4
3337.663	4915.4
3340.674	4982.4
3343.682	4739.4
3346.688	4877.4
3349.691	4813.4
3352.692	4992.4
3355.691	4725.4
3358.687	4730.4
3361.681	4665.4
3364.673	4728.4
3367.662	4664.4
3370.649	4526.4
3373.633	4732.4
3376.615	4520.4
3379.595	4769.4
3382.572	4579.4
3385.547	4548.4
3388.52	4603.4
3391.49	4552.4
3394.458	4425.4
3397.424	4301.4
3400.387	4453.4
3403.348	4059.4
3406.307	4134.4
3409.263	4177.4
3412.217	3943.4
3415.168	4014.4
3418.118	3976.4
3421.065	3959.4
3424.009	3758.4
3426.951	3940.4
3429.891	3900.4
3432.829	3853.4
3435.764	3731.4
3438.697	3753.4
3441.628	3438.4
3444.557	3692.4
3447.483	3686.4
3450.407	3401.4
3453.328	3289.4
3456.247	3480.4
3459.164	3464.4
3462.079	3171.4
3464.991	3142.4
3467.902	3060.4
3470.809	3064.4
3473.715	2946.4
3476.618	2932.4
3479.519	2785.4
3482.418	2994.4
3485.315	2749.4
3488.209	2640.4
3491.101	2487.4
3493.99	2704.4
3496.878	2264.4
3499.763	2397.4
3502.646	2280.4
3505.527	2494.4
3508.405	2304.4
3511.281	2261.4
3514.155	2262.4
3517.027	2228.4
3519.897	2327.4
3522.764	2049.4
3525.629	2155.4
3528.492	2035.4
3531.352	1854.4
3534.211	1873.4
3537.067	1967.4
3539.921	1897.4
3542.773	1786.4
3545.622	1770.4
3548.469	1790.4
3551.315	1665.4
3554.157	1609.4
3556.998	1556.4
3559.837	1396.4
3562.673	1297.4
3565.507	1490.4
3568.339	1333.4
3571.169	1423.4
3573.996	1308.4
3576.822	1233.4
3579.645	1334.4
3582.466	1260.4
3585.285	1191.4
3588.101	1120.4
3590.916	1242.4
3593.728	1119.4
3596.538	1179.4
3599.346	1014.4
3602.152	1167.4
3604.956	1121.4
3607.757	939.4
3610.556	1200.4
3613.354	947.4
3616.149	916.4
3618.942	939.4
3621.732	675.4
3624.521	1013.4
3627.307	885.4
3630.092	764.4
3632.874	751.4
3635.654	928.4
3638.432	996.4
3641.208	810.4
3643.982	848.4
3646.753	726.4
3649.523	874.4
3652.29	789.4
3655.055	849.4
3657.818	703.4
3660.579	659.4
3663.338	906.4
3666.095	604.4
3668.849	875.4
3671.602	686.4
3674.352	893.4
3677.101	666.4
3679.847	503.4
3682.591	756.4
3685.333	738.4
3688.073	648.4
3690.811	688.4
3693.547	646.4
3696.281	647.4
3699.013	603.4
3701.742	647.4
3704.47	782.4
3707.195	576.4
3709.919	564.4
3712.64	603.4
3715.359	509.4
3718.076	301.4
3720.792	685.4
3723.505	584.4
3726.216	442.4
3728.925	658.4
3731.632	450.4
3734.336	643.4
3737.039	550.4
3739.74	580.4
3742.439	733.4
3745.136	542.4
3747.83	451.4
3750.523	484.4
3753.213	643.4
3755.902	497.4
3758.589	714.4
3761.273	547.4
3763.956	358.4
3766.636	647.4
3769.315	268.4
3771.991	643.4
3774.665	575.4
3777.338	660.4
3780.008	576.4
3782.677	319.4
3785.343	736.4
3788.007	928.4
3790.67	477.4
3793.33	443.4
3795.989	527.4
3798.645	460.4
3801.299	661.4
3803.952	442.4
3806.602	408.4
3809.251	468.4
3811.897	509.4
3814.542	541.4
3817.184	311.4
3819.825	600.4
3822.463	233.4
3825.1	450.4
3827.735	527.4
3830.367	512.4
3832.998	300.4
3835.627	433.4
3838.253	372.4
3840.878	325.4
3843.501	309.4
3846.122	398.4
3848.741	340.4
3851.358	467.4
3853.973	731.4
3856.586	479.4
3859.197	501.4
3861.806	427.4
3864.414	619.4
3867.019	501.4
3869.622	405.4
3872.224	400.4
3874.823	695.4
3877.421	499.4
3880.016	591.4
3882.61	635.4
3885.202	646.4
3887.792	588.4
3890.38	385.4
3892.966	537.4
3895.55	458.4
3898.132	511.4
3900.713	383.4
3903.291	490.4
3905.868	545.4
3908.442	407.4
3911.015	375.4
3913.586	472.4
3916.155	436.4
3918.722	570.4
3921.287	516.4
3923.85	273.4
3926.411	412.4
3928.971	383.4
3931.528	422.4
3934.084	473.4
3936.638	472.4
3939.19	418.4
3941.74	501.4
3944.288	378.4
3946.834	538.4
3949.378	377.4
3951.921	603.4
3954.462	444.4
3957	458.4
3959.537	499.4
3962.072	561.4
3964.606	622.4
3967.137	315.4
3969.667	423.4
3972.194	509.4
3974.72	447.4
3977.244	588.4
3979.766	376.4
3982.286	625.4
3984.805	400.4
3987.321	317.4
3989.836	414.4
3992.349	544.4
3994.86	462.4
3997.369	463.4
3999.877	359.4
4002.382	462.4
4004.886	493.4
4007.388	484.4
4009.888	588.4
4012.386	366.4
4014.883	402.4
4017.377	476.4
4019.87	352.4
4022.361	540.4
4024.85	578.4
4027.338	476.4
4029.823	379.4
4032.307	476.4
4034.789	531.4
4037.269	507.4
4039.747	537.4
4042.224	444.4
4044.699	484.4
4047.172	466.4
4049.643	434.4
4052.112	580.4
4054.58	514.4
4057.046	471.4
4059.51	567.4
4061.972	466.4
4064.432	649.4
4066.891	368.4
4069.348	555.4
4071.803	417.4
4074.256	431.4
4076.708	456.4
4079.158	548.4
4081.606	259.4
4084.052	525.4
4086.497	336.4
4088.939	525.4
4091.38	606.4
4093.819	431.4
4096.257	-1435.6
4098.693	-1549.6
4101.127	-1569.6
4103.559	-1618.6
4105.989	672.4
4108.418	684.4
4110.845	881.4
4113.27	653.4
4115.694	837.4
4118.115	900.4
4120.535	386.4
4122.954	318.4
4125.37	279.4
4127.785	390.4
4130.198	394.4
4132.609	385.4
4135.019	-1650.6
4137.427	-1606.6
4139.833	-1534.6
4142.237	-1270.6
