Data from 2018-2-8_conc=4_RamanShift_13.txt Node
Date: Wed Feb 07 10:41:40 IST 2018
User: aro
Spectrometer: QEPB0276
Trigger mode: 0
Integration Time (sec): 3.000000E1
Scans to average: 1
Electric dark correction enabled: true
Nonlinearity correction enabled: false
Boxcar width: 0
XAxis mode: Raman Shifts
Number of Pixels in Spectrum: 1044
>>>>>Begin Spectral Data<<<<<
160.701	465
166.742	568
172.777	1162
178.805	2683
184.826	6113
190.841	12125
196.849	19341
202.85	24839
208.845	26838
214.833	26692
220.815	26296
226.789	26220
232.758	26127
238.719	26054
244.674	25792
250.623	25427
256.565	24988
262.5	24498
268.429	24031
274.351	23735
280.267	23548
286.176	23044
292.079	22775
297.975	22481
303.865	22285
309.748	22116
315.625	22031
321.495	21538
327.359	21610
333.217	21657
339.068	21549
344.912	21539
350.751	21609
356.583	21504
362.408	21607
368.227	21524
374.04	21645
379.847	21640
385.647	21820
391.44	22053
397.228	22146
403.009	22235
408.784	22349
414.553	22417
420.315	22453
426.071	22565
431.821	22572
437.565	22457
443.302	22237
449.033	22262
454.758	22211
460.477	21980
466.189	22037
471.896	21854
477.596	21706
483.29	21759
488.978	21803
494.66	21795
500.335	21644
506.005	21604
511.668	21470
517.325	21398
522.977	21131
528.622	21144
534.261	20919
539.894	20865
545.521	20825
551.141	20709
556.756	20471
562.365	20348
567.968	20266
573.565	20118
579.155	19939
584.74	19857
590.319	19715
595.892	19770
601.459	19700
607.02	19776
612.575	19714
618.124	19600
623.667	19709
629.204	19632
634.735	19680
640.261	19460
645.781	19674
651.294	19419
656.802	19168
662.304	19137
667.8	18815
673.29	18931
678.775	18701
684.254	18720
689.726	18877
695.193	18593
700.655	18684
706.11	18838
711.56	18711
717.004	18730
722.442	18861
727.874	18729
733.301	18706
738.722	18755
744.137	18562
749.547	18516
754.951	18384
760.349	18281
765.741	18101
771.128	18040
776.509	18105
781.885	18067
787.254	18057
792.618	18100
797.977	18189
803.33	18233
808.677	18235
814.019	18250
819.355	18258
824.686	18247
830.011	18298
835.33	18006
840.644	17790
845.952	17829
851.255	17541
856.552	17572
861.844	17364
867.13	17351
872.41	17313
877.686	17226
882.955	17287
888.219	17365
893.478	17486
898.731	17329
903.979	17312
909.221	17254
914.458	17265
919.69	16980
924.916	16893
930.136	16670
935.351	16506
940.561	16349
945.766	16385
950.965	16072
956.158	16194
961.347	16306
966.529	16221
971.707	16248
976.879	16235
982.046	16374
987.208	16405
992.364	16241
997.515	16175
1002.66	15954
1007.801	16111
1012.936	15967
1018.066	16009
1023.19	15850
1028.309	15749
1033.423	15908
1038.532	16000
1043.636	16211
1048.734	16097
1053.827	16170
1058.915	16279
1063.998	16069
1069.075	15900
1074.147	15725
1079.214	15645
1084.276	15357
1089.333	15371
1094.385	15276
1099.431	15365
1104.472	15211
1109.509	15346
1114.54	15495
1119.565	15566
1124.586	15507
1129.602	15558
1134.613	15444
1139.618	15339
1144.619	15109
1149.614	14977
1154.604	14782
1159.589	14711
1164.57	14456
1169.545	14490
1174.515	14547
1179.48	14699
1184.44	14761
1189.395	14911
1194.345	15095
1199.29	14989
1204.23	15087
1209.165	14960
1214.095	14903
1219.021	14737
1223.941	14734
1228.856	14747
1233.766	14613
1238.672	14581
1243.572	14535
1248.467	14607
1253.358	14708
1258.244	14707
1263.124	14595
1268	14511
1272.871	14491
1277.737	14459
1282.599	14192
1287.455	14115
1292.306	13817
1297.153	13863
1301.995	13685
1306.832	13662
1311.664	13617
1316.491	13641
1321.314	13587
1326.132	13595
1330.945	13525
1335.753	13428
1340.556	13158
1345.354	13082
1350.148	12735
1354.937	12551
1359.722	12557
1364.501	12351
1369.276	12119
1374.046	12303
1378.811	12377
1383.572	12557
1388.327	12316
1393.079	12786
1397.825	12878
1402.567	12808
1407.304	12787
1412.036	12792
1416.764	12682
1421.487	12798
1426.205	12458
1430.919	12276
1435.628	12159
1440.333	12096
1445.032	11940
1449.727	11891
1454.418	11924
1459.104	11927
1463.785	11673
1468.462	11706
1473.134	11706
1477.802	11533
1482.465	11576
1487.123	11215
1491.777	11262
1496.426	11201
1501.071	11046
1505.711	11050
1510.347	11077
1514.978	11212
1519.604	11353
1524.226	11445
1528.844	11759
1533.457	11669
1538.065	11891
1542.669	11898
1547.269	11933
1551.864	11893
1556.454	12010
1561.041	11884
1565.622	11848
1570.199	11563
1574.772	11555
1579.34	11324
1583.904	11435
1588.464	11395
1593.019	11405
1597.569	11580
1602.115	11617
1606.657	11647
1611.195	11612
1615.728	11668
1620.256	11839
1624.78	11791
1629.3	11742
1633.816	11455
1638.327	11568
1642.834	11430
1647.336	11469
1651.834	11241
1656.328	11442
1660.817	11266
1665.302	11362
1669.783	11219
1674.259	11071
1678.732	10862
1683.199	10622
1687.663	10448
1692.122	10010
1696.577	9724
1701.028	9944
1705.474	9774
1709.917	9767
1714.355	9790
1718.788	9687
1723.218	9538
1727.643	9285
1732.064	9114
1736.481	9142
1740.893	8959
1745.301	8777
1749.705	8912
1754.105	8438
1758.501	8458
1762.893	8102
1767.28	8023
1771.663	7788
1776.042	7579
1780.417	7527
1784.787	7249
1789.154	7355
1793.516	7294
1797.874	7476
1802.228	7718
1806.578	7909
1810.924	7757
1815.266	8190
1819.603	7820
1823.937	7806
1828.266	7731
1832.591	7710
1836.913	7602
1841.23	7587
1845.543	7498
1849.852	7396
1854.156	7305
1858.457	7280
1862.754	6993
1867.047	7178
1871.335	6986
1875.62	7001
1879.9	6917
1884.177	7059
1888.449	6974
1892.718	7016
1896.982	6973
1901.243	7102
1905.499	6966
1909.752	6924
1914	7017
1918.245	6838
1922.485	6901
1926.722	6834
1930.954	6982
1935.183	7000
1939.408	6927
1943.628	7015
1947.845	7042
1952.058	7079
1956.267	6972
1960.472	6983
1964.673	7029
1968.87	7057
1973.063	6942
1977.252	6859
1981.438	6788
1985.619	6646
1989.797	6589
1993.971	6583
1998.14	6330
2002.306	6352
2006.469	6319
2010.627	6322
2014.781	6336
2018.932	6317
2023.078	6147
2027.221	6127
2031.36	6160
2035.495	6172
2039.627	6080
2043.754	5939
2047.878	6004
2051.998	5972
2056.114	5975
2060.226	5916
2064.334	5850
2068.439	5708
2072.54	5679
2076.637	5933
2080.73	5866
2084.82	5800
2088.906	5776
2092.988	5812
2097.066	6015
2101.14	5863
2105.211	5967
2109.278	5881
2113.342	5940
2117.401	6018
2121.457	5965
2125.509	5924
2129.558	5717
2133.602	5743
2137.643	5741
2141.681	5614
2145.714	5615
2149.744	5550
2153.77	5465
2157.793	5449
2161.812	5539
2165.827	5504
2169.838	5227
2173.846	5357
2177.851	5314
2181.851	5186
2185.848	5217
2189.841	5059
2193.831	5168
2197.817	5004
2201.799	5009
2205.778	5027
2209.753	4991
2213.725	4921
2217.693	4896
2221.657	4904
2225.618	4438
2229.575	4858
2233.529	4715
2237.479	4833
2241.425	4789
2245.368	4884
2249.307	4798
2253.243	4730
2257.175	4704
2261.104	4619
2265.029	4521
2268.95	4551
2272.868	4442
2276.783	4443
2280.694	4293
2284.601	4250
2288.505	4291
2292.405	4077
2296.302	4231
2300.195	4034
2304.085	4188
2307.971	3998
2311.854	4108
2315.734	3971
2319.609	4019
2323.482	4116
2327.351	3991
2331.216	3981
2335.078	3995
2338.937	3939
2342.792	3958
2346.643	3885
2350.492	3861
2354.336	3859
2358.178	3800
2362.015	3830
2365.85	3864
2369.681	3850
2373.508	3839
2377.333	3661
2381.153	3960
2384.971	3901
2388.785	3851
2392.595	3875
2396.402	3979
2400.206	3996
2404.007	3929
2407.804	3859
2411.597	3743
2415.388	3797
2419.174	3703
2422.958	3653
2426.738	3711
2430.515	3453
2434.289	3677
2438.059	3659
2441.825	3647
2445.589	3434
2449.349	3578
2453.106	3497
2456.859	3469
2460.61	3376
2464.356	3448
2468.1	3412
2471.84	3430
2475.577	3439
2479.311	3249
2483.041	3312
2486.768	3221
2490.492	2997
2494.213	3254
2497.93	3319
2501.644	3274
2505.355	3315
2509.062	3247
2512.766	3233
2516.467	3194
2520.165	3195
2523.859	3241
2527.551	3095
2531.239	3216
2534.923	3154
2538.605	3198
2542.283	3110
2545.958	3174
2549.63	3089
2553.299	3022
2556.964	3078
2560.626	3084
2564.285	3012
2567.941	3134
2571.594	3158
2575.243	2845
2578.89	3067
2582.533	3117
2586.173	3063
2589.809	2936
2593.443	3185
2597.073	3056
2600.701	2873
2604.325	3013
2607.946	2961
2611.564	2886
2615.178	2837
2618.79	2831
2622.398	2868
2626.004	2861
2629.606	2765
2633.205	2965
2636.801	2728
2640.394	2785
2643.983	2772
2647.57	2771
2651.153	2656
2654.734	2559
2658.311	2808
2661.885	2650
2665.456	2604
2669.025	2538
2672.589	2559
2676.151	2433
2679.71	2390
2683.266	2626
2686.819	2445
2690.368	2351
2693.915	2390
2697.458	2412
2700.999	2234
2704.536	2299
2708.071	2265
2711.602	2192
2715.13	2154
2718.656	2193
2722.178	2092
2725.697	2154
2729.214	1872
2732.727	2037
2736.237	2048
2739.744	2020
2743.249	2151
2746.75	2063
2750.248	2183
2753.743	2174
2757.236	2165
2760.725	2146
2764.211	2280
2767.695	2105
2771.175	2189
2774.652	2092
2778.127	2129
2781.598	2136
2785.067	2096
2788.532	2122
2791.995	2112
2795.455	2146
2798.911	2091
2802.365	2209
2805.816	2058
2809.264	2082
2812.709	2171
2816.151	2075
2819.59	2190
2823.026	2225
2826.46	2224
2829.89	2146
2833.318	2325
2836.742	2216
2840.164	2145
2843.583	2245
2846.999	2288
2850.412	2194
2853.822	2306
2857.229	2146
2860.634	2244
2864.035	2321
2867.434	2235
2870.83	2255
2874.223	2379
2877.613	2227
2881	2412
2884.385	2497
2887.766	2469
2891.145	2361
2894.521	2506
2897.894	2558
2901.264	2275
2904.631	2498
2907.996	2467
2911.358	2432
2914.717	2456
2918.073	2454
2921.426	2432
2924.777	2540
2928.124	2591
2931.469	2443
2934.811	2696
2938.15	2555
2941.487	2655
2944.821	2330
2948.152	2652
2951.48	2661
2954.805	2608
2958.128	2548
2961.447	2654
2964.765	2516
2968.079	2662
2971.39	2591
2974.699	2659
2978.005	2615
2981.308	2654
2984.609	2775
2987.907	2716
2991.202	2802
2994.494	2862
2997.784	2505
3001.07	2857
3004.355	2919
3007.636	2947
3010.915	2981
3014.191	3001
3017.464	2997
3020.734	2958
3024.002	3129
3027.267	3126
3030.53	3199
3033.789	3235
3037.046	3403
3040.301	3309
3043.552	3327
3046.801	3484
3050.048	3359
3053.291	3314
3056.532	3516
3059.771	3696
3063.006	3650
3066.239	3652
3069.469	3784
3072.697	4008
3075.922	4079
3079.144	4071
3082.364	4137
3085.581	4346
3088.795	4168
3092.007	4429
3095.216	4618
3098.423	4882
3101.627	4949
3104.828	5018
3108.026	5138
3111.222	5167
3114.416	5154
3117.607	5332
3120.795	5440
3123.98	5570
3127.163	5731
3130.344	5750
3133.521	5859
3136.696	5887
3139.869	6034
3143.039	6159
3146.206	6209
3149.371	6363
3152.533	6470
3155.693	6595
3158.85	6642
3162.005	6723
3165.157	6846
3168.306	6888
3171.453	6764
3174.597	6970
3177.739	7074
3180.878	6878
3184.014	6840
3187.149	6919
3190.28	6816
3193.409	6819
3196.536	6836
3199.659	6738
3202.781	6725
3205.9	7034
3209.016	6863
3212.13	6821
3215.241	6800
3218.35	6891
3221.456	6955
3224.56	7010
3227.661	6958
3230.76	7039
3233.856	6957
3236.95	6880
3240.041	6931
3243.13	6774
3246.216	6791
3249.3	6716
3252.382	6662
3255.46	6766
3258.537	5811
3261.611	6700
3264.682	6470
3267.751	6438
3270.818	6582
3273.882	6277
3276.943	6268
3280.002	6243
3283.059	6231
3286.113	6188
3289.165	6238
3292.214	6192
3295.261	6064
3298.306	6097
3301.348	5937
3304.387	5846
3307.425	5774
3310.459	5702
3313.492	5548
3316.521	5514
3319.549	5480
3322.574	5407
3325.597	5295
3328.617	5312
3331.635	5173
3334.65	5205
3337.663	5182
3340.674	5130
3343.682	5035
3346.688	4973
3349.691	4999
3352.692	5130
3355.691	4932
3358.687	4906
3361.681	4889
3364.673	4945
3367.662	4865
3370.649	4767
3373.633	4921
3376.615	4783
3379.595	4954
3382.572	4837
3385.547	4638
3388.52	4708
3391.49	4648
3394.458	4554
3397.424	4444
3400.387	4535
3403.348	4154
3406.307	4239
3409.263	4224
3412.217	4066
3415.168	4086
3418.118	4113
3421.065	4025
3424.009	3830
3426.951	3925
3429.891	3694
3432.829	3863
3435.764	3830
3438.697	3727
3441.628	3517
3444.557	3628
3447.483	3636
3450.407	3409
3453.328	3277
3456.247	3407
3459.164	3422
3462.079	3174
3464.991	3083
3467.902	3011
3470.809	3020
3473.715	2837
3476.618	2793
3479.519	2746
3482.418	2826
3485.315	2632
3488.209	2519
3491.101	2525
3493.99	2500
3496.878	2147
3499.763	2179
3502.646	2141
3505.527	2259
3508.405	2150
3511.281	2048
3514.155	2025
3517.027	1954
3519.897	2057
3522.764	1856
3525.629	1952
3528.492	1762
3531.352	1647
3534.211	1634
3537.067	1703
3539.921	1583
3542.773	1511
3545.622	1495
3548.469	1505
3551.315	1434
3554.157	1302
3556.998	1196
3559.837	1152
3562.673	1034
3565.507	1183
3568.339	1028
3571.169	1080
3573.996	995
3576.822	999
3579.645	1019
3582.466	887
3585.285	847
3588.101	796
3590.916	903
3593.728	783
3596.538	844
3599.346	713
3602.152	806
3604.956	729
3607.757	635
3610.556	755
3613.354	634
3616.149	621
3618.942	574
3621.732	365
3624.521	627
3627.307	478
3630.092	506
3632.874	386
3635.654	499
3638.432	593
3641.208	418
3643.982	477
3646.753	377
3649.523	403
3652.29	423
3655.055	477
3657.818	318
3660.579	268
3663.338	470
3666.095	221
3668.849	473
3671.602	254
3674.352	411
3677.101	275
3679.847	161
3682.591	355
3685.333	273
3688.073	161
3690.811	305
3693.547	129
3696.281	221
3699.013	154
3701.742	199
3704.47	309
3707.195	124
3709.919	151
3712.64	166
3715.359	54
3718.076	-32
3720.792	110
3723.505	121
3726.216	96
3728.925	142
3731.632	-11
3734.336	224
3737.039	69
3739.74	93
3742.439	202
3745.136	81
3747.83	80
3750.523	66
3753.213	400
3755.902	73
3758.589	193
3761.273	151
3763.956	-38
3766.636	132
3769.315	-50
3771.991	255
3774.665	49
3777.338	224
3780.008	144
3782.677	138
3785.343	215
3788.007	197
3790.67	70
3793.33	10
3795.989	141
3798.645	7
3801.299	192
3803.952	37
3806.602	16
3809.251	90
3811.897	44
3814.542	31
3817.184	46
3819.825	130
3822.463	-7
3825.1	44
3827.735	86
3830.367	40
3832.998	-88
3835.627	-32
3838.253	-11
3840.878	-152
3843.501	-46
3846.122	-46
3848.741	-79
3851.358	3
3853.973	190
3856.586	41
3859.197	-26
3861.806	-20
3864.414	118
3867.019	29
3869.622	-74
3872.224	-84
3874.823	57
3877.421	85
3880.016	107
3882.61	191
3885.202	146
3887.792	135
3890.38	-61
3892.966	58
3895.55	28
3898.132	29
3900.713	-57
3903.291	-12
3905.868	-7
3908.442	-41
3911.015	9
3913.586	18
3916.155	-55
3918.722	58
3921.287	-14
3923.85	-229
3926.411	-57
3928.971	-61
3931.528	-18
3934.084	33
3936.638	45
3939.19	-38
3941.74	-80
3944.288	-29
3946.834	-71
3949.378	-7
3951.921	115
3954.462	24
3957	41
3959.537	52
3962.072	126
3964.606	104
3967.137	-25
3969.667	-30
3972.194	16
3974.72	35
3977.244	75
3979.766	43
3982.286	139
3984.805	-8
3987.321	-63
3989.836	17
3992.349	31
3994.86	15
3997.369	16
3999.877	-18
4002.382	-20
4004.886	-14
4007.388	-3
4009.888	138
4012.386	-81
4014.883	-24
4017.377	-2
4019.87	-84
4022.361	22
4024.85	79
4027.338	151
4029.823	-29
4032.307	-1
4034.789	48
4037.269	45
4039.747	123
4042.224	20
4044.699	-12
4047.172	-6
4049.643	-37
4052.112	103
4054.58	40
4057.046	48
4059.51	87
4061.972	-39
4064.432	101
4066.891	-72
4069.348	15
4071.803	-89
4074.256	5
4076.708	36
4079.158	89
4081.606	-67
4084.052	16
4086.497	-53
4088.939	101
4091.38	39
4093.819	-48
4096.257	-1176
4098.693	-1206
4101.127	-1252
4103.559	-1292
4105.989	178
4108.418	169
4110.845	347
4113.27	308
4115.694	447
4118.115	363
4120.535	-35
4122.954	-105
4125.37	-101
4127.785	10
4130.198	-27
4132.609	-53
4135.019	-1291
4137.427	-1285
4139.833	-1228
4142.237	-1074
