Data from 2018-2-8_conc=3_RamanShift_11.txt Node
Date: Wed Feb 07 10:16:40 IST 2018
User: aro
Spectrometer: QEPB0276
Trigger mode: 0
Integration Time (sec): 3.000000E1
Scans to average: 1
Electric dark correction enabled: true
Nonlinearity correction enabled: false
Boxcar width: 0
XAxis mode: Raman Shifts
Number of Pixels in Spectrum: 1044
>>>>>Begin Spectral Data<<<<<
160.701	398.1
166.742	554.1
172.777	1066.1
178.805	2650.1
184.826	6126.1
190.841	12242.1
196.849	19475.1
202.85	24938.1
208.845	26946.1
214.833	26841.1
220.815	26331.1
226.789	26299.1
232.758	26164.1
238.719	25998.1
244.674	25829.1
250.623	25315.1
256.565	24874.1
262.5	24421.1
268.429	23885.1
274.351	23574.1
280.267	23352.1
286.176	22832.1
292.079	22592.1
297.975	22225.1
303.865	21980.1
309.748	21928.1
315.625	21746.1
321.495	21328.1
327.359	21350.1
333.217	21413.1
339.068	21394.1
344.912	21372.1
350.751	21280.1
356.583	21292.1
362.408	21214.1
368.227	21263.1
374.04	21319.1
379.847	21473.1
385.647	21523.1
391.44	21802.1
397.228	21797.1
403.009	21952.1
408.784	22162.1
414.553	22238.1
420.315	22263.1
426.071	22407.1
431.821	22260.1
437.565	22251.1
443.302	21966.1
449.033	21991.1
454.758	21873.1
460.477	21795.1
466.189	21749.1
471.896	21614.1
477.596	21472.1
483.29	21557.1
488.978	21518.1
494.66	21478.1
500.335	21447.1
506.005	21334.1
511.668	21084.1
517.325	21059.1
522.977	20894.1
528.622	20739.1
534.261	20653.1
539.894	20492.1
545.521	20500.1
551.141	20396.1
556.756	20059.1
562.365	19991.1
567.968	19951.1
573.565	19792.1
579.155	19623.1
584.74	19543.1
590.319	19437.1
595.892	19469.1
601.459	19363.1
607.02	19333.1
612.575	19347.1
618.124	19262.1
623.667	19380.1
629.204	19265.1
634.735	19209.1
640.261	19222.1
645.781	19284.1
651.294	19009.1
656.802	18789.1
662.304	18748.1
667.8	18524.1
673.29	18531.1
678.775	18357.1
684.254	18375.1
689.726	18477.1
695.193	18248.1
700.655	18263.1
706.11	18415.1
711.56	18275.1
717.004	18350.1
722.442	18496.1
727.874	18322.1
733.301	18304.1
738.722	18335.1
744.137	18093.1
749.547	17963.1
754.951	17955.1
760.349	17813.1
765.741	17662.1
771.128	17642.1
776.509	17610.1
781.885	17654.1
787.254	17533.1
792.618	17680.1
797.977	17744.1
803.33	17886.1
808.677	17826.1
814.019	17853.1
819.355	17748.1
824.686	17693.1
830.011	17782.1
835.33	17566.1
840.644	17341.1
845.952	17368.1
851.255	17083.1
856.552	17090.1
861.844	16916.1
867.13	16858.1
872.41	16819.1
877.686	16795.1
882.955	16830.1
888.219	16954.1
893.478	17060.1
898.731	16807.1
903.979	16801.1
909.221	16825.1
914.458	16695.1
919.69	16486.1
924.916	16417.1
930.136	16146.1
935.351	16181.1
940.561	15862.1
945.766	15780.1
950.965	15575.1
956.158	15774.1
961.347	15772.1
966.529	15788.1
971.707	15798.1
976.879	15793.1
982.046	15838.1
987.208	15817.1
992.364	15678.1
997.515	15613.1
1002.66	15454.1
1007.801	15520.1
1012.936	15456.1
1018.066	15515.1
1023.19	15354.1
1028.309	15232.1
1033.423	15369.1
1038.532	15412.1
1043.636	15608.1
1048.734	15584.1
1053.827	15685.1
1058.915	15749.1
1063.998	15571.1
1069.075	15314.1
1074.147	15092.1
1079.214	15131.1
1084.276	14805.1
1089.333	14755.1
1094.385	14747.1
1099.431	14766.1
1104.472	14668.1
1109.509	14881.1
1114.54	14937.1
1119.565	14964.1
1124.586	14967.1
1129.602	14972.1
1134.613	14897.1
1139.618	14805.1
1144.619	14603.1
1149.614	14373.1
1154.604	14244.1
1159.589	14179.1
1164.57	13968.1
1169.545	14010.1
1174.515	14063.1
1179.48	14174.1
1184.44	14175.1
1189.395	14356.1
1194.345	14475.1
1199.29	14430.1
1204.23	14545.1
1209.165	14375.1
1214.095	14274.1
1219.021	14102.1
1223.941	14153.1
1228.856	14101.1
1233.766	14050.1
1238.672	14001.1
1243.572	13943.1
1248.467	13983.1
1253.358	14137.1
1258.244	14158.1
1263.124	14020.1
1268	13945.1
1272.871	13921.1
1277.737	13860.1
1282.599	13633.1
1287.455	13475.1
1292.306	13274.1
1297.153	13366.1
1301.995	13137.1
1306.832	13068.1
1311.664	13105.1
1316.491	13127.1
1321.314	13134.1
1326.132	13077.1
1330.945	13014.1
1335.753	12863.1
1340.556	12714.1
1345.354	12567.1
1350.148	12243.1
1354.937	12084.1
1359.722	12038.1
1364.501	11837.1
1369.276	11671.1
1374.046	11717.1
1378.811	11867.1
1383.572	11974.1
1388.327	11755.1
1393.079	12182.1
1397.825	12253.1
1402.567	12182.1
1407.304	12222.1
1412.036	12182.1
1416.764	12128.1
1421.487	12279.1
1426.205	11915.1
1430.919	11714.1
1435.628	11567.1
1440.333	11515.1
1445.032	11433.1
1449.727	11484.1
1454.418	11412.1
1459.104	11410.1
1463.785	11191.1
1468.462	11290.1
1473.134	11163.1
1477.802	11043.1
1482.465	11083.1
1487.123	10791.1
1491.777	10915.1
1496.426	10712.1
1501.071	10562.1
1505.711	10631.1
1510.347	10589.1
1514.978	10738.1
1519.604	10834.1
1524.226	10965.1
1528.844	11185.1
1533.457	11186.1
1538.065	11172.1
1542.669	11340.1
1547.269	11382.1
1551.864	11341.1
1556.454	11487.1
1561.041	11419.1
1565.622	11359.1
1570.199	11030.1
1574.772	11048.1
1579.34	10795.1
1583.904	10941.1
1588.464	10945.1
1593.019	10916.1
1597.569	11049.1
1602.115	11078.1
1606.657	11199.1
1611.195	11242.1
1615.728	11195.1
1620.256	11339.1
1624.78	11322.1
1629.3	11397.1
1633.816	11150.1
1638.327	11127.1
1642.834	11092.1
1647.336	10979.1
1651.834	10908.1
1656.328	10976.1
1660.817	10821.1
1665.302	10850.1
1669.783	10898.1
1674.259	10650.1
1678.732	10485.1
1683.199	10259.1
1687.663	10053.1
1692.122	9706.1
1696.577	9416.1
1701.028	9359.1
1705.474	9315.1
1709.917	9336.1
1714.355	9292.1
1718.788	9153.1
1723.218	9017.1
1727.643	8832.1
1732.064	8664.1
1736.481	8747.1
1740.893	8475.1
1745.301	8332.1
1749.705	8395.1
1754.105	8010.1
1758.501	7953.1
1762.893	7637.1
1767.28	7636.1
1771.663	7310.1
1776.042	7231.1
1780.417	7191.1
1784.787	6903.1
1789.154	6990.1
1793.516	6861.1
1797.874	7109.1
1802.228	7203.1
1806.578	7486.1
1810.924	7294.1
1815.266	8410.1
1819.603	7352.1
1823.937	7374.1
1828.266	7272.1
1832.591	7211.1
1836.913	7111.1
1841.23	7190.1
1845.543	7079.1
1849.852	6924.1
1854.156	6899.1
1858.457	6908.1
1862.754	6637.1
1867.047	6754.1
1871.335	6637.1
1875.62	6504.1
1879.9	6544.1
1884.177	6734.1
1888.449	6594.1
1892.718	6610.1
1896.982	6447.1
1901.243	6654.1
1905.499	6612.1
1909.752	6510.1
1914	6567.1
1918.245	6450.1
1922.485	6474.1
1926.722	6528.1
1930.954	6540.1
1935.183	6559.1
1939.408	6509.1
1943.628	6575.1
1947.845	6601.1
1952.058	6648.1
1956.267	6521.1
1960.472	6550.1
1964.673	6519.1
1968.87	6627.1
1973.063	6558.1
1977.252	6514.1
1981.438	6359.1
1985.619	6265.1
1989.797	6230.1
1993.971	6111.1
1998.14	5985.1
2002.306	6013.1
2006.469	5942.1
2010.627	5882.1
2014.781	5926.1
2018.932	6003.1
2023.078	5826.1
2027.221	5735.1
2031.36	5777.1
2035.495	5801.1
2039.627	5722.1
2043.754	5699.1
2047.878	5599.1
2051.998	5599.1
2056.114	5634.1
2060.226	5616.1
2064.334	5511.1
2068.439	5330.1
2072.54	5368.1
2076.637	5503.1
2080.73	5542.1
2084.82	5409.1
2088.906	5482.1
2092.988	5417.1
2097.066	5580.1
2101.14	5454.1
2105.211	5609.1
2109.278	5578.1
2113.342	5583.1
2117.401	5628.1
2121.457	5608.1
2125.509	5563.1
2129.558	5335.1
2133.602	5411.1
2137.643	5345.1
2141.681	5195.1
2145.714	5274.1
2149.744	5167.1
2153.77	5187.1
2157.793	5103.1
2161.812	5198.1
2165.827	5157.1
2169.838	4980.1
2173.846	5007.1
2177.851	4920.1
2181.851	4854.1
2185.848	4867.1
2189.841	4741.1
2193.831	4792.1
2197.817	4621.1
2201.799	4682.1
2205.778	4686.1
2209.753	4658.1
2213.725	4610.1
2217.693	4558.1
2221.657	4526.1
2225.618	4465.1
2229.575	4509.1
2233.529	4402.1
2237.479	4480.1
2241.425	4428.1
2245.368	4550.1
2249.307	4409.1
2253.243	4365.1
2257.175	4429.1
2261.104	4299.1
2265.029	4243.1
2268.95	4209.1
2272.868	4108.1
2276.783	4101.1
2280.694	3933.1
2284.601	3903.1
2288.505	3916.1
2292.405	3836.1
2296.302	3895.1
2300.195	3695.1
2304.085	3853.1
2307.971	3814.1
2311.854	3834.1
2315.734	3755.1
2319.609	3666.1
2323.482	3801.1
2327.351	3674.1
2331.216	3660.1
2335.078	3612.1
2338.937	3614.1
2342.792	3653.1
2346.643	3580.1
2350.492	3488.1
2354.336	3524.1
2358.178	3525.1
2362.015	3474.1
2365.85	3517.1
2369.681	3575.1
2373.508	3556.1
2377.333	3404.1
2381.153	3541.1
2384.971	3571.1
2388.785	3508.1
2392.595	3530.1
2396.402	3613.1
2400.206	3674.1
2404.007	3560.1
2407.804	3510.1
2411.597	3373.1
2415.388	3487.1
2419.174	3381.1
2422.958	3342.1
2426.738	3296.1
2430.515	3217.1
2434.289	3381.1
2438.059	3328.1
2441.825	3288.1
2445.589	3161.1
2449.349	3291.1
2453.106	3181.1
2456.859	3199.1
2460.61	3086.1
2464.356	3163.1
2468.1	3108.1
2471.84	3180.1
2475.577	3130.1
2479.311	3033.1
2483.041	3016.1
2486.768	2882.1
2490.492	2757.1
2494.213	3133.1
2497.93	3032.1
2501.644	2990.1
2505.355	2984.1
2509.062	2952.1
2512.766	3029.1
2516.467	2902.1
2520.165	2959.1
2523.859	3024.1
2527.551	2785.1
2531.239	2882.1
2534.923	2935.1
2538.605	2853.1
2542.283	2871.1
2545.958	2852.1
2549.63	2798.1
2553.299	2808.1
2556.964	2775.1
2560.626	2808.1
2564.285	2685.1
2567.941	2837.1
2571.594	2889.1
2575.243	2727.1
2578.89	2826.1
2582.533	2800.1
2586.173	2766.1
2589.809	2748.1
2593.443	2906.1
2597.073	2751.1
2600.701	2615.1
2604.325	2686.1
2607.946	2632.1
2611.564	2588.1
2615.178	2465.1
2618.79	2579.1
2622.398	2640.1
2626.004	2608.1
2629.606	2473.1
2633.205	2665.1
2636.801	2439.1
2640.394	2454.1
2643.983	2430.1
2647.57	2469.1
2651.153	2454.1
2654.734	2330.1
2658.311	2503.1
2661.885	2418.1
2665.456	2375.1
2669.025	2331.1
2672.589	2284.1
2676.151	2147.1
2679.71	2193.1
2683.266	2292.1
2686.819	2176.1
2690.368	2089.1
2693.915	2147.1
2697.458	2157.1
2700.999	2044.1
2704.536	2031.1
2708.071	2071.1
2711.602	2000.1
2715.13	2000.1
2718.656	2007.1
2722.178	1916.1
2725.697	1932.1
2729.214	1712.1
2732.727	1871.1
2736.237	1888.1
2739.744	1892.1
2743.249	1935.1
2746.75	1878.1
2750.248	1958.1
2753.743	1931.1
2757.236	1936.1
2760.725	1902.1
2764.211	2184.1
2767.695	1884.1
2771.175	1924.1
2774.652	1913.1
2778.127	1959.1
2781.598	1914.1
2785.067	1951.1
2788.532	1948.1
2791.995	1863.1
2795.455	1921.1
2798.911	1861.1
2802.365	2005.1
2805.816	1907.1
2809.264	1886.1
2812.709	1908.1
2816.151	1819.1
2819.59	1980.1
2823.026	1990.1
2826.46	2070.1
2829.89	1997.1
2833.318	2172.1
2836.742	2015.1
2840.164	2021.1
2843.583	2039.1
2846.999	2100.1
2850.412	2000.1
2853.822	2155.1
2857.229	1999.1
2860.634	2058.1
2864.035	2113.1
2867.434	2124.1
2870.83	1999.1
2874.223	2197.1
2877.613	2105.1
2881	2300.1
2884.385	2373.1
2887.766	2300.1
2891.145	2218.1
2894.521	2368.1
2897.894	2318.1
2901.264	2080.1
2904.631	2363.1
2907.996	2302.1
2911.358	2306.1
2914.717	2347.1
2918.073	2325.1
2921.426	2351.1
2924.777	2485.1
2928.124	2445.1
2931.469	2337.1
2934.811	2543.1
2938.15	2444.1
2941.487	2507.1
2944.821	2417.1
2948.152	2583.1
2951.48	2526.1
2954.805	2451.1
2958.128	2400.1
2961.447	2552.1
2964.765	2422.1
2968.079	2583.1
2971.39	2484.1
2974.699	2559.1
2978.005	2535.1
2981.308	2605.1
2984.609	2752.1
2987.907	2664.1
2991.202	2743.1
2994.494	2762.1
2997.784	2394.1
3001.07	2741.1
3004.355	2826.1
3007.636	2813.1
3010.915	2839.1
3014.191	2970.1
3017.464	2954.1
3020.734	2912.1
3024.002	3017.1
3027.267	3103.1
3030.53	3063.1
3033.789	3182.1
3037.046	3250.1
3040.301	3224.1
3043.552	3297.1
3046.801	3387.1
3050.048	3326.1
3053.291	3270.1
3056.532	3489.1
3059.771	3620.1
3063.006	3537.1
3066.239	3659.1
3069.469	3799.1
3072.697	3984.1
3075.922	4042.1
3079.144	4076.1
3082.364	4137.1
3085.581	4373.1
3088.795	4351.1
3092.007	4403.1
3095.216	4699.1
3098.423	4863.1
3101.627	4966.1
3104.828	5056.1
3108.026	5152.1
3111.222	5176.1
3114.416	5207.1
3117.607	5370.1
3120.795	5553.1
3123.98	5572.1
3127.163	5745.1
3130.344	5828.1
3133.521	5866.1
3136.696	6075.1
3139.869	6116.1
3143.039	6280.1
3146.206	6236.1
3149.371	6402.1
3152.533	6523.1
3155.693	6680.1
3158.85	6696.1
3162.005	6796.1
3165.157	6913.1
3168.306	7015.1
3171.453	6895.1
3174.597	7155.1
3177.739	7132.1
3180.878	7037.1
3184.014	7004.1
3187.149	7049.1
3190.28	7043.1
3193.409	6999.1
3196.536	6957.1
3199.659	6937.1
3202.781	6879.1
3205.9	7117.1
3209.016	6984.1
3212.13	7027.1
3215.241	6896.1
3218.35	6949.1
3221.456	7057.1
3224.56	7139.1
3227.661	7133.1
3230.76	7198.1
3233.856	7112.1
3236.95	7032.1
3240.041	7124.1
3243.13	6932.1
3246.216	6951.1
3249.3	6792.1
3252.382	6799.1
3255.46	6893.1
3258.537	7146.1
3261.611	6804.1
3264.682	6687.1
3267.751	6586.1
3270.818	6715.1
3273.882	6477.1
3276.943	6407.1
3280.002	6346.1
3283.059	6407.1
3286.113	6345.1
3289.165	6411.1
3292.214	6279.1
3295.261	6147.1
3298.306	6239.1
3301.348	6132.1
3304.387	5976.1
3307.425	5899.1
3310.459	5941.1
3313.492	5728.1
3316.521	5744.1
3319.549	5592.1
3322.574	5532.1
3325.597	5402.1
3328.617	5407.1
3331.635	5178.1
3334.65	5354.1
3337.663	5285.1
3340.674	5290.1
3343.682	5155.1
3346.688	5156.1
3349.691	5198.1
3352.692	5242.1
3355.691	5046.1
3358.687	5070.1
3361.681	5088.1
3364.673	5076.1
3367.662	5027.1
3370.649	4922.1
3373.633	5012.1
3376.615	4985.1
3379.595	5021.1
3382.572	4990.1
3385.547	4791.1
3388.52	4861.1
3391.49	4699.1
3394.458	4706.1
3397.424	4513.1
3400.387	4636.1
3403.348	4335.1
3406.307	4341.1
3409.263	4356.1
3412.217	4193.1
3415.168	4179.1
3418.118	4190.1
3421.065	4141.1
3424.009	3981.1
3426.951	4064.1
3429.891	3741.1
3432.829	3955.1
3435.764	3947.1
3438.697	3896.1
3441.628	3707.1
3444.557	3727.1
3447.483	3800.1
3450.407	3497.1
3453.328	3346.1
3456.247	3438.1
3459.164	3413.1
3462.079	3235.1
3464.991	3191.1
3467.902	3258.1
3470.809	3066.1
3473.715	2938.1
3476.618	2858.1
3479.519	2799.1
3482.418	2886.1
3485.315	2659.1
3488.209	2566.1
3491.101	2541.1
3493.99	2583.1
3496.878	2205.1
3499.763	2308.1
3502.646	2274.1
3505.527	2292.1
3508.405	2160.1
3511.281	2051.1
3514.155	2109.1
3517.027	2026.1
3519.897	2131.1
3522.764	1911.1
3525.629	1939.1
3528.492	1804.1
3531.352	1855.1
3534.211	1641.1
3537.067	1672.1
3539.921	1554.1
3542.773	1541.1
3545.622	1451.1
3548.469	1514.1
3551.315	1439.1
3554.157	1318.1
3556.998	1235.1
3559.837	1148.1
3562.673	998.1
3565.507	1180.1
3568.339	985.1
3571.169	1109.1
3573.996	981.1
3576.822	1011.1
3579.645	980.1
3582.466	903.1
3585.285	875.1
3588.101	847.1
3590.916	845.1
3593.728	794.1
3596.538	786.1
3599.346	702.1
3602.152	793.1
3604.956	718.1
3607.757	575.1
3610.556	771.1
3613.354	602.1
3616.149	629.1
3618.942	560.1
3621.732	339.1
3624.521	593.1
3627.307	496.1
3630.092	498.1
3632.874	350.1
3635.654	477.1
3638.432	485.1
3641.208	391.1
3643.982	441.1
3646.753	359.1
3649.523	434.1
3652.29	438.1
3655.055	405.1
3657.818	260.1
3660.579	389.1
3663.338	440.1
3666.095	266.1
3668.849	396.1
3671.602	273.1
3674.352	309.1
3677.101	275.1
3679.847	139.1
3682.591	268.1
3685.333	268.1
3688.073	184.1
3690.811	297.1
3693.547	252.1
3696.281	224.1
3699.013	130.1
3701.742	139.1
3704.47	255.1
3707.195	107.1
3709.919	121.1
3712.64	110.1
3715.359	6.1
3718.076	-92.9
3720.792	126.1
3723.505	103.1
3726.216	78.1
3728.925	85.1
3731.632	-37.9
3734.336	166.1
3737.039	78.1
3739.74	125.1
3742.439	141.1
3745.136	67.1
3747.83	60.1
3750.523	53.1
3753.213	-329.9
3755.902	37.1
3758.589	194.1
3761.273	96.1
3763.956	-58.9
3766.636	96.1
3769.315	-91.9
3771.991	134.1
3774.665	-68.9
3777.338	139.1
3780.008	77.1
3782.677	-130.9
3785.343	157.1
3788.007	-38.9
3790.67	-10.9
3793.33	-61.9
3795.989	88.1
3798.645	-49.9
3801.299	157.1
3803.952	-43.9
3806.602	-39.9
3809.251	53.1
3811.897	51.1
3814.542	42.1
3817.184	-27.9
3819.825	96.1
3822.463	-65.9
3825.1	-17.9
3827.735	41.1
3830.367	-5.9
3832.998	-188.9
3835.627	-58.9
3838.253	-70.9
3840.878	7.1
3843.501	-125.9
3846.122	-64.9
3848.741	-110.9
3851.358	-20.9
3853.973	155.1
3856.586	-31.9
3859.197	-69.9
3861.806	-51.9
3864.414	75.1
3867.019	41.1
3869.622	-63.9
3872.224	-111.9
3874.823	8.1
3877.421	4.1
3880.016	67.1
3882.61	175.1
3885.202	132.1
3887.792	95.1
3890.38	-67.9
3892.966	99.1
3895.55	-6.9
3898.132	-31.9
3900.713	-102.9
3903.291	18.1
3905.868	-110.9
3908.442	-31.9
3911.015	3.1
3913.586	-32.9
3916.155	-59.9
3918.722	21.1
3921.287	-92.9
3923.85	-151.9
3926.411	-67.9
3928.971	-123.9
3931.528	-19.9
3934.084	-43.9
3936.638	-55.9
3939.19	-150.9
3941.74	17.1
3944.288	-91.9
3946.834	-59.9
3949.378	-43.9
3951.921	41.1
3954.462	-47.9
3957	-51.9
3959.537	13.1
3962.072	36.1
3964.606	98.1
3967.137	-68.9
3969.667	-50.9
3972.194	1.1
3974.72	-29.9
3977.244	50.1
3979.766	66.1
3982.286	37.1
3984.805	-88.9
3987.321	-151.9
3989.836	-51.9
3992.349	21.1
3994.86	-11.9
3997.369	-61.9
3999.877	-52.9
4002.382	-74.9
4004.886	-27.9
4007.388	-30.9
4009.888	108.1
4012.386	-37.9
4014.883	-18.9
4017.377	-24.9
4019.87	-142.9
4022.361	27.1
4024.85	-15.9
4027.338	-51.9
4029.823	-109.9
4032.307	-66.9
4034.789	80.1
4037.269	22.1
4039.747	43.1
4042.224	-67.9
4044.699	-58.9
4047.172	11.1
4049.643	-51.9
4052.112	118.1
4054.58	-0.9
4057.046	-4.9
4059.51	25.1
4061.972	-24.9
4064.432	43.1
4066.891	-122.9
4069.348	42.1
4071.803	-91.9
4074.256	-47.9
4076.708	-21.9
4079.158	6.1
4081.606	-149.9
4084.052	33.1
4086.497	-74.9
4088.939	-35.9
4091.38	46.1
4093.819	-63.9
4096.257	-1137.9
4098.693	-1137.9
4101.127	-1189.9
4103.559	-1196.9
4105.989	154.1
4108.418	139.1
4110.845	378.1
4113.27	260.1
4115.694	361.1
4118.115	387.1
4120.535	-82.9
4122.954	-121.9
4125.37	-162.9
4127.785	-53.9
4130.198	-38.9
4132.609	-59.9
4135.019	-1238.9
4137.427	-1235.9
4139.833	-1163.9
4142.237	-1029.9
