Data from 100000CFU2_B_ramanshift_RamanShift_12-29-07-588.txt Node
Date: Sun Jan 01 12:29:07 IST 2017
User: aro
Spectrometer: QEPB0276
Trigger mode: 0
Integration Time (sec): 5.000000E0
Scans to average: 1
Electric dark correction enabled: true
Nonlinearity correction enabled: false
Boxcar width: 0
XAxis mode: Raman Shifts
Number of Pixels in Spectrum: 1044
>>>>>Begin Spectral Data<<<<<
160.701	4
166.742	17
172.777	64
178.805	195
184.826	571
190.841	1368
196.849	2564
202.85	3733
208.845	4293
214.833	4333
220.815	4149
226.789	4015
232.758	3906
238.719	3817
244.674	3671
250.623	3543
256.565	3368
262.5	3235
268.429	3090
274.351	2959
280.267	2827
286.176	2730
292.079	2642
297.975	2530
303.865	2473
309.748	2389
315.625	2336
321.495	2271
327.359	2238
333.217	2230
339.068	2186
344.912	2162
350.751	2155
356.583	2153
362.408	2157
368.227	2148
374.04	2143
379.847	2160
385.647	2149
391.44	2186
397.228	2189
403.009	2179
408.784	2179
414.553	2205
420.315	2216
426.071	2197
431.821	2204
437.565	2201
443.302	2194
449.033	2205
454.758	2190
460.477	2177
466.189	2192
471.896	2176
477.596	2147
483.29	2132
488.978	2120
494.66	2118
500.335	2101
506.005	2087
511.668	2024
517.325	2004
522.977	1971
528.622	1957
534.261	1937
539.894	1920
545.521	1883
551.141	1872
556.756	1865
562.365	1855
567.968	1840
573.565	1829
579.155	1813
584.74	1810
590.319	1794
595.892	1778
601.459	1769
607.02	1765
612.575	1763
618.124	1732
623.667	1722
629.204	1708
634.735	1693
640.261	1675
645.781	1674
651.294	1664
656.802	1652
662.304	1649
667.8	1630
673.29	1636
678.775	1621
684.254	1616
689.726	1600
695.193	1595
700.655	1591
706.11	1581
711.56	1552
717.004	1566
722.442	1537
727.874	1537
733.301	1537
738.722	1521
744.137	1494
749.547	1510
754.951	1513
760.349	1498
765.741	1491
771.128	1485
776.509	1489
781.885	1502
787.254	1494
792.618	1492
797.977	1483
803.33	1473
808.677	1447
814.019	1447
819.355	1442
824.686	1412
830.011	1406
835.33	1384
840.644	1413
845.952	1380
851.255	1382
856.552	1372
861.844	1374
867.13	1368
872.41	1364
877.686	1345
882.955	1324
888.219	1320
893.478	1300
898.731	1285
903.979	1244
909.221	1234
914.458	1248
919.69	1226
924.916	1228
930.136	1221
935.351	1217
940.561	1227
945.766	1210
950.965	1211
956.158	1200
961.347	1178
966.529	1174
971.707	1159
976.879	1144
982.046	1129
987.208	1129
992.364	1097
997.515	1120
1002.66	1124
1007.801	1136
1012.936	1123
1018.066	1129
1023.19	1139
1028.309	1152
1033.423	1159
1038.532	1151
1043.636	1148
1048.734	1133
1053.827	1140
1058.915	1113
1063.998	1111
1069.075	1109
1074.147	1113
1079.214	1103
1084.276	1118
1089.333	1132
1094.385	1131
1099.431	1145
1104.472	1156
1109.509	1141
1114.54	1127
1119.565	1128
1124.586	1116
1129.602	1115
1134.613	1095
1139.618	1076
1144.619	1088
1149.614	1103
1154.604	1070
1159.589	1088
1164.57	1102
1169.545	1085
1174.515	1101
1179.48	1110
1184.44	1105
1189.395	1097
1194.345	1095
1199.29	1073
1204.23	1071
1209.165	1072
1214.095	1082
1219.021	1097
1223.941	1097
1228.856	1104
1233.766	1103
1238.672	1123
1243.572	1114
1248.467	1110
1253.358	1092
1258.244	1079
1263.124	1072
1268	1058
1272.871	1045
1277.737	1040
1282.599	1039
1287.455	1036
1292.306	1044
1297.153	1046
1301.995	1048
1306.832	1054
1311.664	1073
1316.491	1066
1321.314	1066
1326.132	1041
1330.945	1061
1335.753	1035
1340.556	1027
1345.354	1020
1350.148	1008
1354.937	1004
1359.722	998
1364.501	982
1369.276	966
1374.046	972
1378.811	960
1383.572	960
1388.327	963
1393.079	965
1397.825	957
1402.567	947
1407.304	950
1412.036	932
1416.764	914
1421.487	926
1426.205	930
1430.919	942
1435.628	937
1440.333	951
1445.032	964
1449.727	983
1454.418	979
1459.104	979
1463.785	979
1468.462	974
1473.134	954
1477.802	956
1482.465	948
1487.123	936
1491.777	935
1496.426	944
1501.071	936
1505.711	958
1510.347	959
1514.978	976
1519.604	978
1524.226	988
1528.844	998
1533.457	991
1538.065	991
1542.669	988
1547.269	993
1551.864	999
1556.454	981
1561.041	990
1565.622	1007
1570.199	1017
1574.772	1051
1579.34	1048
1583.904	1079
1588.464	1099
1593.019	1108
1597.569	1143
1602.115	1145
1606.657	1144
1611.195	1160
1615.728	1165
1620.256	1170
1624.78	1195
1629.3	1209
1633.816	1245
1638.327	1247
1642.834	1259
1647.336	1278
1651.834	1290
1656.328	1272
1660.817	1264
1665.302	1259
1669.783	1238
1674.259	1200
1678.732	1171
1683.199	1145
1687.663	1095
1692.122	1072
1696.577	1022
1701.028	989
1705.474	951
1709.917	910
1714.355	893
1718.788	887
1723.218	868
1727.643	839
1732.064	829
1736.481	815
1740.893	800
1745.301	776
1749.705	757
1754.105	756
1758.501	730
1762.893	709
1767.28	698
1771.663	690
1776.042	685
1780.417	681
1784.787	673
1789.154	670
1793.516	680
1797.874	678
1802.228	675
1806.578	673
1810.924	656
1815.266	645
1819.603	643
1823.937	637
1828.266	635
1832.591	619
1836.913	622
1841.23	613
1845.543	606
1849.852	612
1854.156	607
1858.457	606
1862.754	604
1867.047	620
1871.335	624
1875.62	626
1879.9	634
1884.177	626
1888.449	623
1892.718	632
1896.982	625
1901.243	626
1905.499	614
1909.752	623
1914	615
1918.245	613
1922.485	612
1926.722	624
1930.954	610
1935.183	620
1939.408	622
1943.628	630
1947.845	626
1952.058	626
1956.267	629
1960.472	633
1964.673	614
1968.87	607
1973.063	594
1977.252	596
1981.438	597
1985.619	592
1989.797	592
1993.971	592
1998.14	600
2002.306	605
2006.469	608
2010.627	603
2014.781	604
2018.932	607
2023.078	617
2027.221	608
2031.36	607
2035.495	606
2039.627	596
2043.754	589
2047.878	586
2051.998	588
2056.114	581
2060.226	593
2064.334	584
2068.439	582
2072.54	596
2076.637	598
2080.73	599
2084.82	604
2088.906	610
2092.988	597
2097.066	606
2101.14	600
2105.211	598
2109.278	592
2113.342	578
2117.401	581
2121.457	585
2125.509	575
2129.558	582
2133.602	574
2137.643	570
2141.681	570
2145.714	564
2149.744	567
2153.77	559
2157.793	560
2161.812	559
2165.827	539
2169.838	533
2173.846	536
2177.851	537
2181.851	520
2185.848	520
2189.841	506
2193.831	505
2197.817	501
2201.799	509
2205.778	496
2209.753	497
2213.725	502
2217.693	491
2221.657	493
2225.618	498
2229.575	490
2233.529	495
2237.479	485
2241.425	466
2245.368	475
2249.307	457
2253.243	460
2257.175	460
2261.104	454
2265.029	442
2268.95	438
2272.868	442
2276.783	422
2280.694	418
2284.601	424
2288.505	417
2292.405	406
2296.302	414
2300.195	398
2304.085	405
2307.971	397
2311.854	385
2315.734	380
2319.609	370
2323.482	370
2327.351	363
2331.216	368
2335.078	356
2338.937	365
2342.792	347
2346.643	349
2350.492	340
2354.336	351
2358.178	352
2362.015	347
2365.85	347
2369.681	344
2373.508	352
2377.333	351
2381.153	347
2384.971	348
2388.785	340
2392.595	340
2396.402	334
2400.206	346
2404.007	344
2407.804	343
2411.597	339
2415.388	335
2419.174	332
2422.958	336
2426.738	335
2430.515	332
2434.289	326
2438.059	327
2441.825	335
2445.589	326
2449.349	328
2453.106	330
2456.859	322
2460.61	317
2464.356	316
2468.1	302
2471.84	307
2475.577	308
2479.311	308
2483.041	307
2486.768	316
2490.492	311
2494.213	309
2497.93	304
2501.644	310
2505.355	314
2509.062	306
2512.766	302
2516.467	305
2520.165	307
2523.859	304
2527.551	300
2531.239	294
2534.923	303
2538.605	293
2542.283	283
2545.958	289
2549.63	296
2553.299	296
2556.964	293
2560.626	277
2564.285	286
2567.941	271
2571.594	270
2575.243	276
2578.89	270
2582.533	271
2586.173	269
2589.809	261
2593.443	264
2597.073	260
2600.701	265
2604.325	247
2607.946	268
2611.564	254
2615.178	259
2618.79	259
2622.398	260
2626.004	246
2629.606	260
2633.205	256
2636.801	247
2640.394	251
2643.983	242
2647.57	248
2651.153	241
2654.734	234
2658.311	246
2661.885	236
2665.456	233
2669.025	229
2672.589	232
2676.151	232
2679.71	222
2683.266	220
2686.819	224
2690.368	221
2693.915	227
2697.458	219
2700.999	217
2704.536	217
2708.071	207
2711.602	214
2715.13	211
2718.656	217
2722.178	212
2725.697	213
2729.214	217
2732.727	211
2736.237	216
2739.744	214
2743.249	215
2746.75	204
2750.248	215
2753.743	212
2757.236	211
2760.725	214
2764.211	210
2767.695	206
2771.175	214
2774.652	200
2778.127	206
2781.598	208
2785.067	194
2788.532	202
2791.995	195
2795.455	199
2798.911	199
2802.365	201
2805.816	203
2809.264	205
2812.709	200
2816.151	205
2819.59	205
2823.026	210
2826.46	210
2829.89	207
2833.318	207
2836.742	218
2840.164	214
2843.583	213
2846.999	214
2850.412	222
2853.822	217
2857.229	220
2860.634	229
2864.035	228
2867.434	236
2870.83	239
2874.223	233
2877.613	239
2881	241
2884.385	245
2887.766	240
2891.145	236
2894.521	245
2897.894	244
2901.264	238
2904.631	232
2907.996	243
2911.358	253
2914.717	251
2918.073	252
2921.426	250
2924.777	262
2928.124	261
2931.469	268
2934.811	271
2938.15	279
2941.487	280
2944.821	288
2948.152	291
2951.48	296
2954.805	301
2958.128	298
2961.447	308
2964.765	304
2968.079	314
2971.39	320
2974.699	325
2978.005	327
2981.308	334
2984.609	341
2987.907	354
2991.202	362
2994.494	377
2997.784	383
3001.07	391
3004.355	402
3007.636	408
3010.915	417
3014.191	425
3017.464	437
3020.734	436
3024.002	445
3027.267	451
3030.53	466
3033.789	478
3037.046	474
3040.301	492
3043.552	504
3046.801	512
3050.048	524
3053.291	545
3056.532	547
3059.771	562
3063.006	576
3066.239	593
3069.469	615
3072.697	623
3075.922	643
3079.144	665
3082.364	674
3085.581	686
3088.795	710
3092.007	734
3095.216	747
3098.423	753
3101.627	778
3104.828	789
3108.026	800
3111.222	823
3114.416	840
3117.607	864
3120.795	884
3123.98	905
3127.163	931
3130.344	932
3133.521	967
3136.696	979
3139.869	1010
3143.039	1005
3146.206	1039
3149.371	1052
3152.533	1055
3155.693	1072
3158.85	1072
3162.005	1089
3165.157	1094
3168.306	1093
3171.453	1105
3174.597	1108
3177.739	1102
3180.878	1118
3184.014	1109
3187.149	1131
3190.28	1113
3193.409	1124
3196.536	1132
3199.659	1132
3202.781	1138
3205.9	1140
3209.016	1131
3212.13	1148
3215.241	1129
3218.35	1124
3221.456	1124
3224.56	1116
3227.661	1105
3230.76	1103
3233.856	1087
3236.95	1077
3240.041	1073
3243.13	1057
3246.216	1056
3249.3	1036
3252.382	1026
3255.46	1030
3258.537	1035
3261.611	1038
3264.682	1025
3267.751	1032
3270.818	1024
3273.882	1035
3276.943	1003
3280.002	1015
3283.059	997
3286.113	986
3289.165	973
3292.214	961
3295.261	961
3298.306	936
3301.348	909
3304.387	902
3307.425	897
3310.459	876
3313.492	871
3316.521	854
3319.549	848
3322.574	830
3325.597	850
3328.617	846
3331.635	839
3334.65	819
3337.663	829
3340.674	805
3343.682	809
3346.688	804
3349.691	804
3352.692	807
3355.691	798
3358.687	795
3361.681	777
3364.673	774
3367.662	771
3370.649	773
3373.633	756
3376.615	742
3379.595	732
3382.572	727
3385.547	707
3388.52	705
3391.49	697
3394.458	689
3397.424	662
3400.387	664
3403.348	665
3406.307	650
3409.263	647
3412.217	634
3415.168	625
3418.118	611
3421.065	625
3424.009	618
3426.951	609
3429.891	592
3432.829	588
3435.764	582
3438.697	571
3441.628	558
3444.557	548
3447.483	541
3450.407	517
3453.328	506
3456.247	494
3459.164	475
3462.079	457
3464.991	450
3467.902	439
3470.809	437
3473.715	422
3476.618	402
3479.519	398
3482.418	391
3485.315	381
3488.209	366
3491.101	355
3493.99	353
3496.878	328
3499.763	338
3502.646	316
3505.527	320
3508.405	295
3511.281	289
3514.155	284
3517.027	265
3519.897	256
3522.764	254
3525.629	236
3528.492	228
3531.352	214
3534.211	208
3537.067	189
3539.921	187
3542.773	180
3545.622	163
3548.469	155
3551.315	147
3554.157	144
3556.998	142
3559.837	133
3562.673	125
3565.507	113
3568.339	115
3571.169	106
3573.996	100
3576.822	99
3579.645	95
3582.466	85
3585.285	82
3588.101	74
3590.916	69
3593.728	63
3596.538	64
3599.346	56
3602.152	52
3604.956	46
3607.757	40
3610.556	36
3613.354	38
3616.149	31
3618.942	25
3621.732	26
3624.521	26
3627.307	17
3630.092	18
3632.874	12
3635.654	9
3638.432	12
3641.208	7
3643.982	4
3646.753	2
3649.523	-1
3652.29	3
3655.055	-3
3657.818	-1
3660.579	-9
3663.338	-16
3666.095	-14
3668.849	-13
3671.602	-16
3674.352	-20
3677.101	-24
3679.847	-27
3682.591	-25
3685.333	-31
3688.073	-31
3690.811	-28
3693.547	-36
3696.281	-38
3699.013	-33
3701.742	-36
3704.47	-37
3707.195	-40
3709.919	-43
3712.64	-43
3715.359	-44
3718.076	-43
3720.792	-45
3723.505	-45
3726.216	-45
3728.925	-46
3731.632	-48
3734.336	-47
3737.039	-49
3739.74	-49
3742.439	-53
3745.136	-49
3747.83	-50
3750.523	-53
3753.213	-47
3755.902	-52
3758.589	-51
3761.273	-50
3763.956	-55
3766.636	-56
3769.315	-55
3771.991	-57
3774.665	-58
3777.338	-57
3780.008	-58
3782.677	-61
3785.343	-54
3788.007	-58
3790.67	-57
3793.33	-59
3795.989	-60
3798.645	-59
3801.299	-60
3803.952	-57
3806.602	-60
3809.251	-57
3811.897	-56
3814.542	-61
3817.184	-60
3819.825	-55
3822.463	-57
3825.1	-59
3827.735	-54
3830.367	-54
3832.998	-59
3835.627	-59
3838.253	-57
3840.878	-65
3843.501	-60
3846.122	-60
3848.741	-61
3851.358	-63
3853.973	-59
3856.586	-59
3859.197	-66
3861.806	-65
3864.414	-63
3867.019	-65
3869.622	-68
3872.224	-65
3874.823	-62
3877.421	-68
3880.016	-61
3882.61	-61
3885.202	-61
3887.792	-58
3890.38	-62
3892.966	-63
3895.55	-63
3898.132	-65
3900.713	-68
3903.291	-72
3905.868	-64
3908.442	-66
3911.015	-66
3913.586	-66
3916.155	-66
3918.722	-67
3921.287	-67
3923.85	-72
3926.411	-66
3928.971	-67
3931.528	-68
3934.084	-68
3936.638	-72
3939.19	-70
3941.74	-68
3944.288	-66
3946.834	-66
3949.378	-71
3951.921	-68
3954.462	-68
3957	-63
3959.537	-64
3962.072	-67
3964.606	-64
3967.137	-66
3969.667	-67
3972.194	-65
3974.72	-58
3977.244	-63
3979.766	-59
3982.286	-64
3984.805	-65
3987.321	-63
3989.836	-63
3992.349	-67
3994.86	-69
3997.369	-68
3999.877	-66
4002.382	-63
4004.886	-64
4007.388	-67
4009.888	-67
4012.386	-66
4014.883	-69
4017.377	-69
4019.87	-68
4022.361	-68
4024.85	-65
4027.338	-68
4029.823	-64
4032.307	-70
4034.789	-69
4037.269	-70
4039.747	-68
4042.224	-67
4044.699	-68
4047.172	-67
4049.643	-64
4052.112	-67
4054.58	-66
4057.046	-63
4059.51	-62
4061.972	-63
4064.432	-66
4066.891	-63
4069.348	-66
4071.803	-66
4074.256	-65
4076.708	-67
4079.158	-66
4081.606	-65
4084.052	-63
4086.497	-65
4088.939	-69
4091.38	-67
4093.819	-67
4096.257	-73
4098.693	-74
4101.127	-74
4103.559	-72
4105.989	-21
4108.418	-17
4110.845	-20
4113.27	-17
4115.694	-10
4118.115	-3
4120.535	-66
4122.954	-64
4125.37	-67
4127.785	-68
4130.198	-67
4132.609	-67
4135.019	-71
4137.427	-70
4139.833	-70
4142.237	-69
