Data from 10000CFU1_A_ramanshift_RamanShift_11-46-57-723.txt Node
Date: Sun Jan 01 11:46:57 IST 2017
User: aro
Spectrometer: QEPB0276
Trigger mode: 0
Integration Time (sec): 5.000000E0
Scans to average: 1
Electric dark correction enabled: true
Nonlinearity correction enabled: false
Boxcar width: 0
XAxis mode: Raman Shifts
Number of Pixels in Spectrum: 1044
>>>>>Begin Spectral Data<<<<<
160.701	1.12
166.742	15.12
172.777	59.12
178.805	208.12
184.826	595.12
190.841	1444.12
196.849	2655.12
202.85	3787.12
208.845	4327.12
214.833	4330.12
220.815	4150.12
226.789	4005.12
232.758	3921.12
238.719	3813.12
244.674	3685.12
250.623	3557.12
256.565	3390.12
262.5	3223.12
268.429	3089.12
274.351	2968.12
280.267	2843.12
286.176	2740.12
292.079	2661.12
297.975	2551.12
303.865	2488.12
309.748	2421.12
315.625	2360.12
321.495	2313.12
327.359	2276.12
333.217	2232.12
339.068	2222.12
344.912	2207.12
350.751	2197.12
356.583	2190.12
362.408	2180.12
368.227	2164.12
374.04	2175.12
379.847	2186.12
385.647	2220.12
391.44	2202.12
397.228	2203.12
403.009	2212.12
408.784	2226.12
414.553	2229.12
420.315	2247.12
426.071	2246.12
431.821	2241.12
437.565	2248.12
443.302	2243.12
449.033	2225.12
454.758	2227.12
460.477	2218.12
466.189	2198.12
471.896	2203.12
477.596	2153.12
483.29	2173.12
488.978	2158.12
494.66	2135.12
500.335	2121.12
506.005	2106.12
511.668	2056.12
517.325	2023.12
522.977	1995.12
528.622	1974.12
534.261	1947.12
539.894	1926.12
545.521	1909.12
551.141	1888.12
556.756	1887.12
562.365	1877.12
567.968	1873.12
573.565	1856.12
579.155	1834.12
584.74	1834.12
590.319	1818.12
595.892	1813.12
601.459	1809.12
607.02	1772.12
612.575	1777.12
618.124	1758.12
623.667	1744.12
629.204	1723.12
634.735	1692.12
640.261	1685.12
645.781	1673.12
651.294	1684.12
656.802	1658.12
662.304	1647.12
667.8	1649.12
673.29	1637.12
678.775	1640.12
684.254	1606.12
689.726	1614.12
695.193	1617.12
700.655	1618.12
706.11	1579.12
711.56	1559.12
717.004	1582.12
722.442	1545.12
727.874	1539.12
733.301	1542.12
738.722	1539.12
744.137	1524.12
749.547	1530.12
754.951	1527.12
760.349	1501.12
765.741	1508.12
771.128	1508.12
776.509	1507.12
781.885	1522.12
787.254	1516.12
792.618	1498.12
797.977	1499.12
803.33	1475.12
808.677	1474.12
814.019	1456.12
819.355	1434.12
824.686	1436.12
830.011	1422.12
835.33	1402.12
840.644	1412.12
845.952	1392.12
851.255	1386.12
856.552	1384.12
861.844	1385.12
867.13	1369.12
872.41	1351.12
877.686	1337.12
882.955	1341.12
888.219	1315.12
893.478	1293.12
898.731	1277.12
903.979	1249.12
909.221	1241.12
914.458	1235.12
919.69	1223.12
924.916	1222.12
930.136	1225.12
935.351	1226.12
940.561	1214.12
945.766	1217.12
950.965	1213.12
956.158	1204.12
961.347	1201.12
966.529	1170.12
971.707	1160.12
976.879	1156.12
982.046	1133.12
987.208	1123.12
992.364	1134.12
997.515	1127.12
1002.66	1126.12
1007.801	1121.12
1012.936	1141.12
1018.066	1172.12
1023.19	1165.12
1028.309	1166.12
1033.423	1169.12
1038.532	1158.12
1043.636	1143.12
1048.734	1152.12
1053.827	1139.12
1058.915	1126.12
1063.998	1129.12
1069.075	1117.12
1074.147	1123.12
1079.214	1122.12
1084.276	1125.12
1089.333	1133.12
1094.385	1147.12
1099.431	1142.12
1104.472	1144.12
1109.509	1135.12
1114.54	1132.12
1119.565	1122.12
1124.586	1123.12
1129.602	1095.12
1134.613	1081.12
1139.618	1092.12
1144.619	1092.12
1149.614	1074.12
1154.604	1081.12
1159.589	1104.12
1164.57	1110.12
1169.545	1106.12
1174.515	1105.12
1179.48	1104.12
1184.44	1102.12
1189.395	1086.12
1194.345	1070.12
1199.29	1093.12
1204.23	1071.12
1209.165	1082.12
1214.095	1090.12
1219.021	1105.12
1223.941	1113.12
1228.856	1118.12
1233.766	1125.12
1238.672	1113.12
1243.572	1125.12
1248.467	1126.12
1253.358	1102.12
1258.244	1103.12
1263.124	1074.12
1268	1074.12
1272.871	1048.12
1277.737	1049.12
1282.599	1043.12
1287.455	1035.12
1292.306	1038.12
1297.153	1052.12
1301.995	1061.12
1306.832	1069.12
1311.664	1067.12
1316.491	1074.12
1321.314	1062.12
1326.132	1057.12
1330.945	1051.12
1335.753	1028.12
1340.556	1013.12
1345.354	1028.12
1350.148	1003.12
1354.937	1002.12
1359.722	1001.12
1364.501	990.12
1369.276	985.12
1374.046	966.12
1378.811	958.12
1383.572	968.12
1388.327	966.12
1393.079	966.12
1397.825	961.12
1402.567	958.12
1407.304	935.12
1412.036	942.12
1416.764	949.12
1421.487	946.12
1426.205	941.12
1430.919	944.12
1435.628	949.12
1440.333	960.12
1445.032	959.12
1449.727	982.12
1454.418	979.12
1459.104	992.12
1463.785	991.12
1468.462	970.12
1473.134	979.12
1477.802	951.12
1482.465	944.12
1487.123	945.12
1491.777	933.12
1496.426	932.12
1501.071	945.12
1505.711	960.12
1510.347	974.12
1514.978	981.12
1519.604	990.12
1524.226	997.12
1528.844	992.12
1533.457	1001.12
1538.065	1001.12
1542.669	997.12
1547.269	973.12
1551.864	999.12
1556.454	1008.12
1561.041	1010.12
1565.622	1016.12
1570.199	1025.12
1574.772	1048.12
1579.34	1068.12
1583.904	1085.12
1588.464	1096.12
1593.019	1114.12
1597.569	1145.12
1602.115	1151.12
1606.657	1158.12
1611.195	1173.12
1615.728	1185.12
1620.256	1186.12
1624.78	1188.12
1629.3	1222.12
1633.816	1236.12
1638.327	1274.12
1642.834	1264.12
1647.336	1278.12
1651.834	1300.12
1656.328	1280.12
1660.817	1278.12
1665.302	1257.12
1669.783	1238.12
1674.259	1202.12
1678.732	1181.12
1683.199	1156.12
1687.663	1100.12
1692.122	1071.12
1696.577	1039.12
1701.028	992.12
1705.474	959.12
1709.917	922.12
1714.355	886.12
1718.788	863.12
1723.218	856.12
1727.643	841.12
1732.064	833.12
1736.481	820.12
1740.893	797.12
1745.301	776.12
1749.705	768.12
1754.105	745.12
1758.501	727.12
1762.893	720.12
1767.28	700.12
1771.663	691.12
1776.042	683.12
1780.417	692.12
1784.787	678.12
1789.154	686.12
1793.516	683.12
1797.874	675.12
1802.228	668.12
1806.578	678.12
1810.924	670.12
1815.266	661.12
1819.603	646.12
1823.937	632.12
1828.266	629.12
1832.591	615.12
1836.913	620.12
1841.23	620.12
1845.543	605.12
1849.852	614.12
1854.156	619.12
1858.457	623.12
1862.754	623.12
1867.047	622.12
1871.335	634.12
1875.62	637.12
1879.9	634.12
1884.177	625.12
1888.449	626.12
1892.718	620.12
1896.982	622.12
1901.243	618.12
1905.499	619.12
1909.752	616.12
1914	620.12
1918.245	618.12
1922.485	626.12
1926.722	630.12
1930.954	613.12
1935.183	626.12
1939.408	635.12
1943.628	633.12
1947.845	640.12
1952.058	632.12
1956.267	627.12
1960.472	619.12
1964.673	609.12
1968.87	619.12
1973.063	601.12
1977.252	599.12
1981.438	599.12
1985.619	600.12
1989.797	585.12
1993.971	603.12
1998.14	588.12
2002.306	597.12
2006.469	605.12
2010.627	605.12
2014.781	610.12
2018.932	602.12
2023.078	606.12
2027.221	621.12
2031.36	609.12
2035.495	604.12
2039.627	598.12
2043.754	600.12
2047.878	586.12
2051.998	589.12
2056.114	577.12
2060.226	591.12
2064.334	593.12
2068.439	593.12
2072.54	591.12
2076.637	598.12
2080.73	599.12
2084.82	596.12
2088.906	603.12
2092.988	603.12
2097.066	592.12
2101.14	600.12
2105.211	603.12
2109.278	585.12
2113.342	585.12
2117.401	583.12
2121.457	590.12
2125.509	582.12
2129.558	578.12
2133.602	568.12
2137.643	573.12
2141.681	567.12
2145.714	570.12
2149.744	567.12
2153.77	561.12
2157.793	558.12
2161.812	561.12
2165.827	539.12
2169.838	539.12
2173.846	532.12
2177.851	536.12
2181.851	528.12
2185.848	516.12
2189.841	512.12
2193.831	506.12
2197.817	495.12
2201.799	503.12
2205.778	501.12
2209.753	494.12
2213.725	493.12
2217.693	505.12
2221.657	493.12
2225.618	490.12
2229.575	488.12
2233.529	490.12
2237.479	497.12
2241.425	484.12
2245.368	472.12
2249.307	460.12
2253.243	471.12
2257.175	452.12
2261.104	451.12
2265.029	449.12
2268.95	442.12
2272.868	442.12
2276.783	426.12
2280.694	433.12
2284.601	426.12
2288.505	422.12
2292.405	417.12
2296.302	402.12
2300.195	416.12
2304.085	398.12
2307.971	397.12
2311.854	388.12
2315.734	384.12
2319.609	377.12
2323.482	363.12
2327.351	365.12
2331.216	360.12
2335.078	362.12
2338.937	353.12
2342.792	355.12
2346.643	356.12
2350.492	347.12
2354.336	345.12
2358.178	346.12
2362.015	356.12
2365.85	354.12
2369.681	346.12
2373.508	362.12
2377.333	357.12
2381.153	353.12
2384.971	342.12
2388.785	356.12
2392.595	344.12
2396.402	349.12
2400.206	344.12
2404.007	337.12
2407.804	342.12
2411.597	344.12
2415.388	343.12
2419.174	340.12
2422.958	340.12
2426.738	339.12
2430.515	332.12
2434.289	335.12
2438.059	331.12
2441.825	331.12
2445.589	327.12
2449.349	327.12
2453.106	326.12
2456.859	323.12
2460.61	312.12
2464.356	320.12
2468.1	313.12
2471.84	310.12
2475.577	308.12
2479.311	314.12
2483.041	303.12
2486.768	303.12
2490.492	307.12
2494.213	308.12
2497.93	310.12
2501.644	311.12
2505.355	309.12
2509.062	302.12
2512.766	307.12
2516.467	305.12
2520.165	303.12
2523.859	299.12
2527.551	296.12
2531.239	295.12
2534.923	298.12
2538.605	295.12
2542.283	291.12
2545.958	281.12
2549.63	286.12
2553.299	296.12
2556.964	288.12
2560.626	285.12
2564.285	273.12
2567.941	278.12
2571.594	278.12
2575.243	277.12
2578.89	274.12
2582.533	273.12
2586.173	272.12
2589.809	258.12
2593.443	262.12
2597.073	267.12
2600.701	265.12
2604.325	266.12
2607.946	264.12
2611.564	266.12
2615.178	260.12
2618.79	270.12
2622.398	263.12
2626.004	260.12
2629.606	260.12
2633.205	255.12
2636.801	254.12
2640.394	250.12
2643.983	247.12
2647.57	251.12
2651.153	244.12
2654.734	238.12
2658.311	237.12
2661.885	233.12
2665.456	232.12
2669.025	236.12
2672.589	227.12
2676.151	237.12
2679.71	230.12
2683.266	232.12
2686.819	218.12
2690.368	226.12
2693.915	220.12
2697.458	220.12
2700.999	208.12
2704.536	218.12
2708.071	213.12
2711.602	216.12
2715.13	210.12
2718.656	212.12
2722.178	212.12
2725.697	215.12
2729.214	214.12
2732.727	211.12
2736.237	206.12
2739.744	211.12
2743.249	217.12
2746.75	218.12
2750.248	210.12
2753.743	219.12
2757.236	209.12
2760.725	215.12
2764.211	214.12
2767.695	214.12
2771.175	214.12
2774.652	201.12
2778.127	206.12
2781.598	193.12
2785.067	207.12
2788.532	203.12
2791.995	199.12
2795.455	202.12
2798.911	202.12
2802.365	205.12
2805.816	199.12
2809.264	205.12
2812.709	210.12
2816.151	203.12
2819.59	205.12
2823.026	202.12
2826.46	212.12
2829.89	206.12
2833.318	211.12
2836.742	211.12
2840.164	216.12
2843.583	218.12
2846.999	215.12
2850.412	222.12
2853.822	219.12
2857.229	224.12
2860.634	223.12
2864.035	222.12
2867.434	231.12
2870.83	229.12
2874.223	234.12
2877.613	234.12
2881	234.12
2884.385	238.12
2887.766	238.12
2891.145	237.12
2894.521	245.12
2897.894	244.12
2901.264	240.12
2904.631	235.12
2907.996	237.12
2911.358	244.12
2914.717	245.12
2918.073	251.12
2921.426	249.12
2924.777	257.12
2928.124	263.12
2931.469	265.12
2934.811	282.12
2938.15	278.12
2941.487	280.12
2944.821	284.12
2948.152	285.12
2951.48	286.12
2954.805	285.12
2958.128	293.12
2961.447	293.12
2964.765	303.12
2968.079	314.12
2971.39	310.12
2974.699	327.12
2978.005	323.12
2981.308	327.12
2984.609	345.12
2987.907	341.12
2991.202	353.12
2994.494	369.12
2997.784	374.12
3001.07	383.12
3004.355	388.12
3007.636	407.12
3010.915	422.12
3014.191	427.12
3017.464	431.12
3020.734	434.12
3024.002	449.12
3027.267	440.12
3030.53	462.12
3033.789	466.12
3037.046	485.12
3040.301	485.12
3043.552	490.12
3046.801	511.12
3050.048	512.12
3053.291	530.12
3056.532	548.12
3059.771	566.12
3063.006	579.12
3066.239	592.12
3069.469	607.12
3072.697	624.12
3075.922	647.12
3079.144	663.12
3082.364	674.12
3085.581	689.12
3088.795	694.12
3092.007	709.12
3095.216	724.12
3098.423	732.12
3101.627	758.12
3104.828	782.12
3108.026	791.12
3111.222	807.12
3114.416	822.12
3117.607	845.12
3120.795	861.12
3123.98	885.12
3127.163	894.12
3130.344	935.12
3133.521	936.12
3136.696	963.12
3139.869	994.12
3143.039	1013.12
3146.206	1014.12
3149.371	1033.12
3152.533	1057.12
3155.693	1068.12
3158.85	1064.12
3162.005	1070.12
3165.157	1090.12
3168.306	1084.12
3171.453	1093.12
3174.597	1091.12
3177.739	1096.12
3180.878	1101.12
3184.014	1097.12
3187.149	1107.12
3190.28	1114.12
3193.409	1118.12
3196.536	1123.12
3199.659	1110.12
3202.781	1116.12
3205.9	1123.12
3209.016	1136.12
3212.13	1133.12
3215.241	1126.12
3218.35	1131.12
3221.456	1123.12
3224.56	1087.12
3227.661	1088.12
3230.76	1092.12
3233.856	1080.12
3236.95	1067.12
3240.041	1065.12
3243.13	1041.12
3246.216	1033.12
3249.3	1034.12
3252.382	1021.12
3255.46	1031.12
3258.537	1023.12
3261.611	1009.12
3264.682	1009.12
3267.751	1022.12
3270.818	997.12
3273.882	1005.12
3276.943	1013.12
3280.002	994.12
3283.059	987.12
3286.113	977.12
3289.165	970.12
3292.214	954.12
3295.261	941.12
3298.306	918.12
3301.348	907.12
3304.387	904.12
3307.425	882.12
3310.459	867.12
3313.492	870.12
3316.521	853.12
3319.549	841.12
3322.574	837.12
3325.597	845.12
3328.617	829.12
3331.635	801.12
3334.65	816.12
3337.663	805.12
3340.674	811.12
3343.682	797.12
3346.688	791.12
3349.691	809.12
3352.692	799.12
3355.691	782.12
3358.687	776.12
3361.681	772.12
3364.673	775.12
3367.662	767.12
3370.649	762.12
3373.633	750.12
3376.615	730.12
3379.595	732.12
3382.572	722.12
3385.547	713.12
3388.52	703.12
3391.49	692.12
3394.458	693.12
3397.424	689.12
3400.387	674.12
3403.348	650.12
3406.307	657.12
3409.263	633.12
3412.217	630.12
3415.168	625.12
3418.118	613.12
3421.065	626.12
3424.009	600.12
3426.951	602.12
3429.891	592.12
3432.829	585.12
3435.764	568.12
3438.697	566.12
3441.628	553.12
3444.557	541.12
3447.483	528.12
3450.407	518.12
3453.328	502.12
3456.247	486.12
3459.164	474.12
3462.079	463.12
3464.991	451.12
3467.902	430.12
3470.809	421.12
3473.715	418.12
3476.618	402.12
3479.519	387.12
3482.418	383.12
3485.315	376.12
3488.209	361.12
3491.101	355.12
3493.99	341.12
3496.878	330.12
3499.763	325.12
3502.646	317.12
3505.527	311.12
3508.405	299.12
3511.281	283.12
3514.155	274.12
3517.027	265.12
3519.897	254.12
3522.764	253.12
3525.629	242.12
3528.492	223.12
3531.352	208.12
3534.211	204.12
3537.067	188.12
3539.921	178.12
3542.773	176.12
3545.622	159.12
3548.469	150.12
3551.315	145.12
3554.157	138.12
3556.998	137.12
3559.837	127.12
3562.673	122.12
3565.507	128.12
3568.339	113.12
3571.169	109.12
3573.996	102.12
3576.822	99.12
3579.645	91.12
3582.466	84.12
3585.285	86.12
3588.101	74.12
3590.916	63.12
3593.728	58.12
3596.538	60.12
3599.346	52.12
3602.152	51.12
3604.956	48.12
3607.757	40.12
3610.556	36.12
3613.354	34.12
3616.149	27.12
3618.942	26.12
3621.732	29.12
3624.521	15.12
3627.307	19.12
3630.092	13.12
3632.874	10.12
3635.654	9.12
3638.432	7.12
3641.208	7.12
3643.982	5.12
3646.753	-1.88
3649.523	-3.88
3652.29	-0.88
3655.055	-4.88
3657.818	-8.88
3660.579	-4.88
3663.338	-11.88
3666.095	-14.88
3668.849	-12.88
3671.602	-20.88
3674.352	-22.88
3677.101	-23.88
3679.847	-24.88
3682.591	-27.88
3685.333	-26.88
3688.073	-31.88
3690.811	-29.88
3693.547	-32.88
3696.281	-36.88
3699.013	-33.88
3701.742	-40.88
3704.47	-37.88
3707.195	-33.88
3709.919	-39.88
3712.64	-42.88
3715.359	-38.88
3718.076	-40.88
3720.792	-45.88
3723.505	-46.88
3726.216	-42.88
3728.925	-46.88
3731.632	-47.88
3734.336	-45.88
3737.039	-47.88
3739.74	-44.88
3742.439	-45.88
3745.136	-46.88
3747.83	-50.88
3750.523	-50.88
3753.213	-48.88
3755.902	-53.88
3758.589	-50.88
3761.273	-57.88
3763.956	-56.88
3766.636	-54.88
3769.315	-58.88
3771.991	-59.88
3774.665	-55.88
3777.338	-57.88
3780.008	-58.88
3782.677	-61.88
3785.343	-58.88
3788.007	-55.88
3790.67	-54.88
3793.33	-62.88
3795.989	-56.88
3798.645	-59.88
3801.299	-59.88
3803.952	-61.88
3806.602	-58.88
3809.251	-62.88
3811.897	-59.88
3814.542	-63.88
3817.184	-54.88
3819.825	-55.88
3822.463	-55.88
3825.1	-54.88
3827.735	-53.88
3830.367	-56.88
3832.998	-60.88
3835.627	-57.88
3838.253	-58.88
3840.878	-65.88
3843.501	-59.88
3846.122	-61.88
3848.741	-61.88
3851.358	-62.88
3853.973	-59.88
3856.586	-61.88
3859.197	-62.88
3861.806	-65.88
3864.414	-65.88
3867.019	-63.88
3869.622	-67.88
3872.224	-64.88
3874.823	-63.88
3877.421	-65.88
3880.016	-60.88
3882.61	-59.88
3885.202	-62.88
3887.792	-53.88
3890.38	-61.88
3892.966	-62.88
3895.55	-65.88
3898.132	-66.88
3900.713	-67.88
3903.291	-67.88
3905.868	-67.88
3908.442	-62.88
3911.015	-65.88
3913.586	-64.88
3916.155	-63.88
3918.722	-66.88
3921.287	-68.88
3923.85	-66.88
3926.411	-65.88
3928.971	-65.88
3931.528	-66.88
3934.084	-68.88
3936.638	-69.88
3939.19	-69.88
3941.74	-65.88
3944.288	-65.88
3946.834	-65.88
3949.378	-69.88
3951.921	-65.88
3954.462	-68.88
3957	-65.88
3959.537	-66.88
3962.072	-68.88
3964.606	-66.88
3967.137	-64.88
3969.667	-67.88
3972.194	-67.88
3974.72	-64.88
3977.244	-66.88
3979.766	-62.88
3982.286	-62.88
3984.805	-66.88
3987.321	-63.88
3989.836	-64.88
3992.349	-67.88
3994.86	-67.88
3997.369	-68.88
3999.877	-63.88
4002.382	-65.88
4004.886	-65.88
4007.388	-67.88
4009.888	-68.88
4012.386	-62.88
4014.883	-70.88
4017.377	-69.88
4019.87	-65.88
4022.361	-67.88
4024.85	-70.88
4027.338	-66.88
4029.823	-65.88
4032.307	-67.88
4034.789	-63.88
4037.269	-67.88
4039.747	-64.88
4042.224	-66.88
4044.699	-67.88
4047.172	-63.88
4049.643	-61.88
4052.112	-63.88
4054.58	-63.88
4057.046	-65.88
4059.51	-62.88
4061.972	-64.88
4064.432	-65.88
4066.891	-64.88
4069.348	-63.88
4071.803	-67.88
4074.256	-67.88
4076.708	-67.88
4079.158	-66.88
4081.606	-68.88
4084.052	-66.88
4086.497	-64.88
4088.939	-69.88
4091.38	-68.88
4093.819	-67.88
4096.257	-71.88
4098.693	-71.88
4101.127	-70.88
4103.559	-70.88
4105.989	-28.88
4108.418	-23.88
4110.845	-20.88
4113.27	-20.88
4115.694	-16.88
4118.115	-10.88
4120.535	-68.88
4122.954	-70.88
4125.37	-68.88
4127.785	-68.88
4130.198	-66.88
4132.609	-67.88
4135.019	-69.88
4137.427	-71.88
4139.833	-69.88
4142.237	-71.88
