Data from 10000CFU3_B_ramanshift_RamanShift_12-27-22-596.txt Node
Date: Sun Jan 01 12:27:22 IST 2017
User: aro
Spectrometer: QEPB0276
Trigger mode: 0
Integration Time (sec): 5.000000E0
Scans to average: 1
Electric dark correction enabled: true
Nonlinearity correction enabled: false
Boxcar width: 0
XAxis mode: Raman Shifts
Number of Pixels in Spectrum: 1044
>>>>>Begin Spectral Data<<<<<
160.701	6
166.742	21
172.777	63
178.805	185
184.826	562
190.841	1353
196.849	2550
202.85	3684
208.845	4292
214.833	4325
220.815	4162
226.789	3981
232.758	3898
238.719	3786
244.674	3654
250.623	3516
256.565	3349
262.5	3204
268.429	3070
274.351	2946
280.267	2824
286.176	2711
292.079	2626
297.975	2528
303.865	2452
309.748	2379
315.625	2332
321.495	2264
327.359	2231
333.217	2191
339.068	2161
344.912	2151
350.751	2151
356.583	2153
362.408	2126
368.227	2130
374.04	2137
379.847	2141
385.647	2144
391.44	2151
397.228	2160
403.009	2176
408.784	2195
414.553	2183
420.315	2192
426.071	2192
431.821	2186
437.565	2191
443.302	2195
449.033	2197
454.758	2183
460.477	2160
466.189	2134
471.896	2136
477.596	2154
483.29	2123
488.978	2124
494.66	2118
500.335	2105
506.005	2083
511.668	2054
517.325	2001
522.977	1963
528.622	1964
534.261	1931
539.894	1904
545.521	1874
551.141	1868
556.756	1851
562.365	1836
567.968	1820
573.565	1833
579.155	1828
584.74	1810
590.319	1776
595.892	1768
601.459	1777
607.02	1759
612.575	1742
618.124	1718
623.667	1715
629.204	1704
634.735	1669
640.261	1654
645.781	1664
651.294	1655
656.802	1640
662.304	1645
667.8	1632
673.29	1616
678.775	1615
684.254	1621
689.726	1600
695.193	1595
700.655	1565
706.11	1557
711.56	1565
717.004	1558
722.442	1546
727.874	1526
733.301	1527
738.722	1517
744.137	1505
749.547	1514
754.951	1487
760.349	1481
765.741	1506
771.128	1499
776.509	1487
781.885	1489
787.254	1485
792.618	1469
797.977	1477
803.33	1468
808.677	1455
814.019	1432
819.355	1415
824.686	1405
830.011	1395
835.33	1383
840.644	1387
845.952	1376
851.255	1381
856.552	1361
861.844	1371
867.13	1333
872.41	1343
877.686	1324
882.955	1314
888.219	1313
893.478	1287
898.731	1261
903.979	1253
909.221	1245
914.458	1247
919.69	1218
924.916	1224
930.136	1226
935.351	1212
940.561	1209
945.766	1222
950.965	1200
956.158	1200
961.347	1179
966.529	1172
971.707	1161
976.879	1148
982.046	1128
987.208	1122
992.364	1116
997.515	1116
1002.66	1127
1007.801	1143
1012.936	1137
1018.066	1150
1023.19	1161
1028.309	1162
1033.423	1162
1038.532	1163
1043.636	1151
1048.734	1138
1053.827	1129
1058.915	1121
1063.998	1100
1069.075	1107
1074.147	1097
1079.214	1118
1084.276	1108
1089.333	1124
1094.385	1126
1099.431	1144
1104.472	1145
1109.509	1131
1114.54	1132
1119.565	1128
1124.586	1114
1129.602	1099
1134.613	1089
1139.618	1067
1144.619	1079
1149.614	1085
1154.604	1083
1159.589	1082
1164.57	1084
1169.545	1090
1174.515	1108
1179.48	1093
1184.44	1082
1189.395	1094
1194.345	1086
1199.29	1073
1204.23	1072
1209.165	1071
1214.095	1088
1219.021	1068
1223.941	1098
1228.856	1117
1233.766	1106
1238.672	1100
1243.572	1110
1248.467	1110
1253.358	1097
1258.244	1085
1263.124	1083
1268	1051
1272.871	1037
1277.737	1040
1282.599	1023
1287.455	1041
1292.306	1027
1297.153	1042
1301.995	1057
1306.832	1046
1311.664	1048
1316.491	1068
1321.314	1063
1326.132	1040
1330.945	1041
1335.753	1019
1340.556	1016
1345.354	1011
1350.148	1000
1354.937	987
1359.722	976
1364.501	974
1369.276	972
1374.046	973
1378.811	946
1383.572	954
1388.327	953
1393.079	953
1397.825	955
1402.567	934
1407.304	939
1412.036	920
1416.764	924
1421.487	935
1426.205	932
1430.919	937
1435.628	941
1440.333	962
1445.032	966
1449.727	975
1454.418	975
1459.104	980
1463.785	972
1468.462	971
1473.134	946
1477.802	951
1482.465	947
1487.123	939
1491.777	933
1496.426	930
1501.071	941
1505.711	950
1510.347	954
1514.978	966
1519.604	957
1524.226	986
1528.844	989
1533.457	985
1538.065	978
1542.669	997
1547.269	990
1551.864	985
1556.454	976
1561.041	999
1565.622	1008
1570.199	1021
1574.772	1029
1579.34	1049
1583.904	1063
1588.464	1100
1593.019	1116
1597.569	1124
1602.115	1124
1606.657	1149
1611.195	1147
1615.728	1170
1620.256	1181
1624.78	1185
1629.3	1211
1633.816	1240
1638.327	1239
1642.834	1262
1647.336	1272
1651.834	1266
1656.328	1272
1660.817	1257
1665.302	1256
1669.783	1231
1674.259	1197
1678.732	1178
1683.199	1138
1687.663	1099
1692.122	1057
1696.577	1025
1701.028	981
1705.474	944
1709.917	900
1714.355	895
1718.788	863
1723.218	863
1727.643	839
1732.064	832
1736.481	813
1740.893	785
1745.301	772
1749.705	758
1754.105	739
1758.501	714
1762.893	701
1767.28	694
1771.663	687
1776.042	666
1780.417	666
1784.787	675
1789.154	666
1793.516	672
1797.874	677
1802.228	668
1806.578	662
1810.924	659
1815.266	652
1819.603	640
1823.937	631
1828.266	629
1832.591	626
1836.913	617
1841.23	612
1845.543	607
1849.852	610
1854.156	609
1858.457	610
1862.754	616
1867.047	619
1871.335	623
1875.62	631
1879.9	624
1884.177	628
1888.449	626
1892.718	625
1896.982	624
1901.243	615
1905.499	616
1909.752	612
1914	609
1918.245	616
1922.485	605
1926.722	613
1930.954	621
1935.183	624
1939.408	631
1943.628	626
1947.845	615
1952.058	621
1956.267	617
1960.472	609
1964.673	609
1968.87	608
1973.063	598
1977.252	590
1981.438	600
1985.619	597
1989.797	591
1993.971	594
1998.14	591
2002.306	592
2006.469	593
2010.627	594
2014.781	599
2018.932	598
2023.078	608
2027.221	608
2031.36	594
2035.495	596
2039.627	587
2043.754	587
2047.878	588
2051.998	587
2056.114	579
2060.226	593
2064.334	583
2068.439	591
2072.54	588
2076.637	591
2080.73	602
2084.82	580
2088.906	591
2092.988	595
2097.066	591
2101.14	590
2105.211	588
2109.278	576
2113.342	592
2117.401	574
2121.457	584
2125.509	580
2129.558	572
2133.602	575
2137.643	561
2141.681	564
2145.714	573
2149.744	573
2153.77	568
2157.793	554
2161.812	554
2165.827	540
2169.838	534
2173.846	532
2177.851	525
2181.851	522
2185.848	520
2189.841	510
2193.831	517
2197.817	499
2201.799	510
2205.778	510
2209.753	499
2213.725	495
2217.693	498
2221.657	497
2225.618	492
2229.575	490
2233.529	486
2237.479	483
2241.425	472
2245.368	471
2249.307	474
2253.243	455
2257.175	464
2261.104	445
2265.029	438
2268.95	436
2272.868	433
2276.783	427
2280.694	429
2284.601	417
2288.505	421
2292.405	405
2296.302	406
2300.195	408
2304.085	404
2307.971	393
2311.854	384
2315.734	386
2319.609	372
2323.482	366
2327.351	370
2331.216	359
2335.078	357
2338.937	362
2342.792	355
2346.643	346
2350.492	348
2354.336	343
2358.178	350
2362.015	342
2365.85	351
2369.681	352
2373.508	354
2377.333	350
2381.153	349
2384.971	363
2388.785	353
2392.595	349
2396.402	355
2400.206	347
2404.007	354
2407.804	354
2411.597	347
2415.388	344
2419.174	345
2422.958	338
2426.738	336
2430.515	333
2434.289	340
2438.059	336
2441.825	325
2445.589	330
2449.349	329
2453.106	330
2456.859	329
2460.61	320
2464.356	311
2468.1	320
2471.84	308
2475.577	306
2479.311	300
2483.041	314
2486.768	307
2490.492	310
2494.213	309
2497.93	305
2501.644	304
2505.355	308
2509.062	303
2512.766	303
2516.467	311
2520.165	309
2523.859	307
2527.551	303
2531.239	292
2534.923	289
2538.605	301
2542.283	284
2545.958	291
2549.63	290
2553.299	285
2556.964	292
2560.626	284
2564.285	284
2567.941	275
2571.594	279
2575.243	285
2578.89	268
2582.533	271
2586.173	278
2589.809	266
2593.443	268
2597.073	267
2600.701	258
2604.325	269
2607.946	262
2611.564	267
2615.178	261
2618.79	260
2622.398	254
2626.004	260
2629.606	262
2633.205	254
2636.801	254
2640.394	254
2643.983	251
2647.57	250
2651.153	248
2654.734	238
2658.311	244
2661.885	233
2665.456	234
2669.025	222
2672.589	228
2676.151	231
2679.71	228
2683.266	225
2686.819	226
2690.368	217
2693.915	223
2697.458	216
2700.999	213
2704.536	219
2708.071	212
2711.602	215
2715.13	209
2718.656	210
2722.178	212
2725.697	214
2729.214	212
2732.727	206
2736.237	212
2739.744	214
2743.249	216
2746.75	218
2750.248	212
2753.743	213
2757.236	216
2760.725	216
2764.211	214
2767.695	203
2771.175	204
2774.652	200
2778.127	206
2781.598	199
2785.067	203
2788.532	208
2791.995	203
2795.455	207
2798.911	204
2802.365	211
2805.816	209
2809.264	212
2812.709	210
2816.151	210
2819.59	207
2823.026	216
2826.46	219
2829.89	214
2833.318	212
2836.742	215
2840.164	210
2843.583	214
2846.999	217
2850.412	219
2853.822	230
2857.229	222
2860.634	223
2864.035	235
2867.434	230
2870.83	232
2874.223	229
2877.613	232
2881	238
2884.385	240
2887.766	243
2891.145	235
2894.521	243
2897.894	237
2901.264	238
2904.631	237
2907.996	243
2911.358	243
2914.717	254
2918.073	249
2921.426	260
2924.777	255
2928.124	264
2931.469	273
2934.811	271
2938.15	277
2941.487	287
2944.821	293
2948.152	291
2951.48	291
2954.805	292
2958.128	298
2961.447	300
2964.765	309
2968.079	308
2971.39	315
2974.699	320
2978.005	328
2981.308	327
2984.609	345
2987.907	351
2991.202	358
2994.494	366
2997.784	381
3001.07	393
3004.355	403
3007.636	404
3010.915	416
3014.191	418
3017.464	436
3020.734	440
3024.002	449
3027.267	445
3030.53	466
3033.789	468
3037.046	476
3040.301	488
3043.552	494
3046.801	517
3050.048	530
3053.291	531
3056.532	541
3059.771	561
3063.006	580
3066.239	591
3069.469	620
3072.697	626
3075.922	652
3079.144	656
3082.364	674
3085.581	690
3088.795	702
3092.007	719
3095.216	736
3098.423	746
3101.627	765
3104.828	783
3108.026	801
3111.222	814
3114.416	833
3117.607	862
3120.795	869
3123.98	886
3127.163	908
3130.344	934
3133.521	946
3136.696	973
3139.869	984
3143.039	1006
3146.206	1017
3149.371	1033
3152.533	1037
3155.693	1066
3158.85	1063
3162.005	1065
3165.157	1080
3168.306	1084
3171.453	1086
3174.597	1091
3177.739	1092
3180.878	1105
3184.014	1110
3187.149	1103
3190.28	1108
3193.409	1120
3196.536	1117
3199.659	1134
3202.781	1124
3205.9	1140
3209.016	1115
3212.13	1140
3215.241	1143
3218.35	1133
3221.456	1117
3224.56	1106
3227.661	1087
3230.76	1066
3233.856	1072
3236.95	1065
3240.041	1052
3243.13	1046
3246.216	1037
3249.3	1024
3252.382	1027
3255.46	1010
3258.537	1017
3261.611	999
3264.682	992
3267.751	1012
3270.818	1008
3273.882	1010
3276.943	992
3280.002	985
3283.059	977
3286.113	978
3289.165	962
3292.214	935
3295.261	944
3298.306	922
3301.348	908
3304.387	890
3307.425	878
3310.459	857
3313.492	866
3316.521	848
3319.549	845
3322.574	837
3325.597	826
3328.617	821
3331.635	801
3334.65	818
3337.663	811
3340.674	804
3343.682	809
3346.688	801
3349.691	796
3352.692	795
3355.691	793
3358.687	791
3361.681	787
3364.673	769
3367.662	760
3370.649	749
3373.633	743
3376.615	737
3379.595	731
3382.572	711
3385.547	704
3388.52	709
3391.49	692
3394.458	687
3397.424	674
3400.387	666
3403.348	666
3406.307	661
3409.263	634
3412.217	644
3415.168	626
3418.118	627
3421.065	622
3424.009	608
3426.951	600
3429.891	600
3432.829	591
3435.764	570
3438.697	564
3441.628	555
3444.557	537
3447.483	530
3450.407	520
3453.328	505
3456.247	489
3459.164	462
3462.079	454
3464.991	449
3467.902	432
3470.809	430
3473.715	412
3476.618	400
3479.519	394
3482.418	379
3485.315	374
3488.209	356
3491.101	345
3493.99	342
3496.878	331
3499.763	322
3502.646	315
3505.527	302
3508.405	293
3511.281	276
3514.155	270
3517.027	261
3519.897	257
3522.764	244
3525.629	229
3528.492	215
3531.352	207
3534.211	200
3537.067	182
3539.921	187
3542.773	170
3545.622	161
3548.469	159
3551.315	145
3554.157	141
3556.998	130
3559.837	130
3562.673	122
3565.507	119
3568.339	117
3571.169	105
3573.996	100
3576.822	95
3579.645	95
3582.466	88
3585.285	82
3588.101	75
3590.916	69
3593.728	63
3596.538	63
3599.346	55
3602.152	51
3604.956	49
3607.757	41
3610.556	43
3613.354	38
3616.149	31
3618.942	26
3621.732	26
3624.521	22
3627.307	18
3630.092	17
3632.874	12
3635.654	9
3638.432	7
3641.208	7
3643.982	8
3646.753	4
3649.523	-4
3652.29	2
3655.055	-3
3657.818	-9
3660.579	-11
3663.338	-15
3666.095	-14
3668.849	-15
3671.602	-22
3674.352	-21
3677.101	-27
3679.847	-29
3682.591	-25
3685.333	-28
3688.073	-30
3690.811	-30
3693.547	-36
3696.281	-36
3699.013	-38
3701.742	-39
3704.47	-41
3707.195	-39
3709.919	-43
3712.64	-45
3715.359	-44
3718.076	-44
3720.792	-44
3723.505	-44
3726.216	-45
3728.925	-47
3731.632	-49
3734.336	-47
3737.039	-48
3739.74	-48
3742.439	-47
3745.136	-46
3747.83	-48
3750.523	-52
3753.213	-47
3755.902	-50
3758.589	-51
3761.273	-54
3763.956	-52
3766.636	-56
3769.315	-56
3771.991	-58
3774.665	-55
3777.338	-55
3780.008	-61
3782.677	-61
3785.343	-57
3788.007	-55
3790.67	-57
3793.33	-63
3795.989	-59
3798.645	-60
3801.299	-61
3803.952	-63
3806.602	-63
3809.251	-64
3811.897	-60
3814.542	-65
3817.184	-66
3819.825	-60
3822.463	-61
3825.1	-59
3827.735	-60
3830.367	-61
3832.998	-63
3835.627	-64
3838.253	-58
3840.878	-68
3843.501	-61
3846.122	-64
3848.741	-64
3851.358	-67
3853.973	-65
3856.586	-60
3859.197	-66
3861.806	-66
3864.414	-65
3867.019	-64
3869.622	-66
3872.224	-64
3874.823	-60
3877.421	-64
3880.016	-63
3882.61	-59
3885.202	-61
3887.792	-56
3890.38	-56
3892.966	-59
3895.55	-64
3898.132	-62
3900.713	-65
3903.291	-65
3905.868	-64
3908.442	-67
3911.015	-65
3913.586	-62
3916.155	-64
3918.722	-70
3921.287	-66
3923.85	-70
3926.411	-66
3928.971	-68
3931.528	-69
3934.084	-72
3936.638	-72
3939.19	-71
3941.74	-70
3944.288	-73
3946.834	-69
3949.378	-72
3951.921	-70
3954.462	-73
3957	-67
3959.537	-69
3962.072	-70
3964.606	-65
3967.137	-68
3969.667	-70
3972.194	-67
3974.72	-66
3977.244	-65
3979.766	-62
3982.286	-62
3984.805	-64
3987.321	-62
3989.836	-64
3992.349	-63
3994.86	-65
3997.369	-68
3999.877	-66
4002.382	-63
4004.886	-63
4007.388	-65
4009.888	-66
4012.386	-64
4014.883	-66
4017.377	-67
4019.87	-66
4022.361	-67
4024.85	-65
4027.338	-67
4029.823	-67
4032.307	-67
4034.789	-64
4037.269	-69
4039.747	-68
4042.224	-69
4044.699	-65
4047.172	-67
4049.643	-65
4052.112	-66
4054.58	-67
4057.046	-67
4059.51	-69
4061.972	-66
4064.432	-69
4066.891	-68
4069.348	-70
4071.803	-70
4074.256	-72
4076.708	-70
4079.158	-68
4081.606	-70
4084.052	-67
4086.497	-66
4088.939	-71
4091.38	-69
4093.819	-70
4096.257	-71
4098.693	-75
4101.127	-73
4103.559	-73
4105.989	-26
4108.418	-20
4110.845	-23
4113.27	-21
4115.694	-18
4118.115	-11
4120.535	-68
4122.954	-69
4125.37	-66
4127.785	-68
4130.198	-65
4132.609	-66
4135.019	-69
4137.427	-70
4139.833	-67
4142.237	-69
