Data from 10000CFU1_B_ramanshift_RamanShift_12-25-32-605.txt Node
Date: Sun Jan 01 12:25:32 IST 2017
User: aro
Spectrometer: QEPB0276
Trigger mode: 0
Integration Time (sec): 5.000000E0
Scans to average: 1
Electric dark correction enabled: true
Nonlinearity correction enabled: false
Boxcar width: 0
XAxis mode: Raman Shifts
Number of Pixels in Spectrum: 1044
>>>>>Begin Spectral Data<<<<<
160.701	4.25
166.742	22.25
172.777	57.25
178.805	189.25
184.826	556.25
190.841	1372.25
196.849	2591.25
202.85	3717.25
208.845	4352.25
214.833	4355.25
220.815	4206.25
226.789	4044.25
232.758	3931.25
238.719	3839.25
244.674	3708.25
250.623	3561.25
256.565	3389.25
262.5	3238.25
268.429	3097.25
274.351	2967.25
280.267	2859.25
286.176	2752.25
292.079	2649.25
297.975	2557.25
303.865	2488.25
309.748	2414.25
315.625	2356.25
321.495	2297.25
327.359	2259.25
333.217	2236.25
339.068	2204.25
344.912	2190.25
350.751	2177.25
356.583	2152.25
362.408	2158.25
368.227	2167.25
374.04	2149.25
379.847	2171.25
385.647	2160.25
391.44	2164.25
397.228	2191.25
403.009	2212.25
408.784	2208.25
414.553	2239.25
420.315	2227.25
426.071	2208.25
431.821	2217.25
437.565	2219.25
443.302	2214.25
449.033	2202.25
454.758	2206.25
460.477	2192.25
466.189	2189.25
471.896	2173.25
477.596	2151.25
483.29	2149.25
488.978	2133.25
494.66	2124.25
500.335	2126.25
506.005	2088.25
511.668	2043.25
517.325	2038.25
522.977	2003.25
528.622	1970.25
534.261	1921.25
539.894	1915.25
545.521	1910.25
551.141	1893.25
556.756	1874.25
562.365	1870.25
567.968	1841.25
573.565	1845.25
579.155	1822.25
584.74	1825.25
590.319	1822.25
595.892	1803.25
601.459	1790.25
607.02	1758.25
612.575	1761.25
618.124	1746.25
623.667	1737.25
629.204	1724.25
634.735	1735.25
640.261	1695.25
645.781	1673.25
651.294	1669.25
656.802	1655.25
662.304	1648.25
667.8	1642.25
673.29	1637.25
678.775	1646.25
684.254	1624.25
689.726	1607.25
695.193	1594.25
700.655	1581.25
706.11	1565.25
711.56	1568.25
717.004	1565.25
722.442	1553.25
727.874	1540.25
733.301	1529.25
738.722	1522.25
744.137	1518.25
749.547	1527.25
754.951	1500.25
760.349	1498.25
765.741	1522.25
771.128	1497.25
776.509	1506.25
781.885	1500.25
787.254	1490.25
792.618	1491.25
797.977	1489.25
803.33	1447.25
808.677	1480.25
814.019	1440.25
819.355	1432.25
824.686	1411.25
830.011	1429.25
835.33	1408.25
840.644	1398.25
845.952	1403.25
851.255	1377.25
856.552	1364.25
861.844	1370.25
867.13	1365.25
872.41	1340.25
877.686	1342.25
882.955	1331.25
888.219	1315.25
893.478	1286.25
898.731	1282.25
903.979	1256.25
909.221	1235.25
914.458	1235.25
919.69	1216.25
924.916	1212.25
930.136	1226.25
935.351	1223.25
940.561	1208.25
945.766	1213.25
950.965	1213.25
956.158	1193.25
961.347	1190.25
966.529	1177.25
971.707	1144.25
976.879	1139.25
982.046	1122.25
987.208	1112.25
992.364	1111.25
997.515	1109.25
1002.66	1114.25
1007.801	1124.25
1012.936	1137.25
1018.066	1147.25
1023.19	1149.25
1028.309	1161.25
1033.423	1166.25
1038.532	1134.25
1043.636	1143.25
1048.734	1131.25
1053.827	1123.25
1058.915	1120.25
1063.998	1103.25
1069.075	1112.25
1074.147	1085.25
1079.214	1110.25
1084.276	1114.25
1089.333	1116.25
1094.385	1131.25
1099.431	1143.25
1104.472	1138.25
1109.509	1121.25
1114.54	1127.25
1119.565	1111.25
1124.586	1107.25
1129.602	1090.25
1134.613	1084.25
1139.618	1079.25
1144.619	1067.25
1149.614	1076.25
1154.604	1068.25
1159.589	1089.25
1164.57	1102.25
1169.545	1095.25
1174.515	1109.25
1179.48	1095.25
1184.44	1086.25
1189.395	1087.25
1194.345	1068.25
1199.29	1072.25
1204.23	1068.25
1209.165	1069.25
1214.095	1080.25
1219.021	1090.25
1223.941	1106.25
1228.856	1106.25
1233.766	1106.25
1238.672	1104.25
1243.572	1104.25
1248.467	1104.25
1253.358	1091.25
1258.244	1088.25
1263.124	1056.25
1268	1059.25
1272.871	1048.25
1277.737	1028.25
1282.599	1021.25
1287.455	1020.25
1292.306	1036.25
1297.153	1025.25
1301.995	1053.25
1306.832	1048.25
1311.664	1066.25
1316.491	1062.25
1321.314	1054.25
1326.132	1048.25
1330.945	1037.25
1335.753	1019.25
1340.556	1009.25
1345.354	1019.25
1350.148	998.25
1354.937	977.25
1359.722	978.25
1364.501	968.25
1369.276	965.25
1374.046	948.25
1378.811	954.25
1383.572	950.25
1388.327	931.25
1393.079	946.25
1397.825	955.25
1402.567	940.25
1407.304	928.25
1412.036	916.25
1416.764	929.25
1421.487	924.25
1426.205	919.25
1430.919	927.25
1435.628	948.25
1440.333	946.25
1445.032	965.25
1449.727	964.25
1454.418	978.25
1459.104	969.25
1463.785	967.25
1468.462	966.25
1473.134	953.25
1477.802	935.25
1482.465	940.25
1487.123	931.25
1491.777	926.25
1496.426	938.25
1501.071	941.25
1505.711	946.25
1510.347	952.25
1514.978	968.25
1519.604	990.25
1524.226	983.25
1528.844	985.25
1533.457	991.25
1538.065	975.25
1542.669	985.25
1547.269	978.25
1551.864	985.25
1556.454	977.25
1561.041	999.25
1565.622	1013.25
1570.199	1008.25
1574.772	1021.25
1579.34	1040.25
1583.904	1073.25
1588.464	1098.25
1593.019	1088.25
1597.569	1120.25
1602.115	1127.25
1606.657	1145.25
1611.195	1156.25
1615.728	1165.25
1620.256	1163.25
1624.78	1183.25
1629.3	1211.25
1633.816	1228.25
1638.327	1231.25
1642.834	1241.25
1647.336	1250.25
1651.834	1281.25
1656.328	1266.25
1660.817	1266.25
1665.302	1245.25
1669.783	1230.25
1674.259	1196.25
1678.732	1181.25
1683.199	1129.25
1687.663	1106.25
1692.122	1053.25
1696.577	1029.25
1701.028	983.25
1705.474	940.25
1709.917	899.25
1714.355	863.25
1718.788	861.25
1723.218	849.25
1727.643	839.25
1732.064	833.25
1736.481	813.25
1740.893	781.25
1745.301	766.25
1749.705	737.25
1754.105	727.25
1758.501	723.25
1762.893	710.25
1767.28	684.25
1771.663	672.25
1776.042	666.25
1780.417	653.25
1784.787	660.25
1789.154	650.25
1793.516	658.25
1797.874	663.25
1802.228	661.25
1806.578	651.25
1810.924	649.25
1815.266	626.25
1819.603	626.25
1823.937	627.25
1828.266	631.25
1832.591	612.25
1836.913	598.25
1841.23	606.25
1845.543	602.25
1849.852	593.25
1854.156	601.25
1858.457	603.25
1862.754	603.25
1867.047	600.25
1871.335	600.25
1875.62	607.25
1879.9	612.25
1884.177	603.25
1888.449	613.25
1892.718	604.25
1896.982	593.25
1901.243	612.25
1905.499	594.25
1909.752	587.25
1914	600.25
1918.245	602.25
1922.485	603.25
1926.722	613.25
1930.954	595.25
1935.183	610.25
1939.408	604.25
1943.628	606.25
1947.845	616.25
1952.058	617.25
1956.267	606.25
1960.472	607.25
1964.673	605.25
1968.87	580.25
1973.063	592.25
1977.252	575.25
1981.438	584.25
1985.619	588.25
1989.797	616.25
1993.971	658.25
1998.14	585.25
2002.306	575.25
2006.469	593.25
2010.627	583.25
2014.781	595.25
2018.932	597.25
2023.078	588.25
2027.221	592.25
2031.36	595.25
2035.495	584.25
2039.627	582.25
2043.754	572.25
2047.878	573.25
2051.998	570.25
2056.114	575.25
2060.226	579.25
2064.334	581.25
2068.439	567.25
2072.54	589.25
2076.637	584.25
2080.73	597.25
2084.82	583.25
2088.906	599.25
2092.988	584.25
2097.066	584.25
2101.14	576.25
2105.211	585.25
2109.278	569.25
2113.342	571.25
2117.401	559.25
2121.457	568.25
2125.509	563.25
2129.558	554.25
2133.602	558.25
2137.643	554.25
2141.681	546.25
2145.714	555.25
2149.744	551.25
2153.77	558.25
2157.793	563.25
2161.812	546.25
2165.827	537.25
2169.838	534.25
2173.846	519.25
2177.851	514.25
2181.851	508.25
2185.848	503.25
2189.841	497.25
2193.831	497.25
2197.817	496.25
2201.799	487.25
2205.778	483.25
2209.753	484.25
2213.725	479.25
2217.693	479.25
2221.657	478.25
2225.618	483.25
2229.575	477.25
2233.529	483.25
2237.479	469.25
2241.425	465.25
2245.368	455.25
2249.307	455.25
2253.243	453.25
2257.175	439.25
2261.104	436.25
2265.029	431.25
2268.95	433.25
2272.868	424.25
2276.783	412.25
2280.694	417.25
2284.601	409.25
2288.505	400.25
2292.405	398.25
2296.302	394.25
2300.195	393.25
2304.085	389.25
2307.971	374.25
2311.854	383.25
2315.734	375.25
2319.609	358.25
2323.482	353.25
2327.351	353.25
2331.216	349.25
2335.078	349.25
2338.937	350.25
2342.792	346.25
2346.643	345.25
2350.492	330.25
2354.336	333.25
2358.178	340.25
2362.015	336.25
2365.85	345.25
2369.681	344.25
2373.508	338.25
2377.333	333.25
2381.153	346.25
2384.971	334.25
2388.785	342.25
2392.595	341.25
2396.402	332.25
2400.206	328.25
2404.007	333.25
2407.804	334.25
2411.597	330.25
2415.388	329.25
2419.174	337.25
2422.958	326.25
2426.738	326.25
2430.515	326.25
2434.289	327.25
2438.059	321.25
2441.825	324.25
2445.589	321.25
2449.349	323.25
2453.106	317.25
2456.859	311.25
2460.61	308.25
2464.356	312.25
2468.1	300.25
2471.84	304.25
2475.577	306.25
2479.311	304.25
2483.041	297.25
2486.768	301.25
2490.492	302.25
2494.213	305.25
2497.93	302.25
2501.644	300.25
2505.355	302.25
2509.062	302.25
2512.766	300.25
2516.467	301.25
2520.165	293.25
2523.859	302.25
2527.551	292.25
2531.239	288.25
2534.923	293.25
2538.605	289.25
2542.283	279.25
2545.958	281.25
2549.63	286.25
2553.299	278.25
2556.964	275.25
2560.626	272.25
2564.285	274.25
2567.941	271.25
2571.594	262.25
2575.243	267.25
2578.89	264.25
2582.533	255.25
2586.173	268.25
2589.809	253.25
2593.443	256.25
2597.073	255.25
2600.701	247.25
2604.325	245.25
2607.946	248.25
2611.564	250.25
2615.178	255.25
2618.79	251.25
2622.398	246.25
2626.004	250.25
2629.606	243.25
2633.205	244.25
2636.801	236.25
2640.394	248.25
2643.983	235.25
2647.57	241.25
2651.153	237.25
2654.734	228.25
2658.311	228.25
2661.885	235.25
2665.456	221.25
2669.025	226.25
2672.589	226.25
2676.151	229.25
2679.71	215.25
2683.266	226.25
2686.819	214.25
2690.368	214.25
2693.915	211.25
2697.458	211.25
2700.999	208.25
2704.536	213.25
2708.071	202.25
2711.602	210.25
2715.13	206.25
2718.656	207.25
2722.178	208.25
2725.697	207.25
2729.214	196.25
2732.727	207.25
2736.237	209.25
2739.744	210.25
2743.249	207.25
2746.75	218.25
2750.248	204.25
2753.743	204.25
2757.236	206.25
2760.725	204.25
2764.211	209.25
2767.695	203.25
2771.175	199.25
2774.652	199.25
2778.127	193.25
2781.598	194.25
2785.067	195.25
2788.532	195.25
2791.995	201.25
2795.455	201.25
2798.911	192.25
2802.365	199.25
2805.816	200.25
2809.264	206.25
2812.709	203.25
2816.151	206.25
2819.59	204.25
2823.026	208.25
2826.46	203.25
2829.89	215.25
2833.318	205.25
2836.742	206.25
2840.164	208.25
2843.583	212.25
2846.999	214.25
2850.412	219.25
2853.822	216.25
2857.229	221.25
2860.634	214.25
2864.035	221.25
2867.434	229.25
2870.83	225.25
2874.223	223.25
2877.613	227.25
2881	231.25
2884.385	230.25
2887.766	224.25
2891.145	233.25
2894.521	228.25
2897.894	233.25
2901.264	233.25
2904.631	226.25
2907.996	235.25
2911.358	239.25
2914.717	245.25
2918.073	245.25
2921.426	244.25
2924.777	257.25
2928.124	254.25
2931.469	257.25
2934.811	266.25
2938.15	276.25
2941.487	282.25
2944.821	282.25
2948.152	292.25
2951.48	290.25
2954.805	291.25
2958.128	290.25
2961.447	294.25
2964.765	304.25
2968.079	305.25
2971.39	309.25
2974.699	317.25
2978.005	337.25
2981.308	334.25
2984.609	339.25
2987.907	351.25
2991.202	354.25
2994.494	364.25
2997.784	379.25
3001.07	385.25
3004.355	392.25
3007.636	400.25
3010.915	422.25
3014.191	421.25
3017.464	434.25
3020.734	436.25
3024.002	439.25
3027.267	449.25
3030.53	458.25
3033.789	467.25
3037.046	471.25
3040.301	481.25
3043.552	498.25
3046.801	510.25
3050.048	513.25
3053.291	529.25
3056.532	552.25
3059.771	562.25
3063.006	582.25
3066.239	596.25
3069.469	622.25
3072.697	622.25
3075.922	648.25
3079.144	668.25
3082.364	669.25
3085.581	698.25
3088.795	718.25
3092.007	723.25
3095.216	730.25
3098.423	756.25
3101.627	778.25
3104.828	783.25
3108.026	800.25
3111.222	823.25
3114.416	839.25
3117.607	849.25
3120.795	869.25
3123.98	887.25
3127.163	909.25
3130.344	922.25
3133.521	947.25
3136.696	982.25
3139.869	997.25
3143.039	1022.25
3146.206	1033.25
3149.371	1043.25
3152.533	1046.25
3155.693	1060.25
3158.85	1065.25
3162.005	1085.25
3165.157	1085.25
3168.306	1097.25
3171.453	1091.25
3174.597	1104.25
3177.739	1106.25
3180.878	1115.25
3184.014	1112.25
3187.149	1115.25
3190.28	1119.25
3193.409	1123.25
3196.536	1130.25
3199.659	1130.25
3202.781	1146.25
3205.9	1132.25
3209.016	1132.25
3212.13	1126.25
3215.241	1126.25
3218.35	1125.25
3221.456	1127.25
3224.56	1104.25
3227.661	1118.25
3230.76	1094.25
3233.856	1083.25
3236.95	1070.25
3240.041	1065.25
3243.13	1048.25
3246.216	1040.25
3249.3	1033.25
3252.382	1035.25
3255.46	1018.25
3258.537	1018.25
3261.611	1013.25
3264.682	1010.25
3267.751	992.25
3270.818	998.25
3273.882	1011.25
3276.943	998.25
3280.002	989.25
3283.059	994.25
3286.113	987.25
3289.165	962.25
3292.214	932.25
3295.261	933.25
3298.306	923.25
3301.348	907.25
3304.387	911.25
3307.425	887.25
3310.459	872.25
3313.492	863.25
3316.521	861.25
3319.549	840.25
3322.574	833.25
3325.597	830.25
3328.617	833.25
3331.635	826.25
3334.65	829.25
3337.663	812.25
3340.674	809.25
3343.682	797.25
3346.688	800.25
3349.691	811.25
3352.692	808.25
3355.691	789.25
3358.687	789.25
3361.681	779.25
3364.673	777.25
3367.662	773.25
3370.649	751.25
3373.633	762.25
3376.615	727.25
3379.595	727.25
3382.572	724.25
3385.547	724.25
3388.52	696.25
3391.49	687.25
3394.458	687.25
3397.424	676.25
3400.387	663.25
3403.348	656.25
3406.307	661.25
3409.263	644.25
3412.217	642.25
3415.168	631.25
3418.118	621.25
3421.065	622.25
3424.009	615.25
3426.951	595.25
3429.891	595.25
3432.829	576.25
3435.764	578.25
3438.697	568.25
3441.628	544.25
3444.557	537.25
3447.483	528.25
3450.407	518.25
3453.328	500.25
3456.247	493.25
3459.164	468.25
3462.079	465.25
3464.991	447.25
3467.902	432.25
3470.809	424.25
3473.715	410.25
3476.618	396.25
3479.519	389.25
3482.418	388.25
3485.315	375.25
3488.209	362.25
3491.101	352.25
3493.99	350.25
3496.878	335.25
3499.763	321.25
3502.646	303.25
3505.527	305.25
3508.405	299.25
3511.281	277.25
3514.155	276.25
3517.027	260.25
3519.897	249.25
3522.764	246.25
3525.629	243.25
3528.492	223.25
3531.352	210.25
3534.211	197.25
3537.067	182.25
3539.921	183.25
3542.773	178.25
3545.622	161.25
3548.469	159.25
3551.315	149.25
3554.157	140.25
3556.998	135.25
3559.837	131.25
3562.673	121.25
3565.507	116.25
3568.339	112.25
3571.169	103.25
3573.996	94.25
3576.822	99.25
3579.645	87.25
3582.466	89.25
3585.285	79.25
3588.101	73.25
3590.916	61.25
3593.728	67.25
3596.538	59.25
3599.346	50.25
3602.152	52.25
3604.956	45.25
3607.757	38.25
3610.556	41.25
3613.354	32.25
3616.149	29.25
3618.942	20.25
3621.732	29.25
3624.521	19.25
3627.307	20.25
3630.092	15.25
3632.874	12.25
3635.654	9.25
3638.432	11.25
3641.208	7.25
3643.982	6.25
3646.753	6.25
3649.523	2.25
3652.29	1.25
3655.055	-3.75
3657.818	-6.75
3660.579	-5.75
3663.338	-6.75
3666.095	-13.75
3668.849	-13.75
3671.602	-13.75
3674.352	-21.75
3677.101	-20.75
3679.847	-26.75
3682.591	-27.75
3685.333	-27.75
3688.073	-28.75
3690.811	-30.75
3693.547	-30.75
3696.281	-33.75
3699.013	-34.75
3701.742	-39.75
3704.47	-37.75
3707.195	-40.75
3709.919	-38.75
3712.64	-42.75
3715.359	-44.75
3718.076	-42.75
3720.792	-42.75
3723.505	-47.75
3726.216	-41.75
3728.925	-46.75
3731.632	-45.75
3734.336	-45.75
3737.039	-48.75
3739.74	-43.75
3742.439	-48.75
3745.136	-48.75
3747.83	-50.75
3750.523	-49.75
3753.213	-49.75
3755.902	-51.75
3758.589	-50.75
3761.273	-55.75
3763.956	-52.75
3766.636	-54.75
3769.315	-52.75
3771.991	-60.75
3774.665	-54.75
3777.338	-57.75
3780.008	-60.75
3782.677	-60.75
3785.343	-55.75
3788.007	-54.75
3790.67	-54.75
3793.33	-61.75
3795.989	-58.75
3798.645	-61.75
3801.299	-61.75
3803.952	-62.75
3806.602	-61.75
3809.251	-63.75
3811.897	-60.75
3814.542	-63.75
3817.184	-60.75
3819.825	-56.75
3822.463	-59.75
3825.1	-59.75
3827.735	-54.75
3830.367	-55.75
3832.998	-62.75
3835.627	-59.75
3838.253	-56.75
3840.878	-65.75
3843.501	-58.75
3846.122	-61.75
3848.741	-63.75
3851.358	-62.75
3853.973	-58.75
3856.586	-60.75
3859.197	-62.75
3861.806	-62.75
3864.414	-61.75
3867.019	-62.75
3869.622	-63.75
3872.224	-63.75
3874.823	-62.75
3877.421	-61.75
3880.016	-59.75
3882.61	-57.75
3885.202	-60.75
3887.792	-57.75
3890.38	-57.75
3892.966	-58.75
3895.55	-58.75
3898.132	-62.75
3900.713	-62.75
3903.291	-68.75
3905.868	-61.75
3908.442	-64.75
3911.015	-62.75
3913.586	-63.75
3916.155	-65.75
3918.722	-66.75
3921.287	-65.75
3923.85	-67.75
3926.411	-64.75
3928.971	-67.75
3931.528	-65.75
3934.084	-68.75
3936.638	-70.75
3939.19	-70.75
3941.74	-69.75
3944.288	-68.75
3946.834	-67.75
3949.378	-70.75
3951.921	-71.75
3954.462	-69.75
3957	-65.75
3959.537	-66.75
3962.072	-68.75
3964.606	-64.75
3967.137	-65.75
3969.667	-68.75
3972.194	-65.75
3974.72	-66.75
3977.244	-66.75
3979.766	-62.75
3982.286	-62.75
3984.805	-67.75
3987.321	-59.75
3989.836	-66.75
3992.349	-68.75
3994.86	-66.75
3997.369	-69.75
3999.877	-65.75
4002.382	-63.75
4004.886	-63.75
4007.388	-68.75
4009.888	-63.75
4012.386	-59.75
4014.883	-68.75
4017.377	-63.75
4019.87	-66.75
4022.361	-65.75
4024.85	-66.75
4027.338	-62.75
4029.823	-66.75
4032.307	-68.75
4034.789	-64.75
4037.269	-67.75
4039.747	-64.75
4042.224	-64.75
4044.699	-64.75
4047.172	-65.75
4049.643	-63.75
4052.112	-62.75
4054.58	-60.75
4057.046	-64.75
4059.51	-65.75
4061.972	-62.75
4064.432	-65.75
4066.891	-64.75
4069.348	-66.75
4071.803	-67.75
4074.256	-66.75
4076.708	-67.75
4079.158	-64.75
4081.606	-65.75
4084.052	-63.75
4086.497	-64.75
4088.939	-69.75
4091.38	-67.75
4093.819	-62.75
4096.257	-69.75
4098.693	-69.75
4101.127	-70.75
4103.559	-70.75
4105.989	-19.75
4108.418	-20.75
4110.845	-16.75
4113.27	-13.75
4115.694	-11.75
4118.115	-7.75
4120.535	-65.75
4122.954	-67.75
4125.37	-66.75
4127.785	-66.75
4130.198	-65.75
4132.609	-67.75
4135.019	-68.75
4137.427	-68.75
4139.833	-65.75
4142.237	-69.75
