Data from 100000000CFU2_A_ramanshift_RamanShift_12-03-32-623.txt Node
Date: Sun Jan 01 12:03:32 IST 2017
User: aro
Spectrometer: QEPB0276
Trigger mode: 0
Integration Time (sec): 5.000000E0
Scans to average: 1
Electric dark correction enabled: true
Nonlinearity correction enabled: false
Boxcar width: 0
XAxis mode: Raman Shifts
Number of Pixels in Spectrum: 1044
>>>>>Begin Spectral Data<<<<<
160.701	6.25
166.742	12.25
172.777	46.25
178.805	142.25
184.826	429.25
190.841	1056.25
196.849	1971.25
202.85	2823.25
208.845	3281.25
214.833	3331.25
220.815	3207.25
226.789	3084.25
232.758	3022.25
238.719	2921.25
244.674	2854.25
250.623	2711.25
256.565	2612.25
262.5	2483.25
268.429	2386.25
274.351	2287.25
280.267	2197.25
286.176	2121.25
292.079	2056.25
297.975	1987.25
303.865	1945.25
309.748	1869.25
315.625	1836.25
321.495	1786.25
327.359	1766.25
333.217	1737.25
339.068	1725.25
344.912	1730.25
350.751	1708.25
356.583	1699.25
362.408	1711.25
368.227	1686.25
374.04	1695.25
379.847	1713.25
385.647	1712.25
391.44	1716.25
397.228	1727.25
403.009	1728.25
408.784	1721.25
414.553	1740.25
420.315	1772.25
426.071	1760.25
431.821	1757.25
437.565	1754.25
443.302	1748.25
449.033	1748.25
454.758	1743.25
460.477	1733.25
466.189	1723.25
471.896	1724.25
477.596	1698.25
483.29	1700.25
488.978	1687.25
494.66	1670.25
500.335	1664.25
506.005	1644.25
511.668	1606.25
517.325	1579.25
522.977	1555.25
528.622	1525.25
534.261	1506.25
539.894	1478.25
545.521	1471.25
551.141	1468.25
556.756	1457.25
562.365	1447.25
567.968	1422.25
573.565	1423.25
579.155	1420.25
584.74	1424.25
590.319	1405.25
595.892	1391.25
601.459	1385.25
607.02	1385.25
612.575	1361.25
618.124	1367.25
623.667	1364.25
629.204	1337.25
634.735	1314.25
640.261	1295.25
645.781	1307.25
651.294	1294.25
656.802	1283.25
662.304	1290.25
667.8	1289.25
673.29	1268.25
678.775	1277.25
684.254	1253.25
689.726	1257.25
695.193	1253.25
700.655	1235.25
706.11	1237.25
711.56	1211.25
717.004	1210.25
722.442	1204.25
727.874	1187.25
733.301	1194.25
738.722	1185.25
744.137	1186.25
749.547	1175.25
754.951	1176.25
760.349	1165.25
765.741	1165.25
771.128	1169.25
776.509	1170.25
781.885	1161.25
787.254	1164.25
792.618	1179.25
797.977	1160.25
803.33	1155.25
808.677	1141.25
814.019	1120.25
819.355	1096.25
824.686	1106.25
830.011	1085.25
835.33	1090.25
840.644	1083.25
845.952	1079.25
851.255	1067.25
856.552	1060.25
861.844	1063.25
867.13	1053.25
872.41	1061.25
877.686	1036.25
882.955	1045.25
888.219	1051.25
893.478	1015.25
898.731	999.25
903.979	971.25
909.221	964.25
914.458	955.25
919.69	941.25
924.916	942.25
930.136	941.25
935.351	953.25
940.561	944.25
945.766	947.25
950.965	941.25
956.158	921.25
961.347	917.25
966.529	905.25
971.707	894.25
976.879	877.25
982.046	873.25
987.208	876.25
992.364	866.25
997.515	862.25
1002.66	871.25
1007.801	875.25
1012.936	880.25
1018.066	888.25
1023.19	903.25
1028.309	901.25
1033.423	888.25
1038.532	900.25
1043.636	893.25
1048.734	879.25
1053.827	887.25
1058.915	879.25
1063.998	864.25
1069.075	852.25
1074.147	854.25
1079.214	843.25
1084.276	862.25
1089.333	867.25
1094.385	881.25
1099.431	891.25
1104.472	881.25
1109.509	879.25
1114.54	879.25
1119.565	868.25
1124.586	846.25
1129.602	849.25
1134.613	838.25
1139.618	834.25
1144.619	831.25
1149.614	829.25
1154.604	843.25
1159.589	841.25
1164.57	847.25
1169.545	845.25
1174.515	849.25
1179.48	842.25
1184.44	842.25
1189.395	832.25
1194.345	849.25
1199.29	823.25
1204.23	820.25
1209.165	819.25
1214.095	833.25
1219.021	834.25
1223.941	843.25
1228.856	861.25
1233.766	860.25
1238.672	859.25
1243.572	862.25
1248.467	858.25
1253.358	849.25
1258.244	826.25
1263.124	829.25
1268	816.25
1272.871	796.25
1277.737	799.25
1282.599	804.25
1287.455	796.25
1292.306	800.25
1297.153	797.25
1301.995	806.25
1306.832	806.25
1311.664	806.25
1316.491	817.25
1321.314	813.25
1326.132	803.25
1330.945	793.25
1335.753	776.25
1340.556	780.25
1345.354	771.25
1350.148	770.25
1354.937	748.25
1359.722	739.25
1364.501	752.25
1369.276	749.25
1374.046	736.25
1378.811	742.25
1383.572	737.25
1388.327	741.25
1393.079	738.25
1397.825	738.25
1402.567	731.25
1407.304	721.25
1412.036	721.25
1416.764	719.25
1421.487	719.25
1426.205	725.25
1430.919	718.25
1435.628	738.25
1440.333	734.25
1445.032	731.25
1449.727	746.25
1454.418	751.25
1459.104	760.25
1463.785	750.25
1468.462	732.25
1473.134	715.25
1477.802	724.25
1482.465	726.25
1487.123	721.25
1491.777	716.25
1496.426	721.25
1501.071	723.25
1505.711	738.25
1510.347	731.25
1514.978	743.25
1519.604	743.25
1524.226	763.25
1528.844	755.25
1533.457	748.25
1538.065	766.25
1542.669	755.25
1547.269	765.25
1551.864	756.25
1556.454	758.25
1561.041	766.25
1565.622	780.25
1570.199	768.25
1574.772	789.25
1579.34	787.25
1583.904	821.25
1588.464	824.25
1593.019	838.25
1597.569	871.25
1602.115	859.25
1606.657	865.25
1611.195	871.25
1615.728	880.25
1620.256	899.25
1624.78	908.25
1629.3	915.25
1633.816	943.25
1638.327	945.25
1642.834	956.25
1647.336	982.25
1651.834	972.25
1656.328	968.25
1660.817	984.25
1665.302	966.25
1669.783	948.25
1674.259	933.25
1678.732	894.25
1683.199	874.25
1687.663	842.25
1692.122	817.25
1696.577	798.25
1701.028	748.25
1705.474	721.25
1709.917	702.25
1714.355	678.25
1718.788	674.25
1723.218	652.25
1727.643	646.25
1732.064	634.25
1736.481	618.25
1740.893	608.25
1745.301	584.25
1749.705	572.25
1754.105	562.25
1758.501	543.25
1762.893	529.25
1767.28	525.25
1771.663	508.25
1776.042	507.25
1780.417	504.25
1784.787	505.25
1789.154	502.25
1793.516	508.25
1797.874	513.25
1802.228	506.25
1806.578	512.25
1810.924	495.25
1815.266	496.25
1819.603	482.25
1823.937	476.25
1828.266	464.25
1832.591	458.25
1836.913	460.25
1841.23	455.25
1845.543	459.25
1849.852	454.25
1854.156	467.25
1858.457	453.25
1862.754	462.25
1867.047	472.25
1871.335	471.25
1875.62	470.25
1879.9	470.25
1884.177	467.25
1888.449	459.25
1892.718	459.25
1896.982	469.25
1901.243	464.25
1905.499	458.25
1909.752	460.25
1914	457.25
1918.245	461.25
1922.485	462.25
1926.722	468.25
1930.954	459.25
1935.183	462.25
1939.408	476.25
1943.628	475.25
1947.845	468.25
1952.058	466.25
1956.267	466.25
1960.472	464.25
1964.673	461.25
1968.87	457.25
1973.063	453.25
1977.252	453.25
1981.438	444.25
1985.619	440.25
1989.797	439.25
1993.971	450.25
1998.14	443.25
2002.306	451.25
2006.469	459.25
2010.627	450.25
2014.781	454.25
2018.932	452.25
2023.078	449.25
2027.221	455.25
2031.36	445.25
2035.495	444.25
2039.627	453.25
2043.754	439.25
2047.878	431.25
2051.998	438.25
2056.114	434.25
2060.226	437.25
2064.334	435.25
2068.439	438.25
2072.54	438.25
2076.637	447.25
2080.73	447.25
2084.82	454.25
2088.906	449.25
2092.988	442.25
2097.066	444.25
2101.14	435.25
2105.211	446.25
2109.278	433.25
2113.342	444.25
2117.401	429.25
2121.457	430.25
2125.509	429.25
2129.558	424.25
2133.602	425.25
2137.643	421.25
2141.681	437.25
2145.714	416.25
2149.744	423.25
2153.77	425.25
2157.793	419.25
2161.812	414.25
2165.827	405.25
2169.838	412.25
2173.846	406.25
2177.851	393.25
2181.851	382.25
2185.848	381.25
2189.841	377.25
2193.831	374.25
2197.817	377.25
2201.799	375.25
2205.778	367.25
2209.753	370.25
2213.725	365.25
2217.693	365.25
2221.657	364.25
2225.618	368.25
2229.575	358.25
2233.529	372.25
2237.479	368.25
2241.425	357.25
2245.368	357.25
2249.307	350.25
2253.243	341.25
2257.175	343.25
2261.104	339.25
2265.029	328.25
2268.95	327.25
2272.868	319.25
2276.783	324.25
2280.694	316.25
2284.601	312.25
2288.505	305.25
2292.405	297.25
2296.302	306.25
2300.195	296.25
2304.085	298.25
2307.971	288.25
2311.854	287.25
2315.734	280.25
2319.609	273.25
2323.482	267.25
2327.351	275.25
2331.216	266.25
2335.078	264.25
2338.937	275.25
2342.792	260.25
2346.643	253.25
2350.492	249.25
2354.336	258.25
2358.178	256.25
2362.015	260.25
2365.85	257.25
2369.681	255.25
2373.508	251.25
2377.333	257.25
2381.153	264.25
2384.971	259.25
2388.785	256.25
2392.595	246.25
2396.402	253.25
2400.206	250.25
2404.007	253.25
2407.804	249.25
2411.597	249.25
2415.388	256.25
2419.174	254.25
2422.958	246.25
2426.738	258.25
2430.515	241.25
2434.289	248.25
2438.059	248.25
2441.825	245.25
2445.589	245.25
2449.349	243.25
2453.106	246.25
2456.859	222.25
2460.61	240.25
2464.356	237.25
2468.1	236.25
2471.84	228.25
2475.577	227.25
2479.311	221.25
2483.041	227.25
2486.768	230.25
2490.492	226.25
2494.213	223.25
2497.93	225.25
2501.644	225.25
2505.355	232.25
2509.062	228.25
2512.766	224.25
2516.467	222.25
2520.165	221.25
2523.859	213.25
2527.551	220.25
2531.239	208.25
2534.923	217.25
2538.605	215.25
2542.283	212.25
2545.958	211.25
2549.63	212.25
2553.299	212.25
2556.964	213.25
2560.626	202.25
2564.285	209.25
2567.941	205.25
2571.594	198.25
2575.243	200.25
2578.89	192.25
2582.533	201.25
2586.173	197.25
2589.809	194.25
2593.443	193.25
2597.073	197.25
2600.701	192.25
2604.325	193.25
2607.946	191.25
2611.564	189.25
2615.178	191.25
2618.79	191.25
2622.398	197.25
2626.004	194.25
2629.606	186.25
2633.205	187.25
2636.801	185.25
2640.394	186.25
2643.983	174.25
2647.57	185.25
2651.153	181.25
2654.734	178.25
2658.311	170.25
2661.885	170.25
2665.456	169.25
2669.025	160.25
2672.589	170.25
2676.151	170.25
2679.71	165.25
2683.266	165.25
2686.819	174.25
2690.368	159.25
2693.915	162.25
2697.458	158.25
2700.999	161.25
2704.536	162.25
2708.071	155.25
2711.602	155.25
2715.13	153.25
2718.656	157.25
2722.178	149.25
2725.697	154.25
2729.214	157.25
2732.727	151.25
2736.237	155.25
2739.744	158.25
2743.249	157.25
2746.75	152.25
2750.248	154.25
2753.743	155.25
2757.236	154.25
2760.725	152.25
2764.211	154.25
2767.695	156.25
2771.175	148.25
2774.652	149.25
2778.127	145.25
2781.598	146.25
2785.067	150.25
2788.532	141.25
2791.995	150.25
2795.455	150.25
2798.911	151.25
2802.365	153.25
2805.816	148.25
2809.264	151.25
2812.709	157.25
2816.151	155.25
2819.59	154.25
2823.026	156.25
2826.46	150.25
2829.89	152.25
2833.318	165.25
2836.742	160.25
2840.164	167.25
2843.583	156.25
2846.999	163.25
2850.412	161.25
2853.822	175.25
2857.229	169.25
2860.634	167.25
2864.035	175.25
2867.434	173.25
2870.83	175.25
2874.223	180.25
2877.613	176.25
2881	178.25
2884.385	178.25
2887.766	179.25
2891.145	184.25
2894.521	180.25
2897.894	179.25
2901.264	178.25
2904.631	184.25
2907.996	179.25
2911.358	190.25
2914.717	193.25
2918.073	192.25
2921.426	194.25
2924.777	199.25
2928.124	199.25
2931.469	209.25
2934.811	208.25
2938.15	216.25
2941.487	218.25
2944.821	215.25
2948.152	233.25
2951.48	224.25
2954.805	235.25
2958.128	234.25
2961.447	236.25
2964.765	237.25
2968.079	242.25
2971.39	246.25
2974.699	257.25
2978.005	253.25
2981.308	258.25
2984.609	267.25
2987.907	277.25
2991.202	283.25
2994.494	288.25
2997.784	300.25
3001.07	300.25
3004.355	310.25
3007.636	315.25
3010.915	321.25
3014.191	329.25
3017.464	340.25
3020.734	336.25
3024.002	345.25
3027.267	346.25
3030.53	353.25
3033.789	360.25
3037.046	375.25
3040.301	377.25
3043.552	378.25
3046.801	394.25
3050.048	403.25
3053.291	420.25
3056.532	422.25
3059.771	440.25
3063.006	454.25
3066.239	472.25
3069.469	479.25
3072.697	496.25
3075.922	497.25
3079.144	513.25
3082.364	540.25
3085.581	547.25
3088.795	563.25
3092.007	562.25
3095.216	579.25
3098.423	582.25
3101.627	601.25
3104.828	627.25
3108.026	636.25
3111.222	640.25
3114.416	660.25
3117.607	674.25
3120.795	691.25
3123.98	709.25
3127.163	725.25
3130.344	736.25
3133.521	744.25
3136.696	771.25
3139.869	779.25
3143.039	798.25
3146.206	816.25
3149.371	822.25
3152.533	839.25
3155.693	835.25
3158.85	856.25
3162.005	854.25
3165.157	847.25
3168.306	862.25
3171.453	879.25
3174.597	864.25
3177.739	864.25
3180.878	866.25
3184.014	863.25
3187.149	870.25
3190.28	876.25
3193.409	886.25
3196.536	883.25
3199.659	884.25
3202.781	903.25
3205.9	897.25
3209.016	891.25
3212.13	882.25
3215.241	883.25
3218.35	888.25
3221.456	893.25
3224.56	860.25
3227.661	862.25
3230.76	853.25
3233.856	844.25
3236.95	843.25
3240.041	840.25
3243.13	817.25
3246.216	831.25
3249.3	818.25
3252.382	818.25
3255.46	804.25
3258.537	804.25
3261.611	806.25
3264.682	793.25
3267.751	804.25
3270.818	802.25
3273.882	797.25
3276.943	791.25
3280.002	790.25
3283.059	778.25
3286.113	770.25
3289.165	763.25
3292.214	754.25
3295.261	732.25
3298.306	740.25
3301.348	715.25
3304.387	711.25
3307.425	700.25
3310.459	692.25
3313.492	693.25
3316.521	678.25
3319.549	673.25
3322.574	650.25
3325.597	656.25
3328.617	646.25
3331.635	649.25
3334.65	636.25
3337.663	648.25
3340.674	637.25
3343.682	629.25
3346.688	634.25
3349.691	631.25
3352.692	630.25
3355.691	627.25
3358.687	628.25
3361.681	622.25
3364.673	610.25
3367.662	602.25
3370.649	607.25
3373.633	586.25
3376.615	579.25
3379.595	579.25
3382.572	572.25
3385.547	566.25
3388.52	556.25
3391.49	547.25
3394.458	542.25
3397.424	537.25
3400.387	522.25
3403.348	521.25
3406.307	522.25
3409.263	512.25
3412.217	500.25
3415.168	494.25
3418.118	489.25
3421.065	499.25
3424.009	484.25
3426.951	485.25
3429.891	470.25
3432.829	461.25
3435.764	454.25
3438.697	457.25
3441.628	435.25
3444.557	424.25
3447.483	418.25
3450.407	405.25
3453.328	399.25
3456.247	375.25
3459.164	380.25
3462.079	362.25
3464.991	360.25
3467.902	339.25
3470.809	339.25
3473.715	325.25
3476.618	326.25
3479.519	309.25
3482.418	309.25
3485.315	296.25
3488.209	281.25
3491.101	289.25
3493.99	276.25
3496.878	273.25
3499.763	259.25
3502.646	249.25
3505.527	237.25
3508.405	243.25
3511.281	231.25
3514.155	226.25
3517.027	213.25
3519.897	201.25
3522.764	192.25
3525.629	187.25
3528.492	173.25
3531.352	169.25
3534.211	159.25
3537.067	152.25
3539.921	145.25
3542.773	142.25
3545.622	133.25
3548.469	127.25
3551.315	115.25
3554.157	115.25
3556.998	110.25
3559.837	106.25
3562.673	98.25
3565.507	94.25
3568.339	96.25
3571.169	85.25
3573.996	81.25
3576.822	80.25
3579.645	75.25
3582.466	72.25
3585.285	66.25
3588.101	61.25
3590.916	60.25
3593.728	49.25
3596.538	49.25
3599.346	41.25
3602.152	40.25
3604.956	38.25
3607.757	32.25
3610.556	31.25
3613.354	26.25
3616.149	24.25
3618.942	18.25
3621.732	22.25
3624.521	17.25
3627.307	11.25
3630.092	13.25
3632.874	10.25
3635.654	13.25
3638.432	8.25
3641.208	5.25
3643.982	1.25
3646.753	2.25
3649.523	0.25
3652.29	-0.75
3655.055	-2.75
3657.818	-5.75
3660.579	-5.75
3663.338	-6.75
3666.095	-10.75
3668.849	-9.75
3671.602	-10.75
3674.352	-18.75
3677.101	-16.75
3679.847	-19.75
3682.591	-19.75
3685.333	-21.75
3688.073	-22.75
3690.811	-21.75
3693.547	-22.75
3696.281	-26.75
3699.013	-28.75
3701.742	-28.75
3704.47	-30.75
3707.195	-26.75
3709.919	-31.75
3712.64	-32.75
3715.359	-29.75
3718.076	-30.75
3720.792	-33.75
3723.505	-34.75
3726.216	-31.75
3728.925	-30.75
3731.632	-35.75
3734.336	-34.75
3737.039	-37.75
3739.74	-36.75
3742.439	-33.75
3745.136	-37.75
3747.83	-38.75
3750.523	-40.75
3753.213	-38.75
3755.902	-38.75
3758.589	-40.75
3761.273	-41.75
3763.956	-39.75
3766.636	-44.75
3769.315	-42.75
3771.991	-45.75
3774.665	-43.75
3777.338	-46.75
3780.008	-46.75
3782.677	-46.75
3785.343	-47.75
3788.007	-44.75
3790.67	-47.75
3793.33	-45.75
3795.989	-44.75
3798.645	-46.75
3801.299	-45.75
3803.952	-46.75
3806.602	-49.75
3809.251	-48.75
3811.897	-45.75
3814.542	-48.75
3817.184	-46.75
3819.825	-41.75
3822.463	-46.75
3825.1	-46.75
3827.735	-44.75
3830.367	-44.75
3832.998	-45.75
3835.627	-45.75
3838.253	-44.75
3840.878	-51.75
3843.501	-44.75
3846.122	-45.75
3848.741	-49.75
3851.358	-49.75
3853.973	-45.75
3856.586	-45.75
3859.197	-50.75
3861.806	-49.75
3864.414	-47.75
3867.019	-46.75
3869.622	-49.75
3872.224	-48.75
3874.823	-46.75
3877.421	-49.75
3880.016	-45.75
3882.61	-45.75
3885.202	-46.75
3887.792	-41.75
3890.38	-42.75
3892.966	-44.75
3895.55	-49.75
3898.132	-49.75
3900.713	-53.75
3903.291	-51.75
3905.868	-51.75
3908.442	-51.75
3911.015	-50.75
3913.586	-49.75
3916.155	-51.75
3918.722	-51.75
3921.287	-50.75
3923.85	-52.75
3926.411	-52.75
3928.971	-54.75
3931.528	-54.75
3934.084	-54.75
3936.638	-52.75
3939.19	-52.75
3941.74	-52.75
3944.288	-51.75
3946.834	-50.75
3949.378	-56.75
3951.921	-51.75
3954.462	-54.75
3957	-50.75
3959.537	-50.75
3962.072	-54.75
3964.606	-47.75
3967.137	-51.75
3969.667	-54.75
3972.194	-50.75
3974.72	-48.75
3977.244	-47.75
3979.766	-46.75
3982.286	-45.75
3984.805	-49.75
3987.321	-48.75
3989.836	-48.75
3992.349	-48.75
3994.86	-51.75
3997.369	-51.75
3999.877	-47.75
4002.382	-48.75
4004.886	-47.75
4007.388	-51.75
4009.888	-49.75
4012.386	-47.75
4014.883	-53.75
4017.377	-52.75
4019.87	-49.75
4022.361	-51.75
4024.85	-50.75
4027.338	-51.75
4029.823	-52.75
4032.307	-54.75
4034.789	-51.75
4037.269	-53.75
4039.747	-50.75
4042.224	-50.75
4044.699	-53.75
4047.172	-51.75
4049.643	-51.75
4052.112	-50.75
4054.58	-50.75
4057.046	-49.75
4059.51	-50.75
4061.972	-50.75
4064.432	-50.75
4066.891	-49.75
4069.348	-52.75
4071.803	-53.75
4074.256	-51.75
4076.708	-52.75
4079.158	-54.75
4081.606	-51.75
4084.052	-49.75
4086.497	-53.75
4088.939	-53.75
4091.38	-55.75
4093.819	-49.75
4096.257	-55.75
4098.693	-54.75
4101.127	-55.75
4103.559	-56.75
4105.989	-13.75
4108.418	-15.75
4110.845	-15.75
4113.27	-13.75
4115.694	-7.75
4118.115	-1.75
4120.535	-55.75
4122.954	-53.75
4125.37	-51.75
4127.785	-52.75
4130.198	-50.75
4132.609	-51.75
4135.019	-52.75
4137.427	-53.75
4139.833	-48.75
4142.237	-51.75
