Data from 10000000CFU1_A_ramanshift_RamanShift_11-59-32-648.txt Node
Date: Sun Jan 01 11:59:32 IST 2017
User: aro
Spectrometer: QEPB0276
Trigger mode: 0
Integration Time (sec): 5.000000E0
Scans to average: 1
Electric dark correction enabled: true
Nonlinearity correction enabled: false
Boxcar width: 0
XAxis mode: Raman Shifts
Number of Pixels in Spectrum: 1044
>>>>>Begin Spectral Data<<<<<
160.701	3.62
166.742	19.62
172.777	59.62
178.805	189.62
184.826	586.62
190.841	1414.62
196.849	2684.62
202.85	3852.62
208.845	4478.62
214.833	4500.62
220.815	4331.62
226.789	4183.62
232.758	4048.62
238.719	3947.62
244.674	3810.62
250.623	3677.62
256.565	3506.62
262.5	3326.62
268.429	3191.62
274.351	3045.62
280.267	2926.62
286.176	2835.62
292.079	2717.62
297.975	2619.62
303.865	2552.62
309.748	2479.62
315.625	2404.62
321.495	2372.62
327.359	2335.62
333.217	2268.62
339.068	2244.62
344.912	2250.62
350.751	2242.62
356.583	2235.62
362.408	2226.62
368.227	2214.62
374.04	2224.62
379.847	2217.62
385.647	2241.62
391.44	2256.62
397.228	2264.62
403.009	2253.62
408.784	2280.62
414.553	2298.62
420.315	2288.62
426.071	2309.62
431.821	2292.62
437.565	2291.62
443.302	2289.62
449.033	2272.62
454.758	2270.62
460.477	2241.62
466.189	2274.62
471.896	2248.62
477.596	2227.62
483.29	2217.62
488.978	2189.62
494.66	2203.62
500.335	2167.62
506.005	2152.62
511.668	2125.62
517.325	2077.62
522.977	2029.62
528.622	2010.62
534.261	1963.62
539.894	1949.62
545.521	1941.62
551.141	1936.62
556.756	1906.62
562.365	1898.62
567.968	1884.62
573.565	1868.62
579.155	1868.62
584.74	1852.62
590.319	1824.62
595.892	1823.62
601.459	1825.62
607.02	1807.62
612.575	1783.62
618.124	1780.62
623.667	1759.62
629.204	1744.62
634.735	1720.62
640.261	1700.62
645.781	1681.62
651.294	1692.62
656.802	1674.62
662.304	1676.62
667.8	1644.62
673.29	1652.62
678.775	1653.62
684.254	1660.62
689.726	1623.62
695.193	1611.62
700.655	1610.62
706.11	1610.62
711.56	1598.62
717.004	1573.62
722.442	1587.62
727.874	1555.62
733.301	1541.62
738.722	1526.62
744.137	1538.62
749.547	1541.62
754.951	1526.62
760.349	1524.62
765.741	1515.62
771.128	1497.62
776.509	1513.62
781.885	1518.62
787.254	1505.62
792.618	1500.62
797.977	1493.62
803.33	1483.62
808.677	1460.62
814.019	1457.62
819.355	1441.62
824.686	1414.62
830.011	1414.62
835.33	1404.62
840.644	1382.62
845.952	1388.62
851.255	1367.62
856.552	1378.62
861.844	1354.62
867.13	1352.62
872.41	1347.62
877.686	1332.62
882.955	1327.62
888.219	1300.62
893.478	1294.62
898.731	1258.62
903.979	1248.62
909.221	1237.62
914.458	1217.62
919.69	1205.62
924.916	1206.62
930.136	1209.62
935.351	1201.62
940.561	1212.62
945.766	1194.62
950.965	1197.62
956.158	1179.62
961.347	1175.62
966.529	1154.62
971.707	1137.62
976.879	1128.62
982.046	1122.62
987.208	1100.62
992.364	1091.62
997.515	1093.62
1002.66	1106.62
1007.801	1133.62
1012.936	1122.62
1018.066	1123.62
1023.19	1137.62
1028.309	1142.62
1033.423	1133.62
1038.532	1149.62
1043.636	1137.62
1048.734	1126.62
1053.827	1114.62
1058.915	1098.62
1063.998	1090.62
1069.075	1092.62
1074.147	1068.62
1079.214	1079.62
1084.276	1100.62
1089.333	1092.62
1094.385	1107.62
1099.431	1109.62
1104.472	1120.62
1109.509	1130.62
1114.54	1101.62
1119.565	1100.62
1124.586	1089.62
1129.602	1065.62
1134.613	1064.62
1139.618	1044.62
1144.619	1050.62
1149.614	1057.62
1154.604	1056.62
1159.589	1075.62
1164.57	1056.62
1169.545	1065.62
1174.515	1065.62
1179.48	1081.62
1184.44	1067.62
1189.395	1061.62
1194.345	1055.62
1199.29	1058.62
1204.23	1039.62
1209.165	1047.62
1214.095	1057.62
1219.021	1059.62
1223.941	1078.62
1228.856	1094.62
1233.766	1094.62
1238.672	1086.62
1243.572	1091.62
1248.467	1088.62
1253.358	1064.62
1258.244	1061.62
1263.124	1037.62
1268	1025.62
1272.871	1022.62
1277.737	1017.62
1282.599	1011.62
1287.455	1006.62
1292.306	1009.62
1297.153	1012.62
1301.995	1023.62
1306.832	1015.62
1311.664	1035.62
1316.491	1031.62
1321.314	1014.62
1326.132	1026.62
1330.945	1013.62
1335.753	1004.62
1340.556	992.62
1345.354	974.62
1350.148	962.62
1354.937	948.62
1359.722	950.62
1364.501	946.62
1369.276	943.62
1374.046	925.62
1378.811	931.62
1383.572	930.62
1388.327	936.62
1393.079	924.62
1397.825	922.62
1402.567	916.62
1407.304	905.62
1412.036	905.62
1416.764	903.62
1421.487	903.62
1426.205	896.62
1430.919	904.62
1435.628	917.62
1440.333	930.62
1445.032	934.62
1449.727	947.62
1454.418	936.62
1459.104	944.62
1463.785	948.62
1468.462	926.62
1473.134	911.62
1477.802	916.62
1482.465	898.62
1487.123	900.62
1491.777	903.62
1496.426	905.62
1501.071	916.62
1505.711	921.62
1510.347	918.62
1514.978	931.62
1519.604	936.62
1524.226	946.62
1528.844	944.62
1533.457	953.62
1538.065	952.62
1542.669	956.62
1547.269	954.62
1551.864	961.62
1556.454	953.62
1561.041	970.62
1565.622	984.62
1570.199	979.62
1574.772	1008.62
1579.34	1021.62
1583.904	1035.62
1588.464	1059.62
1593.019	1070.62
1597.569	1080.62
1602.115	1111.62
1606.657	1116.62
1611.195	1130.62
1615.728	1143.62
1620.256	1159.62
1624.78	1158.62
1629.3	1190.62
1633.816	1215.62
1638.327	1205.62
1642.834	1226.62
1647.336	1242.62
1651.834	1250.62
1656.328	1260.62
1660.817	1245.62
1665.302	1219.62
1669.783	1213.62
1674.259	1182.62
1678.732	1145.62
1683.199	1094.62
1687.663	1070.62
1692.122	1021.62
1696.577	986.62
1701.028	949.62
1705.474	910.62
1709.917	868.62
1714.355	840.62
1718.788	843.62
1723.218	819.62
1727.643	807.62
1732.064	795.62
1736.481	774.62
1740.893	754.62
1745.301	741.62
1749.705	711.62
1754.105	689.62
1758.501	685.62
1762.893	661.62
1767.28	646.62
1771.663	655.62
1776.042	619.62
1780.417	629.62
1784.787	629.62
1789.154	622.62
1793.516	630.62
1797.874	614.62
1802.228	621.62
1806.578	617.62
1810.924	603.62
1815.266	595.62
1819.603	592.62
1823.937	570.62
1828.266	570.62
1832.591	568.62
1836.913	572.62
1841.23	576.62
1845.543	553.62
1849.852	558.62
1854.156	563.62
1858.457	563.62
1862.754	575.62
1867.047	578.62
1871.335	582.62
1875.62	578.62
1879.9	573.62
1884.177	590.62
1888.449	572.62
1892.718	575.62
1896.982	574.62
1901.243	576.62
1905.499	570.62
1909.752	570.62
1914	561.62
1918.245	559.62
1922.485	566.62
1926.722	566.62
1930.954	563.62
1935.183	569.62
1939.408	576.62
1943.628	578.62
1947.845	564.62
1952.058	570.62
1956.267	567.62
1960.472	566.62
1964.673	553.62
1968.87	546.62
1973.063	548.62
1977.252	554.62
1981.438	538.62
1985.619	545.62
1989.797	544.62
1993.971	541.62
1998.14	540.62
2002.306	552.62
2006.469	549.62
2010.627	561.62
2014.781	566.62
2018.932	562.62
2023.078	569.62
2027.221	558.62
2031.36	559.62
2035.495	552.62
2039.627	549.62
2043.754	540.62
2047.878	542.62
2051.998	550.62
2056.114	535.62
2060.226	532.62
2064.334	552.62
2068.439	542.62
2072.54	552.62
2076.637	547.62
2080.73	533.62
2084.82	550.62
2088.906	557.62
2092.988	537.62
2097.066	546.62
2101.14	548.62
2105.211	543.62
2109.278	536.62
2113.342	540.62
2117.401	539.62
2121.457	544.62
2125.509	530.62
2129.558	523.62
2133.602	523.62
2137.643	540.62
2141.681	524.62
2145.714	517.62
2149.744	517.62
2153.77	517.62
2157.793	527.62
2161.812	519.62
2165.827	504.62
2169.838	507.62
2173.846	493.62
2177.851	495.62
2181.851	485.62
2185.848	471.62
2189.841	465.62
2193.831	467.62
2197.817	465.62
2201.799	463.62
2205.778	451.62
2209.753	458.62
2213.725	447.62
2217.693	448.62
2221.657	455.62
2225.618	455.62
2229.575	442.62
2233.529	447.62
2237.479	437.62
2241.425	439.62
2245.368	430.62
2249.307	431.62
2253.243	418.62
2257.175	420.62
2261.104	408.62
2265.029	404.62
2268.95	395.62
2272.868	397.62
2276.783	389.62
2280.694	386.62
2284.601	391.62
2288.505	385.62
2292.405	377.62
2296.302	376.62
2300.195	371.62
2304.085	361.62
2307.971	364.62
2311.854	341.62
2315.734	343.62
2319.609	341.62
2323.482	329.62
2327.351	332.62
2331.216	322.62
2335.078	328.62
2338.937	324.62
2342.792	325.62
2346.643	320.62
2350.492	310.62
2354.336	319.62
2358.178	318.62
2362.015	309.62
2365.85	311.62
2369.681	312.62
2373.508	314.62
2377.333	307.62
2381.153	314.62
2384.971	324.62
2388.785	313.62
2392.595	313.62
2396.402	310.62
2400.206	306.62
2404.007	308.62
2407.804	310.62
2411.597	313.62
2415.388	317.62
2419.174	302.62
2422.958	306.62
2426.738	303.62
2430.515	305.62
2434.289	300.62
2438.059	294.62
2441.825	303.62
2445.589	297.62
2449.349	306.62
2453.106	293.62
2456.859	294.62
2460.61	291.62
2464.356	284.62
2468.1	289.62
2471.84	282.62
2475.577	282.62
2479.311	280.62
2483.041	277.62
2486.768	276.62
2490.492	280.62
2494.213	279.62
2497.93	279.62
2501.644	276.62
2505.355	278.62
2509.062	278.62
2512.766	282.62
2516.467	271.62
2520.165	268.62
2523.859	268.62
2527.551	265.62
2531.239	264.62
2534.923	268.62
2538.605	266.62
2542.283	256.62
2545.958	257.62
2549.63	265.62
2553.299	265.62
2556.964	258.62
2560.626	251.62
2564.285	251.62
2567.941	258.62
2571.594	248.62
2575.243	255.62
2578.89	239.62
2582.533	236.62
2586.173	243.62
2589.809	238.62
2593.443	235.62
2597.073	238.62
2600.701	229.62
2604.325	235.62
2607.946	231.62
2611.564	239.62
2615.178	239.62
2618.79	234.62
2622.398	236.62
2626.004	236.62
2629.606	233.62
2633.205	230.62
2636.801	231.62
2640.394	221.62
2643.983	225.62
2647.57	223.62
2651.153	212.62
2654.734	214.62
2658.311	210.62
2661.885	210.62
2665.456	215.62
2669.025	209.62
2672.589	206.62
2676.151	207.62
2679.71	200.62
2683.266	197.62
2686.819	201.62
2690.368	196.62
2693.915	195.62
2697.458	195.62
2700.999	190.62
2704.536	193.62
2708.071	185.62
2711.602	189.62
2715.13	190.62
2718.656	192.62
2722.178	186.62
2725.697	180.62
2729.214	186.62
2732.727	189.62
2736.237	181.62
2739.744	186.62
2743.249	194.62
2746.75	185.62
2750.248	189.62
2753.743	193.62
2757.236	189.62
2760.725	182.62
2764.211	180.62
2767.695	179.62
2771.175	184.62
2774.652	174.62
2778.127	185.62
2781.598	180.62
2785.067	185.62
2788.532	178.62
2791.995	171.62
2795.455	183.62
2798.911	178.62
2802.365	180.62
2805.816	181.62
2809.264	184.62
2812.709	184.62
2816.151	187.62
2819.59	186.62
2823.026	188.62
2826.46	191.62
2829.89	194.62
2833.318	196.62
2836.742	198.62
2840.164	190.62
2843.583	201.62
2846.999	201.62
2850.412	202.62
2853.822	207.62
2857.229	208.62
2860.634	205.62
2864.035	212.62
2867.434	217.62
2870.83	212.62
2874.223	217.62
2877.613	221.62
2881	219.62
2884.385	222.62
2887.766	229.62
2891.145	222.62
2894.521	234.62
2897.894	226.62
2901.264	222.62
2904.631	226.62
2907.996	231.62
2911.358	232.62
2914.717	233.62
2918.073	243.62
2921.426	236.62
2924.777	237.62
2928.124	253.62
2931.469	253.62
2934.811	257.62
2938.15	266.62
2941.487	273.62
2944.821	272.62
2948.152	268.62
2951.48	287.62
2954.805	289.62
2958.128	282.62
2961.447	289.62
2964.765	294.62
2968.079	298.62
2971.39	310.62
2974.699	317.62
2978.005	321.62
2981.308	323.62
2984.609	342.62
2987.907	349.62
2991.202	351.62
2994.494	362.62
2997.784	383.62
3001.07	385.62
3004.355	393.62
3007.636	410.62
3010.915	414.62
3014.191	426.62
3017.464	436.62
3020.734	442.62
3024.002	450.62
3027.267	455.62
3030.53	458.62
3033.789	470.62
3037.046	478.62
3040.301	481.62
3043.552	493.62
3046.801	519.62
3050.048	525.62
3053.291	545.62
3056.532	552.62
3059.771	574.62
3063.006	574.62
3066.239	590.62
3069.469	622.62
3072.697	647.62
3075.922	661.62
3079.144	675.62
3082.364	681.62
3085.581	703.62
3088.795	710.62
3092.007	739.62
3095.216	758.62
3098.423	780.62
3101.627	796.62
3104.828	803.62
3108.026	822.62
3111.222	841.62
3114.416	849.62
3117.607	875.62
3120.795	891.62
3123.98	925.62
3127.163	944.62
3130.344	961.62
3133.521	974.62
3136.696	999.62
3139.869	1006.62
3143.039	1047.62
3146.206	1052.62
3149.371	1063.62
3152.533	1083.62
3155.693	1086.62
3158.85	1093.62
3162.005	1110.62
3165.157	1112.62
3168.306	1131.62
3171.453	1123.62
3174.597	1128.62
3177.739	1139.62
3180.878	1149.62
3184.014	1131.62
3187.149	1136.62
3190.28	1133.62
3193.409	1150.62
3196.536	1171.62
3199.659	1144.62
3202.781	1173.62
3205.9	1169.62
3209.016	1178.62
3212.13	1169.62
3215.241	1175.62
3218.35	1162.62
3221.456	1157.62
3224.56	1126.62
3227.661	1126.62
3230.76	1111.62
3233.856	1110.62
3236.95	1092.62
3240.041	1071.62
3243.13	1079.62
3246.216	1074.62
3249.3	1042.62
3252.382	1064.62
3255.46	1039.62
3258.537	1040.62
3261.611	1047.62
3264.682	1034.62
3267.751	1026.62
3270.818	1029.62
3273.882	1033.62
3276.943	1018.62
3280.002	1014.62
3283.059	1007.62
3286.113	1017.62
3289.165	999.62
3292.214	982.62
3295.261	965.62
3298.306	946.62
3301.348	936.62
3304.387	928.62
3307.425	916.62
3310.459	894.62
3313.492	887.62
3316.521	874.62
3319.549	862.62
3322.574	875.62
3325.597	863.62
3328.617	865.62
3331.635	842.62
3334.65	849.62
3337.663	836.62
3340.674	835.62
3343.682	821.62
3346.688	831.62
3349.691	833.62
3352.692	823.62
3355.691	822.62
3358.687	818.62
3361.681	809.62
3364.673	801.62
3367.662	791.62
3370.649	782.62
3373.633	769.62
3376.615	760.62
3379.595	756.62
3382.572	739.62
3385.547	727.62
3388.52	720.62
3391.49	711.62
3394.458	703.62
3397.424	695.62
3400.387	701.62
3403.348	679.62
3406.307	678.62
3409.263	670.62
3412.217	678.62
3415.168	650.62
3418.118	651.62
3421.065	652.62
3424.009	635.62
3426.951	620.62
3429.891	622.62
3432.829	601.62
3435.764	591.62
3438.697	589.62
3441.628	579.62
3444.557	552.62
3447.483	529.62
3450.407	526.62
3453.328	515.62
3456.247	498.62
3459.164	489.62
3462.079	479.62
3464.991	466.62
3467.902	451.62
3470.809	437.62
3473.715	425.62
3476.618	420.62
3479.519	409.62
3482.418	397.62
3485.315	379.62
3488.209	369.62
3491.101	359.62
3493.99	345.62
3496.878	340.62
3499.763	331.62
3502.646	330.62
3505.527	314.62
3508.405	309.62
3511.281	299.62
3514.155	280.62
3517.027	272.62
3519.897	265.62
3522.764	247.62
3525.629	242.62
3528.492	227.62
3531.352	217.62
3534.211	203.62
3537.067	195.62
3539.921	188.62
3542.773	176.62
3545.622	165.62
3548.469	159.62
3551.315	147.62
3554.157	146.62
3556.998	141.62
3559.837	126.62
3562.673	127.62
3565.507	122.62
3568.339	113.62
3571.169	107.62
3573.996	101.62
3576.822	102.62
3579.645	93.62
3582.466	87.62
3585.285	91.62
3588.101	76.62
3590.916	68.62
3593.728	65.62
3596.538	64.62
3599.346	53.62
3602.152	47.62
3604.956	52.62
3607.757	43.62
3610.556	36.62
3613.354	36.62
3616.149	33.62
3618.942	29.62
3621.732	25.62
3624.521	20.62
3627.307	18.62
3630.092	14.62
3632.874	15.62
3635.654	14.62
3638.432	11.62
3641.208	7.62
3643.982	8.62
3646.753	1.62
3649.523	1.62
3652.29	0.62
3655.055	-3.38
3657.818	-8.38
3660.579	-11.38
3663.338	-10.38
3666.095	-10.38
3668.849	-14.38
3671.602	-15.38
3674.352	-19.38
3677.101	-20.38
3679.847	-23.38
3682.591	-24.38
3685.333	-24.38
3688.073	-30.38
3690.811	-29.38
3693.547	-33.38
3696.281	-37.38
3699.013	-34.38
3701.742	-36.38
3704.47	-37.38
3707.195	-35.38
3709.919	-40.38
3712.64	-40.38
3715.359	-42.38
3718.076	-38.38
3720.792	-44.38
3723.505	-45.38
3726.216	-39.38
3728.925	-45.38
3731.632	-47.38
3734.336	-43.38
3737.039	-47.38
3739.74	-47.38
3742.439	-51.38
3745.136	-49.38
3747.83	-48.38
3750.523	-53.38
3753.213	-49.38
3755.902	-51.38
3758.589	-53.38
3761.273	-55.38
3763.956	-52.38
3766.636	-60.38
3769.315	-55.38
3771.991	-56.38
3774.665	-56.38
3777.338	-54.38
3780.008	-59.38
3782.677	-59.38
3785.343	-57.38
3788.007	-55.38
3790.67	-55.38
3793.33	-60.38
3795.989	-56.38
3798.645	-60.38
3801.299	-58.38
3803.952	-57.38
3806.602	-60.38
3809.251	-59.38
3811.897	-56.38
3814.542	-59.38
3817.184	-58.38
3819.825	-51.38
3822.463	-58.38
3825.1	-56.38
3827.735	-54.38
3830.367	-57.38
3832.998	-59.38
3835.627	-58.38
3838.253	-58.38
3840.878	-63.38
3843.501	-59.38
3846.122	-64.38
3848.741	-62.38
3851.358	-67.38
3853.973	-64.38
3856.586	-60.38
3859.197	-66.38
3861.806	-66.38
3864.414	-64.38
3867.019	-66.38
3869.622	-67.38
3872.224	-67.38
3874.823	-63.38
3877.421	-67.38
3880.016	-61.38
3882.61	-58.38
3885.202	-66.38
3887.792	-57.38
3890.38	-60.38
3892.966	-61.38
3895.55	-64.38
3898.132	-63.38
3900.713	-67.38
3903.291	-67.38
3905.868	-64.38
3908.442	-60.38
3911.015	-61.38
3913.586	-61.38
3916.155	-62.38
3918.722	-62.38
3921.287	-64.38
3923.85	-61.38
3926.411	-63.38
3928.971	-64.38
3931.528	-68.38
3934.084	-67.38
3936.638	-68.38
3939.19	-66.38
3941.74	-66.38
3944.288	-65.38
3946.834	-69.38
3949.378	-72.38
3951.921	-69.38
3954.462	-69.38
3957	-68.38
3959.537	-68.38
3962.072	-69.38
3964.606	-62.38
3967.137	-67.38
3969.667	-66.38
3972.194	-67.38
3974.72	-67.38
3977.244	-67.38
3979.766	-63.38
3982.286	-63.38
3984.805	-65.38
3987.321	-63.38
3989.836	-67.38
3992.349	-65.38
3994.86	-65.38
3997.369	-64.38
3999.877	-63.38
4002.382	-64.38
4004.886	-60.38
4007.388	-65.38
4009.888	-63.38
4012.386	-61.38
4014.883	-67.38
4017.377	-65.38
4019.87	-64.38
4022.361	-64.38
4024.85	-65.38
4027.338	-65.38
4029.823	-65.38
4032.307	-67.38
4034.789	-63.38
4037.269	-66.38
4039.747	-66.38
4042.224	-67.38
4044.699	-69.38
4047.172	-65.38
4049.643	-64.38
4052.112	-66.38
4054.58	-64.38
4057.046	-66.38
4059.51	-67.38
4061.972	-67.38
4064.432	-68.38
4066.891	-66.38
4069.348	-65.38
4071.803	-68.38
4074.256	-67.38
4076.708	-69.38
4079.158	-67.38
4081.606	-70.38
4084.052	-63.38
4086.497	-66.38
4088.939	-67.38
4091.38	-68.38
4093.819	-65.38
4096.257	-74.38
4098.693	-72.38
4101.127	-72.38
4103.559	-70.38
4105.989	-26.38
4108.418	-20.38
4110.845	-15.38
4113.27	-18.38
4115.694	-15.38
4118.115	-4.38
4120.535	-68.38
4122.954	-66.38
4125.37	-66.38
4127.785	-67.38
4130.198	-64.38
4132.609	-62.38
4135.019	-69.38
4137.427	-68.38
4139.833	-66.38
4142.237	-68.38
