Data from 10000000CFU3_B_ramanshift_RamanShift_12-35-57-544.txt Node
Date: Sun Jan 01 12:35:57 IST 2017
User: aro
Spectrometer: QEPB0276
Trigger mode: 0
Integration Time (sec): 5.000000E0
Scans to average: 1
Electric dark correction enabled: true
Nonlinearity correction enabled: false
Boxcar width: 0
XAxis mode: Raman Shifts
Number of Pixels in Spectrum: 1044
>>>>>Begin Spectral Data<<<<<
160.701	5.38
166.742	17.38
172.777	62.38
178.805	191.38
184.826	566.38
190.841	1362.38
196.849	2570.38
202.85	3672.38
208.845	4296.38
214.833	4316.38
220.815	4139.38
226.789	4004.38
232.758	3891.38
238.719	3789.38
244.674	3683.38
250.623	3571.38
256.565	3395.38
262.5	3233.38
268.429	3120.38
274.351	2977.38
280.267	2852.38
286.176	2766.38
292.079	2686.38
297.975	2605.38
303.865	2510.38
309.748	2454.38
315.625	2377.38
321.495	2331.38
327.359	2287.38
333.217	2271.38
339.068	2244.38
344.912	2215.38
350.751	2205.38
356.583	2197.38
362.408	2196.38
368.227	2193.38
374.04	2188.38
379.847	2198.38
385.647	2187.38
391.44	2207.38
397.228	2217.38
403.009	2242.38
408.784	2251.38
414.553	2251.38
420.315	2245.38
426.071	2269.38
431.821	2240.38
437.565	2250.38
443.302	2252.38
449.033	2261.38
454.758	2257.38
460.477	2230.38
466.189	2237.38
471.896	2222.38
477.596	2202.38
483.29	2180.38
488.978	2165.38
494.66	2171.38
500.335	2145.38
506.005	2133.38
511.668	2091.38
517.325	2077.38
522.977	2036.38
528.622	2003.38
534.261	1989.38
539.894	1966.38
545.521	1964.38
551.141	1949.38
556.756	1919.38
562.365	1918.38
567.968	1913.38
573.565	1900.38
579.155	1885.38
584.74	1857.38
590.319	1870.38
595.892	1864.38
601.459	1841.38
607.02	1836.38
612.575	1805.38
618.124	1801.38
623.667	1792.38
629.204	1790.38
634.735	1751.38
640.261	1737.38
645.781	1726.38
651.294	1715.38
656.802	1697.38
662.304	1713.38
667.8	1708.38
673.29	1686.38
678.775	1702.38
684.254	1673.38
689.726	1679.38
695.193	1667.38
700.655	1649.38
706.11	1649.38
711.56	1637.38
717.004	1620.38
722.442	1620.38
727.874	1606.38
733.301	1601.38
738.722	1589.38
744.137	1576.38
749.547	1567.38
754.951	1569.38
760.349	1577.38
765.741	1564.38
771.128	1572.38
776.509	1552.38
781.885	1568.38
787.254	1569.38
792.618	1572.38
797.977	1550.38
803.33	1530.38
808.677	1530.38
814.019	1523.38
819.355	1522.38
824.686	1487.38
830.011	1490.38
835.33	1477.38
840.644	1462.38
845.952	1449.38
851.255	1446.38
856.552	1450.38
861.844	1437.38
867.13	1440.38
872.41	1437.38
877.686	1438.38
882.955	1412.38
888.219	1403.38
893.478	1392.38
898.731	1355.38
903.979	1335.38
909.221	1317.38
914.458	1335.38
919.69	1296.38
924.916	1312.38
930.136	1308.38
935.351	1313.38
940.561	1316.38
945.766	1289.38
950.965	1287.38
956.158	1286.38
961.347	1285.38
966.529	1262.38
971.707	1251.38
976.879	1233.38
982.046	1228.38
987.208	1208.38
992.364	1207.38
997.515	1210.38
1002.66	1225.38
1007.801	1225.38
1012.936	1235.38
1018.066	1240.38
1023.19	1253.38
1028.309	1257.38
1033.423	1255.38
1038.532	1263.38
1043.636	1238.38
1048.734	1245.38
1053.827	1202.38
1058.915	1208.38
1063.998	1210.38
1069.075	1198.38
1074.147	1193.38
1079.214	1202.38
1084.276	1218.38
1089.333	1232.38
1094.385	1242.38
1099.431	1240.38
1104.472	1241.38
1109.509	1238.38
1114.54	1238.38
1119.565	1217.38
1124.586	1211.38
1129.602	1191.38
1134.613	1186.38
1139.618	1172.38
1144.619	1197.38
1149.614	1177.38
1154.604	1175.38
1159.589	1192.38
1164.57	1190.38
1169.545	1201.38
1174.515	1203.38
1179.48	1197.38
1184.44	1185.38
1189.395	1184.38
1194.345	1175.38
1199.29	1177.38
1204.23	1174.38
1209.165	1177.38
1214.095	1177.38
1219.021	1185.38
1223.941	1192.38
1228.856	1228.38
1233.766	1231.38
1238.672	1228.38
1243.572	1217.38
1248.467	1232.38
1253.358	1213.38
1258.244	1198.38
1263.124	1174.38
1268	1159.38
1272.871	1145.38
1277.737	1140.38
1282.599	1143.38
1287.455	1130.38
1292.306	1150.38
1297.153	1131.38
1301.995	1149.38
1306.832	1158.38
1311.664	1157.38
1316.491	1153.38
1321.314	1173.38
1326.132	1138.38
1330.945	1149.38
1335.753	1128.38
1340.556	1129.38
1345.354	1119.38
1350.148	1109.38
1354.937	1096.38
1359.722	1090.38
1364.501	1083.38
1369.276	1063.38
1374.046	1051.38
1378.811	1063.38
1383.572	1051.38
1388.327	1047.38
1393.079	1059.38
1397.825	1045.38
1402.567	1037.38
1407.304	1042.38
1412.036	1020.38
1416.764	1022.38
1421.487	1035.38
1426.205	1032.38
1430.919	1030.38
1435.628	1047.38
1440.333	1039.38
1445.032	1071.38
1449.727	1078.38
1454.418	1081.38
1459.104	1093.38
1463.785	1089.38
1468.462	1068.38
1473.134	1051.38
1477.802	1038.38
1482.465	1050.38
1487.123	1040.38
1491.777	1039.38
1496.426	1049.38
1501.071	1037.38
1505.711	1044.38
1510.347	1065.38
1514.978	1052.38
1519.604	1083.38
1524.226	1085.38
1528.844	1077.38
1533.457	1076.38
1538.065	1078.38
1542.669	1097.38
1547.269	1069.38
1551.864	1084.38
1556.454	1080.38
1561.041	1095.38
1565.622	1108.38
1570.199	1121.38
1574.772	1115.38
1579.34	1148.38
1583.904	1164.38
1588.464	1189.38
1593.019	1194.38
1597.569	1212.38
1602.115	1216.38
1606.657	1239.38
1611.195	1245.38
1615.728	1246.38
1620.256	1267.38
1624.78	1271.38
1629.3	1283.38
1633.816	1313.38
1638.327	1326.38
1642.834	1354.38
1647.336	1362.38
1651.834	1370.38
1656.328	1362.38
1660.817	1364.38
1665.302	1332.38
1669.783	1321.38
1674.259	1291.38
1678.732	1280.38
1683.199	1226.38
1687.663	1193.38
1692.122	1147.38
1696.577	1120.38
1701.028	1072.38
1705.474	1030.38
1709.917	979.38
1714.355	967.38
1718.788	952.38
1723.218	958.38
1727.643	937.38
1732.064	913.38
1736.481	890.38
1740.893	879.38
1745.301	853.38
1749.705	826.38
1754.105	826.38
1758.501	796.38
1762.893	785.38
1767.28	767.38
1771.663	771.38
1776.042	763.38
1780.417	765.38
1784.787	763.38
1789.154	750.38
1793.516	760.38
1797.874	760.38
1802.228	747.38
1806.578	748.38
1810.924	735.38
1815.266	734.38
1819.603	715.38
1823.937	719.38
1828.266	701.38
1832.591	693.38
1836.913	706.38
1841.23	688.38
1845.543	700.38
1849.852	694.38
1854.156	689.38
1858.457	700.38
1862.754	706.38
1867.047	699.38
1871.335	699.38
1875.62	711.38
1879.9	707.38
1884.177	713.38
1888.449	715.38
1892.718	717.38
1896.982	711.38
1901.243	711.38
1905.499	699.38
1909.752	701.38
1914	697.38
1918.245	692.38
1922.485	693.38
1926.722	688.38
1930.954	689.38
1935.183	696.38
1939.408	714.38
1943.628	703.38
1947.845	707.38
1952.058	690.38
1956.267	701.38
1960.472	697.38
1964.673	687.38
1968.87	673.38
1973.063	682.38
1977.252	666.38
1981.438	679.38
1985.619	664.38
1989.797	666.38
1993.971	668.38
1998.14	664.38
2002.306	676.38
2006.469	670.38
2010.627	675.38
2014.781	677.38
2018.932	684.38
2023.078	692.38
2027.221	686.38
2031.36	682.38
2035.495	667.38
2039.627	666.38
2043.754	657.38
2047.878	657.38
2051.998	662.38
2056.114	652.38
2060.226	668.38
2064.334	664.38
2068.439	671.38
2072.54	669.38
2076.637	667.38
2080.73	656.38
2084.82	671.38
2088.906	671.38
2092.988	672.38
2097.066	659.38
2101.14	655.38
2105.211	665.38
2109.278	666.38
2113.342	650.38
2117.401	647.38
2121.457	641.38
2125.509	645.38
2129.558	642.38
2133.602	639.38
2137.643	646.38
2141.681	641.38
2145.714	633.38
2149.744	631.38
2153.77	629.38
2157.793	633.38
2161.812	617.38
2165.827	618.38
2169.838	608.38
2173.846	599.38
2177.851	599.38
2181.851	593.38
2185.848	572.38
2189.841	579.38
2193.831	575.38
2197.817	566.38
2201.799	569.38
2205.778	569.38
2209.753	567.38
2213.725	563.38
2217.693	558.38
2221.657	559.38
2225.618	553.38
2229.575	556.38
2233.529	550.38
2237.479	550.38
2241.425	540.38
2245.368	530.38
2249.307	531.38
2253.243	515.38
2257.175	518.38
2261.104	509.38
2265.029	500.38
2268.95	491.38
2272.868	494.38
2276.783	480.38
2280.694	477.38
2284.601	480.38
2288.505	481.38
2292.405	458.38
2296.302	457.38
2300.195	466.38
2304.085	459.38
2307.971	456.38
2311.854	437.38
2315.734	445.38
2319.609	428.38
2323.482	422.38
2327.351	428.38
2331.216	411.38
2335.078	419.38
2338.937	412.38
2342.792	413.38
2346.643	408.38
2350.492	411.38
2354.336	400.38
2358.178	410.38
2362.015	401.38
2365.85	416.38
2369.681	419.38
2373.508	409.38
2377.333	409.38
2381.153	400.38
2384.971	410.38
2388.785	405.38
2392.595	403.38
2396.402	401.38
2400.206	402.38
2404.007	398.38
2407.804	403.38
2411.597	396.38
2415.388	399.38
2419.174	377.38
2422.958	390.38
2426.738	391.38
2430.515	389.38
2434.289	381.38
2438.059	388.38
2441.825	386.38
2445.589	384.38
2449.349	386.38
2453.106	376.38
2456.859	370.38
2460.61	368.38
2464.356	364.38
2468.1	363.38
2471.84	360.38
2475.577	364.38
2479.311	362.38
2483.041	358.38
2486.768	353.38
2490.492	356.38
2494.213	367.38
2497.93	373.38
2501.644	358.38
2505.355	368.38
2509.062	358.38
2512.766	355.38
2516.467	355.38
2520.165	360.38
2523.859	353.38
2527.551	353.38
2531.239	338.38
2534.923	354.38
2538.605	328.38
2542.283	344.38
2545.958	344.38
2549.63	331.38
2553.299	337.38
2556.964	341.38
2560.626	335.38
2564.285	330.38
2567.941	326.38
2571.594	328.38
2575.243	326.38
2578.89	313.38
2582.533	319.38
2586.173	317.38
2589.809	317.38
2593.443	309.38
2597.073	322.38
2600.701	306.38
2604.325	303.38
2607.946	308.38
2611.564	299.38
2615.178	306.38
2618.79	310.38
2622.398	302.38
2626.004	306.38
2629.606	295.38
2633.205	303.38
2636.801	295.38
2640.394	302.38
2643.983	296.38
2647.57	284.38
2651.153	292.38
2654.734	285.38
2658.311	282.38
2661.885	276.38
2665.456	274.38
2669.025	269.38
2672.589	263.38
2676.151	272.38
2679.71	271.38
2683.266	269.38
2686.819	260.38
2690.368	267.38
2693.915	266.38
2697.458	261.38
2700.999	258.38
2704.536	262.38
2708.071	252.38
2711.602	249.38
2715.13	257.38
2718.656	248.38
2722.178	235.38
2725.697	248.38
2729.214	249.38
2732.727	251.38
2736.237	248.38
2739.744	256.38
2743.249	246.38
2746.75	243.38
2750.248	247.38
2753.743	248.38
2757.236	250.38
2760.725	247.38
2764.211	248.38
2767.695	239.38
2771.175	241.38
2774.652	231.38
2778.127	226.38
2781.598	235.38
2785.067	241.38
2788.532	238.38
2791.995	230.38
2795.455	234.38
2798.911	233.38
2802.365	236.38
2805.816	235.38
2809.264	249.38
2812.709	242.38
2816.151	239.38
2819.59	235.38
2823.026	247.38
2826.46	243.38
2829.89	243.38
2833.318	247.38
2836.742	243.38
2840.164	238.38
2843.583	241.38
2846.999	253.38
2850.412	257.38
2853.822	254.38
2857.229	254.38
2860.634	249.38
2864.035	271.38
2867.434	263.38
2870.83	264.38
2874.223	258.38
2877.613	270.38
2881	261.38
2884.385	266.38
2887.766	258.38
2891.145	266.38
2894.521	270.38
2897.894	269.38
2901.264	263.38
2904.631	265.38
2907.996	268.38
2911.358	274.38
2914.717	271.38
2918.073	276.38
2921.426	275.38
2924.777	284.38
2928.124	286.38
2931.469	290.38
2934.811	293.38
2938.15	304.38
2941.487	304.38
2944.821	298.38
2948.152	311.38
2951.48	314.38
2954.805	325.38
2958.128	322.38
2961.447	322.38
2964.765	328.38
2968.079	336.38
2971.39	337.38
2974.699	351.38
2978.005	339.38
2981.308	355.38
2984.609	360.38
2987.907	365.38
2991.202	369.38
2994.494	383.38
2997.784	397.38
3001.07	407.38
3004.355	423.38
3007.636	415.38
3010.915	442.38
3014.191	435.38
3017.464	448.38
3020.734	457.38
3024.002	459.38
3027.267	463.38
3030.53	473.38
3033.789	476.38
3037.046	492.38
3040.301	494.38
3043.552	495.38
3046.801	512.38
3050.048	529.38
3053.291	546.38
3056.532	560.38
3059.771	577.38
3063.006	585.38
3066.239	614.38
3069.469	632.38
3072.697	633.38
3075.922	655.38
3079.144	669.38
3082.364	684.38
3085.581	697.38
3088.795	718.38
3092.007	738.38
3095.216	742.38
3098.423	752.38
3101.627	783.38
3104.828	787.38
3108.026	803.38
3111.222	828.38
3114.416	827.38
3117.607	846.38
3120.795	870.38
3123.98	886.38
3127.163	913.38
3130.344	933.38
3133.521	940.38
3136.696	967.38
3139.869	987.38
3143.039	1017.38
3146.206	1030.38
3149.371	1039.38
3152.533	1048.38
3155.693	1059.38
3158.85	1059.38
3162.005	1067.38
3165.157	1079.38
3168.306	1082.38
3171.453	1087.38
3174.597	1091.38
3177.739	1086.38
3180.878	1101.38
3184.014	1100.38
3187.149	1096.38
3190.28	1117.38
3193.409	1104.38
3196.536	1120.38
3199.659	1114.38
3202.781	1120.38
3205.9	1124.38
3209.016	1132.38
3212.13	1118.38
3215.241	1117.38
3218.35	1114.38
3221.456	1107.38
3224.56	1101.38
3227.661	1078.38
3230.76	1084.38
3233.856	1061.38
3236.95	1049.38
3240.041	1054.38
3243.13	1045.38
3246.216	1029.38
3249.3	1027.38
3252.382	1018.38
3255.46	1027.38
3258.537	1013.38
3261.611	999.38
3264.682	1004.38
3267.751	998.38
3270.818	990.38
3273.882	995.38
3276.943	975.38
3280.002	978.38
3283.059	977.38
3286.113	961.38
3289.165	954.38
3292.214	927.38
3295.261	933.38
3298.306	904.38
3301.348	906.38
3304.387	890.38
3307.425	863.38
3310.459	864.38
3313.492	858.38
3316.521	832.38
3319.549	839.38
3322.574	828.38
3325.597	822.38
3328.617	820.38
3331.635	823.38
3334.65	803.38
3337.663	810.38
3340.674	800.38
3343.682	790.38
3346.688	801.38
3349.691	783.38
3352.692	784.38
3355.691	768.38
3358.687	784.38
3361.681	769.38
3364.673	780.38
3367.662	751.38
3370.649	747.38
3373.633	735.38
3376.615	729.38
3379.595	727.38
3382.572	717.38
3385.547	717.38
3388.52	699.38
3391.49	683.38
3394.458	683.38
3397.424	659.38
3400.387	660.38
3403.348	649.38
3406.307	637.38
3409.263	635.38
3412.217	619.38
3415.168	626.38
3418.118	619.38
3421.065	615.38
3424.009	618.38
3426.951	603.38
3429.891	589.38
3432.829	574.38
3435.764	564.38
3438.697	558.38
3441.628	553.38
3444.557	542.38
3447.483	530.38
3450.407	504.38
3453.328	498.38
3456.247	480.38
3459.164	471.38
3462.079	451.38
3464.991	440.38
3467.902	423.38
3470.809	425.38
3473.715	415.38
3476.618	400.38
3479.519	385.38
3482.418	371.38
3485.315	369.38
3488.209	356.38
3491.101	352.38
3493.99	332.38
3496.878	325.38
3499.763	319.38
3502.646	313.38
3505.527	310.38
3508.405	290.38
3511.281	275.38
3514.155	275.38
3517.027	252.38
3519.897	255.38
3522.764	244.38
3525.629	229.38
3528.492	214.38
3531.352	206.38
3534.211	202.38
3537.067	190.38
3539.921	179.38
3542.773	172.38
3545.622	162.38
3548.469	155.38
3551.315	143.38
3554.157	138.38
3556.998	135.38
3559.837	128.38
3562.673	122.38
3565.507	115.38
3568.339	116.38
3571.169	105.38
3573.996	103.38
3576.822	94.38
3579.645	91.38
3582.466	80.38
3585.285	74.38
3588.101	68.38
3590.916	63.38
3593.728	59.38
3596.538	55.38
3599.346	53.38
3602.152	46.38
3604.956	44.38
3607.757	33.38
3610.556	34.38
3613.354	36.38
3616.149	30.38
3618.942	24.38
3621.732	22.38
3624.521	15.38
3627.307	16.38
3630.092	14.38
3632.874	13.38
3635.654	6.38
3638.432	12.38
3641.208	7.38
3643.982	4.38
3646.753	3.38
3649.523	0.38
3652.29	0.38
3655.055	0.38
3657.818	-4.62
3660.579	-8.62
3663.338	-10.62
3666.095	-13.62
3668.849	-13.62
3671.602	-16.62
3674.352	-19.62
3677.101	-22.62
3679.847	-27.62
3682.591	-24.62
3685.333	-24.62
3688.073	-30.62
3690.811	-27.62
3693.547	-36.62
3696.281	-34.62
3699.013	-32.62
3701.742	-36.62
3704.47	-38.62
3707.195	-36.62
3709.919	-37.62
3712.64	-42.62
3715.359	-42.62
3718.076	-44.62
3720.792	-41.62
3723.505	-47.62
3726.216	-46.62
3728.925	-46.62
3731.632	-44.62
3734.336	-48.62
3737.039	-50.62
3739.74	-47.62
3742.439	-52.62
3745.136	-50.62
3747.83	-49.62
3750.523	-49.62
3753.213	-51.62
3755.902	-50.62
3758.589	-52.62
3761.273	-54.62
3763.956	-49.62
3766.636	-52.62
3769.315	-53.62
3771.991	-58.62
3774.665	-55.62
3777.338	-51.62
3780.008	-54.62
3782.677	-58.62
3785.343	-52.62
3788.007	-53.62
3790.67	-56.62
3793.33	-58.62
3795.989	-56.62
3798.645	-56.62
3801.299	-58.62
3803.952	-61.62
3806.602	-58.62
3809.251	-58.62
3811.897	-57.62
3814.542	-62.62
3817.184	-60.62
3819.825	-55.62
3822.463	-58.62
3825.1	-58.62
3827.735	-57.62
3830.367	-60.62
3832.998	-62.62
3835.627	-60.62
3838.253	-59.62
3840.878	-63.62
3843.501	-61.62
3846.122	-64.62
3848.741	-63.62
3851.358	-66.62
3853.973	-63.62
3856.586	-63.62
3859.197	-67.62
3861.806	-66.62
3864.414	-61.62
3867.019	-65.62
3869.622	-65.62
3872.224	-66.62
3874.823	-64.62
3877.421	-67.62
3880.016	-61.62
3882.61	-58.62
3885.202	-61.62
3887.792	-56.62
3890.38	-60.62
3892.966	-58.62
3895.55	-62.62
3898.132	-63.62
3900.713	-64.62
3903.291	-64.62
3905.868	-64.62
3908.442	-64.62
3911.015	-65.62
3913.586	-63.62
3916.155	-61.62
3918.722	-66.62
3921.287	-63.62
3923.85	-66.62
3926.411	-64.62
3928.971	-66.62
3931.528	-68.62
3934.084	-71.62
3936.638	-69.62
3939.19	-70.62
3941.74	-65.62
3944.288	-67.62
3946.834	-72.62
3949.378	-72.62
3951.921	-69.62
3954.462	-71.62
3957	-67.62
3959.537	-69.62
3962.072	-68.62
3964.606	-66.62
3967.137	-65.62
3969.667	-69.62
3972.194	-67.62
3974.72	-66.62
3977.244	-65.62
3979.766	-63.62
3982.286	-65.62
3984.805	-67.62
3987.321	-65.62
3989.836	-65.62
3992.349	-66.62
3994.86	-65.62
3997.369	-68.62
3999.877	-66.62
4002.382	-62.62
4004.886	-61.62
4007.388	-63.62
4009.888	-63.62
4012.386	-62.62
4014.883	-68.62
4017.377	-67.62
4019.87	-65.62
4022.361	-64.62
4024.85	-65.62
4027.338	-64.62
4029.823	-63.62
4032.307	-69.62
4034.789	-65.62
4037.269	-68.62
4039.747	-66.62
4042.224	-67.62
4044.699	-66.62
4047.172	-64.62
4049.643	-64.62
4052.112	-66.62
4054.58	-65.62
4057.046	-67.62
4059.51	-66.62
4061.972	-66.62
4064.432	-68.62
4066.891	-66.62
4069.348	-69.62
4071.803	-69.62
4074.256	-67.62
4076.708	-68.62
4079.158	-69.62
4081.606	-71.62
4084.052	-65.62
4086.497	-66.62
4088.939	-68.62
4091.38	-72.62
4093.819	-66.62
4096.257	-73.62
4098.693	-72.62
4101.127	-75.62
4103.559	-72.62
4105.989	-24.62
4108.418	-19.62
4110.845	-19.62
4113.27	-18.62
4115.694	-11.62
4118.115	-6.62
4120.535	-66.62
4122.954	-67.62
4125.37	-67.62
4127.785	-66.62
4130.198	-64.62
4132.609	-65.62
4135.019	-72.62
4137.427	-69.62
4139.833	-66.62
4142.237	-67.62
