Data from Bsub_water_DIL106_B_1_RamanShift_1.txt Node
Date: Wed Feb 22 13:18:31 IST 2017
User: aro
Spectrometer: QEPB0276
Trigger mode: 0
Integration Time (sec): 5.000000E0
Scans to average: 1
Electric dark correction enabled: true
Nonlinearity correction enabled: false
Boxcar width: 0
XAxis mode: Raman Shifts
Number of Pixels in Spectrum: 1044
>>>>>Begin Spectral Data<<<<<
160.701	-29.75
166.742	1.25
172.777	94.25
178.805	382.25
184.826	1070.25
190.841	2229.25
196.849	3584.25
202.85	4432.25
208.845	4648.25
214.833	4506.25
220.815	4318.25
226.789	4163.25
232.758	4048.25
238.719	3871.25
244.674	3717.25
250.623	3558.25
256.565	3353.25
262.5	3183.25
268.429	3036.25
274.351	2886.25
280.267	2762.25
286.176	2636.25
292.079	2537.25
297.975	2428.25
303.865	2332.25
309.748	2268.25
315.625	2181.25
321.495	2152.25
327.359	2116.25
333.217	2077.25
339.068	2077.25
344.912	2061.25
350.751	2044.25
356.583	2038.25
362.408	2042.25
368.227	2046.25
374.04	2059.25
379.847	2064.25
385.647	2064.25
391.44	2073.25
397.228	2077.25
403.009	2101.25
408.784	2104.25
414.553	2118.25
420.315	2131.25
426.071	2142.25
431.821	2130.25
437.565	2123.25
443.302	2124.25
449.033	2113.25
454.758	2105.25
460.477	2095.25
466.189	2081.25
471.896	2057.25
477.596	2041.25
483.29	2038.25
488.978	2026.25
494.66	2003.25
500.335	1985.25
506.005	1958.25
511.668	1918.25
517.325	1846.25
522.977	1835.25
528.622	1794.25
534.261	1784.25
539.894	1743.25
545.521	1755.25
551.141	1717.25
556.756	1715.25
562.365	1700.25
567.968	1680.25
573.565	1675.25
579.155	1657.25
584.74	1643.25
590.319	1619.25
595.892	1618.25
601.459	1606.25
607.02	1593.25
612.575	1578.25
618.124	1565.25
623.667	1525.25
629.204	1536.25
634.735	1502.25
640.261	1513.25
645.781	1492.25
651.294	1466.25
656.802	1471.25
662.304	1444.25
667.8	1437.25
673.29	1424.25
678.775	1442.25
684.254	1416.25
689.726	1414.25
695.193	1413.25
700.655	1378.25
706.11	1364.25
711.56	1381.25
717.004	1363.25
722.442	1347.25
727.874	1330.25
733.301	1312.25
738.722	1323.25
744.137	1309.25
749.547	1302.25
754.951	1289.25
760.349	1292.25
765.741	1285.25
771.128	1293.25
776.509	1280.25
781.885	1273.25
787.254	1269.25
792.618	1278.25
797.977	1259.25
803.33	1242.25
808.677	1209.25
814.019	1228.25
819.355	1205.25
824.686	1174.25
830.011	1165.25
835.33	1165.25
840.644	1150.25
845.952	1142.25
851.255	1132.25
856.552	1126.25
861.844	1111.25
867.13	1099.25
872.41	1087.25
877.686	1073.25
882.955	1061.25
888.219	1022.25
893.478	1009.25
898.731	998.25
903.979	979.25
909.221	956.25
914.458	940.25
919.69	941.25
924.916	941.25
930.136	925.25
935.351	928.25
940.561	917.25
945.766	920.25
950.965	911.25
956.158	905.25
961.347	885.25
966.529	863.25
971.707	858.25
976.879	830.25
982.046	819.25
987.208	811.25
992.364	815.25
997.515	820.25
1002.66	812.25
1007.801	833.25
1012.936	830.25
1018.066	841.25
1023.19	831.25
1028.309	838.25
1033.423	840.25
1038.532	834.25
1043.636	814.25
1048.734	822.25
1053.827	807.25
1058.915	795.25
1063.998	788.25
1069.075	786.25
1074.147	784.25
1079.214	781.25
1084.276	786.25
1089.333	783.25
1094.385	806.25
1099.431	808.25
1104.472	814.25
1109.509	800.25
1114.54	789.25
1119.565	772.25
1124.586	755.25
1129.602	752.25
1134.613	751.25
1139.618	747.25
1144.619	742.25
1149.614	743.25
1154.604	764.25
1159.589	754.25
1164.57	742.25
1169.545	762.25
1174.515	762.25
1179.48	758.25
1184.44	739.25
1189.395	737.25
1194.345	737.25
1199.29	747.25
1204.23	738.25
1209.165	737.25
1214.095	749.25
1219.021	744.25
1223.941	758.25
1228.856	755.25
1233.766	754.25
1238.672	746.25
1243.572	763.25
1248.467	744.25
1253.358	748.25
1258.244	729.25
1263.124	720.25
1268	701.25
1272.871	710.25
1277.737	700.25
1282.599	688.25
1287.455	688.25
1292.306	691.25
1297.153	686.25
1301.995	691.25
1306.832	711.25
1311.664	698.25
1316.491	692.25
1321.314	701.25
1326.132	680.25
1330.945	671.25
1335.753	666.25
1340.556	654.25
1345.354	651.25
1350.148	625.25
1354.937	635.25
1359.722	626.25
1364.501	635.25
1369.276	643.25
1374.046	650.25
1378.811	659.25
1383.572	650.25
1388.327	642.25
1393.079	637.25
1397.825	627.25
1402.567	623.25
1407.304	613.25
1412.036	613.25
1416.764	595.25
1421.487	605.25
1426.205	608.25
1430.919	602.25
1435.628	601.25
1440.333	613.25
1445.032	611.25
1449.727	623.25
1454.418	611.25
1459.104	617.25
1463.785	610.25
1468.462	597.25
1473.134	595.25
1477.802	589.25
1482.465	586.25
1487.123	594.25
1491.777	593.25
1496.426	589.25
1501.071	608.25
1505.711	629.25
1510.347	639.25
1514.978	652.25
1519.604	649.25
1524.226	665.25
1528.844	664.25
1533.457	667.25
1538.065	661.25
1542.669	674.25
1547.269	671.25
1551.864	675.25
1556.454	679.25
1561.041	695.25
1565.622	692.25
1570.199	709.25
1574.772	731.25
1579.34	761.25
1583.904	774.25
1588.464	795.25
1593.019	796.25
1597.569	816.25
1602.115	839.25
1606.657	855.25
1611.195	860.25
1615.728	878.25
1620.256	906.25
1624.78	921.25
1629.3	931.25
1633.816	946.25
1638.327	967.25
1642.834	990.25
1647.336	985.25
1651.834	999.25
1656.328	988.25
1660.817	992.25
1665.302	968.25
1669.783	917.25
1674.259	900.25
1678.732	864.25
1683.199	816.25
1687.663	778.25
1692.122	734.25
1696.577	711.25
1701.028	678.25
1705.474	654.25
1709.917	633.25
1714.355	614.25
1718.788	570.25
1723.218	558.25
1727.643	530.25
1732.064	514.25
1736.481	492.25
1740.893	457.25
1745.301	436.25
1749.705	419.25
1754.105	418.25
1758.501	377.25
1762.893	381.25
1767.28	355.25
1771.663	352.25
1776.042	350.25
1780.417	350.25
1784.787	337.25
1789.154	349.25
1793.516	342.25
1797.874	340.25
1802.228	349.25
1806.578	339.25
1810.924	338.25
1815.266	335.25
1819.603	316.25
1823.937	322.25
1828.266	315.25
1832.591	304.25
1836.913	297.25
1841.23	293.25
1845.543	299.25
1849.852	293.25
1854.156	284.25
1858.457	287.25
1862.754	287.25
1867.047	291.25
1871.335	285.25
1875.62	290.25
1879.9	289.25
1884.177	294.25
1888.449	286.25
1892.718	287.25
1896.982	286.25
1901.243	284.25
1905.499	280.25
1909.752	286.25
1914	290.25
1918.245	287.25
1922.485	282.25
1926.722	303.25
1930.954	305.25
1935.183	302.25
1939.408	302.25
1943.628	293.25
1947.845	306.25
1952.058	304.25
1956.267	300.25
1960.472	305.25
1964.673	307.25
1968.87	302.25
1973.063	298.25
1977.252	299.25
1981.438	300.25
1985.619	292.25
1989.797	287.25
1993.971	290.25
1998.14	286.25
2002.306	292.25
2006.469	299.25
2010.627	296.25
2014.781	301.25
2018.932	297.25
2023.078	295.25
2027.221	300.25
2031.36	291.25
2035.495	288.25
2039.627	291.25
2043.754	293.25
2047.878	293.25
2051.998	301.25
2056.114	305.25
2060.226	301.25
2064.334	299.25
2068.439	296.25
2072.54	308.25
2076.637	315.25
2080.73	313.25
2084.82	316.25
2088.906	316.25
2092.988	320.25
2097.066	320.25
2101.14	321.25
2105.211	323.25
2109.278	320.25
2113.342	316.25
2117.401	322.25
2121.457	307.25
2125.509	319.25
2129.558	307.25
2133.602	307.25
2137.643	303.25
2141.681	301.25
2145.714	303.25
2149.744	301.25
2153.77	291.25
2157.793	283.25
2161.812	289.25
2165.827	283.25
2169.838	275.25
2173.846	273.25
2177.851	263.25
2181.851	257.25
2185.848	254.25
2189.841	253.25
2193.831	251.25
2197.817	244.25
2201.799	237.25
2205.778	235.25
2209.753	241.25
2213.725	229.25
2217.693	233.25
2221.657	231.25
2225.618	228.25
2229.575	220.25
2233.529	216.25
2237.479	214.25
2241.425	218.25
2245.368	221.25
2249.307	210.25
2253.243	206.25
2257.175	200.25
2261.104	196.25
2265.029	191.25
2268.95	191.25
2272.868	175.25
2276.783	175.25
2280.694	172.25
2284.601	170.25
2288.505	159.25
2292.405	163.25
2296.302	166.25
2300.195	148.25
2304.085	155.25
2307.971	152.25
2311.854	144.25
2315.734	138.25
2319.609	143.25
2323.482	129.25
2327.351	126.25
2331.216	133.25
2335.078	131.25
2338.937	124.25
2342.792	126.25
2346.643	118.25
2350.492	127.25
2354.336	119.25
2358.178	119.25
2362.015	112.25
2365.85	122.25
2369.681	119.25
2373.508	116.25
2377.333	114.25
2381.153	122.25
2384.971	113.25
2388.785	108.25
2392.595	108.25
2396.402	103.25
2400.206	104.25
2404.007	97.25
2407.804	99.25
2411.597	98.25
2415.388	103.25
2419.174	103.25
2422.958	98.25
2426.738	94.25
2430.515	101.25
2434.289	95.25
2438.059	96.25
2441.825	88.25
2445.589	94.25
2449.349	87.25
2453.106	78.25
2456.859	86.25
2460.61	83.25
2464.356	84.25
2468.1	86.25
2471.84	80.25
2475.577	76.25
2479.311	76.25
2483.041	77.25
2486.768	73.25
2490.492	76.25
2494.213	79.25
2497.93	76.25
2501.644	82.25
2505.355	72.25
2509.062	78.25
2512.766	73.25
2516.467	68.25
2520.165	66.25
2523.859	67.25
2527.551	64.25
2531.239	66.25
2534.923	65.25
2538.605	67.25
2542.283	70.25
2545.958	70.25
2549.63	69.25
2553.299	68.25
2556.964	61.25
2560.626	59.25
2564.285	60.25
2567.941	62.25
2571.594	58.25
2575.243	61.25
2578.89	58.25
2582.533	56.25
2586.173	60.25
2589.809	52.25
2593.443	55.25
2597.073	57.25
2600.701	51.25
2604.325	54.25
2607.946	52.25
2611.564	48.25
2615.178	50.25
2618.79	54.25
2622.398	52.25
2626.004	43.25
2629.606	46.25
2633.205	48.25
2636.801	43.25
2640.394	46.25
2643.983	43.25
2647.57	42.25
2651.153	37.25
2654.734	42.25
2658.311	48.25
2661.885	42.25
2665.456	41.25
2669.025	35.25
2672.589	34.25
2676.151	41.25
2679.71	35.25
2683.266	40.25
2686.819	34.25
2690.368	31.25
2693.915	33.25
2697.458	33.25
2700.999	32.25
2704.536	33.25
2708.071	34.25
2711.602	30.25
2715.13	24.25
2718.656	30.25
2722.178	28.25
2725.697	29.25
2729.214	34.25
2732.727	32.25
2736.237	36.25
2739.744	33.25
2743.249	32.25
2746.75	34.25
2750.248	38.25
2753.743	37.25
2757.236	35.25
2760.725	43.25
2764.211	45.25
2767.695	44.25
2771.175	49.25
2774.652	44.25
2778.127	47.25
2781.598	43.25
2785.067	44.25
2788.532	41.25
2791.995	46.25
2795.455	43.25
2798.911	48.25
2802.365	49.25
2805.816	53.25
2809.264	53.25
2812.709	62.25
2816.151	58.25
2819.59	58.25
2823.026	65.25
2826.46	61.25
2829.89	59.25
2833.318	66.25
2836.742	64.25
2840.164	71.25
2843.583	70.25
2846.999	78.25
2850.412	82.25
2853.822	88.25
2857.229	82.25
2860.634	90.25
2864.035	90.25
2867.434	91.25
2870.83	94.25
2874.223	102.25
2877.613	103.25
2881	110.25
2884.385	107.25
2887.766	119.25
2891.145	118.25
2894.521	120.25
2897.894	119.25
2901.264	115.25
2904.631	122.25
2907.996	129.25
2911.358	135.25
2914.717	145.25
2918.073	146.25
2921.426	151.25
2924.777	159.25
2928.124	155.25
2931.469	171.25
2934.811	170.25
2938.15	176.25
2941.487	187.25
2944.821	181.25
2948.152	197.25
2951.48	196.25
2954.805	214.25
2958.128	209.25
2961.447	220.25
2964.765	230.25
2968.079	237.25
2971.39	242.25
2974.699	258.25
2978.005	269.25
2981.308	276.25
2984.609	287.25
2987.907	307.25
2991.202	309.25
2994.494	334.25
2997.784	338.25
3001.07	352.25
3004.355	368.25
3007.636	369.25
3010.915	386.25
3014.191	406.25
3017.464	401.25
3020.734	424.25
3024.002	432.25
3027.267	451.25
3030.53	458.25
3033.789	460.25
3037.046	472.25
3040.301	484.25
3043.552	502.25
3046.801	513.25
3050.048	536.25
3053.291	562.25
3056.532	574.25
3059.771	585.25
3063.006	611.25
3066.239	625.25
3069.469	662.25
3072.697	668.25
3075.922	697.25
3079.144	713.25
3082.364	747.25
3085.581	759.25
3088.795	781.25
3092.007	801.25
3095.216	816.25
3098.423	849.25
3101.627	860.25
3104.828	881.25
3108.026	919.25
3111.222	924.25
3114.416	953.25
3117.607	968.25
3120.795	996.25
3123.98	1028.25
3127.163	1038.25
3130.344	1057.25
3133.521	1092.25
3136.696	1135.25
3139.869	1155.25
3143.039	1183.25
3146.206	1195.25
3149.371	1208.25
3152.533	1219.25
3155.693	1228.25
3158.85	1246.25
3162.005	1249.25
3165.157	1257.25
3168.306	1267.25
3171.453	1275.25
3174.597	1278.25
3177.739	1272.25
3180.878	1278.25
3184.014	1293.25
3187.149	1278.25
3190.28	1286.25
3193.409	1287.25
3196.536	1295.25
3199.659	1310.25
3202.781	1306.25
3205.9	1326.25
3209.016	1311.25
3212.13	1308.25
3215.241	1309.25
3218.35	1296.25
3221.456	1276.25
3224.56	1270.25
3227.661	1267.25
3230.76	1248.25
3233.856	1256.25
3236.95	1242.25
3240.041	1212.25
3243.13	1220.25
3246.216	1204.25
3249.3	1208.25
3252.382	1204.25
3255.46	1179.25
3258.537	1183.25
3261.611	1181.25
3264.682	1193.25
3267.751	1172.25
3270.818	1161.25
3273.882	1174.25
3276.943	1157.25
3280.002	1151.25
3283.059	1129.25
3286.113	1120.25
3289.165	1112.25
3292.214	1083.25
3295.261	1087.25
3298.306	1049.25
3301.348	1041.25
3304.387	1016.25
3307.425	1014.25
3310.459	1014.25
3313.492	980.25
3316.521	975.25
3319.549	966.25
3322.574	950.25
3325.597	953.25
3328.617	940.25
3331.635	934.25
3334.65	905.25
3337.663	923.25
3340.674	912.25
3343.682	916.25
3346.688	913.25
3349.691	891.25
3352.692	900.25
3355.691	886.25
3358.687	893.25
3361.681	890.25
3364.673	865.25
3367.662	860.25
3370.649	856.25
3373.633	832.25
3376.615	823.25
3379.595	818.25
3382.572	782.25
3385.547	794.25
3388.52	785.25
3391.49	769.25
3394.458	758.25
3397.424	757.25
3400.387	722.25
3403.348	746.25
3406.307	721.25
3409.263	717.25
3412.217	726.25
3415.168	707.25
3418.118	700.25
3421.065	691.25
3424.009	677.25
3426.951	678.25
3429.891	655.25
3432.829	650.25
3435.764	648.25
3438.697	628.25
3441.628	608.25
3444.557	589.25
3447.483	573.25
3450.407	557.25
3453.328	547.25
3456.247	527.25
3459.164	517.25
3462.079	511.25
3464.991	496.25
3467.902	474.25
3470.809	469.25
3473.715	447.25
3476.618	432.25
3479.519	427.25
3482.418	416.25
3485.315	400.25
3488.209	389.25
3491.101	382.25
3493.99	367.25
3496.878	366.25
3499.763	354.25
3502.646	332.25
3505.527	316.25
3508.405	310.25
3511.281	301.25
3514.155	294.25
3517.027	275.25
3519.897	263.25
3522.764	260.25
3525.629	242.25
3528.492	232.25
3531.352	214.25
3534.211	198.25
3537.067	194.25
3539.921	178.25
3542.773	166.25
3545.622	149.25
3548.469	154.25
3551.315	146.25
3554.157	139.25
3556.998	134.25
3559.837	120.25
3562.673	115.25
3565.507	109.25
3568.339	98.25
3571.169	98.25
3573.996	86.25
3576.822	79.25
3579.645	70.25
3582.466	68.25
3585.285	67.25
3588.101	52.25
3590.916	49.25
3593.728	43.25
3596.538	44.25
3599.346	33.25
3602.152	29.25
3604.956	25.25
3607.757	17.25
3610.556	14.25
3613.354	12.25
3616.149	12.25
3618.942	4.25
3621.732	3.25
3624.521	2.25
3627.307	-4.75
3630.092	-9.75
3632.874	-15.75
3635.654	-21.75
3638.432	-20.75
3641.208	-25.75
3643.982	-23.75
3646.753	-26.75
3649.523	-27.75
3652.29	-31.75
3655.055	-38.75
3657.818	-43.75
3660.579	-41.75
3663.338	-49.75
3666.095	-48.75
3668.849	-50.75
3671.602	-53.75
3674.352	-58.75
3677.101	-60.75
3679.847	-63.75
3682.591	-64.75
3685.333	-69.75
3688.073	-66.75
3690.811	-70.75
3693.547	-73.75
3696.281	-71.75
3699.013	-69.75
3701.742	-71.75
3704.47	-73.75
3707.195	-78.75
3709.919	-79.75
3712.64	-80.75
3715.359	-82.75
3718.076	-81.75
3720.792	-85.75
3723.505	-86.75
3726.216	-84.75
3728.925	-79.75
3731.632	-88.75
3734.336	-90.75
3737.039	-85.75
3739.74	-87.75
3742.439	-85.75
3745.136	-90.75
3747.83	-92.75
3750.523	-95.75
3753.213	-94.75
3755.902	-100.75
3758.589	-96.75
3761.273	-94.75
3763.956	-98.75
3766.636	-94.75
3769.315	-94.75
3771.991	-98.75
3774.665	-94.75
3777.338	-96.75
3780.008	-99.75
3782.677	-96.75
3785.343	-99.75
3788.007	-98.75
3790.67	-100.75
3793.33	-100.75
3795.989	-98.75
3798.645	-99.75
3801.299	-106.75
3803.952	-103.75
3806.602	-101.75
3809.251	-103.75
3811.897	-105.75
3814.542	-104.75
3817.184	-100.75
3819.825	-97.75
3822.463	-101.75
3825.1	-99.75
3827.735	-102.75
3830.367	-101.75
3832.998	-101.75
3835.627	-106.75
3838.253	-105.75
3840.878	-109.75
3843.501	-105.75
3846.122	-105.75
3848.741	-105.75
3851.358	-103.75
3853.973	-103.75
3856.586	-105.75
3859.197	-103.75
3861.806	-105.75
3864.414	-107.75
3867.019	-101.75
3869.622	-105.75
3872.224	-104.75
3874.823	-102.75
3877.421	-97.75
3880.016	-99.75
3882.61	-95.75
3885.202	-99.75
3887.792	-98.75
3890.38	-102.75
3892.966	-103.75
3895.55	-105.75
3898.132	-101.75
3900.713	-104.75
3903.291	-103.75
3905.868	-102.75
3908.442	-99.75
3911.015	-106.75
3913.586	-106.75
3916.155	-108.75
3918.722	-107.75
3921.287	-109.75
3923.85	-109.75
3926.411	-109.75
3928.971	-109.75
3931.528	-106.75
3934.084	-106.75
3936.638	-107.75
3939.19	-107.75
3941.74	-105.75
3944.288	-105.75
3946.834	-105.75
3949.378	-109.75
3951.921	-105.75
3954.462	-105.75
3957	-106.75
3959.537	-101.75
3962.072	-110.75
3964.606	-109.75
3967.137	-105.75
3969.667	-105.75
3972.194	-108.75
3974.72	-105.75
3977.244	-107.75
3979.766	-106.75
3982.286	-105.75
3984.805	-102.75
3987.321	-102.75
3989.836	-105.75
3992.349	-104.75
3994.86	-108.75
3997.369	-108.75
3999.877	-112.75
4002.382	-107.75
4004.886	-105.75
4007.388	-105.75
4009.888	-110.75
4012.386	-103.75
4014.883	-102.75
4017.377	-103.75
4019.87	-111.75
4022.361	-106.75
4024.85	-108.75
4027.338	-107.75
4029.823	-106.75
4032.307	-104.75
4034.789	-108.75
4037.269	-107.75
4039.747	-105.75
4042.224	-108.75
4044.699	-109.75
4047.172	-108.75
4049.643	-109.75
4052.112	-109.75
4054.58	-109.75
4057.046	-109.75
4059.51	-108.75
4061.972	-102.75
4064.432	-105.75
4066.891	-104.75
4069.348	-103.75
4071.803	-106.75
4074.256	-107.75
4076.708	-110.75
4079.158	-111.75
4081.606	-108.75
4084.052	-109.75
4086.497	-107.75
4088.939	-103.75
4091.38	-103.75
4093.819	-109.75
4096.257	-108.75
4098.693	-108.75
4101.127	-110.75
4103.559	-107.75
4105.989	-68.75
4108.418	-66.75
4110.845	-65.75
4113.27	-59.75
4115.694	-53.75
4118.115	-40.75
4120.535	-106.75
4122.954	-106.75
4125.37	-106.75
4127.785	-109.75
4130.198	-109.75
4132.609	-106.75
4135.019	-110.75
4137.427	-114.75
4139.833	-111.75
4142.237	-110.75
