Data from Bsub_water_DIL1_A_1_RamanShift_1.txt Node
Date: Wed Feb 22 13:07:46 IST 2017
User: aro
Spectrometer: QEPB0276
Trigger mode: 0
Integration Time (sec): 5.000000E0
Scans to average: 1
Electric dark correction enabled: true
Nonlinearity correction enabled: false
Boxcar width: 0
XAxis mode: Raman Shifts
Number of Pixels in Spectrum: 1044
>>>>>Begin Spectral Data<<<<<
160.701	-26.75
166.742	3.25
172.777	81.25
178.805	333.25
184.826	946.25
190.841	1955.25
196.849	3107.25
202.85	3886.25
208.845	4073.25
214.833	3983.25
220.815	3834.25
226.789	3713.25
232.758	3597.25
238.719	3494.25
244.674	3367.25
250.623	3226.25
256.565	3076.25
262.5	2951.25
268.429	2836.25
274.351	2682.25
280.267	2602.25
286.176	2507.25
292.079	2432.25
297.975	2354.25
303.865	2277.25
309.748	2215.25
315.625	2166.25
321.495	2136.25
327.359	2095.25
333.217	2077.25
339.068	2066.25
344.912	2052.25
350.751	2043.25
356.583	2036.25
362.408	2057.25
368.227	2054.25
374.04	2051.25
379.847	2070.25
385.647	2076.25
391.44	2099.25
397.228	2091.25
403.009	2094.25
408.784	2119.25
414.553	2126.25
420.315	2126.25
426.071	2141.25
431.821	2126.25
437.565	2140.25
443.302	2125.25
449.033	2124.25
454.758	2113.25
460.477	2081.25
466.189	2104.25
471.896	2082.25
477.596	2070.25
483.29	2065.25
488.978	2059.25
494.66	2034.25
500.335	2010.25
506.005	1993.25
511.668	1944.25
517.325	1909.25
522.977	1869.25
528.622	1842.25
534.261	1839.25
539.894	1807.25
545.521	1819.25
551.141	1793.25
556.756	1778.25
562.365	1786.25
567.968	1777.25
573.565	1739.25
579.155	1746.25
584.74	1748.25
590.319	1729.25
595.892	1713.25
601.459	1713.25
607.02	1699.25
612.575	1659.25
618.124	1658.25
623.667	1652.25
629.204	1612.25
634.735	1635.25
640.261	1598.25
645.781	1610.25
651.294	1603.25
656.802	1602.25
662.304	1575.25
667.8	1572.25
673.29	1563.25
678.775	1564.25
684.254	1536.25
689.726	1552.25
695.193	1529.25
700.655	1514.25
706.11	1528.25
711.56	1526.25
717.004	1501.25
722.442	1501.25
727.874	1483.25
733.301	1478.25
738.722	1461.25
744.137	1460.25
749.547	1471.25
754.951	1476.25
760.349	1442.25
765.741	1467.25
771.128	1450.25
776.509	1451.25
781.885	1442.25
787.254	1440.25
792.618	1436.25
797.977	1426.25
803.33	1425.25
808.677	1409.25
814.019	1389.25
819.355	1387.25
824.686	1376.25
830.011	1379.25
835.33	1357.25
840.644	1346.25
845.952	1344.25
851.255	1340.25
856.552	1329.25
861.844	1334.25
867.13	1319.25
872.41	1307.25
877.686	1303.25
882.955	1288.25
888.219	1271.25
893.478	1257.25
898.731	1226.25
903.979	1203.25
909.221	1207.25
914.458	1200.25
919.69	1173.25
924.916	1185.25
930.136	1173.25
935.351	1178.25
940.561	1170.25
945.766	1174.25
950.965	1163.25
956.158	1163.25
961.347	1152.25
966.529	1121.25
971.707	1111.25
976.879	1098.25
982.046	1085.25
987.208	1069.25
992.364	1072.25
997.515	1092.25
1002.66	1092.25
1007.801	1111.25
1012.936	1099.25
1018.066	1119.25
1023.19	1128.25
1028.309	1116.25
1033.423	1126.25
1038.532	1117.25
1043.636	1103.25
1048.734	1105.25
1053.827	1085.25
1058.915	1087.25
1063.998	1056.25
1069.075	1066.25
1074.147	1072.25
1079.214	1081.25
1084.276	1089.25
1089.333	1083.25
1094.385	1102.25
1099.431	1112.25
1104.472	1099.25
1109.509	1108.25
1114.54	1083.25
1119.565	1083.25
1124.586	1063.25
1129.602	1054.25
1134.613	1044.25
1139.618	1040.25
1144.619	1037.25
1149.614	1028.25
1154.604	1041.25
1159.589	1050.25
1164.57	1036.25
1169.545	1049.25
1174.515	1070.25
1179.48	1047.25
1184.44	1051.25
1189.395	1040.25
1194.345	1051.25
1199.29	1038.25
1204.23	1048.25
1209.165	1047.25
1214.095	1043.25
1219.021	1053.25
1223.941	1054.25
1228.856	1085.25
1233.766	1046.25
1238.672	1069.25
1243.572	1061.25
1248.467	1068.25
1253.358	1032.25
1258.244	1042.25
1263.124	1027.25
1268	998.25
1272.871	1010.25
1277.737	986.25
1282.599	986.25
1287.455	985.25
1292.306	993.25
1297.153	1005.25
1301.995	1019.25
1306.832	1005.25
1311.664	1022.25
1316.491	1025.25
1321.314	1001.25
1326.132	999.25
1330.945	977.25
1335.753	968.25
1340.556	948.25
1345.354	921.25
1350.148	916.25
1354.937	896.25
1359.722	910.25
1364.501	912.25
1369.276	935.25
1374.046	947.25
1378.811	978.25
1383.572	965.25
1388.327	960.25
1393.079	948.25
1397.825	936.25
1402.567	926.25
1407.304	899.25
1412.036	897.25
1416.764	903.25
1421.487	895.25
1426.205	878.25
1430.919	892.25
1435.628	900.25
1440.333	901.25
1445.032	910.25
1449.727	912.25
1454.418	917.25
1459.104	927.25
1463.785	907.25
1468.462	896.25
1473.134	891.25
1477.802	891.25
1482.465	861.25
1487.123	869.25
1491.777	871.25
1496.426	887.25
1501.071	904.25
1505.711	910.25
1510.347	934.25
1514.978	947.25
1519.604	951.25
1524.226	954.25
1528.844	962.25
1533.457	967.25
1538.065	962.25
1542.669	967.25
1547.269	976.25
1551.864	974.25
1556.454	962.25
1561.041	982.25
1565.622	977.25
1570.199	980.25
1574.772	1005.25
1579.34	1020.25
1583.904	1038.25
1588.464	1053.25
1593.019	1057.25
1597.569	1072.25
1602.115	1091.25
1606.657	1094.25
1611.195	1099.25
1615.728	1124.25
1620.256	1118.25
1624.78	1133.25
1629.3	1138.25
1633.816	1172.25
1638.327	1182.25
1642.834	1197.25
1647.336	1209.25
1651.834	1201.25
1656.328	1199.25
1660.817	1194.25
1665.302	1164.25
1669.783	1143.25
1674.259	1117.25
1678.732	1088.25
1683.199	1047.25
1687.663	1006.25
1692.122	957.25
1696.577	943.25
1701.028	922.25
1705.474	914.25
1709.917	904.25
1714.355	884.25
1718.788	855.25
1723.218	830.25
1727.643	798.25
1732.064	784.25
1736.481	779.25
1740.893	743.25
1745.301	720.25
1749.705	710.25
1754.105	687.25
1758.501	654.25
1762.893	654.25
1767.28	625.25
1771.663	618.25
1776.042	631.25
1780.417	611.25
1784.787	628.25
1789.154	625.25
1793.516	625.25
1797.874	642.25
1802.228	640.25
1806.578	644.25
1810.924	643.25
1815.266	630.25
1819.603	622.25
1823.937	622.25
1828.266	600.25
1832.591	591.25
1836.913	576.25
1841.23	578.25
1845.543	582.25
1849.852	572.25
1854.156	578.25
1858.457	555.25
1862.754	566.25
1867.047	566.25
1871.335	568.25
1875.62	564.25
1879.9	574.25
1884.177	560.25
1888.449	567.25
1892.718	564.25
1896.982	562.25
1901.243	563.25
1905.499	551.25
1909.752	561.25
1914	562.25
1918.245	560.25
1922.485	574.25
1926.722	568.25
1930.954	579.25
1935.183	581.25
1939.408	585.25
1943.628	574.25
1947.845	593.25
1952.058	591.25
1956.267	593.25
1960.472	586.25
1964.673	586.25
1968.87	569.25
1973.063	567.25
1977.252	568.25
1981.438	563.25
1985.619	555.25
1989.797	545.25
1993.971	554.25
1998.14	545.25
2002.306	554.25
2006.469	545.25
2010.627	550.25
2014.781	547.25
2018.932	561.25
2023.078	544.25
2027.221	553.25
2031.36	550.25
2035.495	534.25
2039.627	540.25
2043.754	536.25
2047.878	534.25
2051.998	523.25
2056.114	529.25
2060.226	524.25
2064.334	531.25
2068.439	536.25
2072.54	543.25
2076.637	553.25
2080.73	550.25
2084.82	549.25
2088.906	548.25
2092.988	557.25
2097.066	562.25
2101.14	546.25
2105.211	556.25
2109.278	551.25
2113.342	551.25
2117.401	561.25
2121.457	541.25
2125.509	542.25
2129.558	548.25
2133.602	529.25
2137.643	528.25
2141.681	534.25
2145.714	531.25
2149.744	522.25
2153.77	533.25
2157.793	524.25
2161.812	508.25
2165.827	506.25
2169.838	499.25
2173.846	485.25
2177.851	475.25
2181.851	469.25
2185.848	464.25
2189.841	456.25
2193.831	453.25
2197.817	445.25
2201.799	458.25
2205.778	448.25
2209.753	430.25
2213.725	442.25
2217.693	438.25
2221.657	441.25
2225.618	446.25
2229.575	436.25
2233.529	434.25
2237.479	432.25
2241.425	426.25
2245.368	421.25
2249.307	412.25
2253.243	403.25
2257.175	406.25
2261.104	400.25
2265.029	393.25
2268.95	394.25
2272.868	379.25
2276.783	375.25
2280.694	381.25
2284.601	361.25
2288.505	367.25
2292.405	360.25
2296.302	362.25
2300.195	341.25
2304.085	348.25
2307.971	335.25
2311.854	340.25
2315.734	322.25
2319.609	317.25
2323.482	322.25
2327.351	308.25
2331.216	310.25
2335.078	313.25
2338.937	304.25
2342.792	309.25
2346.643	302.25
2350.492	294.25
2354.336	303.25
2358.178	301.25
2362.015	289.25
2365.85	298.25
2369.681	304.25
2373.508	295.25
2377.333	293.25
2381.153	293.25
2384.971	297.25
2388.785	291.25
2392.595	282.25
2396.402	290.25
2400.206	275.25
2404.007	284.25
2407.804	283.25
2411.597	273.25
2415.388	284.25
2419.174	286.25
2422.958	269.25
2426.738	270.25
2430.515	264.25
2434.289	260.25
2438.059	262.25
2441.825	261.25
2445.589	262.25
2449.349	253.25
2453.106	258.25
2456.859	257.25
2460.61	253.25
2464.356	249.25
2468.1	250.25
2471.84	248.25
2475.577	240.25
2479.311	245.25
2483.041	248.25
2486.768	238.25
2490.492	247.25
2494.213	250.25
2497.93	242.25
2501.644	247.25
2505.355	237.25
2509.062	247.25
2512.766	243.25
2516.467	244.25
2520.165	238.25
2523.859	236.25
2527.551	233.25
2531.239	236.25
2534.923	226.25
2538.605	232.25
2542.283	228.25
2545.958	229.25
2549.63	212.25
2553.299	224.25
2556.964	220.25
2560.626	220.25
2564.285	222.25
2567.941	221.25
2571.594	218.25
2575.243	215.25
2578.89	219.25
2582.533	211.25
2586.173	218.25
2589.809	213.25
2593.443	204.25
2597.073	199.25
2600.701	202.25
2604.325	198.25
2607.946	196.25
2611.564	191.25
2615.178	204.25
2618.79	199.25
2622.398	205.25
2626.004	200.25
2629.606	193.25
2633.205	203.25
2636.801	195.25
2640.394	191.25
2643.983	193.25
2647.57	179.25
2651.153	183.25
2654.734	180.25
2658.311	176.25
2661.885	172.25
2665.456	173.25
2669.025	170.25
2672.589	168.25
2676.151	174.25
2679.71	164.25
2683.266	173.25
2686.819	162.25
2690.368	166.25
2693.915	160.25
2697.458	163.25
2700.999	160.25
2704.536	146.25
2708.071	154.25
2711.602	146.25
2715.13	144.25
2718.656	145.25
2722.178	148.25
2725.697	148.25
2729.214	146.25
2732.727	152.25
2736.237	147.25
2739.744	154.25
2743.249	151.25
2746.75	157.25
2750.248	156.25
2753.743	153.25
2757.236	159.25
2760.725	158.25
2764.211	153.25
2767.695	151.25
2771.175	154.25
2774.652	156.25
2778.127	160.25
2781.598	160.25
2785.067	151.25
2788.532	158.25
2791.995	161.25
2795.455	153.25
2798.911	152.25
2802.365	157.25
2805.816	158.25
2809.264	164.25
2812.709	162.25
2816.151	165.25
2819.59	157.25
2823.026	153.25
2826.46	162.25
2829.89	150.25
2833.318	163.25
2836.742	155.25
2840.164	162.25
2843.583	167.25
2846.999	174.25
2850.412	178.25
2853.822	179.25
2857.229	177.25
2860.634	176.25
2864.035	178.25
2867.434	175.25
2870.83	180.25
2874.223	178.25
2877.613	187.25
2881	189.25
2884.385	192.25
2887.766	199.25
2891.145	198.25
2894.521	192.25
2897.894	201.25
2901.264	187.25
2904.631	201.25
2907.996	200.25
2911.358	199.25
2914.717	211.25
2918.073	209.25
2921.426	215.25
2924.777	215.25
2928.124	209.25
2931.469	226.25
2934.811	225.25
2938.15	236.25
2941.487	230.25
2944.821	242.25
2948.152	247.25
2951.48	249.25
2954.805	260.25
2958.128	263.25
2961.447	263.25
2964.765	275.25
2968.079	269.25
2971.39	278.25
2974.699	292.25
2978.005	294.25
2981.308	304.25
2984.609	308.25
2987.907	329.25
2991.202	338.25
2994.494	350.25
2997.784	360.25
3001.07	365.25
3004.355	383.25
3007.636	385.25
3010.915	388.25
3014.191	407.25
3017.464	410.25
3020.734	427.25
3024.002	434.25
3027.267	447.25
3030.53	441.25
3033.789	441.25
3037.046	453.25
3040.301	470.25
3043.552	469.25
3046.801	489.25
3050.048	496.25
3053.291	517.25
3056.532	525.25
3059.771	545.25
3063.006	574.25
3066.239	573.25
3069.469	611.25
3072.697	620.25
3075.922	636.25
3079.144	652.25
3082.364	659.25
3085.581	682.25
3088.795	698.25
3092.007	721.25
3095.216	731.25
3098.423	747.25
3101.627	774.25
3104.828	781.25
3108.026	807.25
3111.222	828.25
3114.416	842.25
3117.607	864.25
3120.795	889.25
3123.98	902.25
3127.163	911.25
3130.344	956.25
3133.521	956.25
3136.696	998.25
3139.869	1004.25
3143.039	1022.25
3146.206	1039.25
3149.371	1043.25
3152.533	1069.25
3155.693	1063.25
3158.85	1079.25
3162.005	1095.25
3165.157	1089.25
3168.306	1092.25
3171.453	1093.25
3174.597	1101.25
3177.739	1104.25
3180.878	1112.25
3184.014	1108.25
3187.149	1100.25
3190.28	1128.25
3193.409	1122.25
3196.536	1099.25
3199.659	1128.25
3202.781	1119.25
3205.9	1134.25
3209.016	1142.25
3212.13	1122.25
3215.241	1126.25
3218.35	1134.25
3221.456	1109.25
3224.56	1108.25
3227.661	1084.25
3230.76	1076.25
3233.856	1081.25
3236.95	1051.25
3240.041	1055.25
3243.13	1052.25
3246.216	1050.25
3249.3	1046.25
3252.382	1045.25
3255.46	1043.25
3258.537	1031.25
3261.611	1043.25
3264.682	1022.25
3267.751	1025.25
3270.818	1020.25
3273.882	1020.25
3276.943	1008.25
3280.002	1003.25
3283.059	997.25
3286.113	979.25
3289.165	964.25
3292.214	955.25
3295.261	930.25
3298.306	909.25
3301.348	893.25
3304.387	877.25
3307.425	872.25
3310.459	851.25
3313.492	852.25
3316.521	847.25
3319.549	831.25
3322.574	824.25
3325.597	824.25
3328.617	808.25
3331.635	800.25
3334.65	796.25
3337.663	795.25
3340.674	789.25
3343.682	799.25
3346.688	781.25
3349.691	770.25
3352.692	770.25
3355.691	762.25
3358.687	761.25
3361.681	764.25
3364.673	747.25
3367.662	743.25
3370.649	732.25
3373.633	722.25
3376.615	715.25
3379.595	709.25
3382.572	700.25
3385.547	686.25
3388.52	676.25
3391.49	656.25
3394.458	660.25
3397.424	637.25
3400.387	633.25
3403.348	637.25
3406.307	623.25
3409.263	614.25
3412.217	599.25
3415.168	614.25
3418.118	590.25
3421.065	598.25
3424.009	588.25
3426.951	574.25
3429.891	564.25
3432.829	564.25
3435.764	545.25
3438.697	539.25
3441.628	522.25
3444.557	509.25
3447.483	491.25
3450.407	489.25
3453.328	470.25
3456.247	465.25
3459.164	459.25
3462.079	438.25
3464.991	429.25
3467.902	414.25
3470.809	409.25
3473.715	390.25
3476.618	384.25
3479.519	362.25
3482.418	356.25
3485.315	350.25
3488.209	337.25
3491.101	338.25
3493.99	321.25
3496.878	318.25
3499.763	302.25
3502.646	294.25
3505.527	274.25
3508.405	275.25
3511.281	262.25
3514.155	258.25
3517.027	244.25
3519.897	236.25
3522.764	221.25
3525.629	209.25
3528.492	205.25
3531.352	187.25
3534.211	181.25
3537.067	166.25
3539.921	157.25
3542.773	146.25
3545.622	138.25
3548.469	138.25
3551.315	128.25
3554.157	113.25
3556.998	111.25
3559.837	109.25
3562.673	96.25
3565.507	96.25
3568.339	87.25
3571.169	86.25
3573.996	81.25
3576.822	66.25
3579.645	64.25
3582.466	59.25
3585.285	54.25
3588.101	47.25
3590.916	45.25
3593.728	39.25
3596.538	39.25
3599.346	30.25
3602.152	29.25
3604.956	23.25
3607.757	21.25
3610.556	16.25
3613.354	9.25
3616.149	7.25
3618.942	6.25
3621.732	-2.75
3624.521	-5.75
3627.307	-7.75
3630.092	-4.75
3632.874	-12.75
3635.654	-17.75
3638.432	-20.75
3641.208	-19.75
3643.982	-23.75
3646.753	-21.75
3649.523	-25.75
3652.29	-28.75
3655.055	-32.75
3657.818	-38.75
3660.579	-38.75
3663.338	-40.75
3666.095	-41.75
3668.849	-47.75
3671.602	-43.75
3674.352	-50.75
3677.101	-52.75
3679.847	-51.75
3682.591	-53.75
3685.333	-59.75
3688.073	-56.75
3690.811	-61.75
3693.547	-62.75
3696.281	-66.75
3699.013	-63.75
3701.742	-64.75
3704.47	-61.75
3707.195	-69.75
3709.919	-68.75
3712.64	-73.75
3715.359	-68.75
3718.076	-73.75
3720.792	-72.75
3723.505	-72.75
3726.216	-69.75
3728.925	-70.75
3731.632	-76.75
3734.336	-76.75
3737.039	-74.75
3739.74	-76.75
3742.439	-77.75
3745.136	-81.75
3747.83	-79.75
3750.523	-85.75
3753.213	-83.75
3755.902	-89.75
3758.589	-84.75
3761.273	-84.75
3763.956	-83.75
3766.636	-80.75
3769.315	-81.75
3771.991	-84.75
3774.665	-86.75
3777.338	-85.75
3780.008	-89.75
3782.677	-85.75
3785.343	-88.75
3788.007	-86.75
3790.67	-89.75
3793.33	-90.75
3795.989	-84.75
3798.645	-88.75
3801.299	-91.75
3803.952	-89.75
3806.602	-88.75
3809.251	-88.75
3811.897	-89.75
3814.542	-91.75
3817.184	-88.75
3819.825	-86.75
3822.463	-87.75
3825.1	-89.75
3827.735	-92.75
3830.367	-93.75
3832.998	-95.75
3835.627	-93.75
3838.253	-92.75
3840.878	-94.75
3843.501	-92.75
3846.122	-91.75
3848.741	-90.75
3851.358	-88.75
3853.973	-90.75
3856.586	-89.75
3859.197	-91.75
3861.806	-94.75
3864.414	-97.75
3867.019	-96.75
3869.622	-95.75
3872.224	-95.75
3874.823	-92.75
3877.421	-84.75
3880.016	-87.75
3882.61	-83.75
3885.202	-85.75
3887.792	-87.75
3890.38	-88.75
3892.966	-93.75
3895.55	-89.75
3898.132	-92.75
3900.713	-93.75
3903.291	-92.75
3905.868	-93.75
3908.442	-94.75
3911.015	-97.75
3913.586	-98.75
3916.155	-98.75
3918.722	-97.75
3921.287	-94.75
3923.85	-94.75
3926.411	-92.75
3928.971	-94.75
3931.528	-91.75
3934.084	-97.75
3936.638	-91.75
3939.19	-94.75
3941.74	-98.75
3944.288	-102.75
3946.834	-94.75
3949.378	-100.75
3951.921	-97.75
3954.462	-95.75
3957	-94.75
3959.537	-87.75
3962.072	-97.75
3964.606	-95.75
3967.137	-91.75
3969.667	-94.75
3972.194	-95.75
3974.72	-92.75
3977.244	-94.75
3979.766	-97.75
3982.286	-96.75
3984.805	-96.75
3987.321	-96.75
3989.836	-97.75
3992.349	-94.75
3994.86	-96.75
3997.369	-93.75
3999.877	-95.75
4002.382	-95.75
4004.886	-94.75
4007.388	-92.75
4009.888	-98.75
4012.386	-91.75
4014.883	-91.75
4017.377	-92.75
4019.87	-101.75
4022.361	-95.75
4024.85	-96.75
4027.338	-95.75
4029.823	-97.75
4032.307	-92.75
4034.789	-96.75
4037.269	-93.75
4039.747	-90.75
4042.224	-93.75
4044.699	-96.75
4047.172	-91.75
4049.643	-98.75
4052.112	-98.75
4054.58	-98.75
4057.046	-98.75
4059.51	-98.75
4061.972	-93.75
4064.432	-95.75
4066.891	-92.75
4069.348	-92.75
4071.803	-96.75
4074.256	-97.75
4076.708	-92.75
4079.158	-96.75
4081.606	-95.75
4084.052	-98.75
4086.497	-96.75
4088.939	-93.75
4091.38	-90.75
4093.819	-99.75
4096.257	-98.75
4098.693	-99.75
4101.127	-95.75
4103.559	-95.75
4105.989	-59.75
4108.418	-54.75
4110.845	-56.75
4113.27	-50.75
4115.694	-40.75
4118.115	-35.75
4120.535	-98.75
4122.954	-97.75
4125.37	-97.75
4127.785	-96.75
4130.198	-101.75
4132.609	-94.75
4135.019	-95.75
4137.427	-101.75
4139.833	-96.75
4142.237	-96.75
