Data from Bsub_water_DIL108_B_3_RamanShift_1.txt Node
Date: Wed Feb 22 13:15:26 IST 2017
User: aro
Spectrometer: QEPB0276
Trigger mode: 0
Integration Time (sec): 5.000000E0
Scans to average: 1
Electric dark correction enabled: true
Nonlinearity correction enabled: false
Boxcar width: 0
XAxis mode: Raman Shifts
Number of Pixels in Spectrum: 1044
>>>>>Begin Spectral Data<<<<<
160.701	-27.88
166.742	5.12
172.777	101.12
178.805	378.12
184.826	1081.12
190.841	2237.12
196.849	3586.12
202.85	4475.12
208.845	4705.12
214.833	4524.12
220.815	4360.12
226.789	4251.12
232.758	4116.12
238.719	4008.12
244.674	3820.12
250.623	3662.12
256.565	3470.12
262.5	3311.12
268.429	3181.12
274.351	3060.12
280.267	2929.12
286.176	2806.12
292.079	2703.12
297.975	2624.12
303.865	2563.12
309.748	2456.12
315.625	2421.12
321.495	2367.12
327.359	2329.12
333.217	2300.12
339.068	2265.12
344.912	2249.12
350.751	2248.12
356.583	2254.12
362.408	2243.12
368.227	2256.12
374.04	2252.12
379.847	2249.12
385.647	2257.12
391.44	2274.12
397.228	2314.12
403.009	2317.12
408.784	2308.12
414.553	2329.12
420.315	2333.12
426.071	2367.12
431.821	2348.12
437.565	2348.12
443.302	2326.12
449.033	2337.12
454.758	2305.12
460.477	2300.12
466.189	2304.12
471.896	2283.12
477.596	2283.12
483.29	2263.12
488.978	2253.12
494.66	2241.12
500.335	2218.12
506.005	2176.12
511.668	2141.12
517.325	2098.12
522.977	2070.12
528.622	2055.12
534.261	2029.12
539.894	2008.12
545.521	1992.12
551.141	1962.12
556.756	1959.12
562.365	1940.12
567.968	1943.12
573.565	1910.12
579.155	1902.12
584.74	1888.12
590.319	1888.12
595.892	1868.12
601.459	1857.12
607.02	1839.12
612.575	1828.12
618.124	1819.12
623.667	1773.12
629.204	1777.12
634.735	1746.12
640.261	1754.12
645.781	1739.12
651.294	1730.12
656.802	1721.12
662.304	1712.12
667.8	1707.12
673.29	1708.12
678.775	1683.12
684.254	1676.12
689.726	1695.12
695.193	1657.12
700.655	1674.12
706.11	1646.12
711.56	1640.12
717.004	1623.12
722.442	1613.12
727.874	1604.12
733.301	1589.12
738.722	1585.12
744.137	1558.12
749.547	1581.12
754.951	1567.12
760.349	1558.12
765.741	1553.12
771.128	1578.12
776.509	1562.12
781.885	1571.12
787.254	1563.12
792.618	1548.12
797.977	1557.12
803.33	1510.12
808.677	1511.12
814.019	1502.12
819.355	1489.12
824.686	1469.12
830.011	1462.12
835.33	1451.12
840.644	1422.12
845.952	1445.12
851.255	1425.12
856.552	1436.12
861.844	1411.12
867.13	1406.12
872.41	1400.12
877.686	1396.12
882.955	1365.12
888.219	1359.12
893.478	1332.12
898.731	1304.12
903.979	1282.12
909.221	1263.12
914.458	1262.12
919.69	1228.12
924.916	1253.12
930.136	1245.12
935.351	1237.12
940.561	1249.12
945.766	1229.12
950.965	1222.12
956.158	1221.12
961.347	1200.12
966.529	1181.12
971.707	1170.12
976.879	1141.12
982.046	1143.12
987.208	1132.12
992.364	1132.12
997.515	1136.12
1002.66	1128.12
1007.801	1154.12
1012.936	1164.12
1018.066	1167.12
1023.19	1172.12
1028.309	1179.12
1033.423	1172.12
1038.532	1153.12
1043.636	1171.12
1048.734	1143.12
1053.827	1129.12
1058.915	1117.12
1063.998	1118.12
1069.075	1094.12
1074.147	1126.12
1079.214	1115.12
1084.276	1109.12
1089.333	1145.12
1094.385	1146.12
1099.431	1146.12
1104.472	1161.12
1109.509	1141.12
1114.54	1125.12
1119.565	1103.12
1124.586	1102.12
1129.602	1097.12
1134.613	1077.12
1139.618	1075.12
1144.619	1086.12
1149.614	1088.12
1154.604	1087.12
1159.589	1081.12
1164.57	1088.12
1169.545	1104.12
1174.515	1100.12
1179.48	1083.12
1184.44	1087.12
1189.395	1074.12
1194.345	1067.12
1199.29	1074.12
1204.23	1079.12
1209.165	1073.12
1214.095	1091.12
1219.021	1100.12
1223.941	1106.12
1228.856	1108.12
1233.766	1112.12
1238.672	1106.12
1243.572	1104.12
1248.467	1107.12
1253.358	1076.12
1258.244	1069.12
1263.124	1061.12
1268	1055.12
1272.871	1024.12
1277.737	1022.12
1282.599	1027.12
1287.455	1027.12
1292.306	1028.12
1297.153	1034.12
1301.995	1037.12
1306.832	1048.12
1311.664	1046.12
1316.491	1047.12
1321.314	1046.12
1326.132	1026.12
1330.945	996.12
1335.753	985.12
1340.556	969.12
1345.354	954.12
1350.148	925.12
1354.937	935.12
1359.722	942.12
1364.501	950.12
1369.276	963.12
1374.046	980.12
1378.811	991.12
1383.572	1009.12
1388.327	995.12
1393.079	989.12
1397.825	965.12
1402.567	949.12
1407.304	942.12
1412.036	915.12
1416.764	927.12
1421.487	910.12
1426.205	898.12
1430.919	910.12
1435.628	926.12
1440.333	925.12
1445.032	928.12
1449.727	938.12
1454.418	945.12
1459.104	925.12
1463.785	929.12
1468.462	928.12
1473.134	921.12
1477.802	908.12
1482.465	908.12
1487.123	892.12
1491.777	899.12
1496.426	923.12
1501.071	922.12
1505.711	941.12
1510.347	970.12
1514.978	999.12
1519.604	985.12
1524.226	994.12
1528.844	1017.12
1533.457	1009.12
1538.065	1006.12
1542.669	995.12
1547.269	1006.12
1551.864	1011.12
1556.454	1015.12
1561.041	1024.12
1565.622	1028.12
1570.199	1036.12
1574.772	1049.12
1579.34	1085.12
1583.904	1089.12
1588.464	1106.12
1593.019	1118.12
1597.569	1141.12
1602.115	1147.12
1606.657	1153.12
1611.195	1157.12
1615.728	1173.12
1620.256	1193.12
1624.78	1224.12
1629.3	1229.12
1633.816	1256.12
1638.327	1259.12
1642.834	1279.12
1647.336	1295.12
1651.834	1289.12
1656.328	1288.12
1660.817	1282.12
1665.302	1262.12
1669.783	1236.12
1674.259	1203.12
1678.732	1165.12
1683.199	1116.12
1687.663	1072.12
1692.122	1025.12
1696.577	978.12
1701.028	969.12
1705.474	961.12
1709.917	950.12
1714.355	925.12
1718.788	903.12
1723.218	868.12
1727.643	841.12
1732.064	808.12
1736.481	795.12
1740.893	765.12
1745.301	742.12
1749.705	707.12
1754.105	690.12
1758.501	677.12
1762.893	656.12
1767.28	635.12
1771.663	623.12
1776.042	620.12
1780.417	626.12
1784.787	629.12
1789.154	637.12
1793.516	642.12
1797.874	656.12
1802.228	661.12
1806.578	644.12
1810.924	650.12
1815.266	630.12
1819.603	617.12
1823.937	610.12
1828.266	597.12
1832.591	596.12
1836.913	586.12
1841.23	573.12
1845.543	561.12
1849.852	558.12
1854.156	568.12
1858.457	567.12
1862.754	570.12
1867.047	576.12
1871.335	565.12
1875.62	567.12
1879.9	573.12
1884.177	576.12
1888.449	565.12
1892.718	564.12
1896.982	565.12
1901.243	564.12
1905.499	557.12
1909.752	557.12
1914	570.12
1918.245	570.12
1922.485	573.12
1926.722	575.12
1930.954	586.12
1935.183	583.12
1939.408	594.12
1943.628	593.12
1947.845	585.12
1952.058	593.12
1956.267	594.12
1960.472	578.12
1964.673	585.12
1968.87	572.12
1973.063	571.12
1977.252	577.12
1981.438	561.12
1985.619	562.12
1989.797	564.12
1993.971	549.12
1998.14	564.12
2002.306	559.12
2006.469	555.12
2010.627	565.12
2014.781	557.12
2018.932	560.12
2023.078	561.12
2027.221	561.12
2031.36	551.12
2035.495	553.12
2039.627	545.12
2043.754	543.12
2047.878	551.12
2051.998	544.12
2056.114	553.12
2060.226	551.12
2064.334	553.12
2068.439	558.12
2072.54	553.12
2076.637	558.12
2080.73	551.12
2084.82	563.12
2088.906	577.12
2092.988	567.12
2097.066	572.12
2101.14	564.12
2105.211	562.12
2109.278	558.12
2113.342	557.12
2117.401	554.12
2121.457	546.12
2125.509	541.12
2129.558	548.12
2133.602	551.12
2137.643	546.12
2141.681	544.12
2145.714	545.12
2149.744	537.12
2153.77	520.12
2157.793	529.12
2161.812	516.12
2165.827	515.12
2169.838	506.12
2173.846	495.12
2177.851	486.12
2181.851	469.12
2185.848	475.12
2189.841	453.12
2193.831	464.12
2197.817	456.12
2201.799	452.12
2205.778	453.12
2209.753	440.12
2213.725	441.12
2217.693	451.12
2221.657	447.12
2225.618	444.12
2229.575	438.12
2233.529	433.12
2237.479	432.12
2241.425	428.12
2245.368	414.12
2249.307	417.12
2253.243	409.12
2257.175	405.12
2261.104	404.12
2265.029	394.12
2268.95	398.12
2272.868	374.12
2276.783	370.12
2280.694	371.12
2284.601	364.12
2288.505	367.12
2292.405	358.12
2296.302	351.12
2300.195	342.12
2304.085	352.12
2307.971	339.12
2311.854	324.12
2315.734	315.12
2319.609	324.12
2323.482	299.12
2327.351	306.12
2331.216	310.12
2335.078	301.12
2338.937	298.12
2342.792	293.12
2346.643	292.12
2350.492	294.12
2354.336	291.12
2358.178	288.12
2362.015	280.12
2365.85	297.12
2369.681	287.12
2373.508	287.12
2377.333	288.12
2381.153	283.12
2384.971	282.12
2388.785	283.12
2392.595	284.12
2396.402	277.12
2400.206	277.12
2404.007	268.12
2407.804	260.12
2411.597	262.12
2415.388	264.12
2419.174	267.12
2422.958	257.12
2426.738	253.12
2430.515	264.12
2434.289	253.12
2438.059	253.12
2441.825	255.12
2445.589	248.12
2449.349	249.12
2453.106	252.12
2456.859	247.12
2460.61	234.12
2464.356	238.12
2468.1	240.12
2471.84	233.12
2475.577	227.12
2479.311	232.12
2483.041	226.12
2486.768	227.12
2490.492	229.12
2494.213	226.12
2497.93	231.12
2501.644	231.12
2505.355	231.12
2509.062	231.12
2512.766	228.12
2516.467	226.12
2520.165	224.12
2523.859	223.12
2527.551	215.12
2531.239	217.12
2534.923	206.12
2538.605	219.12
2542.283	212.12
2545.958	208.12
2549.63	206.12
2553.299	200.12
2556.964	214.12
2560.626	208.12
2564.285	206.12
2567.941	214.12
2571.594	210.12
2575.243	199.12
2578.89	208.12
2582.533	204.12
2586.173	200.12
2589.809	201.12
2593.443	197.12
2597.073	195.12
2600.701	185.12
2604.325	190.12
2607.946	185.12
2611.564	187.12
2615.178	189.12
2618.79	190.12
2622.398	193.12
2626.004	183.12
2629.606	180.12
2633.205	180.12
2636.801	187.12
2640.394	178.12
2643.983	181.12
2647.57	168.12
2651.153	172.12
2654.734	176.12
2658.311	167.12
2661.885	163.12
2665.456	159.12
2669.025	159.12
2672.589	156.12
2676.151	162.12
2679.71	158.12
2683.266	147.12
2686.819	150.12
2690.368	160.12
2693.915	154.12
2697.458	151.12
2700.999	138.12
2704.536	148.12
2708.071	139.12
2711.602	132.12
2715.13	133.12
2718.656	131.12
2722.178	132.12
2725.697	133.12
2729.214	124.12
2732.727	138.12
2736.237	141.12
2739.744	144.12
2743.249	143.12
2746.75	153.12
2750.248	141.12
2753.743	143.12
2757.236	142.12
2760.725	151.12
2764.211	155.12
2767.695	146.12
2771.175	151.12
2774.652	149.12
2778.127	144.12
2781.598	141.12
2785.067	137.12
2788.532	145.12
2791.995	141.12
2795.455	148.12
2798.911	148.12
2802.365	143.12
2805.816	155.12
2809.264	151.12
2812.709	158.12
2816.151	152.12
2819.59	152.12
2823.026	158.12
2826.46	155.12
2829.89	153.12
2833.318	159.12
2836.742	155.12
2840.164	156.12
2843.583	162.12
2846.999	167.12
2850.412	162.12
2853.822	170.12
2857.229	174.12
2860.634	173.12
2864.035	173.12
2867.434	177.12
2870.83	180.12
2874.223	184.12
2877.613	182.12
2881	192.12
2884.385	200.12
2887.766	198.12
2891.145	195.12
2894.521	199.12
2897.894	196.12
2901.264	190.12
2904.631	205.12
2907.996	197.12
2911.358	213.12
2914.717	209.12
2918.073	217.12
2921.426	223.12
2924.777	224.12
2928.124	225.12
2931.469	236.12
2934.811	235.12
2938.15	240.12
2941.487	234.12
2944.821	255.12
2948.152	255.12
2951.48	272.12
2954.805	275.12
2958.128	272.12
2961.447	282.12
2964.765	292.12
2968.079	289.12
2971.39	304.12
2974.699	324.12
2978.005	323.12
2981.308	323.12
2984.609	346.12
2987.907	350.12
2991.202	365.12
2994.494	375.12
2997.784	390.12
3001.07	408.12
3004.355	418.12
3007.636	420.12
3010.915	448.12
3014.191	443.12
3017.464	458.12
3020.734	460.12
3024.002	478.12
3027.267	482.12
3030.53	498.12
3033.789	500.12
3037.046	510.12
3040.301	514.12
3043.552	538.12
3046.801	538.12
3050.048	558.12
3053.291	581.12
3056.532	604.12
3059.771	630.12
3063.006	650.12
3066.239	658.12
3069.469	690.12
3072.697	697.12
3075.922	725.12
3079.144	741.12
3082.364	758.12
3085.581	769.12
3088.795	801.12
3092.007	820.12
3095.216	836.12
3098.423	851.12
3101.627	880.12
3104.828	892.12
3108.026	913.12
3111.222	942.12
3114.416	956.12
3117.607	990.12
3120.795	1016.12
3123.98	1042.12
3127.163	1056.12
3130.344	1082.12
3133.521	1098.12
3136.696	1127.12
3139.869	1153.12
3143.039	1182.12
3146.206	1186.12
3149.371	1195.12
3152.533	1218.12
3155.693	1235.12
3158.85	1237.12
3162.005	1250.12
3165.157	1264.12
3168.306	1257.12
3171.453	1265.12
3174.597	1287.12
3177.739	1272.12
3180.878	1257.12
3184.014	1285.12
3187.149	1282.12
3190.28	1280.12
3193.409	1284.12
3196.536	1280.12
3199.659	1300.12
3202.781	1309.12
3205.9	1285.12
3209.016	1300.12
3212.13	1305.12
3215.241	1300.12
3218.35	1287.12
3221.456	1283.12
3224.56	1271.12
3227.661	1250.12
3230.76	1250.12
3233.856	1228.12
3236.95	1217.12
3240.041	1233.12
3243.13	1202.12
3246.216	1212.12
3249.3	1214.12
3252.382	1206.12
3255.46	1205.12
3258.537	1182.12
3261.611	1196.12
3264.682	1176.12
3267.751	1178.12
3270.818	1170.12
3273.882	1177.12
3276.943	1157.12
3280.002	1154.12
3283.059	1145.12
3286.113	1131.12
3289.165	1113.12
3292.214	1097.12
3295.261	1081.12
3298.306	1058.12
3301.348	1036.12
3304.387	1018.12
3307.425	1005.12
3310.459	997.12
3313.492	995.12
3316.521	972.12
3319.549	960.12
3322.574	954.12
3325.597	957.12
3328.617	938.12
3331.635	927.12
3334.65	919.12
3337.663	921.12
3340.674	898.12
3343.682	903.12
3346.688	898.12
3349.691	892.12
3352.692	889.12
3355.691	889.12
3358.687	885.12
3361.681	873.12
3364.673	847.12
3367.662	838.12
3370.649	833.12
3373.633	823.12
3376.615	822.12
3379.595	811.12
3382.572	795.12
3385.547	769.12
3388.52	763.12
3391.49	761.12
3394.458	748.12
3397.424	741.12
3400.387	740.12
3403.348	718.12
3406.307	716.12
3409.263	718.12
3412.217	698.12
3415.168	695.12
3418.118	696.12
3421.065	685.12
3424.009	672.12
3426.951	664.12
3429.891	656.12
3432.829	641.12
3435.764	643.12
3438.697	620.12
3441.628	602.12
3444.557	596.12
3447.483	584.12
3450.407	548.12
3453.328	555.12
3456.247	526.12
3459.164	511.12
3462.079	509.12
3464.991	482.12
3467.902	474.12
3470.809	451.12
3473.715	446.12
3476.618	434.12
3479.519	419.12
3482.418	403.12
3485.315	403.12
3488.209	394.12
3491.101	381.12
3493.99	361.12
3496.878	366.12
3499.763	344.12
3502.646	339.12
3505.527	324.12
3508.405	313.12
3511.281	299.12
3514.155	290.12
3517.027	268.12
3519.897	272.12
3522.764	251.12
3525.629	241.12
3528.492	232.12
3531.352	215.12
3534.211	210.12
3537.067	188.12
3539.921	186.12
3542.773	175.12
3545.622	166.12
3548.469	156.12
3551.315	147.12
3554.157	131.12
3556.998	132.12
3559.837	118.12
3562.673	108.12
3565.507	103.12
3568.339	97.12
3571.169	96.12
3573.996	80.12
3576.822	77.12
3579.645	71.12
3582.466	71.12
3585.285	62.12
3588.101	59.12
3590.916	53.12
3593.728	47.12
3596.538	43.12
3599.346	39.12
3602.152	26.12
3604.956	27.12
3607.757	12.12
3610.556	15.12
3613.354	9.12
3616.149	9.12
3618.942	1.12
3621.732	-0.88
3624.521	-8.88
3627.307	-1.88
3630.092	-14.88
3632.874	-11.88
3635.654	-19.88
3638.432	-22.88
3641.208	-24.88
3643.982	-28.88
3646.753	-26.88
3649.523	-29.88
3652.29	-35.88
3655.055	-41.88
3657.818	-45.88
3660.579	-43.88
3663.338	-54.88
3666.095	-52.88
3668.849	-56.88
3671.602	-52.88
3674.352	-60.88
3677.101	-65.88
3679.847	-68.88
3682.591	-66.88
3685.333	-71.88
3688.073	-71.88
3690.811	-68.88
3693.547	-72.88
3696.281	-74.88
3699.013	-75.88
3701.742	-77.88
3704.47	-75.88
3707.195	-79.88
3709.919	-85.88
3712.64	-84.88
3715.359	-85.88
3718.076	-88.88
3720.792	-85.88
3723.505	-85.88
3726.216	-84.88
3728.925	-86.88
3731.632	-87.88
3734.336	-89.88
3737.039	-88.88
3739.74	-92.88
3742.439	-92.88
3745.136	-96.88
3747.83	-96.88
3750.523	-96.88
3753.213	-94.88
3755.902	-100.88
3758.589	-96.88
3761.273	-99.88
3763.956	-96.88
3766.636	-101.88
3769.315	-94.88
3771.991	-98.88
3774.665	-102.88
3777.338	-102.88
3780.008	-99.88
3782.677	-102.88
3785.343	-103.88
3788.007	-100.88
3790.67	-101.88
3793.33	-105.88
3795.989	-103.88
3798.645	-103.88
3801.299	-106.88
3803.952	-108.88
3806.602	-104.88
3809.251	-105.88
3811.897	-107.88
3814.542	-105.88
3817.184	-103.88
3819.825	-98.88
3822.463	-102.88
3825.1	-99.88
3827.735	-103.88
3830.367	-104.88
3832.998	-106.88
3835.627	-110.88
3838.253	-107.88
3840.878	-110.88
3843.501	-110.88
3846.122	-111.88
3848.741	-108.88
3851.358	-106.88
3853.973	-107.88
3856.586	-109.88
3859.197	-107.88
3861.806	-112.88
3864.414	-108.88
3867.019	-108.88
3869.622	-109.88
3872.224	-107.88
3874.823	-105.88
3877.421	-101.88
3880.016	-102.88
3882.61	-101.88
3885.202	-99.88
3887.792	-103.88
3890.38	-106.88
3892.966	-111.88
3895.55	-110.88
3898.132	-104.88
3900.713	-109.88
3903.291	-106.88
3905.868	-105.88
3908.442	-106.88
3911.015	-108.88
3913.586	-110.88
3916.155	-112.88
3918.722	-111.88
3921.287	-112.88
3923.85	-112.88
3926.411	-113.88
3928.971	-111.88
3931.528	-111.88
3934.084	-113.88
3936.638	-110.88
3939.19	-113.88
3941.74	-112.88
3944.288	-113.88
3946.834	-108.88
3949.378	-114.88
3951.921	-109.88
3954.462	-115.88
3957	-113.88
3959.537	-107.88
3962.072	-113.88
3964.606	-111.88
3967.137	-112.88
3969.667	-111.88
3972.194	-110.88
3974.72	-111.88
3977.244	-111.88
3979.766	-114.88
3982.286	-110.88
3984.805	-108.88
3987.321	-104.88
3989.836	-110.88
3992.349	-108.88
3994.86	-110.88
3997.369	-109.88
3999.877	-111.88
4002.382	-111.88
4004.886	-109.88
4007.388	-108.88
4009.888	-113.88
4012.386	-108.88
4014.883	-110.88
4017.377	-108.88
4019.87	-118.88
4022.361	-109.88
4024.85	-114.88
4027.338	-108.88
4029.823	-112.88
4032.307	-108.88
4034.789	-111.88
4037.269	-108.88
4039.747	-108.88
4042.224	-110.88
4044.699	-114.88
4047.172	-110.88
4049.643	-115.88
4052.112	-118.88
4054.58	-109.88
4057.046	-112.88
4059.51	-113.88
4061.972	-108.88
4064.432	-109.88
4066.891	-107.88
4069.348	-108.88
4071.803	-111.88
4074.256	-112.88
4076.708	-111.88
4079.158	-113.88
4081.606	-110.88
4084.052	-117.88
4086.497	-111.88
4088.939	-109.88
4091.38	-109.88
4093.819	-114.88
4096.257	-114.88
4098.693	-115.88
4101.127	-112.88
4103.559	-114.88
4105.989	-70.88
4108.418	-66.88
4110.845	-65.88
4113.27	-61.88
4115.694	-51.88
4118.115	-45.88
4120.535	-114.88
4122.954	-109.88
4125.37	-109.88
4127.785	-111.88
4130.198	-111.88
4132.609	-109.88
4135.019	-112.88
4137.427	-116.88
4139.833	-113.88
4142.237	-112.88
