Data from Bsub_water_DIL107_A_2_RamanShift_1.txt Node
Date: Wed Feb 22 12:48:11 IST 2017
User: aro
Spectrometer: QEPB0276
Trigger mode: 0
Integration Time (sec): 5.000000E0
Scans to average: 1
Electric dark correction enabled: true
Nonlinearity correction enabled: false
Boxcar width: 0
XAxis mode: Raman Shifts
Number of Pixels in Spectrum: 1044
>>>>>Begin Spectral Data<<<<<
160.701	-32.75
166.742	1.25
172.777	100.25
178.805	404.25
184.826	1113.25
190.841	2315.25
196.849	3639.25
202.85	4541.25
208.845	4765.25
214.833	4614.25
220.815	4467.25
226.789	4317.25
232.758	4189.25
238.719	4100.25
244.674	3941.25
250.623	3757.25
256.565	3618.25
262.5	3438.25
268.429	3293.25
274.351	3166.25
280.267	3053.25
286.176	2929.25
292.079	2840.25
297.975	2746.25
303.865	2661.25
309.748	2619.25
315.625	2524.25
321.495	2487.25
327.359	2444.25
333.217	2429.25
339.068	2404.25
344.912	2372.25
350.751	2362.25
356.583	2388.25
362.408	2375.25
368.227	2364.25
374.04	2379.25
379.847	2404.25
385.647	2406.25
391.44	2419.25
397.228	2420.25
403.009	2442.25
408.784	2452.25
414.553	2454.25
420.315	2476.25
426.071	2471.25
431.821	2469.25
437.565	2476.25
443.302	2464.25
449.033	2479.25
454.758	2458.25
460.477	2438.25
466.189	2439.25
471.896	2433.25
477.596	2388.25
483.29	2405.25
488.978	2384.25
494.66	2366.25
500.335	2326.25
506.005	2322.25
511.668	2254.25
517.325	2225.25
522.977	2194.25
528.622	2140.25
534.261	2159.25
539.894	2130.25
545.521	2117.25
551.141	2104.25
556.756	2085.25
562.365	2066.25
567.968	2054.25
573.565	2053.25
579.155	2027.25
584.74	2017.25
590.319	2010.25
595.892	2011.25
601.459	1979.25
607.02	1978.25
612.575	1970.25
618.124	1941.25
623.667	1911.25
629.204	1902.25
634.735	1880.25
640.261	1879.25
645.781	1871.25
651.294	1853.25
656.802	1867.25
662.304	1833.25
667.8	1837.25
673.29	1816.25
678.775	1822.25
684.254	1807.25
689.726	1806.25
695.193	1810.25
700.655	1790.25
706.11	1771.25
711.56	1774.25
717.004	1749.25
722.442	1749.25
727.874	1728.25
733.301	1723.25
738.722	1718.25
744.137	1701.25
749.547	1701.25
754.951	1697.25
760.349	1706.25
765.741	1713.25
771.128	1692.25
776.509	1703.25
781.885	1694.25
787.254	1694.25
792.618	1677.25
797.977	1677.25
803.33	1658.25
808.677	1648.25
814.019	1620.25
819.355	1620.25
824.686	1606.25
830.011	1601.25
835.33	1571.25
840.644	1567.25
845.952	1571.25
851.255	1554.25
856.552	1547.25
861.844	1557.25
867.13	1540.25
872.41	1515.25
877.686	1509.25
882.955	1494.25
888.219	1472.25
893.478	1443.25
898.731	1429.25
903.979	1412.25
909.221	1415.25
914.458	1392.25
919.69	1381.25
924.916	1368.25
930.136	1377.25
935.351	1389.25
940.561	1377.25
945.766	1372.25
950.965	1356.25
956.158	1352.25
961.347	1320.25
966.529	1315.25
971.707	1300.25
976.879	1291.25
982.046	1257.25
987.208	1271.25
992.364	1260.25
997.515	1280.25
1002.66	1272.25
1007.801	1284.25
1012.936	1301.25
1018.066	1300.25
1023.19	1332.25
1028.309	1309.25
1033.423	1306.25
1038.532	1303.25
1043.636	1293.25
1048.734	1287.25
1053.827	1272.25
1058.915	1263.25
1063.998	1248.25
1069.075	1249.25
1074.147	1243.25
1079.214	1263.25
1084.276	1260.25
1089.333	1280.25
1094.385	1275.25
1099.431	1304.25
1104.472	1288.25
1109.509	1267.25
1114.54	1265.25
1119.565	1254.25
1124.586	1236.25
1129.602	1231.25
1134.613	1213.25
1139.618	1211.25
1144.619	1208.25
1149.614	1227.25
1154.604	1227.25
1159.589	1219.25
1164.57	1229.25
1169.545	1222.25
1174.515	1232.25
1179.48	1241.25
1184.44	1214.25
1189.395	1235.25
1194.345	1222.25
1199.29	1205.25
1204.23	1228.25
1209.165	1227.25
1214.095	1231.25
1219.021	1233.25
1223.941	1238.25
1228.856	1247.25
1233.766	1260.25
1238.672	1249.25
1243.572	1256.25
1248.467	1241.25
1253.358	1229.25
1258.244	1214.25
1263.124	1191.25
1268	1179.25
1272.871	1164.25
1277.737	1154.25
1282.599	1148.25
1287.455	1174.25
1292.306	1159.25
1297.153	1166.25
1301.995	1165.25
1306.832	1173.25
1311.664	1207.25
1316.491	1195.25
1321.314	1183.25
1326.132	1159.25
1330.945	1147.25
1335.753	1123.25
1340.556	1108.25
1345.354	1081.25
1350.148	1068.25
1354.937	1075.25
1359.722	1054.25
1364.501	1080.25
1369.276	1098.25
1374.046	1117.25
1378.811	1152.25
1383.572	1138.25
1388.327	1138.25
1393.079	1125.25
1397.825	1100.25
1402.567	1080.25
1407.304	1058.25
1412.036	1057.25
1416.764	1050.25
1421.487	1061.25
1426.205	1050.25
1430.919	1043.25
1435.628	1043.25
1440.333	1055.25
1445.032	1060.25
1449.727	1072.25
1454.418	1075.25
1459.104	1079.25
1463.785	1066.25
1468.462	1059.25
1473.134	1043.25
1477.802	1036.25
1482.465	1023.25
1487.123	1038.25
1491.777	1037.25
1496.426	1058.25
1501.071	1064.25
1505.711	1083.25
1510.347	1098.25
1514.978	1122.25
1519.604	1117.25
1524.226	1149.25
1528.844	1148.25
1533.457	1147.25
1538.065	1153.25
1542.669	1152.25
1547.269	1140.25
1551.864	1130.25
1556.454	1144.25
1561.041	1148.25
1565.622	1150.25
1570.199	1176.25
1574.772	1186.25
1579.34	1216.25
1583.904	1217.25
1588.464	1234.25
1593.019	1278.25
1597.569	1259.25
1602.115	1266.25
1606.657	1284.25
1611.195	1291.25
1615.728	1314.25
1620.256	1334.25
1624.78	1340.25
1629.3	1343.25
1633.816	1379.25
1638.327	1392.25
1642.834	1399.25
1647.336	1417.25
1651.834	1435.25
1656.328	1434.25
1660.817	1408.25
1665.302	1401.25
1669.783	1371.25
1674.259	1313.25
1678.732	1292.25
1683.199	1257.25
1687.663	1191.25
1692.122	1141.25
1696.577	1105.25
1701.028	1094.25
1705.474	1083.25
1709.917	1070.25
1714.355	1059.25
1718.788	1022.25
1723.218	1000.25
1727.643	978.25
1732.064	940.25
1736.481	918.25
1740.893	882.25
1745.301	857.25
1749.705	832.25
1754.105	818.25
1758.501	789.25
1762.893	768.25
1767.28	757.25
1771.663	746.25
1776.042	742.25
1780.417	754.25
1784.787	746.25
1789.154	756.25
1793.516	755.25
1797.874	766.25
1802.228	775.25
1806.578	769.25
1810.924	757.25
1815.266	761.25
1819.603	750.25
1823.937	729.25
1828.266	732.25
1832.591	722.25
1836.913	710.25
1841.23	709.25
1845.543	685.25
1849.852	688.25
1854.156	690.25
1858.457	689.25
1862.754	697.25
1867.047	698.25
1871.335	701.25
1875.62	690.25
1879.9	695.25
1884.177	691.25
1888.449	698.25
1892.718	688.25
1896.982	685.25
1901.243	685.25
1905.499	679.25
1909.752	687.25
1914	685.25
1918.245	696.25
1922.485	701.25
1926.722	699.25
1930.954	702.25
1935.183	718.25
1939.408	715.25
1943.628	711.25
1947.845	724.25
1952.058	716.25
1956.267	725.25
1960.472	705.25
1964.673	699.25
1968.87	704.25
1973.063	686.25
1977.252	695.25
1981.438	694.25
1985.619	675.25
1989.797	669.25
1993.971	675.25
1998.14	674.25
2002.306	669.25
2006.469	675.25
2010.627	665.25
2014.781	680.25
2018.932	679.25
2023.078	680.25
2027.221	666.25
2031.36	667.25
2035.495	650.25
2039.627	660.25
2043.754	646.25
2047.878	643.25
2051.998	647.25
2056.114	654.25
2060.226	649.25
2064.334	662.25
2068.439	662.25
2072.54	665.25
2076.637	670.25
2080.73	670.25
2084.82	664.25
2088.906	689.25
2092.988	667.25
2097.066	677.25
2101.14	673.25
2105.211	667.25
2109.278	664.25
2113.342	663.25
2117.401	659.25
2121.457	660.25
2125.509	659.25
2129.558	654.25
2133.602	646.25
2137.643	643.25
2141.681	646.25
2145.714	636.25
2149.744	637.25
2153.77	626.25
2157.793	628.25
2161.812	622.25
2165.827	604.25
2169.838	599.25
2173.846	598.25
2177.851	583.25
2181.851	572.25
2185.848	571.25
2189.841	552.25
2193.831	560.25
2197.817	557.25
2201.799	543.25
2205.778	536.25
2209.753	542.25
2213.725	537.25
2217.693	543.25
2221.657	540.25
2225.618	537.25
2229.575	530.25
2233.529	527.25
2237.479	529.25
2241.425	519.25
2245.368	516.25
2249.307	490.25
2253.243	490.25
2257.175	485.25
2261.104	492.25
2265.029	478.25
2268.95	469.25
2272.868	470.25
2276.783	463.25
2280.694	451.25
2284.601	451.25
2288.505	442.25
2292.405	437.25
2296.302	445.25
2300.195	422.25
2304.085	427.25
2307.971	411.25
2311.854	409.25
2315.734	397.25
2319.609	388.25
2323.482	381.25
2327.351	378.25
2331.216	381.25
2335.078	383.25
2338.937	379.25
2342.792	372.25
2346.643	364.25
2350.492	369.25
2354.336	367.25
2358.178	375.25
2362.015	368.25
2365.85	368.25
2369.681	359.25
2373.508	359.25
2377.333	366.25
2381.153	352.25
2384.971	363.25
2388.785	358.25
2392.595	347.25
2396.402	358.25
2400.206	349.25
2404.007	351.25
2407.804	341.25
2411.597	345.25
2415.388	341.25
2419.174	343.25
2422.958	333.25
2426.738	339.25
2430.515	334.25
2434.289	329.25
2438.059	323.25
2441.825	328.25
2445.589	324.25
2449.349	324.25
2453.106	315.25
2456.859	315.25
2460.61	307.25
2464.356	318.25
2468.1	303.25
2471.84	310.25
2475.577	300.25
2479.311	295.25
2483.041	290.25
2486.768	298.25
2490.492	292.25
2494.213	287.25
2497.93	294.25
2501.644	295.25
2505.355	297.25
2509.062	307.25
2512.766	297.25
2516.467	297.25
2520.165	294.25
2523.859	291.25
2527.551	289.25
2531.239	283.25
2534.923	284.25
2538.605	273.25
2542.283	280.25
2545.958	293.25
2549.63	280.25
2553.299	274.25
2556.964	272.25
2560.626	274.25
2564.285	270.25
2567.941	273.25
2571.594	271.25
2575.243	268.25
2578.89	268.25
2582.533	266.25
2586.173	264.25
2589.809	261.25
2593.443	265.25
2597.073	249.25
2600.701	251.25
2604.325	255.25
2607.946	248.25
2611.564	247.25
2615.178	252.25
2618.79	249.25
2622.398	241.25
2626.004	248.25
2629.606	247.25
2633.205	243.25
2636.801	240.25
2640.394	231.25
2643.983	235.25
2647.57	224.25
2651.153	219.25
2654.734	224.25
2658.311	221.25
2661.885	217.25
2665.456	214.25
2669.025	215.25
2672.589	208.25
2676.151	213.25
2679.71	210.25
2683.266	211.25
2686.819	207.25
2690.368	207.25
2693.915	196.25
2697.458	196.25
2700.999	192.25
2704.536	195.25
2708.071	188.25
2711.602	185.25
2715.13	180.25
2718.656	185.25
2722.178	182.25
2725.697	180.25
2729.214	180.25
2732.727	184.25
2736.237	184.25
2739.744	188.25
2743.249	189.25
2746.75	190.25
2750.248	188.25
2753.743	195.25
2757.236	188.25
2760.725	192.25
2764.211	199.25
2767.695	187.25
2771.175	201.25
2774.652	197.25
2778.127	195.25
2781.598	189.25
2785.067	186.25
2788.532	183.25
2791.995	188.25
2795.455	189.25
2798.911	188.25
2802.365	197.25
2805.816	198.25
2809.264	200.25
2812.709	200.25
2816.151	197.25
2819.59	192.25
2823.026	198.25
2826.46	194.25
2829.89	194.25
2833.318	195.25
2836.742	190.25
2840.164	193.25
2843.583	205.25
2846.999	214.25
2850.412	209.25
2853.822	212.25
2857.229	210.25
2860.634	216.25
2864.035	214.25
2867.434	214.25
2870.83	217.25
2874.223	221.25
2877.613	229.25
2881	229.25
2884.385	227.25
2887.766	226.25
2891.145	229.25
2894.521	222.25
2897.894	219.25
2901.264	239.25
2904.631	231.25
2907.996	236.25
2911.358	239.25
2914.717	248.25
2918.073	242.25
2921.426	241.25
2924.777	252.25
2928.124	250.25
2931.469	256.25
2934.811	263.25
2938.15	274.25
2941.487	280.25
2944.821	279.25
2948.152	298.25
2951.48	285.25
2954.805	298.25
2958.128	294.25
2961.447	309.25
2964.765	310.25
2968.079	321.25
2971.39	319.25
2974.699	334.25
2978.005	338.25
2981.308	349.25
2984.609	364.25
2987.907	381.25
2991.202	388.25
2994.494	398.25
2997.784	416.25
3001.07	417.25
3004.355	443.25
3007.636	436.25
3010.915	456.25
3014.191	469.25
3017.464	478.25
3020.734	473.25
3024.002	491.25
3027.267	493.25
3030.53	505.25
3033.789	519.25
3037.046	527.25
3040.301	524.25
3043.552	550.25
3046.801	560.25
3050.048	574.25
3053.291	598.25
3056.532	608.25
3059.771	623.25
3063.006	653.25
3066.239	660.25
3069.469	679.25
3072.697	702.25
3075.922	736.25
3079.144	753.25
3082.364	765.25
3085.581	785.25
3088.795	800.25
3092.007	830.25
3095.216	836.25
3098.423	851.25
3101.627	886.25
3104.828	905.25
3108.026	907.25
3111.222	927.25
3114.416	971.25
3117.607	969.25
3120.795	1008.25
3123.98	1029.25
3127.163	1046.25
3130.344	1078.25
3133.521	1101.25
3136.696	1119.25
3139.869	1144.25
3143.039	1166.25
3146.206	1193.25
3149.371	1198.25
3152.533	1203.25
3155.693	1226.25
3158.85	1227.25
3162.005	1240.25
3165.157	1240.25
3168.306	1236.25
3171.453	1250.25
3174.597	1274.25
3177.739	1280.25
3180.878	1252.25
3184.014	1267.25
3187.149	1272.25
3190.28	1272.25
3193.409	1279.25
3196.536	1283.25
3199.659	1271.25
3202.781	1295.25
3205.9	1292.25
3209.016	1298.25
3212.13	1282.25
3215.241	1297.25
3218.35	1280.25
3221.456	1249.25
3224.56	1259.25
3227.661	1252.25
3230.76	1232.25
3233.856	1225.25
3236.95	1206.25
3240.041	1220.25
3243.13	1196.25
3246.216	1214.25
3249.3	1196.25
3252.382	1177.25
3255.46	1181.25
3258.537	1176.25
3261.611	1171.25
3264.682	1158.25
3267.751	1182.25
3270.818	1169.25
3273.882	1162.25
3276.943	1148.25
3280.002	1141.25
3283.059	1140.25
3286.113	1127.25
3289.165	1114.25
3292.214	1088.25
3295.261	1069.25
3298.306	1046.25
3301.348	1039.25
3304.387	1032.25
3307.425	1017.25
3310.459	988.25
3313.492	976.25
3316.521	976.25
3319.549	953.25
3322.574	948.25
3325.597	936.25
3328.617	931.25
3331.635	914.25
3334.65	913.25
3337.663	909.25
3340.674	909.25
3343.682	895.25
3346.688	911.25
3349.691	892.25
3352.692	897.25
3355.691	897.25
3358.687	877.25
3361.681	865.25
3364.673	859.25
3367.662	845.25
3370.649	838.25
3373.633	817.25
3376.615	825.25
3379.595	808.25
3382.572	791.25
3385.547	791.25
3388.52	774.25
3391.49	755.25
3394.458	754.25
3397.424	750.25
3400.387	743.25
3403.348	730.25
3406.307	703.25
3409.263	716.25
3412.217	706.25
3415.168	688.25
3418.118	695.25
3421.065	683.25
3424.009	671.25
3426.951	665.25
3429.891	639.25
3432.829	634.25
3435.764	623.25
3438.697	608.25
3441.628	602.25
3444.557	585.25
3447.483	577.25
3450.407	566.25
3453.328	539.25
3456.247	537.25
3459.164	518.25
3462.079	497.25
3464.991	493.25
3467.902	464.25
3470.809	458.25
3473.715	448.25
3476.618	439.25
3479.519	422.25
3482.418	420.25
3485.315	397.25
3488.209	393.25
3491.101	388.25
3493.99	367.25
3496.878	366.25
3499.763	355.25
3502.646	331.25
3505.527	325.25
3508.405	309.25
3511.281	302.25
3514.155	294.25
3517.027	284.25
3519.897	270.25
3522.764	254.25
3525.629	250.25
3528.492	237.25
3531.352	214.25
3534.211	211.25
3537.067	194.25
3539.921	181.25
3542.773	176.25
3545.622	161.25
3548.469	158.25
3551.315	141.25
3554.157	135.25
3556.998	136.25
3559.837	123.25
3562.673	114.25
3565.507	104.25
3568.339	96.25
3571.169	95.25
3573.996	86.25
3576.822	84.25
3579.645	72.25
3582.466	71.25
3585.285	65.25
3588.101	56.25
3590.916	50.25
3593.728	41.25
3596.538	40.25
3599.346	29.25
3602.152	24.25
3604.956	24.25
3607.757	19.25
3610.556	17.25
3613.354	20.25
3616.149	12.25
3618.942	8.25
3621.732	5.25
3624.521	-1.75
3627.307	-9.75
3630.092	-13.75
3632.874	-15.75
3635.654	-23.75
3638.432	-24.75
3641.208	-24.75
3643.982	-24.75
3646.753	-24.75
3649.523	-31.75
3652.29	-33.75
3655.055	-39.75
3657.818	-41.75
3660.579	-48.75
3663.338	-45.75
3666.095	-51.75
3668.849	-57.75
3671.602	-53.75
3674.352	-62.75
3677.101	-65.75
3679.847	-63.75
3682.591	-67.75
3685.333	-69.75
3688.073	-69.75
3690.811	-69.75
3693.547	-71.75
3696.281	-77.75
3699.013	-72.75
3701.742	-74.75
3704.47	-76.75
3707.195	-78.75
3709.919	-78.75
3712.64	-81.75
3715.359	-81.75
3718.076	-88.75
3720.792	-85.75
3723.505	-90.75
3726.216	-87.75
3728.925	-88.75
3731.632	-88.75
3734.336	-89.75
3737.039	-86.75
3739.74	-91.75
3742.439	-90.75
3745.136	-91.75
3747.83	-95.75
3750.523	-93.75
3753.213	-96.75
3755.902	-97.75
3758.589	-98.75
3761.273	-99.75
3763.956	-97.75
3766.636	-98.75
3769.315	-94.75
3771.991	-98.75
3774.665	-98.75
3777.338	-99.75
3780.008	-100.75
3782.677	-99.75
3785.343	-102.75
3788.007	-101.75
3790.67	-103.75
3793.33	-102.75
3795.989	-101.75
3798.645	-102.75
3801.299	-107.75
3803.952	-104.75
3806.602	-103.75
3809.251	-104.75
3811.897	-103.75
3814.542	-102.75
3817.184	-104.75
3819.825	-101.75
3822.463	-106.75
3825.1	-104.75
3827.735	-106.75
3830.367	-107.75
3832.998	-106.75
3835.627	-107.75
3838.253	-111.75
3840.878	-108.75
3843.501	-107.75
3846.122	-106.75
3848.741	-102.75
3851.358	-106.75
3853.973	-104.75
3856.586	-106.75
3859.197	-108.75
3861.806	-109.75
3864.414	-111.75
3867.019	-108.75
3869.622	-109.75
3872.224	-109.75
3874.823	-104.75
3877.421	-101.75
3880.016	-102.75
3882.61	-97.75
3885.202	-98.75
3887.792	-103.75
3890.38	-105.75
3892.966	-106.75
3895.55	-108.75
3898.132	-103.75
3900.713	-109.75
3903.291	-106.75
3905.868	-107.75
3908.442	-110.75
3911.015	-112.75
3913.586	-110.75
3916.155	-114.75
3918.722	-112.75
3921.287	-109.75
3923.85	-109.75
3926.411	-112.75
3928.971	-108.75
3931.528	-108.75
3934.084	-111.75
3936.638	-110.75
3939.19	-110.75
3941.74	-113.75
3944.288	-115.75
3946.834	-114.75
3949.378	-114.75
3951.921	-109.75
3954.462	-112.75
3957	-109.75
3959.537	-105.75
3962.072	-111.75
3964.606	-111.75
3967.137	-109.75
3969.667	-113.75
3972.194	-111.75
3974.72	-112.75
3977.244	-113.75
3979.766	-112.75
3982.286	-110.75
3984.805	-110.75
3987.321	-109.75
3989.836	-108.75
3992.349	-108.75
3994.86	-112.75
3997.369	-109.75
3999.877	-114.75
4002.382	-110.75
4004.886	-109.75
4007.388	-110.75
4009.888	-114.75
4012.386	-111.75
4014.883	-108.75
4017.377	-110.75
4019.87	-114.75
4022.361	-110.75
4024.85	-112.75
4027.338	-109.75
4029.823	-112.75
4032.307	-111.75
4034.789	-109.75
4037.269	-112.75
4039.747	-107.75
4042.224	-110.75
4044.699	-111.75
4047.172	-112.75
4049.643	-115.75
4052.112	-116.75
4054.58	-110.75
4057.046	-106.75
4059.51	-107.75
4061.972	-105.75
4064.432	-108.75
4066.891	-109.75
4069.348	-106.75
4071.803	-113.75
4074.256	-113.75
4076.708	-113.75
4079.158	-112.75
4081.606	-113.75
4084.052	-116.75
4086.497	-109.75
4088.939	-108.75
4091.38	-109.75
4093.819	-114.75
4096.257	-114.75
4098.693	-114.75
4101.127	-112.75
4103.559	-110.75
4105.989	-69.75
4108.418	-70.75
4110.845	-67.75
4113.27	-61.75
4115.694	-56.75
4118.115	-44.75
4120.535	-110.75
4122.954	-108.75
4125.37	-113.75
4127.785	-111.75
4130.198	-116.75
4132.609	-114.75
4135.019	-117.75
4137.427	-118.75
4139.833	-119.75
4142.237	-116.75
