Data from I0.35_T40s_H0_RamanShift_12-01-21-099.txt Node
Date: Sun Apr 23 12:01:21 IDT 2017
User: aro
Spectrometer: QEPB0276
Trigger mode: 0
Integration Time (sec): 4.000000E1
Scans to average: 1
Electric dark correction enabled: true
Nonlinearity correction enabled: false
Boxcar width: 0
XAxis mode: Raman Shifts
Number of Pixels in Spectrum: 1044
>>>>>Begin Spectral Data<<<<<
160.701	24
166.742	33
172.777	43
178.805	87
184.826	133
190.841	171
196.849	290
202.85	301
208.845	320
214.833	283
220.815	300
226.789	289
232.758	279
238.719	298
244.674	311
250.623	300
256.565	292
262.5	281
268.429	264
274.351	264
280.267	265
286.176	252
292.079	262
297.975	250
303.865	239
309.748	240
315.625	251
321.495	233
327.359	249
333.217	243
339.068	234
344.912	236
350.751	249
356.583	246
362.408	219
368.227	237
374.04	237
379.847	247
385.647	250
391.44	283
397.228	269
403.009	259
408.784	304
414.553	345
420.315	396
426.071	483
431.821	471
437.565	476
443.302	448
449.033	424
454.758	370
460.477	327
466.189	274
471.896	256
477.596	222
483.29	243
488.978	223
494.66	236
500.335	216
506.005	212
511.668	169
517.325	173
522.977	163
528.622	130
534.261	142
539.894	152
545.521	141
551.141	152
556.756	150
562.365	136
567.968	135
573.565	123
579.155	119
584.74	130
590.319	126
595.892	124
601.459	107
607.02	117
612.575	119
618.124	99
623.667	116
629.204	109
634.735	118
640.261	120
645.781	136
651.294	156
656.802	135
662.304	110
667.8	92
673.29	116
678.775	104
684.254	111
689.726	125
695.193	99
700.655	117
706.11	144
711.56	181
717.004	142
722.442	132
727.874	108
733.301	110
738.722	122
744.137	114
749.547	132
754.951	124
760.349	125
765.741	101
771.128	127
776.509	139
781.885	119
787.254	129
792.618	154
797.977	138
803.33	144
808.677	152
814.019	160
819.355	159
824.686	157
830.011	154
835.33	153
840.644	148
845.952	190
851.255	171
856.552	211
861.844	275
867.13	374
872.41	605
877.686	1030
882.955	1599
888.219	1933
893.478	1672
898.731	1042
903.979	532
909.221	346
914.458	257
919.69	222
924.916	184
930.136	159
935.351	164
940.561	145
945.766	141
950.965	113
956.158	139
961.347	122
966.529	128
971.707	109
976.879	107
982.046	115
987.208	143
992.364	131
997.515	144
1002.66	164
1007.801	193
1012.936	215
1018.066	259
1023.19	244
1028.309	286
1033.423	380
1038.532	447
1043.636	567
1048.734	656
1053.827	750
1058.915	749
1063.998	644
1069.075	530
1074.147	452
1079.214	486
1084.276	503
1089.333	581
1094.385	686
1099.431	783
1104.472	708
1109.509	592
1114.54	470
1119.565	365
1124.586	329
1129.602	299
1134.613	265
1139.618	239
1144.619	196
1149.614	173
1154.604	178
1159.589	176
1164.57	135
1169.545	117
1174.515	122
1179.48	124
1184.44	110
1189.395	96
1194.345	112
1199.29	96
1204.23	123
1209.165	132
1214.095	105
1219.021	115
1223.941	145
1228.856	129
1233.766	130
1238.672	126
1243.572	120
1248.467	145
1253.358	150
1258.244	184
1263.124	187
1268	218
1272.871	319
1277.737	359
1282.599	379
1287.455	328
1292.306	260
1297.153	243
1301.995	196
1306.832	189
1311.664	157
1316.491	171
1321.314	154
1326.132	149
1330.945	146
1335.753	136
1340.556	147
1345.354	153
1350.148	148
1354.937	153
1359.722	170
1364.501	161
1369.276	165
1374.046	141
1378.811	188
1383.572	187
1388.327	194
1393.079	210
1397.825	238
1402.567	218
1407.304	230
1412.036	252
1416.764	270
1421.487	292
1426.205	319
1430.919	343
1435.628	393
1440.333	478
1445.032	557
1449.727	708
1454.418	805
1459.104	877
1463.785	842
1468.462	679
1473.134	550
1477.802	467
1482.465	500
1487.123	415
1491.777	415
1496.426	387
1501.071	284
1505.711	251
1510.347	218
1514.978	187
1519.604	184
1524.226	164
1528.844	163
1533.457	124
1538.065	137
1542.669	122
1547.269	116
1551.864	116
1556.454	136
1561.041	115
1565.622	125
1570.199	109
1574.772	111
1579.34	86
1583.904	92
1588.464	109
1593.019	77
1597.569	74
1602.115	102
1606.657	93
1611.195	70
1615.728	69
1620.256	80
1624.78	100
1629.3	71
1633.816	69
1638.327	70
1642.834	68
1647.336	72
1651.834	60
1656.328	76
1660.817	67
1665.302	77
1669.783	70
1674.259	89
1678.732	69
1683.199	76
1687.663	69
1692.122	63
1696.577	51
1701.028	39
1705.474	57
1709.917	63
1714.355	55
1718.788	51
1723.218	73
1727.643	72
1732.064	51
1736.481	75
1740.893	56
1745.301	56
1749.705	84
1754.105	52
1758.501	51
1762.893	46
1767.28	73
1771.663	53
1776.042	56
1780.417	55
1784.787	41
1789.154	36
1793.516	40
1797.874	47
1802.228	73
1806.578	66
1810.924	41
1815.266	209
1819.603	39
1823.937	55
1828.266	52
1832.591	54
1836.913	52
1841.23	51
1845.543	61
1849.852	44
1854.156	61
1858.457	63
1862.754	65
1867.047	49
1871.335	26
1875.62	51
1879.9	47
1884.177	56
1888.449	36
1892.718	42
1896.982	48
1901.243	57
1905.499	44
1909.752	54
1914	77
1918.245	41
1922.485	44
1926.722	49
1930.954	44
1935.183	50
1939.408	32
1943.628	51
1947.845	48
1952.058	54
1956.267	66
1960.472	43
1964.673	42
1968.87	56
1973.063	52
1977.252	49
1981.438	45
1985.619	47
1989.797	70
1993.971	38
1998.14	33
2002.306	60
2006.469	35
2010.627	44
2014.781	39
2018.932	51
2023.078	31
2027.221	43
2031.36	45
2035.495	43
2039.627	43
2043.754	25
2047.878	36
2051.998	33
2056.114	45
2060.226	39
2064.334	35
2068.439	28
2072.54	35
2076.637	55
2080.73	47
2084.82	60
2088.906	55
2092.988	46
2097.066	41
2101.14	20
2105.211	31
2109.278	26
2113.342	33
2117.401	56
2121.457	47
2125.509	53
2129.558	24
2133.602	30
2137.643	44
2141.681	54
2145.714	51
2149.744	35
2153.77	48
2157.793	49
2161.812	61
2165.827	92
2169.838	42
2173.846	49
2177.851	49
2181.851	39
2185.848	51
2189.841	33
2193.831	37
2197.817	41
2201.799	30
2205.778	50
2209.753	55
2213.725	54
2217.693	24
2221.657	58
2225.618	25
2229.575	38
2233.529	31
2237.479	50
2241.425	41
2245.368	46
2249.307	50
2253.243	39
2257.175	47
2261.104	51
2265.029	33
2268.95	33
2272.868	45
2276.783	47
2280.694	35
2284.601	39
2288.505	36
2292.405	19
2296.302	43
2300.195	36
2304.085	51
2307.971	18
2311.854	53
2315.734	31
2319.609	27
2323.482	50
2327.351	40
2331.216	43
2335.078	32
2338.937	48
2342.792	45
2346.643	41
2350.492	26
2354.336	33
2358.178	30
2362.015	42
2365.85	29
2369.681	41
2373.508	37
2377.333	22
2381.153	52
2384.971	51
2388.785	36
2392.595	44
2396.402	38
2400.206	62
2404.007	53
2407.804	31
2411.597	43
2415.388	43
2419.174	35
2422.958	64
2426.738	50
2430.515	38
2434.289	44
2438.059	54
2441.825	44
2445.589	19
2449.349	58
2453.106	39
2456.859	40
2460.61	44
2464.356	43
2468.1	56
2471.84	46
2475.577	54
2479.311	43
2483.041	34
2486.768	21
2490.492	41
2494.213	47
2497.93	52
2501.644	68
2505.355	49
2509.062	45
2512.766	44
2516.467	60
2520.165	61
2523.859	68
2527.551	21
2531.239	72
2534.923	49
2538.605	49
2542.283	46
2545.958	46
2549.63	48
2553.299	60
2556.964	51
2560.626	55
2564.285	42
2567.941	65
2571.594	52
2575.243	42
2578.89	62
2582.533	57
2586.173	59
2589.809	35
2593.443	102
2597.073	61
2600.701	50
2604.325	45
2607.946	62
2611.564	47
2615.178	38
2618.79	57
2622.398	75
2626.004	57
2629.606	48
2633.205	59
2636.801	37
2640.394	37
2643.983	43
2647.57	69
2651.153	55
2654.734	38
2658.311	73
2661.885	55
2665.456	65
2669.025	65
2672.589	71
2676.151	46
2679.71	58
2683.266	80
2686.819	68
2690.368	64
2693.915	73
2697.458	79
2700.999	75
2704.536	80
2708.071	79
2711.602	96
2715.13	116
2718.656	117
2722.178	119
2725.697	136
2729.214	109
2732.727	109
2736.237	124
2739.744	113
2743.249	120
2746.75	103
2750.248	125
2753.743	102
2757.236	105
2760.725	98
2764.211	142
2767.695	94
2771.175	94
2774.652	77
2778.127	99
2781.598	89
2785.067	103
2788.532	125
2791.995	104
2795.455	101
2798.911	106
2802.365	137
2805.816	134
2809.264	114
2812.709	157
2816.151	161
2819.59	198
2823.026	195
2826.46	207
2829.89	198
2833.318	268
2836.742	233
2840.164	244
2843.583	274
2846.999	282
2850.412	294
2853.822	312
2857.229	312
2860.634	352
2864.035	398
2867.434	416
2870.83	484
2874.223	541
2877.613	578
2881	615
2884.385	635
2887.766	598
2891.145	625
2894.521	586
2897.894	555
2901.264	527
2904.631	517
2907.996	502
2911.358	481
2914.717	507
2918.073	554
2921.426	590
2924.777	660
2928.124	706
2931.469	730
2934.811	780
2938.15	701
2941.487	640
2944.821	536
2948.152	505
2951.48	440
2954.805	405
2958.128	365
2961.447	354
2964.765	339
2968.079	369
2971.39	353
2974.699	358
2978.005	347
2981.308	335
2984.609	331
2987.907	285
2991.202	241
2994.494	239
2997.784	184
3001.07	166
3004.355	150
3007.636	157
3010.915	131
3014.191	125
3017.464	130
3020.734	96
3024.002	94
3027.267	92
3030.53	92
3033.789	99
3037.046	118
3040.301	75
3043.552	79
3046.801	66
3050.048	57
3053.291	44
3056.532	58
3059.771	90
3063.006	62
3066.239	53
3069.469	67
3072.697	79
3075.922	75
3079.144	63
3082.364	39
3085.581	56
3088.795	31
3092.007	47
3095.216	53
3098.423	57
3101.627	79
3104.828	53
3108.026	64
3111.222	68
3114.416	52
3117.607	40
3120.795	53
3123.98	69
3127.163	80
3130.344	67
3133.521	68
3136.696	54
3139.869	59
3143.039	72
3146.206	28
3149.371	38
3152.533	51
3155.693	83
3158.85	61
3162.005	49
3165.157	58
3168.306	50
3171.453	37
3174.597	72
3177.739	83
3180.878	54
3184.014	49
3187.149	41
3190.28	50
3193.409	46
3196.536	44
3199.659	38
3202.781	49
3205.9	63
3209.016	66
3212.13	37
3215.241	58
3218.35	40
3221.456	51
3224.56	75
3227.661	59
3230.76	56
3233.856	63
3236.95	55
3240.041	71
3243.13	33
3246.216	53
3249.3	38
3252.382	45
3255.46	72
3258.537	91
3261.611	64
3264.682	44
3267.751	50
3270.818	61
3273.882	48
3276.943	45
3280.002	25
3283.059	59
3286.113	41
3289.165	53
3292.214	48
3295.261	36
3298.306	67
3301.348	61
3304.387	42
3307.425	45
3310.459	52
3313.492	29
3316.521	48
3319.549	49
3322.574	26
3325.597	48
3328.617	35
3331.635	49
3334.65	44
3337.663	33
3340.674	49
3343.682	45
3346.688	32
3349.691	38
3352.692	50
3355.691	36
3358.687	32
3361.681	35
3364.673	44
3367.662	35
3370.649	31
3373.633	56
3376.615	44
3379.595	84
3382.572	35
3385.547	57
3388.52	58
3391.49	43
3394.458	37
3397.424	33
3400.387	46
3403.348	39
3406.307	42
3409.263	52
3412.217	18
3415.168	36
3418.118	35
3421.065	42
3424.009	14
3426.951	45
3429.891	33
3432.829	54
3435.764	24
3438.697	46
3441.628	18
3444.557	44
3447.483	50
3450.407	24
3453.328	41
3456.247	38
3459.164	69
3462.079	29
3464.991	36
3467.902	44
3470.809	21
3473.715	18
3476.618	41
3479.519	29
3482.418	54
3485.315	52
3488.209	29
3491.101	16
3493.99	27
3496.878	31
3499.763	17
3502.646	20
3505.527	52
3508.405	45
3511.281	47
3514.155	36
3517.027	26
3519.897	56
3522.764	22
3525.629	40
3528.492	41
3531.352	21
3534.211	20
3537.067	43
3539.921	52
3542.773	34
3545.622	42
3548.469	62
3551.315	42
3554.157	46
3556.998	39
3559.837	31
3562.673	18
3565.507	45
3568.339	37
3571.169	43
3573.996	33
3576.822	46
3579.645	54
3582.466	44
3585.285	25
3588.101	37
3590.916	39
3593.728	28
3596.538	31
3599.346	18
3602.152	37
3604.956	39
3607.757	25
3610.556	32
3613.354	34
3616.149	21
3618.942	14
3621.732	5
3624.521	51
3627.307	34
3630.092	12
3632.874	18
3635.654	22
3638.432	36
3641.208	21
3643.982	21
3646.753	18
3649.523	65
3652.29	28
3655.055	19
3657.818	25
3660.579	14
3663.338	37
3666.095	26
3668.849	65
3671.602	10
3674.352	66
3677.101	26
3679.847	-1
3682.591	37
3685.333	49
3688.073	28
3690.811	31
3693.547	39
3696.281	31
3699.013	28
3701.742	20
3704.47	40
3707.195	25
3709.919	21
3712.64	34
3715.359	35
3718.076	12
3720.792	21
3723.505	29
3726.216	19
3728.925	39
3731.632	38
3734.336	38
3737.039	29
3739.74	30
3742.439	95
3745.136	28
3747.83	24
3750.523	14
3753.213	160
3755.902	28
3758.589	54
3761.273	31
3763.956	13
3766.636	51
3769.315	14
3771.991	37
3774.665	38
3777.338	26
3780.008	34
3782.677	40
3785.343	39
3788.007	47
3790.67	30
3793.33	33
3795.989	34
3798.645	18
3801.299	47
3803.952	35
3806.602	23
3809.251	22
3811.897	27
3814.542	32
3817.184	31
3819.825	25
3822.463	25
3825.1	22
3827.735	28
3830.367	30
3832.998	13
3835.627	16
3838.253	13
3840.878	40
3843.501	11
3846.122	21
3848.741	14
3851.358	24
3853.973	53
3856.586	24
3859.197	18
3861.806	21
3864.414	32
3867.019	49
3869.622	32
3872.224	37
3874.823	36
3877.421	32
3880.016	29
3882.61	36
3885.202	42
3887.792	38
3890.38	27
3892.966	46
3895.55	60
3898.132	27
3900.713	29
3903.291	37
3905.868	48
3908.442	23
3911.015	13
3913.586	27
3916.155	22
3918.722	34
3921.287	27
3923.85	47
3926.411	32
3928.971	26
3931.528	25
3934.084	27
3936.638	22
3939.19	32
3941.74	22
3944.288	20
3946.834	38
3949.378	12
3951.921	47
3954.462	42
3957	23
3959.537	28
3962.072	43
3964.606	63
3967.137	25
3969.667	26
3972.194	24
3974.72	34
3977.244	75
3979.766	52
3982.286	49
3984.805	23
3987.321	18
3989.836	34
3992.349	34
3994.86	24
3997.369	25
3999.877	30
4002.382	30
4004.886	22
4007.388	31
4009.888	14
4012.386	20
4014.883	23
4017.377	35
4019.87	29
4022.361	39
4024.85	31
4027.338	23
4029.823	23
4032.307	23
4034.789	19
4037.269	22
4039.747	44
4042.224	21
4044.699	44
4047.172	28
4049.643	4
4052.112	52
4054.58	20
4057.046	30
4059.51	33
4061.972	36
4064.432	64
4066.891	12
4069.348	31
4071.803	17
4074.256	29
4076.708	19
4079.158	29
4081.606	1
4084.052	31
4086.497	14
4088.939	32
4091.38	37
4093.819	16
4096.257	-39
4098.693	-46
4101.127	-52
4103.559	-37
4105.989	39
4108.418	26
4110.845	41
4113.27	24
4115.694	30
4118.115	47
4120.535	8
4122.954	20
4125.37	5
4127.785	9
4130.198	19
4132.609	27
4135.019	-49
4137.427	-45
4139.833	-47
4142.237	-46
