Data from 1CFU1_RamanShift_1.txt Node
Date: Mon Feb 13 13:18:04 IST 2017
User: aro
Spectrometer: QEPB0276
Trigger mode: 0
Integration Time (sec): 5.000000E0
Scans to average: 1
Electric dark correction enabled: true
Nonlinearity correction enabled: false
Boxcar width: 0
XAxis mode: Raman Shifts
Number of Pixels in Spectrum: 1044
>>>>>Begin Spectral Data<<<<<
160.701	-1.75
166.742	0.25
172.777	20.25
178.805	64.25
184.826	159.25
190.841	323.25
196.849	510.25
202.85	633.25
208.845	679.25
214.833	668.25
220.815	670.25
226.789	634.25
232.758	648.25
238.719	633.25
244.674	627.25
250.623	603.25
256.565	596.25
262.5	594.25
268.429	572.25
274.351	565.25
280.267	555.25
286.176	551.25
292.079	543.25
297.975	545.25
303.865	538.25
309.748	545.25
315.625	535.25
321.495	531.25
327.359	523.25
333.217	536.25
339.068	535.25
344.912	540.25
350.751	547.25
356.583	562.25
362.408	551.25
368.227	547.25
374.04	537.25
379.847	534.25
385.647	537.25
391.44	545.25
397.228	549.25
403.009	557.25
408.784	571.25
414.553	559.25
420.315	550.25
426.071	566.25
431.821	562.25
437.565	565.25
443.302	567.25
449.033	567.25
454.758	554.25
460.477	550.25
466.189	552.25
471.896	538.25
477.596	529.25
483.29	523.25
488.978	524.25
494.66	513.25
500.335	498.25
506.005	487.25
511.668	468.25
517.325	442.25
522.977	424.25
528.622	421.25
534.261	398.25
539.894	395.25
545.521	391.25
551.141	387.25
556.756	376.25
562.365	365.25
567.968	368.25
573.565	365.25
579.155	364.25
584.74	368.25
590.319	360.25
595.892	366.25
601.459	369.25
607.02	362.25
612.575	346.25
618.124	342.25
623.667	343.25
629.204	344.25
634.735	331.25
640.261	335.25
645.781	332.25
651.294	327.25
656.802	325.25
662.304	324.25
667.8	324.25
673.29	308.25
678.775	323.25
684.254	311.25
689.726	312.25
695.193	305.25
700.655	306.25
706.11	298.25
711.56	307.25
717.004	311.25
722.442	307.25
727.874	309.25
733.301	300.25
738.722	293.25
744.137	295.25
749.547	292.25
754.951	296.25
760.349	300.25
765.741	304.25
771.128	298.25
776.509	296.25
781.885	312.25
787.254	300.25
792.618	308.25
797.977	307.25
803.33	300.25
808.677	311.25
814.019	301.25
819.355	302.25
824.686	293.25
830.011	299.25
835.33	292.25
840.644	298.25
845.952	303.25
851.255	313.25
856.552	304.25
861.844	310.25
867.13	308.25
872.41	303.25
877.686	302.25
882.955	308.25
888.219	303.25
893.478	298.25
898.731	286.25
903.979	289.25
909.221	279.25
914.458	270.25
919.69	270.25
924.916	267.25
930.136	270.25
935.351	267.25
940.561	266.25
945.766	265.25
950.965	265.25
956.158	261.25
961.347	261.25
966.529	256.25
971.707	245.25
976.879	247.25
982.046	238.25
987.208	235.25
992.364	244.25
997.515	248.25
1002.66	254.25
1007.801	251.25
1012.936	260.25
1018.066	260.25
1023.19	269.25
1028.309	267.25
1033.423	274.25
1038.532	261.25
1043.636	266.25
1048.734	273.25
1053.827	274.25
1058.915	275.25
1063.998	276.25
1069.075	287.25
1074.147	297.25
1079.214	289.25
1084.276	291.25
1089.333	293.25
1094.385	291.25
1099.431	286.25
1104.472	276.25
1109.509	272.25
1114.54	267.25
1119.565	260.25
1124.586	270.25
1129.602	268.25
1134.613	260.25
1139.618	239.25
1144.619	240.25
1149.614	232.25
1154.604	234.25
1159.589	233.25
1164.57	219.25
1169.545	221.25
1174.515	222.25
1179.48	222.25
1184.44	213.25
1189.395	208.25
1194.345	201.25
1199.29	204.25
1204.23	210.25
1209.165	207.25
1214.095	211.25
1219.021	212.25
1223.941	207.25
1228.856	216.25
1233.766	220.25
1238.672	221.25
1243.572	227.25
1248.467	231.25
1253.358	229.25
1258.244	230.25
1263.124	239.25
1268	229.25
1272.871	221.25
1277.737	223.25
1282.599	219.25
1287.455	216.25
1292.306	215.25
1297.153	232.25
1301.995	244.25
1306.832	259.25
1311.664	245.25
1316.491	233.25
1321.314	225.25
1326.132	226.25
1330.945	217.25
1335.753	209.25
1340.556	200.25
1345.354	196.25
1350.148	196.25
1354.937	194.25
1359.722	187.25
1364.501	188.25
1369.276	181.25
1374.046	196.25
1378.811	192.25
1383.572	190.25
1388.327	185.25
1393.079	184.25
1397.825	167.25
1402.567	170.25
1407.304	172.25
1412.036	175.25
1416.764	174.25
1421.487	179.25
1426.205	188.25
1430.919	184.25
1435.628	204.25
1440.333	223.25
1445.032	245.25
1449.727	249.25
1454.418	241.25
1459.104	237.25
1463.785	235.25
1468.462	220.25
1473.134	199.25
1477.802	181.25
1482.465	160.25
1487.123	153.25
1491.777	148.25
1496.426	147.25
1501.071	141.25
1505.711	136.25
1510.347	134.25
1514.978	136.25
1519.604	136.25
1524.226	142.25
1528.844	135.25
1533.457	142.25
1538.065	132.25
1542.669	138.25
1547.269	136.25
1551.864	134.25
1556.454	135.25
1561.041	134.25
1565.622	126.25
1570.199	134.25
1574.772	129.25
1579.34	135.25
1583.904	131.25
1588.464	142.25
1593.019	135.25
1597.569	134.25
1602.115	133.25
1606.657	142.25
1611.195	141.25
1615.728	146.25
1620.256	142.25
1624.78	143.25
1629.3	141.25
1633.816	143.25
1638.327	146.25
1642.834	149.25
1647.336	161.25
1651.834	168.25
1656.328	162.25
1660.817	175.25
1665.302	164.25
1669.783	158.25
1674.259	149.25
1678.732	142.25
1683.199	135.25
1687.663	136.25
1692.122	125.25
1696.577	128.25
1701.028	119.25
1705.474	110.25
1709.917	114.25
1714.355	107.25
1718.788	106.25
1723.218	107.25
1727.643	102.25
1732.064	100.25
1736.481	97.25
1740.893	98.25
1745.301	89.25
1749.705	93.25
1754.105	85.25
1758.501	89.25
1762.893	83.25
1767.28	82.25
1771.663	77.25
1776.042	69.25
1780.417	74.25
1784.787	69.25
1789.154	74.25
1793.516	73.25
1797.874	83.25
1802.228	76.25
1806.578	75.25
1810.924	69.25
1815.266	64.25
1819.603	68.25
1823.937	69.25
1828.266	68.25
1832.591	65.25
1836.913	68.25
1841.23	60.25
1845.543	56.25
1849.852	59.25
1854.156	64.25
1858.457	64.25
1862.754	61.25
1867.047	66.25
1871.335	62.25
1875.62	60.25
1879.9	61.25
1884.177	57.25
1888.449	64.25
1892.718	59.25
1896.982	62.25
1901.243	62.25
1905.499	64.25
1909.752	60.25
1914	61.25
1918.245	53.25
1922.485	59.25
1926.722	56.25
1930.954	65.25
1935.183	62.25
1939.408	63.25
1943.628	61.25
1947.845	56.25
1952.058	60.25
1956.267	53.25
1960.472	58.25
1964.673	61.25
1968.87	62.25
1973.063	62.25
1977.252	53.25
1981.438	52.25
1985.619	53.25
1989.797	50.25
1993.971	49.25
1998.14	51.25
2002.306	47.25
2006.469	56.25
2010.627	51.25
2014.781	50.25
2018.932	47.25
2023.078	48.25
2027.221	49.25
2031.36	50.25
2035.495	44.25
2039.627	54.25
2043.754	46.25
2047.878	44.25
2051.998	44.25
2056.114	46.25
2060.226	47.25
2064.334	49.25
2068.439	54.25
2072.54	53.25
2076.637	47.25
2080.73	47.25
2084.82	47.25
2088.906	50.25
2092.988	54.25
2097.066	46.25
2101.14	50.25
2105.211	50.25
2109.278	49.25
2113.342	43.25
2117.401	48.25
2121.457	48.25
2125.509	46.25
2129.558	46.25
2133.602	48.25
2137.643	47.25
2141.681	40.25
2145.714	45.25
2149.744	41.25
2153.77	41.25
2157.793	39.25
2161.812	43.25
2165.827	44.25
2169.838	42.25
2173.846	39.25
2177.851	34.25
2181.851	36.25
2185.848	36.25
2189.841	38.25
2193.831	41.25
2197.817	38.25
2201.799	38.25
2205.778	34.25
2209.753	27.25
2213.725	31.25
2217.693	32.25
2221.657	38.25
2225.618	35.25
2229.575	34.25
2233.529	31.25
2237.479	33.25
2241.425	29.25
2245.368	30.25
2249.307	29.25
2253.243	29.25
2257.175	31.25
2261.104	31.25
2265.029	25.25
2268.95	24.25
2272.868	22.25
2276.783	24.25
2280.694	24.25
2284.601	29.25
2288.505	27.25
2292.405	25.25
2296.302	23.25
2300.195	20.25
2304.085	18.25
2307.971	18.25
2311.854	24.25
2315.734	20.25
2319.609	18.25
2323.482	18.25
2327.351	18.25
2331.216	20.25
2335.078	21.25
2338.937	17.25
2342.792	18.25
2346.643	18.25
2350.492	20.25
2354.336	15.25
2358.178	17.25
2362.015	14.25
2365.85	10.25
2369.681	13.25
2373.508	14.25
2377.333	15.25
2381.153	19.25
2384.971	21.25
2388.785	18.25
2392.595	14.25
2396.402	12.25
2400.206	16.25
2404.007	14.25
2407.804	13.25
2411.597	15.25
2415.388	13.25
2419.174	15.25
2422.958	15.25
2426.738	9.25
2430.515	8.25
2434.289	11.25
2438.059	9.25
2441.825	11.25
2445.589	11.25
2449.349	11.25
2453.106	10.25
2456.859	9.25
2460.61	8.25
2464.356	9.25
2468.1	11.25
2471.84	13.25
2475.577	12.25
2479.311	11.25
2483.041	6.25
2486.768	11.25
2490.492	9.25
2494.213	11.25
2497.93	11.25
2501.644	11.25
2505.355	8.25
2509.062	7.25
2512.766	9.25
2516.467	10.25
2520.165	9.25
2523.859	11.25
2527.551	8.25
2531.239	6.25
2534.923	8.25
2538.605	6.25
2542.283	10.25
2545.958	8.25
2549.63	12.25
2553.299	9.25
2556.964	10.25
2560.626	7.25
2564.285	4.25
2567.941	7.25
2571.594	9.25
2575.243	8.25
2578.89	8.25
2582.533	10.25
2586.173	12.25
2589.809	7.25
2593.443	3.25
2597.073	3.25
2600.701	8.25
2604.325	5.25
2607.946	6.25
2611.564	6.25
2615.178	8.25
2618.79	3.25
2622.398	3.25
2626.004	1.25
2629.606	4.25
2633.205	5.25
2636.801	8.25
2640.394	10.25
2643.983	8.25
2647.57	4.25
2651.153	4.25
2654.734	1.25
2658.311	3.25
2661.885	5.25
2665.456	5.25
2669.025	5.25
2672.589	9.25
2676.151	9.25
2679.71	3.25
2683.266	3.25
2686.819	1.25
2690.368	-0.75
2693.915	-0.75
2697.458	7.25
2700.999	5.25
2704.536	8.25
2708.071	7.25
2711.602	6.25
2715.13	9.25
2718.656	9.25
2722.178	6.25
2725.697	13.25
2729.214	11.25
2732.727	9.25
2736.237	7.25
2739.744	6.25
2743.249	4.25
2746.75	6.25
2750.248	3.25
2753.743	5.25
2757.236	6.25
2760.725	8.25
2764.211	3.25
2767.695	14.25
2771.175	5.25
2774.652	0.25
2778.127	0.25
2781.598	7.25
2785.067	10.25
2788.532	10.25
2791.995	8.25
2795.455	4.25
2798.911	4.25
2802.365	8.25
2805.816	9.25
2809.264	4.25
2812.709	9.25
2816.151	13.25
2819.59	14.25
2823.026	17.25
2826.46	17.25
2829.89	14.25
2833.318	20.25
2836.742	26.25
2840.164	26.25
2843.583	36.25
2846.999	48.25
2850.412	51.25
2853.822	59.25
2857.229	64.25
2860.634	67.25
2864.035	65.25
2867.434	70.25
2870.83	71.25
2874.223	74.25
2877.613	80.25
2881	79.25
2884.385	82.25
2887.766	86.25
2891.145	90.25
2894.521	83.25
2897.894	92.25
2901.264	88.25
2904.631	83.25
2907.996	86.25
2911.358	77.25
2914.717	73.25
2918.073	77.25
2921.426	78.25
2924.777	76.25
2928.124	77.25
2931.469	80.25
2934.811	75.25
2938.15	71.25
2941.487	73.25
2944.821	68.25
2948.152	63.25
2951.48	56.25
2954.805	58.25
2958.128	58.25
2961.447	52.25
2964.765	49.25
2968.079	44.25
2971.39	41.25
2974.699	42.25
2978.005	42.25
2981.308	40.25
2984.609	42.25
2987.907	44.25
2991.202	38.25
2994.494	33.25
2997.784	32.25
3001.07	29.25
3004.355	26.25
3007.636	31.25
3010.915	34.25
3014.191	30.25
3017.464	27.25
3020.734	29.25
3024.002	24.25
3027.267	23.25
3030.53	16.25
3033.789	27.25
3037.046	24.25
3040.301	30.25
3043.552	25.25
3046.801	25.25
3050.048	28.25
3053.291	22.25
3056.532	25.25
3059.771	32.25
3063.006	29.25
3066.239	32.25
3069.469	37.25
3072.697	37.25
3075.922	33.25
3079.144	34.25
3082.364	37.25
3085.581	40.25
3088.795	41.25
3092.007	40.25
3095.216	45.25
3098.423	39.25
3101.627	42.25
3104.828	42.25
3108.026	43.25
3111.222	51.25
3114.416	44.25
3117.607	48.25
3120.795	58.25
3123.98	53.25
3127.163	50.25
3130.344	57.25
3133.521	59.25
3136.696	55.25
3139.869	58.25
3143.039	62.25
3146.206	65.25
3149.371	60.25
3152.533	61.25
3155.693	62.25
3158.85	63.25
3162.005	63.25
3165.157	66.25
3168.306	62.25
3171.453	67.25
3174.597	67.25
3177.739	68.25
3180.878	62.25
3184.014	71.25
3187.149	70.25
3190.28	62.25
3193.409	68.25
3196.536	70.25
3199.659	73.25
3202.781	64.25
3205.9	68.25
3209.016	66.25
3212.13	62.25
3215.241	68.25
3218.35	62.25
3221.456	67.25
3224.56	73.25
3227.661	67.25
3230.76	61.25
3233.856	59.25
3236.95	53.25
3240.041	64.25
3243.13	58.25
3246.216	60.25
3249.3	65.25
3252.382	62.25
3255.46	61.25
3258.537	57.25
3261.611	61.25
3264.682	55.25
3267.751	58.25
3270.818	61.25
3273.882	61.25
3276.943	62.25
3280.002	54.25
3283.059	56.25
3286.113	52.25
3289.165	53.25
3292.214	54.25
3295.261	53.25
3298.306	60.25
3301.348	53.25
3304.387	51.25
3307.425	53.25
3310.459	44.25
3313.492	44.25
3316.521	45.25
3319.549	44.25
3322.574	45.25
3325.597	45.25
3328.617	48.25
3331.635	45.25
3334.65	37.25
3337.663	40.25
3340.674	42.25
3343.682	42.25
3346.688	41.25
3349.691	44.25
3352.692	37.25
3355.691	40.25
3358.687	40.25
3361.681	42.25
3364.673	43.25
3367.662	40.25
3370.649	40.25
3373.633	39.25
3376.615	42.25
3379.595	42.25
3382.572	35.25
3385.547	32.25
3388.52	35.25
3391.49	36.25
3394.458	36.25
3397.424	35.25
3400.387	38.25
3403.348	31.25
3406.307	29.25
3409.263	31.25
3412.217	30.25
3415.168	30.25
3418.118	32.25
3421.065	28.25
3424.009	26.25
3426.951	28.25
3429.891	28.25
3432.829	30.25
3435.764	28.25
3438.697	26.25
3441.628	26.25
3444.557	27.25
3447.483	22.25
3450.407	20.25
3453.328	22.25
3456.247	24.25
3459.164	20.25
3462.079	22.25
3464.991	20.25
3467.902	18.25
3470.809	15.25
3473.715	13.25
3476.618	13.25
3479.519	13.25
3482.418	13.25
3485.315	14.25
3488.209	10.25
3491.101	12.25
3493.99	9.25
3496.878	8.25
3499.763	9.25
3502.646	7.25
3505.527	4.25
3508.405	10.25
3511.281	3.25
3514.155	9.25
3517.027	6.25
3519.897	0.25
3522.764	2.25
3525.629	1.25
3528.492	1.25
3531.352	-0.75
3534.211	1.25
3537.067	-1.75
3539.921	-0.75
3542.773	-3.75
3545.622	-2.75
3548.469	-4.75
3551.315	-3.75
3554.157	-3.75
3556.998	-3.75
3559.837	-6.75
3562.673	-3.75
3565.507	-6.75
3568.339	-7.75
3571.169	-9.75
3573.996	-7.75
3576.822	-7.75
3579.645	-11.75
3582.466	-2.75
3585.285	-8.75
3588.101	-13.75
3590.916	-8.75
3593.728	-9.75
3596.538	-8.75
3599.346	-6.75
3602.152	-11.75
3604.956	-11.75
3607.757	-11.75
3610.556	-10.75
3613.354	-11.75
3616.149	-15.75
3618.942	-10.75
3621.732	-12.75
3624.521	-13.75
3627.307	-17.75
3630.092	-12.75
3632.874	-10.75
3635.654	-15.75
3638.432	-9.75
3641.208	-15.75
3643.982	-17.75
3646.753	-16.75
3649.523	-14.75
3652.29	-17.75
3655.055	-17.75
3657.818	-14.75
3660.579	-14.75
3663.338	-13.75
3666.095	-17.75
3668.849	-13.75
3671.602	-17.75
3674.352	-13.75
3677.101	-15.75
3679.847	-19.75
3682.591	-17.75
3685.333	-20.75
3688.073	-19.75
3690.811	-18.75
3693.547	-14.75
3696.281	-14.75
3699.013	-15.75
3701.742	-15.75
3704.47	-13.75
3707.195	-19.75
3709.919	-20.75
3712.64	-19.75
3715.359	-18.75
3718.076	-16.75
3720.792	-17.75
3723.505	-15.75
3726.216	-18.75
3728.925	-17.75
3731.632	-21.75
3734.336	-16.75
3737.039	-13.75
3739.74	-15.75
3742.439	-19.75
3745.136	-17.75
3747.83	-17.75
3750.523	-24.75
3753.213	-21.75
3755.902	-16.75
3758.589	-18.75
3761.273	-17.75
3763.956	-17.75
3766.636	-17.75
3769.315	-17.75
3771.991	-18.75
3774.665	-23.75
3777.338	-21.75
3780.008	-20.75
3782.677	-18.75
3785.343	-15.75
3788.007	-16.75
3790.67	-20.75
3793.33	-20.75
3795.989	-20.75
3798.645	-21.75
3801.299	-17.75
3803.952	-16.75
3806.602	-15.75
3809.251	-14.75
3811.897	-17.75
3814.542	-23.75
3817.184	-22.75
3819.825	-20.75
3822.463	-19.75
3825.1	-16.75
3827.735	-20.75
3830.367	-14.75
3832.998	-17.75
3835.627	-22.75
3838.253	-17.75
3840.878	-22.75
3843.501	-21.75
3846.122	-18.75
3848.741	-14.75
3851.358	-18.75
3853.973	-17.75
3856.586	-17.75
3859.197	-18.75
3861.806	-18.75
3864.414	-18.75
3867.019	-23.75
3869.622	-18.75
3872.224	-18.75
3874.823	-16.75
3877.421	-16.75
3880.016	-11.75
3882.61	-12.75
3885.202	-11.75
3887.792	-14.75
3890.38	-15.75
3892.966	-14.75
3895.55	-18.75
3898.132	-20.75
3900.713	-18.75
3903.291	-19.75
3905.868	-22.75
3908.442	-22.75
3911.015	-19.75
3913.586	-21.75
3916.155	-23.75
3918.722	-17.75
3921.287	-21.75
3923.85	-20.75
3926.411	-18.75
3928.971	-20.75
3931.528	-17.75
3934.084	-15.75
3936.638	-17.75
3939.19	-17.75
3941.74	-22.75
3944.288	-20.75
3946.834	-22.75
3949.378	-23.75
3951.921	-22.75
3954.462	-21.75
3957	-16.75
3959.537	-13.75
3962.072	-16.75
3964.606	-20.75
3967.137	-21.75
3969.667	-21.75
3972.194	-25.75
3974.72	-18.75
3977.244	-17.75
3979.766	-18.75
3982.286	-18.75
3984.805	-16.75
3987.321	-20.75
3989.836	-19.75
3992.349	-19.75
3994.86	-21.75
3997.369	-17.75
3999.877	-18.75
4002.382	-16.75
4004.886	-15.75
4007.388	-16.75
4009.888	-20.75
4012.386	-20.75
4014.883	-24.75
4017.377	-20.75
4019.87	-18.75
4022.361	-16.75
4024.85	-19.75
4027.338	-19.75
4029.823	-19.75
4032.307	-20.75
4034.789	-20.75
4037.269	-17.75
4039.747	-21.75
4042.224	-17.75
4044.699	-17.75
4047.172	-17.75
4049.643	-17.75
4052.112	-22.75
4054.58	-19.75
4057.046	-20.75
4059.51	-15.75
4061.972	-20.75
4064.432	-20.75
4066.891	-19.75
4069.348	-19.75
4071.803	-19.75
4074.256	-17.75
4076.708	-16.75
4079.158	-19.75
4081.606	-18.75
4084.052	-25.75
4086.497	-18.75
4088.939	-22.75
4091.38	-16.75
4093.819	-18.75
4096.257	-23.75
4098.693	-23.75
4101.127	-16.75
4103.559	-17.75
4105.989	-4.75
4108.418	-4.75
4110.845	-7.75
4113.27	-10.75
4115.694	-7.75
4118.115	-6.75
4120.535	-19.75
4122.954	-20.75
4125.37	-20.75
4127.785	-20.75
4130.198	-20.75
4132.609	-20.75
4135.019	-18.75
4137.427	-20.75
4139.833	-20.75
4142.237	-22.75
