Data from 10000CFU3_A_RamanShift_1.txt Node
Date: Mon Feb 13 13:38:04 IST 2017
User: aro
Spectrometer: QEPB0276
Trigger mode: 0
Integration Time (sec): 5.000000E0
Scans to average: 1
Electric dark correction enabled: true
Nonlinearity correction enabled: false
Boxcar width: 0
XAxis mode: Raman Shifts
Number of Pixels in Spectrum: 1044
>>>>>Begin Spectral Data<<<<<
160.701	-5
166.742	-1
172.777	22
178.805	79
184.826	195
190.841	380
196.849	598
202.85	747
208.845	791
214.833	767
220.815	756
226.789	744
232.758	739
238.719	728
244.674	714
250.623	704
256.565	692
262.5	679
268.429	656
274.351	645
280.267	640
286.176	627
292.079	614
297.975	612
303.865	619
309.748	600
315.625	607
321.495	599
327.359	601
333.217	590
339.068	605
344.912	608
350.751	611
356.583	620
362.408	623
368.227	612
374.04	601
379.847	596
385.647	600
391.44	612
397.228	612
403.009	624
408.784	624
414.553	627
420.315	626
426.071	621
431.821	630
437.565	637
443.302	621
449.033	628
454.758	626
460.477	621
466.189	610
471.896	596
477.596	602
483.29	596
488.978	585
494.66	573
500.335	565
506.005	538
511.668	526
517.325	494
522.977	486
528.622	482
534.261	459
539.894	459
545.521	449
551.141	440
556.756	443
562.365	424
567.968	426
573.565	415
579.155	420
584.74	422
590.319	417
595.892	414
601.459	421
607.02	402
612.575	389
618.124	398
623.667	392
629.204	388
634.735	394
640.261	381
645.781	382
651.294	375
656.802	376
662.304	373
667.8	377
673.29	366
678.775	365
684.254	364
689.726	361
695.193	347
700.655	353
706.11	355
711.56	353
717.004	353
722.442	358
727.874	348
733.301	346
738.722	341
744.137	348
749.547	343
754.951	345
760.349	351
765.741	344
771.128	353
776.509	342
781.885	351
787.254	345
792.618	361
797.977	357
803.33	356
808.677	350
814.019	352
819.355	346
824.686	339
830.011	343
835.33	350
840.644	355
845.952	354
851.255	365
856.552	361
861.844	357
867.13	360
872.41	369
877.686	358
882.955	367
888.219	369
893.478	359
898.731	351
903.979	332
909.221	331
914.458	316
919.69	310
924.916	322
930.136	326
935.351	323
940.561	320
945.766	307
950.965	313
956.158	306
961.347	297
966.529	291
971.707	298
976.879	287
982.046	292
987.208	288
992.364	286
997.515	287
1002.66	306
1007.801	300
1012.936	307
1018.066	305
1023.19	313
1028.309	313
1033.423	314
1038.532	312
1043.636	315
1048.734	314
1053.827	319
1058.915	325
1063.998	329
1069.075	346
1074.147	343
1079.214	338
1084.276	358
1089.333	356
1094.385	350
1099.431	340
1104.472	329
1109.509	320
1114.54	322
1119.565	319
1124.586	315
1129.602	312
1134.613	311
1139.618	291
1144.619	278
1149.614	276
1154.604	273
1159.589	273
1164.57	268
1169.545	268
1174.515	261
1179.48	254
1184.44	246
1189.395	249
1194.345	239
1199.29	240
1204.23	240
1209.165	242
1214.095	242
1219.021	242
1223.941	248
1228.856	260
1233.766	260
1238.672	263
1243.572	272
1248.467	266
1253.358	276
1258.244	278
1263.124	273
1268	268
1272.871	270
1277.737	262
1282.599	264
1287.455	258
1292.306	266
1297.153	279
1301.995	289
1306.832	298
1311.664	288
1316.491	279
1321.314	276
1326.132	271
1330.945	250
1335.753	238
1340.556	236
1345.354	233
1350.148	228
1354.937	232
1359.722	226
1364.501	224
1369.276	216
1374.046	222
1378.811	232
1383.572	217
1388.327	221
1393.079	217
1397.825	210
1402.567	202
1407.304	198
1412.036	207
1416.764	204
1421.487	214
1426.205	215
1430.919	227
1435.628	243
1440.333	271
1445.032	293
1449.727	294
1454.418	294
1459.104	285
1463.785	280
1468.462	265
1473.134	236
1477.802	212
1482.465	198
1487.123	180
1491.777	174
1496.426	168
1501.071	173
1505.711	163
1510.347	171
1514.978	169
1519.604	161
1524.226	167
1528.844	165
1533.457	164
1538.065	169
1542.669	161
1547.269	165
1551.864	161
1556.454	161
1561.041	162
1565.622	161
1570.199	159
1574.772	150
1579.34	166
1583.904	160
1588.464	162
1593.019	164
1597.569	163
1602.115	168
1606.657	166
1611.195	168
1615.728	176
1620.256	173
1624.78	169
1629.3	169
1633.816	170
1638.327	175
1642.834	178
1647.336	186
1651.834	187
1656.328	197
1660.817	202
1665.302	191
1669.783	191
1674.259	176
1678.732	170
1683.199	167
1687.663	163
1692.122	161
1696.577	144
1701.028	138
1705.474	139
1709.917	130
1714.355	127
1718.788	124
1723.218	125
1727.643	127
1732.064	121
1736.481	120
1740.893	123
1745.301	109
1749.705	110
1754.105	102
1758.501	103
1762.893	97
1767.28	95
1771.663	95
1776.042	84
1780.417	90
1784.787	83
1789.154	85
1793.516	95
1797.874	88
1802.228	90
1806.578	96
1810.924	84
1815.266	77
1819.603	81
1823.937	81
1828.266	82
1832.591	81
1836.913	78
1841.23	79
1845.543	75
1849.852	71
1854.156	77
1858.457	72
1862.754	78
1867.047	79
1871.335	75
1875.62	72
1879.9	79
1884.177	71
1888.449	77
1892.718	72
1896.982	74
1901.243	75
1905.499	79
1909.752	70
1914	74
1918.245	70
1922.485	75
1926.722	73
1930.954	76
1935.183	77
1939.408	72
1943.628	74
1947.845	73
1952.058	80
1956.267	77
1960.472	72
1964.673	75
1968.87	69
1973.063	69
1977.252	66
1981.438	66
1985.619	63
1989.797	62
1993.971	65
1998.14	62
2002.306	58
2006.469	64
2010.627	58
2014.781	62
2018.932	65
2023.078	63
2027.221	60
2031.36	64
2035.495	59
2039.627	58
2043.754	57
2047.878	55
2051.998	51
2056.114	55
2060.226	60
2064.334	63
2068.439	67
2072.54	58
2076.637	56
2080.73	58
2084.82	56
2088.906	59
2092.988	64
2097.066	65
2101.14	64
2105.211	61
2109.278	59
2113.342	54
2117.401	55
2121.457	53
2125.509	50
2129.558	58
2133.602	57
2137.643	57
2141.681	51
2145.714	54
2149.744	56
2153.77	48
2157.793	49
2161.812	53
2165.827	54
2169.838	51
2173.846	54
2177.851	49
2181.851	51
2185.848	47
2189.841	42
2193.831	43
2197.817	44
2201.799	46
2205.778	37
2209.753	39
2213.725	42
2217.693	41
2221.657	42
2225.618	41
2229.575	40
2233.529	37
2237.479	39
2241.425	35
2245.368	40
2249.307	36
2253.243	38
2257.175	41
2261.104	38
2265.029	33
2268.95	30
2272.868	30
2276.783	35
2280.694	33
2284.601	35
2288.505	34
2292.405	33
2296.302	27
2300.195	28
2304.085	21
2307.971	26
2311.854	31
2315.734	27
2319.609	24
2323.482	21
2327.351	24
2331.216	24
2335.078	25
2338.937	28
2342.792	25
2346.643	22
2350.492	25
2354.336	20
2358.178	21
2362.015	22
2365.85	12
2369.681	15
2373.508	17
2377.333	24
2381.153	17
2384.971	22
2388.785	19
2392.595	21
2396.402	17
2400.206	18
2404.007	15
2407.804	18
2411.597	20
2415.388	14
2419.174	14
2422.958	18
2426.738	14
2430.515	19
2434.289	15
2438.059	17
2441.825	12
2445.589	18
2449.349	16
2453.106	12
2456.859	12
2460.61	13
2464.356	16
2468.1	15
2471.84	17
2475.577	10
2479.311	11
2483.041	8
2486.768	17
2490.492	13
2494.213	13
2497.93	15
2501.644	9
2505.355	8
2509.062	7
2512.766	12
2516.467	13
2520.165	8
2523.859	14
2527.551	12
2531.239	12
2534.923	11
2538.605	9
2542.283	11
2545.958	14
2549.63	11
2553.299	12
2556.964	15
2560.626	14
2564.285	7
2567.941	9
2571.594	9
2575.243	10
2578.89	12
2582.533	16
2586.173	13
2589.809	11
2593.443	11
2597.073	10
2600.701	6
2604.325	7
2607.946	8
2611.564	10
2615.178	8
2618.79	9
2622.398	8
2626.004	12
2629.606	4
2633.205	5
2636.801	9
2640.394	8
2643.983	8
2647.57	7
2651.153	10
2654.734	3
2658.311	8
2661.885	8
2665.456	10
2669.025	9
2672.589	9
2676.151	8
2679.71	6
2683.266	12
2686.819	8
2690.368	4
2693.915	6
2697.458	11
2700.999	10
2704.536	7
2708.071	5
2711.602	8
2715.13	12
2718.656	11
2722.178	6
2725.697	11
2729.214	10
2732.727	11
2736.237	11
2739.744	8
2743.249	8
2746.75	12
2750.248	8
2753.743	10
2757.236	10
2760.725	12
2764.211	8
2767.695	7
2771.175	6
2774.652	4
2778.127	7
2781.598	8
2785.067	10
2788.532	10
2791.995	10
2795.455	9
2798.911	8
2802.365	10
2805.816	11
2809.264	13
2812.709	16
2816.151	14
2819.59	14
2823.026	22
2826.46	20
2829.89	23
2833.318	28
2836.742	32
2840.164	42
2843.583	48
2846.999	56
2850.412	69
2853.822	78
2857.229	84
2860.634	86
2864.035	80
2867.434	88
2870.83	89
2874.223	101
2877.613	100
2881	99
2884.385	104
2887.766	107
2891.145	107
2894.521	107
2897.894	118
2901.264	112
2904.631	108
2907.996	99
2911.358	104
2914.717	99
2918.073	101
2921.426	101
2924.777	104
2928.124	100
2931.469	101
2934.811	97
2938.15	98
2941.487	87
2944.821	87
2948.152	85
2951.48	73
2954.805	74
2958.128	72
2961.447	71
2964.765	61
2968.079	58
2971.39	50
2974.699	57
2978.005	55
2981.308	51
2984.609	49
2987.907	50
2991.202	49
2994.494	41
2997.784	36
3001.07	38
3004.355	37
3007.636	40
3010.915	42
3014.191	41
3017.464	40
3020.734	34
3024.002	31
3027.267	31
3030.53	31
3033.789	37
3037.046	36
3040.301	38
3043.552	34
3046.801	38
3050.048	33
3053.291	29
3056.532	37
3059.771	44
3063.006	34
3066.239	41
3069.469	48
3072.697	45
3075.922	45
3079.144	45
3082.364	48
3085.581	43
3088.795	52
3092.007	56
3095.216	57
3098.423	54
3101.627	58
3104.828	51
3108.026	58
3111.222	59
3114.416	64
3117.607	66
3120.795	70
3123.98	71
3127.163	70
3130.344	67
3133.521	73
3136.696	72
3139.869	71
3143.039	79
3146.206	81
3149.371	83
3152.533	79
3155.693	80
3158.85	78
3162.005	83
3165.157	85
3168.306	83
3171.453	81
3174.597	83
3177.739	89
3180.878	82
3184.014	87
3187.149	83
3190.28	87
3193.409	77
3196.536	85
3199.659	88
3202.781	91
3205.9	86
3209.016	91
3212.13	85
3215.241	86
3218.35	85
3221.456	87
3224.56	81
3227.661	82
3230.76	83
3233.856	75
3236.95	76
3240.041	81
3243.13	76
3246.216	77
3249.3	74
3252.382	75
3255.46	76
3258.537	78
3261.611	75
3264.682	74
3267.751	77
3270.818	74
3273.882	78
3276.943	72
3280.002	71
3283.059	80
3286.113	70
3289.165	69
3292.214	68
3295.261	67
3298.306	70
3301.348	66
3304.387	65
3307.425	63
3310.459	58
3313.492	61
3316.521	65
3319.549	59
3322.574	58
3325.597	56
3328.617	57
3331.635	57
3334.65	62
3337.663	56
3340.674	54
3343.682	58
3346.688	51
3349.691	56
3352.692	49
3355.691	54
3358.687	54
3361.681	55
3364.673	53
3367.662	53
3370.649	53
3373.633	46
3376.615	45
3379.595	49
3382.572	45
3385.547	48
3388.52	46
3391.49	46
3394.458	46
3397.424	36
3400.387	38
3403.348	45
3406.307	38
3409.263	45
3412.217	46
3415.168	43
3418.118	38
3421.065	34
3424.009	36
3426.951	41
3429.891	36
3432.829	31
3435.764	38
3438.697	35
3441.628	37
3444.557	30
3447.483	29
3450.407	29
3453.328	29
3456.247	26
3459.164	27
3462.079	25
3464.991	22
3467.902	25
3470.809	20
3473.715	20
3476.618	18
3479.519	17
3482.418	16
3485.315	20
3488.209	19
3491.101	16
3493.99	11
3496.878	13
3499.763	13
3502.646	8
3505.527	11
3508.405	11
3511.281	2
3514.155	8
3517.027	8
3519.897	7
3522.764	7
3525.629	3
3528.492	3
3531.352	0
3534.211	0
3537.067	-4
3539.921	0
3542.773	2
3545.622	2
3548.469	-2
3551.315	-2
3554.157	0
3556.998	-9
3559.837	-10
3562.673	-7
3565.507	-9
3568.339	-8
3571.169	-5
3573.996	-2
3576.822	-5
3579.645	-13
3582.466	-8
3585.285	-14
3588.101	-15
3590.916	-11
3593.728	-11
3596.538	-6
3599.346	-11
3602.152	-12
3604.956	-15
3607.757	-13
3610.556	-13
3613.354	-15
3616.149	-14
3618.942	-14
3621.732	-15
3624.521	-16
3627.307	-19
3630.092	-16
3632.874	-10
3635.654	-17
3638.432	-16
3641.208	-17
3643.982	-16
3646.753	-18
3649.523	-16
3652.29	-17
3655.055	-18
3657.818	-14
3660.579	-18
3663.338	-20
3666.095	-22
3668.849	-17
3671.602	-17
3674.352	-15
3677.101	-19
3679.847	-24
3682.591	-19
3685.333	-19
3688.073	-20
3690.811	-21
3693.547	-16
3696.281	-15
3699.013	-18
3701.742	-15
3704.47	-15
3707.195	-21
3709.919	-24
3712.64	-20
3715.359	-21
3718.076	-21
3720.792	-18
3723.505	-14
3726.216	-19
3728.925	-22
3731.632	-26
3734.336	-25
3737.039	-21
3739.74	-22
3742.439	-20
3745.136	-19
3747.83	-18
3750.523	-24
3753.213	-25
3755.902	-25
3758.589	-20
3761.273	-24
3763.956	-20
3766.636	-22
3769.315	-21
3771.991	-20
3774.665	-25
3777.338	-23
3780.008	-24
3782.677	-25
3785.343	-23
3788.007	-20
3790.67	-18
3793.33	-22
3795.989	-18
3798.645	-23
3801.299	-16
3803.952	-19
3806.602	-23
3809.251	-22
3811.897	-22
3814.542	-26
3817.184	-22
3819.825	-21
3822.463	-23
3825.1	-24
3827.735	-25
3830.367	-21
3832.998	-24
3835.627	-25
3838.253	-21
3840.878	-23
3843.501	-19
3846.122	-23
3848.741	-20
3851.358	-22
3853.973	-25
3856.586	-22
3859.197	-23
3861.806	-21
3864.414	-18
3867.019	-25
3869.622	-22
3872.224	-19
3874.823	-23
3877.421	-24
3880.016	-19
3882.61	-18
3885.202	-16
3887.792	-14
3890.38	-16
3892.966	-18
3895.55	-22
3898.132	-23
3900.713	-27
3903.291	-27
3905.868	-26
3908.442	-23
3911.015	-21
3913.586	-22
3916.155	-23
3918.722	-24
3921.287	-23
3923.85	-26
3926.411	-22
3928.971	-20
3931.528	-23
3934.084	-19
3936.638	-18
3939.19	-20
3941.74	-24
3944.288	-23
3946.834	-26
3949.378	-25
3951.921	-21
3954.462	-22
3957	-19
3959.537	-18
3962.072	-23
3964.606	-26
3967.137	-24
3969.667	-23
3972.194	-24
3974.72	-19
3977.244	-23
3979.766	-21
3982.286	-21
3984.805	-24
3987.321	-23
3989.836	-24
3992.349	-23
3994.86	-21
3997.369	-22
3999.877	-20
4002.382	-16
4004.886	-20
4007.388	-22
4009.888	-29
4012.386	-24
4014.883	-20
4017.377	-23
4019.87	-19
4022.361	-17
4024.85	-21
4027.338	-20
4029.823	-27
4032.307	-26
4034.789	-26
4037.269	-21
4039.747	-20
4042.224	-21
4044.699	-21
4047.172	-19
4049.643	-19
4052.112	-23
4054.58	-26
4057.046	-24
4059.51	-17
4061.972	-19
4064.432	-21
4066.891	-22
4069.348	-25
4071.803	-23
4074.256	-26
4076.708	-22
4079.158	-19
4081.606	-20
4084.052	-25
4086.497	-24
4088.939	-24
4091.38	-22
4093.819	-25
4096.257	-25
4098.693	-24
4101.127	-20
4103.559	-23
4105.989	-6
4108.418	-6
4110.845	-10
4113.27	-6
4115.694	-11
4118.115	-8
4120.535	-22
4122.954	-27
4125.37	-25
4127.785	-20
4130.198	-22
4132.609	-24
4135.019	-23
4137.427	-23
4139.833	-25
4142.237	-24
