Data from 100000CFU2_A_RamanShift_1.txt Node
Date: Mon Feb 13 13:40:39 IST 2017
User: aro
Spectrometer: QEPB0276
Trigger mode: 0
Integration Time (sec): 5.000000E0
Scans to average: 1
Electric dark correction enabled: true
Nonlinearity correction enabled: false
Boxcar width: 0
XAxis mode: Raman Shifts
Number of Pixels in Spectrum: 1044
>>>>>Begin Spectral Data<<<<<
160.701	-1.5
166.742	3.5
172.777	16.5
178.805	68.5
184.826	174.5
190.841	353.5
196.849	549.5
202.85	694.5
208.845	740.5
214.833	728.5
220.815	705.5
226.789	690.5
232.758	700.5
238.719	692.5
244.674	676.5
250.623	671.5
256.565	643.5
262.5	630.5
268.429	615.5
274.351	605.5
280.267	600.5
286.176	595.5
292.079	589.5
297.975	580.5
303.865	584.5
309.748	575.5
315.625	566.5
321.495	582.5
327.359	570.5
333.217	569.5
339.068	577.5
344.912	572.5
350.751	580.5
356.583	593.5
362.408	590.5
368.227	594.5
374.04	575.5
379.847	579.5
385.647	576.5
391.44	566.5
397.228	580.5
403.009	590.5
408.784	591.5
414.553	592.5
420.315	588.5
426.071	597.5
431.821	596.5
437.565	601.5
443.302	592.5
449.033	599.5
454.758	603.5
460.477	591.5
466.189	583.5
471.896	558.5
477.596	574.5
483.29	558.5
488.978	560.5
494.66	544.5
500.335	527.5
506.005	509.5
511.668	490.5
517.325	465.5
522.977	461.5
528.622	451.5
534.261	429.5
539.894	430.5
545.521	420.5
551.141	421.5
556.756	407.5
562.365	396.5
567.968	395.5
573.565	396.5
579.155	390.5
584.74	399.5
590.319	392.5
595.892	388.5
601.459	388.5
607.02	380.5
612.575	376.5
618.124	371.5
623.667	364.5
629.204	364.5
634.735	367.5
640.261	359.5
645.781	352.5
651.294	353.5
656.802	353.5
662.304	345.5
667.8	341.5
673.29	347.5
678.775	346.5
684.254	333.5
689.726	337.5
695.193	335.5
700.655	330.5
706.11	335.5
711.56	334.5
717.004	315.5
722.442	332.5
727.874	325.5
733.301	323.5
738.722	314.5
744.137	319.5
749.547	316.5
754.951	323.5
760.349	316.5
765.741	316.5
771.128	332.5
776.509	323.5
781.885	326.5
787.254	334.5
792.618	335.5
797.977	317.5
803.33	329.5
808.677	324.5
814.019	321.5
819.355	327.5
824.686	317.5
830.011	320.5
835.33	330.5
840.644	322.5
845.952	331.5
851.255	332.5
856.552	338.5
861.844	331.5
867.13	328.5
872.41	334.5
877.686	337.5
882.955	336.5
888.219	337.5
893.478	323.5
898.731	314.5
903.979	310.5
909.221	307.5
914.458	298.5
919.69	291.5
924.916	294.5
930.136	298.5
935.351	291.5
940.561	291.5
945.766	302.5
950.965	294.5
956.158	280.5
961.347	282.5
966.529	281.5
971.707	267.5
976.879	269.5
982.046	265.5
987.208	266.5
992.364	264.5
997.515	265.5
1002.66	274.5
1007.801	269.5
1012.936	288.5
1018.066	284.5
1023.19	291.5
1028.309	291.5
1033.423	298.5
1038.532	291.5
1043.636	285.5
1048.734	291.5
1053.827	299.5
1058.915	297.5
1063.998	312.5
1069.075	315.5
1074.147	310.5
1079.214	314.5
1084.276	330.5
1089.333	322.5
1094.385	314.5
1099.431	313.5
1104.472	304.5
1109.509	295.5
1114.54	283.5
1119.565	290.5
1124.586	297.5
1129.602	285.5
1134.613	279.5
1139.618	267.5
1144.619	258.5
1149.614	253.5
1154.604	253.5
1159.589	242.5
1164.57	251.5
1169.545	238.5
1174.515	243.5
1179.48	244.5
1184.44	237.5
1189.395	229.5
1194.345	221.5
1199.29	220.5
1204.23	226.5
1209.165	228.5
1214.095	227.5
1219.021	227.5
1223.941	228.5
1228.856	237.5
1233.766	234.5
1238.672	243.5
1243.572	239.5
1248.467	249.5
1253.358	247.5
1258.244	247.5
1263.124	254.5
1268	252.5
1272.871	253.5
1277.737	245.5
1282.599	239.5
1287.455	241.5
1292.306	233.5
1297.153	258.5
1301.995	273.5
1306.832	270.5
1311.664	274.5
1316.491	253.5
1321.314	254.5
1326.132	237.5
1330.945	228.5
1335.753	222.5
1340.556	222.5
1345.354	215.5
1350.148	218.5
1354.937	217.5
1359.722	201.5
1364.501	208.5
1369.276	199.5
1374.046	205.5
1378.811	207.5
1383.572	205.5
1388.327	203.5
1393.079	195.5
1397.825	192.5
1402.567	191.5
1407.304	182.5
1412.036	184.5
1416.764	185.5
1421.487	188.5
1426.205	194.5
1430.919	208.5
1435.628	239.5
1440.333	245.5
1445.032	266.5
1449.727	269.5
1454.418	272.5
1459.104	260.5
1463.785	249.5
1468.462	241.5
1473.134	220.5
1477.802	198.5
1482.465	181.5
1487.123	169.5
1491.777	158.5
1496.426	155.5
1501.071	155.5
1505.711	152.5
1510.347	151.5
1514.978	150.5
1519.604	157.5
1524.226	158.5
1528.844	154.5
1533.457	151.5
1538.065	157.5
1542.669	149.5
1547.269	143.5
1551.864	140.5
1556.454	148.5
1561.041	141.5
1565.622	141.5
1570.199	144.5
1574.772	147.5
1579.34	156.5
1583.904	147.5
1588.464	154.5
1593.019	145.5
1597.569	144.5
1602.115	153.5
1606.657	146.5
1611.195	159.5
1615.728	162.5
1620.256	154.5
1624.78	150.5
1629.3	159.5
1633.816	156.5
1638.327	158.5
1642.834	166.5
1647.336	172.5
1651.834	177.5
1656.328	186.5
1660.817	187.5
1665.302	176.5
1669.783	172.5
1674.259	167.5
1678.732	157.5
1683.199	147.5
1687.663	146.5
1692.122	144.5
1696.577	135.5
1701.028	125.5
1705.474	124.5
1709.917	116.5
1714.355	114.5
1718.788	116.5
1723.218	109.5
1727.643	115.5
1732.064	112.5
1736.481	110.5
1740.893	107.5
1745.301	103.5
1749.705	103.5
1754.105	96.5
1758.501	88.5
1762.893	94.5
1767.28	82.5
1771.663	82.5
1776.042	82.5
1780.417	82.5
1784.787	77.5
1789.154	84.5
1793.516	83.5
1797.874	81.5
1802.228	82.5
1806.578	87.5
1810.924	80.5
1815.266	74.5
1819.603	77.5
1823.937	77.5
1828.266	74.5
1832.591	76.5
1836.913	70.5
1841.23	71.5
1845.543	72.5
1849.852	70.5
1854.156	66.5
1858.457	67.5
1862.754	69.5
1867.047	70.5
1871.335	70.5
1875.62	67.5
1879.9	65.5
1884.177	63.5
1888.449	72.5
1892.718	73.5
1896.982	66.5
1901.243	67.5
1905.499	67.5
1909.752	66.5
1914	67.5
1918.245	59.5
1922.485	65.5
1926.722	69.5
1930.954	71.5
1935.183	73.5
1939.408	68.5
1943.628	69.5
1947.845	66.5
1952.058	69.5
1956.267	62.5
1960.472	65.5
1964.673	68.5
1968.87	60.5
1973.063	65.5
1977.252	60.5
1981.438	55.5
1985.619	55.5
1989.797	54.5
1993.971	55.5
1998.14	57.5
2002.306	55.5
2006.469	65.5
2010.627	58.5
2014.781	54.5
2018.932	56.5
2023.078	49.5
2027.221	53.5
2031.36	55.5
2035.495	50.5
2039.627	58.5
2043.754	54.5
2047.878	53.5
2051.998	53.5
2056.114	53.5
2060.226	48.5
2064.334	51.5
2068.439	50.5
2072.54	56.5
2076.637	54.5
2080.73	52.5
2084.82	57.5
2088.906	55.5
2092.988	54.5
2097.066	55.5
2101.14	51.5
2105.211	53.5
2109.278	54.5
2113.342	56.5
2117.401	55.5
2121.457	49.5
2125.509	47.5
2129.558	48.5
2133.602	53.5
2137.643	46.5
2141.681	50.5
2145.714	54.5
2149.744	50.5
2153.77	45.5
2157.793	45.5
2161.812	48.5
2165.827	49.5
2169.838	44.5
2173.846	41.5
2177.851	38.5
2181.851	45.5
2185.848	39.5
2189.841	38.5
2193.831	42.5
2197.817	45.5
2201.799	39.5
2205.778	34.5
2209.753	32.5
2213.725	37.5
2217.693	38.5
2221.657	39.5
2225.618	40.5
2229.575	38.5
2233.529	33.5
2237.479	31.5
2241.425	31.5
2245.368	36.5
2249.307	33.5
2253.243	35.5
2257.175	35.5
2261.104	32.5
2265.029	32.5
2268.95	23.5
2272.868	22.5
2276.783	28.5
2280.694	26.5
2284.601	29.5
2288.505	29.5
2292.405	30.5
2296.302	26.5
2300.195	22.5
2304.085	20.5
2307.971	17.5
2311.854	27.5
2315.734	25.5
2319.609	23.5
2323.482	19.5
2327.351	21.5
2331.216	22.5
2335.078	22.5
2338.937	23.5
2342.792	20.5
2346.643	23.5
2350.492	24.5
2354.336	18.5
2358.178	17.5
2362.015	18.5
2365.85	15.5
2369.681	15.5
2373.508	12.5
2377.333	18.5
2381.153	20.5
2384.971	18.5
2388.785	17.5
2392.595	16.5
2396.402	16.5
2400.206	20.5
2404.007	14.5
2407.804	19.5
2411.597	15.5
2415.388	14.5
2419.174	16.5
2422.958	15.5
2426.738	10.5
2430.515	13.5
2434.289	12.5
2438.059	13.5
2441.825	9.5
2445.589	14.5
2449.349	10.5
2453.106	11.5
2456.859	11.5
2460.61	11.5
2464.356	16.5
2468.1	11.5
2471.84	15.5
2475.577	9.5
2479.311	8.5
2483.041	7.5
2486.768	12.5
2490.492	16.5
2494.213	13.5
2497.93	12.5
2501.644	11.5
2505.355	7.5
2509.062	6.5
2512.766	10.5
2516.467	9.5
2520.165	10.5
2523.859	10.5
2527.551	10.5
2531.239	6.5
2534.923	3.5
2538.605	6.5
2542.283	8.5
2545.958	10.5
2549.63	11.5
2553.299	11.5
2556.964	16.5
2560.626	10.5
2564.285	5.5
2567.941	8.5
2571.594	4.5
2575.243	6.5
2578.89	10.5
2582.533	10.5
2586.173	11.5
2589.809	9.5
2593.443	4.5
2597.073	8.5
2600.701	9.5
2604.325	6.5
2607.946	6.5
2611.564	8.5
2615.178	8.5
2618.79	7.5
2622.398	9.5
2626.004	3.5
2629.606	9.5
2633.205	2.5
2636.801	9.5
2640.394	8.5
2643.983	11.5
2647.57	6.5
2651.153	9.5
2654.734	5.5
2658.311	4.5
2661.885	5.5
2665.456	7.5
2669.025	6.5
2672.589	6.5
2676.151	7.5
2679.71	3.5
2683.266	6.5
2686.819	3.5
2690.368	3.5
2693.915	6.5
2697.458	6.5
2700.999	4.5
2704.536	9.5
2708.071	2.5
2711.602	5.5
2715.13	11.5
2718.656	7.5
2722.178	11.5
2725.697	9.5
2729.214	10.5
2732.727	10.5
2736.237	9.5
2739.744	5.5
2743.249	6.5
2746.75	8.5
2750.248	8.5
2753.743	9.5
2757.236	7.5
2760.725	11.5
2764.211	6.5
2767.695	8.5
2771.175	1.5
2774.652	4.5
2778.127	5.5
2781.598	5.5
2785.067	11.5
2788.532	6.5
2791.995	9.5
2795.455	9.5
2798.911	5.5
2802.365	8.5
2805.816	8.5
2809.264	9.5
2812.709	11.5
2816.151	13.5
2819.59	15.5
2823.026	20.5
2826.46	17.5
2829.89	21.5
2833.318	22.5
2836.742	24.5
2840.164	33.5
2843.583	40.5
2846.999	55.5
2850.412	65.5
2853.822	71.5
2857.229	74.5
2860.634	72.5
2864.035	76.5
2867.434	75.5
2870.83	80.5
2874.223	86.5
2877.613	87.5
2881	93.5
2884.385	95.5
2887.766	97.5
2891.145	90.5
2894.521	95.5
2897.894	101.5
2901.264	95.5
2904.631	94.5
2907.996	94.5
2911.358	96.5
2914.717	86.5
2918.073	89.5
2921.426	87.5
2924.777	85.5
2928.124	91.5
2931.469	86.5
2934.811	84.5
2938.15	82.5
2941.487	81.5
2944.821	78.5
2948.152	74.5
2951.48	67.5
2954.805	66.5
2958.128	57.5
2961.447	57.5
2964.765	55.5
2968.079	54.5
2971.39	49.5
2974.699	49.5
2978.005	48.5
2981.308	46.5
2984.609	47.5
2987.907	45.5
2991.202	43.5
2994.494	34.5
2997.784	33.5
3001.07	42.5
3004.355	38.5
3007.636	38.5
3010.915	42.5
3014.191	39.5
3017.464	33.5
3020.734	34.5
3024.002	25.5
3027.267	31.5
3030.53	27.5
3033.789	31.5
3037.046	33.5
3040.301	34.5
3043.552	32.5
3046.801	30.5
3050.048	28.5
3053.291	27.5
3056.532	28.5
3059.771	38.5
3063.006	32.5
3066.239	45.5
3069.469	37.5
3072.697	43.5
3075.922	40.5
3079.144	40.5
3082.364	38.5
3085.581	41.5
3088.795	43.5
3092.007	50.5
3095.216	54.5
3098.423	49.5
3101.627	53.5
3104.828	51.5
3108.026	52.5
3111.222	52.5
3114.416	53.5
3117.607	60.5
3120.795	63.5
3123.98	65.5
3127.163	59.5
3130.344	62.5
3133.521	70.5
3136.696	68.5
3139.869	64.5
3143.039	67.5
3146.206	73.5
3149.371	74.5
3152.533	73.5
3155.693	70.5
3158.85	75.5
3162.005	77.5
3165.157	72.5
3168.306	71.5
3171.453	72.5
3174.597	77.5
3177.739	75.5
3180.878	80.5
3184.014	79.5
3187.149	76.5
3190.28	73.5
3193.409	76.5
3196.536	79.5
3199.659	81.5
3202.781	78.5
3205.9	78.5
3209.016	77.5
3212.13	73.5
3215.241	76.5
3218.35	75.5
3221.456	74.5
3224.56	78.5
3227.661	75.5
3230.76	70.5
3233.856	68.5
3236.95	69.5
3240.041	72.5
3243.13	69.5
3246.216	68.5
3249.3	68.5
3252.382	70.5
3255.46	62.5
3258.537	65.5
3261.611	76.5
3264.682	66.5
3267.751	72.5
3270.818	70.5
3273.882	71.5
3276.943	62.5
3280.002	61.5
3283.059	64.5
3286.113	65.5
3289.165	62.5
3292.214	67.5
3295.261	61.5
3298.306	63.5
3301.348	59.5
3304.387	55.5
3307.425	53.5
3310.459	48.5
3313.492	52.5
3316.521	56.5
3319.549	53.5
3322.574	54.5
3325.597	53.5
3328.617	49.5
3331.635	54.5
3334.65	45.5
3337.663	46.5
3340.674	48.5
3343.682	52.5
3346.688	43.5
3349.691	50.5
3352.692	47.5
3355.691	46.5
3358.687	48.5
3361.681	49.5
3364.673	45.5
3367.662	47.5
3370.649	46.5
3373.633	46.5
3376.615	46.5
3379.595	41.5
3382.572	37.5
3385.547	38.5
3388.52	37.5
3391.49	45.5
3394.458	41.5
3397.424	37.5
3400.387	37.5
3403.348	35.5
3406.307	36.5
3409.263	35.5
3412.217	35.5
3415.168	37.5
3418.118	37.5
3421.065	32.5
3424.009	36.5
3426.951	35.5
3429.891	30.5
3432.829	35.5
3435.764	32.5
3438.697	27.5
3441.628	31.5
3444.557	28.5
3447.483	29.5
3450.407	26.5
3453.328	26.5
3456.247	27.5
3459.164	26.5
3462.079	21.5
3464.991	21.5
3467.902	21.5
3470.809	21.5
3473.715	16.5
3476.618	16.5
3479.519	19.5
3482.418	19.5
3485.315	17.5
3488.209	9.5
3491.101	14.5
3493.99	11.5
3496.878	8.5
3499.763	12.5
3502.646	11.5
3505.527	12.5
3508.405	15.5
3511.281	2.5
3514.155	0.5
3517.027	2.5
3519.897	3.5
3522.764	3.5
3525.629	5.5
3528.492	6.5
3531.352	1.5
3534.211	-0.5
3537.067	-3.5
3539.921	-2.5
3542.773	-0.5
3545.622	-1.5
3548.469	-1.5
3551.315	1.5
3554.157	-3.5
3556.998	-4.5
3559.837	-6.5
3562.673	-11.5
3565.507	-8.5
3568.339	-11.5
3571.169	-5.5
3573.996	-1.5
3576.822	-6.5
3579.645	-9.5
3582.466	-5.5
3585.285	-11.5
3588.101	-12.5
3590.916	-11.5
3593.728	-13.5
3596.538	-9.5
3599.346	-8.5
3602.152	-10.5
3604.956	-13.5
3607.757	-14.5
3610.556	-10.5
3613.354	-12.5
3616.149	-13.5
3618.942	-10.5
3621.732	-15.5
3624.521	-14.5
3627.307	-15.5
3630.092	-12.5
3632.874	-11.5
3635.654	-16.5
3638.432	-17.5
3641.208	-16.5
3643.982	-17.5
3646.753	-19.5
3649.523	-14.5
3652.29	-17.5
3655.055	-14.5
3657.818	-13.5
3660.579	-14.5
3663.338	-17.5
3666.095	-18.5
3668.849	-17.5
3671.602	-18.5
3674.352	-16.5
3677.101	-14.5
3679.847	-19.5
3682.591	-15.5
3685.333	-20.5
3688.073	-19.5
3690.811	-23.5
3693.547	-18.5
3696.281	-13.5
3699.013	-16.5
3701.742	-15.5
3704.47	-13.5
3707.195	-20.5
3709.919	-22.5
3712.64	-21.5
3715.359	-20.5
3718.076	-19.5
3720.792	-15.5
3723.505	-16.5
3726.216	-18.5
3728.925	-19.5
3731.632	-22.5
3734.336	-22.5
3737.039	-20.5
3739.74	-20.5
3742.439	-18.5
3745.136	-18.5
3747.83	-18.5
3750.523	-19.5
3753.213	-22.5
3755.902	-19.5
3758.589	-18.5
3761.273	-22.5
3763.956	-19.5
3766.636	-19.5
3769.315	-22.5
3771.991	-21.5
3774.665	-20.5
3777.338	-22.5
3780.008	-22.5
3782.677	-20.5
3785.343	-21.5
3788.007	-21.5
3790.67	-18.5
3793.33	-20.5
3795.989	-17.5
3798.645	-21.5
3801.299	-17.5
3803.952	-19.5
3806.602	-21.5
3809.251	-21.5
3811.897	-20.5
3814.542	-23.5
3817.184	-21.5
3819.825	-20.5
3822.463	-21.5
3825.1	-19.5
3827.735	-21.5
3830.367	-18.5
3832.998	-23.5
3835.627	-24.5
3838.253	-17.5
3840.878	-20.5
3843.501	-19.5
3846.122	-21.5
3848.741	-18.5
3851.358	-22.5
3853.973	-20.5
3856.586	-19.5
3859.197	-22.5
3861.806	-18.5
3864.414	-21.5
3867.019	-21.5
3869.622	-20.5
3872.224	-19.5
3874.823	-22.5
3877.421	-21.5
3880.016	-17.5
3882.61	-14.5
3885.202	-12.5
3887.792	-12.5
3890.38	-15.5
3892.966	-15.5
3895.55	-21.5
3898.132	-22.5
3900.713	-26.5
3903.291	-22.5
3905.868	-22.5
3908.442	-20.5
3911.015	-19.5
3913.586	-20.5
3916.155	-21.5
3918.722	-19.5
3921.287	-23.5
3923.85	-21.5
3926.411	-21.5
3928.971	-22.5
3931.528	-19.5
3934.084	-16.5
3936.638	-17.5
3939.19	-17.5
3941.74	-22.5
3944.288	-22.5
3946.834	-26.5
3949.378	-23.5
3951.921	-21.5
3954.462	-17.5
3957	-20.5
3959.537	-16.5
3962.072	-20.5
3964.606	-23.5
3967.137	-20.5
3969.667	-19.5
3972.194	-26.5
3974.72	-23.5
3977.244	-21.5
3979.766	-21.5
3982.286	-18.5
3984.805	-18.5
3987.321	-21.5
3989.836	-20.5
3992.349	-18.5
3994.86	-19.5
3997.369	-21.5
3999.877	-18.5
4002.382	-20.5
4004.886	-19.5
4007.388	-21.5
4009.888	-21.5
4012.386	-21.5
4014.883	-21.5
4017.377	-20.5
4019.87	-19.5
4022.361	-19.5
4024.85	-19.5
4027.338	-22.5
4029.823	-20.5
4032.307	-21.5
4034.789	-20.5
4037.269	-19.5
4039.747	-18.5
4042.224	-19.5
4044.699	-22.5
4047.172	-22.5
4049.643	-19.5
4052.112	-21.5
4054.58	-19.5
4057.046	-18.5
4059.51	-14.5
4061.972	-21.5
4064.432	-22.5
4066.891	-24.5
4069.348	-23.5
4071.803	-21.5
4074.256	-20.5
4076.708	-17.5
4079.158	-18.5
4081.606	-21.5
4084.052	-23.5
4086.497	-26.5
4088.939	-24.5
4091.38	-16.5
4093.819	-19.5
4096.257	-21.5
4098.693	-23.5
4101.127	-17.5
4103.559	-20.5
4105.989	-5.5
4108.418	-11.5
4110.845	-10.5
4113.27	-4.5
4115.694	-5.5
4118.115	-4.5
4120.535	-18.5
4122.954	-18.5
4125.37	-19.5
4127.785	-17.5
4130.198	-21.5
4132.609	-22.5
4135.019	-23.5
4137.427	-22.5
4139.833	-20.5
4142.237	-20.5
