Data from 10000000CFU1_A_RamanShift_1.txt Node
Date: Mon Feb 13 13:47:19 IST 2017
User: aro
Spectrometer: QEPB0276
Trigger mode: 0
Integration Time (sec): 5.000000E0
Scans to average: 1
Electric dark correction enabled: true
Nonlinearity correction enabled: false
Boxcar width: 0
XAxis mode: Raman Shifts
Number of Pixels in Spectrum: 1044
>>>>>Begin Spectral Data<<<<<
160.701	-5.5
166.742	1.5
172.777	22.5
178.805	71.5
184.826	186.5
190.841	373.5
196.849	591.5
202.85	743.5
208.845	775.5
214.833	762.5
220.815	737.5
226.789	743.5
232.758	743.5
238.719	726.5
244.674	708.5
250.623	695.5
256.565	670.5
262.5	661.5
268.429	646.5
274.351	631.5
280.267	624.5
286.176	605.5
292.079	607.5
297.975	606.5
303.865	617.5
309.748	590.5
315.625	589.5
321.495	595.5
327.359	588.5
333.217	589.5
339.068	596.5
344.912	596.5
350.751	610.5
356.583	605.5
362.408	616.5
368.227	604.5
374.04	601.5
379.847	596.5
385.647	583.5
391.44	597.5
397.228	601.5
403.009	612.5
408.784	614.5
414.553	619.5
420.315	618.5
426.071	623.5
431.821	617.5
437.565	625.5
443.302	617.5
449.033	615.5
454.758	614.5
460.477	611.5
466.189	595.5
471.896	590.5
477.596	585.5
483.29	583.5
488.978	573.5
494.66	573.5
500.335	545.5
506.005	541.5
511.668	527.5
517.325	486.5
522.977	474.5
528.622	463.5
534.261	447.5
539.894	441.5
545.521	433.5
551.141	425.5
556.756	416.5
562.365	417.5
567.968	414.5
573.565	402.5
579.155	397.5
584.74	404.5
590.319	396.5
595.892	409.5
601.459	399.5
607.02	401.5
612.575	390.5
618.124	394.5
623.667	387.5
629.204	386.5
634.735	369.5
640.261	379.5
645.781	365.5
651.294	369.5
656.802	364.5
662.304	361.5
667.8	365.5
673.29	353.5
678.775	357.5
684.254	351.5
689.726	349.5
695.193	346.5
700.655	350.5
706.11	341.5
711.56	342.5
717.004	346.5
722.442	351.5
727.874	341.5
733.301	333.5
738.722	331.5
744.137	334.5
749.547	321.5
754.951	330.5
760.349	341.5
765.741	337.5
771.128	336.5
776.509	331.5
781.885	342.5
787.254	346.5
792.618	342.5
797.977	344.5
803.33	338.5
808.677	336.5
814.019	332.5
819.355	333.5
824.686	332.5
830.011	341.5
835.33	337.5
840.644	335.5
845.952	341.5
851.255	353.5
856.552	344.5
861.844	355.5
867.13	350.5
872.41	347.5
877.686	349.5
882.955	355.5
888.219	350.5
893.478	340.5
898.731	330.5
903.979	325.5
909.221	316.5
914.458	313.5
919.69	303.5
924.916	308.5
930.136	307.5
935.351	293.5
940.561	295.5
945.766	298.5
950.965	299.5
956.158	300.5
961.347	290.5
966.529	293.5
971.707	280.5
976.879	277.5
982.046	277.5
987.208	273.5
992.364	276.5
997.515	287.5
1002.66	290.5
1007.801	289.5
1012.936	305.5
1018.066	297.5
1023.19	300.5
1028.309	297.5
1033.423	309.5
1038.532	308.5
1043.636	307.5
1048.734	306.5
1053.827	312.5
1058.915	309.5
1063.998	322.5
1069.075	326.5
1074.147	323.5
1079.214	328.5
1084.276	340.5
1089.333	339.5
1094.385	336.5
1099.431	331.5
1104.472	326.5
1109.509	313.5
1114.54	303.5
1119.565	306.5
1124.586	306.5
1129.602	302.5
1134.613	298.5
1139.618	282.5
1144.619	270.5
1149.614	259.5
1154.604	266.5
1159.589	265.5
1164.57	254.5
1169.545	258.5
1174.515	249.5
1179.48	245.5
1184.44	237.5
1189.395	238.5
1194.345	226.5
1199.29	229.5
1204.23	233.5
1209.165	238.5
1214.095	232.5
1219.021	238.5
1223.941	236.5
1228.856	246.5
1233.766	253.5
1238.672	256.5
1243.572	264.5
1248.467	256.5
1253.358	265.5
1258.244	263.5
1263.124	262.5
1268	256.5
1272.871	265.5
1277.737	262.5
1282.599	252.5
1287.455	253.5
1292.306	251.5
1297.153	263.5
1301.995	287.5
1306.832	291.5
1311.664	294.5
1316.491	273.5
1321.314	267.5
1326.132	258.5
1330.945	243.5
1335.753	232.5
1340.556	236.5
1345.354	231.5
1350.148	224.5
1354.937	224.5
1359.722	214.5
1364.501	214.5
1369.276	216.5
1374.046	214.5
1378.811	220.5
1383.572	213.5
1388.327	211.5
1393.079	212.5
1397.825	196.5
1402.567	197.5
1407.304	191.5
1412.036	199.5
1416.764	201.5
1421.487	209.5
1426.205	210.5
1430.919	215.5
1435.628	237.5
1440.333	262.5
1445.032	283.5
1449.727	288.5
1454.418	280.5
1459.104	274.5
1463.785	265.5
1468.462	251.5
1473.134	230.5
1477.802	210.5
1482.465	191.5
1487.123	169.5
1491.777	171.5
1496.426	159.5
1501.071	161.5
1505.711	158.5
1510.347	158.5
1514.978	163.5
1519.604	156.5
1524.226	161.5
1528.844	169.5
1533.457	154.5
1538.065	154.5
1542.669	156.5
1547.269	155.5
1551.864	152.5
1556.454	152.5
1561.041	155.5
1565.622	154.5
1570.199	154.5
1574.772	153.5
1579.34	155.5
1583.904	155.5
1588.464	161.5
1593.019	151.5
1597.569	153.5
1602.115	156.5
1606.657	154.5
1611.195	162.5
1615.728	164.5
1620.256	170.5
1624.78	162.5
1629.3	166.5
1633.816	158.5
1638.327	175.5
1642.834	171.5
1647.336	180.5
1651.834	185.5
1656.328	193.5
1660.817	196.5
1665.302	193.5
1669.783	187.5
1674.259	175.5
1678.732	162.5
1683.199	160.5
1687.663	158.5
1692.122	146.5
1696.577	148.5
1701.028	141.5
1705.474	135.5
1709.917	133.5
1714.355	122.5
1718.788	122.5
1723.218	115.5
1727.643	121.5
1732.064	112.5
1736.481	110.5
1740.893	107.5
1745.301	104.5
1749.705	105.5
1754.105	99.5
1758.501	94.5
1762.893	92.5
1767.28	87.5
1771.663	91.5
1776.042	87.5
1780.417	83.5
1784.787	83.5
1789.154	83.5
1793.516	88.5
1797.874	84.5
1802.228	91.5
1806.578	83.5
1810.924	81.5
1815.266	81.5
1819.603	76.5
1823.937	78.5
1828.266	76.5
1832.591	76.5
1836.913	73.5
1841.23	73.5
1845.543	73.5
1849.852	71.5
1854.156	70.5
1858.457	69.5
1862.754	68.5
1867.047	77.5
1871.335	71.5
1875.62	69.5
1879.9	69.5
1884.177	69.5
1888.449	69.5
1892.718	73.5
1896.982	69.5
1901.243	69.5
1905.499	65.5
1909.752	67.5
1914	63.5
1918.245	68.5
1922.485	70.5
1926.722	73.5
1930.954	73.5
1935.183	76.5
1939.408	66.5
1943.628	70.5
1947.845	68.5
1952.058	73.5
1956.267	70.5
1960.472	65.5
1964.673	71.5
1968.87	70.5
1973.063	70.5
1977.252	60.5
1981.438	57.5
1985.619	56.5
1989.797	59.5
1993.971	55.5
1998.14	61.5
2002.306	58.5
2006.469	60.5
2010.627	62.5
2014.781	57.5
2018.932	54.5
2023.078	54.5
2027.221	58.5
2031.36	58.5
2035.495	54.5
2039.627	54.5
2043.754	51.5
2047.878	55.5
2051.998	51.5
2056.114	50.5
2060.226	53.5
2064.334	57.5
2068.439	56.5
2072.54	57.5
2076.637	50.5
2080.73	51.5
2084.82	58.5
2088.906	56.5
2092.988	62.5
2097.066	58.5
2101.14	61.5
2105.211	59.5
2109.278	58.5
2113.342	52.5
2117.401	53.5
2121.457	53.5
2125.509	49.5
2129.558	49.5
2133.602	57.5
2137.643	57.5
2141.681	47.5
2145.714	55.5
2149.744	46.5
2153.77	51.5
2157.793	45.5
2161.812	49.5
2165.827	54.5
2169.838	45.5
2173.846	45.5
2177.851	41.5
2181.851	47.5
2185.848	45.5
2189.841	38.5
2193.831	43.5
2197.817	38.5
2201.799	41.5
2205.778	36.5
2209.753	37.5
2213.725	39.5
2217.693	40.5
2221.657	40.5
2225.618	42.5
2229.575	40.5
2233.529	30.5
2237.479	39.5
2241.425	31.5
2245.368	37.5
2249.307	39.5
2253.243	36.5
2257.175	37.5
2261.104	34.5
2265.029	31.5
2268.95	29.5
2272.868	27.5
2276.783	33.5
2280.694	31.5
2284.601	34.5
2288.505	29.5
2292.405	31.5
2296.302	27.5
2300.195	25.5
2304.085	22.5
2307.971	22.5
2311.854	22.5
2315.734	23.5
2319.609	22.5
2323.482	21.5
2327.351	22.5
2331.216	23.5
2335.078	24.5
2338.937	24.5
2342.792	24.5
2346.643	22.5
2350.492	19.5
2354.336	22.5
2358.178	19.5
2362.015	15.5
2365.85	12.5
2369.681	10.5
2373.508	17.5
2377.333	18.5
2381.153	21.5
2384.971	19.5
2388.785	17.5
2392.595	15.5
2396.402	14.5
2400.206	20.5
2404.007	12.5
2407.804	19.5
2411.597	18.5
2415.388	16.5
2419.174	13.5
2422.958	15.5
2426.738	14.5
2430.515	14.5
2434.289	10.5
2438.059	15.5
2441.825	7.5
2445.589	9.5
2449.349	7.5
2453.106	15.5
2456.859	13.5
2460.61	14.5
2464.356	12.5
2468.1	9.5
2471.84	12.5
2475.577	8.5
2479.311	10.5
2483.041	4.5
2486.768	10.5
2490.492	12.5
2494.213	12.5
2497.93	13.5
2501.644	14.5
2505.355	8.5
2509.062	5.5
2512.766	8.5
2516.467	8.5
2520.165	9.5
2523.859	11.5
2527.551	11.5
2531.239	9.5
2534.923	7.5
2538.605	8.5
2542.283	9.5
2545.958	10.5
2549.63	11.5
2553.299	9.5
2556.964	13.5
2560.626	8.5
2564.285	3.5
2567.941	10.5
2571.594	5.5
2575.243	6.5
2578.89	9.5
2582.533	12.5
2586.173	10.5
2589.809	12.5
2593.443	5.5
2597.073	9.5
2600.701	8.5
2604.325	7.5
2607.946	5.5
2611.564	9.5
2615.178	7.5
2618.79	6.5
2622.398	13.5
2626.004	6.5
2629.606	6.5
2633.205	4.5
2636.801	8.5
2640.394	10.5
2643.983	9.5
2647.57	0.5
2651.153	8.5
2654.734	2.5
2658.311	11.5
2661.885	10.5
2665.456	9.5
2669.025	7.5
2672.589	9.5
2676.151	4.5
2679.71	6.5
2683.266	4.5
2686.819	2.5
2690.368	2.5
2693.915	7.5
2697.458	12.5
2700.999	6.5
2704.536	8.5
2708.071	2.5
2711.602	4.5
2715.13	11.5
2718.656	7.5
2722.178	11.5
2725.697	13.5
2729.214	11.5
2732.727	12.5
2736.237	10.5
2739.744	11.5
2743.249	6.5
2746.75	8.5
2750.248	5.5
2753.743	9.5
2757.236	11.5
2760.725	13.5
2764.211	8.5
2767.695	9.5
2771.175	7.5
2774.652	-0.5
2778.127	2.5
2781.598	5.5
2785.067	6.5
2788.532	9.5
2791.995	12.5
2795.455	10.5
2798.911	7.5
2802.365	8.5
2805.816	11.5
2809.264	7.5
2812.709	9.5
2816.151	14.5
2819.59	18.5
2823.026	18.5
2826.46	20.5
2829.89	20.5
2833.318	27.5
2836.742	29.5
2840.164	34.5
2843.583	42.5
2846.999	54.5
2850.412	70.5
2853.822	75.5
2857.229	83.5
2860.634	82.5
2864.035	82.5
2867.434	82.5
2870.83	82.5
2874.223	93.5
2877.613	97.5
2881	93.5
2884.385	108.5
2887.766	109.5
2891.145	106.5
2894.521	110.5
2897.894	105.5
2901.264	105.5
2904.631	102.5
2907.996	101.5
2911.358	102.5
2914.717	95.5
2918.073	100.5
2921.426	96.5
2924.777	95.5
2928.124	99.5
2931.469	94.5
2934.811	93.5
2938.15	86.5
2941.487	86.5
2944.821	85.5
2948.152	89.5
2951.48	76.5
2954.805	79.5
2958.128	68.5
2961.447	65.5
2964.765	63.5
2968.079	57.5
2971.39	50.5
2974.699	57.5
2978.005	52.5
2981.308	51.5
2984.609	43.5
2987.907	45.5
2991.202	42.5
2994.494	41.5
2997.784	37.5
3001.07	39.5
3004.355	45.5
3007.636	40.5
3010.915	38.5
3014.191	39.5
3017.464	37.5
3020.734	31.5
3024.002	30.5
3027.267	32.5
3030.53	31.5
3033.789	35.5
3037.046	35.5
3040.301	39.5
3043.552	32.5
3046.801	36.5
3050.048	33.5
3053.291	27.5
3056.532	37.5
3059.771	43.5
3063.006	39.5
3066.239	38.5
3069.469	45.5
3072.697	44.5
3075.922	44.5
3079.144	47.5
3082.364	47.5
3085.581	50.5
3088.795	51.5
3092.007	55.5
3095.216	56.5
3098.423	54.5
3101.627	52.5
3104.828	46.5
3108.026	58.5
3111.222	58.5
3114.416	61.5
3117.607	62.5
3120.795	72.5
3123.98	74.5
3127.163	70.5
3130.344	71.5
3133.521	72.5
3136.696	74.5
3139.869	79.5
3143.039	83.5
3146.206	82.5
3149.371	84.5
3152.533	84.5
3155.693	78.5
3158.85	79.5
3162.005	79.5
3165.157	83.5
3168.306	86.5
3171.453	88.5
3174.597	85.5
3177.739	87.5
3180.878	88.5
3184.014	90.5
3187.149	85.5
3190.28	86.5
3193.409	81.5
3196.536	85.5
3199.659	92.5
3202.781	85.5
3205.9	83.5
3209.016	84.5
3212.13	77.5
3215.241	82.5
3218.35	82.5
3221.456	82.5
3224.56	84.5
3227.661	82.5
3230.76	79.5
3233.856	82.5
3236.95	75.5
3240.041	76.5
3243.13	82.5
3246.216	78.5
3249.3	74.5
3252.382	78.5
3255.46	75.5
3258.537	79.5
3261.611	77.5
3264.682	69.5
3267.751	76.5
3270.818	72.5
3273.882	78.5
3276.943	72.5
3280.002	74.5
3283.059	78.5
3286.113	70.5
3289.165	73.5
3292.214	72.5
3295.261	68.5
3298.306	68.5
3301.348	66.5
3304.387	59.5
3307.425	66.5
3310.459	60.5
3313.492	61.5
3316.521	62.5
3319.549	63.5
3322.574	57.5
3325.597	57.5
3328.617	58.5
3331.635	53.5
3334.65	57.5
3337.663	56.5
3340.674	58.5
3343.682	57.5
3346.688	53.5
3349.691	56.5
3352.692	52.5
3355.691	53.5
3358.687	57.5
3361.681	56.5
3364.673	55.5
3367.662	49.5
3370.649	50.5
3373.633	44.5
3376.615	46.5
3379.595	41.5
3382.572	46.5
3385.547	45.5
3388.52	47.5
3391.49	43.5
3394.458	44.5
3397.424	44.5
3400.387	45.5
3403.348	41.5
3406.307	39.5
3409.263	44.5
3412.217	42.5
3415.168	51.5
3418.118	39.5
3421.065	40.5
3424.009	33.5
3426.951	38.5
3429.891	32.5
3432.829	34.5
3435.764	38.5
3438.697	36.5
3441.628	32.5
3444.557	33.5
3447.483	27.5
3450.407	29.5
3453.328	28.5
3456.247	24.5
3459.164	31.5
3462.079	26.5
3464.991	24.5
3467.902	22.5
3470.809	20.5
3473.715	17.5
3476.618	21.5
3479.519	18.5
3482.418	16.5
3485.315	21.5
3488.209	15.5
3491.101	15.5
3493.99	12.5
3496.878	11.5
3499.763	14.5
3502.646	11.5
3505.527	12.5
3508.405	11.5
3511.281	4.5
3514.155	7.5
3517.027	6.5
3519.897	5.5
3522.764	6.5
3525.629	1.5
3528.492	5.5
3531.352	3.5
3534.211	0.5
3537.067	-1.5
3539.921	-0.5
3542.773	-2.5
3545.622	-2.5
3548.469	-1.5
3551.315	-2.5
3554.157	-2.5
3556.998	-2.5
3559.837	-5.5
3562.673	-4.5
3565.507	-6.5
3568.339	-6.5
3571.169	-9.5
3573.996	-6.5
3576.822	-9.5
3579.645	-9.5
3582.466	-9.5
3585.285	-10.5
3588.101	-10.5
3590.916	-7.5
3593.728	-11.5
3596.538	-10.5
3599.346	-10.5
3602.152	-15.5
3604.956	-14.5
3607.757	-15.5
3610.556	-13.5
3613.354	-12.5
3616.149	-11.5
3618.942	-10.5
3621.732	-14.5
3624.521	-15.5
3627.307	-16.5
3630.092	-17.5
3632.874	-11.5
3635.654	-16.5
3638.432	-13.5
3641.208	-15.5
3643.982	-17.5
3646.753	-19.5
3649.523	-16.5
3652.29	-20.5
3655.055	-18.5
3657.818	-15.5
3660.579	-14.5
3663.338	-14.5
3666.095	-17.5
3668.849	-17.5
3671.602	-20.5
3674.352	-16.5
3677.101	-17.5
3679.847	-22.5
3682.591	-16.5
3685.333	-18.5
3688.073	-18.5
3690.811	-19.5
3693.547	-17.5
3696.281	-17.5
3699.013	-20.5
3701.742	-18.5
3704.47	-14.5
3707.195	-22.5
3709.919	-22.5
3712.64	-19.5
3715.359	-20.5
3718.076	-19.5
3720.792	-18.5
3723.505	-16.5
3726.216	-22.5
3728.925	-23.5
3731.632	-23.5
3734.336	-25.5
3737.039	-19.5
3739.74	-16.5
3742.439	-19.5
3745.136	-18.5
3747.83	-18.5
3750.523	-20.5
3753.213	-23.5
3755.902	-24.5
3758.589	-22.5
3761.273	-22.5
3763.956	-18.5
3766.636	-20.5
3769.315	-19.5
3771.991	-17.5
3774.665	-22.5
3777.338	-22.5
3780.008	-24.5
3782.677	-25.5
3785.343	-22.5
3788.007	-22.5
3790.67	-19.5
3793.33	-19.5
3795.989	-18.5
3798.645	-23.5
3801.299	-19.5
3803.952	-19.5
3806.602	-22.5
3809.251	-20.5
3811.897	-22.5
3814.542	-25.5
3817.184	-22.5
3819.825	-21.5
3822.463	-22.5
3825.1	-21.5
3827.735	-24.5
3830.367	-20.5
3832.998	-24.5
3835.627	-25.5
3838.253	-19.5
3840.878	-22.5
3843.501	-22.5
3846.122	-22.5
3848.741	-20.5
3851.358	-24.5
3853.973	-22.5
3856.586	-20.5
3859.197	-20.5
3861.806	-18.5
3864.414	-21.5
3867.019	-23.5
3869.622	-20.5
3872.224	-18.5
3874.823	-22.5
3877.421	-24.5
3880.016	-15.5
3882.61	-12.5
3885.202	-13.5
3887.792	-13.5
3890.38	-17.5
3892.966	-16.5
3895.55	-24.5
3898.132	-22.5
3900.713	-27.5
3903.291	-22.5
3905.868	-21.5
3908.442	-19.5
3911.015	-21.5
3913.586	-21.5
3916.155	-25.5
3918.722	-21.5
3921.287	-23.5
3923.85	-29.5
3926.411	-21.5
3928.971	-22.5
3931.528	-20.5
3934.084	-19.5
3936.638	-18.5
3939.19	-18.5
3941.74	-22.5
3944.288	-21.5
3946.834	-25.5
3949.378	-24.5
3951.921	-19.5
3954.462	-19.5
3957	-18.5
3959.537	-17.5
3962.072	-21.5
3964.606	-23.5
3967.137	-22.5
3969.667	-22.5
3972.194	-28.5
3974.72	-19.5
3977.244	-19.5
3979.766	-21.5
3982.286	-18.5
3984.805	-20.5
3987.321	-24.5
3989.836	-21.5
3992.349	-25.5
3994.86	-25.5
3997.369	-24.5
3999.877	-20.5
4002.382	-18.5
4004.886	-16.5
4007.388	-20.5
4009.888	-23.5
4012.386	-23.5
4014.883	-24.5
4017.377	-24.5
4019.87	-18.5
4022.361	-20.5
4024.85	-21.5
4027.338	-19.5
4029.823	-22.5
4032.307	-22.5
4034.789	-23.5
4037.269	-19.5
4039.747	-20.5
4042.224	-22.5
4044.699	-21.5
4047.172	-21.5
4049.643	-21.5
4052.112	-21.5
4054.58	-20.5
4057.046	-22.5
4059.51	-18.5
4061.972	-24.5
4064.432	-23.5
4066.891	-26.5
4069.348	-24.5
4071.803	-22.5
4074.256	-20.5
4076.708	-16.5
4079.158	-20.5
4081.606	-22.5
4084.052	-27.5
4086.497	-25.5
4088.939	-25.5
4091.38	-19.5
4093.819	-21.5
4096.257	-24.5
4098.693	-23.5
4101.127	-18.5
4103.559	-21.5
4105.989	-6.5
4108.418	-8.5
4110.845	-11.5
4113.27	-6.5
4115.694	-12.5
4118.115	-5.5
4120.535	-18.5
4122.954	-20.5
4125.37	-21.5
4127.785	-19.5
4130.198	-21.5
4132.609	-23.5
4135.019	-23.5
4137.427	-23.5
4139.833	-21.5
4142.237	-21.5
