Data from 0CFU_2_RamanShift_3.txt Node
Date: Mon Jan 23 13:46:04 IST 2017
User: aro
Spectrometer: QEPB0276
Trigger mode: 0
Integration Time (sec): 5.000000E0
Scans to average: 1
Electric dark correction enabled: true
Nonlinearity correction enabled: false
Boxcar width: 0
XAxis mode: Raman Shifts
Number of Pixels in Spectrum: 1044
>>>>>Begin Spectral Data<<<<<
160.701	-27.75
166.742	0.25
172.777	88.25
178.805	372.25
184.826	1020.25
190.841	2111.25
196.849	3323.25
202.85	4138.25
208.845	4346.25
214.833	4181.25
220.815	4034.25
226.789	3879.25
232.758	3788.25
238.719	3685.25
244.674	3560.25
250.623	3377.25
256.565	3250.25
262.5	3055.25
268.429	2943.25
274.351	2817.25
280.267	2708.25
286.176	2572.25
292.079	2514.25
297.975	2430.25
303.865	2351.25
309.748	2292.25
315.625	2235.25
321.495	2186.25
327.359	2154.25
333.217	2127.25
339.068	2105.25
344.912	2091.25
350.751	2079.25
356.583	2078.25
362.408	2072.25
368.227	2067.25
374.04	2080.25
379.847	2107.25
385.647	2099.25
391.44	2125.25
397.228	2123.25
403.009	2132.25
408.784	2137.25
414.553	2145.25
420.315	2163.25
426.071	2140.25
431.821	2159.25
437.565	2156.25
443.302	2147.25
449.033	2148.25
454.758	2142.25
460.477	2119.25
466.189	2121.25
471.896	2096.25
477.596	2098.25
483.29	2085.25
488.978	2077.25
494.66	2056.25
500.335	2022.25
506.005	2014.25
511.668	1956.25
517.325	1919.25
522.977	1905.25
528.622	1870.25
534.261	1842.25
539.894	1843.25
545.521	1823.25
551.141	1807.25
556.756	1804.25
562.365	1795.25
567.968	1776.25
573.565	1772.25
579.155	1753.25
584.74	1739.25
590.319	1753.25
595.892	1725.25
601.459	1719.25
607.02	1693.25
612.575	1678.25
618.124	1653.25
623.667	1639.25
629.204	1619.25
634.735	1625.25
640.261	1598.25
645.781	1599.25
651.294	1580.25
656.802	1592.25
662.304	1571.25
667.8	1556.25
673.29	1562.25
678.775	1570.25
684.254	1542.25
689.726	1528.25
695.193	1517.25
700.655	1521.25
706.11	1503.25
711.56	1511.25
717.004	1491.25
722.442	1489.25
727.874	1473.25
733.301	1457.25
738.722	1477.25
744.137	1440.25
749.547	1450.25
754.951	1436.25
760.349	1443.25
765.741	1451.25
771.128	1436.25
776.509	1440.25
781.885	1438.25
787.254	1435.25
792.618	1427.25
797.977	1417.25
803.33	1384.25
808.677	1386.25
814.019	1367.25
819.355	1348.25
824.686	1344.25
830.011	1337.25
835.33	1334.25
840.644	1338.25
845.952	1320.25
851.255	1304.25
856.552	1294.25
861.844	1308.25
867.13	1301.25
872.41	1321.25
877.686	1310.25
882.955	1315.25
888.219	1305.25
893.478	1273.25
898.731	1225.25
903.979	1196.25
909.221	1185.25
914.458	1166.25
919.69	1170.25
924.916	1158.25
930.136	1150.25
935.351	1138.25
940.561	1151.25
945.766	1160.25
950.965	1127.25
956.158	1120.25
961.347	1101.25
966.529	1093.25
971.707	1075.25
976.879	1064.25
982.046	1060.25
987.208	1060.25
992.364	1047.25
997.515	1055.25
1002.66	1059.25
1007.801	1070.25
1012.936	1074.25
1018.066	1084.25
1023.19	1092.25
1028.309	1091.25
1033.423	1100.25
1038.532	1110.25
1043.636	1079.25
1048.734	1074.25
1053.827	1063.25
1058.915	1051.25
1063.998	1050.25
1069.075	1045.25
1074.147	1053.25
1079.214	1049.25
1084.276	1062.25
1089.333	1078.25
1094.385	1085.25
1099.431	1097.25
1104.472	1088.25
1109.509	1073.25
1114.54	1055.25
1119.565	1042.25
1124.586	1029.25
1129.602	1046.25
1134.613	1014.25
1139.618	1006.25
1144.619	1005.25
1149.614	1018.25
1154.604	1020.25
1159.589	1027.25
1164.57	1032.25
1169.545	1028.25
1174.515	1023.25
1179.48	1024.25
1184.44	1027.25
1189.395	1015.25
1194.345	1008.25
1199.29	1010.25
1204.23	1016.25
1209.165	1017.25
1214.095	1019.25
1219.021	1026.25
1223.941	1043.25
1228.856	1040.25
1233.766	1036.25
1238.672	1050.25
1243.572	1046.25
1248.467	1043.25
1253.358	1040.25
1258.244	1013.25
1263.124	1007.25
1268	987.25
1272.871	985.25
1277.737	973.25
1282.599	976.25
1287.455	973.25
1292.306	972.25
1297.153	987.25
1301.995	992.25
1306.832	988.25
1311.664	998.25
1316.491	989.25
1321.314	994.25
1326.132	979.25
1330.945	976.25
1335.753	953.25
1340.556	959.25
1345.354	951.25
1350.148	933.25
1354.937	921.25
1359.722	922.25
1364.501	912.25
1369.276	911.25
1374.046	904.25
1378.811	898.25
1383.572	886.25
1388.327	890.25
1393.079	881.25
1397.825	872.25
1402.567	875.25
1407.304	855.25
1412.036	874.25
1416.764	881.25
1421.487	871.25
1426.205	865.25
1430.919	881.25
1435.628	893.25
1440.333	889.25
1445.032	917.25
1449.727	927.25
1454.418	942.25
1459.104	935.25
1463.785	911.25
1468.462	914.25
1473.134	903.25
1477.802	898.25
1482.465	893.25
1487.123	880.25
1491.777	880.25
1496.426	884.25
1501.071	887.25
1505.711	902.25
1510.347	899.25
1514.978	920.25
1519.604	911.25
1524.226	930.25
1528.844	930.25
1533.457	919.25
1538.065	911.25
1542.669	924.25
1547.269	921.25
1551.864	944.25
1556.454	927.25
1561.041	926.25
1565.622	937.25
1570.199	961.25
1574.772	984.25
1579.34	990.25
1583.904	1020.25
1588.464	1035.25
1593.019	1047.25
1597.569	1072.25
1602.115	1071.25
1606.657	1074.25
1611.195	1101.25
1615.728	1114.25
1620.256	1131.25
1624.78	1155.25
1629.3	1151.25
1633.816	1174.25
1638.327	1192.25
1642.834	1208.25
1647.336	1223.25
1651.834	1212.25
1656.328	1206.25
1660.817	1197.25
1665.302	1185.25
1669.783	1177.25
1674.259	1116.25
1678.732	1096.25
1683.199	1059.25
1687.663	1035.25
1692.122	985.25
1696.577	947.25
1701.028	900.25
1705.474	861.25
1709.917	831.25
1714.355	812.25
1718.788	801.25
1723.218	784.25
1727.643	778.25
1732.064	755.25
1736.481	722.25
1740.893	720.25
1745.301	688.25
1749.705	668.25
1754.105	655.25
1758.501	635.25
1762.893	635.25
1767.28	618.25
1771.663	623.25
1776.042	616.25
1780.417	611.25
1784.787	613.25
1789.154	608.25
1793.516	621.25
1797.874	603.25
1802.228	597.25
1806.578	599.25
1810.924	585.25
1815.266	570.25
1819.603	567.25
1823.937	552.25
1828.266	552.25
1832.591	544.25
1836.913	543.25
1841.23	554.25
1845.543	540.25
1849.852	545.25
1854.156	548.25
1858.457	543.25
1862.754	548.25
1867.047	550.25
1871.335	554.25
1875.62	558.25
1879.9	564.25
1884.177	548.25
1888.449	544.25
1892.718	541.25
1896.982	552.25
1901.243	555.25
1905.499	541.25
1909.752	554.25
1914	541.25
1918.245	554.25
1922.485	536.25
1926.722	549.25
1930.954	555.25
1935.183	556.25
1939.408	560.25
1943.628	560.25
1947.845	554.25
1952.058	565.25
1956.267	550.25
1960.472	542.25
1964.673	538.25
1968.87	539.25
1973.063	540.25
1977.252	525.25
1981.438	534.25
1985.619	527.25
1989.797	528.25
1993.971	525.25
1998.14	519.25
2002.306	521.25
2006.469	528.25
2010.627	534.25
2014.781	543.25
2018.932	539.25
2023.078	527.25
2027.221	535.25
2031.36	529.25
2035.495	529.25
2039.627	525.25
2043.754	526.25
2047.878	523.25
2051.998	521.25
2056.114	523.25
2060.226	522.25
2064.334	522.25
2068.439	523.25
2072.54	528.25
2076.637	534.25
2080.73	538.25
2084.82	547.25
2088.906	550.25
2092.988	526.25
2097.066	534.25
2101.14	526.25
2105.211	527.25
2109.278	535.25
2113.342	516.25
2117.401	521.25
2121.457	514.25
2125.509	514.25
2129.558	512.25
2133.602	514.25
2137.643	505.25
2141.681	500.25
2145.714	509.25
2149.744	501.25
2153.77	505.25
2157.793	491.25
2161.812	499.25
2165.827	477.25
2169.838	471.25
2173.846	470.25
2177.851	464.25
2181.851	454.25
2185.848	459.25
2189.841	441.25
2193.831	448.25
2197.817	439.25
2201.799	439.25
2205.778	432.25
2209.753	430.25
2213.725	438.25
2217.693	428.25
2221.657	429.25
2225.618	417.25
2229.575	431.25
2233.529	433.25
2237.479	418.25
2241.425	416.25
2245.368	410.25
2249.307	408.25
2253.243	399.25
2257.175	396.25
2261.104	383.25
2265.029	379.25
2268.95	368.25
2272.868	366.25
2276.783	358.25
2280.694	358.25
2284.601	357.25
2288.505	349.25
2292.405	337.25
2296.302	336.25
2300.195	331.25
2304.085	334.25
2307.971	324.25
2311.854	322.25
2315.734	320.25
2319.609	311.25
2323.482	311.25
2327.351	307.25
2331.216	303.25
2335.078	295.25
2338.937	292.25
2342.792	291.25
2346.643	289.25
2350.492	295.25
2354.336	299.25
2358.178	290.25
2362.015	289.25
2365.85	291.25
2369.681	290.25
2373.508	285.25
2377.333	291.25
2381.153	287.25
2384.971	284.25
2388.785	286.25
2392.595	285.25
2396.402	285.25
2400.206	275.25
2404.007	276.25
2407.804	284.25
2411.597	279.25
2415.388	275.25
2419.174	267.25
2422.958	264.25
2426.738	272.25
2430.515	267.25
2434.289	272.25
2438.059	272.25
2441.825	263.25
2445.589	267.25
2449.349	263.25
2453.106	257.25
2456.859	255.25
2460.61	249.25
2464.356	255.25
2468.1	250.25
2471.84	252.25
2475.577	249.25
2479.311	246.25
2483.041	247.25
2486.768	248.25
2490.492	253.25
2494.213	247.25
2497.93	247.25
2501.644	246.25
2505.355	250.25
2509.062	248.25
2512.766	243.25
2516.467	241.25
2520.165	243.25
2523.859	234.25
2527.551	237.25
2531.239	229.25
2534.923	237.25
2538.605	231.25
2542.283	234.25
2545.958	229.25
2549.63	223.25
2553.299	237.25
2556.964	220.25
2560.626	221.25
2564.285	220.25
2567.941	215.25
2571.594	220.25
2575.243	222.25
2578.89	213.25
2582.533	222.25
2586.173	212.25
2589.809	207.25
2593.443	203.25
2597.073	203.25
2600.701	200.25
2604.325	200.25
2607.946	202.25
2611.564	203.25
2615.178	198.25
2618.79	203.25
2622.398	196.25
2626.004	198.25
2629.606	193.25
2633.205	197.25
2636.801	198.25
2640.394	193.25
2643.983	193.25
2647.57	187.25
2651.153	170.25
2654.734	181.25
2658.311	174.25
2661.885	179.25
2665.456	176.25
2669.025	176.25
2672.589	175.25
2676.151	171.25
2679.71	169.25
2683.266	171.25
2686.819	169.25
2690.368	168.25
2693.915	169.25
2697.458	163.25
2700.999	162.25
2704.536	159.25
2708.071	160.25
2711.602	158.25
2715.13	155.25
2718.656	158.25
2722.178	161.25
2725.697	167.25
2729.214	164.25
2732.727	166.25
2736.237	163.25
2739.744	157.25
2743.249	164.25
2746.75	162.25
2750.248	160.25
2753.743	166.25
2757.236	160.25
2760.725	162.25
2764.211	157.25
2767.695	155.25
2771.175	150.25
2774.652	157.25
2778.127	145.25
2781.598	153.25
2785.067	146.25
2788.532	149.25
2791.995	155.25
2795.455	151.25
2798.911	158.25
2802.365	153.25
2805.816	152.25
2809.264	162.25
2812.709	165.25
2816.151	160.25
2819.59	163.25
2823.026	154.25
2826.46	166.25
2829.89	157.25
2833.318	164.25
2836.742	168.25
2840.164	168.25
2843.583	171.25
2846.999	174.25
2850.412	176.25
2853.822	183.25
2857.229	185.25
2860.634	179.25
2864.035	183.25
2867.434	196.25
2870.83	199.25
2874.223	192.25
2877.613	195.25
2881	201.25
2884.385	212.25
2887.766	210.25
2891.145	210.25
2894.521	210.25
2897.894	209.25
2901.264	208.25
2904.631	214.25
2907.996	220.25
2911.358	224.25
2914.717	221.25
2918.073	220.25
2921.426	230.25
2924.777	234.25
2928.124	239.25
2931.469	247.25
2934.811	256.25
2938.15	267.25
2941.487	263.25
2944.821	268.25
2948.152	266.25
2951.48	259.25
2954.805	264.25
2958.128	275.25
2961.447	280.25
2964.765	283.25
2968.079	290.25
2971.39	294.25
2974.699	302.25
2978.005	309.25
2981.308	309.25
2984.609	314.25
2987.907	339.25
2991.202	339.25
2994.494	362.25
2997.784	358.25
3001.07	371.25
3004.355	370.25
3007.636	387.25
3010.915	398.25
3014.191	403.25
3017.464	397.25
3020.734	410.25
3024.002	427.25
3027.267	433.25
3030.53	430.25
3033.789	445.25
3037.046	464.25
3040.301	468.25
3043.552	478.25
3046.801	500.25
3050.048	506.25
3053.291	506.25
3056.532	530.25
3059.771	553.25
3063.006	571.25
3066.239	605.25
3069.469	609.25
3072.697	627.25
3075.922	631.25
3079.144	657.25
3082.364	677.25
3085.581	689.25
3088.795	704.25
3092.007	724.25
3095.216	741.25
3098.423	764.25
3101.627	758.25
3104.828	782.25
3108.026	800.25
3111.222	832.25
3114.416	839.25
3117.607	874.25
3120.795	885.25
3123.98	904.25
3127.163	928.25
3130.344	956.25
3133.521	960.25
3136.696	989.25
3139.869	1004.25
3143.039	1012.25
3146.206	1046.25
3149.371	1053.25
3152.533	1072.25
3155.693	1055.25
3158.85	1077.25
3162.005	1097.25
3165.157	1095.25
3168.306	1089.25
3171.453	1093.25
3174.597	1099.25
3177.739	1098.25
3180.878	1124.25
3184.014	1124.25
3187.149	1110.25
3190.28	1118.25
3193.409	1126.25
3196.536	1122.25
3199.659	1129.25
3202.781	1145.25
3205.9	1137.25
3209.016	1150.25
3212.13	1138.25
3215.241	1117.25
3218.35	1131.25
3221.456	1129.25
3224.56	1116.25
3227.661	1097.25
3230.76	1076.25
3233.856	1072.25
3236.95	1072.25
3240.041	1057.25
3243.13	1046.25
3246.216	1035.25
3249.3	1037.25
3252.382	1018.25
3255.46	1023.25
3258.537	1023.25
3261.611	1026.25
3264.682	1015.25
3267.751	1017.25
3270.818	1006.25
3273.882	1000.25
3276.943	983.25
3280.002	987.25
3283.059	991.25
3286.113	967.25
3289.165	955.25
3292.214	937.25
3295.261	925.25
3298.306	908.25
3301.348	889.25
3304.387	884.25
3307.425	874.25
3310.459	854.25
3313.492	860.25
3316.521	833.25
3319.549	835.25
3322.574	825.25
3325.597	834.25
3328.617	816.25
3331.635	816.25
3334.65	808.25
3337.663	800.25
3340.674	795.25
3343.682	802.25
3346.688	784.25
3349.691	790.25
3352.692	780.25
3355.691	774.25
3358.687	769.25
3361.681	768.25
3364.673	762.25
3367.662	744.25
3370.649	752.25
3373.633	731.25
3376.615	713.25
3379.595	711.25
3382.572	710.25
3385.547	692.25
3388.52	679.25
3391.49	664.25
3394.458	659.25
3397.424	650.25
3400.387	632.25
3403.348	638.25
3406.307	634.25
3409.263	627.25
3412.217	607.25
3415.168	614.25
3418.118	602.25
3421.065	597.25
3424.009	586.25
3426.951	577.25
3429.891	569.25
3432.829	561.25
3435.764	548.25
3438.697	545.25
3441.628	520.25
3444.557	515.25
3447.483	497.25
3450.407	484.25
3453.328	474.25
3456.247	446.25
3459.164	445.25
3462.079	433.25
3464.991	412.25
3467.902	405.25
3470.809	395.25
3473.715	375.25
3476.618	365.25
3479.519	350.25
3482.418	342.25
3485.315	332.25
3488.209	323.25
3491.101	315.25
3493.99	296.25
3496.878	296.25
3499.763	284.25
3502.646	284.25
3505.527	271.25
3508.405	260.25
3511.281	243.25
3514.155	236.25
3517.027	233.25
3519.897	216.25
3522.764	198.25
3525.629	195.25
3528.492	183.25
3531.352	166.25
3534.211	166.25
3537.067	150.25
3539.921	142.25
3542.773	133.25
3545.622	126.25
3548.469	116.25
3551.315	118.25
3554.157	104.25
3556.998	98.25
3559.837	92.25
3562.673	78.25
3565.507	75.25
3568.339	71.25
3571.169	68.25
3573.996	62.25
3576.822	54.25
3579.645	45.25
3582.466	40.25
3585.285	39.25
3588.101	35.25
3590.916	33.25
3593.728	28.25
3596.538	23.25
3599.346	19.25
3602.152	12.25
3604.956	13.25
3607.757	3.25
3610.556	-2.75
3613.354	-4.75
3616.149	-6.75
3618.942	-7.75
3621.732	-15.75
3624.521	-16.75
3627.307	-18.75
3630.092	-25.75
3632.874	-23.75
3635.654	-26.75
3638.432	-27.75
3641.208	-30.75
3643.982	-34.75
3646.753	-38.75
3649.523	-36.75
3652.29	-45.75
3655.055	-48.75
3657.818	-49.75
3660.579	-50.75
3663.338	-51.75
3666.095	-56.75
3668.849	-54.75
3671.602	-59.75
3674.352	-63.75
3677.101	-63.75
3679.847	-67.75
3682.591	-68.75
3685.333	-66.75
3688.073	-68.75
3690.811	-73.75
3693.547	-73.75
3696.281	-76.75
3699.013	-75.75
3701.742	-74.75
3704.47	-75.75
3707.195	-75.75
3709.919	-79.75
3712.64	-76.75
3715.359	-83.75
3718.076	-84.75
3720.792	-86.75
3723.505	-84.75
3726.216	-83.75
3728.925	-84.75
3731.632	-85.75
3734.336	-83.75
3737.039	-86.75
3739.74	-89.75
3742.439	-90.75
3745.136	-93.75
3747.83	-92.75
3750.523	-90.75
3753.213	-85.75
3755.902	-86.75
3758.589	-90.75
3761.273	-90.75
3763.956	-92.75
3766.636	-96.75
3769.315	-95.75
3771.991	-96.75
3774.665	-91.75
3777.338	-90.75
3780.008	-94.75
3782.677	-95.75
3785.343	-95.75
3788.007	-95.75
3790.67	-98.75
3793.33	-96.75
3795.989	-94.75
3798.645	-91.75
3801.299	-95.75
3803.952	-96.75
3806.602	-101.75
3809.251	-99.75
3811.897	-95.75
3814.542	-98.75
3817.184	-98.75
3819.825	-96.75
3822.463	-96.75
3825.1	-96.75
3827.735	-103.75
3830.367	-99.75
3832.998	-103.75
3835.627	-101.75
3838.253	-100.75
3840.878	-100.75
3843.501	-100.75
3846.122	-101.75
3848.741	-102.75
3851.358	-99.75
3853.973	-100.75
3856.586	-103.75
3859.197	-98.75
3861.806	-102.75
3864.414	-101.75
3867.019	-100.75
3869.622	-104.75
3872.224	-100.75
3874.823	-100.75
3877.421	-97.75
3880.016	-96.75
3882.61	-94.75
3885.202	-96.75
3887.792	-96.75
3890.38	-99.75
3892.966	-101.75
3895.55	-103.75
3898.132	-100.75
3900.713	-104.75
3903.291	-105.75
3905.868	-100.75
3908.442	-103.75
3911.015	-103.75
3913.586	-103.75
3916.155	-105.75
3918.722	-105.75
3921.287	-104.75
3923.85	-104.75
3926.411	-107.75
3928.971	-108.75
3931.528	-107.75
3934.084	-104.75
3936.638	-106.75
3939.19	-108.75
3941.74	-104.75
3944.288	-107.75
3946.834	-104.75
3949.378	-105.75
3951.921	-102.75
3954.462	-102.75
3957	-105.75
3959.537	-106.75
3962.072	-108.75
3964.606	-106.75
3967.137	-105.75
3969.667	-103.75
3972.194	-105.75
3974.72	-102.75
3977.244	-103.75
3979.766	-103.75
3982.286	-101.75
3984.805	-101.75
3987.321	-106.75
3989.836	-105.75
3992.349	-106.75
3994.86	-104.75
3997.369	-104.75
3999.877	-104.75
4002.382	-101.75
4004.886	-102.75
4007.388	-100.75
4009.888	-105.75
4012.386	-102.75
4014.883	-104.75
4017.377	-107.75
4019.87	-102.75
4022.361	-104.75
4024.85	-105.75
4027.338	-102.75
4029.823	-101.75
4032.307	-101.75
4034.789	-102.75
4037.269	-106.75
4039.747	-105.75
4042.224	-107.75
4044.699	-106.75
4047.172	-102.75
4049.643	-104.75
4052.112	-102.75
4054.58	-105.75
4057.046	-106.75
4059.51	-109.75
4061.972	-108.75
4064.432	-107.75
4066.891	-102.75
4069.348	-102.75
4071.803	-103.75
4074.256	-99.75
4076.708	-101.75
4079.158	-105.75
4081.606	-107.75
4084.052	-107.75
4086.497	-104.75
4088.939	-104.75
4091.38	-104.75
4093.819	-105.75
4096.257	-109.75
4098.693	-107.75
4101.127	-108.75
4103.559	-111.75
4105.989	-76.75
4108.418	-68.75
4110.845	-63.75
4113.27	-63.75
4115.694	-54.75
4118.115	-46.75
4120.535	-103.75
4122.954	-101.75
4125.37	-109.75
4127.785	-105.75
4130.198	-107.75
4132.609	-103.75
4135.019	-108.75
4137.427	-110.75
4139.833	-105.75
4142.237	-107.75
