Data from 10000000CFU3_A_RamanShift_1.txt Node
Date: Mon Jan 23 14:46:07 IST 2017
User: aro
Spectrometer: QEPB0276
Trigger mode: 0
Integration Time (sec): 5.000000E0
Scans to average: 1
Electric dark correction enabled: true
Nonlinearity correction enabled: false
Boxcar width: 0
XAxis mode: Raman Shifts
Number of Pixels in Spectrum: 1044
>>>>>Begin Spectral Data<<<<<
160.701	-30.88
166.742	-0.88
172.777	94.12
178.805	379.12
184.826	1042.12
190.841	2153.12
196.849	3377.12
202.85	4166.12
208.845	4370.12
214.833	4253.12
220.815	4080.12
226.789	3976.12
232.758	3882.12
238.719	3762.12
244.674	3604.12
250.623	3469.12
256.565	3315.12
262.5	3164.12
268.429	3024.12
274.351	2896.12
280.267	2784.12
286.176	2724.12
292.079	2616.12
297.975	2503.12
303.865	2451.12
309.748	2398.12
315.625	2298.12
321.495	2302.12
327.359	2258.12
333.217	2224.12
339.068	2197.12
344.912	2192.12
350.751	2178.12
356.583	2178.12
362.408	2182.12
368.227	2170.12
374.04	2175.12
379.847	2183.12
385.647	2218.12
391.44	2227.12
397.228	2225.12
403.009	2249.12
408.784	2245.12
414.553	2263.12
420.315	2267.12
426.071	2276.12
431.821	2260.12
437.565	2265.12
443.302	2269.12
449.033	2244.12
454.758	2259.12
460.477	2248.12
466.189	2229.12
471.896	2224.12
477.596	2231.12
483.29	2211.12
488.978	2181.12
494.66	2182.12
500.335	2159.12
506.005	2116.12
511.668	2094.12
517.325	2057.12
522.977	2050.12
528.622	2006.12
534.261	1984.12
539.894	1986.12
545.521	1951.12
551.141	1942.12
556.756	1935.12
562.365	1917.12
567.968	1904.12
573.565	1912.12
579.155	1881.12
584.74	1881.12
590.319	1868.12
595.892	1865.12
601.459	1868.12
607.02	1846.12
612.575	1819.12
618.124	1794.12
623.667	1786.12
629.204	1778.12
634.735	1760.12
640.261	1758.12
645.781	1742.12
651.294	1723.12
656.802	1724.12
662.304	1709.12
667.8	1704.12
673.29	1695.12
678.775	1697.12
684.254	1716.12
689.726	1698.12
695.193	1685.12
700.655	1675.12
706.11	1671.12
711.56	1649.12
717.004	1630.12
722.442	1611.12
727.874	1608.12
733.301	1621.12
738.722	1607.12
744.137	1590.12
749.547	1578.12
754.951	1596.12
760.349	1582.12
765.741	1600.12
771.128	1588.12
776.509	1601.12
781.885	1580.12
787.254	1593.12
792.618	1569.12
797.977	1573.12
803.33	1556.12
808.677	1543.12
814.019	1540.12
819.355	1521.12
824.686	1492.12
830.011	1504.12
835.33	1479.12
840.644	1477.12
845.952	1477.12
851.255	1481.12
856.552	1464.12
861.844	1471.12
867.13	1473.12
872.41	1455.12
877.686	1454.12
882.955	1430.12
888.219	1404.12
893.478	1386.12
898.731	1364.12
903.979	1322.12
909.221	1324.12
914.458	1306.12
919.69	1309.12
924.916	1305.12
930.136	1302.12
935.351	1296.12
940.561	1306.12
945.766	1280.12
950.965	1291.12
956.158	1291.12
961.347	1268.12
966.529	1243.12
971.707	1232.12
976.879	1226.12
982.046	1196.12
987.208	1202.12
992.364	1213.12
997.515	1203.12
1002.66	1214.12
1007.801	1212.12
1012.936	1225.12
1018.066	1239.12
1023.19	1246.12
1028.309	1244.12
1033.423	1238.12
1038.532	1241.12
1043.636	1244.12
1048.734	1222.12
1053.827	1210.12
1058.915	1212.12
1063.998	1190.12
1069.075	1192.12
1074.147	1191.12
1079.214	1205.12
1084.276	1199.12
1089.333	1222.12
1094.385	1223.12
1099.431	1215.12
1104.472	1235.12
1109.509	1221.12
1114.54	1214.12
1119.565	1199.12
1124.586	1173.12
1129.602	1178.12
1134.613	1157.12
1139.618	1172.12
1144.619	1160.12
1149.614	1155.12
1154.604	1170.12
1159.589	1169.12
1164.57	1171.12
1169.545	1173.12
1174.515	1187.12
1179.48	1170.12
1184.44	1166.12
1189.395	1159.12
1194.345	1144.12
1199.29	1152.12
1204.23	1163.12
1209.165	1159.12
1214.095	1176.12
1219.021	1171.12
1223.941	1189.12
1228.856	1184.12
1233.766	1188.12
1238.672	1212.12
1243.572	1200.12
1248.467	1194.12
1253.358	1169.12
1258.244	1169.12
1263.124	1139.12
1268	1118.12
1272.871	1119.12
1277.737	1102.12
1282.599	1117.12
1287.455	1123.12
1292.306	1115.12
1297.153	1129.12
1301.995	1137.12
1306.832	1133.12
1311.664	1140.12
1316.491	1149.12
1321.314	1141.12
1326.132	1127.12
1330.945	1115.12
1335.753	1112.12
1340.556	1102.12
1345.354	1082.12
1350.148	1084.12
1354.937	1077.12
1359.722	1067.12
1364.501	1057.12
1369.276	1076.12
1374.046	1040.12
1378.811	1036.12
1383.572	1025.12
1388.327	1007.12
1393.079	1018.12
1397.825	1003.12
1402.567	1003.12
1407.304	983.12
1412.036	988.12
1416.764	999.12
1421.487	1001.12
1426.205	1022.12
1430.919	1014.12
1435.628	1010.12
1440.333	1036.12
1445.032	1055.12
1449.727	1068.12
1454.418	1071.12
1459.104	1062.12
1463.785	1055.12
1468.462	1040.12
1473.134	1030.12
1477.802	1033.12
1482.465	1037.12
1487.123	1031.12
1491.777	1027.12
1496.426	1010.12
1501.071	1045.12
1505.711	1051.12
1510.347	1043.12
1514.978	1062.12
1519.604	1075.12
1524.226	1084.12
1528.844	1071.12
1533.457	1076.12
1538.065	1074.12
1542.669	1058.12
1547.269	1051.12
1551.864	1051.12
1556.454	1058.12
1561.041	1079.12
1565.622	1073.12
1570.199	1085.12
1574.772	1106.12
1579.34	1130.12
1583.904	1159.12
1588.464	1159.12
1593.019	1183.12
1597.569	1181.12
1602.115	1198.12
1606.657	1209.12
1611.195	1227.12
1615.728	1234.12
1620.256	1248.12
1624.78	1260.12
1629.3	1283.12
1633.816	1296.12
1638.327	1326.12
1642.834	1325.12
1647.336	1337.12
1651.834	1342.12
1656.328	1340.12
1660.817	1338.12
1665.302	1311.12
1669.783	1294.12
1674.259	1270.12
1678.732	1241.12
1683.199	1183.12
1687.663	1179.12
1692.122	1123.12
1696.577	1086.12
1701.028	1053.12
1705.474	1002.12
1709.917	947.12
1714.355	951.12
1718.788	938.12
1723.218	918.12
1727.643	907.12
1732.064	888.12
1736.481	860.12
1740.893	835.12
1745.301	801.12
1749.705	797.12
1754.105	779.12
1758.501	768.12
1762.893	760.12
1767.28	751.12
1771.663	725.12
1776.042	747.12
1780.417	758.12
1784.787	737.12
1789.154	745.12
1793.516	742.12
1797.874	741.12
1802.228	731.12
1806.578	721.12
1810.924	702.12
1815.266	699.12
1819.603	679.12
1823.937	682.12
1828.266	670.12
1832.591	671.12
1836.913	663.12
1841.23	662.12
1845.543	661.12
1849.852	650.12
1854.156	664.12
1858.457	662.12
1862.754	664.12
1867.047	669.12
1871.335	683.12
1875.62	679.12
1879.9	685.12
1884.177	669.12
1888.449	692.12
1892.718	682.12
1896.982	695.12
1901.243	671.12
1905.499	670.12
1909.752	679.12
1914	673.12
1918.245	668.12
1922.485	665.12
1926.722	670.12
1930.954	687.12
1935.183	691.12
1939.408	687.12
1943.628	686.12
1947.845	680.12
1952.058	681.12
1956.267	679.12
1960.472	664.12
1964.673	660.12
1968.87	645.12
1973.063	648.12
1977.252	639.12
1981.438	638.12
1985.619	629.12
1989.797	625.12
1993.971	632.12
1998.14	641.12
2002.306	646.12
2006.469	644.12
2010.627	647.12
2014.781	642.12
2018.932	649.12
2023.078	640.12
2027.221	636.12
2031.36	631.12
2035.495	625.12
2039.627	623.12
2043.754	633.12
2047.878	626.12
2051.998	622.12
2056.114	621.12
2060.226	623.12
2064.334	636.12
2068.439	637.12
2072.54	642.12
2076.637	648.12
2080.73	644.12
2084.82	661.12
2088.906	649.12
2092.988	653.12
2097.066	647.12
2101.14	633.12
2105.211	642.12
2109.278	630.12
2113.342	631.12
2117.401	620.12
2121.457	614.12
2125.509	613.12
2129.558	618.12
2133.602	614.12
2137.643	607.12
2141.681	609.12
2145.714	605.12
2149.744	604.12
2153.77	601.12
2157.793	580.12
2161.812	590.12
2165.827	574.12
2169.838	562.12
2173.846	566.12
2177.851	548.12
2181.851	549.12
2185.848	535.12
2189.841	525.12
2193.831	518.12
2197.817	512.12
2201.799	523.12
2205.778	523.12
2209.753	520.12
2213.725	526.12
2217.693	522.12
2221.657	512.12
2225.618	514.12
2229.575	512.12
2233.529	516.12
2237.479	506.12
2241.425	506.12
2245.368	497.12
2249.307	479.12
2253.243	472.12
2257.175	470.12
2261.104	458.12
2265.029	458.12
2268.95	447.12
2272.868	447.12
2276.783	446.12
2280.694	429.12
2284.601	427.12
2288.505	432.12
2292.405	416.12
2296.302	416.12
2300.195	404.12
2304.085	394.12
2307.971	399.12
2311.854	394.12
2315.734	392.12
2319.609	366.12
2323.482	365.12
2327.351	368.12
2331.216	371.12
2335.078	358.12
2338.937	365.12
2342.792	347.12
2346.643	349.12
2350.492	351.12
2354.336	350.12
2358.178	356.12
2362.015	349.12
2365.85	354.12
2369.681	361.12
2373.508	356.12
2377.333	354.12
2381.153	357.12
2384.971	359.12
2388.785	344.12
2392.595	350.12
2396.402	343.12
2400.206	337.12
2404.007	332.12
2407.804	338.12
2411.597	333.12
2415.388	333.12
2419.174	338.12
2422.958	339.12
2426.738	336.12
2430.515	338.12
2434.289	335.12
2438.059	322.12
2441.825	328.12
2445.589	320.12
2449.349	317.12
2453.106	318.12
2456.859	311.12
2460.61	315.12
2464.356	315.12
2468.1	311.12
2471.84	311.12
2475.577	310.12
2479.311	295.12
2483.041	307.12
2486.768	312.12
2490.492	296.12
2494.213	299.12
2497.93	305.12
2501.644	304.12
2505.355	306.12
2509.062	300.12
2512.766	299.12
2516.467	303.12
2520.165	298.12
2523.859	305.12
2527.551	302.12
2531.239	291.12
2534.923	293.12
2538.605	287.12
2542.283	289.12
2545.958	282.12
2549.63	279.12
2553.299	289.12
2556.964	282.12
2560.626	278.12
2564.285	276.12
2567.941	274.12
2571.594	277.12
2575.243	276.12
2578.89	275.12
2582.533	261.12
2586.173	266.12
2589.809	265.12
2593.443	265.12
2597.073	248.12
2600.701	257.12
2604.325	254.12
2607.946	263.12
2611.564	256.12
2615.178	242.12
2618.79	252.12
2622.398	246.12
2626.004	240.12
2629.606	246.12
2633.205	246.12
2636.801	245.12
2640.394	241.12
2643.983	224.12
2647.57	233.12
2651.153	223.12
2654.734	230.12
2658.311	238.12
2661.885	223.12
2665.456	222.12
2669.025	225.12
2672.589	224.12
2676.151	218.12
2679.71	209.12
2683.266	210.12
2686.819	213.12
2690.368	207.12
2693.915	207.12
2697.458	213.12
2700.999	201.12
2704.536	194.12
2708.071	195.12
2711.602	198.12
2715.13	196.12
2718.656	195.12
2722.178	202.12
2725.697	205.12
2729.214	202.12
2732.727	189.12
2736.237	193.12
2739.744	201.12
2743.249	201.12
2746.75	211.12
2750.248	205.12
2753.743	203.12
2757.236	200.12
2760.725	196.12
2764.211	196.12
2767.695	202.12
2771.175	184.12
2774.652	186.12
2778.127	184.12
2781.598	190.12
2785.067	184.12
2788.532	185.12
2791.995	193.12
2795.455	192.12
2798.911	193.12
2802.365	193.12
2805.816	193.12
2809.264	198.12
2812.709	192.12
2816.151	196.12
2819.59	196.12
2823.026	192.12
2826.46	198.12
2829.89	200.12
2833.318	202.12
2836.742	207.12
2840.164	203.12
2843.583	203.12
2846.999	208.12
2850.412	204.12
2853.822	214.12
2857.229	212.12
2860.634	214.12
2864.035	213.12
2867.434	221.12
2870.83	220.12
2874.223	226.12
2877.613	223.12
2881	240.12
2884.385	237.12
2887.766	221.12
2891.145	220.12
2894.521	228.12
2897.894	230.12
2901.264	233.12
2904.631	229.12
2907.996	236.12
2911.358	243.12
2914.717	238.12
2918.073	241.12
2921.426	247.12
2924.777	248.12
2928.124	253.12
2931.469	266.12
2934.811	269.12
2938.15	274.12
2941.487	279.12
2944.821	281.12
2948.152	276.12
2951.48	279.12
2954.805	293.12
2958.128	296.12
2961.447	309.12
2964.765	309.12
2968.079	306.12
2971.39	318.12
2974.699	324.12
2978.005	327.12
2981.308	343.12
2984.609	348.12
2987.907	357.12
2991.202	370.12
2994.494	378.12
2997.784	389.12
3001.07	393.12
3004.355	397.12
3007.636	408.12
3010.915	432.12
3014.191	423.12
3017.464	441.12
3020.734	448.12
3024.002	451.12
3027.267	456.12
3030.53	463.12
3033.789	482.12
3037.046	474.12
3040.301	501.12
3043.552	514.12
3046.801	515.12
3050.048	518.12
3053.291	539.12
3056.532	559.12
3059.771	578.12
3063.006	588.12
3066.239	609.12
3069.469	631.12
3072.697	641.12
3075.922	668.12
3079.144	680.12
3082.364	686.12
3085.581	717.12
3088.795	727.12
3092.007	755.12
3095.216	772.12
3098.423	788.12
3101.627	812.12
3104.828	820.12
3108.026	832.12
3111.222	849.12
3114.416	872.12
3117.607	894.12
3120.795	906.12
3123.98	932.12
3127.163	958.12
3130.344	980.12
3133.521	999.12
3136.696	1021.12
3139.869	1041.12
3143.039	1059.12
3146.206	1077.12
3149.371	1081.12
3152.533	1087.12
3155.693	1110.12
3158.85	1101.12
3162.005	1109.12
3165.157	1120.12
3168.306	1117.12
3171.453	1110.12
3174.597	1120.12
3177.739	1138.12
3180.878	1144.12
3184.014	1144.12
3187.149	1132.12
3190.28	1148.12
3193.409	1144.12
3196.536	1169.12
3199.659	1158.12
3202.781	1154.12
3205.9	1147.12
3209.016	1160.12
3212.13	1149.12
3215.241	1159.12
3218.35	1142.12
3221.456	1138.12
3224.56	1120.12
3227.661	1120.12
3230.76	1124.12
3233.856	1098.12
3236.95	1088.12
3240.041	1082.12
3243.13	1060.12
3246.216	1062.12
3249.3	1048.12
3252.382	1053.12
3255.46	1042.12
3258.537	1039.12
3261.611	1034.12
3264.682	1039.12
3267.751	1014.12
3270.818	1013.12
3273.882	1014.12
3276.943	1009.12
3280.002	998.12
3283.059	987.12
3286.113	970.12
3289.165	947.12
3292.214	962.12
3295.261	928.12
3298.306	911.12
3301.348	897.12
3304.387	883.12
3307.425	877.12
3310.459	863.12
3313.492	862.12
3316.521	849.12
3319.549	838.12
3322.574	820.12
3325.597	816.12
3328.617	808.12
3331.635	795.12
3334.65	815.12
3337.663	795.12
3340.674	805.12
3343.682	803.12
3346.688	795.12
3349.691	773.12
3352.692	766.12
3355.691	781.12
3358.687	768.12
3361.681	755.12
3364.673	744.12
3367.662	736.12
3370.649	725.12
3373.633	712.12
3376.615	711.12
3379.595	686.12
3382.572	699.12
3385.547	680.12
3388.52	677.12
3391.49	673.12
3394.458	650.12
3397.424	647.12
3400.387	645.12
3403.348	636.12
3406.307	617.12
3409.263	612.12
3412.217	612.12
3415.168	608.12
3418.118	590.12
3421.065	575.12
3424.009	587.12
3426.951	577.12
3429.891	567.12
3432.829	554.12
3435.764	550.12
3438.697	544.12
3441.628	533.12
3444.557	509.12
3447.483	494.12
3450.407	481.12
3453.328	469.12
3456.247	448.12
3459.164	437.12
3462.079	434.12
3464.991	412.12
3467.902	392.12
3470.809	390.12
3473.715	386.12
3476.618	370.12
3479.519	363.12
3482.418	342.12
3485.315	343.12
3488.209	323.12
3491.101	319.12
3493.99	308.12
3496.878	299.12
3499.763	289.12
3502.646	281.12
3505.527	271.12
3508.405	258.12
3511.281	256.12
3514.155	238.12
3517.027	231.12
3519.897	218.12
3522.764	199.12
3525.629	194.12
3528.492	186.12
3531.352	172.12
3534.211	164.12
3537.067	151.12
3539.921	147.12
3542.773	138.12
3545.622	121.12
3548.469	118.12
3551.315	116.12
3554.157	114.12
3556.998	97.12
3559.837	93.12
3562.673	84.12
3565.507	74.12
3568.339	75.12
3571.169	71.12
3573.996	57.12
3576.822	59.12
3579.645	58.12
3582.466	47.12
3585.285	48.12
3588.101	35.12
3590.916	35.12
3593.728	31.12
3596.538	23.12
3599.346	23.12
3602.152	16.12
3604.956	13.12
3607.757	1.12
3610.556	3.12
3613.354	-6.88
3616.149	-1.88
3618.942	-12.88
3621.732	-15.88
3624.521	-13.88
3627.307	-13.88
3630.092	-20.88
3632.874	-21.88
3635.654	-26.88
3638.432	-22.88
3641.208	-28.88
3643.982	-32.88
3646.753	-34.88
3649.523	-39.88
3652.29	-42.88
3655.055	-46.88
3657.818	-46.88
3660.579	-48.88
3663.338	-52.88
3666.095	-52.88
3668.849	-49.88
3671.602	-58.88
3674.352	-56.88
3677.101	-63.88
3679.847	-67.88
3682.591	-65.88
3685.333	-68.88
3688.073	-69.88
3690.811	-72.88
3693.547	-72.88
3696.281	-74.88
3699.013	-72.88
3701.742	-74.88
3704.47	-73.88
3707.195	-79.88
3709.919	-78.88
3712.64	-79.88
3715.359	-79.88
3718.076	-85.88
3720.792	-84.88
3723.505	-85.88
3726.216	-85.88
3728.925	-83.88
3731.632	-84.88
3734.336	-82.88
3737.039	-88.88
3739.74	-84.88
3742.439	-90.88
3745.136	-92.88
3747.83	-90.88
3750.523	-89.88
3753.213	-92.88
3755.902	-92.88
3758.589	-96.88
3761.273	-93.88
3763.956	-90.88
3766.636	-93.88
3769.315	-93.88
3771.991	-93.88
3774.665	-92.88
3777.338	-89.88
3780.008	-94.88
3782.677	-98.88
3785.343	-94.88
3788.007	-97.88
3790.67	-99.88
3793.33	-99.88
3795.989	-97.88
3798.645	-93.88
3801.299	-95.88
3803.952	-98.88
3806.602	-102.88
3809.251	-99.88
3811.897	-97.88
3814.542	-99.88
3817.184	-97.88
3819.825	-102.88
3822.463	-102.88
3825.1	-105.88
3827.735	-106.88
3830.367	-103.88
3832.998	-103.88
3835.627	-99.88
3838.253	-99.88
3840.878	-98.88
3843.501	-99.88
3846.122	-103.88
3848.741	-104.88
3851.358	-101.88
3853.973	-105.88
3856.586	-103.88
3859.197	-101.88
3861.806	-101.88
3864.414	-100.88
3867.019	-105.88
3869.622	-104.88
3872.224	-102.88
3874.823	-101.88
3877.421	-96.88
3880.016	-90.88
3882.61	-93.88
3885.202	-94.88
3887.792	-97.88
3890.38	-100.88
3892.966	-100.88
3895.55	-105.88
3898.132	-104.88
3900.713	-104.88
3903.291	-101.88
3905.868	-102.88
3908.442	-102.88
3911.015	-105.88
3913.586	-106.88
3916.155	-105.88
3918.722	-108.88
3921.287	-105.88
3923.85	-105.88
3926.411	-109.88
3928.971	-105.88
3931.528	-107.88
3934.084	-103.88
3936.638	-107.88
3939.19	-104.88
3941.74	-105.88
3944.288	-104.88
3946.834	-103.88
3949.378	-107.88
3951.921	-105.88
3954.462	-112.88
3957	-109.88
3959.537	-105.88
3962.072	-108.88
3964.606	-108.88
3967.137	-103.88
3969.667	-100.88
3972.194	-106.88
3974.72	-103.88
3977.244	-104.88
3979.766	-102.88
3982.286	-104.88
3984.805	-105.88
3987.321	-105.88
3989.836	-103.88
3992.349	-107.88
3994.86	-106.88
3997.369	-106.88
3999.877	-106.88
4002.382	-99.88
4004.886	-100.88
4007.388	-101.88
4009.888	-102.88
4012.386	-101.88
4014.883	-104.88
4017.377	-111.88
4019.87	-103.88
4022.361	-107.88
4024.85	-105.88
4027.338	-103.88
4029.823	-100.88
4032.307	-103.88
4034.789	-101.88
4037.269	-104.88
4039.747	-108.88
4042.224	-107.88
4044.699	-109.88
4047.172	-105.88
4049.643	-103.88
4052.112	-109.88
4054.58	-106.88
4057.046	-104.88
4059.51	-106.88
4061.972	-106.88
4064.432	-106.88
4066.891	-102.88
4069.348	-104.88
4071.803	-106.88
4074.256	-105.88
4076.708	-103.88
4079.158	-106.88
4081.606	-106.88
4084.052	-108.88
4086.497	-106.88
4088.939	-107.88
4091.38	-104.88
4093.819	-104.88
4096.257	-108.88
4098.693	-108.88
4101.127	-110.88
4103.559	-109.88
4105.989	-74.88
4108.418	-69.88
4110.845	-66.88
4113.27	-64.88
4115.694	-58.88
4118.115	-43.88
4120.535	-102.88
4122.954	-103.88
4125.37	-105.88
4127.785	-103.88
4130.198	-106.88
4132.609	-106.88
4135.019	-109.88
4137.427	-111.88
4139.833	-111.88
4142.237	-107.88
