Data from 100000000CFU3_A_RamanShift_1.txt Node
Date: Mon Jan 23 14:53:07 IST 2017
User: aro
Spectrometer: QEPB0276
Trigger mode: 0
Integration Time (sec): 5.000000E0
Scans to average: 1
Electric dark correction enabled: true
Nonlinearity correction enabled: false
Boxcar width: 0
XAxis mode: Raman Shifts
Number of Pixels in Spectrum: 1044
>>>>>Begin Spectral Data<<<<<
160.701	-20.75
166.742	1.25
172.777	68.25
178.805	280.25
184.826	765.25
190.841	1608.25
196.849	2493.25
202.85	3093.25
208.845	3226.25
214.833	3128.25
220.815	3037.25
226.789	2942.25
232.758	2861.25
238.719	2783.25
244.674	2694.25
250.623	2587.25
256.565	2473.25
262.5	2374.25
268.429	2283.25
274.351	2162.25
280.267	2108.25
286.176	2027.25
292.079	1956.25
297.975	1913.25
303.865	1860.25
309.748	1821.25
315.625	1767.25
321.495	1727.25
327.359	1701.25
333.217	1698.25
339.068	1681.25
344.912	1654.25
350.751	1647.25
356.583	1681.25
362.408	1662.25
368.227	1656.25
374.04	1657.25
379.847	1667.25
385.647	1682.25
391.44	1699.25
397.228	1705.25
403.009	1716.25
408.784	1716.25
414.553	1720.25
420.315	1714.25
426.071	1720.25
431.821	1727.25
437.565	1724.25
443.302	1717.25
449.033	1734.25
454.758	1711.25
460.477	1711.25
466.189	1692.25
471.896	1695.25
477.596	1687.25
483.29	1669.25
488.978	1675.25
494.66	1664.25
500.335	1638.25
506.005	1615.25
511.668	1583.25
517.325	1545.25
522.977	1537.25
528.622	1505.25
534.261	1497.25
539.894	1491.25
545.521	1461.25
551.141	1475.25
556.756	1451.25
562.365	1442.25
567.968	1438.25
573.565	1420.25
579.155	1404.25
584.74	1420.25
590.319	1395.25
595.892	1401.25
601.459	1389.25
607.02	1371.25
612.575	1367.25
618.124	1348.25
623.667	1329.25
629.204	1328.25
634.735	1319.25
640.261	1314.25
645.781	1311.25
651.294	1306.25
656.802	1279.25
662.304	1288.25
667.8	1264.25
673.29	1269.25
678.775	1277.25
684.254	1277.25
689.726	1278.25
695.193	1253.25
700.655	1246.25
706.11	1251.25
711.56	1237.25
717.004	1224.25
722.442	1218.25
727.874	1207.25
733.301	1221.25
738.722	1190.25
744.137	1192.25
749.547	1188.25
754.951	1176.25
760.349	1194.25
765.741	1182.25
771.128	1186.25
776.509	1174.25
781.885	1182.25
787.254	1174.25
792.618	1179.25
797.977	1171.25
803.33	1146.25
808.677	1156.25
814.019	1144.25
819.355	1127.25
824.686	1117.25
830.011	1115.25
835.33	1110.25
840.644	1099.25
845.952	1097.25
851.255	1100.25
856.552	1091.25
861.844	1075.25
867.13	1088.25
872.41	1075.25
877.686	1071.25
882.955	1046.25
888.219	1041.25
893.478	1019.25
898.731	1005.25
903.979	995.25
909.221	985.25
914.458	977.25
919.69	978.25
924.916	975.25
930.136	969.25
935.351	964.25
940.561	964.25
945.766	952.25
950.965	957.25
956.158	935.25
961.347	933.25
966.529	925.25
971.707	894.25
976.879	915.25
982.046	894.25
987.208	885.25
992.364	879.25
997.515	888.25
1002.66	885.25
1007.801	901.25
1012.936	915.25
1018.066	898.25
1023.19	910.25
1028.309	932.25
1033.423	929.25
1038.532	916.25
1043.636	924.25
1048.734	899.25
1053.827	897.25
1058.915	876.25
1063.998	882.25
1069.075	860.25
1074.147	884.25
1079.214	876.25
1084.276	874.25
1089.333	894.25
1094.385	880.25
1099.431	902.25
1104.472	900.25
1109.509	897.25
1114.54	882.25
1119.565	887.25
1124.586	865.25
1129.602	848.25
1134.613	845.25
1139.618	846.25
1144.619	851.25
1149.614	851.25
1154.604	851.25
1159.589	852.25
1164.57	863.25
1169.545	873.25
1174.515	857.25
1179.48	862.25
1184.44	857.25
1189.395	855.25
1194.345	845.25
1199.29	850.25
1204.23	842.25
1209.165	858.25
1214.095	853.25
1219.021	856.25
1223.941	866.25
1228.856	863.25
1233.766	871.25
1238.672	881.25
1243.572	879.25
1248.467	877.25
1253.358	861.25
1258.244	855.25
1263.124	830.25
1268	834.25
1272.871	810.25
1277.737	814.25
1282.599	809.25
1287.455	813.25
1292.306	810.25
1297.153	812.25
1301.995	838.25
1306.832	821.25
1311.664	829.25
1316.491	835.25
1321.314	838.25
1326.132	829.25
1330.945	812.25
1335.753	809.25
1340.556	804.25
1345.354	783.25
1350.148	778.25
1354.937	791.25
1359.722	781.25
1364.501	770.25
1369.276	767.25
1374.046	766.25
1378.811	761.25
1383.572	760.25
1388.327	764.25
1393.079	754.25
1397.825	741.25
1402.567	736.25
1407.304	728.25
1412.036	733.25
1416.764	726.25
1421.487	724.25
1426.205	725.25
1430.919	728.25
1435.628	754.25
1440.333	758.25
1445.032	759.25
1449.727	783.25
1454.418	765.25
1459.104	762.25
1463.785	757.25
1468.462	766.25
1473.134	746.25
1477.802	746.25
1482.465	740.25
1487.123	742.25
1491.777	743.25
1496.426	745.25
1501.071	758.25
1505.711	761.25
1510.347	766.25
1514.978	764.25
1519.604	769.25
1524.226	777.25
1528.844	798.25
1533.457	780.25
1538.065	772.25
1542.669	763.25
1547.269	771.25
1551.864	774.25
1556.454	771.25
1561.041	781.25
1565.622	773.25
1570.199	790.25
1574.772	802.25
1579.34	818.25
1583.904	841.25
1588.464	839.25
1593.019	852.25
1597.569	863.25
1602.115	865.25
1606.657	876.25
1611.195	890.25
1615.728	904.25
1620.256	904.25
1624.78	912.25
1629.3	929.25
1633.816	938.25
1638.327	946.25
1642.834	952.25
1647.336	966.25
1651.834	980.25
1656.328	965.25
1660.817	975.25
1665.302	947.25
1669.783	929.25
1674.259	909.25
1678.732	900.25
1683.199	849.25
1687.663	834.25
1692.122	814.25
1696.577	784.25
1701.028	742.25
1705.474	722.25
1709.917	697.25
1714.355	685.25
1718.788	681.25
1723.218	661.25
1727.643	649.25
1732.064	643.25
1736.481	619.25
1740.893	604.25
1745.301	587.25
1749.705	565.25
1754.105	555.25
1758.501	552.25
1762.893	540.25
1767.28	538.25
1771.663	530.25
1776.042	526.25
1780.417	532.25
1784.787	525.25
1789.154	532.25
1793.516	528.25
1797.874	526.25
1802.228	522.25
1806.578	511.25
1810.924	510.25
1815.266	492.25
1819.603	488.25
1823.937	491.25
1828.266	481.25
1832.591	468.25
1836.913	476.25
1841.23	468.25
1845.543	462.25
1849.852	458.25
1854.156	467.25
1858.457	472.25
1862.754	475.25
1867.047	485.25
1871.335	479.25
1875.62	484.25
1879.9	484.25
1884.177	474.25
1888.449	479.25
1892.718	472.25
1896.982	485.25
1901.243	478.25
1905.499	475.25
1909.752	475.25
1914	478.25
1918.245	483.25
1922.485	477.25
1926.722	482.25
1930.954	481.25
1935.183	489.25
1939.408	476.25
1943.628	489.25
1947.845	487.25
1952.058	481.25
1956.267	475.25
1960.472	468.25
1964.673	455.25
1968.87	458.25
1973.063	446.25
1977.252	450.25
1981.438	443.25
1985.619	446.25
1989.797	440.25
1993.971	459.25
1998.14	450.25
2002.306	449.25
2006.469	450.25
2010.627	463.25
2014.781	460.25
2018.932	454.25
2023.078	446.25
2027.221	447.25
2031.36	450.25
2035.495	445.25
2039.627	442.25
2043.754	442.25
2047.878	451.25
2051.998	435.25
2056.114	436.25
2060.226	435.25
2064.334	439.25
2068.439	442.25
2072.54	458.25
2076.637	459.25
2080.73	457.25
2084.82	460.25
2088.906	459.25
2092.988	462.25
2097.066	458.25
2101.14	452.25
2105.211	440.25
2109.278	449.25
2113.342	456.25
2117.401	446.25
2121.457	428.25
2125.509	435.25
2129.558	425.25
2133.602	424.25
2137.643	421.25
2141.681	420.25
2145.714	426.25
2149.744	422.25
2153.77	419.25
2157.793	411.25
2161.812	411.25
2165.827	397.25
2169.838	395.25
2173.846	407.25
2177.851	395.25
2181.851	377.25
2185.848	368.25
2189.841	378.25
2193.831	374.25
2197.817	370.25
2201.799	367.25
2205.778	361.25
2209.753	360.25
2213.725	366.25
2217.693	359.25
2221.657	365.25
2225.618	363.25
2229.575	361.25
2233.529	354.25
2237.479	361.25
2241.425	355.25
2245.368	352.25
2249.307	349.25
2253.243	331.25
2257.175	326.25
2261.104	325.25
2265.029	320.25
2268.95	315.25
2272.868	312.25
2276.783	310.25
2280.694	308.25
2284.601	299.25
2288.505	306.25
2292.405	288.25
2296.302	298.25
2300.195	292.25
2304.085	287.25
2307.971	283.25
2311.854	271.25
2315.734	267.25
2319.609	262.25
2323.482	263.25
2327.351	258.25
2331.216	260.25
2335.078	264.25
2338.937	259.25
2342.792	248.25
2346.643	248.25
2350.492	240.25
2354.336	247.25
2358.178	246.25
2362.015	249.25
2365.85	249.25
2369.681	245.25
2373.508	251.25
2377.333	248.25
2381.153	245.25
2384.971	241.25
2388.785	239.25
2392.595	243.25
2396.402	244.25
2400.206	234.25
2404.007	240.25
2407.804	233.25
2411.597	235.25
2415.388	231.25
2419.174	233.25
2422.958	232.25
2426.738	240.25
2430.515	244.25
2434.289	232.25
2438.059	237.25
2441.825	232.25
2445.589	219.25
2449.349	228.25
2453.106	219.25
2456.859	217.25
2460.61	224.25
2464.356	215.25
2468.1	213.25
2471.84	217.25
2475.577	212.25
2479.311	216.25
2483.041	208.25
2486.768	219.25
2490.492	210.25
2494.213	215.25
2497.93	211.25
2501.644	210.25
2505.355	216.25
2509.062	211.25
2512.766	212.25
2516.467	212.25
2520.165	212.25
2523.859	208.25
2527.551	207.25
2531.239	202.25
2534.923	199.25
2538.605	198.25
2542.283	199.25
2545.958	199.25
2549.63	196.25
2553.299	192.25
2556.964	188.25
2560.626	192.25
2564.285	190.25
2567.941	191.25
2571.594	191.25
2575.243	192.25
2578.89	191.25
2582.533	180.25
2586.173	190.25
2589.809	178.25
2593.443	184.25
2597.073	175.25
2600.701	178.25
2604.325	176.25
2607.946	177.25
2611.564	174.25
2615.178	169.25
2618.79	173.25
2622.398	168.25
2626.004	172.25
2629.606	169.25
2633.205	166.25
2636.801	172.25
2640.394	168.25
2643.983	157.25
2647.57	156.25
2651.153	161.25
2654.734	160.25
2658.311	156.25
2661.885	159.25
2665.456	153.25
2669.025	156.25
2672.589	154.25
2676.151	160.25
2679.71	144.25
2683.266	143.25
2686.819	143.25
2690.368	147.25
2693.915	142.25
2697.458	142.25
2700.999	135.25
2704.536	130.25
2708.071	139.25
2711.602	135.25
2715.13	132.25
2718.656	133.25
2722.178	137.25
2725.697	139.25
2729.214	142.25
2732.727	142.25
2736.237	130.25
2739.744	132.25
2743.249	134.25
2746.75	135.25
2750.248	130.25
2753.743	141.25
2757.236	133.25
2760.725	139.25
2764.211	136.25
2767.695	133.25
2771.175	129.25
2774.652	127.25
2778.127	128.25
2781.598	133.25
2785.067	129.25
2788.532	129.25
2791.995	124.25
2795.455	129.25
2798.911	132.25
2802.365	130.25
2805.816	133.25
2809.264	133.25
2812.709	135.25
2816.151	138.25
2819.59	135.25
2823.026	130.25
2826.46	132.25
2829.89	138.25
2833.318	134.25
2836.742	126.25
2840.164	138.25
2843.583	137.25
2846.999	144.25
2850.412	145.25
2853.822	151.25
2857.229	153.25
2860.634	147.25
2864.035	154.25
2867.434	160.25
2870.83	153.25
2874.223	163.25
2877.613	146.25
2881	159.25
2884.385	160.25
2887.766	157.25
2891.145	152.25
2894.521	161.25
2897.894	158.25
2901.264	159.25
2904.631	162.25
2907.996	170.25
2911.358	165.25
2914.717	169.25
2918.073	164.25
2921.426	176.25
2924.777	171.25
2928.124	183.25
2931.469	186.25
2934.811	194.25
2938.15	195.25
2941.487	202.25
2944.821	197.25
2948.152	201.25
2951.48	207.25
2954.805	202.25
2958.128	215.25
2961.447	208.25
2964.765	215.25
2968.079	227.25
2971.39	229.25
2974.699	231.25
2978.005	232.25
2981.308	243.25
2984.609	241.25
2987.907	263.25
2991.202	263.25
2994.494	273.25
2997.784	279.25
3001.07	274.25
3004.355	292.25
3007.636	290.25
3010.915	306.25
3014.191	308.25
3017.464	316.25
3020.734	330.25
3024.002	331.25
3027.267	338.25
3030.53	340.25
3033.789	347.25
3037.046	343.25
3040.301	361.25
3043.552	369.25
3046.801	378.25
3050.048	387.25
3053.291	393.25
3056.532	403.25
3059.771	429.25
3063.006	436.25
3066.239	461.25
3069.469	471.25
3072.697	478.25
3075.922	499.25
3079.144	494.25
3082.364	511.25
3085.581	532.25
3088.795	549.25
3092.007	554.25
3095.216	562.25
3098.423	585.25
3101.627	592.25
3104.828	603.25
3108.026	614.25
3111.222	626.25
3114.416	637.25
3117.607	649.25
3120.795	676.25
3123.98	690.25
3127.163	708.25
3130.344	723.25
3133.521	742.25
3136.696	754.25
3139.869	767.25
3143.039	780.25
3146.206	798.25
3149.371	797.25
3152.533	815.25
3155.693	828.25
3158.85	827.25
3162.005	828.25
3165.157	836.25
3168.306	826.25
3171.453	833.25
3174.597	840.25
3177.739	852.25
3180.878	834.25
3184.014	838.25
3187.149	850.25
3190.28	845.25
3193.409	853.25
3196.536	852.25
3199.659	838.25
3202.781	863.25
3205.9	849.25
3209.016	863.25
3212.13	857.25
3215.241	852.25
3218.35	839.25
3221.456	842.25
3224.56	841.25
3227.661	806.25
3230.76	815.25
3233.856	813.25
3236.95	793.25
3240.041	790.25
3243.13	791.25
3246.216	782.25
3249.3	772.25
3252.382	776.25
3255.46	752.25
3258.537	763.25
3261.611	763.25
3264.682	765.25
3267.751	755.25
3270.818	750.25
3273.882	750.25
3276.943	743.25
3280.002	733.25
3283.059	736.25
3286.113	725.25
3289.165	705.25
3292.214	708.25
3295.261	683.25
3298.306	673.25
3301.348	677.25
3304.387	663.25
3307.425	657.25
3310.459	643.25
3313.492	627.25
3316.521	625.25
3319.549	626.25
3322.574	604.25
3325.597	611.25
3328.617	598.25
3331.635	596.25
3334.65	599.25
3337.663	609.25
3340.674	586.25
3343.682	595.25
3346.688	584.25
3349.691	576.25
3352.692	576.25
3355.691	581.25
3358.687	571.25
3361.681	566.25
3364.673	563.25
3367.662	549.25
3370.649	544.25
3373.633	526.25
3376.615	530.25
3379.595	523.25
3382.572	520.25
3385.547	506.25
3388.52	508.25
3391.49	486.25
3394.458	485.25
3397.424	484.25
3400.387	480.25
3403.348	467.25
3406.307	462.25
3409.263	463.25
3412.217	455.25
3415.168	457.25
3418.118	445.25
3421.065	438.25
3424.009	441.25
3426.951	432.25
3429.891	420.25
3432.829	416.25
3435.764	408.25
3438.697	399.25
3441.628	382.25
3444.557	370.25
3447.483	365.25
3450.407	346.25
3453.328	336.25
3456.247	334.25
3459.164	331.25
3462.079	321.25
3464.991	297.25
3467.902	292.25
3470.809	280.25
3473.715	282.25
3476.618	267.25
3479.519	270.25
3482.418	251.25
3485.315	248.25
3488.209	239.25
3491.101	230.25
3493.99	217.25
3496.878	216.25
3499.763	215.25
3502.646	206.25
3505.527	200.25
3508.405	189.25
3511.281	182.25
3514.155	170.25
3517.027	167.25
3519.897	152.25
3522.764	151.25
3525.629	141.25
3528.492	137.25
3531.352	129.25
3534.211	121.25
3537.067	109.25
3539.921	104.25
3542.773	102.25
3545.622	91.25
3548.469	88.25
3551.315	83.25
3554.157	79.25
3556.998	67.25
3559.837	62.25
3562.673	54.25
3565.507	54.25
3568.339	53.25
3571.169	55.25
3573.996	41.25
3576.822	46.25
3579.645	38.25
3582.466	36.25
3585.285	34.25
3588.101	28.25
3590.916	23.25
3593.728	20.25
3596.538	14.25
3599.346	13.25
3602.152	12.25
3604.956	6.25
3607.757	4.25
3610.556	3.25
3613.354	-4.75
3616.149	-0.75
3618.942	-11.75
3621.732	-11.75
3624.521	-5.75
3627.307	-13.75
3630.092	-17.75
3632.874	-16.75
3635.654	-22.75
3638.432	-17.75
3641.208	-25.75
3643.982	-28.75
3646.753	-25.75
3649.523	-28.75
3652.29	-32.75
3655.055	-32.75
3657.818	-34.75
3660.579	-37.75
3663.338	-39.75
3666.095	-38.75
3668.849	-38.75
3671.602	-44.75
3674.352	-42.75
3677.101	-50.75
3679.847	-52.75
3682.591	-51.75
3685.333	-48.75
3688.073	-48.75
3690.811	-48.75
3693.547	-53.75
3696.281	-53.75
3699.013	-55.75
3701.742	-55.75
3704.47	-56.75
3707.195	-60.75
3709.919	-60.75
3712.64	-58.75
3715.359	-60.75
3718.076	-62.75
3720.792	-63.75
3723.505	-62.75
3726.216	-63.75
3728.925	-57.75
3731.632	-64.75
3734.336	-65.75
3737.039	-63.75
3739.74	-65.75
3742.439	-70.75
3745.136	-69.75
3747.83	-66.75
3750.523	-68.75
3753.213	-61.75
3755.902	-65.75
3758.589	-68.75
3761.273	-67.75
3763.956	-63.75
3766.636	-66.75
3769.315	-69.75
3771.991	-70.75
3774.665	-68.75
3777.338	-69.75
3780.008	-73.75
3782.677	-76.75
3785.343	-71.75
3788.007	-69.75
3790.67	-71.75
3793.33	-67.75
3795.989	-69.75
3798.645	-65.75
3801.299	-68.75
3803.952	-70.75
3806.602	-76.75
3809.251	-73.75
3811.897	-72.75
3814.542	-76.75
3817.184	-71.75
3819.825	-76.75
3822.463	-71.75
3825.1	293.25
3827.735	31.25
3830.367	8.25
3832.998	-47.75
3835.627	-68.75
3838.253	-73.75
3840.878	-74.75
3843.501	-75.75
3846.122	-78.75
3848.741	-79.75
3851.358	-77.75
3853.973	-80.75
3856.586	-74.75
3859.197	-74.75
3861.806	-75.75
3864.414	-74.75
3867.019	-76.75
3869.622	-76.75
3872.224	-74.75
3874.823	-72.75
3877.421	-71.75
3880.016	-73.75
3882.61	-68.75
3885.202	-72.75
3887.792	-73.75
3890.38	-72.75
3892.966	-73.75
3895.55	-77.75
3898.132	-73.75
3900.713	-75.75
3903.291	-76.75
3905.868	-73.75
3908.442	-79.75
3911.015	-81.75
3913.586	-81.75
3916.155	-81.75
3918.722	-81.75
3921.287	-77.75
3923.85	-76.75
3926.411	-78.75
3928.971	-75.75
3931.528	-82.75
3934.084	-79.75
3936.638	-78.75
3939.19	-80.75
3941.74	-78.75
3944.288	-79.75
3946.834	-78.75
3949.378	-79.75
3951.921	-78.75
3954.462	-80.75
3957	-80.75
3959.537	-80.75
3962.072	-79.75
3964.606	-77.75
3967.137	-79.75
3969.667	-74.75
3972.194	-77.75
3974.72	-79.75
3977.244	-79.75
3979.766	-79.75
3982.286	-78.75
3984.805	-77.75
3987.321	-79.75
3989.836	-80.75
3992.349	-77.75
3994.86	-77.75
3997.369	-77.75
3999.877	-78.75
4002.382	-72.75
4004.886	-77.75
4007.388	-78.75
4009.888	-78.75
4012.386	-76.75
4014.883	-80.75
4017.377	-83.75
4019.87	-76.75
4022.361	-79.75
4024.85	-77.75
4027.338	-74.75
4029.823	-75.75
4032.307	-76.75
4034.789	-75.75
4037.269	-78.75
4039.747	-79.75
4042.224	-83.75
4044.699	-86.75
4047.172	-81.75
4049.643	-81.75
4052.112	-82.75
4054.58	-76.75
4057.046	-77.75
4059.51	-78.75
4061.972	-79.75
4064.432	-81.75
4066.891	-76.75
4069.348	-77.75
4071.803	-81.75
4074.256	-74.75
4076.708	-77.75
4079.158	-78.75
4081.606	-79.75
4084.052	-85.75
4086.497	-77.75
4088.939	-78.75
4091.38	-79.75
4093.819	-77.75
4096.257	-81.75
4098.693	-77.75
4101.127	-79.75
4103.559	-81.75
4105.989	-52.75
4108.418	-51.75
4110.845	-49.75
4113.27	-47.75
4115.694	-43.75
4118.115	-34.75
4120.535	-75.75
4122.954	-76.75
4125.37	-78.75
4127.785	-79.75
4130.198	-81.75
4132.609	-78.75
4135.019	-84.75
4137.427	-82.75
4139.833	-81.75
4142.237	-79.75
