Data from 10000000CFU2_B_RamanShift_1.txt Node
Date: Mon Jan 23 14:48:27 IST 2017
User: aro
Spectrometer: QEPB0276
Trigger mode: 0
Integration Time (sec): 5.000000E0
Scans to average: 1
Electric dark correction enabled: true
Nonlinearity correction enabled: false
Boxcar width: 0
XAxis mode: Raman Shifts
Number of Pixels in Spectrum: 1044
>>>>>Begin Spectral Data<<<<<
160.701	-33.62
166.742	-1.62
172.777	95.38
178.805	404.38
184.826	1112.38
190.841	2321.38
196.849	3636.38
202.85	4469.38
208.845	4665.38
214.833	4551.38
220.815	4397.38
226.789	4299.38
232.758	4134.38
238.719	4041.38
244.674	3868.38
250.623	3703.38
256.565	3557.38
262.5	3373.38
268.429	3263.38
274.351	3108.38
280.267	2994.38
286.176	2875.38
292.079	2782.38
297.975	2691.38
303.865	2612.38
309.748	2551.38
315.625	2478.38
321.495	2415.38
327.359	2403.38
333.217	2376.38
339.068	2356.38
344.912	2319.38
350.751	2319.38
356.583	2317.38
362.408	2307.38
368.227	2309.38
374.04	2316.38
379.847	2317.38
385.647	2331.38
391.44	2349.38
397.228	2351.38
403.009	2362.38
408.784	2392.38
414.553	2388.38
420.315	2402.38
426.071	2399.38
431.821	2409.38
437.565	2421.38
443.302	2383.38
449.033	2398.38
454.758	2393.38
460.477	2365.38
466.189	2351.38
471.896	2360.38
477.596	2356.38
483.29	2343.38
488.978	2334.38
494.66	2309.38
500.335	2304.38
506.005	2252.38
511.668	2226.38
517.325	2187.38
522.977	2152.38
528.622	2136.38
534.261	2102.38
539.894	2092.38
545.521	2088.38
551.141	2083.38
556.756	2066.38
562.365	2041.38
567.968	2042.38
573.565	2029.38
579.155	2036.38
584.74	2007.38
590.319	1980.38
595.892	1990.38
601.459	1954.38
607.02	1959.38
612.575	1923.38
618.124	1914.38
623.667	1893.38
629.204	1876.38
634.735	1873.38
640.261	1857.38
645.781	1840.38
651.294	1841.38
656.802	1834.38
662.304	1821.38
667.8	1812.38
673.29	1795.38
678.775	1799.38
684.254	1804.38
689.726	1808.38
695.193	1785.38
700.655	1776.38
706.11	1759.38
711.56	1757.38
717.004	1733.38
722.442	1722.38
727.874	1724.38
733.301	1715.38
738.722	1717.38
744.137	1697.38
749.547	1705.38
754.951	1696.38
760.349	1700.38
765.741	1699.38
771.128	1698.38
776.509	1688.38
781.885	1683.38
787.254	1696.38
792.618	1683.38
797.977	1656.38
803.33	1652.38
808.677	1629.38
814.019	1609.38
819.355	1600.38
824.686	1595.38
830.011	1592.38
835.33	1574.38
840.644	1558.38
845.952	1575.38
851.255	1566.38
856.552	1560.38
861.844	1552.38
867.13	1535.38
872.41	1544.38
877.686	1532.38
882.955	1490.38
888.219	1472.38
893.478	1464.38
898.731	1428.38
903.979	1422.38
909.221	1401.38
914.458	1387.38
919.69	1400.38
924.916	1401.38
930.136	1403.38
935.351	1391.38
940.561	1402.38
945.766	1374.38
950.965	1380.38
956.158	1376.38
961.347	1342.38
966.529	1317.38
971.707	1311.38
976.879	1292.38
982.046	1273.38
987.208	1282.38
992.364	1279.38
997.515	1276.38
1002.66	1290.38
1007.801	1287.38
1012.936	1323.38
1018.066	1332.38
1023.19	1329.38
1028.309	1331.38
1033.423	1318.38
1038.532	1321.38
1043.636	1303.38
1048.734	1293.38
1053.827	1274.38
1058.915	1278.38
1063.998	1287.38
1069.075	1261.38
1074.147	1263.38
1079.214	1289.38
1084.276	1266.38
1089.333	1301.38
1094.385	1303.38
1099.431	1315.38
1104.472	1318.38
1109.509	1317.38
1114.54	1281.38
1119.565	1278.38
1124.586	1270.38
1129.602	1256.38
1134.613	1247.38
1139.618	1228.38
1144.619	1238.38
1149.614	1246.38
1154.604	1237.38
1159.589	1256.38
1164.57	1255.38
1169.545	1267.38
1174.515	1256.38
1179.48	1260.38
1184.44	1243.38
1189.395	1247.38
1194.345	1227.38
1199.29	1238.38
1204.23	1237.38
1209.165	1245.38
1214.095	1264.38
1219.021	1267.38
1223.941	1261.38
1228.856	1271.38
1233.766	1285.38
1238.672	1280.38
1243.572	1279.38
1248.467	1268.38
1253.358	1267.38
1258.244	1235.38
1263.124	1216.38
1268	1211.38
1272.871	1204.38
1277.737	1192.38
1282.599	1189.38
1287.455	1187.38
1292.306	1189.38
1297.153	1196.38
1301.995	1200.38
1306.832	1220.38
1311.664	1210.38
1316.491	1206.38
1321.314	1219.38
1326.132	1214.38
1330.945	1208.38
1335.753	1191.38
1340.556	1194.38
1345.354	1175.38
1350.148	1164.38
1354.937	1152.38
1359.722	1151.38
1364.501	1133.38
1369.276	1125.38
1374.046	1123.38
1378.811	1136.38
1383.572	1098.38
1388.327	1111.38
1393.079	1088.38
1397.825	1094.38
1402.567	1077.38
1407.304	1085.38
1412.036	1056.38
1416.764	1073.38
1421.487	1064.38
1426.205	1072.38
1430.919	1083.38
1435.628	1100.38
1440.333	1106.38
1445.032	1130.38
1449.727	1132.38
1454.418	1142.38
1459.104	1142.38
1463.785	1138.38
1468.462	1119.38
1473.134	1106.38
1477.802	1105.38
1482.465	1103.38
1487.123	1097.38
1491.777	1109.38
1496.426	1108.38
1501.071	1108.38
1505.711	1121.38
1510.347	1122.38
1514.978	1139.38
1519.604	1145.38
1524.226	1165.38
1528.844	1151.38
1533.457	1147.38
1538.065	1137.38
1542.669	1135.38
1547.269	1129.38
1551.864	1125.38
1556.454	1143.38
1561.041	1161.38
1565.622	1152.38
1570.199	1169.38
1574.772	1195.38
1579.34	1216.38
1583.904	1236.38
1588.464	1262.38
1593.019	1270.38
1597.569	1276.38
1602.115	1299.38
1606.657	1293.38
1611.195	1314.38
1615.728	1334.38
1620.256	1345.38
1624.78	1366.38
1629.3	1374.38
1633.816	1404.38
1638.327	1408.38
1642.834	1461.38
1647.336	1456.38
1651.834	1443.38
1656.328	1438.38
1660.817	1428.38
1665.302	1422.38
1669.783	1397.38
1674.259	1366.38
1678.732	1331.38
1683.199	1285.38
1687.663	1245.38
1692.122	1224.38
1696.577	1162.38
1701.028	1110.38
1705.474	1061.38
1709.917	1019.38
1714.355	998.38
1718.788	982.38
1723.218	990.38
1727.643	978.38
1732.064	942.38
1736.481	927.38
1740.893	897.38
1745.301	880.38
1749.705	855.38
1754.105	837.38
1758.501	824.38
1762.893	810.38
1767.28	792.38
1771.663	802.38
1776.042	784.38
1780.417	788.38
1784.787	796.38
1789.154	796.38
1793.516	799.38
1797.874	789.38
1802.228	778.38
1806.578	766.38
1810.924	760.38
1815.266	735.38
1819.603	734.38
1823.937	712.38
1828.266	709.38
1832.591	699.38
1836.913	720.38
1841.23	707.38
1845.543	698.38
1849.852	723.38
1854.156	714.38
1858.457	715.38
1862.754	718.38
1867.047	711.38
1871.335	728.38
1875.62	731.38
1879.9	744.38
1884.177	721.38
1888.449	742.38
1892.718	719.38
1896.982	720.38
1901.243	719.38
1905.499	721.38
1909.752	713.38
1914	702.38
1918.245	715.38
1922.485	720.38
1926.722	718.38
1930.954	733.38
1935.183	730.38
1939.408	739.38
1943.628	732.38
1947.845	736.38
1952.058	722.38
1956.267	708.38
1960.472	709.38
1964.673	702.38
1968.87	686.38
1973.063	694.38
1977.252	675.38
1981.438	671.38
1985.619	676.38
1989.797	677.38
1993.971	675.38
1998.14	679.38
2002.306	680.38
2006.469	691.38
2010.627	698.38
2014.781	689.38
2018.932	683.38
2023.078	691.38
2027.221	683.38
2031.36	681.38
2035.495	672.38
2039.627	678.38
2043.754	674.38
2047.878	667.38
2051.998	666.38
2056.114	681.38
2060.226	667.38
2064.334	670.38
2068.439	679.38
2072.54	676.38
2076.637	688.38
2080.73	695.38
2084.82	692.38
2088.906	698.38
2092.988	687.38
2097.066	683.38
2101.14	687.38
2105.211	682.38
2109.278	673.38
2113.342	669.38
2117.401	672.38
2121.457	652.38
2125.509	655.38
2129.558	652.38
2133.602	651.38
2137.643	659.38
2141.681	649.38
2145.714	647.38
2149.744	635.38
2153.77	634.38
2157.793	629.38
2161.812	627.38
2165.827	616.38
2169.838	600.38
2173.846	609.38
2177.851	587.38
2181.851	580.38
2185.848	592.38
2189.841	561.38
2193.831	562.38
2197.817	564.38
2201.799	551.38
2205.778	551.38
2209.753	559.38
2213.725	555.38
2217.693	548.38
2221.657	549.38
2225.618	556.38
2229.575	543.38
2233.529	551.38
2237.479	539.38
2241.425	541.38
2245.368	524.38
2249.307	522.38
2253.243	510.38
2257.175	501.38
2261.104	509.38
2265.029	490.38
2268.95	492.38
2272.868	487.38
2276.783	477.38
2280.694	480.38
2284.601	461.38
2288.505	461.38
2292.405	449.38
2296.302	445.38
2300.195	430.38
2304.085	433.38
2307.971	428.38
2311.854	417.38
2315.734	421.38
2319.609	403.38
2323.482	393.38
2327.351	402.38
2331.216	398.38
2335.078	399.38
2338.937	388.38
2342.792	382.38
2346.643	384.38
2350.492	377.38
2354.336	389.38
2358.178	384.38
2362.015	384.38
2365.85	387.38
2369.681	384.38
2373.508	382.38
2377.333	384.38
2381.153	389.38
2384.971	374.38
2388.785	369.38
2392.595	383.38
2396.402	372.38
2400.206	365.38
2404.007	363.38
2407.804	364.38
2411.597	361.38
2415.388	370.38
2419.174	360.38
2422.958	359.38
2426.738	366.38
2430.515	359.38
2434.289	363.38
2438.059	352.38
2441.825	358.38
2445.589	352.38
2449.349	348.38
2453.106	339.38
2456.859	347.38
2460.61	335.38
2464.356	338.38
2468.1	337.38
2471.84	340.38
2475.577	337.38
2479.311	340.38
2483.041	336.38
2486.768	332.38
2490.492	331.38
2494.213	332.38
2497.93	333.38
2501.644	324.38
2505.355	336.38
2509.062	330.38
2512.766	338.38
2516.467	327.38
2520.165	327.38
2523.859	319.38
2527.551	323.38
2531.239	316.38
2534.923	314.38
2538.605	309.38
2542.283	315.38
2545.958	300.38
2549.63	314.38
2553.299	302.38
2556.964	305.38
2560.626	297.38
2564.285	300.38
2567.941	301.38
2571.594	294.38
2575.243	295.38
2578.89	292.38
2582.533	290.38
2586.173	279.38
2589.809	284.38
2593.443	268.38
2597.073	281.38
2600.701	278.38
2604.325	270.38
2607.946	285.38
2611.564	276.38
2615.178	272.38
2618.79	268.38
2622.398	271.38
2626.004	272.38
2629.606	265.38
2633.205	270.38
2636.801	266.38
2640.394	258.38
2643.983	255.38
2647.57	251.38
2651.153	246.38
2654.734	257.38
2658.311	248.38
2661.885	245.38
2665.456	240.38
2669.025	245.38
2672.589	237.38
2676.151	235.38
2679.71	234.38
2683.266	231.38
2686.819	220.38
2690.368	232.38
2693.915	232.38
2697.458	226.38
2700.999	218.38
2704.536	213.38
2708.071	219.38
2711.602	213.38
2715.13	218.38
2718.656	223.38
2722.178	220.38
2725.697	224.38
2729.214	213.38
2732.727	217.38
2736.237	216.38
2739.744	217.38
2743.249	210.38
2746.75	220.38
2750.248	218.38
2753.743	224.38
2757.236	206.38
2760.725	216.38
2764.211	206.38
2767.695	205.38
2771.175	205.38
2774.652	207.38
2778.127	199.38
2781.598	205.38
2785.067	197.38
2788.532	193.38
2791.995	203.38
2795.455	206.38
2798.911	213.38
2802.365	209.38
2805.816	212.38
2809.264	206.38
2812.709	212.38
2816.151	210.38
2819.59	211.38
2823.026	197.38
2826.46	209.38
2829.89	214.38
2833.318	221.38
2836.742	217.38
2840.164	216.38
2843.583	224.38
2846.999	230.38
2850.412	223.38
2853.822	222.38
2857.229	215.38
2860.634	228.38
2864.035	230.38
2867.434	238.38
2870.83	233.38
2874.223	248.38
2877.613	239.38
2881	240.38
2884.385	238.38
2887.766	247.38
2891.145	237.38
2894.521	251.38
2897.894	237.38
2901.264	248.38
2904.631	256.38
2907.996	256.38
2911.358	250.38
2914.717	255.38
2918.073	250.38
2921.426	264.38
2924.777	268.38
2928.124	269.38
2931.469	273.38
2934.811	287.38
2938.15	287.38
2941.487	292.38
2944.821	297.38
2948.152	297.38
2951.48	304.38
2954.805	307.38
2958.128	317.38
2961.447	312.38
2964.765	323.38
2968.079	332.38
2971.39	334.38
2974.699	352.38
2978.005	353.38
2981.308	352.38
2984.609	369.38
2987.907	384.38
2991.202	393.38
2994.494	400.38
2997.784	405.38
3001.07	424.38
3004.355	434.38
3007.636	440.38
3010.915	452.38
3014.191	465.38
3017.464	463.38
3020.734	477.38
3024.002	482.38
3027.267	490.38
3030.53	499.38
3033.789	507.38
3037.046	518.38
3040.301	531.38
3043.552	543.38
3046.801	556.38
3050.048	564.38
3053.291	595.38
3056.532	595.38
3059.771	620.38
3063.006	639.38
3066.239	663.38
3069.469	685.38
3072.697	696.38
3075.922	697.38
3079.144	734.38
3082.364	747.38
3085.581	775.38
3088.795	785.38
3092.007	822.38
3095.216	835.38
3098.423	839.38
3101.627	876.38
3104.828	887.38
3108.026	915.38
3111.222	919.38
3114.416	943.38
3117.607	968.38
3120.795	988.38
3123.98	990.38
3127.163	1031.38
3130.344	1056.38
3133.521	1073.38
3136.696	1104.38
3139.869	1132.38
3143.039	1135.38
3146.206	1161.38
3149.371	1164.38
3152.533	1180.38
3155.693	1187.38
3158.85	1191.38
3162.005	1193.38
3165.157	1207.38
3168.306	1208.38
3171.453	1217.38
3174.597	1208.38
3177.739	1206.38
3180.878	1217.38
3184.014	1238.38
3187.149	1215.38
3190.28	1230.38
3193.409	1234.38
3196.536	1234.38
3199.659	1254.38
3202.781	1259.38
3205.9	1246.38
3209.016	1244.38
3212.13	1241.38
3215.241	1234.38
3218.35	1232.38
3221.456	1223.38
3224.56	1211.38
3227.661	1199.38
3230.76	1172.38
3233.856	1163.38
3236.95	1158.38
3240.041	1150.38
3243.13	1141.38
3246.216	1124.38
3249.3	1124.38
3252.382	1117.38
3255.46	1109.38
3258.537	1128.38
3261.611	1098.38
3264.682	1100.38
3267.751	1095.38
3270.818	1111.38
3273.882	1086.38
3276.943	1079.38
3280.002	1080.38
3283.059	1060.38
3286.113	1042.38
3289.165	1030.38
3292.214	1016.38
3295.261	1008.38
3298.306	985.38
3301.348	974.38
3304.387	965.38
3307.425	929.38
3310.459	925.38
3313.492	928.38
3316.521	900.38
3319.549	891.38
3322.574	877.38
3325.597	877.38
3328.617	870.38
3331.635	867.38
3334.65	857.38
3337.663	866.38
3340.674	851.38
3343.682	863.38
3346.688	849.38
3349.691	834.38
3352.692	846.38
3355.691	824.38
3358.687	848.38
3361.681	817.38
3364.673	816.38
3367.662	791.38
3370.649	785.38
3373.633	777.38
3376.615	762.38
3379.595	760.38
3382.572	757.38
3385.547	734.38
3388.52	729.38
3391.49	712.38
3394.458	706.38
3397.424	693.38
3400.387	689.38
3403.348	685.38
3406.307	660.38
3409.263	670.38
3412.217	655.38
3415.168	652.38
3418.118	638.38
3421.065	632.38
3424.009	629.38
3426.951	620.38
3429.891	607.38
3432.829	596.38
3435.764	598.38
3438.697	568.38
3441.628	561.38
3444.557	548.38
3447.483	525.38
3450.407	514.38
3453.328	499.38
3456.247	489.38
3459.164	466.38
3462.079	448.38
3464.991	438.38
3467.902	425.38
3470.809	431.38
3473.715	404.38
3476.618	387.38
3479.519	390.38
3482.418	375.38
3485.315	345.38
3488.209	358.38
3491.101	342.38
3493.99	334.38
3496.878	312.38
3499.763	303.38
3502.646	288.38
3505.527	292.38
3508.405	283.38
3511.281	266.38
3514.155	258.38
3517.027	244.38
3519.897	227.38
3522.764	222.38
3525.629	214.38
3528.492	200.38
3531.352	185.38
3534.211	177.38
3537.067	160.38
3539.921	159.38
3542.773	141.38
3545.622	137.38
3548.469	133.38
3551.315	121.38
3554.157	120.38
3556.998	108.38
3559.837	102.38
3562.673	91.38
3565.507	88.38
3568.339	78.38
3571.169	79.38
3573.996	75.38
3576.822	66.38
3579.645	63.38
3582.466	52.38
3585.285	40.38
3588.101	36.38
3590.916	40.38
3593.728	32.38
3596.538	27.38
3599.346	24.38
3602.152	19.38
3604.956	9.38
3607.757	3.38
3610.556	0.38
3613.354	-3.62
3616.149	-3.62
3618.942	-7.62
3621.732	-12.62
3624.521	-10.62
3627.307	-11.62
3630.092	-25.62
3632.874	-27.62
3635.654	-21.62
3638.432	-28.62
3641.208	-29.62
3643.982	-39.62
3646.753	-40.62
3649.523	-39.62
3652.29	-42.62
3655.055	-46.62
3657.818	-51.62
3660.579	-54.62
3663.338	-53.62
3666.095	-52.62
3668.849	-56.62
3671.602	-59.62
3674.352	-63.62
3677.101	-61.62
3679.847	-66.62
3682.591	-69.62
3685.333	-73.62
3688.073	-72.62
3690.811	-73.62
3693.547	-74.62
3696.281	-76.62
3699.013	-78.62
3701.742	-76.62
3704.47	-78.62
3707.195	-78.62
3709.919	-80.62
3712.64	-81.62
3715.359	-83.62
3718.076	-87.62
3720.792	-88.62
3723.505	-87.62
3726.216	-90.62
3728.925	-88.62
3731.632	-88.62
3734.336	-90.62
3737.039	-87.62
3739.74	-90.62
3742.439	-92.62
3745.136	-95.62
3747.83	-94.62
3750.523	-95.62
3753.213	-94.62
3755.902	-92.62
3758.589	-99.62
3761.273	-97.62
3763.956	-94.62
3766.636	-96.62
3769.315	-96.62
3771.991	-98.62
3774.665	-96.62
3777.338	-95.62
3780.008	-101.62
3782.677	-100.62
3785.343	-102.62
3788.007	-99.62
3790.67	-102.62
3793.33	-105.62
3795.989	-103.62
3798.645	-98.62
3801.299	-100.62
3803.952	-103.62
3806.602	-105.62
3809.251	-105.62
3811.897	-102.62
3814.542	-104.62
3817.184	-101.62
3819.825	-105.62
3822.463	-106.62
3825.1	-105.62
3827.735	-107.62
3830.367	-105.62
3832.998	-110.62
3835.627	-107.62
3838.253	-105.62
3840.878	-104.62
3843.501	-106.62
3846.122	-103.62
3848.741	-109.62
3851.358	-104.62
3853.973	-109.62
3856.586	-107.62
3859.197	-105.62
3861.806	-109.62
3864.414	-111.62
3867.019	-106.62
3869.622	-109.62
3872.224	-108.62
3874.823	-104.62
3877.421	-100.62
3880.016	-99.62
3882.61	-98.62
3885.202	-100.62
3887.792	-101.62
3890.38	-105.62
3892.966	-105.62
3895.55	-110.62
3898.132	-110.62
3900.713	-109.62
3903.291	-109.62
3905.868	-107.62
3908.442	-107.62
3911.015	-108.62
3913.586	-109.62
3916.155	-110.62
3918.722	-113.62
3921.287	-109.62
3923.85	-110.62
3926.411	-114.62
3928.971	-113.62
3931.528	-114.62
3934.084	-112.62
3936.638	-113.62
3939.19	-113.62
3941.74	-111.62
3944.288	-110.62
3946.834	-106.62
3949.378	-110.62
3951.921	-109.62
3954.462	-112.62
3957	-112.62
3959.537	-112.62
3962.072	-116.62
3964.606	-114.62
3967.137	-114.62
3969.667	-107.62
3972.194	-112.62
3974.72	-108.62
3977.244	-110.62
3979.766	-109.62
3982.286	-105.62
3984.805	-107.62
3987.321	-109.62
3989.836	-110.62
3992.349	-114.62
3994.86	-114.62
3997.369	-115.62
3999.877	-112.62
4002.382	-107.62
4004.886	-107.62
4007.388	-109.62
4009.888	-109.62
4012.386	-106.62
4014.883	-110.62
4017.377	-111.62
4019.87	-106.62
4022.361	-110.62
4024.85	-114.62
4027.338	-112.62
4029.823	-112.62
4032.307	-111.62
4034.789	-111.62
4037.269	-111.62
4039.747	-107.62
4042.224	-115.62
4044.699	-111.62
4047.172	-110.62
4049.643	-109.62
4052.112	-112.62
4054.58	-111.62
4057.046	-113.62
4059.51	-114.62
4061.972	-115.62
4064.432	-114.62
4066.891	-112.62
4069.348	-111.62
4071.803	-109.62
4074.256	-107.62
4076.708	-105.62
4079.158	-110.62
4081.606	-110.62
4084.052	-115.62
4086.497	-111.62
4088.939	-112.62
4091.38	-112.62
4093.819	-111.62
4096.257	-115.62
4098.693	-111.62
4101.127	-116.62
4103.559	-115.62
4105.989	-76.62
4108.418	-72.62
4110.845	-72.62
4113.27	-67.62
4115.694	-60.62
4118.115	-50.62
4120.535	-110.62
4122.954	-107.62
4125.37	-109.62
4127.785	-111.62
4130.198	-110.62
4132.609	-105.62
4135.019	-116.62
4137.427	-114.62
4139.833	-116.62
4142.237	-116.62
