Data from 1000CFU2_B_RamanShift_1.txt Node
Date: Mon Jan 23 14:18:12 IST 2017
User: aro
Spectrometer: QEPB0276
Trigger mode: 0
Integration Time (sec): 5.000000E0
Scans to average: 1
Electric dark correction enabled: true
Nonlinearity correction enabled: false
Boxcar width: 0
XAxis mode: Raman Shifts
Number of Pixels in Spectrum: 1044
>>>>>Begin Spectral Data<<<<<
160.701	-32.38
166.742	-4.38
172.777	93.62
178.805	407.62
184.826	1108.62
190.841	2290.62
196.849	3612.62
202.85	4475.62
208.845	4691.62
214.833	4524.62
220.815	4352.62
226.789	4234.62
232.758	4099.62
238.719	3971.62
244.674	3826.62
250.623	3664.62
256.565	3493.62
262.5	3318.62
268.429	3179.62
274.351	3037.62
280.267	2931.62
286.176	2802.62
292.079	2718.62
297.975	2624.62
303.865	2522.62
309.748	2472.62
315.625	2390.62
321.495	2362.62
327.359	2297.62
333.217	2290.62
339.068	2239.62
344.912	2254.62
350.751	2227.62
356.583	2237.62
362.408	2213.62
368.227	2225.62
374.04	2235.62
379.847	2243.62
385.647	2261.62
391.44	2281.62
397.228	2290.62
403.009	2305.62
408.784	2330.62
414.553	2301.62
420.315	2312.62
426.071	2317.62
431.821	2329.62
437.565	2322.62
443.302	2315.62
449.033	2297.62
454.758	2295.62
460.477	2287.62
466.189	2279.62
471.896	2271.62
477.596	2253.62
483.29	2235.62
488.978	2234.62
494.66	2232.62
500.335	2200.62
506.005	2166.62
511.668	2127.62
517.325	2081.62
522.977	2038.62
528.622	2017.62
534.261	2017.62
539.894	1979.62
545.521	1980.62
551.141	1970.62
556.756	1957.62
562.365	1923.62
567.968	1930.62
573.565	1902.62
579.155	1896.62
584.74	1879.62
590.319	1871.62
595.892	1860.62
601.459	1848.62
607.02	1847.62
612.575	1822.62
618.124	1787.62
623.667	1775.62
629.204	1772.62
634.735	1756.62
640.261	1761.62
645.781	1721.62
651.294	1714.62
656.802	1725.62
662.304	1716.62
667.8	1700.62
673.29	1708.62
678.775	1704.62
684.254	1701.62
689.726	1668.62
695.193	1674.62
700.655	1647.62
706.11	1641.62
711.56	1611.62
717.004	1619.62
722.442	1598.62
727.874	1604.62
733.301	1604.62
738.722	1578.62
744.137	1585.62
749.547	1576.62
754.951	1576.62
760.349	1568.62
765.741	1556.62
771.128	1575.62
776.509	1562.62
781.885	1560.62
787.254	1550.62
792.618	1552.62
797.977	1547.62
803.33	1527.62
808.677	1510.62
814.019	1500.62
819.355	1494.62
824.686	1473.62
830.011	1483.62
835.33	1461.62
840.644	1441.62
845.952	1454.62
851.255	1464.62
856.552	1429.62
861.844	1417.62
867.13	1409.62
872.41	1414.62
877.686	1395.62
882.955	1392.62
888.219	1376.62
893.478	1340.62
898.731	1317.62
903.979	1299.62
909.221	1283.62
914.458	1267.62
919.69	1269.62
924.916	1264.62
930.136	1247.62
935.351	1265.62
940.561	1259.62
945.766	1251.62
950.965	1228.62
956.158	1225.62
961.347	1227.62
966.529	1194.62
971.707	1174.62
976.879	1174.62
982.046	1161.62
987.208	1153.62
992.364	1153.62
997.515	1156.62
1002.66	1172.62
1007.801	1174.62
1012.936	1178.62
1018.066	1193.62
1023.19	1194.62
1028.309	1204.62
1033.423	1213.62
1038.532	1195.62
1043.636	1194.62
1048.734	1178.62
1053.827	1172.62
1058.915	1138.62
1063.998	1148.62
1069.075	1153.62
1074.147	1141.62
1079.214	1139.62
1084.276	1158.62
1089.333	1174.62
1094.385	1164.62
1099.431	1171.62
1104.472	1173.62
1109.509	1168.62
1114.54	1171.62
1119.565	1139.62
1124.586	1134.62
1129.602	1119.62
1134.613	1124.62
1139.618	1108.62
1144.619	1122.62
1149.614	1110.62
1154.604	1113.62
1159.589	1136.62
1164.57	1127.62
1169.545	1145.62
1174.515	1144.62
1179.48	1132.62
1184.44	1122.62
1189.395	1117.62
1194.345	1105.62
1199.29	1099.62
1204.23	1113.62
1209.165	1130.62
1214.095	1128.62
1219.021	1127.62
1223.941	1141.62
1228.856	1150.62
1233.766	1150.62
1238.672	1172.62
1243.572	1144.62
1248.467	1156.62
1253.358	1130.62
1258.244	1122.62
1263.124	1104.62
1268	1090.62
1272.871	1076.62
1277.737	1054.62
1282.599	1065.62
1287.455	1069.62
1292.306	1058.62
1297.153	1078.62
1301.995	1078.62
1306.832	1089.62
1311.664	1100.62
1316.491	1103.62
1321.314	1103.62
1326.132	1094.62
1330.945	1091.62
1335.753	1057.62
1340.556	1066.62
1345.354	1055.62
1350.148	1037.62
1354.937	1034.62
1359.722	1023.62
1364.501	1005.62
1369.276	998.62
1374.046	987.62
1378.811	980.62
1383.572	973.62
1388.327	970.62
1393.079	972.62
1397.825	975.62
1402.567	960.62
1407.304	957.62
1412.036	952.62
1416.764	962.62
1421.487	950.62
1426.205	957.62
1430.919	976.62
1435.628	986.62
1440.333	986.62
1445.032	997.62
1449.727	1009.62
1454.418	1022.62
1459.104	1004.62
1463.785	1000.62
1468.462	1001.62
1473.134	982.62
1477.802	995.62
1482.465	966.62
1487.123	974.62
1491.777	984.62
1496.426	982.62
1501.071	983.62
1505.711	995.62
1510.347	997.62
1514.978	998.62
1519.604	1021.62
1524.226	1034.62
1528.844	1029.62
1533.457	1009.62
1538.065	1020.62
1542.669	1012.62
1547.269	1017.62
1551.864	1008.62
1556.454	1021.62
1561.041	1050.62
1565.622	1054.62
1570.199	1058.62
1574.772	1065.62
1579.34	1101.62
1583.904	1114.62
1588.464	1137.62
1593.019	1142.62
1597.569	1153.62
1602.115	1183.62
1606.657	1195.62
1611.195	1211.62
1615.728	1223.62
1620.256	1240.62
1624.78	1250.62
1629.3	1256.62
1633.816	1290.62
1638.327	1310.62
1642.834	1342.62
1647.336	1344.62
1651.834	1327.62
1656.328	1335.62
1660.817	1326.62
1665.302	1296.62
1669.783	1278.62
1674.259	1250.62
1678.732	1217.62
1683.199	1174.62
1687.663	1140.62
1692.122	1098.62
1696.577	1054.62
1701.028	992.62
1705.474	949.62
1709.917	919.62
1714.355	897.62
1718.788	877.62
1723.218	878.62
1727.643	858.62
1732.064	838.62
1736.481	821.62
1740.893	787.62
1745.301	766.62
1749.705	748.62
1754.105	729.62
1758.501	710.62
1762.893	710.62
1767.28	692.62
1771.663	692.62
1776.042	681.62
1780.417	676.62
1784.787	692.62
1789.154	685.62
1793.516	686.62
1797.874	679.62
1802.228	665.62
1806.578	656.62
1810.924	649.62
1815.266	636.62
1819.603	622.62
1823.937	620.62
1828.266	615.62
1832.591	606.62
1836.913	613.62
1841.23	614.62
1845.543	603.62
1849.852	601.62
1854.156	602.62
1858.457	615.62
1862.754	620.62
1867.047	625.62
1871.335	613.62
1875.62	634.62
1879.9	621.62
1884.177	618.62
1888.449	630.62
1892.718	632.62
1896.982	627.62
1901.243	617.62
1905.499	610.62
1909.752	622.62
1914	620.62
1918.245	621.62
1922.485	617.62
1926.722	630.62
1930.954	623.62
1935.183	633.62
1939.408	635.62
1943.628	629.62
1947.845	630.62
1952.058	617.62
1956.267	616.62
1960.472	604.62
1964.673	607.62
1968.87	591.62
1973.063	594.62
1977.252	580.62
1981.438	577.62
1985.619	587.62
1989.797	580.62
1993.971	583.62
1998.14	588.62
2002.306	576.62
2006.469	598.62
2010.627	593.62
2014.781	604.62
2018.932	607.62
2023.078	594.62
2027.221	594.62
2031.36	594.62
2035.495	580.62
2039.627	591.62
2043.754	575.62
2047.878	579.62
2051.998	587.62
2056.114	567.62
2060.226	571.62
2064.334	585.62
2068.439	580.62
2072.54	593.62
2076.637	600.62
2080.73	603.62
2084.82	605.62
2088.906	605.62
2092.988	611.62
2097.066	597.62
2101.14	592.62
2105.211	594.62
2109.278	592.62
2113.342	575.62
2117.401	568.62
2121.457	576.62
2125.509	568.62
2129.558	574.62
2133.602	554.62
2137.643	561.62
2141.681	564.62
2145.714	555.62
2149.744	550.62
2153.77	548.62
2157.793	545.62
2161.812	560.62
2165.827	538.62
2169.838	521.62
2173.846	521.62
2177.851	511.62
2181.851	510.62
2185.848	507.62
2189.841	494.62
2193.831	490.62
2197.817	482.62
2201.799	482.62
2205.778	493.62
2209.753	476.62
2213.725	491.62
2217.693	488.62
2221.657	488.62
2225.618	481.62
2229.575	479.62
2233.529	475.62
2237.479	465.62
2241.425	478.62
2245.368	462.62
2249.307	454.62
2253.243	452.62
2257.175	437.62
2261.104	435.62
2265.029	416.62
2268.95	420.62
2272.868	412.62
2276.783	418.62
2280.694	398.62
2284.601	404.62
2288.505	396.62
2292.405	387.62
2296.302	388.62
2300.195	374.62
2304.085	381.62
2307.971	367.62
2311.854	364.62
2315.734	358.62
2319.609	350.62
2323.482	343.62
2327.351	340.62
2331.216	339.62
2335.078	337.62
2338.937	339.62
2342.792	332.62
2346.643	318.62
2350.492	324.62
2354.336	325.62
2358.178	327.62
2362.015	329.62
2365.85	324.62
2369.681	323.62
2373.508	335.62
2377.333	325.62
2381.153	336.62
2384.971	335.62
2388.785	326.62
2392.595	329.62
2396.402	330.62
2400.206	318.62
2404.007	311.62
2407.804	316.62
2411.597	310.62
2415.388	317.62
2419.174	304.62
2422.958	306.62
2426.738	312.62
2430.515	315.62
2434.289	305.62
2438.059	312.62
2441.825	308.62
2445.589	286.62
2449.349	303.62
2453.106	302.62
2456.859	298.62
2460.61	291.62
2464.356	296.62
2468.1	294.62
2471.84	285.62
2475.577	287.62
2479.311	287.62
2483.041	286.62
2486.768	283.62
2490.492	282.62
2494.213	280.62
2497.93	282.62
2501.644	284.62
2505.355	280.62
2509.062	286.62
2512.766	282.62
2516.467	279.62
2520.165	280.62
2523.859	274.62
2527.551	276.62
2531.239	274.62
2534.923	260.62
2538.605	267.62
2542.283	268.62
2545.958	259.62
2549.63	267.62
2553.299	259.62
2556.964	255.62
2560.626	255.62
2564.285	257.62
2567.941	256.62
2571.594	256.62
2575.243	245.62
2578.89	253.62
2582.533	247.62
2586.173	244.62
2589.809	249.62
2593.443	232.62
2597.073	237.62
2600.701	233.62
2604.325	229.62
2607.946	238.62
2611.564	232.62
2615.178	227.62
2618.79	228.62
2622.398	223.62
2626.004	226.62
2629.606	219.62
2633.205	224.62
2636.801	226.62
2640.394	220.62
2643.983	212.62
2647.57	209.62
2651.153	211.62
2654.734	206.62
2658.311	214.62
2661.885	202.62
2665.456	200.62
2669.025	202.62
2672.589	203.62
2676.151	196.62
2679.71	193.62
2683.266	186.62
2686.819	192.62
2690.368	198.62
2693.915	186.62
2697.458	189.62
2700.999	186.62
2704.536	189.62
2708.071	184.62
2711.602	181.62
2715.13	179.62
2718.656	181.62
2722.178	188.62
2725.697	184.62
2729.214	181.62
2732.727	184.62
2736.237	172.62
2739.744	184.62
2743.249	182.62
2746.75	181.62
2750.248	180.62
2753.743	184.62
2757.236	177.62
2760.725	179.62
2764.211	177.62
2767.695	173.62
2771.175	171.62
2774.652	173.62
2778.127	167.62
2781.598	179.62
2785.067	170.62
2788.532	168.62
2791.995	176.62
2795.455	178.62
2798.911	176.62
2802.365	183.62
2805.816	174.62
2809.264	189.62
2812.709	179.62
2816.151	169.62
2819.59	176.62
2823.026	183.62
2826.46	176.62
2829.89	186.62
2833.318	188.62
2836.742	190.62
2840.164	190.62
2843.583	193.62
2846.999	200.62
2850.412	194.62
2853.822	195.62
2857.229	201.62
2860.634	195.62
2864.035	196.62
2867.434	206.62
2870.83	210.62
2874.223	216.62
2877.613	214.62
2881	217.62
2884.385	224.62
2887.766	212.62
2891.145	220.62
2894.521	222.62
2897.894	221.62
2901.264	227.62
2904.631	230.62
2907.996	228.62
2911.358	224.62
2914.717	234.62
2918.073	232.62
2921.426	235.62
2924.777	245.62
2928.124	255.62
2931.469	254.62
2934.811	260.62
2938.15	269.62
2941.487	273.62
2944.821	276.62
2948.152	279.62
2951.48	288.62
2954.805	281.62
2958.128	301.62
2961.447	299.62
2964.765	305.62
2968.079	309.62
2971.39	317.62
2974.699	323.62
2978.005	329.62
2981.308	332.62
2984.609	350.62
2987.907	361.62
2991.202	366.62
2994.494	384.62
2997.784	394.62
3001.07	399.62
3004.355	412.62
3007.636	423.62
3010.915	424.62
3014.191	432.62
3017.464	445.62
3020.734	450.62
3024.002	468.62
3027.267	473.62
3030.53	478.62
3033.789	481.62
3037.046	499.62
3040.301	505.62
3043.552	525.62
3046.801	530.62
3050.048	541.62
3053.291	564.62
3056.532	576.62
3059.771	591.62
3063.006	628.62
3066.239	645.62
3069.469	663.62
3072.697	684.62
3075.922	701.62
3079.144	716.62
3082.364	745.62
3085.581	756.62
3088.795	769.62
3092.007	791.62
3095.216	805.62
3098.423	827.62
3101.627	851.62
3104.828	875.62
3108.026	889.62
3111.222	892.62
3114.416	923.62
3117.607	945.62
3120.795	964.62
3123.98	986.62
3127.163	1006.62
3130.344	1041.62
3133.521	1057.62
3136.696	1085.62
3139.869	1098.62
3143.039	1118.62
3146.206	1144.62
3149.371	1141.62
3152.533	1149.62
3155.693	1156.62
3158.85	1165.62
3162.005	1159.62
3165.157	1184.62
3168.306	1173.62
3171.453	1204.62
3174.597	1207.62
3177.739	1198.62
3180.878	1187.62
3184.014	1215.62
3187.149	1215.62
3190.28	1205.62
3193.409	1218.62
3196.536	1218.62
3199.659	1219.62
3202.781	1241.62
3205.9	1231.62
3209.016	1232.62
3212.13	1219.62
3215.241	1224.62
3218.35	1194.62
3221.456	1204.62
3224.56	1203.62
3227.661	1189.62
3230.76	1165.62
3233.856	1165.62
3236.95	1140.62
3240.041	1138.62
3243.13	1122.62
3246.216	1109.62
3249.3	1108.62
3252.382	1111.62
3255.46	1091.62
3258.537	1084.62
3261.611	1090.62
3264.682	1082.62
3267.751	1074.62
3270.818	1059.62
3273.882	1078.62
3276.943	1061.62
3280.002	1057.62
3283.059	1043.62
3286.113	1036.62
3289.165	1013.62
3292.214	1007.62
3295.261	992.62
3298.306	965.62
3301.348	967.62
3304.387	955.62
3307.425	939.62
3310.459	925.62
3313.492	917.62
3316.521	907.62
3319.549	892.62
3322.574	896.62
3325.597	886.62
3328.617	868.62
3331.635	864.62
3334.65	864.62
3337.663	850.62
3340.674	852.62
3343.682	847.62
3346.688	848.62
3349.691	837.62
3352.692	843.62
3355.691	833.62
3358.687	837.62
3361.681	822.62
3364.673	810.62
3367.662	804.62
3370.649	789.62
3373.633	771.62
3376.615	771.62
3379.595	751.62
3382.572	745.62
3385.547	740.62
3388.52	725.62
3391.49	719.62
3394.458	714.62
3397.424	687.62
3400.387	682.62
3403.348	687.62
3406.307	662.62
3409.263	672.62
3412.217	659.62
3415.168	645.62
3418.118	641.62
3421.065	644.62
3424.009	624.62
3426.951	624.62
3429.891	617.62
3432.829	595.62
3435.764	586.62
3438.697	573.62
3441.628	556.62
3444.557	541.62
3447.483	523.62
3450.407	514.62
3453.328	512.62
3456.247	474.62
3459.164	479.62
3462.079	460.62
3464.991	435.62
3467.902	435.62
3470.809	419.62
3473.715	400.62
3476.618	393.62
3479.519	390.62
3482.418	370.62
3485.315	352.62
3488.209	341.62
3491.101	341.62
3493.99	333.62
3496.878	317.62
3499.763	306.62
3502.646	300.62
3505.527	288.62
3508.405	283.62
3511.281	272.62
3514.155	253.62
3517.027	243.62
3519.897	227.62
3522.764	216.62
3525.629	204.62
3528.492	195.62
3531.352	179.62
3534.211	181.62
3537.067	162.62
3539.921	151.62
3542.773	147.62
3545.622	137.62
3548.469	127.62
3551.315	120.62
3554.157	111.62
3556.998	101.62
3559.837	96.62
3562.673	90.62
3565.507	82.62
3568.339	76.62
3571.169	69.62
3573.996	65.62
3576.822	68.62
3579.645	58.62
3582.466	55.62
3585.285	46.62
3588.101	33.62
3590.916	33.62
3593.728	31.62
3596.538	28.62
3599.346	15.62
3602.152	19.62
3604.956	12.62
3607.757	6.62
3610.556	-0.38
3613.354	-3.38
3616.149	-6.38
3618.942	-14.38
3621.732	-13.38
3624.521	-13.38
3627.307	-24.38
3630.092	-24.38
3632.874	-27.38
3635.654	-32.38
3638.432	-29.38
3641.208	-37.38
3643.982	-34.38
3646.753	-39.38
3649.523	-42.38
3652.29	-40.38
3655.055	-42.38
3657.818	-51.38
3660.579	-54.38
3663.338	-57.38
3666.095	-57.38
3668.849	-55.38
3671.602	-65.38
3674.352	-60.38
3677.101	-64.38
3679.847	-66.38
3682.591	-69.38
3685.333	-69.38
3688.073	-71.38
3690.811	-72.38
3693.547	-75.38
3696.281	-79.38
3699.013	-80.38
3701.742	-81.38
3704.47	-81.38
3707.195	-86.38
3709.919	-83.38
3712.64	-80.38
3715.359	-83.38
3718.076	-88.38
3720.792	-87.38
3723.505	-90.38
3726.216	-87.38
3728.925	-90.38
3731.632	-91.38
3734.336	-90.38
3737.039	-94.38
3739.74	-93.38
3742.439	-96.38
3745.136	-98.38
3747.83	-95.38
3750.523	-94.38
3753.213	-94.38
3755.902	-93.38
3758.589	-99.38
3761.273	-98.38
3763.956	-100.38
3766.636	-101.38
3769.315	-101.38
3771.991	-106.38
3774.665	-98.38
3777.338	-99.38
3780.008	-100.38
3782.677	-101.38
3785.343	-101.38
3788.007	-101.38
3790.67	-101.38
3793.33	-109.38
3795.989	-103.38
3798.645	-101.38
3801.299	-102.38
3803.952	-107.38
3806.602	-108.38
3809.251	-106.38
3811.897	-102.38
3814.542	-106.38
3817.184	-102.38
3819.825	-105.38
3822.463	-104.38
3825.1	-104.38
3827.735	-112.38
3830.367	-107.38
3832.998	-112.38
3835.627	-111.38
3838.253	-107.38
3840.878	-109.38
3843.501	-107.38
3846.122	-109.38
3848.741	-110.38
3851.358	-110.38
3853.973	-110.38
3856.586	-109.38
3859.197	-105.38
3861.806	-111.38
3864.414	-112.38
3867.019	-112.38
3869.622	-113.38
3872.224	-110.38
3874.823	-108.38
3877.421	-102.38
3880.016	-102.38
3882.61	-98.38
3885.202	-102.38
3887.792	-102.38
3890.38	-106.38
3892.966	-109.38
3895.55	-110.38
3898.132	-108.38
3900.713	-111.38
3903.291	-115.38
3905.868	-110.38
3908.442	-112.38
3911.015	-109.38
3913.586	-112.38
3916.155	-110.38
3918.722	-114.38
3921.287	-108.38
3923.85	-110.38
3926.411	-114.38
3928.971	-117.38
3931.528	-117.38
3934.084	-110.38
3936.638	-115.38
3939.19	-117.38
3941.74	-111.38
3944.288	-110.38
3946.834	-111.38
3949.378	-115.38
3951.921	-113.38
3954.462	-116.38
3957	-110.38
3959.537	-115.38
3962.072	-116.38
3964.606	-114.38
3967.137	-112.38
3969.667	-111.38
3972.194	-109.38
3974.72	-113.38
3977.244	-111.38
3979.766	-109.38
3982.286	-107.38
3984.805	-110.38
3987.321	-112.38
3989.836	-112.38
3992.349	-114.38
3994.86	-116.38
3997.369	-112.38
3999.877	-113.38
4002.382	-110.38
4004.886	-109.38
4007.388	-108.38
4009.888	-108.38
4012.386	-107.38
4014.883	-113.38
4017.377	-115.38
4019.87	-110.38
4022.361	-113.38
4024.85	-116.38
4027.338	-113.38
4029.823	-109.38
4032.307	-109.38
4034.789	-112.38
4037.269	-111.38
4039.747	-110.38
4042.224	-113.38
4044.699	-115.38
4047.172	-112.38
4049.643	-113.38
4052.112	-112.38
4054.58	-114.38
4057.046	-114.38
4059.51	-115.38
4061.972	-116.38
4064.432	-118.38
4066.891	-112.38
4069.348	-111.38
4071.803	-109.38
4074.256	-110.38
4076.708	-108.38
4079.158	-112.38
4081.606	-112.38
4084.052	-119.38
4086.497	-112.38
4088.939	-116.38
4091.38	-115.38
4093.819	-115.38
4096.257	-117.38
4098.693	-114.38
4101.127	-117.38
4103.559	-119.38
4105.989	-83.38
4108.418	-77.38
4110.845	-75.38
4113.27	-69.38
4115.694	-55.38
4118.115	-49.38
4120.535	-112.38
4122.954	-109.38
4125.37	-113.38
4127.785	-116.38
4130.198	-113.38
4132.609	-112.38
4135.019	-117.38
4137.427	-115.38
4139.833	-117.38
4142.237	-114.38
