Data from 100000000CFU1_A_RamanShift_1.txt Node
Date: Mon Jan 23 14:50:57 IST 2017
User: aro
Spectrometer: QEPB0276
Trigger mode: 0
Integration Time (sec): 5.000000E0
Scans to average: 1
Electric dark correction enabled: true
Nonlinearity correction enabled: false
Boxcar width: 0
XAxis mode: Raman Shifts
Number of Pixels in Spectrum: 1044
>>>>>Begin Spectral Data<<<<<
160.701	-22.25
166.742	-0.25
172.777	71.75
178.805	275.75
184.826	776.75
190.841	1588.75
196.849	2467.75
202.85	3058.75
208.845	3197.75
214.833	3078.75
220.815	2971.75
226.789	2898.75
232.758	2797.75
238.719	2710.75
244.674	2610.75
250.623	2488.75
256.565	2393.75
262.5	2284.75
268.429	2186.75
274.351	2107.75
280.267	2035.75
286.176	1943.75
292.079	1863.75
297.975	1821.75
303.865	1763.75
309.748	1707.75
315.625	1669.75
321.495	1659.75
327.359	1629.75
333.217	1595.75
339.068	1601.75
344.912	1585.75
350.751	1579.75
356.583	1560.75
362.408	1564.75
368.227	1597.75
374.04	1567.75
379.847	1569.75
385.647	1590.75
391.44	1616.75
397.228	1604.75
403.009	1621.75
408.784	1641.75
414.553	1635.75
420.315	1631.75
426.071	1651.75
431.821	1643.75
437.565	1643.75
443.302	1637.75
449.033	1635.75
454.758	1628.75
460.477	1624.75
466.189	1618.75
471.896	1605.75
477.596	1601.75
483.29	1580.75
488.978	1577.75
494.66	1586.75
500.335	1550.75
506.005	1522.75
511.668	1496.75
517.325	1468.75
522.977	1432.75
528.622	1411.75
534.261	1393.75
539.894	1387.75
545.521	1397.75
551.141	1380.75
556.756	1358.75
562.365	1339.75
567.968	1337.75
573.565	1318.75
579.155	1321.75
584.74	1302.75
590.319	1311.75
595.892	1300.75
601.459	1301.75
607.02	1295.75
612.575	1260.75
618.124	1260.75
623.667	1249.75
629.204	1248.75
634.735	1231.75
640.261	1211.75
645.781	1226.75
651.294	1203.75
656.802	1197.75
662.304	1207.75
667.8	1184.75
673.29	1169.75
678.775	1172.75
684.254	1178.75
689.726	1184.75
695.193	1176.75
700.655	1152.75
706.11	1150.75
711.56	1151.75
717.004	1139.75
722.442	1127.75
727.874	1133.75
733.301	1124.75
738.722	1115.75
744.137	1093.75
749.547	1094.75
754.951	1107.75
760.349	1098.75
765.741	1089.75
771.128	1097.75
776.509	1096.75
781.885	1101.75
787.254	1103.75
792.618	1096.75
797.977	1090.75
803.33	1072.75
808.677	1076.75
814.019	1056.75
819.355	1055.75
824.686	1050.75
830.011	1021.75
835.33	1023.75
840.644	1017.75
845.952	1013.75
851.255	995.75
856.552	1015.75
861.844	1000.75
867.13	1007.75
872.41	1001.75
877.686	992.75
882.955	991.75
888.219	979.75
893.478	945.75
898.731	929.75
903.979	910.75
909.221	902.75
914.458	902.75
919.69	882.75
924.916	884.75
930.136	876.75
935.351	876.75
940.561	869.75
945.766	878.75
950.965	879.75
956.158	856.75
961.347	857.75
966.529	841.75
971.707	813.75
976.879	821.75
982.046	820.75
987.208	793.75
992.364	815.75
997.515	805.75
1002.66	818.75
1007.801	820.75
1012.936	828.75
1018.066	842.75
1023.19	832.75
1028.309	839.75
1033.423	842.75
1038.532	850.75
1043.636	833.75
1048.734	820.75
1053.827	814.75
1058.915	811.75
1063.998	800.75
1069.075	798.75
1074.147	808.75
1079.214	799.75
1084.276	808.75
1089.333	827.75
1094.385	828.75
1099.431	819.75
1104.472	834.75
1109.509	825.75
1114.54	806.75
1119.565	795.75
1124.586	789.75
1129.602	772.75
1134.613	772.75
1139.618	777.75
1144.619	789.75
1149.614	796.75
1154.604	787.75
1159.589	782.75
1164.57	787.75
1169.545	775.75
1174.515	788.75
1179.48	784.75
1184.44	784.75
1189.395	773.75
1194.345	769.75
1199.29	765.75
1204.23	780.75
1209.165	781.75
1214.095	790.75
1219.021	782.75
1223.941	798.75
1228.856	796.75
1233.766	797.75
1238.672	814.75
1243.572	807.75
1248.467	803.75
1253.358	779.75
1258.244	774.75
1263.124	775.75
1268	753.75
1272.871	755.75
1277.737	741.75
1282.599	736.75
1287.455	740.75
1292.306	748.75
1297.153	752.75
1301.995	765.75
1306.832	773.75
1311.664	760.75
1316.491	751.75
1321.314	754.75
1326.132	747.75
1330.945	753.75
1335.753	730.75
1340.556	730.75
1345.354	718.75
1350.148	716.75
1354.937	703.75
1359.722	708.75
1364.501	701.75
1369.276	700.75
1374.046	692.75
1378.811	689.75
1383.572	689.75
1388.327	695.75
1393.079	692.75
1397.825	683.75
1402.567	669.75
1407.304	665.75
1412.036	667.75
1416.764	662.75
1421.487	669.75
1426.205	673.75
1430.919	666.75
1435.628	672.75
1440.333	676.75
1445.032	687.75
1449.727	700.75
1454.418	714.75
1459.104	706.75
1463.785	708.75
1468.462	688.75
1473.134	686.75
1477.802	674.75
1482.465	663.75
1487.123	664.75
1491.777	662.75
1496.426	668.75
1501.071	675.75
1505.711	686.75
1510.347	690.75
1514.978	699.75
1519.604	708.75
1524.226	707.75
1528.844	710.75
1533.457	705.75
1538.065	708.75
1542.669	696.75
1547.269	706.75
1551.864	706.75
1556.454	702.75
1561.041	712.75
1565.622	719.75
1570.199	733.75
1574.772	744.75
1579.34	765.75
1583.904	760.75
1588.464	780.75
1593.019	797.75
1597.569	811.75
1602.115	811.75
1606.657	813.75
1611.195	833.75
1615.728	828.75
1620.256	842.75
1624.78	862.75
1629.3	878.75
1633.816	886.75
1638.327	899.75
1642.834	906.75
1647.336	904.75
1651.834	916.75
1656.328	913.75
1660.817	904.75
1665.302	881.75
1669.783	859.75
1674.259	841.75
1678.732	823.75
1683.199	782.75
1687.663	769.75
1692.122	742.75
1696.577	703.75
1701.028	684.75
1705.474	669.75
1709.917	640.75
1714.355	623.75
1718.788	620.75
1723.218	610.75
1727.643	583.75
1732.064	566.75
1736.481	553.75
1740.893	542.75
1745.301	521.75
1749.705	519.75
1754.105	497.75
1758.501	495.75
1762.893	485.75
1767.28	470.75
1771.663	468.75
1776.042	464.75
1780.417	467.75
1784.787	474.75
1789.154	471.75
1793.516	472.75
1797.874	475.75
1802.228	475.75
1806.578	459.75
1810.924	436.75
1815.266	438.75
1819.603	432.75
1823.937	427.75
1828.266	427.75
1832.591	415.75
1836.913	424.75
1841.23	421.75
1845.543	419.75
1849.852	402.75
1854.156	420.75
1858.457	423.75
1862.754	420.75
1867.047	427.75
1871.335	428.75
1875.62	439.75
1879.9	441.75
1884.177	416.75
1888.449	427.75
1892.718	420.75
1896.982	424.75
1901.243	423.75
1905.499	417.75
1909.752	423.75
1914	419.75
1918.245	431.75
1922.485	413.75
1926.722	421.75
1930.954	422.75
1935.183	427.75
1939.408	427.75
1943.628	433.75
1947.845	431.75
1952.058	421.75
1956.267	428.75
1960.472	422.75
1964.673	409.75
1968.87	406.75
1973.063	408.75
1977.252	408.75
1981.438	406.75
1985.619	392.75
1989.797	393.75
1993.971	393.75
1998.14	404.75
2002.306	401.75
2006.469	406.75
2010.627	415.75
2014.781	410.75
2018.932	408.75
2023.078	407.75
2027.221	418.75
2031.36	400.75
2035.495	395.75
2039.627	391.75
2043.754	398.75
2047.878	394.75
2051.998	390.75
2056.114	402.75
2060.226	406.75
2064.334	394.75
2068.439	400.75
2072.54	409.75
2076.637	408.75
2080.73	410.75
2084.82	412.75
2088.906	401.75
2092.988	413.75
2097.066	408.75
2101.14	398.75
2105.211	394.75
2109.278	405.75
2113.342	406.75
2117.401	395.75
2121.457	393.75
2125.509	392.75
2129.558	387.75
2133.602	381.75
2137.643	388.75
2141.681	384.75
2145.714	382.75
2149.744	380.75
2153.77	381.75
2157.793	385.75
2161.812	371.75
2165.827	368.75
2169.838	356.75
2173.846	363.75
2177.851	357.75
2181.851	346.75
2185.848	346.75
2189.841	331.75
2193.831	325.75
2197.817	338.75
2201.799	333.75
2205.778	328.75
2209.753	341.75
2213.725	328.75
2217.693	328.75
2221.657	341.75
2225.618	334.75
2229.575	329.75
2233.529	324.75
2237.479	329.75
2241.425	315.75
2245.368	313.75
2249.307	299.75
2253.243	303.75
2257.175	302.75
2261.104	298.75
2265.029	292.75
2268.95	293.75
2272.868	282.75
2276.783	275.75
2280.694	274.75
2284.601	274.75
2288.505	259.75
2292.405	260.75
2296.302	260.75
2300.195	251.75
2304.085	256.75
2307.971	247.75
2311.854	243.75
2315.734	243.75
2319.609	240.75
2323.482	231.75
2327.351	227.75
2331.216	221.75
2335.078	230.75
2338.937	228.75
2342.792	219.75
2346.643	222.75
2350.492	222.75
2354.336	218.75
2358.178	218.75
2362.015	217.75
2365.85	228.75
2369.681	221.75
2373.508	223.75
2377.333	228.75
2381.153	223.75
2384.971	223.75
2388.785	211.75
2392.595	217.75
2396.402	223.75
2400.206	220.75
2404.007	213.75
2407.804	207.75
2411.597	209.75
2415.388	204.75
2419.174	211.75
2422.958	199.75
2426.738	203.75
2430.515	210.75
2434.289	204.75
2438.059	204.75
2441.825	197.75
2445.589	198.75
2449.349	193.75
2453.106	194.75
2456.859	193.75
2460.61	193.75
2464.356	188.75
2468.1	191.75
2471.84	188.75
2475.577	185.75
2479.311	185.75
2483.041	184.75
2486.768	186.75
2490.492	191.75
2494.213	180.75
2497.93	185.75
2501.644	193.75
2505.355	189.75
2509.062	190.75
2512.766	188.75
2516.467	180.75
2520.165	180.75
2523.859	175.75
2527.551	176.75
2531.239	180.75
2534.923	173.75
2538.605	173.75
2542.283	176.75
2545.958	173.75
2549.63	180.75
2553.299	175.75
2556.964	170.75
2560.626	168.75
2564.285	168.75
2567.941	164.75
2571.594	161.75
2575.243	158.75
2578.89	159.75
2582.533	158.75
2586.173	167.75
2589.809	154.75
2593.443	158.75
2597.073	156.75
2600.701	156.75
2604.325	158.75
2607.946	156.75
2611.564	151.75
2615.178	146.75
2618.79	147.75
2622.398	151.75
2626.004	147.75
2629.606	142.75
2633.205	146.75
2636.801	155.75
2640.394	146.75
2643.983	146.75
2647.57	139.75
2651.153	135.75
2654.734	144.75
2658.311	138.75
2661.885	135.75
2665.456	137.75
2669.025	127.75
2672.589	128.75
2676.151	130.75
2679.71	126.75
2683.266	132.75
2686.819	128.75
2690.368	123.75
2693.915	128.75
2697.458	127.75
2700.999	122.75
2704.536	116.75
2708.071	118.75
2711.602	121.75
2715.13	111.75
2718.656	111.75
2722.178	123.75
2725.697	115.75
2729.214	119.75
2732.727	114.75
2736.237	121.75
2739.744	118.75
2743.249	120.75
2746.75	124.75
2750.248	122.75
2753.743	118.75
2757.236	117.75
2760.725	112.75
2764.211	121.75
2767.695	117.75
2771.175	113.75
2774.652	120.75
2778.127	110.75
2781.598	114.75
2785.067	114.75
2788.532	115.75
2791.995	118.75
2795.455	116.75
2798.911	121.75
2802.365	118.75
2805.816	109.75
2809.264	120.75
2812.709	113.75
2816.151	128.75
2819.59	121.75
2823.026	120.75
2826.46	116.75
2829.89	123.75
2833.318	124.75
2836.742	121.75
2840.164	129.75
2843.583	127.75
2846.999	127.75
2850.412	134.75
2853.822	128.75
2857.229	132.75
2860.634	139.75
2864.035	138.75
2867.434	149.75
2870.83	145.75
2874.223	154.75
2877.613	155.75
2881	143.75
2884.385	155.75
2887.766	152.75
2891.145	146.75
2894.521	150.75
2897.894	151.75
2901.264	153.75
2904.631	160.75
2907.996	158.75
2911.358	163.75
2914.717	163.75
2918.073	162.75
2921.426	169.75
2924.777	180.75
2928.124	168.75
2931.469	175.75
2934.811	191.75
2938.15	185.75
2941.487	191.75
2944.821	202.75
2948.152	195.75
2951.48	194.75
2954.805	201.75
2958.128	209.75
2961.447	206.75
2964.765	212.75
2968.079	216.75
2971.39	211.75
2974.699	223.75
2978.005	229.75
2981.308	221.75
2984.609	246.75
2987.907	245.75
2991.202	258.75
2994.494	264.75
2997.784	275.75
3001.07	278.75
3004.355	286.75
3007.636	288.75
3010.915	299.75
3014.191	309.75
3017.464	313.75
3020.734	320.75
3024.002	316.75
3027.267	334.75
3030.53	327.75
3033.789	341.75
3037.046	345.75
3040.301	362.75
3043.552	367.75
3046.801	381.75
3050.048	386.75
3053.291	400.75
3056.532	410.75
3059.771	430.75
3063.006	427.75
3066.239	450.75
3069.469	462.75
3072.697	477.75
3075.922	488.75
3079.144	508.75
3082.364	513.75
3085.581	530.75
3088.795	543.75
3092.007	558.75
3095.216	568.75
3098.423	579.75
3101.627	599.75
3104.828	608.75
3108.026	605.75
3111.222	625.75
3114.416	637.75
3117.607	661.75
3120.795	674.75
3123.98	695.75
3127.163	709.75
3130.344	728.75
3133.521	741.75
3136.696	743.75
3139.869	761.75
3143.039	783.75
3146.206	799.75
3149.371	799.75
3152.533	804.75
3155.693	817.75
3158.85	827.75
3162.005	819.75
3165.157	840.75
3168.306	843.75
3171.453	828.75
3174.597	847.75
3177.739	840.75
3180.878	850.75
3184.014	851.75
3187.149	850.75
3190.28	858.75
3193.409	853.75
3196.536	855.75
3199.659	856.75
3202.781	871.75
3205.9	868.75
3209.016	865.75
3212.13	875.75
3215.241	864.75
3218.35	843.75
3221.456	835.75
3224.56	838.75
3227.661	824.75
3230.76	814.75
3233.856	807.75
3236.95	811.75
3240.041	790.75
3243.13	789.75
3246.216	780.75
3249.3	786.75
3252.382	774.75
3255.46	765.75
3258.537	772.75
3261.611	761.75
3264.682	764.75
3267.751	752.75
3270.818	754.75
3273.882	743.75
3276.943	750.75
3280.002	744.75
3283.059	735.75
3286.113	726.75
3289.165	716.75
3292.214	720.75
3295.261	695.75
3298.306	680.75
3301.348	664.75
3304.387	667.75
3307.425	663.75
3310.459	640.75
3313.492	646.75
3316.521	628.75
3319.549	627.75
3322.574	623.75
3325.597	617.75
3328.617	604.75
3331.635	614.75
3334.65	610.75
3337.663	599.75
3340.674	592.75
3343.682	588.75
3346.688	588.75
3349.691	575.75
3352.692	585.75
3355.691	568.75
3358.687	583.75
3361.681	582.75
3364.673	570.75
3367.662	546.75
3370.649	544.75
3373.633	543.75
3376.615	534.75
3379.595	520.75
3382.572	523.75
3385.547	509.75
3388.52	501.75
3391.49	487.75
3394.458	489.75
3397.424	479.75
3400.387	478.75
3403.348	473.75
3406.307	465.75
3409.263	467.75
3412.217	460.75
3415.168	465.75
3418.118	450.75
3421.065	449.75
3424.009	447.75
3426.951	432.75
3429.891	433.75
3432.829	416.75
3435.764	411.75
3438.697	399.75
3441.628	384.75
3444.557	370.75
3447.483	366.75
3450.407	363.75
3453.328	349.75
3456.247	343.75
3459.164	338.75
3462.079	327.75
3464.991	308.75
3467.902	302.75
3470.809	285.75
3473.715	278.75
3476.618	275.75
3479.519	265.75
3482.418	256.75
3485.315	257.75
3488.209	243.75
3491.101	232.75
3493.99	229.75
3496.878	218.75
3499.763	213.75
3502.646	210.75
3505.527	205.75
3508.405	194.75
3511.281	181.75
3514.155	172.75
3517.027	169.75
3519.897	158.75
3522.764	152.75
3525.629	143.75
3528.492	135.75
3531.352	134.75
3534.211	123.75
3537.067	114.75
3539.921	114.75
3542.773	101.75
3545.622	95.75
3548.469	83.75
3551.315	84.75
3554.157	81.75
3556.998	70.75
3559.837	67.75
3562.673	60.75
3565.507	55.75
3568.339	55.75
3571.169	51.75
3573.996	49.75
3576.822	44.75
3579.645	41.75
3582.466	38.75
3585.285	26.75
3588.101	27.75
3590.916	27.75
3593.728	19.75
3596.538	20.75
3599.346	13.75
3602.152	13.75
3604.956	5.75
3607.757	-0.25
3610.556	0.75
3613.354	-4.25
3616.149	-2.25
3618.942	-11.25
3621.732	-8.25
3624.521	-9.25
3627.307	-14.25
3630.092	-20.25
3632.874	-18.25
3635.654	-19.25
3638.432	-19.25
3641.208	-20.25
3643.982	-25.25
3646.753	-23.25
3649.523	-26.25
3652.29	-31.25
3655.055	-30.25
3657.818	-37.25
3660.579	-36.25
3663.338	-38.25
3666.095	-37.25
3668.849	-40.25
3671.602	-45.25
3674.352	-45.25
3677.101	-49.25
3679.847	-49.25
3682.591	-48.25
3685.333	-46.25
3688.073	-48.25
3690.811	-54.25
3693.547	-53.25
3696.281	-56.25
3699.013	-57.25
3701.742	-56.25
3704.47	-54.25
3707.195	-57.25
3709.919	-58.25
3712.64	-59.25
3715.359	-61.25
3718.076	-63.25
3720.792	-63.25
3723.505	-64.25
3726.216	-62.25
3728.925	-64.25
3731.632	-63.25
3734.336	-59.25
3737.039	-65.25
3739.74	-62.25
3742.439	-67.25
3745.136	-65.25
3747.83	-67.25
3750.523	-69.25
3753.213	-67.25
3755.902	-66.25
3758.589	-71.25
3761.273	-70.25
3763.956	-66.25
3766.636	-69.25
3769.315	-71.25
3771.991	-68.25
3774.665	-69.25
3777.338	-68.25
3780.008	-71.25
3782.677	-75.25
3785.343	-72.25
3788.007	-73.25
3790.67	-74.25
3793.33	-72.25
3795.989	-71.25
3798.645	-67.25
3801.299	-67.25
3803.952	-72.25
3806.602	-74.25
3809.251	-74.25
3811.897	-73.25
3814.542	-71.25
3817.184	-71.25
3819.825	-77.25
3822.463	-74.25
3825.1	-78.25
3827.735	-79.25
3830.367	-73.25
3832.998	-79.25
3835.627	-75.25
3838.253	-73.25
3840.878	-73.25
3843.501	-76.25
3846.122	-80.25
3848.741	-79.25
3851.358	-78.25
3853.973	-77.25
3856.586	-77.25
3859.197	-76.25
3861.806	-77.25
3864.414	-78.25
3867.019	-78.25
3869.622	-78.25
3872.224	-77.25
3874.823	-72.25
3877.421	-70.25
3880.016	-68.25
3882.61	-68.25
3885.202	-70.25
3887.792	-71.25
3890.38	-78.25
3892.966	-73.25
3895.55	-79.25
3898.132	-76.25
3900.713	-79.25
3903.291	-77.25
3905.868	-75.25
3908.442	-76.25
3911.015	-78.25
3913.586	-75.25
3916.155	-79.25
3918.722	-81.25
3921.287	-77.25
3923.85	-79.25
3926.411	-81.25
3928.971	-82.25
3931.528	-85.25
3934.084	-80.25
3936.638	-82.25
3939.19	-82.25
3941.74	-78.25
3944.288	-79.25
3946.834	-75.25
3949.378	-80.25
3951.921	-75.25
3954.462	-80.25
3957	-81.25
3959.537	-79.25
3962.072	-84.25
3964.606	-83.25
3967.137	-81.25
3969.667	-78.25
3972.194	-81.25
3974.72	-79.25
3977.244	-79.25
3979.766	-76.25
3982.286	-74.25
3984.805	-76.25
3987.321	-76.25
3989.836	-76.25
3992.349	-84.25
3994.86	-81.25
3997.369	-80.25
3999.877	-80.25
4002.382	-75.25
4004.886	-75.25
4007.388	-76.25
4009.888	-76.25
4012.386	-72.25
4014.883	-79.25
4017.377	-81.25
4019.87	-76.25
4022.361	-77.25
4024.85	-78.25
4027.338	-83.25
4029.823	-78.25
4032.307	-78.25
4034.789	-76.25
4037.269	-79.25
4039.747	-77.25
4042.224	-82.25
4044.699	-80.25
4047.172	-78.25
4049.643	-77.25
4052.112	-81.25
4054.58	-80.25
4057.046	-80.25
4059.51	-82.25
4061.972	-84.25
4064.432	-82.25
4066.891	-78.25
4069.348	-76.25
4071.803	-79.25
4074.256	-75.25
4076.708	-74.25
4079.158	-77.25
4081.606	-78.25
4084.052	-81.25
4086.497	-79.25
4088.939	-82.25
4091.38	-81.25
4093.819	-81.25
4096.257	-84.25
4098.693	-81.25
4101.127	-81.25
4103.559	-80.25
4105.989	-54.25
4108.418	-53.25
4110.845	-45.25
4113.27	-48.25
4115.694	-39.25
4118.115	-31.25
4120.535	-78.25
4122.954	-79.25
4125.37	-80.25
4127.785	-79.25
4130.198	-79.25
4132.609	-76.25
4135.019	-82.25
4137.427	-80.25
4139.833	-83.25
4142.237	-79.25
