Data from 100CFU3_A_RamanShift_1.txt Node
Date: Mon Jan 23 14:12:12 IST 2017
User: aro
Spectrometer: QEPB0276
Trigger mode: 0
Integration Time (sec): 5.000000E0
Scans to average: 1
Electric dark correction enabled: true
Nonlinearity correction enabled: false
Boxcar width: 0
XAxis mode: Raman Shifts
Number of Pixels in Spectrum: 1044
>>>>>Begin Spectral Data<<<<<
160.701	-25.62
166.742	2.38
172.777	91.38
178.805	361.38
184.826	1017.38
190.841	2117.38
196.849	3336.38
202.85	4119.38
208.845	4332.38
214.833	4172.38
220.815	4024.38
226.789	3892.38
232.758	3799.38
238.719	3668.38
244.674	3562.38
250.623	3370.38
256.565	3245.38
262.5	3067.38
268.429	2927.38
274.351	2823.38
280.267	2690.38
286.176	2594.38
292.079	2513.38
297.975	2422.38
303.865	2352.38
309.748	2280.38
315.625	2215.38
321.495	2167.38
327.359	2150.38
333.217	2116.38
339.068	2096.38
344.912	2101.38
350.751	2088.38
356.583	2073.38
362.408	2069.38
368.227	2072.38
374.04	2064.38
379.847	2089.38
385.647	2086.38
391.44	2116.38
397.228	2112.38
403.009	2112.38
408.784	2164.38
414.553	2115.38
420.315	2144.38
426.071	2141.38
431.821	2164.38
437.565	2150.38
443.302	2152.38
449.033	2121.38
454.758	2132.38
460.477	2141.38
466.189	2122.38
471.896	2111.38
477.596	2084.38
483.29	2085.38
488.978	2070.38
494.66	2043.38
500.335	2041.38
506.005	2021.38
511.668	1964.38
517.325	1942.38
522.977	1906.38
528.622	1888.38
534.261	1860.38
539.894	1840.38
545.521	1844.38
551.141	1828.38
556.756	1818.38
562.365	1789.38
567.968	1769.38
573.565	1764.38
579.155	1746.38
584.74	1741.38
590.319	1750.38
595.892	1718.38
601.459	1730.38
607.02	1702.38
612.575	1672.38
618.124	1660.38
623.667	1662.38
629.204	1652.38
634.735	1642.38
640.261	1609.38
645.781	1612.38
651.294	1608.38
656.802	1591.38
662.304	1595.38
667.8	1566.38
673.29	1587.38
678.775	1574.38
684.254	1579.38
689.726	1529.38
695.193	1542.38
700.655	1537.38
706.11	1520.38
711.56	1510.38
717.004	1513.38
722.442	1495.38
727.874	1496.38
733.301	1496.38
738.722	1489.38
744.137	1458.38
749.547	1485.38
754.951	1458.38
760.349	1457.38
765.741	1452.38
771.128	1465.38
776.509	1453.38
781.885	1457.38
787.254	1449.38
792.618	1438.38
797.977	1432.38
803.33	1423.38
808.677	1421.38
814.019	1399.38
819.355	1396.38
824.686	1372.38
830.011	1365.38
835.33	1364.38
840.644	1343.38
845.952	1336.38
851.255	1338.38
856.552	1341.38
861.844	1320.38
867.13	1337.38
872.41	1324.38
877.686	1304.38
882.955	1313.38
888.219	1284.38
893.478	1260.38
898.731	1233.38
903.979	1217.38
909.221	1194.38
914.458	1190.38
919.69	1173.38
924.916	1183.38
930.136	1182.38
935.351	1169.38
940.561	1161.38
945.766	1177.38
950.965	1161.38
956.158	1147.38
961.347	1133.38
966.529	1136.38
971.707	1115.38
976.879	1087.38
982.046	1075.38
987.208	1091.38
992.364	1082.38
997.515	1073.38
1002.66	1099.38
1007.801	1097.38
1012.936	1120.38
1018.066	1115.38
1023.19	1112.38
1028.309	1130.38
1033.423	1128.38
1038.532	1123.38
1043.636	1099.38
1048.734	1100.38
1053.827	1083.38
1058.915	1087.38
1063.998	1052.38
1069.075	1055.38
1074.147	1067.38
1079.214	1071.38
1084.276	1096.38
1089.333	1094.38
1094.385	1106.38
1099.431	1108.38
1104.472	1094.38
1109.509	1105.38
1114.54	1086.38
1119.565	1062.38
1124.586	1051.38
1129.602	1051.38
1134.613	1045.38
1139.618	1032.38
1144.619	1030.38
1149.614	1036.38
1154.604	1057.38
1159.589	1060.38
1164.57	1050.38
1169.545	1060.38
1174.515	1068.38
1179.48	1057.38
1184.44	1051.38
1189.395	1049.38
1194.345	1018.38
1199.29	1051.38
1204.23	1039.38
1209.165	1038.38
1214.095	1049.38
1219.021	1054.38
1223.941	1075.38
1228.856	1064.38
1233.766	1053.38
1238.672	1066.38
1243.572	1064.38
1248.467	1072.38
1253.358	1062.38
1258.244	1041.38
1263.124	1021.38
1268	1009.38
1272.871	1002.38
1277.737	986.38
1282.599	994.38
1287.455	993.38
1292.306	984.38
1297.153	1000.38
1301.995	1013.38
1306.832	1024.38
1311.664	1032.38
1316.491	1013.38
1321.314	1032.38
1326.132	1018.38
1330.945	1014.38
1335.753	1012.38
1340.556	990.38
1345.354	982.38
1350.148	973.38
1354.937	962.38
1359.722	962.38
1364.501	943.38
1369.276	926.38
1374.046	926.38
1378.811	921.38
1383.572	909.38
1388.327	935.38
1393.079	922.38
1397.825	908.38
1402.567	883.38
1407.304	896.38
1412.036	895.38
1416.764	896.38
1421.487	898.38
1426.205	895.38
1430.919	902.38
1435.628	915.38
1440.333	917.38
1445.032	936.38
1449.727	962.38
1454.418	950.38
1459.104	957.38
1463.785	943.38
1468.462	937.38
1473.134	926.38
1477.802	925.38
1482.465	909.38
1487.123	922.38
1491.777	920.38
1496.426	907.38
1501.071	921.38
1505.711	917.38
1510.347	940.38
1514.978	947.38
1519.604	961.38
1524.226	951.38
1528.844	952.38
1533.457	949.38
1538.065	951.38
1542.669	943.38
1547.269	942.38
1551.864	970.38
1556.454	965.38
1561.041	969.38
1565.622	994.38
1570.199	1000.38
1574.772	1011.38
1579.34	1020.38
1583.904	1059.38
1588.464	1065.38
1593.019	1067.38
1597.569	1095.38
1602.115	1109.38
1606.657	1104.38
1611.195	1120.38
1615.728	1150.38
1620.256	1153.38
1624.78	1173.38
1629.3	1204.38
1633.816	1207.38
1638.327	1240.38
1642.834	1244.38
1647.336	1239.38
1651.834	1257.38
1656.328	1241.38
1660.817	1238.38
1665.302	1226.38
1669.783	1202.38
1674.259	1158.38
1678.732	1149.38
1683.199	1097.38
1687.663	1067.38
1692.122	1035.38
1696.577	985.38
1701.028	936.38
1705.474	889.38
1709.917	856.38
1714.355	858.38
1718.788	827.38
1723.218	822.38
1727.643	799.38
1732.064	783.38
1736.481	761.38
1740.893	748.38
1745.301	724.38
1749.705	708.38
1754.105	689.38
1758.501	681.38
1762.893	661.38
1767.28	655.38
1771.663	643.38
1776.042	644.38
1780.417	648.38
1784.787	639.38
1789.154	641.38
1793.516	659.38
1797.874	638.38
1802.228	630.38
1806.578	628.38
1810.924	610.38
1815.266	603.38
1819.603	597.38
1823.937	585.38
1828.266	590.38
1832.591	585.38
1836.913	579.38
1841.23	568.38
1845.543	566.38
1849.852	570.38
1854.156	572.38
1858.457	578.38
1862.754	582.38
1867.047	591.38
1871.335	589.38
1875.62	591.38
1879.9	597.38
1884.177	591.38
1888.449	588.38
1892.718	582.38
1896.982	606.38
1901.243	591.38
1905.499	578.38
1909.752	580.38
1914	584.38
1918.245	583.38
1922.485	578.38
1926.722	587.38
1930.954	604.38
1935.183	590.38
1939.408	593.38
1943.628	600.38
1947.845	588.38
1952.058	585.38
1956.267	574.38
1960.472	575.38
1964.673	568.38
1968.87	560.38
1973.063	561.38
1977.252	561.38
1981.438	554.38
1985.619	556.38
1989.797	538.38
1993.971	559.38
1998.14	569.38
2002.306	555.38
2006.469	567.38
2010.627	563.38
2014.781	570.38
2018.932	569.38
2023.078	569.38
2027.221	569.38
2031.36	557.38
2035.495	547.38
2039.627	557.38
2043.754	558.38
2047.878	552.38
2051.998	558.38
2056.114	544.38
2060.226	546.38
2064.334	559.38
2068.439	555.38
2072.54	558.38
2076.637	571.38
2080.73	574.38
2084.82	576.38
2088.906	573.38
2092.988	582.38
2097.066	565.38
2101.14	565.38
2105.211	563.38
2109.278	561.38
2113.342	553.38
2117.401	544.38
2121.457	542.38
2125.509	547.38
2129.558	550.38
2133.602	534.38
2137.643	546.38
2141.681	535.38
2145.714	540.38
2149.744	535.38
2153.77	536.38
2157.793	520.38
2161.812	521.38
2165.827	504.38
2169.838	499.38
2173.846	491.38
2177.851	496.38
2181.851	476.38
2185.848	469.38
2189.841	470.38
2193.831	472.38
2197.817	469.38
2201.799	462.38
2205.778	463.38
2209.753	462.38
2213.725	467.38
2217.693	459.38
2221.657	465.38
2225.618	457.38
2229.575	455.38
2233.529	447.38
2237.479	448.38
2241.425	445.38
2245.368	431.38
2249.307	433.38
2253.243	422.38
2257.175	417.38
2261.104	403.38
2265.029	406.38
2268.95	390.38
2272.868	401.38
2276.783	393.38
2280.694	386.38
2284.601	376.38
2288.505	371.38
2292.405	371.38
2296.302	369.38
2300.195	355.38
2304.085	357.38
2307.971	356.38
2311.854	348.38
2315.734	332.38
2319.609	339.38
2323.482	333.38
2327.351	322.38
2331.216	334.38
2335.078	327.38
2338.937	325.38
2342.792	316.38
2346.643	299.38
2350.492	309.38
2354.336	303.38
2358.178	312.38
2362.015	313.38
2365.85	307.38
2369.681	308.38
2373.508	326.38
2377.333	304.38
2381.153	305.38
2384.971	308.38
2388.785	309.38
2392.595	315.38
2396.402	309.38
2400.206	306.38
2404.007	305.38
2407.804	301.38
2411.597	289.38
2415.388	299.38
2419.174	297.38
2422.958	288.38
2426.738	302.38
2430.515	294.38
2434.289	298.38
2438.059	296.38
2441.825	292.38
2445.589	290.38
2449.349	291.38
2453.106	280.38
2456.859	279.38
2460.61	271.38
2464.356	273.38
2468.1	266.38
2471.84	277.38
2475.577	274.38
2479.311	261.38
2483.041	275.38
2486.768	276.38
2490.492	269.38
2494.213	273.38
2497.93	273.38
2501.644	272.38
2505.355	268.38
2509.062	265.38
2512.766	270.38
2516.467	255.38
2520.165	270.38
2523.859	262.38
2527.551	259.38
2531.239	257.38
2534.923	256.38
2538.605	256.38
2542.283	251.38
2545.958	250.38
2549.63	249.38
2553.299	248.38
2556.964	256.38
2560.626	236.38
2564.285	242.38
2567.941	238.38
2571.594	234.38
2575.243	230.38
2578.89	237.38
2582.533	233.38
2586.173	234.38
2589.809	228.38
2593.443	228.38
2597.073	224.38
2600.701	223.38
2604.325	228.38
2607.946	223.38
2611.564	220.38
2615.178	215.38
2618.79	225.38
2622.398	213.38
2626.004	222.38
2629.606	219.38
2633.205	221.38
2636.801	219.38
2640.394	206.38
2643.983	210.38
2647.57	210.38
2651.153	201.38
2654.734	203.38
2658.311	196.38
2661.885	189.38
2665.456	196.38
2669.025	198.38
2672.589	187.38
2676.151	196.38
2679.71	195.38
2683.266	193.38
2686.819	191.38
2690.368	184.38
2693.915	188.38
2697.458	183.38
2700.999	174.38
2704.536	173.38
2708.071	173.38
2711.602	170.38
2715.13	166.38
2718.656	179.38
2722.178	184.38
2725.697	179.38
2729.214	184.38
2732.727	171.38
2736.237	171.38
2739.744	180.38
2743.249	176.38
2746.75	179.38
2750.248	174.38
2753.743	179.38
2757.236	170.38
2760.725	173.38
2764.211	172.38
2767.695	173.38
2771.175	170.38
2774.652	163.38
2778.127	164.38
2781.598	168.38
2785.067	166.38
2788.532	168.38
2791.995	169.38
2795.455	178.38
2798.911	172.38
2802.365	170.38
2805.816	168.38
2809.264	171.38
2812.709	174.38
2816.151	169.38
2819.59	178.38
2823.026	172.38
2826.46	176.38
2829.89	174.38
2833.318	182.38
2836.742	175.38
2840.164	172.38
2843.583	191.38
2846.999	178.38
2850.412	185.38
2853.822	190.38
2857.229	189.38
2860.634	194.38
2864.035	194.38
2867.434	204.38
2870.83	204.38
2874.223	215.38
2877.613	203.38
2881	202.38
2884.385	223.38
2887.766	211.38
2891.145	215.38
2894.521	215.38
2897.894	220.38
2901.264	211.38
2904.631	226.38
2907.996	221.38
2911.358	221.38
2914.717	222.38
2918.073	222.38
2921.426	239.38
2924.777	236.38
2928.124	240.38
2931.469	249.38
2934.811	255.38
2938.15	257.38
2941.487	260.38
2944.821	264.38
2948.152	254.38
2951.48	265.38
2954.805	272.38
2958.128	280.38
2961.447	283.38
2964.765	290.38
2968.079	300.38
2971.39	298.38
2974.699	302.38
2978.005	308.38
2981.308	324.38
2984.609	338.38
2987.907	341.38
2991.202	349.38
2994.494	370.38
2997.784	367.38
3001.07	383.38
3004.355	386.38
3007.636	395.38
3010.915	408.38
3014.191	413.38
3017.464	423.38
3020.734	426.38
3024.002	434.38
3027.267	444.38
3030.53	450.38
3033.789	453.38
3037.046	465.38
3040.301	475.38
3043.552	492.38
3046.801	506.38
3050.048	518.38
3053.291	521.38
3056.532	547.38
3059.771	573.38
3063.006	592.38
3066.239	597.38
3069.469	618.38
3072.697	630.38
3075.922	657.38
3079.144	654.38
3082.364	693.38
3085.581	696.38
3088.795	726.38
3092.007	744.38
3095.216	748.38
3098.423	781.38
3101.627	796.38
3104.828	805.38
3108.026	813.38
3111.222	843.38
3114.416	847.38
3117.607	877.38
3120.795	903.38
3123.98	914.38
3127.163	942.38
3130.344	951.38
3133.521	981.38
3136.696	995.38
3139.869	1026.38
3143.039	1034.38
3146.206	1042.38
3149.371	1066.38
3152.533	1087.38
3155.693	1087.38
3158.85	1093.38
3162.005	1113.38
3165.157	1109.38
3168.306	1100.38
3171.453	1122.38
3174.597	1113.38
3177.739	1115.38
3180.878	1127.38
3184.014	1133.38
3187.149	1139.38
3190.28	1134.38
3193.409	1146.38
3196.536	1133.38
3199.659	1146.38
3202.781	1147.38
3205.9	1154.38
3209.016	1157.38
3212.13	1147.38
3215.241	1146.38
3218.35	1133.38
3221.456	1118.38
3224.56	1114.38
3227.661	1106.38
3230.76	1088.38
3233.856	1073.38
3236.95	1072.38
3240.041	1062.38
3243.13	1049.38
3246.216	1048.38
3249.3	1043.38
3252.382	1043.38
3255.46	1025.38
3258.537	1042.38
3261.611	1017.38
3264.682	1014.38
3267.751	1009.38
3270.818	1005.38
3273.882	1007.38
3276.943	1002.38
3280.002	1002.38
3283.059	992.38
3286.113	980.38
3289.165	975.38
3292.214	945.38
3295.261	930.38
3298.306	916.38
3301.348	900.38
3304.387	890.38
3307.425	869.38
3310.459	866.38
3313.492	867.38
3316.521	848.38
3319.549	839.38
3322.574	828.38
3325.597	827.38
3328.617	821.38
3331.635	810.38
3334.65	803.38
3337.663	800.38
3340.674	808.38
3343.682	792.38
3346.688	797.38
3349.691	791.38
3352.692	788.38
3355.691	780.38
3358.687	780.38
3361.681	772.38
3364.673	764.38
3367.662	753.38
3370.649	733.38
3373.633	722.38
3376.615	714.38
3379.595	709.38
3382.572	689.38
3385.547	695.38
3388.52	679.38
3391.49	677.38
3394.458	664.38
3397.424	649.38
3400.387	649.38
3403.348	648.38
3406.307	632.38
3409.263	632.38
3412.217	615.38
3415.168	622.38
3418.118	610.38
3421.065	598.38
3424.009	599.38
3426.951	597.38
3429.891	579.38
3432.829	557.38
3435.764	553.38
3438.697	539.38
3441.628	516.38
3444.557	517.38
3447.483	498.38
3450.407	481.38
3453.328	467.38
3456.247	453.38
3459.164	454.38
3462.079	432.38
3464.991	409.38
3467.902	403.38
3470.809	399.38
3473.715	384.38
3476.618	374.38
3479.519	359.38
3482.418	352.38
3485.315	342.38
3488.209	327.38
3491.101	317.38
3493.99	309.38
3496.878	297.38
3499.763	290.38
3502.646	287.38
3505.527	274.38
3508.405	267.38
3511.281	246.38
3514.155	234.38
3517.027	228.38
3519.897	213.38
3522.764	212.38
3525.629	195.38
3528.492	186.38
3531.352	173.38
3534.211	165.38
3537.067	150.38
3539.921	143.38
3542.773	136.38
3545.622	141.38
3548.469	122.38
3551.315	115.38
3554.157	113.38
3556.998	98.38
3559.837	91.38
3562.673	83.38
3565.507	82.38
3568.339	78.38
3571.169	66.38
3573.996	70.38
3576.822	67.38
3579.645	57.38
3582.466	47.38
3585.285	47.38
3588.101	34.38
3590.916	35.38
3593.728	35.38
3596.538	30.38
3599.346	17.38
3602.152	21.38
3604.956	13.38
3607.757	5.38
3610.556	5.38
3613.354	-1.62
3616.149	-5.62
3618.942	-5.62
3621.732	-7.62
3624.521	-16.62
3627.307	-11.62
3630.092	-19.62
3632.874	-23.62
3635.654	-31.62
3638.432	-25.62
3641.208	-30.62
3643.982	-32.62
3646.753	-33.62
3649.523	-31.62
3652.29	-40.62
3655.055	-45.62
3657.818	-44.62
3660.579	-49.62
3663.338	-46.62
3666.095	-51.62
3668.849	-51.62
3671.602	-57.62
3674.352	-57.62
3677.101	-62.62
3679.847	-63.62
3682.591	-60.62
3685.333	-64.62
3688.073	-66.62
3690.811	-69.62
3693.547	-68.62
3696.281	-74.62
3699.013	-73.62
3701.742	-73.62
3704.47	-74.62
3707.195	-78.62
3709.919	-75.62
3712.64	-79.62
3715.359	-75.62
3718.076	-80.62
3720.792	-81.62
3723.505	-83.62
3726.216	-78.62
3728.925	-82.62
3731.632	-82.62
3734.336	-85.62
3737.039	-86.62
3739.74	-87.62
3742.439	-88.62
3745.136	-89.62
3747.83	-89.62
3750.523	-82.62
3753.213	-86.62
3755.902	-87.62
3758.589	-90.62
3761.273	-89.62
3763.956	-88.62
3766.636	-88.62
3769.315	-91.62
3771.991	-93.62
3774.665	-91.62
3777.338	-91.62
3780.008	-93.62
3782.677	-92.62
3785.343	-93.62
3788.007	-93.62
3790.67	-93.62
3793.33	-94.62
3795.989	-91.62
3798.645	-94.62
3801.299	-94.62
3803.952	-99.62
3806.602	-103.62
3809.251	-98.62
3811.897	-96.62
3814.542	-97.62
3817.184	-94.62
3819.825	-96.62
3822.463	-95.62
3825.1	-96.62
3827.735	-98.62
3830.367	-93.62
3832.998	-102.62
3835.627	-97.62
3838.253	-96.62
3840.878	-97.62
3843.501	-101.62
3846.122	-99.62
3848.741	-100.62
3851.358	-100.62
3853.973	-100.62
3856.586	-98.62
3859.197	-95.62
3861.806	-100.62
3864.414	-101.62
3867.019	-101.62
3869.622	-104.62
3872.224	-104.62
3874.823	-98.62
3877.421	-94.62
3880.016	-90.62
3882.61	-95.62
3885.202	-93.62
3887.792	-95.62
3890.38	-100.62
3892.966	-96.62
3895.55	-98.62
3898.132	-98.62
3900.713	-100.62
3903.291	-103.62
3905.868	-100.62
3908.442	-104.62
3911.015	-103.62
3913.586	-105.62
3916.155	-105.62
3918.722	-106.62
3921.287	-101.62
3923.85	-101.62
3926.411	-102.62
3928.971	-105.62
3931.528	-104.62
3934.084	-103.62
3936.638	-105.62
3939.19	-108.62
3941.74	-105.62
3944.288	-102.62
3946.834	-102.62
3949.378	-106.62
3951.921	-103.62
3954.462	-106.62
3957	-103.62
3959.537	-105.62
3962.072	-106.62
3964.606	-103.62
3967.137	-102.62
3969.667	-97.62
3972.194	-102.62
3974.72	-103.62
3977.244	-104.62
3979.766	-102.62
3982.286	-101.62
3984.805	-100.62
3987.321	-103.62
3989.836	-103.62
3992.349	-104.62
3994.86	-104.62
3997.369	-101.62
3999.877	-103.62
4002.382	-99.62
4004.886	-99.62
4007.388	-99.62
4009.888	-101.62
4012.386	-97.62
4014.883	-102.62
4017.377	-107.62
4019.87	-102.62
4022.361	-105.62
4024.85	-107.62
4027.338	-103.62
4029.823	-102.62
4032.307	-100.62
4034.789	-102.62
4037.269	-103.62
4039.747	-99.62
4042.224	-104.62
4044.699	-105.62
4047.172	-98.62
4049.643	-100.62
4052.112	-105.62
4054.58	-103.62
4057.046	-103.62
4059.51	-105.62
4061.972	-107.62
4064.432	-107.62
4066.891	-101.62
4069.348	-98.62
4071.803	-103.62
4074.256	-98.62
4076.708	-100.62
4079.158	-104.62
4081.606	-103.62
4084.052	-108.62
4086.497	-104.62
4088.939	-103.62
4091.38	-104.62
4093.819	-105.62
4096.257	-107.62
4098.693	-105.62
4101.127	-106.62
4103.559	-108.62
4105.989	-73.62
4108.418	-68.62
4110.845	-65.62
4113.27	-61.62
4115.694	-55.62
4118.115	-45.62
4120.535	-100.62
4122.954	-97.62
4125.37	-103.62
4127.785	-103.62
4130.198	-104.62
4132.609	-101.62
4135.019	-107.62
4137.427	-106.62
4139.833	-108.62
4142.237	-106.62
