Data from 100CFU2_A_RamanShift_1.txt Node
Date: Mon Jan 23 14:10:57 IST 2017
User: aro
Spectrometer: QEPB0276
Trigger mode: 0
Integration Time (sec): 5.000000E0
Scans to average: 1
Electric dark correction enabled: true
Nonlinearity correction enabled: false
Boxcar width: 0
XAxis mode: Raman Shifts
Number of Pixels in Spectrum: 1044
>>>>>Begin Spectral Data<<<<<
160.701	-30.75
166.742	-0.75
172.777	90.25
178.805	371.25
184.826	1034.25
190.841	2150.25
196.849	3391.25
202.85	4186.25
208.845	4383.25
214.833	4223.25
220.815	4102.25
226.789	3967.25
232.758	3883.25
238.719	3752.25
244.674	3604.25
250.623	3471.25
256.565	3296.25
262.5	3135.25
268.429	3012.25
274.351	2886.25
280.267	2776.25
286.176	2674.25
292.079	2588.25
297.975	2500.25
303.865	2424.25
309.748	2362.25
315.625	2304.25
321.495	2259.25
327.359	2215.25
333.217	2187.25
339.068	2182.25
344.912	2171.25
350.751	2141.25
356.583	2161.25
362.408	2134.25
368.227	2152.25
374.04	2138.25
379.847	2170.25
385.647	2167.25
391.44	2185.25
397.228	2189.25
403.009	2209.25
408.784	2212.25
414.553	2220.25
420.315	2202.25
426.071	2224.25
431.821	2207.25
437.565	2223.25
443.302	2246.25
449.033	2198.25
454.758	2227.25
460.477	2209.25
466.189	2194.25
471.896	2179.25
477.596	2164.25
483.29	2152.25
488.978	2159.25
494.66	2140.25
500.335	2105.25
506.005	2082.25
511.668	2046.25
517.325	2006.25
522.977	1955.25
528.622	1956.25
534.261	1945.25
539.894	1906.25
545.521	1908.25
551.141	1906.25
556.756	1889.25
562.365	1860.25
567.968	1856.25
573.565	1841.25
579.155	1841.25
584.74	1814.25
590.319	1815.25
595.892	1802.25
601.459	1802.25
607.02	1788.25
612.575	1765.25
618.124	1749.25
623.667	1730.25
629.204	1720.25
634.735	1701.25
640.261	1682.25
645.781	1692.25
651.294	1674.25
656.802	1657.25
662.304	1642.25
667.8	1665.25
673.29	1649.25
678.775	1643.25
684.254	1634.25
689.726	1644.25
695.193	1637.25
700.655	1625.25
706.11	1595.25
711.56	1616.25
717.004	1588.25
722.442	1566.25
727.874	1559.25
733.301	1560.25
738.722	1553.25
744.137	1535.25
749.547	1529.25
754.951	1543.25
760.349	1549.25
765.741	1552.25
771.128	1523.25
776.509	1525.25
781.885	1525.25
787.254	1538.25
792.618	1528.25
797.977	1499.25
803.33	1495.25
808.677	1495.25
814.019	1455.25
819.355	1457.25
824.686	1456.25
830.011	1445.25
835.33	1419.25
840.644	1432.25
845.952	1411.25
851.255	1423.25
856.552	1406.25
861.844	1406.25
867.13	1420.25
872.41	1402.25
877.686	1395.25
882.955	1387.25
888.219	1350.25
893.478	1322.25
898.731	1305.25
903.979	1287.25
909.221	1279.25
914.458	1272.25
919.69	1259.25
924.916	1248.25
930.136	1249.25
935.351	1265.25
940.561	1253.25
945.766	1250.25
950.965	1243.25
956.158	1228.25
961.347	1214.25
966.529	1197.25
971.707	1171.25
976.879	1177.25
982.046	1159.25
987.208	1149.25
992.364	1170.25
997.515	1143.25
1002.66	1173.25
1007.801	1183.25
1012.936	1190.25
1018.066	1191.25
1023.19	1210.25
1028.309	1206.25
1033.423	1192.25
1038.532	1187.25
1043.636	1187.25
1048.734	1174.25
1053.827	1164.25
1058.915	1156.25
1063.998	1154.25
1069.075	1139.25
1074.147	1132.25
1079.214	1158.25
1084.276	1167.25
1089.333	1178.25
1094.385	1170.25
1099.431	1189.25
1104.472	1184.25
1109.509	1179.25
1114.54	1165.25
1119.565	1156.25
1124.586	1124.25
1129.602	1115.25
1134.613	1127.25
1139.618	1118.25
1144.619	1125.25
1149.614	1124.25
1154.604	1126.25
1159.589	1134.25
1164.57	1133.25
1169.545	1137.25
1174.515	1147.25
1179.48	1133.25
1184.44	1130.25
1189.395	1114.25
1194.345	1116.25
1199.29	1105.25
1204.23	1134.25
1209.165	1127.25
1214.095	1130.25
1219.021	1141.25
1223.941	1149.25
1228.856	1146.25
1233.766	1170.25
1238.672	1158.25
1243.572	1169.25
1248.467	1154.25
1253.358	1126.25
1258.244	1133.25
1263.124	1111.25
1268	1096.25
1272.871	1086.25
1277.737	1055.25
1282.599	1081.25
1287.455	1078.25
1292.306	1074.25
1297.153	1079.25
1301.995	1099.25
1306.832	1107.25
1311.664	1110.25
1316.491	1111.25
1321.314	1117.25
1326.132	1115.25
1330.945	1095.25
1335.753	1092.25
1340.556	1074.25
1345.354	1064.25
1350.148	1058.25
1354.937	1052.25
1359.722	1040.25
1364.501	1019.25
1369.276	1009.25
1374.046	999.25
1378.811	1003.25
1383.572	986.25
1388.327	992.25
1393.079	979.25
1397.825	984.25
1402.567	973.25
1407.304	973.25
1412.036	970.25
1416.764	959.25
1421.487	969.25
1426.205	980.25
1430.919	973.25
1435.628	987.25
1440.333	996.25
1445.032	1015.25
1449.727	1018.25
1454.418	1024.25
1459.104	1035.25
1463.785	1029.25
1468.462	1006.25
1473.134	1014.25
1477.802	991.25
1482.465	1005.25
1487.123	984.25
1491.777	975.25
1496.426	989.25
1501.071	998.25
1505.711	1007.25
1510.347	1019.25
1514.978	1021.25
1519.604	1015.25
1524.226	1032.25
1528.844	1021.25
1533.457	1026.25
1538.065	1009.25
1542.669	1017.25
1547.269	1019.25
1551.864	1027.25
1556.454	1022.25
1561.041	1048.25
1565.622	1041.25
1570.199	1053.25
1574.772	1087.25
1579.34	1110.25
1583.904	1110.25
1588.464	1142.25
1593.019	1144.25
1597.569	1170.25
1602.115	1182.25
1606.657	1184.25
1611.195	1200.25
1615.728	1216.25
1620.256	1214.25
1624.78	1247.25
1629.3	1272.25
1633.816	1275.25
1638.327	1296.25
1642.834	1308.25
1647.336	1318.25
1651.834	1324.25
1656.328	1325.25
1660.817	1314.25
1665.302	1303.25
1669.783	1280.25
1674.259	1238.25
1678.732	1214.25
1683.199	1171.25
1687.663	1147.25
1692.122	1109.25
1696.577	1060.25
1701.028	997.25
1705.474	950.25
1709.917	916.25
1714.355	896.25
1718.788	890.25
1723.218	880.25
1727.643	866.25
1732.064	849.25
1736.481	837.25
1740.893	811.25
1745.301	785.25
1749.705	762.25
1754.105	751.25
1758.501	741.25
1762.893	725.25
1767.28	720.25
1771.663	708.25
1776.042	706.25
1780.417	716.25
1784.787	711.25
1789.154	710.25
1793.516	717.25
1797.874	704.25
1802.228	691.25
1806.578	677.25
1810.924	666.25
1815.266	658.25
1819.603	653.25
1823.937	644.25
1828.266	640.25
1832.591	646.25
1836.913	633.25
1841.23	637.25
1845.543	634.25
1849.852	624.25
1854.156	632.25
1858.457	636.25
1862.754	645.25
1867.047	650.25
1871.335	651.25
1875.62	666.25
1879.9	653.25
1884.177	657.25
1888.449	651.25
1892.718	646.25
1896.982	650.25
1901.243	656.25
1905.499	646.25
1909.752	650.25
1914	642.25
1918.245	642.25
1922.485	635.25
1926.722	644.25
1930.954	653.25
1935.183	658.25
1939.408	646.25
1943.628	652.25
1947.845	647.25
1952.058	640.25
1956.267	628.25
1960.472	624.25
1964.673	627.25
1968.87	621.25
1973.063	609.25
1977.252	610.25
1981.438	612.25
1985.619	604.25
1989.797	601.25
1993.971	605.25
1998.14	603.25
2002.306	613.25
2006.469	618.25
2010.627	627.25
2014.781	619.25
2018.932	620.25
2023.078	608.25
2027.221	614.25
2031.36	605.25
2035.495	603.25
2039.627	613.25
2043.754	606.25
2047.878	596.25
2051.998	613.25
2056.114	598.25
2060.226	612.25
2064.334	615.25
2068.439	615.25
2072.54	617.25
2076.637	628.25
2080.73	629.25
2084.82	630.25
2088.906	624.25
2092.988	623.25
2097.066	627.25
2101.14	610.25
2105.211	603.25
2109.278	603.25
2113.342	597.25
2117.401	599.25
2121.457	588.25
2125.509	582.25
2129.558	586.25
2133.602	588.25
2137.643	584.25
2141.681	581.25
2145.714	572.25
2149.744	578.25
2153.77	564.25
2157.793	567.25
2161.812	569.25
2165.827	552.25
2169.838	550.25
2173.846	539.25
2177.851	536.25
2181.851	520.25
2185.848	516.25
2189.841	516.25
2193.831	519.25
2197.817	505.25
2201.799	505.25
2205.778	518.25
2209.753	496.25
2213.725	504.25
2217.693	511.25
2221.657	503.25
2225.618	504.25
2229.575	501.25
2233.529	497.25
2237.479	472.25
2241.425	484.25
2245.368	479.25
2249.307	477.25
2253.243	454.25
2257.175	451.25
2261.104	451.25
2265.029	449.25
2268.95	436.25
2272.868	429.25
2276.783	427.25
2280.694	424.25
2284.601	412.25
2288.505	405.25
2292.405	401.25
2296.302	405.25
2300.195	392.25
2304.085	398.25
2307.971	397.25
2311.854	387.25
2315.734	375.25
2319.609	372.25
2323.482	356.25
2327.351	367.25
2331.216	357.25
2335.078	355.25
2338.937	348.25
2342.792	352.25
2346.643	348.25
2350.492	345.25
2354.336	349.25
2358.178	343.25
2362.015	353.25
2365.85	339.25
2369.681	352.25
2373.508	356.25
2377.333	353.25
2381.153	342.25
2384.971	346.25
2388.785	358.25
2392.595	344.25
2396.402	338.25
2400.206	341.25
2404.007	332.25
2407.804	330.25
2411.597	336.25
2415.388	343.25
2419.174	332.25
2422.958	338.25
2426.738	331.25
2430.515	329.25
2434.289	325.25
2438.059	334.25
2441.825	313.25
2445.589	316.25
2449.349	313.25
2453.106	314.25
2456.859	318.25
2460.61	319.25
2464.356	310.25
2468.1	311.25
2471.84	303.25
2475.577	311.25
2479.311	304.25
2483.041	311.25
2486.768	304.25
2490.492	305.25
2494.213	301.25
2497.93	301.25
2501.644	303.25
2505.355	303.25
2509.062	296.25
2512.766	304.25
2516.467	296.25
2520.165	301.25
2523.859	298.25
2527.551	293.25
2531.239	291.25
2534.923	288.25
2538.605	287.25
2542.283	293.25
2545.958	283.25
2549.63	285.25
2553.299	282.25
2556.964	276.25
2560.626	267.25
2564.285	274.25
2567.941	269.25
2571.594	269.25
2575.243	266.25
2578.89	270.25
2582.533	257.25
2586.173	265.25
2589.809	257.25
2593.443	267.25
2597.073	250.25
2600.701	251.25
2604.325	243.25
2607.946	246.25
2611.564	246.25
2615.178	247.25
2618.79	252.25
2622.398	245.25
2626.004	245.25
2629.606	250.25
2633.205	245.25
2636.801	237.25
2640.394	236.25
2643.983	239.25
2647.57	233.25
2651.153	229.25
2654.734	228.25
2658.311	224.25
2661.885	218.25
2665.456	222.25
2669.025	216.25
2672.589	221.25
2676.151	217.25
2679.71	211.25
2683.266	215.25
2686.819	215.25
2690.368	208.25
2693.915	204.25
2697.458	202.25
2700.999	199.25
2704.536	189.25
2708.071	199.25
2711.602	190.25
2715.13	191.25
2718.656	193.25
2722.178	200.25
2725.697	206.25
2729.214	197.25
2732.727	198.25
2736.237	205.25
2739.744	196.25
2743.249	205.25
2746.75	200.25
2750.248	197.25
2753.743	203.25
2757.236	204.25
2760.725	197.25
2764.211	195.25
2767.695	188.25
2771.175	189.25
2774.652	188.25
2778.127	186.25
2781.598	187.25
2785.067	179.25
2788.532	188.25
2791.995	188.25
2795.455	185.25
2798.911	195.25
2802.365	195.25
2805.816	187.25
2809.264	200.25
2812.709	189.25
2816.151	190.25
2819.59	192.25
2823.026	195.25
2826.46	195.25
2829.89	196.25
2833.318	199.25
2836.742	194.25
2840.164	204.25
2843.583	196.25
2846.999	208.25
2850.412	200.25
2853.822	208.25
2857.229	211.25
2860.634	215.25
2864.035	223.25
2867.434	216.25
2870.83	220.25
2874.223	227.25
2877.613	225.25
2881	222.25
2884.385	236.25
2887.766	223.25
2891.145	228.25
2894.521	224.25
2897.894	227.25
2901.264	234.25
2904.631	243.25
2907.996	236.25
2911.358	243.25
2914.717	241.25
2918.073	236.25
2921.426	251.25
2924.777	249.25
2928.124	255.25
2931.469	263.25
2934.811	265.25
2938.15	277.25
2941.487	272.25
2944.821	281.25
2948.152	274.25
2951.48	285.25
2954.805	289.25
2958.128	298.25
2961.447	308.25
2964.765	302.25
2968.079	309.25
2971.39	319.25
2974.699	323.25
2978.005	330.25
2981.308	325.25
2984.609	339.25
2987.907	361.25
2991.202	362.25
2994.494	364.25
2997.784	377.25
3001.07	384.25
3004.355	404.25
3007.636	410.25
3010.915	420.25
3014.191	425.25
3017.464	434.25
3020.734	432.25
3024.002	442.25
3027.267	456.25
3030.53	459.25
3033.789	461.25
3037.046	477.25
3040.301	485.25
3043.552	500.25
3046.801	508.25
3050.048	522.25
3053.291	557.25
3056.532	562.25
3059.771	574.25
3063.006	593.25
3066.239	614.25
3069.469	636.25
3072.697	647.25
3075.922	667.25
3079.144	679.25
3082.364	692.25
3085.581	712.25
3088.795	726.25
3092.007	748.25
3095.216	774.25
3098.423	782.25
3101.627	793.25
3104.828	812.25
3108.026	818.25
3111.222	840.25
3114.416	853.25
3117.607	886.25
3120.795	904.25
3123.98	927.25
3127.163	939.25
3130.344	969.25
3133.521	977.25
3136.696	1013.25
3139.869	1033.25
3143.039	1043.25
3146.206	1062.25
3149.371	1074.25
3152.533	1078.25
3155.693	1088.25
3158.85	1095.25
3162.005	1099.25
3165.157	1116.25
3168.306	1125.25
3171.453	1122.25
3174.597	1122.25
3177.739	1124.25
3180.878	1130.25
3184.014	1126.25
3187.149	1133.25
3190.28	1141.25
3193.409	1149.25
3196.536	1142.25
3199.659	1143.25
3202.781	1162.25
3205.9	1173.25
3209.016	1149.25
3212.13	1160.25
3215.241	1139.25
3218.35	1154.25
3221.456	1115.25
3224.56	1120.25
3227.661	1107.25
3230.76	1109.25
3233.856	1086.25
3236.95	1078.25
3240.041	1061.25
3243.13	1054.25
3246.216	1050.25
3249.3	1036.25
3252.382	1045.25
3255.46	1023.25
3258.537	1039.25
3261.611	1022.25
3264.682	1018.25
3267.751	1013.25
3270.818	1015.25
3273.882	1008.25
3276.943	993.25
3280.002	981.25
3283.059	989.25
3286.113	982.25
3289.165	956.25
3292.214	947.25
3295.261	936.25
3298.306	911.25
3301.348	893.25
3304.387	891.25
3307.425	877.25
3310.459	866.25
3313.492	849.25
3316.521	849.25
3319.549	846.25
3322.574	842.25
3325.597	823.25
3328.617	818.25
3331.635	806.25
3334.65	819.25
3337.663	810.25
3340.674	799.25
3343.682	792.25
3346.688	791.25
3349.691	781.25
3352.692	782.25
3355.691	779.25
3358.687	780.25
3361.681	775.25
3364.673	760.25
3367.662	752.25
3370.649	736.25
3373.633	733.25
3376.615	722.25
3379.595	708.25
3382.572	701.25
3385.547	671.25
3388.52	679.25
3391.49	673.25
3394.458	662.25
3397.424	654.25
3400.387	645.25
3403.348	648.25
3406.307	631.25
3409.263	635.25
3412.217	612.25
3415.168	625.25
3418.118	594.25
3421.065	598.25
3424.009	596.25
3426.951	583.25
3429.891	571.25
3432.829	559.25
3435.764	557.25
3438.697	531.25
3441.628	525.25
3444.557	517.25
3447.483	494.25
3450.407	492.25
3453.328	472.25
3456.247	454.25
3459.164	444.25
3462.079	435.25
3464.991	411.25
3467.902	399.25
3470.809	386.25
3473.715	376.25
3476.618	366.25
3479.519	354.25
3482.418	349.25
3485.315	335.25
3488.209	334.25
3491.101	324.25
3493.99	322.25
3496.878	303.25
3499.763	285.25
3502.646	283.25
3505.527	286.25
3508.405	264.25
3511.281	243.25
3514.155	239.25
3517.027	233.25
3519.897	216.25
3522.764	215.25
3525.629	202.25
3528.492	191.25
3531.352	179.25
3534.211	177.25
3537.067	152.25
3539.921	156.25
3542.773	140.25
3545.622	131.25
3548.469	127.25
3551.315	118.25
3554.157	107.25
3556.998	100.25
3559.837	93.25
3562.673	84.25
3565.507	82.25
3568.339	76.25
3571.169	72.25
3573.996	67.25
3576.822	57.25
3579.645	58.25
3582.466	47.25
3585.285	43.25
3588.101	37.25
3590.916	38.25
3593.728	29.25
3596.538	18.25
3599.346	18.25
3602.152	20.25
3604.956	13.25
3607.757	11.25
3610.556	-0.75
3613.354	-0.75
3616.149	-3.75
3618.942	-7.75
3621.732	-8.75
3624.521	-11.75
3627.307	-16.75
3630.092	-19.75
3632.874	-21.75
3635.654	-24.75
3638.432	-26.75
3641.208	-22.75
3643.982	-32.75
3646.753	-34.75
3649.523	-34.75
3652.29	-33.75
3655.055	-40.75
3657.818	-44.75
3660.579	-46.75
3663.338	-51.75
3666.095	-55.75
3668.849	-55.75
3671.602	-61.75
3674.352	-55.75
3677.101	-60.75
3679.847	-61.75
3682.591	-61.75
3685.333	-62.75
3688.073	-66.75
3690.811	-65.75
3693.547	-73.75
3696.281	-72.75
3699.013	-73.75
3701.742	-77.75
3704.47	-78.75
3707.195	-78.75
3709.919	-76.75
3712.64	-78.75
3715.359	-79.75
3718.076	-79.75
3720.792	-84.75
3723.505	-83.75
3726.216	-79.75
3728.925	-83.75
3731.632	-82.75
3734.336	-83.75
3737.039	-82.75
3739.74	-86.75
3742.439	-87.75
3745.136	-90.75
3747.83	-93.75
3750.523	-89.75
3753.213	-87.75
3755.902	-88.75
3758.589	-91.75
3761.273	-88.75
3763.956	-87.75
3766.636	-90.75
3769.315	-91.75
3771.991	-92.75
3774.665	-90.75
3777.338	-88.75
3780.008	-93.75
3782.677	-96.75
3785.343	-94.75
3788.007	-94.75
3790.67	-95.75
3793.33	-92.75
3795.989	-94.75
3798.645	-88.75
3801.299	-93.75
3803.952	-96.75
3806.602	-100.75
3809.251	-95.75
3811.897	-96.75
3814.542	-96.75
3817.184	-96.75
3819.825	-99.75
3822.463	-100.75
3825.1	-98.75
3827.735	-102.75
3830.367	-97.75
3832.998	-102.75
3835.627	-97.75
3838.253	-99.75
3840.878	-97.75
3843.501	-97.75
3846.122	-99.75
3848.741	-104.75
3851.358	-102.75
3853.973	-103.75
3856.586	-100.75
3859.197	-100.75
3861.806	-102.75
3864.414	-103.75
3867.019	-100.75
3869.622	-101.75
3872.224	-100.75
3874.823	-99.75
3877.421	-93.75
3880.016	-92.75
3882.61	-90.75
3885.202	-96.75
3887.792	-97.75
3890.38	-101.75
3892.966	-100.75
3895.55	-104.75
3898.132	-101.75
3900.713	-103.75
3903.291	-102.75
3905.868	-99.75
3908.442	-101.75
3911.015	-102.75
3913.586	-104.75
3916.155	-104.75
3918.722	-105.75
3921.287	-104.75
3923.85	-105.75
3926.411	-108.75
3928.971	-104.75
3931.528	-108.75
3934.084	-104.75
3936.638	-107.75
3939.19	-105.75
3941.74	-102.75
3944.288	-101.75
3946.834	-102.75
3949.378	-104.75
3951.921	-104.75
3954.462	-106.75
3957	-103.75
3959.537	-105.75
3962.072	-109.75
3964.606	-108.75
3967.137	-105.75
3969.667	-101.75
3972.194	-107.75
3974.72	-102.75
3977.244	-104.75
3979.766	-101.75
3982.286	-101.75
3984.805	-98.75
3987.321	-101.75
3989.836	-101.75
3992.349	-107.75
3994.86	-103.75
3997.369	-105.75
3999.877	-105.75
4002.382	-101.75
4004.886	-97.75
4007.388	-99.75
4009.888	-104.75
4012.386	-97.75
4014.883	-103.75
4017.377	-106.75
4019.87	-99.75
4022.361	-103.75
4024.85	-107.75
4027.338	-104.75
4029.823	-104.75
4032.307	-105.75
4034.789	-103.75
4037.269	-103.75
4039.747	-101.75
4042.224	-106.75
4044.699	-104.75
4047.172	-98.75
4049.643	-104.75
4052.112	-106.75
4054.58	-104.75
4057.046	-104.75
4059.51	-107.75
4061.972	-108.75
4064.432	-107.75
4066.891	-103.75
4069.348	-102.75
4071.803	-104.75
4074.256	-100.75
4076.708	-98.75
4079.158	-103.75
4081.606	-102.75
4084.052	-106.75
4086.497	-104.75
4088.939	-105.75
4091.38	-107.75
4093.819	-105.75
4096.257	-110.75
4098.693	-105.75
4101.127	-110.75
4103.559	-112.75
4105.989	-77.75
4108.418	-67.75
4110.845	-66.75
4113.27	-59.75
4115.694	-53.75
4118.115	-44.75
4120.535	-104.75
4122.954	-102.75
4125.37	-104.75
4127.785	-104.75
4130.198	-105.75
4132.609	-105.75
4135.019	-109.75
4137.427	-105.75
4139.833	-106.75
4142.237	-107.75
