Data from 1CFU2_B_RamanShift_1.txt Node
Date: Mon Jan 23 13:51:27 IST 2017
User: aro
Spectrometer: QEPB0276
Trigger mode: 0
Integration Time (sec): 5.000000E0
Scans to average: 1
Electric dark correction enabled: true
Nonlinearity correction enabled: false
Boxcar width: 0
XAxis mode: Raman Shifts
Number of Pixels in Spectrum: 1044
>>>>>Begin Spectral Data<<<<<
160.701	-28.88
166.742	2.12
172.777	88.12
178.805	372.12
184.826	1024.12
190.841	2098.12
196.849	3361.12
202.85	4178.12
208.845	4397.12
214.833	4258.12
220.815	4094.12
226.789	3990.12
232.758	3844.12
238.719	3731.12
244.674	3604.12
250.623	3453.12
256.565	3282.12
262.5	3144.12
268.429	3003.12
274.351	2875.12
280.267	2756.12
286.176	2646.12
292.079	2559.12
297.975	2472.12
303.865	2410.12
309.748	2360.12
315.625	2268.12
321.495	2214.12
327.359	2207.12
333.217	2174.12
339.068	2136.12
344.912	2145.12
350.751	2143.12
356.583	2116.12
362.408	2123.12
368.227	2134.12
374.04	2139.12
379.847	2140.12
385.647	2143.12
391.44	2171.12
397.228	2178.12
403.009	2194.12
408.784	2185.12
414.553	2194.12
420.315	2204.12
426.071	2214.12
431.821	2201.12
437.565	2198.12
443.302	2203.12
449.033	2182.12
454.758	2180.12
460.477	2178.12
466.189	2139.12
471.896	2155.12
477.596	2142.12
483.29	2124.12
488.978	2127.12
494.66	2109.12
500.335	2093.12
506.005	2067.12
511.668	2031.12
517.325	1996.12
522.977	1955.12
528.622	1938.12
534.261	1921.12
539.894	1913.12
545.521	1887.12
551.141	1876.12
556.756	1888.12
562.365	1860.12
567.968	1846.12
573.565	1828.12
579.155	1815.12
584.74	1807.12
590.319	1789.12
595.892	1797.12
601.459	1783.12
607.02	1761.12
612.575	1748.12
618.124	1737.12
623.667	1723.12
629.204	1705.12
634.735	1683.12
640.261	1676.12
645.781	1663.12
651.294	1663.12
656.802	1664.12
662.304	1648.12
667.8	1628.12
673.29	1644.12
678.775	1618.12
684.254	1600.12
689.726	1617.12
695.193	1592.12
700.655	1593.12
706.11	1586.12
711.56	1571.12
717.004	1561.12
722.442	1557.12
727.874	1539.12
733.301	1527.12
738.722	1535.12
744.137	1520.12
749.547	1521.12
754.951	1506.12
760.349	1508.12
765.741	1520.12
771.128	1518.12
776.509	1507.12
781.885	1506.12
787.254	1513.12
792.618	1510.12
797.977	1490.12
803.33	1481.12
808.677	1471.12
814.019	1448.12
819.355	1425.12
824.686	1423.12
830.011	1401.12
835.33	1406.12
840.644	1384.12
845.952	1398.12
851.255	1389.12
856.552	1395.12
861.844	1394.12
867.13	1378.12
872.41	1377.12
877.686	1357.12
882.955	1342.12
888.219	1327.12
893.478	1290.12
898.731	1269.12
903.979	1250.12
909.221	1245.12
914.458	1237.12
919.69	1226.12
924.916	1229.12
930.136	1221.12
935.351	1216.12
940.561	1221.12
945.766	1240.12
950.965	1225.12
956.158	1211.12
961.347	1199.12
966.529	1176.12
971.707	1153.12
976.879	1137.12
982.046	1130.12
987.208	1143.12
992.364	1124.12
997.515	1124.12
1002.66	1133.12
1007.801	1150.12
1012.936	1148.12
1018.066	1166.12
1023.19	1175.12
1028.309	1170.12
1033.423	1168.12
1038.532	1170.12
1043.636	1159.12
1048.734	1143.12
1053.827	1131.12
1058.915	1125.12
1063.998	1125.12
1069.075	1103.12
1074.147	1119.12
1079.214	1109.12
1084.276	1142.12
1089.333	1145.12
1094.385	1137.12
1099.431	1154.12
1104.472	1158.12
1109.509	1144.12
1114.54	1143.12
1119.565	1133.12
1124.586	1117.12
1129.602	1098.12
1134.613	1087.12
1139.618	1094.12
1144.619	1080.12
1149.614	1085.12
1154.604	1103.12
1159.589	1109.12
1164.57	1121.12
1169.545	1113.12
1174.515	1106.12
1179.48	1102.12
1184.44	1103.12
1189.395	1111.12
1194.345	1090.12
1199.29	1093.12
1204.23	1095.12
1209.165	1100.12
1214.095	1095.12
1219.021	1102.12
1223.941	1117.12
1228.856	1120.12
1233.766	1126.12
1238.672	1126.12
1243.572	1116.12
1248.467	1136.12
1253.358	1111.12
1258.244	1094.12
1263.124	1084.12
1268	1065.12
1272.871	1050.12
1277.737	1040.12
1282.599	1050.12
1287.455	1019.12
1292.306	1063.12
1297.153	1051.12
1301.995	1072.12
1306.832	1065.12
1311.664	1073.12
1316.491	1091.12
1321.314	1072.12
1326.132	1071.12
1330.945	1048.12
1335.753	1055.12
1340.556	1022.12
1345.354	1035.12
1350.148	1028.12
1354.937	1028.12
1359.722	1022.12
1364.501	1007.12
1369.276	995.12
1374.046	982.12
1378.811	970.12
1383.572	953.12
1388.327	964.12
1393.079	964.12
1397.825	949.12
1402.567	935.12
1407.304	929.12
1412.036	945.12
1416.764	942.12
1421.487	946.12
1426.205	951.12
1430.919	955.12
1435.628	970.12
1440.333	977.12
1445.032	986.12
1449.727	994.12
1454.418	1005.12
1459.104	998.12
1463.785	1000.12
1468.462	987.12
1473.134	988.12
1477.802	977.12
1482.465	967.12
1487.123	979.12
1491.777	975.12
1496.426	959.12
1501.071	980.12
1505.711	986.12
1510.347	1000.12
1514.978	1024.12
1519.604	1012.12
1524.226	1027.12
1528.844	1025.12
1533.457	1020.12
1538.065	1003.12
1542.669	997.12
1547.269	1004.12
1551.864	1004.12
1556.454	1026.12
1561.041	1017.12
1565.622	1034.12
1570.199	1040.12
1574.772	1059.12
1579.34	1085.12
1583.904	1111.12
1588.464	1109.12
1593.019	1143.12
1597.569	1161.12
1602.115	1173.12
1606.657	1171.12
1611.195	1183.12
1615.728	1189.12
1620.256	1199.12
1624.78	1224.12
1629.3	1236.12
1633.816	1274.12
1638.327	1275.12
1642.834	1306.12
1647.336	1313.12
1651.834	1317.12
1656.328	1323.12
1660.817	1295.12
1665.302	1294.12
1669.783	1277.12
1674.259	1234.12
1678.732	1194.12
1683.199	1162.12
1687.663	1132.12
1692.122	1094.12
1696.577	1047.12
1701.028	1001.12
1705.474	956.12
1709.917	918.12
1714.355	892.12
1718.788	877.12
1723.218	881.12
1727.643	857.12
1732.064	824.12
1736.481	817.12
1740.893	791.12
1745.301	770.12
1749.705	743.12
1754.105	730.12
1758.501	722.12
1762.893	712.12
1767.28	690.12
1771.663	691.12
1776.042	686.12
1780.417	699.12
1784.787	706.12
1789.154	706.12
1793.516	706.12
1797.874	699.12
1802.228	681.12
1806.578	667.12
1810.924	656.12
1815.266	641.12
1819.603	633.12
1823.937	623.12
1828.266	612.12
1832.591	632.12
1836.913	611.12
1841.23	611.12
1845.543	612.12
1849.852	622.12
1854.156	617.12
1858.457	621.12
1862.754	638.12
1867.047	625.12
1871.335	636.12
1875.62	647.12
1879.9	646.12
1884.177	638.12
1888.449	633.12
1892.718	626.12
1896.982	639.12
1901.243	639.12
1905.499	628.12
1909.752	641.12
1914	639.12
1918.245	628.12
1922.485	634.12
1926.722	642.12
1930.954	640.12
1935.183	644.12
1939.408	641.12
1943.628	641.12
1947.845	633.12
1952.058	649.12
1956.267	626.12
1960.472	616.12
1964.673	613.12
1968.87	610.12
1973.063	600.12
1977.252	584.12
1981.438	594.12
1985.619	593.12
1989.797	586.12
1993.971	593.12
1998.14	600.12
2002.306	596.12
2006.469	605.12
2010.627	598.12
2014.781	612.12
2018.932	602.12
2023.078	613.12
2027.221	606.12
2031.36	592.12
2035.495	597.12
2039.627	596.12
2043.754	593.12
2047.878	600.12
2051.998	598.12
2056.114	594.12
2060.226	596.12
2064.334	602.12
2068.439	604.12
2072.54	606.12
2076.637	614.12
2080.73	623.12
2084.82	615.12
2088.906	618.12
2092.988	623.12
2097.066	607.12
2101.14	616.12
2105.211	600.12
2109.278	592.12
2113.342	595.12
2117.401	583.12
2121.457	585.12
2125.509	581.12
2129.558	573.12
2133.602	568.12
2137.643	564.12
2141.681	567.12
2145.714	568.12
2149.744	570.12
2153.77	558.12
2157.793	568.12
2161.812	545.12
2165.827	537.12
2169.838	532.12
2173.846	535.12
2177.851	528.12
2181.851	513.12
2185.848	519.12
2189.841	506.12
2193.831	491.12
2197.817	495.12
2201.799	491.12
2205.778	505.12
2209.753	480.12
2213.725	494.12
2217.693	491.12
2221.657	489.12
2225.618	490.12
2229.575	482.12
2233.529	486.12
2237.479	471.12
2241.425	481.12
2245.368	474.12
2249.307	466.12
2253.243	457.12
2257.175	441.12
2261.104	439.12
2265.029	433.12
2268.95	426.12
2272.868	424.12
2276.783	416.12
2280.694	411.12
2284.601	411.12
2288.505	397.12
2292.405	400.12
2296.302	398.12
2300.195	378.12
2304.085	378.12
2307.971	368.12
2311.854	365.12
2315.734	357.12
2319.609	350.12
2323.482	350.12
2327.351	342.12
2331.216	343.12
2335.078	343.12
2338.937	332.12
2342.792	339.12
2346.643	330.12
2350.492	333.12
2354.336	330.12
2358.178	330.12
2362.015	330.12
2365.85	338.12
2369.681	330.12
2373.508	331.12
2377.333	339.12
2381.153	338.12
2384.971	333.12
2388.785	333.12
2392.595	330.12
2396.402	325.12
2400.206	326.12
2404.007	321.12
2407.804	316.12
2411.597	326.12
2415.388	321.12
2419.174	317.12
2422.958	322.12
2426.738	311.12
2430.515	316.12
2434.289	308.12
2438.059	316.12
2441.825	314.12
2445.589	306.12
2449.349	312.12
2453.106	297.12
2456.859	306.12
2460.61	290.12
2464.356	300.12
2468.1	291.12
2471.84	304.12
2475.577	296.12
2479.311	293.12
2483.041	297.12
2486.768	297.12
2490.492	293.12
2494.213	296.12
2497.93	294.12
2501.644	294.12
2505.355	296.12
2509.062	292.12
2512.766	298.12
2516.467	283.12
2520.165	289.12
2523.859	282.12
2527.551	279.12
2531.239	292.12
2534.923	277.12
2538.605	291.12
2542.283	277.12
2545.958	279.12
2549.63	275.12
2553.299	267.12
2556.964	263.12
2560.626	263.12
2564.285	258.12
2567.941	256.12
2571.594	265.12
2575.243	263.12
2578.89	259.12
2582.533	264.12
2586.173	255.12
2589.809	245.12
2593.443	250.12
2597.073	247.12
2600.701	242.12
2604.325	247.12
2607.946	250.12
2611.564	241.12
2615.178	239.12
2618.79	237.12
2622.398	230.12
2626.004	237.12
2629.606	226.12
2633.205	237.12
2636.801	229.12
2640.394	229.12
2643.983	219.12
2647.57	222.12
2651.153	224.12
2654.734	211.12
2658.311	220.12
2661.885	209.12
2665.456	211.12
2669.025	213.12
2672.589	210.12
2676.151	199.12
2679.71	204.12
2683.266	204.12
2686.819	204.12
2690.368	199.12
2693.915	195.12
2697.458	194.12
2700.999	197.12
2704.536	190.12
2708.071	183.12
2711.602	186.12
2715.13	186.12
2718.656	191.12
2722.178	191.12
2725.697	189.12
2729.214	187.12
2732.727	191.12
2736.237	186.12
2739.744	199.12
2743.249	194.12
2746.75	202.12
2750.248	189.12
2753.743	199.12
2757.236	187.12
2760.725	188.12
2764.211	187.12
2767.695	180.12
2771.175	177.12
2774.652	181.12
2778.127	172.12
2781.598	181.12
2785.067	173.12
2788.532	180.12
2791.995	184.12
2795.455	180.12
2798.911	178.12
2802.365	186.12
2805.816	183.12
2809.264	184.12
2812.709	184.12
2816.151	190.12
2819.59	185.12
2823.026	184.12
2826.46	189.12
2829.89	183.12
2833.318	186.12
2836.742	188.12
2840.164	197.12
2843.583	194.12
2846.999	196.12
2850.412	197.12
2853.822	197.12
2857.229	204.12
2860.634	208.12
2864.035	200.12
2867.434	210.12
2870.83	218.12
2874.223	218.12
2877.613	214.12
2881	216.12
2884.385	230.12
2887.766	219.12
2891.145	216.12
2894.521	223.12
2897.894	219.12
2901.264	223.12
2904.631	233.12
2907.996	223.12
2911.358	227.12
2914.717	230.12
2918.073	240.12
2921.426	235.12
2924.777	241.12
2928.124	241.12
2931.469	246.12
2934.811	267.12
2938.15	267.12
2941.487	267.12
2944.821	275.12
2948.152	285.12
2951.48	281.12
2954.805	285.12
2958.128	284.12
2961.447	304.12
2964.765	299.12
2968.079	304.12
2971.39	313.12
2974.699	307.12
2978.005	333.12
2981.308	326.12
2984.609	346.12
2987.907	352.12
2991.202	358.12
2994.494	377.12
2997.784	388.12
3001.07	406.12
3004.355	388.12
3007.636	412.12
3010.915	421.12
3014.191	429.12
3017.464	431.12
3020.734	440.12
3024.002	445.12
3027.267	458.12
3030.53	465.12
3033.789	474.12
3037.046	479.12
3040.301	489.12
3043.552	504.12
3046.801	526.12
3050.048	524.12
3053.291	552.12
3056.532	561.12
3059.771	582.12
3063.006	603.12
3066.239	620.12
3069.469	631.12
3072.697	657.12
3075.922	678.12
3079.144	688.12
3082.364	705.12
3085.581	727.12
3088.795	735.12
3092.007	765.12
3095.216	769.12
3098.423	788.12
3101.627	800.12
3104.828	818.12
3108.026	841.12
3111.222	861.12
3114.416	876.12
3117.607	912.12
3120.795	935.12
3123.98	951.12
3127.163	975.12
3130.344	995.12
3133.521	1010.12
3136.696	1035.12
3139.869	1041.12
3143.039	1072.12
3146.206	1094.12
3149.371	1106.12
3152.533	1101.12
3155.693	1116.12
3158.85	1121.12
3162.005	1131.12
3165.157	1144.12
3168.306	1145.12
3171.453	1140.12
3174.597	1167.12
3177.739	1141.12
3180.878	1152.12
3184.014	1151.12
3187.149	1167.12
3190.28	1166.12
3193.409	1172.12
3196.536	1178.12
3199.659	1163.12
3202.781	1194.12
3205.9	1189.12
3209.016	1191.12
3212.13	1186.12
3215.241	1169.12
3218.35	1162.12
3221.456	1152.12
3224.56	1161.12
3227.661	1131.12
3230.76	1135.12
3233.856	1120.12
3236.95	1115.12
3240.041	1082.12
3243.13	1098.12
3246.216	1085.12
3249.3	1076.12
3252.382	1081.12
3255.46	1077.12
3258.537	1071.12
3261.611	1060.12
3264.682	1054.12
3267.751	1040.12
3270.818	1046.12
3273.882	1038.12
3276.943	1033.12
3280.002	1028.12
3283.059	1021.12
3286.113	1006.12
3289.165	996.12
3292.214	967.12
3295.261	955.12
3298.306	946.12
3301.348	929.12
3304.387	915.12
3307.425	905.12
3310.459	894.12
3313.492	890.12
3316.521	864.12
3319.549	866.12
3322.574	856.12
3325.597	841.12
3328.617	844.12
3331.635	842.12
3334.65	832.12
3337.663	823.12
3340.674	828.12
3343.682	820.12
3346.688	816.12
3349.691	822.12
3352.692	810.12
3355.691	806.12
3358.687	793.12
3361.681	791.12
3364.673	782.12
3367.662	766.12
3370.649	769.12
3373.633	750.12
3376.615	730.12
3379.595	722.12
3382.572	728.12
3385.547	719.12
3388.52	707.12
3391.49	690.12
3394.458	682.12
3397.424	673.12
3400.387	661.12
3403.348	659.12
3406.307	650.12
3409.263	651.12
3412.217	645.12
3415.168	624.12
3418.118	623.12
3421.065	604.12
3424.009	602.12
3426.951	612.12
3429.891	586.12
3432.829	591.12
3435.764	571.12
3438.697	560.12
3441.628	536.12
3444.557	536.12
3447.483	518.12
3450.407	501.12
3453.328	499.12
3456.247	477.12
3459.164	461.12
3462.079	455.12
3464.991	429.12
3467.902	425.12
3470.809	407.12
3473.715	396.12
3476.618	385.12
3479.519	380.12
3482.418	364.12
3485.315	355.12
3488.209	346.12
3491.101	334.12
3493.99	324.12
3496.878	310.12
3499.763	294.12
3502.646	302.12
3505.527	283.12
3508.405	274.12
3511.281	265.12
3514.155	256.12
3517.027	243.12
3519.897	225.12
3522.764	215.12
3525.629	202.12
3528.492	195.12
3531.352	188.12
3534.211	170.12
3537.067	165.12
3539.921	159.12
3542.773	146.12
3545.622	136.12
3548.469	126.12
3551.315	128.12
3554.157	115.12
3556.998	107.12
3559.837	99.12
3562.673	88.12
3565.507	88.12
3568.339	82.12
3571.169	76.12
3573.996	69.12
3576.822	66.12
3579.645	64.12
3582.466	50.12
3585.285	51.12
3588.101	45.12
3590.916	50.12
3593.728	36.12
3596.538	32.12
3599.346	21.12
3602.152	20.12
3604.956	17.12
3607.757	7.12
3610.556	-0.88
3613.354	2.12
3616.149	0.12
3618.942	-7.88
3621.732	-7.88
3624.521	-5.88
3627.307	-9.88
3630.092	-15.88
3632.874	-20.88
3635.654	-16.88
3638.432	-20.88
3641.208	-23.88
3643.982	-30.88
3646.753	-34.88
3649.523	-37.88
3652.29	-38.88
3655.055	-46.88
3657.818	-46.88
3660.579	-51.88
3663.338	-43.88
3666.095	-50.88
3668.849	-49.88
3671.602	-56.88
3674.352	-57.88
3677.101	-59.88
3679.847	-64.88
3682.591	-63.88
3685.333	-62.88
3688.073	-63.88
3690.811	-64.88
3693.547	-72.88
3696.281	-75.88
3699.013	-70.88
3701.742	-75.88
3704.47	-73.88
3707.195	-78.88
3709.919	-75.88
3712.64	-73.88
3715.359	-76.88
3718.076	-79.88
3720.792	-84.88
3723.505	-79.88
3726.216	-81.88
3728.925	-82.88
3731.632	-78.88
3734.336	-84.88
3737.039	-87.88
3739.74	-86.88
3742.439	-91.88
3745.136	-94.88
3747.83	-90.88
3750.523	-85.88
3753.213	-85.88
3755.902	-87.88
3758.589	-88.88
3761.273	-89.88
3763.956	-87.88
3766.636	-91.88
3769.315	-86.88
3771.991	-93.88
3774.665	-91.88
3777.338	-87.88
3780.008	-95.88
3782.677	-92.88
3785.343	-94.88
3788.007	-91.88
3790.67	-93.88
3793.33	-96.88
3795.989	-91.88
3798.645	-88.88
3801.299	-92.88
3803.952	-95.88
3806.602	-99.88
3809.251	-97.88
3811.897	-97.88
3814.542	-96.88
3817.184	-96.88
3819.825	-99.88
3822.463	-99.88
3825.1	-99.88
3827.735	-101.88
3830.367	-95.88
3832.998	-102.88
3835.627	-97.88
3838.253	-98.88
3840.878	-95.88
3843.501	-95.88
3846.122	-97.88
3848.741	-101.88
3851.358	-100.88
3853.973	-101.88
3856.586	-99.88
3859.197	-99.88
3861.806	-100.88
3864.414	-102.88
3867.019	-102.88
3869.622	-102.88
3872.224	-98.88
3874.823	-98.88
3877.421	-94.88
3880.016	-92.88
3882.61	-89.88
3885.202	-94.88
3887.792	-92.88
3890.38	-99.88
3892.966	-102.88
3895.55	-102.88
3898.132	-100.88
3900.713	-105.88
3903.291	-101.88
3905.868	-100.88
3908.442	-103.88
3911.015	-103.88
3913.586	-104.88
3916.155	-103.88
3918.722	-103.88
3921.287	-100.88
3923.85	-103.88
3926.411	-106.88
3928.971	-103.88
3931.528	-107.88
3934.084	-105.88
3936.638	-108.88
3939.19	-105.88
3941.74	-103.88
3944.288	-104.88
3946.834	-102.88
3949.378	-102.88
3951.921	-102.88
3954.462	-106.88
3957	-104.88
3959.537	-106.88
3962.072	-105.88
3964.606	-103.88
3967.137	-106.88
3969.667	-103.88
3972.194	-104.88
3974.72	-107.88
3977.244	-104.88
3979.766	-102.88
3982.286	-101.88
3984.805	-99.88
3987.321	-102.88
3989.836	-100.88
3992.349	-105.88
3994.86	-102.88
3997.369	-104.88
3999.877	-103.88
4002.382	-101.88
4004.886	-102.88
4007.388	-103.88
4009.888	-102.88
4012.386	-100.88
4014.883	-103.88
4017.377	-109.88
4019.87	-101.88
4022.361	-103.88
4024.85	-103.88
4027.338	-101.88
4029.823	-101.88
4032.307	-102.88
4034.789	-101.88
4037.269	-103.88
4039.747	-104.88
4042.224	-107.88
4044.699	-108.88
4047.172	-104.88
4049.643	-103.88
4052.112	-105.88
4054.58	-101.88
4057.046	-101.88
4059.51	-105.88
4061.972	-107.88
4064.432	-104.88
4066.891	-100.88
4069.348	-103.88
4071.803	-102.88
4074.256	-101.88
4076.708	-101.88
4079.158	-105.88
4081.606	-106.88
4084.052	-109.88
4086.497	-105.88
4088.939	-105.88
4091.38	-105.88
4093.819	-104.88
4096.257	-109.88
4098.693	-105.88
4101.127	-105.88
4103.559	-108.88
4105.989	-71.88
4108.418	-65.88
4110.845	-66.88
4113.27	-63.88
4115.694	-58.88
4118.115	-43.88
4120.535	-101.88
4122.954	-101.88
4125.37	-105.88
4127.785	-104.88
4130.198	-105.88
4132.609	-102.88
4135.019	-108.88
4137.427	-107.88
4139.833	-109.88
4142.237	-106.88
