Data from B_sub_water_10CFU_B2_RamanShift_1.txt Node
Date: Thu Feb 23 12:11:13 IST 2017
User: aro
Spectrometer: QEPB0276
Trigger mode: 0
Integration Time (sec): 5.000000E0
Scans to average: 1
Electric dark correction enabled: true
Nonlinearity correction enabled: false
Boxcar width: 0
XAxis mode: Raman Shifts
Number of Pixels in Spectrum: 1044
>>>>>Begin Spectral Data<<<<<
160.701	-25.75
166.742	-0.75
172.777	84.25
178.805	347.25
184.826	972.25
190.841	2030.25
196.849	3199.25
202.85	4013.25
208.845	4160.25
214.833	4028.25
220.815	3858.25
226.789	3752.25
232.758	3634.25
238.719	3521.25
244.674	3391.25
250.623	3227.25
256.565	3086.25
262.5	2900.25
268.429	2774.25
274.351	2662.25
280.267	2559.25
286.176	2443.25
292.079	2358.25
297.975	2289.25
303.865	2209.25
309.748	2134.25
315.625	2102.25
321.495	2047.25
327.359	2018.25
333.217	1979.25
339.068	1977.25
344.912	1980.25
350.751	1958.25
356.583	1974.25
362.408	1953.25
368.227	1967.25
374.04	1941.25
379.847	1973.25
385.647	1980.25
391.44	1997.25
397.228	2011.25
403.009	1999.25
408.784	2021.25
414.553	2023.25
420.315	2022.25
426.071	2018.25
431.821	2015.25
437.565	2030.25
443.302	2016.25
449.033	2014.25
454.758	2005.25
460.477	1993.25
466.189	1992.25
471.896	1963.25
477.596	1955.25
483.29	1945.25
488.978	1941.25
494.66	1911.25
500.335	1899.25
506.005	1851.25
511.668	1819.25
517.325	1775.25
522.977	1737.25
528.622	1702.25
534.261	1688.25
539.894	1684.25
545.521	1664.25
551.141	1661.25
556.756	1632.25
562.365	1617.25
567.968	1615.25
573.565	1591.25
579.155	1591.25
584.74	1567.25
590.319	1550.25
595.892	1562.25
601.459	1540.25
607.02	1521.25
612.575	1509.25
618.124	1504.25
623.667	1477.25
629.204	1453.25
634.735	1449.25
640.261	1446.25
645.781	1427.25
651.294	1416.25
656.802	1392.25
662.304	1399.25
667.8	1382.25
673.29	1403.25
678.775	1389.25
684.254	1371.25
689.726	1353.25
695.193	1374.25
700.655	1340.25
706.11	1339.25
711.56	1324.25
717.004	1307.25
722.442	1293.25
727.874	1291.25
733.301	1285.25
738.722	1279.25
744.137	1255.25
749.547	1286.25
754.951	1266.25
760.349	1251.25
765.741	1244.25
771.128	1253.25
776.509	1250.25
781.885	1245.25
787.254	1251.25
792.618	1237.25
797.977	1224.25
803.33	1211.25
808.677	1200.25
814.019	1192.25
819.355	1168.25
824.686	1154.25
830.011	1142.25
835.33	1143.25
840.644	1132.25
845.952	1128.25
851.255	1119.25
856.552	1109.25
861.844	1099.25
867.13	1087.25
872.41	1077.25
877.686	1069.25
882.955	1062.25
888.219	1033.25
893.478	1010.25
898.731	996.25
903.979	987.25
909.221	966.25
914.458	948.25
919.69	964.25
924.916	951.25
930.136	934.25
935.351	934.25
940.561	938.25
945.766	930.25
950.965	919.25
956.158	907.25
961.347	910.25
966.529	886.25
971.707	859.25
976.879	878.25
982.046	847.25
987.208	854.25
992.364	853.25
997.515	832.25
1002.66	846.25
1007.801	847.25
1012.936	856.25
1018.066	870.25
1023.19	863.25
1028.309	864.25
1033.423	861.25
1038.532	858.25
1043.636	850.25
1048.734	851.25
1053.827	834.25
1058.915	829.25
1063.998	832.25
1069.075	824.25
1074.147	827.25
1079.214	830.25
1084.276	826.25
1089.333	834.25
1094.385	843.25
1099.431	853.25
1104.472	842.25
1109.509	831.25
1114.54	816.25
1119.565	817.25
1124.586	796.25
1129.602	792.25
1134.613	804.25
1139.618	781.25
1144.619	792.25
1149.614	781.25
1154.604	794.25
1159.589	790.25
1164.57	802.25
1169.545	787.25
1174.515	799.25
1179.48	789.25
1184.44	788.25
1189.395	781.25
1194.345	779.25
1199.29	791.25
1204.23	780.25
1209.165	789.25
1214.095	783.25
1219.021	808.25
1223.941	812.25
1228.856	811.25
1233.766	803.25
1238.672	804.25
1243.572	796.25
1248.467	785.25
1253.358	795.25
1258.244	775.25
1263.124	758.25
1268	761.25
1272.871	754.25
1277.737	744.25
1282.599	742.25
1287.455	746.25
1292.306	736.25
1297.153	734.25
1301.995	752.25
1306.832	751.25
1311.664	751.25
1316.491	742.25
1321.314	746.25
1326.132	758.25
1330.945	729.25
1335.753	705.25
1340.556	701.25
1345.354	690.25
1350.148	675.25
1354.937	665.25
1359.722	658.25
1364.501	674.25
1369.276	685.25
1374.046	697.25
1378.811	701.25
1383.572	718.25
1388.327	703.25
1393.079	687.25
1397.825	677.25
1402.567	656.25
1407.304	651.25
1412.036	660.25
1416.764	649.25
1421.487	646.25
1426.205	643.25
1430.919	652.25
1435.628	647.25
1440.333	662.25
1445.032	673.25
1449.727	668.25
1454.418	663.25
1459.104	663.25
1463.785	662.25
1468.462	656.25
1473.134	642.25
1477.802	637.25
1482.465	641.25
1487.123	641.25
1491.777	643.25
1496.426	654.25
1501.071	659.25
1505.711	658.25
1510.347	687.25
1514.978	689.25
1519.604	692.25
1524.226	715.25
1528.844	726.25
1533.457	721.25
1538.065	720.25
1542.669	724.25
1547.269	720.25
1551.864	729.25
1556.454	733.25
1561.041	743.25
1565.622	747.25
1570.199	756.25
1574.772	765.25
1579.34	778.25
1583.904	799.25
1588.464	807.25
1593.019	828.25
1597.569	840.25
1602.115	859.25
1606.657	869.25
1611.195	877.25
1615.728	903.25
1620.256	914.25
1624.78	921.25
1629.3	946.25
1633.816	952.25
1638.327	978.25
1642.834	981.25
1647.336	990.25
1651.834	987.25
1656.328	1002.25
1660.817	970.25
1665.302	956.25
1669.783	948.25
1674.259	917.25
1678.732	880.25
1683.199	836.25
1687.663	794.25
1692.122	743.25
1696.577	716.25
1701.028	700.25
1705.474	696.25
1709.917	678.25
1714.355	661.25
1718.788	635.25
1723.218	612.25
1727.643	600.25
1732.064	558.25
1736.481	536.25
1740.893	522.25
1745.301	503.25
1749.705	485.25
1754.105	466.25
1758.501	452.25
1762.893	434.25
1767.28	430.25
1771.663	418.25
1776.042	403.25
1780.417	416.25
1784.787	412.25
1789.154	406.25
1793.516	411.25
1797.874	418.25
1802.228	416.25
1806.578	424.25
1810.924	420.25
1815.266	415.25
1819.603	407.25
1823.937	388.25
1828.266	380.25
1832.591	376.25
1836.913	377.25
1841.23	365.25
1845.543	362.25
1849.852	374.25
1854.156	369.25
1858.457	359.25
1862.754	363.25
1867.047	365.25
1871.335	351.25
1875.62	361.25
1879.9	365.25
1884.177	356.25
1888.449	364.25
1892.718	361.25
1896.982	373.25
1901.243	356.25
1905.499	350.25
1909.752	363.25
1914	353.25
1918.245	355.25
1922.485	362.25
1926.722	366.25
1930.954	363.25
1935.183	374.25
1939.408	376.25
1943.628	379.25
1947.845	378.25
1952.058	381.25
1956.267	392.25
1960.472	376.25
1964.673	370.25
1968.87	374.25
1973.063	371.25
1977.252	368.25
1981.438	368.25
1985.619	367.25
1989.797	363.25
1993.971	367.25
1998.14	356.25
2002.306	360.25
2006.469	367.25
2010.627	366.25
2014.781	366.25
2018.932	365.25
2023.078	365.25
2027.221	365.25
2031.36	362.25
2035.495	377.25
2039.627	352.25
2043.754	354.25
2047.878	354.25
2051.998	356.25
2056.114	352.25
2060.226	350.25
2064.334	359.25
2068.439	368.25
2072.54	373.25
2076.637	369.25
2080.73	379.25
2084.82	376.25
2088.906	380.25
2092.988	377.25
2097.066	369.25
2101.14	368.25
2105.211	376.25
2109.278	370.25
2113.342	364.25
2117.401	378.25
2121.457	368.25
2125.509	365.25
2129.558	359.25
2133.602	360.25
2137.643	359.25
2141.681	356.25
2145.714	356.25
2149.744	352.25
2153.77	349.25
2157.793	346.25
2161.812	337.25
2165.827	329.25
2169.838	333.25
2173.846	325.25
2177.851	317.25
2181.851	309.25
2185.848	310.25
2189.841	305.25
2193.831	292.25
2197.817	301.25
2201.799	288.25
2205.778	283.25
2209.753	284.25
2213.725	286.25
2217.693	291.25
2221.657	285.25
2225.618	285.25
2229.575	278.25
2233.529	282.25
2237.479	282.25
2241.425	269.25
2245.368	264.25
2249.307	263.25
2253.243	266.25
2257.175	255.25
2261.104	246.25
2265.029	238.25
2268.95	232.25
2272.868	230.25
2276.783	229.25
2280.694	230.25
2284.601	222.25
2288.505	225.25
2292.405	221.25
2296.302	216.25
2300.195	216.25
2304.085	212.25
2307.971	208.25
2311.854	202.25
2315.734	184.25
2319.609	187.25
2323.482	180.25
2327.351	192.25
2331.216	184.25
2335.078	181.25
2338.937	184.25
2342.792	181.25
2346.643	173.25
2350.492	172.25
2354.336	170.25
2358.178	172.25
2362.015	173.25
2365.85	169.25
2369.681	166.25
2373.508	164.25
2377.333	166.25
2381.153	167.25
2384.971	168.25
2388.785	165.25
2392.595	165.25
2396.402	165.25
2400.206	160.25
2404.007	162.25
2407.804	150.25
2411.597	153.25
2415.388	142.25
2419.174	153.25
2422.958	152.25
2426.738	143.25
2430.515	154.25
2434.289	148.25
2438.059	150.25
2441.825	146.25
2445.589	140.25
2449.349	138.25
2453.106	133.25
2456.859	131.25
2460.61	130.25
2464.356	131.25
2468.1	128.25
2471.84	132.25
2475.577	123.25
2479.311	137.25
2483.041	127.25
2486.768	130.25
2490.492	125.25
2494.213	125.25
2497.93	122.25
2501.644	121.25
2505.355	119.25
2509.062	120.25
2512.766	123.25
2516.467	123.25
2520.165	123.25
2523.859	120.25
2527.551	117.25
2531.239	117.25
2534.923	122.25
2538.605	114.25
2542.283	113.25
2545.958	117.25
2549.63	115.25
2553.299	112.25
2556.964	107.25
2560.626	113.25
2564.285	113.25
2567.941	108.25
2571.594	107.25
2575.243	105.25
2578.89	101.25
2582.533	109.25
2586.173	107.25
2589.809	109.25
2593.443	108.25
2597.073	109.25
2600.701	107.25
2604.325	102.25
2607.946	103.25
2611.564	101.25
2615.178	105.25
2618.79	96.25
2622.398	102.25
2626.004	104.25
2629.606	100.25
2633.205	95.25
2636.801	97.25
2640.394	90.25
2643.983	91.25
2647.57	89.25
2651.153	89.25
2654.734	86.25
2658.311	82.25
2661.885	83.25
2665.456	79.25
2669.025	78.25
2672.589	80.25
2676.151	80.25
2679.71	85.25
2683.266	81.25
2686.819	80.25
2690.368	72.25
2693.915	71.25
2697.458	72.25
2700.999	66.25
2704.536	66.25
2708.071	61.25
2711.602	65.25
2715.13	68.25
2718.656	68.25
2722.178	68.25
2725.697	64.25
2729.214	71.25
2732.727	72.25
2736.237	71.25
2739.744	70.25
2743.249	68.25
2746.75	71.25
2750.248	74.25
2753.743	75.25
2757.236	78.25
2760.725	74.25
2764.211	80.25
2767.695	85.25
2771.175	84.25
2774.652	81.25
2778.127	84.25
2781.598	88.25
2785.067	88.25
2788.532	88.25
2791.995	83.25
2795.455	80.25
2798.911	88.25
2802.365	86.25
2805.816	83.25
2809.264	86.25
2812.709	79.25
2816.151	90.25
2819.59	90.25
2823.026	91.25
2826.46	88.25
2829.89	102.25
2833.318	100.25
2836.742	102.25
2840.164	102.25
2843.583	109.25
2846.999	103.25
2850.412	98.25
2853.822	107.25
2857.229	101.25
2860.634	113.25
2864.035	115.25
2867.434	120.25
2870.83	125.25
2874.223	127.25
2877.613	125.25
2881	141.25
2884.385	126.25
2887.766	135.25
2891.145	132.25
2894.521	138.25
2897.894	137.25
2901.264	140.25
2904.631	141.25
2907.996	139.25
2911.358	154.25
2914.717	161.25
2918.073	156.25
2921.426	160.25
2924.777	165.25
2928.124	176.25
2931.469	178.25
2934.811	180.25
2938.15	184.25
2941.487	192.25
2944.821	195.25
2948.152	204.25
2951.48	204.25
2954.805	205.25
2958.128	207.25
2961.447	216.25
2964.765	216.25
2968.079	228.25
2971.39	234.25
2974.699	242.25
2978.005	250.25
2981.308	262.25
2984.609	274.25
2987.907	290.25
2991.202	293.25
2994.494	310.25
2997.784	316.25
3001.07	320.25
3004.355	344.25
3007.636	344.25
3010.915	360.25
3014.191	375.25
3017.464	375.25
3020.734	377.25
3024.002	392.25
3027.267	392.25
3030.53	395.25
3033.789	412.25
3037.046	427.25
3040.301	427.25
3043.552	438.25
3046.801	457.25
3050.048	463.25
3053.291	486.25
3056.532	505.25
3059.771	520.25
3063.006	535.25
3066.239	544.25
3069.469	579.25
3072.697	576.25
3075.922	598.25
3079.144	615.25
3082.364	630.25
3085.581	654.25
3088.795	671.25
3092.007	690.25
3095.216	706.25
3098.423	712.25
3101.627	743.25
3104.828	755.25
3108.026	784.25
3111.222	795.25
3114.416	819.25
3117.607	839.25
3120.795	860.25
3123.98	869.25
3127.163	894.25
3130.344	925.25
3133.521	944.25
3136.696	970.25
3139.869	989.25
3143.039	999.25
3146.206	1016.25
3149.371	1035.25
3152.533	1064.25
3155.693	1063.25
3158.85	1068.25
3162.005	1069.25
3165.157	1073.25
3168.306	1089.25
3171.453	1066.25
3174.597	1097.25
3177.739	1098.25
3180.878	1104.25
3184.014	1105.25
3187.149	1111.25
3190.28	1121.25
3193.409	1132.25
3196.536	1130.25
3199.659	1120.25
3202.781	1124.25
3205.9	1146.25
3209.016	1122.25
3212.13	1141.25
3215.241	1143.25
3218.35	1116.25
3221.456	1119.25
3224.56	1109.25
3227.661	1104.25
3230.76	1087.25
3233.856	1069.25
3236.95	1067.25
3240.041	1070.25
3243.13	1072.25
3246.216	1075.25
3249.3	1048.25
3252.382	1053.25
3255.46	1043.25
3258.537	1039.25
3261.611	1054.25
3264.682	1031.25
3267.751	1043.25
3270.818	1037.25
3273.882	1017.25
3276.943	1026.25
3280.002	1005.25
3283.059	993.25
3286.113	993.25
3289.165	972.25
3292.214	967.25
3295.261	946.25
3298.306	930.25
3301.348	914.25
3304.387	913.25
3307.425	883.25
3310.459	878.25
3313.492	875.25
3316.521	865.25
3319.549	841.25
3322.574	838.25
3325.597	842.25
3328.617	834.25
3331.635	826.25
3334.65	807.25
3337.663	805.25
3340.674	802.25
3343.682	808.25
3346.688	802.25
3349.691	794.25
3352.692	779.25
3355.691	789.25
3358.687	781.25
3361.681	773.25
3364.673	766.25
3367.662	747.25
3370.649	743.25
3373.633	726.25
3376.615	717.25
3379.595	724.25
3382.572	709.25
3385.547	704.25
3388.52	682.25
3391.49	677.25
3394.458	676.25
3397.424	663.25
3400.387	651.25
3403.348	654.25
3406.307	638.25
3409.263	639.25
3412.217	627.25
3415.168	627.25
3418.118	620.25
3421.065	610.25
3424.009	595.25
3426.951	600.25
3429.891	583.25
3432.829	569.25
3435.764	561.25
3438.697	558.25
3441.628	543.25
3444.557	533.25
3447.483	511.25
3450.407	505.25
3453.328	485.25
3456.247	471.25
3459.164	464.25
3462.079	441.25
3464.991	423.25
3467.902	421.25
3470.809	409.25
3473.715	393.25
3476.618	388.25
3479.519	380.25
3482.418	376.25
3485.315	359.25
3488.209	336.25
3491.101	338.25
3493.99	332.25
3496.878	321.25
3499.763	315.25
3502.646	298.25
3505.527	300.25
3508.405	286.25
3511.281	273.25
3514.155	259.25
3517.027	251.25
3519.897	234.25
3522.764	224.25
3525.629	222.25
3528.492	214.25
3531.352	193.25
3534.211	185.25
3537.067	177.25
3539.921	169.25
3542.773	158.25
3545.622	156.25
3548.469	138.25
3551.315	126.25
3554.157	125.25
3556.998	116.25
3559.837	115.25
3562.673	112.25
3565.507	105.25
3568.339	93.25
3571.169	95.25
3573.996	86.25
3576.822	74.25
3579.645	75.25
3582.466	62.25
3585.285	64.25
3588.101	52.25
3590.916	54.25
3593.728	45.25
3596.538	41.25
3599.346	38.25
3602.152	32.25
3604.956	33.25
3607.757	24.25
3610.556	21.25
3613.354	13.25
3616.149	7.25
3618.942	1.25
3621.732	3.25
3624.521	-4.75
3627.307	-2.75
3630.092	-6.75
3632.874	-6.75
3635.654	-10.75
3638.432	-16.75
3641.208	-15.75
3643.982	-23.75
3646.753	-25.75
3649.523	-29.75
3652.29	-27.75
3655.055	-33.75
3657.818	-29.75
3660.579	-37.75
3663.338	-35.75
3666.095	-36.75
3668.849	-42.75
3671.602	-46.75
3674.352	-48.75
3677.101	-49.75
3679.847	-55.75
3682.591	-58.75
3685.333	-65.75
3688.073	-64.75
3690.811	-63.75
3693.547	-62.75
3696.281	-62.75
3699.013	-64.75
3701.742	-61.75
3704.47	-64.75
3707.195	-61.75
3709.919	-66.75
3712.64	-69.75
3715.359	-73.75
3718.076	-74.75
3720.792	-75.75
3723.505	-74.75
3726.216	-77.75
3728.925	-70.75
3731.632	-78.75
3734.336	-76.75
3737.039	-77.75
3739.74	-78.75
3742.439	-80.75
3745.136	-81.75
3747.83	-81.75
3750.523	-81.75
3753.213	-83.75
3755.902	-83.75
3758.589	-79.75
3761.273	-83.75
3763.956	-82.75
3766.636	-86.75
3769.315	-86.75
3771.991	-87.75
3774.665	-87.75
3777.338	-84.75
3780.008	-88.75
3782.677	-80.75
3785.343	-84.75
3788.007	-88.75
3790.67	-89.75
3793.33	-86.75
3795.989	-89.75
3798.645	-91.75
3801.299	-88.75
3803.952	-82.75
3806.602	-86.75
3809.251	-88.75
3811.897	-87.75
3814.542	-88.75
3817.184	-86.75
3819.825	-84.75
3822.463	-90.75
3825.1	-89.75
3827.735	-93.75
3830.367	-87.75
3832.998	-92.75
3835.627	-89.75
3838.253	-86.75
3840.878	-89.75
3843.501	-88.75
3846.122	-89.75
3848.741	-88.75
3851.358	-92.75
3853.973	-89.75
3856.586	-93.75
3859.197	-96.75
3861.806	-94.75
3864.414	-96.75
3867.019	-95.75
3869.622	-92.75
3872.224	-88.75
3874.823	-88.75
3877.421	-87.75
3880.016	-83.75
3882.61	-80.75
3885.202	-78.75
3887.792	-87.75
3890.38	-89.75
3892.966	-92.75
3895.55	-93.75
3898.132	-95.75
3900.713	-94.75
3903.291	-93.75
3905.868	-91.75
3908.442	-90.75
3911.015	-91.75
3913.586	-94.75
3916.155	-94.75
3918.722	-91.75
3921.287	-96.75
3923.85	-96.75
3926.411	-95.75
3928.971	-93.75
3931.528	-98.75
3934.084	-95.75
3936.638	-99.75
3939.19	-91.75
3941.74	-95.75
3944.288	-97.75
3946.834	-95.75
3949.378	-91.75
3951.921	-94.75
3954.462	-91.75
3957	-97.75
3959.537	-97.75
3962.072	-93.75
3964.606	-94.75
3967.137	-94.75
3969.667	-94.75
3972.194	-94.75
3974.72	-91.75
3977.244	-96.75
3979.766	-90.75
3982.286	-94.75
3984.805	-92.75
3987.321	-91.75
3989.836	-93.75
3992.349	-87.75
3994.86	-91.75
3997.369	-88.75
3999.877	-92.75
4002.382	-92.75
4004.886	-93.75
4007.388	-97.75
4009.888	-95.75
4012.386	-96.75
4014.883	-94.75
4017.377	-94.75
4019.87	-91.75
4022.361	-94.75
4024.85	-91.75
4027.338	-93.75
4029.823	-90.75
4032.307	-92.75
4034.789	-95.75
4037.269	-93.75
4039.747	-94.75
4042.224	-95.75
4044.699	-98.75
4047.172	-95.75
4049.643	-95.75
4052.112	-92.75
4054.58	-93.75
4057.046	-94.75
4059.51	-94.75
4061.972	-95.75
4064.432	-88.75
4066.891	-92.75
4069.348	-92.75
4071.803	-96.75
4074.256	-94.75
4076.708	-94.75
4079.158	-96.75
4081.606	-92.75
4084.052	-95.75
4086.497	-95.75
4088.939	-96.75
4091.38	-94.75
4093.819	-92.75
4096.257	-98.75
4098.693	-93.75
4101.127	-96.75
4103.559	-95.75
4105.989	-59.75
4108.418	-57.75
4110.845	-57.75
4113.27	-52.75
4115.694	-50.75
4118.115	-37.75
4120.535	-96.75
4122.954	-90.75
4125.37	-95.75
4127.785	-95.75
4130.198	-96.75
4132.609	-96.75
4135.019	-101.75
4137.427	-102.75
4139.833	-99.75
4142.237	-100.75
