Data from B_sub_water_1000000CFU_B3_RamanShift_1.txt Node
Date: Thu Feb 23 12:25:23 IST 2017
User: aro
Spectrometer: QEPB0276
Trigger mode: 0
Integration Time (sec): 5.000000E0
Scans to average: 1
Electric dark correction enabled: true
Nonlinearity correction enabled: false
Boxcar width: 0
XAxis mode: Raman Shifts
Number of Pixels in Spectrum: 1044
>>>>>Begin Spectral Data<<<<<
160.701	-25
166.742	2
172.777	74
178.805	289
184.826	819
190.841	1690
196.849	2669
202.85	3329
208.845	3478
214.833	3383
220.815	3266
226.789	3170
232.758	3081
238.719	3013
244.674	2893
250.623	2773
256.565	2661
262.5	2564
268.429	2442
274.351	2352
280.267	2266
286.176	2207
292.079	2126
297.975	2061
303.865	2007
309.748	1969
315.625	1920
321.495	1874
327.359	1849
333.217	1825
339.068	1839
344.912	1818
350.751	1832
356.583	1821
362.408	1813
368.227	1807
374.04	1820
379.847	1823
385.647	1854
391.44	1834
397.228	1840
403.009	1850
408.784	1865
414.553	1890
420.315	1886
426.071	1892
431.821	1883
437.565	1895
443.302	1868
449.033	1885
454.758	1870
460.477	1860
466.189	1860
471.896	1835
477.596	1836
483.29	1807
488.978	1823
494.66	1799
500.335	1779
506.005	1763
511.668	1720
517.325	1678
522.977	1653
528.622	1639
534.261	1625
539.894	1596
545.521	1592
551.141	1584
556.756	1577
562.365	1581
567.968	1552
573.565	1545
579.155	1533
584.74	1538
590.319	1498
595.892	1506
601.459	1509
607.02	1490
612.575	1459
618.124	1471
623.667	1456
629.204	1442
634.735	1418
640.261	1421
645.781	1385
651.294	1404
656.802	1391
662.304	1391
667.8	1378
673.29	1384
678.775	1376
684.254	1363
689.726	1366
695.193	1356
700.655	1351
706.11	1339
711.56	1319
717.004	1314
722.442	1306
727.874	1307
733.301	1282
738.722	1290
744.137	1292
749.547	1289
754.951	1279
760.349	1267
765.741	1264
771.128	1281
776.509	1263
781.885	1253
787.254	1274
792.618	1271
797.977	1259
803.33	1240
808.677	1246
814.019	1222
819.355	1201
824.686	1214
830.011	1186
835.33	1184
840.644	1180
845.952	1183
851.255	1180
856.552	1163
861.844	1162
867.13	1160
872.41	1150
877.686	1139
882.955	1129
888.219	1101
893.478	1090
898.731	1076
903.979	1073
909.221	1052
914.458	1040
919.69	1033
924.916	1033
930.136	1052
935.351	1053
940.561	1033
945.766	1018
950.965	1028
956.158	1000
961.347	1005
966.529	983
971.707	976
976.879	970
982.046	963
987.208	958
992.364	944
997.515	963
1002.66	962
1007.801	974
1012.936	978
1018.066	977
1023.19	995
1028.309	1000
1033.423	994
1038.532	991
1043.636	975
1048.734	971
1053.827	950
1058.915	956
1063.998	956
1069.075	943
1074.147	942
1079.214	953
1084.276	952
1089.333	957
1094.385	969
1099.431	984
1104.472	973
1109.509	973
1114.54	952
1119.565	946
1124.586	930
1129.602	928
1134.613	912
1139.618	916
1144.619	916
1149.614	913
1154.604	906
1159.589	926
1164.57	939
1169.545	926
1174.515	933
1179.48	917
1184.44	925
1189.395	923
1194.345	915
1199.29	910
1204.23	913
1209.165	907
1214.095	917
1219.021	933
1223.941	922
1228.856	927
1233.766	926
1238.672	936
1243.572	924
1248.467	935
1253.358	924
1258.244	899
1263.124	897
1268	879
1272.871	874
1277.737	870
1282.599	860
1287.455	860
1292.306	861
1297.153	874
1301.995	878
1306.832	885
1311.664	873
1316.491	884
1321.314	881
1326.132	878
1330.945	857
1335.753	848
1340.556	836
1345.354	808
1350.148	781
1354.937	783
1359.722	780
1364.501	808
1369.276	820
1374.046	832
1378.811	850
1383.572	856
1388.327	827
1393.079	838
1397.825	824
1402.567	808
1407.304	793
1412.036	785
1416.764	778
1421.487	775
1426.205	784
1430.919	777
1435.628	784
1440.333	795
1445.032	800
1449.727	807
1454.418	805
1459.104	784
1463.785	791
1468.462	767
1473.134	775
1477.802	769
1482.465	751
1487.123	762
1491.777	758
1496.426	772
1501.071	785
1505.711	789
1510.347	807
1514.978	806
1519.604	831
1524.226	844
1528.844	842
1533.457	851
1538.065	848
1542.669	847
1547.269	852
1551.864	836
1556.454	844
1561.041	849
1565.622	860
1570.199	869
1574.772	886
1579.34	871
1583.904	900
1588.464	905
1593.019	924
1597.569	932
1602.115	937
1606.657	946
1611.195	943
1615.728	949
1620.256	981
1624.78	974
1629.3	989
1633.816	997
1638.327	1012
1642.834	1028
1647.336	1037
1651.834	1040
1656.328	1036
1660.817	1030
1665.302	1013
1669.783	1003
1674.259	972
1678.732	924
1683.199	893
1687.663	859
1692.122	825
1696.577	800
1701.028	785
1705.474	784
1709.917	780
1714.355	766
1718.788	750
1723.218	730
1727.643	697
1732.064	684
1736.481	662
1740.893	649
1745.301	617
1749.705	610
1754.105	591
1758.501	578
1762.893	570
1767.28	553
1771.663	547
1776.042	537
1780.417	544
1784.787	545
1789.154	533
1793.516	543
1797.874	548
1802.228	569
1806.578	568
1810.924	555
1815.266	543
1819.603	545
1823.937	526
1828.266	524
1832.591	524
1836.913	517
1841.23	502
1845.543	498
1849.852	503
1854.156	502
1858.457	503
1862.754	498
1867.047	499
1871.335	495
1875.62	500
1879.9	498
1884.177	489
1888.449	498
1892.718	502
1896.982	492
1901.243	501
1905.499	499
1909.752	483
1914	481
1918.245	492
1922.485	497
1926.722	506
1930.954	501
1935.183	510
1939.408	515
1943.628	511
1947.845	516
1952.058	515
1956.267	525
1960.472	509
1964.673	504
1968.87	502
1973.063	493
1977.252	486
1981.438	485
1985.619	491
1989.797	493
1993.971	496
1998.14	480
2002.306	496
2006.469	483
2010.627	495
2014.781	488
2018.932	487
2023.078	491
2027.221	483
2031.36	481
2035.495	469
2039.627	467
2043.754	466
2047.878	459
2051.998	462
2056.114	460
2060.226	462
2064.334	471
2068.439	469
2072.54	469
2076.637	474
2080.73	478
2084.82	479
2088.906	477
2092.988	479
2097.066	472
2101.14	475
2105.211	478
2109.278	468
2113.342	470
2117.401	468
2121.457	466
2125.509	467
2129.558	459
2133.602	463
2137.643	459
2141.681	450
2145.714	450
2149.744	453
2153.77	451
2157.793	450
2161.812	445
2165.827	435
2169.838	428
2173.846	417
2177.851	404
2181.851	405
2185.848	403
2189.841	398
2193.831	382
2197.817	395
2201.799	381
2205.778	383
2209.753	391
2213.725	385
2217.693	393
2221.657	379
2225.618	381
2229.575	379
2233.529	382
2237.479	377
2241.425	377
2245.368	365
2249.307	356
2253.243	359
2257.175	346
2261.104	341
2265.029	342
2268.95	333
2272.868	328
2276.783	336
2280.694	328
2284.601	324
2288.505	323
2292.405	312
2296.302	309
2300.195	298
2304.085	299
2307.971	296
2311.854	294
2315.734	280
2319.609	282
2323.482	283
2327.351	279
2331.216	272
2335.078	272
2338.937	264
2342.792	266
2346.643	260
2350.492	265
2354.336	261
2358.178	260
2362.015	264
2365.85	258
2369.681	256
2373.508	254
2377.333	262
2381.153	262
2384.971	253
2388.785	265
2392.595	256
2396.402	253
2400.206	253
2404.007	241
2407.804	242
2411.597	233
2415.388	240
2419.174	241
2422.958	234
2426.738	239
2430.515	240
2434.289	232
2438.059	234
2441.825	233
2445.589	230
2449.349	223
2453.106	214
2456.859	225
2460.61	217
2464.356	216
2468.1	216
2471.84	219
2475.577	203
2479.311	210
2483.041	216
2486.768	209
2490.492	211
2494.213	210
2497.93	203
2501.644	207
2505.355	211
2509.062	206
2512.766	206
2516.467	213
2520.165	206
2523.859	208
2527.551	200
2531.239	202
2534.923	202
2538.605	200
2542.283	198
2545.958	205
2549.63	198
2553.299	204
2556.964	192
2560.626	193
2564.285	188
2567.941	192
2571.594	187
2575.243	185
2578.89	183
2582.533	178
2586.173	186
2589.809	182
2593.443	178
2597.073	176
2600.701	185
2604.325	184
2607.946	181
2611.564	173
2615.178	184
2618.79	172
2622.398	184
2626.004	174
2629.606	164
2633.205	165
2636.801	171
2640.394	169
2643.983	168
2647.57	167
2651.153	157
2654.734	154
2658.311	160
2661.885	162
2665.456	156
2669.025	155
2672.589	148
2676.151	146
2679.71	153
2683.266	138
2686.819	147
2690.368	139
2693.915	139
2697.458	139
2700.999	129
2704.536	134
2708.071	133
2711.602	133
2715.13	132
2718.656	125
2722.178	123
2725.697	132
2729.214	130
2732.727	125
2736.237	126
2739.744	125
2743.249	124
2746.75	134
2750.248	133
2753.743	133
2757.236	137
2760.725	139
2764.211	137
2767.695	141
2771.175	134
2774.652	138
2778.127	137
2781.598	135
2785.067	129
2788.532	134
2791.995	137
2795.455	133
2798.911	140
2802.365	143
2805.816	145
2809.264	138
2812.709	135
2816.151	140
2819.59	139
2823.026	140
2826.46	133
2829.89	143
2833.318	134
2836.742	138
2840.164	135
2843.583	143
2846.999	147
2850.412	137
2853.822	150
2857.229	141
2860.634	154
2864.035	151
2867.434	156
2870.83	161
2874.223	158
2877.613	161
2881	163
2884.385	157
2887.766	169
2891.145	161
2894.521	153
2897.894	163
2901.264	170
2904.631	179
2907.996	172
2911.358	171
2914.717	174
2918.073	175
2921.426	186
2924.777	181
2928.124	185
2931.469	182
2934.811	193
2938.15	195
2941.487	196
2944.821	207
2948.152	211
2951.48	216
2954.805	216
2958.128	216
2961.447	218
2964.765	219
2968.079	224
2971.39	235
2974.699	229
2978.005	245
2981.308	247
2984.609	257
2987.907	271
2991.202	280
2994.494	290
2997.784	298
3001.07	306
3004.355	306
3007.636	323
3010.915	326
3014.191	333
3017.464	339
3020.734	354
3024.002	355
3027.267	354
3030.53	361
3033.789	371
3037.046	381
3040.301	378
3043.552	398
3046.801	400
3050.048	416
3053.291	422
3056.532	434
3059.771	448
3063.006	465
3066.239	469
3069.469	492
3072.697	500
3075.922	519
3079.144	529
3082.364	552
3085.581	551
3088.795	571
3092.007	587
3095.216	590
3098.423	606
3101.627	624
3104.828	632
3108.026	641
3111.222	658
3114.416	679
3117.607	701
3120.795	710
3123.98	723
3127.163	750
3130.344	757
3133.521	774
3136.696	792
3139.869	803
3143.039	826
3146.206	856
3149.371	848
3152.533	843
3155.693	861
3158.85	872
3162.005	863
3165.157	887
3168.306	894
3171.453	895
3174.597	891
3177.739	916
3180.878	903
3184.014	898
3187.149	910
3190.28	911
3193.409	921
3196.536	908
3199.659	914
3202.781	907
3205.9	918
3209.016	915
3212.13	927
3215.241	921
3218.35	922
3221.456	901
3224.56	886
3227.661	899
3230.76	893
3233.856	879
3236.95	869
3240.041	871
3243.13	861
3246.216	854
3249.3	854
3252.382	843
3255.46	850
3258.537	853
3261.611	835
3264.682	843
3267.751	820
3270.818	825
3273.882	839
3276.943	831
3280.002	823
3283.059	803
3286.113	793
3289.165	809
3292.214	789
3295.261	769
3298.306	775
3301.348	743
3304.387	731
3307.425	731
3310.459	713
3313.492	703
3316.521	693
3319.549	682
3322.574	680
3325.597	673
3328.617	669
3331.635	670
3334.65	656
3337.663	650
3340.674	648
3343.682	658
3346.688	647
3349.691	658
3352.692	646
3355.691	643
3358.687	631
3361.681	616
3364.673	601
3367.662	613
3370.649	608
3373.633	599
3376.615	577
3379.595	580
3382.572	570
3385.547	573
3388.52	555
3391.49	554
3394.458	534
3397.424	536
3400.387	522
3403.348	520
3406.307	514
3409.263	514
3412.217	509
3415.168	498
3418.118	502
3421.065	502
3424.009	483
3426.951	485
3429.891	466
3432.829	465
3435.764	453
3438.697	447
3441.628	434
3444.557	421
3447.483	416
3450.407	403
3453.328	393
3456.247	386
3459.164	369
3462.079	359
3464.991	353
3467.902	342
3470.809	327
3473.715	320
3476.618	308
3479.519	307
3482.418	295
3485.315	297
3488.209	288
3491.101	275
3493.99	268
3496.878	260
3499.763	255
3502.646	251
3505.527	242
3508.405	236
3511.281	221
3514.155	214
3517.027	206
3519.897	193
3522.764	189
3525.629	172
3528.492	170
3531.352	154
3534.211	153
3537.067	146
3539.921	132
3542.773	130
3545.622	123
3548.469	116
3551.315	106
3554.157	98
3556.998	89
3559.837	91
3562.673	88
3565.507	79
3568.339	82
3571.169	72
3573.996	62
3576.822	65
3579.645	60
3582.466	52
3585.285	55
3588.101	42
3590.916	36
3593.728	38
3596.538	32
3599.346	29
3602.152	27
3604.956	21
3607.757	19
3610.556	16
3613.354	15
3616.149	10
3618.942	5
3621.732	0
3624.521	0
3627.307	-5
3630.092	-5
3632.874	-5
3635.654	-8
3638.432	-14
3641.208	-12
3643.982	-17
3646.753	-20
3649.523	-21
3652.29	-24
3655.055	-22
3657.818	-28
3660.579	-29
3663.338	-31
3666.095	-28
3668.849	-35
3671.602	-36
3674.352	-38
3677.101	-40
3679.847	-42
3682.591	-45
3685.333	-50
3688.073	-45
3690.811	-49
3693.547	-46
3696.281	-48
3699.013	-52
3701.742	-51
3704.47	-53
3707.195	-53
3709.919	-55
3712.64	-60
3715.359	-61
3718.076	-58
3720.792	-59
3723.505	-63
3726.216	-60
3728.925	-57
3731.632	-62
3734.336	-64
3737.039	-65
3739.74	-65
3742.439	-71
3745.136	-67
3747.83	-67
3750.523	-73
3753.213	-70
3755.902	-64
3758.589	-63
3761.273	-63
3763.956	-65
3766.636	-67
3769.315	-69
3771.991	-70
3774.665	-70
3777.338	-71
3780.008	-74
3782.677	-72
3785.343	-68
3788.007	-68
3790.67	-74
3793.33	-73
3795.989	-71
3798.645	-73
3801.299	-74
3803.952	-70
3806.602	-72
3809.251	-71
3811.897	-74
3814.542	-72
3817.184	-73
3819.825	-71
3822.463	-75
3825.1	-71
3827.735	-76
3830.367	-72
3832.998	-79
3835.627	-76
3838.253	-74
3840.878	-74
3843.501	-71
3846.122	-77
3848.741	-73
3851.358	-74
3853.973	-74
3856.586	-76
3859.197	-81
3861.806	-76
3864.414	-80
3867.019	-79
3869.622	-77
3872.224	-75
3874.823	-73
3877.421	-71
3880.016	-66
3882.61	-63
3885.202	-63
3887.792	-69
3890.38	-74
3892.966	-78
3895.55	-79
3898.132	-77
3900.713	-79
3903.291	-77
3905.868	-74
3908.442	-76
3911.015	-74
3913.586	-78
3916.155	-77
3918.722	-76
3921.287	-79
3923.85	-78
3926.411	-79
3928.971	-79
3931.528	-82
3934.084	-80
3936.638	-81
3939.19	-76
3941.74	-79
3944.288	-79
3946.834	-80
3949.378	-78
3951.921	-78
3954.462	-77
3957	-80
3959.537	-79
3962.072	-77
3964.606	-78
3967.137	-80
3969.667	-80
3972.194	-80
3974.72	-77
3977.244	-81
3979.766	-77
3982.286	-81
3984.805	-76
3987.321	-74
3989.836	-78
3992.349	-72
3994.86	-71
3997.369	-75
3999.877	-76
4002.382	-77
4004.886	-74
4007.388	-80
4009.888	-84
4012.386	-79
4014.883	-81
4017.377	-77
4019.87	-77
4022.361	-77
4024.85	-75
4027.338	-78
4029.823	-77
4032.307	-76
4034.789	-80
4037.269	-79
4039.747	-79
4042.224	-80
4044.699	-82
4047.172	-81
4049.643	-79
4052.112	-80
4054.58	-77
4057.046	-79
4059.51	-79
4061.972	-80
4064.432	-74
4066.891	-77
4069.348	-76
4071.803	-81
4074.256	-77
4076.708	-74
4079.158	-83
4081.606	-81
4084.052	-82
4086.497	-79
4088.939	-79
4091.38	-80
4093.819	-77
4096.257	-87
4098.693	-81
4101.127	-80
4103.559	-79
4105.989	-49
4108.418	-44
4110.845	-45
4113.27	-42
4115.694	-34
4118.115	-28
4120.535	-77
4122.954	-76
4125.37	-78
4127.785	-75
4130.198	-79
4132.609	-79
4135.019	-85
4137.427	-86
4139.833	-84
4142.237	-85
