Data from B_sub_water_1000000CFU1_RamanShift_1.txt Node
Date: Thu Feb 23 12:06:38 IST 2017
User: aro
Spectrometer: QEPB0276
Trigger mode: 0
Integration Time (sec): 5.000000E0
Scans to average: 1
Electric dark correction enabled: true
Nonlinearity correction enabled: false
Boxcar width: 0
XAxis mode: Raman Shifts
Number of Pixels in Spectrum: 1044
>>>>>Begin Spectral Data<<<<<
160.701	-25.62
166.742	-0.62
172.777	79.38
178.805	297.38
184.826	857.38
190.841	1748.38
196.849	2781.38
202.85	3427.38
208.845	3598.38
214.833	3466.38
220.815	3329.38
226.789	3189.38
232.758	3115.38
238.719	3012.38
244.674	2887.38
250.623	2763.38
256.565	2605.38
262.5	2461.38
268.429	2346.38
274.351	2245.38
280.267	2137.38
286.176	2057.38
292.079	1983.38
297.975	1917.38
303.865	1856.38
309.748	1790.38
315.625	1760.38
321.495	1711.38
327.359	1712.38
333.217	1670.38
339.068	1647.38
344.912	1663.38
350.751	1646.38
356.583	1640.38
362.408	1648.38
368.227	1639.38
374.04	1656.38
379.847	1639.38
385.647	1664.38
391.44	1672.38
397.228	1667.38
403.009	1694.38
408.784	1718.38
414.553	1709.38
420.315	1706.38
426.071	1716.38
431.821	1716.38
437.565	1697.38
443.302	1707.38
449.033	1680.38
454.758	1661.38
460.477	1667.38
466.189	1658.38
471.896	1642.38
477.596	1636.38
483.29	1625.38
488.978	1606.38
494.66	1599.38
500.335	1563.38
506.005	1546.38
511.668	1482.38
517.325	1464.38
522.977	1444.38
528.622	1403.38
534.261	1385.38
539.894	1389.38
545.521	1353.38
551.141	1364.38
556.756	1341.38
562.365	1320.38
567.968	1326.38
573.565	1294.38
579.155	1274.38
584.74	1268.38
590.319	1268.38
595.892	1270.38
601.459	1241.38
607.02	1239.38
612.575	1228.38
618.124	1214.38
623.667	1198.38
629.204	1178.38
634.735	1167.38
640.261	1159.38
645.781	1133.38
651.294	1131.38
656.802	1134.38
662.304	1126.38
667.8	1113.38
673.29	1108.38
678.775	1104.38
684.254	1097.38
689.726	1094.38
695.193	1088.38
700.655	1065.38
706.11	1067.38
711.56	1042.38
717.004	1030.38
722.442	1034.38
727.874	1024.38
733.301	1005.38
738.722	1008.38
744.137	1003.38
749.547	1003.38
754.951	996.38
760.349	987.38
765.741	981.38
771.128	984.38
776.509	980.38
781.885	982.38
787.254	977.38
792.618	964.38
797.977	960.38
803.33	948.38
808.677	941.38
814.019	927.38
819.355	918.38
824.686	910.38
830.011	887.38
835.33	878.38
840.644	876.38
845.952	858.38
851.255	857.38
856.552	839.38
861.844	828.38
867.13	828.38
872.41	809.38
877.686	813.38
882.955	796.38
888.219	779.38
893.478	748.38
898.731	735.38
903.979	721.38
909.221	720.38
914.458	713.38
919.69	705.38
924.916	705.38
930.136	699.38
935.351	700.38
940.561	699.38
945.766	687.38
950.965	678.38
956.158	671.38
961.347	658.38
966.529	647.38
971.707	641.38
976.879	631.38
982.046	621.38
987.208	622.38
992.364	609.38
997.515	604.38
1002.66	613.38
1007.801	620.38
1012.936	624.38
1018.066	630.38
1023.19	616.38
1028.309	619.38
1033.423	622.38
1038.532	616.38
1043.636	625.38
1048.734	619.38
1053.827	594.38
1058.915	599.38
1063.998	597.38
1069.075	589.38
1074.147	586.38
1079.214	598.38
1084.276	603.38
1089.333	587.38
1094.385	599.38
1099.431	594.38
1104.472	605.38
1109.509	613.38
1114.54	583.38
1119.565	582.38
1124.586	569.38
1129.602	568.38
1134.613	552.38
1139.618	553.38
1144.619	560.38
1149.614	545.38
1154.604	547.38
1159.589	566.38
1164.57	564.38
1169.545	556.38
1174.515	566.38
1179.48	554.38
1184.44	566.38
1189.395	558.38
1194.345	548.38
1199.29	549.38
1204.23	548.38
1209.165	548.38
1214.095	552.38
1219.021	562.38
1223.941	555.38
1228.856	568.38
1233.766	564.38
1238.672	568.38
1243.572	566.38
1248.467	556.38
1253.358	549.38
1258.244	546.38
1263.124	539.38
1268	531.38
1272.871	527.38
1277.737	516.38
1282.599	509.38
1287.455	497.38
1292.306	516.38
1297.153	499.38
1301.995	521.38
1306.832	515.38
1311.664	532.38
1316.491	519.38
1321.314	513.38
1326.132	505.38
1330.945	500.38
1335.753	491.38
1340.556	475.38
1345.354	468.38
1350.148	459.38
1354.937	462.38
1359.722	470.38
1364.501	467.38
1369.276	479.38
1374.046	487.38
1378.811	474.38
1383.572	483.38
1388.327	476.38
1393.079	464.38
1397.825	465.38
1402.567	442.38
1407.304	449.38
1412.036	443.38
1416.764	430.38
1421.487	441.38
1426.205	454.38
1430.919	446.38
1435.628	448.38
1440.333	449.38
1445.032	448.38
1449.727	449.38
1454.418	451.38
1459.104	437.38
1463.785	446.38
1468.462	436.38
1473.134	429.38
1477.802	441.38
1482.465	438.38
1487.123	428.38
1491.777	438.38
1496.426	440.38
1501.071	457.38
1505.711	459.38
1510.347	466.38
1514.978	480.38
1519.604	487.38
1524.226	487.38
1528.844	502.38
1533.457	495.38
1538.065	492.38
1542.669	503.38
1547.269	490.38
1551.864	494.38
1556.454	504.38
1561.041	523.38
1565.622	522.38
1570.199	544.38
1574.772	552.38
1579.34	556.38
1583.904	574.38
1588.464	587.38
1593.019	603.38
1597.569	613.38
1602.115	637.38
1606.657	628.38
1611.195	649.38
1615.728	651.38
1620.256	680.38
1624.78	686.38
1629.3	724.38
1633.816	728.38
1638.327	742.38
1642.834	755.38
1647.336	747.38
1651.834	756.38
1656.328	745.38
1660.817	750.38
1665.302	730.38
1669.783	708.38
1674.259	674.38
1678.732	641.38
1683.199	614.38
1687.663	583.38
1692.122	556.38
1696.577	529.38
1701.028	507.38
1705.474	489.38
1709.917	480.38
1714.355	454.38
1718.788	445.38
1723.218	407.38
1727.643	394.38
1732.064	377.38
1736.481	353.38
1740.893	340.38
1745.301	321.38
1749.705	310.38
1754.105	300.38
1758.501	278.38
1762.893	274.38
1767.28	264.38
1771.663	258.38
1776.042	249.38
1780.417	246.38
1784.787	240.38
1789.154	252.38
1793.516	250.38
1797.874	255.38
1802.228	258.38
1806.578	257.38
1810.924	255.38
1815.266	238.38
1819.603	238.38
1823.937	230.38
1828.266	224.38
1832.591	220.38
1836.913	215.38
1841.23	208.38
1845.543	203.38
1849.852	201.38
1854.156	206.38
1858.457	202.38
1862.754	208.38
1867.047	209.38
1871.335	204.38
1875.62	206.38
1879.9	211.38
1884.177	206.38
1888.449	212.38
1892.718	204.38
1896.982	204.38
1901.243	207.38
1905.499	205.38
1909.752	201.38
1914	205.38
1918.245	201.38
1922.485	209.38
1926.722	220.38
1930.954	218.38
1935.183	225.38
1939.408	227.38
1943.628	226.38
1947.845	234.38
1952.058	219.38
1956.267	218.38
1960.472	217.38
1964.673	217.38
1968.87	221.38
1973.063	208.38
1977.252	213.38
1981.438	210.38
1985.619	219.38
1989.797	216.38
1993.971	215.38
1998.14	210.38
2002.306	215.38
2006.469	220.38
2010.627	209.38
2014.781	220.38
2018.932	213.38
2023.078	214.38
2027.221	223.38
2031.36	218.38
2035.495	211.38
2039.627	216.38
2043.754	212.38
2047.878	216.38
2051.998	213.38
2056.114	216.38
2060.226	209.38
2064.334	228.38
2068.439	221.38
2072.54	229.38
2076.637	227.38
2080.73	240.38
2084.82	235.38
2088.906	241.38
2092.988	236.38
2097.066	239.38
2101.14	241.38
2105.211	234.38
2109.278	238.38
2113.342	227.38
2117.401	232.38
2121.457	233.38
2125.509	228.38
2129.558	224.38
2133.602	225.38
2137.643	231.38
2141.681	228.38
2145.714	210.38
2149.744	216.38
2153.77	220.38
2157.793	211.38
2161.812	203.38
2165.827	200.38
2169.838	195.38
2173.846	199.38
2177.851	192.38
2181.851	183.38
2185.848	187.38
2189.841	180.38
2193.831	175.38
2197.817	177.38
2201.799	173.38
2205.778	172.38
2209.753	166.38
2213.725	176.38
2217.693	160.38
2221.657	165.38
2225.618	165.38
2229.575	162.38
2233.529	163.38
2237.479	164.38
2241.425	157.38
2245.368	146.38
2249.307	151.38
2253.243	147.38
2257.175	140.38
2261.104	141.38
2265.029	136.38
2268.95	130.38
2272.868	119.38
2276.783	123.38
2280.694	118.38
2284.601	120.38
2288.505	122.38
2292.405	118.38
2296.302	109.38
2300.195	116.38
2304.085	105.38
2307.971	100.38
2311.854	98.38
2315.734	95.38
2319.609	95.38
2323.482	90.38
2327.351	87.38
2331.216	88.38
2335.078	87.38
2338.937	86.38
2342.792	88.38
2346.643	86.38
2350.492	91.38
2354.336	86.38
2358.178	81.38
2362.015	74.38
2365.85	79.38
2369.681	71.38
2373.508	75.38
2377.333	77.38
2381.153	78.38
2384.971	80.38
2388.785	72.38
2392.595	79.38
2396.402	77.38
2400.206	77.38
2404.007	66.38
2407.804	69.38
2411.597	68.38
2415.388	62.38
2419.174	66.38
2422.958	57.38
2426.738	61.38
2430.515	66.38
2434.289	60.38
2438.059	65.38
2441.825	65.38
2445.589	60.38
2449.349	64.38
2453.106	59.38
2456.859	54.38
2460.61	54.38
2464.356	53.38
2468.1	51.38
2471.84	51.38
2475.577	51.38
2479.311	47.38
2483.041	54.38
2486.768	56.38
2490.492	52.38
2494.213	47.38
2497.93	49.38
2501.644	46.38
2505.355	56.38
2509.062	46.38
2512.766	45.38
2516.467	52.38
2520.165	50.38
2523.859	41.38
2527.551	45.38
2531.239	40.38
2534.923	50.38
2538.605	42.38
2542.283	44.38
2545.958	51.38
2549.63	44.38
2553.299	42.38
2556.964	35.38
2560.626	42.38
2564.285	35.38
2567.941	39.38
2571.594	37.38
2575.243	39.38
2578.89	36.38
2582.533	40.38
2586.173	37.38
2589.809	36.38
2593.443	39.38
2597.073	33.38
2600.701	36.38
2604.325	34.38
2607.946	29.38
2611.564	29.38
2615.178	37.38
2618.79	31.38
2622.398	24.38
2626.004	26.38
2629.606	27.38
2633.205	31.38
2636.801	26.38
2640.394	29.38
2643.983	28.38
2647.57	26.38
2651.153	29.38
2654.734	20.38
2658.311	19.38
2661.885	18.38
2665.456	23.38
2669.025	20.38
2672.589	24.38
2676.151	21.38
2679.71	28.38
2683.266	23.38
2686.819	18.38
2690.368	14.38
2693.915	20.38
2697.458	15.38
2700.999	14.38
2704.536	16.38
2708.071	14.38
2711.602	14.38
2715.13	14.38
2718.656	16.38
2722.178	14.38
2725.697	13.38
2729.214	21.38
2732.727	17.38
2736.237	14.38
2739.744	19.38
2743.249	22.38
2746.75	15.38
2750.248	24.38
2753.743	23.38
2757.236	22.38
2760.725	25.38
2764.211	32.38
2767.695	28.38
2771.175	27.38
2774.652	26.38
2778.127	30.38
2781.598	30.38
2785.067	30.38
2788.532	32.38
2791.995	36.38
2795.455	30.38
2798.911	36.38
2802.365	34.38
2805.816	32.38
2809.264	37.38
2812.709	36.38
2816.151	43.38
2819.59	40.38
2823.026	39.38
2826.46	35.38
2829.89	44.38
2833.318	46.38
2836.742	47.38
2840.164	53.38
2843.583	49.38
2846.999	57.38
2850.412	45.38
2853.822	59.38
2857.229	54.38
2860.634	61.38
2864.035	57.38
2867.434	67.38
2870.83	68.38
2874.223	76.38
2877.613	80.38
2881	83.38
2884.385	78.38
2887.766	85.38
2891.145	82.38
2894.521	79.38
2897.894	84.38
2901.264	93.38
2904.631	88.38
2907.996	94.38
2911.358	93.38
2914.717	102.38
2918.073	107.38
2921.426	108.38
2924.777	111.38
2928.124	119.38
2931.469	121.38
2934.811	131.38
2938.15	134.38
2941.487	134.38
2944.821	144.38
2948.152	146.38
2951.48	141.38
2954.805	151.38
2958.128	158.38
2961.447	162.38
2964.765	168.38
2968.079	172.38
2971.39	180.38
2974.699	189.38
2978.005	195.38
2981.308	212.38
2984.609	214.38
2987.907	231.38
2991.202	238.38
2994.494	245.38
2997.784	257.38
3001.07	262.38
3004.355	266.38
3007.636	277.38
3010.915	297.38
3014.191	310.38
3017.464	306.38
3020.734	316.38
3024.002	328.38
3027.267	336.38
3030.53	339.38
3033.789	349.38
3037.046	352.38
3040.301	357.38
3043.552	374.38
3046.801	390.38
3050.048	396.38
3053.291	422.38
3056.532	433.38
3059.771	449.38
3063.006	459.38
3066.239	472.38
3069.469	483.38
3072.697	513.38
3075.922	520.38
3079.144	538.38
3082.364	564.38
3085.581	568.38
3088.795	588.38
3092.007	609.38
3095.216	614.38
3098.423	637.38
3101.627	655.38
3104.828	672.38
3108.026	681.38
3111.222	705.38
3114.416	713.38
3117.607	740.38
3120.795	763.38
3123.98	775.38
3127.163	788.38
3130.344	805.38
3133.521	830.38
3136.696	862.38
3139.869	872.38
3143.039	877.38
3146.206	912.38
3149.371	922.38
3152.533	935.38
3155.693	937.38
3158.85	948.38
3162.005	957.38
3165.157	961.38
3168.306	968.38
3171.453	971.38
3174.597	957.38
3177.739	964.38
3180.878	970.38
3184.014	986.38
3187.149	990.38
3190.28	999.38
3193.409	999.38
3196.536	998.38
3199.659	1000.38
3202.781	1016.38
3205.9	1005.38
3209.016	1022.38
3212.13	1016.38
3215.241	1010.38
3218.35	1005.38
3221.456	995.38
3224.56	985.38
3227.661	985.38
3230.76	973.38
3233.856	972.38
3236.95	949.38
3240.041	955.38
3243.13	953.38
3246.216	943.38
3249.3	935.38
3252.382	936.38
3255.46	936.38
3258.537	942.38
3261.611	936.38
3264.682	937.38
3267.751	913.38
3270.818	929.38
3273.882	923.38
3276.943	909.38
3280.002	901.38
3283.059	900.38
3286.113	884.38
3289.165	877.38
3292.214	873.38
3295.261	850.38
3298.306	833.38
3301.348	814.38
3304.387	797.38
3307.425	795.38
3310.459	784.38
3313.492	773.38
3316.521	765.38
3319.549	755.38
3322.574	748.38
3325.597	746.38
3328.617	734.38
3331.635	736.38
3334.65	725.38
3337.663	729.38
3340.674	717.38
3343.682	717.38
3346.688	722.38
3349.691	714.38
3352.692	705.38
3355.691	703.38
3358.687	689.38
3361.681	709.38
3364.673	690.38
3367.662	677.38
3370.649	667.38
3373.633	652.38
3376.615	643.38
3379.595	635.38
3382.572	637.38
3385.547	638.38
3388.52	616.38
3391.49	610.38
3394.458	600.38
3397.424	593.38
3400.387	589.38
3403.348	587.38
3406.307	576.38
3409.263	566.38
3412.217	565.38
3415.168	566.38
3418.118	569.38
3421.065	536.38
3424.009	537.38
3426.951	531.38
3429.891	526.38
3432.829	515.38
3435.764	512.38
3438.697	501.38
3441.628	483.38
3444.557	478.38
3447.483	464.38
3450.407	459.38
3453.328	436.38
3456.247	417.38
3459.164	411.38
3462.079	393.38
3464.991	384.38
3467.902	389.38
3470.809	365.38
3473.715	363.38
3476.618	348.38
3479.519	342.38
3482.418	334.38
3485.315	317.38
3488.209	313.38
3491.101	304.38
3493.99	298.38
3496.878	287.38
3499.763	275.38
3502.646	268.38
3505.527	265.38
3508.405	256.38
3511.281	245.38
3514.155	235.38
3517.027	233.38
3519.897	216.38
3522.764	202.38
3525.629	200.38
3528.492	178.38
3531.352	170.38
3534.211	167.38
3537.067	154.38
3539.921	149.38
3542.773	142.38
3545.622	133.38
3548.469	131.38
3551.315	118.38
3554.157	110.38
3556.998	107.38
3559.837	102.38
3562.673	94.38
3565.507	91.38
3568.339	83.38
3571.169	78.38
3573.996	76.38
3576.822	75.38
3579.645	63.38
3582.466	64.38
3585.285	54.38
3588.101	50.38
3590.916	42.38
3593.728	43.38
3596.538	38.38
3599.346	31.38
3602.152	26.38
3604.956	27.38
3607.757	13.38
3610.556	15.38
3613.354	12.38
3616.149	10.38
3618.942	0.38
3621.732	2.38
3624.521	3.38
3627.307	-4.62
3630.092	-6.62
3632.874	-8.62
3635.654	-8.62
3638.432	-13.62
3641.208	-13.62
3643.982	-23.62
3646.753	-23.62
3649.523	-21.62
3652.29	-23.62
3655.055	-28.62
3657.818	-25.62
3660.579	-35.62
3663.338	-36.62
3666.095	-35.62
3668.849	-39.62
3671.602	-43.62
3674.352	-44.62
3677.101	-47.62
3679.847	-50.62
3682.591	-54.62
3685.333	-55.62
3688.073	-53.62
3690.811	-57.62
3693.547	-54.62
3696.281	-56.62
3699.013	-60.62
3701.742	-56.62
3704.47	-60.62
3707.195	-58.62
3709.919	-59.62
3712.64	-65.62
3715.359	-68.62
3718.076	-65.62
3720.792	-66.62
3723.505	-66.62
3726.216	-68.62
3728.925	-60.62
3731.632	-69.62
3734.336	-67.62
3737.039	-71.62
3739.74	-70.62
3742.439	-77.62
3745.136	-70.62
3747.83	-75.62
3750.523	-73.62
3753.213	-73.62
3755.902	-75.62
3758.589	-69.62
3761.273	-74.62
3763.956	-73.62
3766.636	-72.62
3769.315	-75.62
3771.991	-76.62
3774.665	-77.62
3777.338	-78.62
3780.008	-81.62
3782.677	-76.62
3785.343	-77.62
3788.007	-76.62
3790.67	-78.62
3793.33	-77.62
3795.989	-79.62
3798.645	-82.62
3801.299	-78.62
3803.952	-76.62
3806.602	-76.62
3809.251	-81.62
3811.897	-83.62
3814.542	-82.62
3817.184	-82.62
3819.825	-79.62
3822.463	-81.62
3825.1	-78.62
3827.735	-79.62
3830.367	-77.62
3832.998	-82.62
3835.627	-78.62
3838.253	-82.62
3840.878	-81.62
3843.501	-81.62
3846.122	-84.62
3848.741	-80.62
3851.358	-82.62
3853.973	-80.62
3856.586	-82.62
3859.197	-86.62
3861.806	-81.62
3864.414	-82.62
3867.019	-82.62
3869.622	-80.62
3872.224	-82.62
3874.823	-81.62
3877.421	-76.62
3880.016	-78.62
3882.61	-73.62
3885.202	-73.62
3887.792	-79.62
3890.38	-79.62
3892.966	-83.62
3895.55	-82.62
3898.132	-84.62
3900.713	-85.62
3903.291	-79.62
3905.868	-83.62
3908.442	-81.62
3911.015	-84.62
3913.586	-85.62
3916.155	-86.62
3918.722	-81.62
3921.287	-89.62
3923.85	-87.62
3926.411	-85.62
3928.971	-84.62
3931.528	-83.62
3934.084	-85.62
3936.638	-87.62
3939.19	-79.62
3941.74	-84.62
3944.288	-84.62
3946.834	-88.62
3949.378	-84.62
3951.921	-89.62
3954.462	-84.62
3957	-87.62
3959.537	-83.62
3962.072	-81.62
3964.606	-80.62
3967.137	-83.62
3969.667	-81.62
3972.194	-84.62
3974.72	-83.62
3977.244	-85.62
3979.766	-80.62
3982.286	-86.62
3984.805	-86.62
3987.321	-84.62
3989.836	-85.62
3992.349	-82.62
3994.86	-80.62
3997.369	-81.62
3999.877	-80.62
4002.382	-85.62
4004.886	-78.62
4007.388	-82.62
4009.888	-84.62
4012.386	-83.62
4014.883	-85.62
4017.377	-83.62
4019.87	-80.62
4022.361	-82.62
4024.85	-81.62
4027.338	-83.62
4029.823	-84.62
4032.307	-84.62
4034.789	-84.62
4037.269	-83.62
4039.747	-84.62
4042.224	-81.62
4044.699	-85.62
4047.172	-81.62
4049.643	-82.62
4052.112	-84.62
4054.58	-84.62
4057.046	-86.62
4059.51	-85.62
4061.972	-89.62
4064.432	-83.62
4066.891	-84.62
4069.348	-82.62
4071.803	-84.62
4074.256	-82.62
4076.708	-79.62
4079.158	-81.62
4081.606	-85.62
4084.052	-86.62
4086.497	-86.62
4088.939	-89.62
4091.38	-86.62
4093.819	-84.62
4096.257	-86.62
4098.693	-85.62
4101.127	-84.62
4103.559	-87.62
4105.989	-54.62
4108.418	-50.62
4110.845	-49.62
4113.27	-49.62
4115.694	-41.62
4118.115	-34.62
4120.535	-84.62
4122.954	-84.62
4125.37	-82.62
4127.785	-82.62
4130.198	-83.62
4132.609	-82.62
4135.019	-85.62
4137.427	-87.62
4139.833	-88.62
4142.237	-88.62
