Data from B_sub_water_100CFU_B2_RamanShift_1.txt Node
Date: Thu Feb 23 12:14:03 IST 2017
User: aro
Spectrometer: QEPB0276
Trigger mode: 0
Integration Time (sec): 5.000000E0
Scans to average: 1
Electric dark correction enabled: true
Nonlinearity correction enabled: false
Boxcar width: 0
XAxis mode: Raman Shifts
Number of Pixels in Spectrum: 1044
>>>>>Begin Spectral Data<<<<<
160.701	-28
166.742	1
172.777	88
178.805	347
184.826	1005
190.841	2074
196.849	3306
202.85	4127
208.845	4321
214.833	4183
220.815	3990
226.789	3881
232.758	3770
238.719	3647
244.674	3502
250.623	3354
256.565	3199
262.5	3035
268.429	2912
274.351	2782
280.267	2698
286.176	2594
292.079	2477
297.975	2403
303.865	2338
309.748	2256
315.625	2226
321.495	2179
327.359	2141
333.217	2106
339.068	2084
344.912	2099
350.751	2092
356.583	2084
362.408	2073
368.227	2080
374.04	2097
379.847	2099
385.647	2096
391.44	2110
397.228	2126
403.009	2153
408.784	2140
414.553	2156
420.315	2145
426.071	2156
431.821	2164
437.565	2141
443.302	2149
449.033	2124
454.758	2128
460.477	2122
466.189	2123
471.896	2092
477.596	2080
483.29	2076
488.978	2053
494.66	2038
500.335	2026
506.005	1986
511.668	1938
517.325	1880
522.977	1855
528.622	1833
534.261	1811
539.894	1781
545.521	1776
551.141	1766
556.756	1757
562.365	1737
567.968	1741
573.565	1714
579.155	1693
584.74	1681
590.319	1677
595.892	1661
601.459	1653
607.02	1643
612.575	1619
618.124	1602
623.667	1592
629.204	1574
634.735	1558
640.261	1523
645.781	1531
651.294	1533
656.802	1516
662.304	1495
667.8	1499
673.29	1496
678.775	1510
684.254	1469
689.726	1472
695.193	1460
700.655	1438
706.11	1445
711.56	1422
717.004	1414
722.442	1401
727.874	1403
733.301	1392
738.722	1379
744.137	1374
749.547	1367
754.951	1368
760.349	1373
765.741	1337
771.128	1364
776.509	1343
781.885	1340
787.254	1341
792.618	1335
797.977	1327
803.33	1313
808.677	1300
814.019	1289
819.355	1279
824.686	1245
830.011	1263
835.33	1242
840.644	1230
845.952	1223
851.255	1216
856.552	1196
861.844	1198
867.13	1181
872.41	1183
877.686	1161
882.955	1158
888.219	1142
893.478	1112
898.731	1093
903.979	1089
909.221	1059
914.458	1047
919.69	1044
924.916	1047
930.136	1035
935.351	1012
940.561	1036
945.766	1034
950.965	1017
956.158	998
961.347	1005
966.529	980
971.707	976
976.879	956
982.046	951
987.208	940
992.364	946
997.515	936
1002.66	943
1007.801	957
1012.936	948
1018.066	962
1023.19	974
1028.309	966
1033.423	962
1038.532	969
1043.636	955
1048.734	949
1053.827	941
1058.915	922
1063.998	925
1069.075	913
1074.147	917
1079.214	909
1084.276	911
1089.333	923
1094.385	929
1099.431	935
1104.472	931
1109.509	929
1114.54	930
1119.565	914
1124.586	899
1129.602	899
1134.613	890
1139.618	888
1144.619	881
1149.614	873
1154.604	890
1159.589	903
1164.57	896
1169.545	883
1174.515	899
1179.48	877
1184.44	889
1189.395	880
1194.345	875
1199.29	868
1204.23	866
1209.165	885
1214.095	898
1219.021	885
1223.941	900
1228.856	899
1233.766	906
1238.672	919
1243.572	903
1248.467	879
1253.358	881
1258.244	858
1263.124	870
1268	851
1272.871	829
1277.737	832
1282.599	826
1287.455	826
1292.306	833
1297.153	827
1301.995	845
1306.832	850
1311.664	849
1316.491	846
1321.314	844
1326.132	828
1330.945	818
1335.753	801
1340.556	778
1345.354	764
1350.148	766
1354.937	748
1359.722	739
1364.501	747
1369.276	770
1374.046	796
1378.811	800
1383.572	804
1388.327	790
1393.079	776
1397.825	764
1402.567	753
1407.304	740
1412.036	741
1416.764	734
1421.487	730
1426.205	729
1430.919	734
1435.628	749
1440.333	740
1445.032	748
1449.727	751
1454.418	746
1459.104	751
1463.785	742
1468.462	730
1473.134	734
1477.802	728
1482.465	726
1487.123	712
1491.777	716
1496.426	727
1501.071	732
1505.711	762
1510.347	773
1514.978	792
1519.604	792
1524.226	794
1528.844	811
1533.457	799
1538.065	810
1542.669	819
1547.269	812
1551.864	813
1556.454	821
1561.041	828
1565.622	821
1570.199	843
1574.772	860
1579.34	859
1583.904	893
1588.464	903
1593.019	922
1597.569	932
1602.115	948
1606.657	955
1611.195	970
1615.728	986
1620.256	1003
1624.78	1023
1629.3	1042
1633.816	1049
1638.327	1052
1642.834	1079
1647.336	1079
1651.834	1073
1656.328	1067
1660.817	1054
1665.302	1039
1669.783	1025
1674.259	992
1678.732	958
1683.199	913
1687.663	858
1692.122	827
1696.577	805
1701.028	783
1705.474	780
1709.917	759
1714.355	738
1718.788	723
1723.218	687
1727.643	662
1732.064	635
1736.481	607
1740.893	603
1745.301	582
1749.705	566
1754.105	545
1758.501	530
1762.893	507
1767.28	506
1771.663	492
1776.042	488
1780.417	474
1784.787	483
1789.154	480
1793.516	489
1797.874	500
1802.228	494
1806.578	499
1810.924	489
1815.266	491
1819.603	481
1823.937	472
1828.266	456
1832.591	453
1836.913	437
1841.23	437
1845.543	433
1849.852	444
1854.156	433
1858.457	422
1862.754	433
1867.047	425
1871.335	432
1875.62	444
1879.9	433
1884.177	441
1888.449	440
1892.718	434
1896.982	440
1901.243	432
1905.499	430
1909.752	426
1914	429
1918.245	425
1922.485	424
1926.722	443
1930.954	443
1935.183	453
1939.408	459
1943.628	457
1947.845	457
1952.058	455
1956.267	457
1960.472	448
1964.673	436
1968.87	438
1973.063	433
1977.252	431
1981.438	422
1985.619	429
1989.797	428
1993.971	436
1998.14	434
2002.306	431
2006.469	436
2010.627	443
2014.781	430
2018.932	433
2023.078	421
2027.221	421
2031.36	430
2035.495	425
2039.627	416
2043.754	420
2047.878	416
2051.998	415
2056.114	425
2060.226	421
2064.334	430
2068.439	429
2072.54	445
2076.637	434
2080.73	439
2084.82	443
2088.906	444
2092.988	446
2097.066	444
2101.14	444
2105.211	449
2109.278	434
2113.342	420
2117.401	435
2121.457	433
2125.509	439
2129.558	426
2133.602	421
2137.643	420
2141.681	425
2145.714	411
2149.744	410
2153.77	422
2157.793	414
2161.812	405
2165.827	410
2169.838	393
2173.846	373
2177.851	378
2181.851	368
2185.848	355
2189.841	354
2193.831	353
2197.817	348
2201.799	357
2205.778	357
2209.753	342
2213.725	343
2217.693	348
2221.657	337
2225.618	334
2229.575	340
2233.529	341
2237.479	336
2241.425	332
2245.368	317
2249.307	322
2253.243	313
2257.175	314
2261.104	302
2265.029	301
2268.95	299
2272.868	289
2276.783	293
2280.694	280
2284.601	272
2288.505	274
2292.405	276
2296.302	273
2300.195	271
2304.085	256
2307.971	261
2311.854	253
2315.734	241
2319.609	249
2323.482	232
2327.351	232
2331.216	228
2335.078	232
2338.937	224
2342.792	222
2346.643	222
2350.492	218
2354.336	225
2358.178	217
2362.015	219
2365.85	222
2369.681	215
2373.508	214
2377.333	223
2381.153	213
2384.971	215
2388.785	214
2392.595	212
2396.402	214
2400.206	200
2404.007	205
2407.804	198
2411.597	204
2415.388	199
2419.174	198
2422.958	197
2426.738	193
2430.515	204
2434.289	192
2438.059	183
2441.825	193
2445.589	193
2449.349	182
2453.106	185
2456.859	179
2460.61	179
2464.356	181
2468.1	169
2471.84	171
2475.577	171
2479.311	167
2483.041	177
2486.768	173
2490.492	174
2494.213	176
2497.93	172
2501.644	169
2505.355	165
2509.062	157
2512.766	165
2516.467	166
2520.165	161
2523.859	168
2527.551	169
2531.239	162
2534.923	161
2538.605	161
2542.283	153
2545.958	162
2549.63	154
2553.299	154
2556.964	160
2560.626	156
2564.285	151
2567.941	148
2571.594	148
2575.243	144
2578.89	138
2582.533	148
2586.173	144
2589.809	138
2593.443	150
2597.073	135
2600.701	143
2604.325	143
2607.946	143
2611.564	140
2615.178	138
2618.79	138
2622.398	132
2626.004	132
2629.606	136
2633.205	132
2636.801	133
2640.394	127
2643.983	126
2647.57	128
2651.153	127
2654.734	119
2658.311	118
2661.885	118
2665.456	116
2669.025	114
2672.589	116
2676.151	111
2679.71	121
2683.266	109
2686.819	112
2690.368	103
2693.915	107
2697.458	92
2700.999	91
2704.536	98
2708.071	99
2711.602	93
2715.13	93
2718.656	92
2722.178	100
2725.697	101
2729.214	97
2732.727	96
2736.237	93
2739.744	99
2743.249	104
2746.75	102
2750.248	104
2753.743	107
2757.236	108
2760.725	107
2764.211	105
2767.695	107
2771.175	107
2774.652	108
2778.127	112
2781.598	109
2785.067	108
2788.532	111
2791.995	115
2795.455	107
2798.911	111
2802.365	115
2805.816	110
2809.264	116
2812.709	108
2816.151	112
2819.59	115
2823.026	115
2826.46	107
2829.89	121
2833.318	118
2836.742	117
2840.164	117
2843.583	132
2846.999	125
2850.412	119
2853.822	129
2857.229	125
2860.634	130
2864.035	128
2867.434	134
2870.83	142
2874.223	148
2877.613	146
2881	153
2884.385	152
2887.766	154
2891.145	156
2894.521	147
2897.894	154
2901.264	157
2904.631	159
2907.996	160
2911.358	164
2914.717	168
2918.073	172
2921.426	177
2924.777	174
2928.124	190
2931.469	188
2934.811	191
2938.15	194
2941.487	206
2944.821	208
2948.152	211
2951.48	222
2954.805	218
2958.128	230
2961.447	221
2964.765	224
2968.079	239
2971.39	239
2974.699	257
2978.005	268
2981.308	279
2984.609	292
2987.907	304
2991.202	305
2994.494	317
2997.784	328
3001.07	342
3004.355	348
3007.636	359
3010.915	371
3014.191	374
3017.464	385
3020.734	394
3024.002	401
3027.267	411
3030.53	407
3033.789	420
3037.046	434
3040.301	438
3043.552	459
3046.801	470
3050.048	483
3053.291	503
3056.532	502
3059.771	539
3063.006	557
3066.239	572
3069.469	585
3072.697	596
3075.922	618
3079.144	644
3082.364	659
3085.581	678
3088.795	696
3092.007	693
3095.216	702
3098.423	739
3101.627	754
3104.828	779
3108.026	814
3111.222	817
3114.416	820
3117.607	861
3120.795	871
3123.98	891
3127.163	918
3130.344	931
3133.521	955
3136.696	984
3139.869	986
3143.039	1010
3146.206	1024
3149.371	1040
3152.533	1064
3155.693	1070
3158.85	1086
3162.005	1083
3165.157	1086
3168.306	1093
3171.453	1086
3174.597	1091
3177.739	1101
3180.878	1092
3184.014	1112
3187.149	1119
3190.28	1121
3193.409	1124
3196.536	1132
3199.659	1143
3202.781	1129
3205.9	1141
3209.016	1141
3212.13	1146
3215.241	1149
3218.35	1133
3221.456	1115
3224.56	1114
3227.661	1106
3230.76	1109
3233.856	1090
3236.95	1076
3240.041	1094
3243.13	1059
3246.216	1062
3249.3	1051
3252.382	1055
3255.46	1038
3258.537	1042
3261.611	1044
3264.682	1035
3267.751	1015
3270.818	1039
3273.882	1017
3276.943	1009
3280.002	1023
3283.059	999
3286.113	1000
3289.165	983
3292.214	963
3295.261	939
3298.306	930
3301.348	913
3304.387	897
3307.425	889
3310.459	886
3313.492	864
3316.521	854
3319.549	838
3322.574	849
3325.597	830
3328.617	819
3331.635	823
3334.65	820
3337.663	810
3340.674	806
3343.682	803
3346.688	805
3349.691	787
3352.692	797
3355.691	791
3358.687	787
3361.681	779
3364.673	761
3367.662	769
3370.649	737
3373.633	727
3376.615	714
3379.595	717
3382.572	708
3385.547	696
3388.52	693
3391.49	689
3394.458	683
3397.424	669
3400.387	662
3403.348	651
3406.307	648
3409.263	641
3412.217	640
3415.168	635
3418.118	611
3421.065	613
3424.009	601
3426.951	599
3429.891	577
3432.829	577
3435.764	559
3438.697	555
3441.628	547
3444.557	536
3447.483	518
3450.407	512
3453.328	486
3456.247	472
3459.164	469
3462.079	452
3464.991	444
3467.902	423
3470.809	411
3473.715	396
3476.618	388
3479.519	383
3482.418	367
3485.315	361
3488.209	348
3491.101	346
3493.99	321
3496.878	315
3499.763	312
3502.646	301
3505.527	296
3508.405	283
3511.281	276
3514.155	255
3517.027	248
3519.897	251
3522.764	230
3525.629	209
3528.492	209
3531.352	195
3534.211	178
3537.067	173
3539.921	167
3542.773	165
3545.622	142
3548.469	139
3551.315	138
3554.157	123
3556.998	124
3559.837	107
3562.673	110
3565.507	104
3568.339	91
3571.169	83
3573.996	80
3576.822	74
3579.645	69
3582.466	58
3585.285	56
3588.101	51
3590.916	51
3593.728	40
3596.538	38
3599.346	30
3602.152	28
3604.956	23
3607.757	17
3610.556	13
3613.354	13
3616.149	4
3618.942	-1
3621.732	3
3624.521	-5
3627.307	-5
3630.092	-10
3632.874	-10
3635.654	-8
3638.432	-14
3641.208	-19
3643.982	-24
3646.753	-28
3649.523	-29
3652.29	-31
3655.055	-38
3657.818	-39
3660.579	-43
3663.338	-39
3666.095	-39
3668.849	-44
3671.602	-47
3674.352	-50
3677.101	-53
3679.847	-60
3682.591	-60
3685.333	-65
3688.073	-67
3690.811	-66
3693.547	-65
3696.281	-64
3699.013	-67
3701.742	-64
3704.47	-65
3707.195	-67
3709.919	-69
3712.64	-69
3715.359	-75
3718.076	-75
3720.792	-75
3723.505	-81
3726.216	-82
3728.925	-76
3731.632	-78
3734.336	-82
3737.039	-77
3739.74	-79
3742.439	-86
3745.136	-83
3747.83	-81
3750.523	-80
3753.213	-80
3755.902	-81
3758.589	-83
3761.273	-87
3763.956	-86
3766.636	-87
3769.315	-86
3771.991	-89
3774.665	-87
3777.338	-88
3780.008	-87
3782.677	-85
3785.343	-84
3788.007	-84
3790.67	-93
3793.33	-87
3795.989	-94
3798.645	-95
3801.299	-91
3803.952	-91
3806.602	-91
3809.251	-91
3811.897	-92
3814.542	-90
3817.184	-89
3819.825	-88
3822.463	-87
3825.1	-88
3827.735	-92
3830.367	-89
3832.998	-94
3835.627	-93
3838.253	-95
3840.878	-90
3843.501	-92
3846.122	-93
3848.741	-93
3851.358	-94
3853.973	-90
3856.586	-91
3859.197	-98
3861.806	-91
3864.414	-94
3867.019	-95
3869.622	-95
3872.224	-92
3874.823	-95
3877.421	-90
3880.016	-88
3882.61	-84
3885.202	-81
3887.792	-90
3890.38	-91
3892.966	-92
3895.55	-93
3898.132	-94
3900.713	-95
3903.291	-96
3905.868	-96
3908.442	-96
3911.015	-95
3913.586	-97
3916.155	-95
3918.722	-95
3921.287	-99
3923.85	-96
3926.411	-96
3928.971	-95
3931.528	-95
3934.084	-98
3936.638	-99
3939.19	-95
3941.74	-98
3944.288	-98
3946.834	-101
3949.378	-102
3951.921	-101
3954.462	-98
3957	-99
3959.537	-101
3962.072	-95
3964.606	-94
3967.137	-95
3969.667	-94
3972.194	-97
3974.72	-95
3977.244	-96
3979.766	-95
3982.286	-99
3984.805	-97
3987.321	-97
3989.836	-99
3992.349	-92
3994.86	-91
3997.369	-93
3999.877	-94
4002.382	-96
4004.886	-91
4007.388	-96
4009.888	-93
4012.386	-96
4014.883	-98
4017.377	-98
4019.87	-95
4022.361	-99
4024.85	-97
4027.338	-97
4029.823	-95
4032.307	-97
4034.789	-95
4037.269	-98
4039.747	-97
4042.224	-97
4044.699	-99
4047.172	-96
4049.643	-94
4052.112	-97
4054.58	-99
4057.046	-100
4059.51	-98
4061.972	-99
4064.432	-94
4066.891	-98
4069.348	-96
4071.803	-99
4074.256	-95
4076.708	-92
4079.158	-96
4081.606	-94
4084.052	-97
4086.497	-97
4088.939	-100
4091.38	-98
4093.819	-97
4096.257	-104
4098.693	-100
4101.127	-100
4103.559	-99
4105.989	-60
4108.418	-56
4110.845	-53
4113.27	-50
4115.694	-46
4118.115	-35
4120.535	-101
4122.954	-96
4125.37	-96
4127.785	-95
4130.198	-93
4132.609	-96
4135.019	-98
4137.427	-105
4139.833	-102
4142.237	-103
