Data from B_sub_water_10CFU_B3_RamanShift_1.txt Node
Date: Thu Feb 23 12:12:13 IST 2017
User: aro
Spectrometer: QEPB0276
Trigger mode: 0
Integration Time (sec): 5.000000E0
Scans to average: 1
Electric dark correction enabled: true
Nonlinearity correction enabled: false
Boxcar width: 0
XAxis mode: Raman Shifts
Number of Pixels in Spectrum: 1044
>>>>>Begin Spectral Data<<<<<
160.701	-30.88
166.742	2.12
172.777	87.12
178.805	356.12
184.826	1011.12
190.841	2125.12
196.849	3367.12
202.85	4184.12
208.845	4377.12
214.833	4216.12
220.815	4031.12
226.789	3927.12
232.758	3805.12
238.719	3689.12
244.674	3509.12
250.623	3347.12
256.565	3207.12
262.5	3033.12
268.429	2876.12
274.351	2760.12
280.267	2637.12
286.176	2531.12
292.079	2438.12
297.975	2352.12
303.865	2269.12
309.748	2217.12
315.625	2148.12
321.495	2091.12
327.359	2070.12
333.217	2040.12
339.068	2007.12
344.912	2013.12
350.751	2009.12
356.583	2010.12
362.408	1996.12
368.227	1994.12
374.04	2016.12
379.847	2012.12
385.647	2023.12
391.44	2022.12
397.228	2022.12
403.009	2064.12
408.784	2064.12
414.553	2039.12
420.315	2086.12
426.071	2070.12
431.821	2084.12
437.565	2083.12
443.302	2073.12
449.033	2059.12
454.758	2057.12
460.477	2036.12
466.189	2038.12
471.896	2006.12
477.596	1988.12
483.29	1961.12
488.978	1977.12
494.66	1948.12
500.335	1932.12
506.005	1902.12
511.668	1856.12
517.325	1815.12
522.977	1772.12
528.622	1754.12
534.261	1724.12
539.894	1705.12
545.521	1666.12
551.141	1682.12
556.756	1660.12
562.365	1645.12
567.968	1634.12
573.565	1628.12
579.155	1594.12
584.74	1590.12
590.319	1583.12
595.892	1566.12
601.459	1556.12
607.02	1558.12
612.575	1545.12
618.124	1515.12
623.667	1486.12
629.204	1473.12
634.735	1466.12
640.261	1447.12
645.781	1456.12
651.294	1416.12
656.802	1420.12
662.304	1398.12
667.8	1401.12
673.29	1394.12
678.775	1390.12
684.254	1367.12
689.726	1368.12
695.193	1354.12
700.655	1350.12
706.11	1332.12
711.56	1319.12
717.004	1298.12
722.442	1304.12
727.874	1288.12
733.301	1281.12
738.722	1277.12
744.137	1270.12
749.547	1273.12
754.951	1263.12
760.349	1238.12
765.741	1250.12
771.128	1232.12
776.509	1235.12
781.885	1248.12
787.254	1224.12
792.618	1221.12
797.977	1216.12
803.33	1199.12
808.677	1191.12
814.019	1177.12
819.355	1163.12
824.686	1149.12
830.011	1133.12
835.33	1125.12
840.644	1124.12
845.952	1107.12
851.255	1104.12
856.552	1092.12
861.844	1077.12
867.13	1065.12
872.41	1054.12
877.686	1036.12
882.955	1030.12
888.219	1009.12
893.478	983.12
898.731	953.12
903.979	955.12
909.221	937.12
914.458	936.12
919.69	910.12
924.916	909.12
930.136	920.12
935.351	918.12
940.561	885.12
945.766	901.12
950.965	897.12
956.158	877.12
961.347	856.12
966.529	842.12
971.707	827.12
976.879	829.12
982.046	818.12
987.208	818.12
992.364	797.12
997.515	814.12
1002.66	811.12
1007.801	815.12
1012.936	824.12
1018.066	822.12
1023.19	823.12
1028.309	824.12
1033.423	817.12
1038.532	823.12
1043.636	822.12
1048.734	819.12
1053.827	792.12
1058.915	785.12
1063.998	781.12
1069.075	793.12
1074.147	782.12
1079.214	780.12
1084.276	782.12
1089.333	788.12
1094.385	791.12
1099.431	795.12
1104.472	802.12
1109.509	791.12
1114.54	771.12
1119.565	768.12
1124.586	757.12
1129.602	766.12
1134.613	762.12
1139.618	769.12
1144.619	739.12
1149.614	751.12
1154.604	742.12
1159.589	759.12
1164.57	754.12
1169.545	755.12
1174.515	757.12
1179.48	750.12
1184.44	744.12
1189.395	745.12
1194.345	744.12
1199.29	739.12
1204.23	732.12
1209.165	747.12
1214.095	752.12
1219.021	757.12
1223.941	767.12
1228.856	763.12
1233.766	771.12
1238.672	764.12
1243.572	761.12
1248.467	758.12
1253.358	753.12
1258.244	740.12
1263.124	732.12
1268	713.12
1272.871	713.12
1277.737	708.12
1282.599	707.12
1287.455	694.12
1292.306	695.12
1297.153	712.12
1301.995	706.12
1306.832	701.12
1311.664	714.12
1316.491	717.12
1321.314	695.12
1326.132	704.12
1330.945	685.12
1335.753	676.12
1340.556	646.12
1345.354	645.12
1350.148	648.12
1354.937	638.12
1359.722	620.12
1364.501	640.12
1369.276	658.12
1374.046	663.12
1378.811	664.12
1383.572	678.12
1388.327	663.12
1393.079	659.12
1397.825	644.12
1402.567	623.12
1407.304	634.12
1412.036	613.12
1416.764	612.12
1421.487	613.12
1426.205	616.12
1430.919	606.12
1435.628	605.12
1440.333	621.12
1445.032	627.12
1449.727	626.12
1454.418	620.12
1459.104	623.12
1463.785	619.12
1468.462	606.12
1473.134	616.12
1477.802	610.12
1482.465	595.12
1487.123	602.12
1491.777	605.12
1496.426	623.12
1501.071	633.12
1505.711	634.12
1510.347	639.12
1514.978	658.12
1519.604	672.12
1524.226	679.12
1528.844	691.12
1533.457	692.12
1538.065	697.12
1542.669	696.12
1547.269	693.12
1551.864	693.12
1556.454	701.12
1561.041	712.12
1565.622	717.12
1570.199	742.12
1574.772	731.12
1579.34	742.12
1583.904	781.12
1588.464	788.12
1593.019	797.12
1597.569	823.12
1602.115	843.12
1606.657	850.12
1611.195	868.12
1615.728	871.12
1620.256	889.12
1624.78	911.12
1629.3	919.12
1633.816	945.12
1638.327	966.12
1642.834	990.12
1647.336	975.12
1651.834	984.12
1656.328	983.12
1660.817	972.12
1665.302	964.12
1669.783	935.12
1674.259	898.12
1678.732	856.12
1683.199	815.12
1687.663	766.12
1692.122	731.12
1696.577	702.12
1701.028	677.12
1705.474	672.12
1709.917	647.12
1714.355	634.12
1718.788	608.12
1723.218	576.12
1727.643	554.12
1732.064	533.12
1736.481	511.12
1740.893	500.12
1745.301	466.12
1749.705	452.12
1754.105	437.12
1758.501	415.12
1762.893	401.12
1767.28	393.12
1771.663	380.12
1776.042	376.12
1780.417	370.12
1784.787	377.12
1789.154	370.12
1793.516	379.12
1797.874	375.12
1802.228	381.12
1806.578	383.12
1810.924	382.12
1815.266	377.12
1819.603	367.12
1823.937	357.12
1828.266	351.12
1832.591	343.12
1836.913	331.12
1841.23	333.12
1845.543	327.12
1849.852	334.12
1854.156	326.12
1858.457	323.12
1862.754	326.12
1867.047	328.12
1871.335	326.12
1875.62	331.12
1879.9	328.12
1884.177	334.12
1888.449	321.12
1892.718	325.12
1896.982	323.12
1901.243	322.12
1905.499	327.12
1909.752	331.12
1914	323.12
1918.245	327.12
1922.485	336.12
1926.722	334.12
1930.954	330.12
1935.183	348.12
1939.408	345.12
1943.628	358.12
1947.845	358.12
1952.058	357.12
1956.267	353.12
1960.472	349.12
1964.673	347.12
1968.87	340.12
1973.063	330.12
1977.252	334.12
1981.438	327.12
1985.619	335.12
1989.797	335.12
1993.971	327.12
1998.14	336.12
2002.306	343.12
2006.469	338.12
2010.627	334.12
2014.781	336.12
2018.932	330.12
2023.078	334.12
2027.221	339.12
2031.36	333.12
2035.495	334.12
2039.627	325.12
2043.754	324.12
2047.878	334.12
2051.998	322.12
2056.114	324.12
2060.226	324.12
2064.334	338.12
2068.439	341.12
2072.54	356.12
2076.637	342.12
2080.73	353.12
2084.82	353.12
2088.906	359.12
2092.988	356.12
2097.066	357.12
2101.14	353.12
2105.211	359.12
2109.278	351.12
2113.342	344.12
2117.401	354.12
2121.457	346.12
2125.509	337.12
2129.558	339.12
2133.602	336.12
2137.643	335.12
2141.681	324.12
2145.714	328.12
2149.744	326.12
2153.77	333.12
2157.793	322.12
2161.812	320.12
2165.827	315.12
2169.838	308.12
2173.846	301.12
2177.851	298.12
2181.851	287.12
2185.848	284.12
2189.841	277.12
2193.831	269.12
2197.817	269.12
2201.799	274.12
2205.778	269.12
2209.753	278.12
2213.725	270.12
2217.693	277.12
2221.657	264.12
2225.618	259.12
2229.575	260.12
2233.529	262.12
2237.479	256.12
2241.425	245.12
2245.368	248.12
2249.307	248.12
2253.243	234.12
2257.175	232.12
2261.104	226.12
2265.029	221.12
2268.95	219.12
2272.868	216.12
2276.783	211.12
2280.694	205.12
2284.601	196.12
2288.505	203.12
2292.405	206.12
2296.302	195.12
2300.195	196.12
2304.085	191.12
2307.971	188.12
2311.854	184.12
2315.734	169.12
2319.609	177.12
2323.482	174.12
2327.351	162.12
2331.216	158.12
2335.078	156.12
2338.937	144.12
2342.792	146.12
2346.643	149.12
2350.492	146.12
2354.336	147.12
2358.178	146.12
2362.015	150.12
2365.85	151.12
2369.681	152.12
2373.508	145.12
2377.333	156.12
2381.153	148.12
2384.971	144.12
2388.785	152.12
2392.595	150.12
2396.402	135.12
2400.206	137.12
2404.007	133.12
2407.804	130.12
2411.597	135.12
2415.388	131.12
2419.174	126.12
2422.958	131.12
2426.738	129.12
2430.515	128.12
2434.289	130.12
2438.059	132.12
2441.825	132.12
2445.589	124.12
2449.349	123.12
2453.106	115.12
2456.859	117.12
2460.61	115.12
2464.356	108.12
2468.1	114.12
2471.84	112.12
2475.577	106.12
2479.311	109.12
2483.041	119.12
2486.768	111.12
2490.492	108.12
2494.213	108.12
2497.93	111.12
2501.644	96.12
2505.355	110.12
2509.062	105.12
2512.766	104.12
2516.467	106.12
2520.165	103.12
2523.859	104.12
2527.551	103.12
2531.239	102.12
2534.923	93.12
2538.605	98.12
2542.283	94.12
2545.958	99.12
2549.63	101.12
2553.299	93.12
2556.964	95.12
2560.626	103.12
2564.285	96.12
2567.941	97.12
2571.594	94.12
2575.243	87.12
2578.89	90.12
2582.533	86.12
2586.173	91.12
2589.809	82.12
2593.443	87.12
2597.073	87.12
2600.701	90.12
2604.325	86.12
2607.946	86.12
2611.564	82.12
2615.178	78.12
2618.79	75.12
2622.398	82.12
2626.004	79.12
2629.606	78.12
2633.205	85.12
2636.801	85.12
2640.394	77.12
2643.983	79.12
2647.57	81.12
2651.153	75.12
2654.734	68.12
2658.311	70.12
2661.885	67.12
2665.456	68.12
2669.025	71.12
2672.589	59.12
2676.151	62.12
2679.71	69.12
2683.266	60.12
2686.819	66.12
2690.368	66.12
2693.915	58.12
2697.458	58.12
2700.999	50.12
2704.536	50.12
2708.071	50.12
2711.602	51.12
2715.13	54.12
2718.656	53.12
2722.178	52.12
2725.697	54.12
2729.214	56.12
2732.727	56.12
2736.237	56.12
2739.744	59.12
2743.249	59.12
2746.75	64.12
2750.248	59.12
2753.743	60.12
2757.236	58.12
2760.725	63.12
2764.211	76.12
2767.695	61.12
2771.175	66.12
2774.652	64.12
2778.127	69.12
2781.598	71.12
2785.067	69.12
2788.532	70.12
2791.995	73.12
2795.455	71.12
2798.911	80.12
2802.365	76.12
2805.816	74.12
2809.264	81.12
2812.709	73.12
2816.151	80.12
2819.59	76.12
2823.026	77.12
2826.46	78.12
2829.89	87.12
2833.318	86.12
2836.742	85.12
2840.164	92.12
2843.583	95.12
2846.999	97.12
2850.412	100.12
2853.822	94.12
2857.229	94.12
2860.634	100.12
2864.035	102.12
2867.434	104.12
2870.83	108.12
2874.223	115.12
2877.613	122.12
2881	124.12
2884.385	122.12
2887.766	122.12
2891.145	122.12
2894.521	123.12
2897.894	127.12
2901.264	133.12
2904.631	126.12
2907.996	133.12
2911.358	143.12
2914.717	149.12
2918.073	146.12
2921.426	152.12
2924.777	160.12
2928.124	166.12
2931.469	171.12
2934.811	172.12
2938.15	173.12
2941.487	184.12
2944.821	196.12
2948.152	194.12
2951.48	198.12
2954.805	205.12
2958.128	213.12
2961.447	217.12
2964.765	215.12
2968.079	232.12
2971.39	237.12
2974.699	251.12
2978.005	255.12
2981.308	277.12
2984.609	281.12
2987.907	296.12
2991.202	295.12
2994.494	317.12
2997.784	327.12
3001.07	333.12
3004.355	346.12
3007.636	349.12
3010.915	365.12
3014.191	370.12
3017.464	389.12
3020.734	395.12
3024.002	400.12
3027.267	409.12
3030.53	415.12
3033.789	427.12
3037.046	446.12
3040.301	454.12
3043.552	475.12
3046.801	476.12
3050.048	485.12
3053.291	505.12
3056.532	521.12
3059.771	539.12
3063.006	558.12
3066.239	582.12
3069.469	599.12
3072.697	619.12
3075.922	639.12
3079.144	662.12
3082.364	678.12
3085.581	684.12
3088.795	711.12
3092.007	713.12
3095.216	742.12
3098.423	764.12
3101.627	775.12
3104.828	798.12
3108.026	821.12
3111.222	841.12
3114.416	864.12
3117.607	890.12
3120.795	908.12
3123.98	928.12
3127.163	951.12
3130.344	981.12
3133.521	995.12
3136.696	1016.12
3139.869	1035.12
3143.039	1065.12
3146.206	1089.12
3149.371	1088.12
3152.533	1107.12
3155.693	1125.12
3158.85	1129.12
3162.005	1122.12
3165.157	1144.12
3168.306	1142.12
3171.453	1143.12
3174.597	1136.12
3177.739	1149.12
3180.878	1151.12
3184.014	1158.12
3187.149	1168.12
3190.28	1173.12
3193.409	1189.12
3196.536	1204.12
3199.659	1184.12
3202.781	1196.12
3205.9	1181.12
3209.016	1184.12
3212.13	1199.12
3215.241	1175.12
3218.35	1186.12
3221.456	1183.12
3224.56	1179.12
3227.661	1155.12
3230.76	1144.12
3233.856	1143.12
3236.95	1133.12
3240.041	1132.12
3243.13	1119.12
3246.216	1107.12
3249.3	1112.12
3252.382	1108.12
3255.46	1096.12
3258.537	1110.12
3261.611	1096.12
3264.682	1095.12
3267.751	1091.12
3270.818	1092.12
3273.882	1067.12
3276.943	1085.12
3280.002	1072.12
3283.059	1052.12
3286.113	1053.12
3289.165	1041.12
3292.214	1010.12
3295.261	1004.12
3298.306	983.12
3301.348	966.12
3304.387	966.12
3307.425	938.12
3310.459	926.12
3313.492	917.12
3316.521	907.12
3319.549	885.12
3322.574	879.12
3325.597	875.12
3328.617	878.12
3331.635	869.12
3334.65	855.12
3337.663	852.12
3340.674	855.12
3343.682	851.12
3346.688	849.12
3349.691	850.12
3352.692	836.12
3355.691	844.12
3358.687	827.12
3361.681	825.12
3364.673	807.12
3367.662	797.12
3370.649	788.12
3373.633	773.12
3376.615	761.12
3379.595	756.12
3382.572	744.12
3385.547	742.12
3388.52	730.12
3391.49	727.12
3394.458	712.12
3397.424	699.12
3400.387	681.12
3403.348	686.12
3406.307	686.12
3409.263	683.12
3412.217	667.12
3415.168	666.12
3418.118	643.12
3421.065	646.12
3424.009	635.12
3426.951	630.12
3429.891	619.12
3432.829	624.12
3435.764	595.12
3438.697	582.12
3441.628	576.12
3444.557	555.12
3447.483	547.12
3450.407	527.12
3453.328	520.12
3456.247	509.12
3459.164	481.12
3462.079	469.12
3464.991	460.12
3467.902	452.12
3470.809	439.12
3473.715	426.12
3476.618	427.12
3479.519	404.12
3482.418	391.12
3485.315	387.12
3488.209	367.12
3491.101	359.12
3493.99	353.12
3496.878	342.12
3499.763	332.12
3502.646	317.12
3505.527	315.12
3508.405	296.12
3511.281	288.12
3514.155	277.12
3517.027	263.12
3519.897	254.12
3522.764	245.12
3525.629	224.12
3528.492	216.12
3531.352	202.12
3534.211	192.12
3537.067	191.12
3539.921	170.12
3542.773	163.12
3545.622	160.12
3548.469	148.12
3551.315	148.12
3554.157	130.12
3556.998	124.12
3559.837	118.12
3562.673	102.12
3565.507	103.12
3568.339	99.12
3571.169	100.12
3573.996	83.12
3576.822	86.12
3579.645	74.12
3582.466	69.12
3585.285	66.12
3588.101	57.12
3590.916	60.12
3593.728	46.12
3596.538	42.12
3599.346	37.12
3602.152	34.12
3604.956	30.12
3607.757	21.12
3610.556	15.12
3613.354	11.12
3616.149	13.12
3618.942	1.12
3621.732	-1.88
3624.521	1.12
3627.307	0.12
3630.092	-4.88
3632.874	-5.88
3635.654	-8.88
3638.432	-15.88
3641.208	-13.88
3643.982	-24.88
3646.753	-32.88
3649.523	-23.88
3652.29	-26.88
3655.055	-32.88
3657.818	-32.88
3660.579	-39.88
3663.338	-38.88
3666.095	-39.88
3668.849	-43.88
3671.602	-48.88
3674.352	-54.88
3677.101	-48.88
3679.847	-59.88
3682.591	-63.88
3685.333	-64.88
3688.073	-64.88
3690.811	-63.88
3693.547	-61.88
3696.281	-63.88
3699.013	-67.88
3701.742	-67.88
3704.47	-67.88
3707.195	-66.88
3709.919	-69.88
3712.64	-77.88
3715.359	-76.88
3718.076	-74.88
3720.792	-77.88
3723.505	-79.88
3726.216	-80.88
3728.925	-77.88
3731.632	-79.88
3734.336	-82.88
3737.039	-79.88
3739.74	-83.88
3742.439	-82.88
3745.136	-83.88
3747.83	-81.88
3750.523	-85.88
3753.213	-81.88
3755.902	-83.88
3758.589	-83.88
3761.273	-85.88
3763.956	-84.88
3766.636	-87.88
3769.315	-93.88
3771.991	-90.88
3774.665	-88.88
3777.338	-88.88
3780.008	-90.88
3782.677	-85.88
3785.343	-90.88
3788.007	-88.88
3790.67	-90.88
3793.33	-88.88
3795.989	-94.88
3798.645	-96.88
3801.299	-95.88
3803.952	-91.88
3806.602	-90.88
3809.251	-92.88
3811.897	-93.88
3814.542	-90.88
3817.184	-92.88
3819.825	-90.88
3822.463	-96.88
3825.1	-90.88
3827.735	-93.88
3830.367	-90.88
3832.998	-97.88
3835.627	-93.88
3838.253	-93.88
3840.878	-97.88
3843.501	-92.88
3846.122	-97.88
3848.741	-92.88
3851.358	-94.88
3853.973	-94.88
3856.586	-92.88
3859.197	-96.88
3861.806	-96.88
3864.414	-97.88
3867.019	-98.88
3869.622	-98.88
3872.224	-97.88
3874.823	-95.88
3877.421	-91.88
3880.016	-87.88
3882.61	-79.88
3885.202	-84.88
3887.792	-86.88
3890.38	-91.88
3892.966	-96.88
3895.55	-99.88
3898.132	-97.88
3900.713	-96.88
3903.291	-98.88
3905.868	-96.88
3908.442	-97.88
3911.015	-98.88
3913.586	-98.88
3916.155	-100.88
3918.722	-97.88
3921.287	-99.88
3923.85	-96.88
3926.411	-97.88
3928.971	-96.88
3931.528	-100.88
3934.084	-96.88
3936.638	-101.88
3939.19	-92.88
3941.74	-98.88
3944.288	-98.88
3946.834	-102.88
3949.378	-98.88
3951.921	-101.88
3954.462	-98.88
3957	-102.88
3959.537	-95.88
3962.072	-95.88
3964.606	-97.88
3967.137	-96.88
3969.667	-96.88
3972.194	-95.88
3974.72	-95.88
3977.244	-99.88
3979.766	-96.88
3982.286	-99.88
3984.805	-99.88
3987.321	-97.88
3989.836	-98.88
3992.349	-92.88
3994.86	-92.88
3997.369	-92.88
3999.877	-94.88
4002.382	-95.88
4004.886	-93.88
4007.388	-96.88
4009.888	-99.88
4012.386	-96.88
4014.883	-101.88
4017.377	-98.88
4019.87	-98.88
4022.361	-101.88
4024.85	-95.88
4027.338	-98.88
4029.823	-97.88
4032.307	-97.88
4034.789	-99.88
4037.269	-100.88
4039.747	-98.88
4042.224	-96.88
4044.699	-102.88
4047.172	-98.88
4049.643	-99.88
4052.112	-99.88
4054.58	-103.88
4057.046	-99.88
4059.51	-102.88
4061.972	-103.88
4064.432	-91.88
4066.891	-98.88
4069.348	-97.88
4071.803	-98.88
4074.256	-95.88
4076.708	-94.88
4079.158	-99.88
4081.606	-99.88
4084.052	-100.88
4086.497	-102.88
4088.939	-99.88
4091.38	-100.88
4093.819	-99.88
4096.257	-103.88
4098.693	-101.88
4101.127	-104.88
4103.559	-101.88
4105.989	-63.88
4108.418	-60.88
4110.845	-55.88
4113.27	-53.88
4115.694	-49.88
4118.115	-41.88
4120.535	-99.88
4122.954	-96.88
4125.37	-98.88
4127.785	-93.88
4130.198	-97.88
4132.609	-94.88
4135.019	-103.88
4137.427	-104.88
4139.833	-101.88
4142.237	-103.88
