Data from B_sub_water_10CFU2_RamanShift_1.txt Node
Date: Thu Feb 23 11:49:53 IST 2017
User: aro
Spectrometer: QEPB0276
Trigger mode: 0
Integration Time (sec): 5.000000E0
Scans to average: 1
Electric dark correction enabled: true
Nonlinearity correction enabled: false
Boxcar width: 0
XAxis mode: Raman Shifts
Number of Pixels in Spectrum: 1044
>>>>>Begin Spectral Data<<<<<
160.701	-30.75
166.742	0.25
172.777	98.25
178.805	357.25
184.826	1021.25
190.841	2107.25
196.849	3365.25
202.85	4172.25
208.845	4346.25
214.833	4208.25
220.815	4040.25
226.789	3882.25
232.758	3749.25
238.719	3616.25
244.674	3504.25
250.623	3302.25
256.565	3149.25
262.5	2985.25
268.429	2842.25
274.351	2699.25
280.267	2589.25
286.176	2494.25
292.079	2374.25
297.975	2271.25
303.865	2199.25
309.748	2169.25
315.625	2104.25
321.495	2045.25
327.359	2014.25
333.217	1984.25
339.068	1967.25
344.912	1950.25
350.751	1958.25
356.583	1948.25
362.408	1954.25
368.227	1946.25
374.04	1972.25
379.847	1970.25
385.647	1976.25
391.44	1989.25
397.228	1977.25
403.009	1995.25
408.784	2002.25
414.553	2003.25
420.315	2006.25
426.071	2014.25
431.821	2018.25
437.565	2009.25
443.302	2023.25
449.033	1987.25
454.758	1984.25
460.477	1975.25
466.189	1955.25
471.896	1941.25
477.596	1926.25
483.29	1910.25
488.978	1908.25
494.66	1894.25
500.335	1865.25
506.005	1817.25
511.668	1780.25
517.325	1744.25
522.977	1705.25
528.622	1666.25
534.261	1649.25
539.894	1627.25
545.521	1632.25
551.141	1615.25
556.756	1591.25
562.365	1574.25
567.968	1565.25
573.565	1551.25
579.155	1532.25
584.74	1508.25
590.319	1499.25
595.892	1495.25
601.459	1488.25
607.02	1454.25
612.575	1457.25
618.124	1451.25
623.667	1427.25
629.204	1409.25
634.735	1391.25
640.261	1365.25
645.781	1358.25
651.294	1349.25
656.802	1363.25
662.304	1346.25
667.8	1327.25
673.29	1325.25
678.775	1320.25
684.254	1310.25
689.726	1296.25
695.193	1293.25
700.655	1272.25
706.11	1261.25
711.56	1242.25
717.004	1235.25
722.442	1236.25
727.874	1231.25
733.301	1196.25
738.722	1193.25
744.137	1194.25
749.547	1193.25
754.951	1180.25
760.349	1177.25
765.741	1174.25
771.128	1170.25
776.509	1154.25
781.885	1167.25
787.254	1179.25
792.618	1142.25
797.977	1138.25
803.33	1130.25
808.677	1118.25
814.019	1108.25
819.355	1087.25
824.686	1064.25
830.011	1057.25
835.33	1058.25
840.644	1027.25
845.952	1022.25
851.255	1015.25
856.552	1008.25
861.844	981.25
867.13	980.25
872.41	973.25
877.686	955.25
882.955	936.25
888.219	919.25
893.478	906.25
898.731	895.25
903.979	865.25
909.221	853.25
914.458	849.25
919.69	834.25
924.916	846.25
930.136	817.25
935.351	828.25
940.561	818.25
945.766	823.25
950.965	803.25
956.158	789.25
961.347	770.25
966.529	766.25
971.707	753.25
976.879	727.25
982.046	733.25
987.208	736.25
992.364	722.25
997.515	736.25
1002.66	722.25
1007.801	730.25
1012.936	737.25
1018.066	742.25
1023.19	747.25
1028.309	738.25
1033.423	740.25
1038.532	732.25
1043.636	724.25
1048.734	718.25
1053.827	723.25
1058.915	698.25
1063.998	700.25
1069.075	699.25
1074.147	691.25
1079.214	693.25
1084.276	697.25
1089.333	706.25
1094.385	704.25
1099.431	705.25
1104.472	702.25
1109.509	700.25
1114.54	686.25
1119.565	679.25
1124.586	678.25
1129.602	657.25
1134.613	656.25
1139.618	666.25
1144.619	645.25
1149.614	652.25
1154.604	656.25
1159.589	669.25
1164.57	666.25
1169.545	661.25
1174.515	663.25
1179.48	654.25
1184.44	654.25
1189.395	645.25
1194.345	658.25
1199.29	648.25
1204.23	644.25
1209.165	649.25
1214.095	657.25
1219.021	656.25
1223.941	664.25
1228.856	671.25
1233.766	665.25
1238.672	675.25
1243.572	663.25
1248.467	654.25
1253.358	653.25
1258.244	636.25
1263.124	632.25
1268	627.25
1272.871	611.25
1277.737	604.25
1282.599	601.25
1287.455	594.25
1292.306	604.25
1297.153	608.25
1301.995	608.25
1306.832	622.25
1311.664	621.25
1316.491	612.25
1321.314	615.25
1326.132	605.25
1330.945	597.25
1335.753	577.25
1340.556	557.25
1345.354	551.25
1350.148	544.25
1354.937	545.25
1359.722	543.25
1364.501	540.25
1369.276	552.25
1374.046	570.25
1378.811	575.25
1383.572	582.25
1388.327	566.25
1393.079	559.25
1397.825	555.25
1402.567	532.25
1407.304	528.25
1412.036	525.25
1416.764	502.25
1421.487	515.25
1426.205	514.25
1430.919	529.25
1435.628	511.25
1440.333	534.25
1445.032	525.25
1449.727	532.25
1454.418	531.25
1459.104	526.25
1463.785	520.25
1468.462	513.25
1473.134	515.25
1477.802	503.25
1482.465	509.25
1487.123	517.25
1491.777	508.25
1496.426	519.25
1501.071	530.25
1505.711	540.25
1510.347	546.25
1514.978	561.25
1519.604	569.25
1524.226	587.25
1528.844	577.25
1533.457	576.25
1538.065	592.25
1542.669	588.25
1547.269	588.25
1551.864	593.25
1556.454	601.25
1561.041	607.25
1565.622	615.25
1570.199	637.25
1574.772	637.25
1579.34	650.25
1583.904	672.25
1588.464	701.25
1593.019	712.25
1597.569	732.25
1602.115	754.25
1606.657	760.25
1611.195	761.25
1615.728	789.25
1620.256	807.25
1624.78	817.25
1629.3	847.25
1633.816	854.25
1638.327	864.25
1642.834	887.25
1647.336	894.25
1651.834	896.25
1656.328	883.25
1660.817	884.25
1665.302	855.25
1669.783	825.25
1674.259	794.25
1678.732	780.25
1683.199	715.25
1687.663	675.25
1692.122	635.25
1696.577	613.25
1701.028	585.25
1705.474	583.25
1709.917	553.25
1714.355	540.25
1718.788	520.25
1723.218	488.25
1727.643	457.25
1732.064	441.25
1736.481	415.25
1740.893	392.25
1745.301	378.25
1749.705	354.25
1754.105	347.25
1758.501	320.25
1762.893	317.25
1767.28	308.25
1771.663	295.25
1776.042	288.25
1780.417	294.25
1784.787	290.25
1789.154	281.25
1793.516	287.25
1797.874	296.25
1802.228	294.25
1806.578	289.25
1810.924	287.25
1815.266	284.25
1819.603	277.25
1823.937	270.25
1828.266	260.25
1832.591	257.25
1836.913	250.25
1841.23	247.25
1845.543	240.25
1849.852	239.25
1854.156	237.25
1858.457	235.25
1862.754	235.25
1867.047	234.25
1871.335	234.25
1875.62	240.25
1879.9	241.25
1884.177	241.25
1888.449	244.25
1892.718	237.25
1896.982	244.25
1901.243	234.25
1905.499	239.25
1909.752	243.25
1914	236.25
1918.245	231.25
1922.485	251.25
1926.722	248.25
1930.954	249.25
1935.183	260.25
1939.408	260.25
1943.628	256.25
1947.845	260.25
1952.058	259.25
1956.267	263.25
1960.472	255.25
1964.673	254.25
1968.87	249.25
1973.063	245.25
1977.252	247.25
1981.438	243.25
1985.619	248.25
1989.797	256.25
1993.971	243.25
1998.14	252.25
2002.306	249.25
2006.469	250.25
2010.627	254.25
2014.781	251.25
2018.932	248.25
2023.078	255.25
2027.221	257.25
2031.36	258.25
2035.495	254.25
2039.627	250.25
2043.754	248.25
2047.878	241.25
2051.998	254.25
2056.114	250.25
2060.226	243.25
2064.334	256.25
2068.439	263.25
2072.54	260.25
2076.637	261.25
2080.73	269.25
2084.82	280.25
2088.906	276.25
2092.988	278.25
2097.066	269.25
2101.14	273.25
2105.211	273.25
2109.278	270.25
2113.342	271.25
2117.401	280.25
2121.457	275.25
2125.509	271.25
2129.558	260.25
2133.602	263.25
2137.643	258.25
2141.681	259.25
2145.714	256.25
2149.744	255.25
2153.77	250.25
2157.793	252.25
2161.812	247.25
2165.827	227.25
2169.838	231.25
2173.846	225.25
2177.851	223.25
2181.851	217.25
2185.848	206.25
2189.841	202.25
2193.831	200.25
2197.817	203.25
2201.799	195.25
2205.778	193.25
2209.753	190.25
2213.725	189.25
2217.693	190.25
2221.657	193.25
2225.618	188.25
2229.575	189.25
2233.529	187.25
2237.479	184.25
2241.425	172.25
2245.368	174.25
2249.307	174.25
2253.243	163.25
2257.175	157.25
2261.104	150.25
2265.029	157.25
2268.95	152.25
2272.868	152.25
2276.783	143.25
2280.694	139.25
2284.601	134.25
2288.505	143.25
2292.405	136.25
2296.302	128.25
2300.195	130.25
2304.085	122.25
2307.971	112.25
2311.854	115.25
2315.734	113.25
2319.609	118.25
2323.482	105.25
2327.351	108.25
2331.216	105.25
2335.078	101.25
2338.937	101.25
2342.792	97.25
2346.643	88.25
2350.492	87.25
2354.336	93.25
2358.178	87.25
2362.015	87.25
2365.85	97.25
2369.681	87.25
2373.508	83.25
2377.333	89.25
2381.153	78.25
2384.971	83.25
2388.785	90.25
2392.595	82.25
2396.402	86.25
2400.206	76.25
2404.007	78.25
2407.804	74.25
2411.597	76.25
2415.388	66.25
2419.174	75.25
2422.958	69.25
2426.738	68.25
2430.515	67.25
2434.289	69.25
2438.059	70.25
2441.825	68.25
2445.589	66.25
2449.349	61.25
2453.106	65.25
2456.859	58.25
2460.61	58.25
2464.356	54.25
2468.1	52.25
2471.84	52.25
2475.577	49.25
2479.311	54.25
2483.041	51.25
2486.768	56.25
2490.492	52.25
2494.213	51.25
2497.93	48.25
2501.644	50.25
2505.355	59.25
2509.062	50.25
2512.766	43.25
2516.467	48.25
2520.165	47.25
2523.859	54.25
2527.551	51.25
2531.239	45.25
2534.923	47.25
2538.605	42.25
2542.283	43.25
2545.958	49.25
2549.63	41.25
2553.299	43.25
2556.964	40.25
2560.626	42.25
2564.285	39.25
2567.941	40.25
2571.594	43.25
2575.243	39.25
2578.89	38.25
2582.533	38.25
2586.173	35.25
2589.809	39.25
2593.443	42.25
2597.073	31.25
2600.701	32.25
2604.325	36.25
2607.946	32.25
2611.564	33.25
2615.178	37.25
2618.79	32.25
2622.398	35.25
2626.004	29.25
2629.606	31.25
2633.205	32.25
2636.801	29.25
2640.394	28.25
2643.983	29.25
2647.57	28.25
2651.153	26.25
2654.734	22.25
2658.311	27.25
2661.885	22.25
2665.456	28.25
2669.025	23.25
2672.589	20.25
2676.151	18.25
2679.71	18.25
2683.266	20.25
2686.819	23.25
2690.368	20.25
2693.915	15.25
2697.458	13.25
2700.999	12.25
2704.536	18.25
2708.071	15.25
2711.602	11.25
2715.13	14.25
2718.656	16.25
2722.178	16.25
2725.697	21.25
2729.214	14.25
2732.727	10.25
2736.237	9.25
2739.744	21.25
2743.249	24.25
2746.75	20.25
2750.248	24.25
2753.743	18.25
2757.236	27.25
2760.725	25.25
2764.211	28.25
2767.695	28.25
2771.175	28.25
2774.652	30.25
2778.127	33.25
2781.598	31.25
2785.067	26.25
2788.532	36.25
2791.995	34.25
2795.455	37.25
2798.911	39.25
2802.365	38.25
2805.816	39.25
2809.264	36.25
2812.709	37.25
2816.151	43.25
2819.59	44.25
2823.026	45.25
2826.46	44.25
2829.89	49.25
2833.318	53.25
2836.742	46.25
2840.164	60.25
2843.583	59.25
2846.999	62.25
2850.412	62.25
2853.822	67.25
2857.229	64.25
2860.634	70.25
2864.035	71.25
2867.434	77.25
2870.83	81.25
2874.223	80.25
2877.613	82.25
2881	90.25
2884.385	87.25
2887.766	91.25
2891.145	93.25
2894.521	94.25
2897.894	93.25
2901.264	106.25
2904.631	104.25
2907.996	106.25
2911.358	112.25
2914.717	122.25
2918.073	123.25
2921.426	122.25
2924.777	125.25
2928.124	138.25
2931.469	136.25
2934.811	141.25
2938.15	155.25
2941.487	152.25
2944.821	164.25
2948.152	178.25
2951.48	173.25
2954.805	184.25
2958.128	184.25
2961.447	192.25
2964.765	190.25
2968.079	192.25
2971.39	210.25
2974.699	216.25
2978.005	229.25
2981.308	245.25
2984.609	256.25
2987.907	259.25
2991.202	277.25
2994.494	294.25
2997.784	304.25
3001.07	309.25
3004.355	314.25
3007.636	324.25
3010.915	342.25
3014.191	358.25
3017.464	364.25
3020.734	373.25
3024.002	381.25
3027.267	390.25
3030.53	398.25
3033.789	405.25
3037.046	421.25
3040.301	439.25
3043.552	448.25
3046.801	465.25
3050.048	474.25
3053.291	489.25
3056.532	513.25
3059.771	525.25
3063.006	536.25
3066.239	549.25
3069.469	579.25
3072.697	602.25
3075.922	607.25
3079.144	633.25
3082.364	663.25
3085.581	675.25
3088.795	696.25
3092.007	707.25
3095.216	742.25
3098.423	748.25
3101.627	780.25
3104.828	787.25
3108.026	809.25
3111.222	844.25
3114.416	852.25
3117.607	878.25
3120.795	897.25
3123.98	906.25
3127.163	938.25
3130.344	959.25
3133.521	981.25
3136.696	1013.25
3139.869	1024.25
3143.039	1035.25
3146.206	1049.25
3149.371	1096.25
3152.533	1106.25
3155.693	1108.25
3158.85	1114.25
3162.005	1115.25
3165.157	1119.25
3168.306	1138.25
3171.453	1150.25
3174.597	1131.25
3177.739	1151.25
3180.878	1158.25
3184.014	1147.25
3187.149	1166.25
3190.28	1164.25
3193.409	1184.25
3196.536	1183.25
3199.659	1192.25
3202.781	1171.25
3205.9	1179.25
3209.016	1190.25
3212.13	1181.25
3215.241	1178.25
3218.35	1162.25
3221.456	1171.25
3224.56	1159.25
3227.661	1165.25
3230.76	1145.25
3233.856	1136.25
3236.95	1119.25
3240.041	1116.25
3243.13	1125.25
3246.216	1105.25
3249.3	1101.25
3252.382	1109.25
3255.46	1097.25
3258.537	1092.25
3261.611	1089.25
3264.682	1083.25
3267.751	1077.25
3270.818	1077.25
3273.882	1078.25
3276.943	1061.25
3280.002	1060.25
3283.059	1060.25
3286.113	1038.25
3289.165	1036.25
3292.214	1008.25
3295.261	994.25
3298.306	970.25
3301.348	957.25
3304.387	933.25
3307.425	916.25
3310.459	927.25
3313.492	898.25
3316.521	903.25
3319.549	900.25
3322.574	880.25
3325.597	873.25
3328.617	868.25
3331.635	854.25
3334.65	858.25
3337.663	850.25
3340.674	850.25
3343.682	851.25
3346.688	844.25
3349.691	834.25
3352.692	835.25
3355.691	830.25
3358.687	825.25
3361.681	822.25
3364.673	795.25
3367.662	786.25
3370.649	791.25
3373.633	774.25
3376.615	764.25
3379.595	766.25
3382.572	747.25
3385.547	744.25
3388.52	732.25
3391.49	713.25
3394.458	710.25
3397.424	700.25
3400.387	693.25
3403.348	686.25
3406.307	679.25
3409.263	667.25
3412.217	666.25
3415.168	656.25
3418.118	659.25
3421.065	660.25
3424.009	631.25
3426.951	629.25
3429.891	611.25
3432.829	609.25
3435.764	587.25
3438.697	583.25
3441.628	572.25
3444.557	564.25
3447.483	538.25
3450.407	545.25
3453.328	513.25
3456.247	505.25
3459.164	478.25
3462.079	472.25
3464.991	452.25
3467.902	441.25
3470.809	424.25
3473.715	414.25
3476.618	410.25
3479.519	394.25
3482.418	386.25
3485.315	372.25
3488.209	364.25
3491.101	353.25
3493.99	346.25
3496.878	334.25
3499.763	316.25
3502.646	319.25
3505.527	308.25
3508.405	303.25
3511.281	281.25
3514.155	279.25
3517.027	258.25
3519.897	248.25
3522.764	237.25
3525.629	220.25
3528.492	210.25
3531.352	202.25
3534.211	191.25
3537.067	178.25
3539.921	164.25
3542.773	152.25
3545.622	147.25
3548.469	142.25
3551.315	137.25
3554.157	132.25
3556.998	117.25
3559.837	116.25
3562.673	103.25
3565.507	104.25
3568.339	96.25
3571.169	85.25
3573.996	82.25
3576.822	79.25
3579.645	74.25
3582.466	64.25
3585.285	58.25
3588.101	51.25
3590.916	49.25
3593.728	41.25
3596.538	35.25
3599.346	31.25
3602.152	33.25
3604.956	22.25
3607.757	15.25
3610.556	10.25
3613.354	13.25
3616.149	7.25
3618.942	-6.75
3621.732	-1.75
3624.521	-0.75
3627.307	-8.75
3630.092	-10.75
3632.874	-14.75
3635.654	-16.75
3638.432	-22.75
3641.208	-25.75
3643.982	-21.75
3646.753	-32.75
3649.523	-26.75
3652.29	-26.75
3655.055	-35.75
3657.818	-41.75
3660.579	-38.75
3663.338	-41.75
3666.095	-44.75
3668.849	-50.75
3671.602	-48.75
3674.352	-55.75
3677.101	-58.75
3679.847	-58.75
3682.591	-61.75
3685.333	-61.75
3688.073	-62.75
3690.811	-66.75
3693.547	-63.75
3696.281	-70.75
3699.013	-76.75
3701.742	-67.75
3704.47	-73.75
3707.195	-69.75
3709.919	-68.75
3712.64	-75.75
3715.359	-75.75
3718.076	-76.75
3720.792	-80.75
3723.505	-79.75
3726.216	-86.75
3728.925	-79.75
3731.632	-84.75
3734.336	-84.75
3737.039	-84.75
3739.74	-87.75
3742.439	-87.75
3745.136	-86.75
3747.83	-88.75
3750.523	-87.75
3753.213	-90.75
3755.902	-89.75
3758.589	-88.75
3761.273	-91.75
3763.956	-87.75
3766.636	-91.75
3769.315	-94.75
3771.991	-92.75
3774.665	-94.75
3777.338	-93.75
3780.008	-95.75
3782.677	-91.75
3785.343	-91.75
3788.007	-94.75
3790.67	-95.75
3793.33	-93.75
3795.989	-97.75
3798.645	-95.75
3801.299	-96.75
3803.952	-93.75
3806.602	-93.75
3809.251	-94.75
3811.897	-96.75
3814.542	-92.75
3817.184	-93.75
3819.825	-93.75
3822.463	-97.75
3825.1	-95.75
3827.735	-97.75
3830.367	-93.75
3832.998	-100.75
3835.627	-96.75
3838.253	-95.75
3840.878	-98.75
3843.501	-96.75
3846.122	-97.75
3848.741	-96.75
3851.358	-97.75
3853.973	-99.75
3856.586	-101.75
3859.197	-101.75
3861.806	-101.75
3864.414	-100.75
3867.019	-101.75
3869.622	-96.75
3872.224	-97.75
3874.823	-95.75
3877.421	-94.75
3880.016	-90.75
3882.61	-89.75
3885.202	-83.75
3887.792	-94.75
3890.38	-95.75
3892.966	-95.75
3895.55	-96.75
3898.132	-100.75
3900.713	-97.75
3903.291	-98.75
3905.868	-97.75
3908.442	-100.75
3911.015	-98.75
3913.586	-104.75
3916.155	-104.75
3918.722	-102.75
3921.287	-102.75
3923.85	-105.75
3926.411	-102.75
3928.971	-101.75
3931.528	-100.75
3934.084	-101.75
3936.638	-103.75
3939.19	-99.75
3941.74	-105.75
3944.288	-104.75
3946.834	-107.75
3949.378	-102.75
3951.921	-102.75
3954.462	-101.75
3957	-102.75
3959.537	-101.75
3962.072	-98.75
3964.606	-96.75
3967.137	-103.75
3969.667	-103.75
3972.194	-102.75
3974.72	-100.75
3977.244	-103.75
3979.766	-102.75
3982.286	-104.75
3984.805	-98.75
3987.321	-96.75
3989.836	-102.75
3992.349	-99.75
3994.86	-95.75
3997.369	-96.75
3999.877	-101.75
4002.382	-99.75
4004.886	-99.75
4007.388	-104.75
4009.888	-103.75
4012.386	-99.75
4014.883	-101.75
4017.377	-99.75
4019.87	-98.75
4022.361	-98.75
4024.85	-98.75
4027.338	-102.75
4029.823	-101.75
4032.307	-101.75
4034.789	-102.75
4037.269	-103.75
4039.747	-102.75
4042.224	-100.75
4044.699	-102.75
4047.172	-99.75
4049.643	-101.75
4052.112	-100.75
4054.58	-102.75
4057.046	-100.75
4059.51	-105.75
4061.972	-106.75
4064.432	-100.75
4066.891	-102.75
4069.348	-99.75
4071.803	-101.75
4074.256	-101.75
4076.708	-97.75
4079.158	-101.75
4081.606	-99.75
4084.052	-100.75
4086.497	-100.75
4088.939	-102.75
4091.38	-104.75
4093.819	-104.75
4096.257	-107.75
4098.693	-102.75
4101.127	-103.75
4103.559	-100.75
4105.989	-62.75
4108.418	-62.75
4110.845	-58.75
4113.27	-54.75
4115.694	-46.75
4118.115	-44.75
4120.535	-101.75
4122.954	-98.75
4125.37	-101.75
4127.785	-97.75
4130.198	-98.75
4132.609	-101.75
4135.019	-104.75
4137.427	-107.75
4139.833	-105.75
4142.237	-106.75
