Data from B_sub_water_10CFU1_RamanShift_1.txt Node
Date: Thu Feb 23 11:48:43 IST 2017
User: aro
Spectrometer: QEPB0276
Trigger mode: 0
Integration Time (sec): 5.000000E0
Scans to average: 1
Electric dark correction enabled: true
Nonlinearity correction enabled: false
Boxcar width: 0
XAxis mode: Raman Shifts
Number of Pixels in Spectrum: 1044
>>>>>Begin Spectral Data<<<<<
160.701	-30.88
166.742	0.12
172.777	89.12
178.805	370.12
184.826	1032.12
190.841	2143.12
196.849	3387.12
202.85	4217.12
208.845	4376.12
214.833	4230.12
220.815	4043.12
226.789	3911.12
232.758	3792.12
238.719	3671.12
244.674	3506.12
250.623	3366.12
256.565	3195.12
262.5	3040.12
268.429	2868.12
274.351	2754.12
280.267	2621.12
286.176	2513.12
292.079	2425.12
297.975	2333.12
303.865	2245.12
309.748	2178.12
315.625	2120.12
321.495	2078.12
327.359	2058.12
333.217	2030.12
339.068	2002.12
344.912	1990.12
350.751	1994.12
356.583	1996.12
362.408	1968.12
368.227	1981.12
374.04	1981.12
379.847	1990.12
385.647	2009.12
391.44	2020.12
397.228	2034.12
403.009	2050.12
408.784	2035.12
414.553	2038.12
420.315	2052.12
426.071	2045.12
431.821	2046.12
437.565	2044.12
443.302	2052.12
449.033	2043.12
454.758	2036.12
460.477	2025.12
466.189	1999.12
471.896	1972.12
477.596	1961.12
483.29	1966.12
488.978	1954.12
494.66	1938.12
500.335	1915.12
506.005	1874.12
511.668	1827.12
517.325	1779.12
522.977	1737.12
528.622	1710.12
534.261	1691.12
539.894	1673.12
545.521	1666.12
551.141	1645.12
556.756	1628.12
562.365	1618.12
567.968	1607.12
573.565	1592.12
579.155	1567.12
584.74	1556.12
590.319	1540.12
595.892	1533.12
601.459	1520.12
607.02	1516.12
612.575	1495.12
618.124	1476.12
623.667	1461.12
629.204	1436.12
634.735	1429.12
640.261	1415.12
645.781	1411.12
651.294	1398.12
656.802	1376.12
662.304	1357.12
667.8	1376.12
673.29	1346.12
678.775	1349.12
684.254	1352.12
689.726	1318.12
695.193	1302.12
700.655	1316.12
706.11	1284.12
711.56	1267.12
717.004	1287.12
722.442	1264.12
727.874	1254.12
733.301	1253.12
738.722	1229.12
744.137	1230.12
749.547	1212.12
754.951	1237.12
760.349	1216.12
765.741	1209.12
771.128	1198.12
776.509	1195.12
781.885	1196.12
787.254	1194.12
792.618	1197.12
797.977	1175.12
803.33	1172.12
808.677	1145.12
814.019	1128.12
819.355	1120.12
824.686	1097.12
830.011	1085.12
835.33	1077.12
840.644	1067.12
845.952	1069.12
851.255	1061.12
856.552	1045.12
861.844	1041.12
867.13	1028.12
872.41	1008.12
877.686	997.12
882.955	981.12
888.219	971.12
893.478	945.12
898.731	917.12
903.979	899.12
909.221	884.12
914.458	886.12
919.69	884.12
924.916	873.12
930.136	870.12
935.351	872.12
940.561	859.12
945.766	839.12
950.965	844.12
956.158	813.12
961.347	826.12
966.529	806.12
971.707	790.12
976.879	772.12
982.046	772.12
987.208	764.12
992.364	749.12
997.515	764.12
1002.66	766.12
1007.801	764.12
1012.936	769.12
1018.066	786.12
1023.19	790.12
1028.309	783.12
1033.423	780.12
1038.532	764.12
1043.636	762.12
1048.734	751.12
1053.827	753.12
1058.915	750.12
1063.998	730.12
1069.075	728.12
1074.147	728.12
1079.214	734.12
1084.276	735.12
1089.333	743.12
1094.385	746.12
1099.431	761.12
1104.472	752.12
1109.509	744.12
1114.54	714.12
1119.565	725.12
1124.586	710.12
1129.602	693.12
1134.613	690.12
1139.618	696.12
1144.619	688.12
1149.614	691.12
1154.604	695.12
1159.589	707.12
1164.57	698.12
1169.545	711.12
1174.515	705.12
1179.48	701.12
1184.44	692.12
1189.395	686.12
1194.345	700.12
1199.29	699.12
1204.23	690.12
1209.165	691.12
1214.095	694.12
1219.021	703.12
1223.941	718.12
1228.856	709.12
1233.766	705.12
1238.672	712.12
1243.572	706.12
1248.467	703.12
1253.358	683.12
1258.244	674.12
1263.124	669.12
1268	652.12
1272.871	652.12
1277.737	635.12
1282.599	646.12
1287.455	636.12
1292.306	632.12
1297.153	643.12
1301.995	654.12
1306.832	661.12
1311.664	659.12
1316.491	662.12
1321.314	651.12
1326.132	646.12
1330.945	625.12
1335.753	600.12
1340.556	601.12
1345.354	588.12
1350.148	584.12
1354.937	578.12
1359.722	575.12
1364.501	578.12
1369.276	590.12
1374.046	599.12
1378.811	608.12
1383.572	607.12
1388.327	610.12
1393.079	591.12
1397.825	584.12
1402.567	568.12
1407.304	568.12
1412.036	551.12
1416.764	564.12
1421.487	553.12
1426.205	566.12
1430.919	559.12
1435.628	549.12
1440.333	565.12
1445.032	563.12
1449.727	564.12
1454.418	567.12
1459.104	575.12
1463.785	571.12
1468.462	554.12
1473.134	558.12
1477.802	545.12
1482.465	535.12
1487.123	545.12
1491.777	548.12
1496.426	546.12
1501.071	559.12
1505.711	564.12
1510.347	588.12
1514.978	593.12
1519.604	613.12
1524.226	612.12
1528.844	618.12
1533.457	618.12
1538.065	614.12
1542.669	639.12
1547.269	617.12
1551.864	631.12
1556.454	641.12
1561.041	648.12
1565.622	656.12
1570.199	671.12
1574.772	688.12
1579.34	694.12
1583.904	720.12
1588.464	728.12
1593.019	753.12
1597.569	762.12
1602.115	782.12
1606.657	798.12
1611.195	814.12
1615.728	815.12
1620.256	836.12
1624.78	857.12
1629.3	863.12
1633.816	890.12
1638.327	916.12
1642.834	925.12
1647.336	922.12
1651.834	922.12
1656.328	925.12
1660.817	917.12
1665.302	889.12
1669.783	863.12
1674.259	831.12
1678.732	797.12
1683.199	759.12
1687.663	699.12
1692.122	676.12
1696.577	642.12
1701.028	610.12
1705.474	603.12
1709.917	592.12
1714.355	564.12
1718.788	545.12
1723.218	516.12
1727.643	481.12
1732.064	462.12
1736.481	444.12
1740.893	435.12
1745.301	413.12
1749.705	396.12
1754.105	380.12
1758.501	361.12
1762.893	357.12
1767.28	340.12
1771.663	328.12
1776.042	322.12
1780.417	308.12
1784.787	309.12
1789.154	306.12
1793.516	325.12
1797.874	327.12
1802.228	331.12
1806.578	321.12
1810.924	324.12
1815.266	319.12
1819.603	309.12
1823.937	296.12
1828.266	291.12
1832.591	283.12
1836.913	266.12
1841.23	267.12
1845.543	278.12
1849.852	278.12
1854.156	270.12
1858.457	272.12
1862.754	274.12
1867.047	272.12
1871.335	264.12
1875.62	271.12
1879.9	269.12
1884.177	269.12
1888.449	265.12
1892.718	268.12
1896.982	263.12
1901.243	272.12
1905.499	264.12
1909.752	270.12
1914	258.12
1918.245	272.12
1922.485	265.12
1926.722	271.12
1930.954	277.12
1935.183	277.12
1939.408	279.12
1943.628	284.12
1947.845	296.12
1952.058	297.12
1956.267	296.12
1960.472	289.12
1964.673	278.12
1968.87	276.12
1973.063	269.12
1977.252	279.12
1981.438	274.12
1985.619	278.12
1989.797	270.12
1993.971	280.12
1998.14	278.12
2002.306	283.12
2006.469	278.12
2010.627	284.12
2014.781	280.12
2018.932	276.12
2023.078	278.12
2027.221	282.12
2031.36	280.12
2035.495	283.12
2039.627	282.12
2043.754	272.12
2047.878	271.12
2051.998	274.12
2056.114	270.12
2060.226	282.12
2064.334	274.12
2068.439	284.12
2072.54	289.12
2076.637	297.12
2080.73	300.12
2084.82	304.12
2088.906	304.12
2092.988	300.12
2097.066	307.12
2101.14	296.12
2105.211	298.12
2109.278	299.12
2113.342	297.12
2117.401	292.12
2121.457	291.12
2125.509	284.12
2129.558	281.12
2133.602	294.12
2137.643	278.12
2141.681	283.12
2145.714	274.12
2149.744	271.12
2153.77	274.12
2157.793	274.12
2161.812	267.12
2165.827	255.12
2169.838	253.12
2173.846	249.12
2177.851	240.12
2181.851	240.12
2185.848	234.12
2189.841	236.12
2193.831	225.12
2197.817	222.12
2201.799	230.12
2205.778	220.12
2209.753	218.12
2213.725	218.12
2217.693	213.12
2221.657	214.12
2225.618	215.12
2229.575	212.12
2233.529	212.12
2237.479	210.12
2241.425	191.12
2245.368	200.12
2249.307	193.12
2253.243	184.12
2257.175	181.12
2261.104	178.12
2265.029	184.12
2268.95	168.12
2272.868	167.12
2276.783	170.12
2280.694	166.12
2284.601	154.12
2288.505	154.12
2292.405	153.12
2296.302	147.12
2300.195	153.12
2304.085	145.12
2307.971	136.12
2311.854	137.12
2315.734	126.12
2319.609	133.12
2323.482	130.12
2327.351	125.12
2331.216	134.12
2335.078	120.12
2338.937	120.12
2342.792	120.12
2346.643	113.12
2350.492	114.12
2354.336	113.12
2358.178	102.12
2362.015	105.12
2365.85	106.12
2369.681	106.12
2373.508	103.12
2377.333	109.12
2381.153	108.12
2384.971	100.12
2388.785	106.12
2392.595	103.12
2396.402	99.12
2400.206	98.12
2404.007	96.12
2407.804	97.12
2411.597	96.12
2415.388	89.12
2419.174	91.12
2422.958	88.12
2426.738	90.12
2430.515	91.12
2434.289	82.12
2438.059	82.12
2441.825	85.12
2445.589	92.12
2449.349	83.12
2453.106	79.12
2456.859	80.12
2460.61	79.12
2464.356	79.12
2468.1	74.12
2471.84	77.12
2475.577	74.12
2479.311	73.12
2483.041	75.12
2486.768	68.12
2490.492	72.12
2494.213	73.12
2497.93	71.12
2501.644	66.12
2505.355	75.12
2509.062	69.12
2512.766	67.12
2516.467	72.12
2520.165	66.12
2523.859	67.12
2527.551	68.12
2531.239	64.12
2534.923	60.12
2538.605	63.12
2542.283	61.12
2545.958	59.12
2549.63	66.12
2553.299	68.12
2556.964	64.12
2560.626	58.12
2564.285	57.12
2567.941	58.12
2571.594	51.12
2575.243	51.12
2578.89	55.12
2582.533	54.12
2586.173	56.12
2589.809	57.12
2593.443	57.12
2597.073	47.12
2600.701	50.12
2604.325	49.12
2607.946	52.12
2611.564	44.12
2615.178	52.12
2618.79	46.12
2622.398	45.12
2626.004	45.12
2629.606	50.12
2633.205	50.12
2636.801	42.12
2640.394	41.12
2643.983	45.12
2647.57	37.12
2651.153	41.12
2654.734	39.12
2658.311	40.12
2661.885	37.12
2665.456	33.12
2669.025	40.12
2672.589	39.12
2676.151	38.12
2679.71	38.12
2683.266	32.12
2686.819	35.12
2690.368	27.12
2693.915	34.12
2697.458	30.12
2700.999	22.12
2704.536	28.12
2708.071	27.12
2711.602	26.12
2715.13	28.12
2718.656	28.12
2722.178	25.12
2725.697	25.12
2729.214	26.12
2732.727	24.12
2736.237	24.12
2739.744	23.12
2743.249	30.12
2746.75	29.12
2750.248	34.12
2753.743	34.12
2757.236	39.12
2760.725	40.12
2764.211	41.12
2767.695	42.12
2771.175	38.12
2774.652	40.12
2778.127	40.12
2781.598	41.12
2785.067	38.12
2788.532	38.12
2791.995	45.12
2795.455	40.12
2798.911	43.12
2802.365	54.12
2805.816	51.12
2809.264	51.12
2812.709	47.12
2816.151	54.12
2819.59	54.12
2823.026	52.12
2826.46	50.12
2829.89	58.12
2833.318	62.12
2836.742	64.12
2840.164	65.12
2843.583	69.12
2846.999	72.12
2850.412	77.12
2853.822	70.12
2857.229	71.12
2860.634	84.12
2864.035	86.12
2867.434	86.12
2870.83	92.12
2874.223	90.12
2877.613	94.12
2881	102.12
2884.385	101.12
2887.766	103.12
2891.145	106.12
2894.521	106.12
2897.894	113.12
2901.264	118.12
2904.631	112.12
2907.996	123.12
2911.358	121.12
2914.717	125.12
2918.073	129.12
2921.426	134.12
2924.777	138.12
2928.124	143.12
2931.469	156.12
2934.811	155.12
2938.15	165.12
2941.487	172.12
2944.821	179.12
2948.152	178.12
2951.48	175.12
2954.805	187.12
2958.128	200.12
2961.447	200.12
2964.765	199.12
2968.079	208.12
2971.39	225.12
2974.699	224.12
2978.005	240.12
2981.308	253.12
2984.609	267.12
2987.907	269.12
2991.202	277.12
2994.494	292.12
2997.784	307.12
3001.07	319.12
3004.355	327.12
3007.636	344.12
3010.915	345.12
3014.191	356.12
3017.464	376.12
3020.734	379.12
3024.002	394.12
3027.267	397.12
3030.53	397.12
3033.789	420.12
3037.046	426.12
3040.301	437.12
3043.552	460.12
3046.801	465.12
3050.048	483.12
3053.291	499.12
3056.532	520.12
3059.771	524.12
3063.006	548.12
3066.239	581.12
3069.469	583.12
3072.697	609.12
3075.922	623.12
3079.144	641.12
3082.364	674.12
3085.581	681.12
3088.795	695.12
3092.007	721.12
3095.216	732.12
3098.423	759.12
3101.627	766.12
3104.828	805.12
3108.026	812.12
3111.222	832.12
3114.416	849.12
3117.607	873.12
3120.795	900.12
3123.98	925.12
3127.163	943.12
3130.344	978.12
3133.521	989.12
3136.696	1003.12
3139.869	1021.12
3143.039	1058.12
3146.206	1069.12
3149.371	1092.12
3152.533	1112.12
3155.693	1112.12
3158.85	1127.12
3162.005	1119.12
3165.157	1136.12
3168.306	1145.12
3171.453	1152.12
3174.597	1145.12
3177.739	1155.12
3180.878	1168.12
3184.014	1173.12
3187.149	1176.12
3190.28	1182.12
3193.409	1167.12
3196.536	1180.12
3199.659	1195.12
3202.781	1196.12
3205.9	1192.12
3209.016	1190.12
3212.13	1197.12
3215.241	1195.12
3218.35	1179.12
3221.456	1190.12
3224.56	1167.12
3227.661	1161.12
3230.76	1151.12
3233.856	1132.12
3236.95	1125.12
3240.041	1120.12
3243.13	1109.12
3246.216	1123.12
3249.3	1094.12
3252.382	1096.12
3255.46	1109.12
3258.537	1098.12
3261.611	1091.12
3264.682	1075.12
3267.751	1086.12
3270.818	1086.12
3273.882	1082.12
3276.943	1075.12
3280.002	1059.12
3283.059	1059.12
3286.113	1029.12
3289.165	1028.12
3292.214	1008.12
3295.261	993.12
3298.306	996.12
3301.348	966.12
3304.387	954.12
3307.425	927.12
3310.459	924.12
3313.492	916.12
3316.521	897.12
3319.549	895.12
3322.574	882.12
3325.597	883.12
3328.617	861.12
3331.635	862.12
3334.65	860.12
3337.663	858.12
3340.674	837.12
3343.682	854.12
3346.688	850.12
3349.691	836.12
3352.692	852.12
3355.691	836.12
3358.687	825.12
3361.681	813.12
3364.673	814.12
3367.662	790.12
3370.649	799.12
3373.633	772.12
3376.615	765.12
3379.595	758.12
3382.572	750.12
3385.547	738.12
3388.52	727.12
3391.49	721.12
3394.458	707.12
3397.424	699.12
3400.387	692.12
3403.348	677.12
3406.307	684.12
3409.263	664.12
3412.217	663.12
3415.168	659.12
3418.118	658.12
3421.065	655.12
3424.009	637.12
3426.951	633.12
3429.891	617.12
3432.829	602.12
3435.764	594.12
3438.697	573.12
3441.628	562.12
3444.557	556.12
3447.483	539.12
3450.407	517.12
3453.328	520.12
3456.247	496.12
3459.164	482.12
3462.079	477.12
3464.991	460.12
3467.902	440.12
3470.809	430.12
3473.715	426.12
3476.618	397.12
3479.519	394.12
3482.418	381.12
3485.315	371.12
3488.209	373.12
3491.101	351.12
3493.99	344.12
3496.878	325.12
3499.763	319.12
3502.646	314.12
3505.527	304.12
3508.405	293.12
3511.281	283.12
3514.155	275.12
3517.027	259.12
3519.897	251.12
3522.764	244.12
3525.629	222.12
3528.492	211.12
3531.352	199.12
3534.211	195.12
3537.067	179.12
3539.921	168.12
3542.773	154.12
3545.622	151.12
3548.469	137.12
3551.315	131.12
3554.157	129.12
3556.998	120.12
3559.837	118.12
3562.673	109.12
3565.507	104.12
3568.339	96.12
3571.169	92.12
3573.996	81.12
3576.822	82.12
3579.645	73.12
3582.466	61.12
3585.285	61.12
3588.101	50.12
3590.916	47.12
3593.728	38.12
3596.538	39.12
3599.346	31.12
3602.152	31.12
3604.956	23.12
3607.757	12.12
3610.556	13.12
3613.354	13.12
3616.149	5.12
3618.942	-1.88
3621.732	1.12
3624.521	-4.88
3627.307	-8.88
3630.092	-12.88
3632.874	-11.88
3635.654	-14.88
3638.432	-20.88
3641.208	-20.88
3643.982	-27.88
3646.753	-29.88
3649.523	-33.88
3652.29	-29.88
3655.055	-37.88
3657.818	-39.88
3660.579	-44.88
3663.338	-44.88
3666.095	-48.88
3668.849	-51.88
3671.602	-53.88
3674.352	-53.88
3677.101	-56.88
3679.847	-56.88
3682.591	-59.88
3685.333	-67.88
3688.073	-67.88
3690.811	-70.88
3693.547	-67.88
3696.281	-75.88
3699.013	-72.88
3701.742	-74.88
3704.47	-69.88
3707.195	-70.88
3709.919	-73.88
3712.64	-76.88
3715.359	-76.88
3718.076	-79.88
3720.792	-81.88
3723.505	-82.88
3726.216	-83.88
3728.925	-80.88
3731.632	-84.88
3734.336	-86.88
3737.039	-87.88
3739.74	-83.88
3742.439	-91.88
3745.136	-84.88
3747.83	-88.88
3750.523	-87.88
3753.213	-88.88
3755.902	-91.88
3758.589	-88.88
3761.273	-90.88
3763.956	-90.88
3766.636	-91.88
3769.315	-94.88
3771.991	-90.88
3774.665	-91.88
3777.338	-88.88
3780.008	-92.88
3782.677	-93.88
3785.343	-91.88
3788.007	-93.88
3790.67	-94.88
3793.33	-96.88
3795.989	-98.88
3798.645	-99.88
3801.299	-95.88
3803.952	-95.88
3806.602	-95.88
3809.251	-94.88
3811.897	-98.88
3814.542	-97.88
3817.184	-95.88
3819.825	-99.88
3822.463	-97.88
3825.1	-97.88
3827.735	-96.88
3830.367	-96.88
3832.998	-101.88
3835.627	-94.88
3838.253	-96.88
3840.878	-97.88
3843.501	-97.88
3846.122	-96.88
3848.741	-95.88
3851.358	-101.88
3853.973	-98.88
3856.586	-100.88
3859.197	-102.88
3861.806	-99.88
3864.414	-101.88
3867.019	-100.88
3869.622	-98.88
3872.224	-97.88
3874.823	-98.88
3877.421	-91.88
3880.016	-91.88
3882.61	-88.88
3885.202	-89.88
3887.792	-95.88
3890.38	-96.88
3892.966	-100.88
3895.55	-99.88
3898.132	-100.88
3900.713	-100.88
3903.291	-99.88
3905.868	-97.88
3908.442	-103.88
3911.015	-102.88
3913.586	-103.88
3916.155	-106.88
3918.722	-97.88
3921.287	-104.88
3923.85	-104.88
3926.411	-99.88
3928.971	-97.88
3931.528	-104.88
3934.084	-100.88
3936.638	-104.88
3939.19	-100.88
3941.74	-103.88
3944.288	-103.88
3946.834	-106.88
3949.378	-104.88
3951.921	-103.88
3954.462	-103.88
3957	-104.88
3959.537	-100.88
3962.072	-100.88
3964.606	-99.88
3967.137	-99.88
3969.667	-99.88
3972.194	-101.88
3974.72	-98.88
3977.244	-107.88
3979.766	-100.88
3982.286	-105.88
3984.805	-100.88
3987.321	-100.88
3989.836	-100.88
3992.349	-95.88
3994.86	-93.88
3997.369	-97.88
3999.877	-98.88
4002.382	-98.88
4004.886	-96.88
4007.388	-101.88
4009.888	-102.88
4012.386	-102.88
4014.883	-104.88
4017.377	-102.88
4019.87	-99.88
4022.361	-100.88
4024.85	-96.88
4027.338	-100.88
4029.823	-99.88
4032.307	-100.88
4034.789	-102.88
4037.269	-102.88
4039.747	-103.88
4042.224	-102.88
4044.699	-104.88
4047.172	-103.88
4049.643	-100.88
4052.112	-100.88
4054.58	-102.88
4057.046	-103.88
4059.51	-104.88
4061.972	-104.88
4064.432	-100.88
4066.891	-103.88
4069.348	-101.88
4071.803	-105.88
4074.256	-98.88
4076.708	-100.88
4079.158	-101.88
4081.606	-101.88
4084.052	-105.88
4086.497	-100.88
4088.939	-104.88
4091.38	-105.88
4093.819	-102.88
4096.257	-103.88
4098.693	-102.88
4101.127	-106.88
4103.559	-103.88
4105.989	-70.88
4108.418	-66.88
4110.845	-62.88
4113.27	-59.88
4115.694	-47.88
4118.115	-43.88
4120.535	-102.88
4122.954	-103.88
4125.37	-103.88
4127.785	-100.88
4130.198	-102.88
4132.609	-102.88
4135.019	-105.88
4137.427	-108.88
4139.833	-104.88
4142.237	-108.88
