Data from B_sub_water_0CFU2_RamanShift_1.txt Node
Date: Thu Feb 23 11:46:23 IST 2017
User: aro
Spectrometer: QEPB0276
Trigger mode: 0
Integration Time (sec): 5.000000E0
Scans to average: 1
Electric dark correction enabled: true
Nonlinearity correction enabled: false
Boxcar width: 0
XAxis mode: Raman Shifts
Number of Pixels in Spectrum: 1044
>>>>>Begin Spectral Data<<<<<
160.701	-27.75
166.742	2.25
172.777	89.25
178.805	366.25
184.826	1027.25
190.841	2118.25
196.849	3344.25
202.85	4181.25
208.845	4332.25
214.833	4225.25
220.815	4057.25
226.789	3940.25
232.758	3825.25
238.719	3705.25
244.674	3603.25
250.623	3442.25
256.565	3290.25
262.5	3147.25
268.429	3039.25
274.351	2895.25
280.267	2783.25
286.176	2679.25
292.079	2605.25
297.975	2522.25
303.865	2469.25
309.748	2408.25
315.625	2354.25
321.495	2315.25
327.359	2268.25
333.217	2257.25
339.068	2231.25
344.912	2230.25
350.751	2210.25
356.583	2202.25
362.408	2193.25
368.227	2190.25
374.04	2198.25
379.847	2221.25
385.647	2229.25
391.44	2233.25
397.228	2239.25
403.009	2271.25
408.784	2264.25
414.553	2270.25
420.315	2285.25
426.071	2271.25
431.821	2278.25
437.565	2270.25
443.302	2273.25
449.033	2267.25
454.758	2247.25
460.477	2243.25
466.189	2260.25
471.896	2244.25
477.596	2222.25
483.29	2216.25
488.978	2192.25
494.66	2194.25
500.335	2166.25
506.005	2145.25
511.668	2098.25
517.325	2050.25
522.977	2008.25
528.622	1997.25
534.261	1957.25
539.894	1950.25
545.521	1946.25
551.141	1928.25
556.756	1894.25
562.365	1919.25
567.968	1899.25
573.565	1885.25
579.155	1872.25
584.74	1851.25
590.319	1817.25
595.892	1841.25
601.459	1819.25
607.02	1799.25
612.575	1794.25
618.124	1776.25
623.667	1763.25
629.204	1748.25
634.735	1745.25
640.261	1723.25
645.781	1705.25
651.294	1693.25
656.802	1681.25
662.304	1665.25
667.8	1674.25
673.29	1657.25
678.775	1684.25
684.254	1649.25
689.726	1654.25
695.193	1650.25
700.655	1624.25
706.11	1639.25
711.56	1600.25
717.004	1591.25
722.442	1590.25
727.874	1574.25
733.301	1575.25
738.722	1558.25
744.137	1555.25
749.547	1547.25
754.951	1554.25
760.349	1547.25
765.741	1538.25
771.128	1540.25
776.509	1541.25
781.885	1521.25
787.254	1538.25
792.618	1518.25
797.977	1508.25
803.33	1501.25
808.677	1490.25
814.019	1480.25
819.355	1462.25
824.686	1437.25
830.011	1438.25
835.33	1438.25
840.644	1422.25
845.952	1413.25
851.255	1411.25
856.552	1384.25
861.844	1390.25
867.13	1378.25
872.41	1368.25
877.686	1369.25
882.955	1356.25
888.219	1326.25
893.478	1308.25
898.731	1291.25
903.979	1269.25
909.221	1261.25
914.458	1248.25
919.69	1242.25
924.916	1256.25
930.136	1250.25
935.351	1233.25
940.561	1229.25
945.766	1235.25
950.965	1222.25
956.158	1210.25
961.347	1196.25
966.529	1181.25
971.707	1167.25
976.879	1164.25
982.046	1153.25
987.208	1125.25
992.364	1131.25
997.515	1142.25
1002.66	1145.25
1007.801	1156.25
1012.936	1167.25
1018.066	1172.25
1023.19	1177.25
1028.309	1196.25
1033.423	1184.25
1038.532	1174.25
1043.636	1174.25
1048.734	1151.25
1053.827	1146.25
1058.915	1116.25
1063.998	1102.25
1069.075	1120.25
1074.147	1113.25
1079.214	1124.25
1084.276	1137.25
1089.333	1129.25
1094.385	1150.25
1099.431	1136.25
1104.472	1153.25
1109.509	1153.25
1114.54	1125.25
1119.565	1106.25
1124.586	1097.25
1129.602	1082.25
1134.613	1072.25
1139.618	1071.25
1144.619	1082.25
1149.614	1096.25
1154.604	1095.25
1159.589	1097.25
1164.57	1105.25
1169.545	1107.25
1174.515	1090.25
1179.48	1095.25
1184.44	1088.25
1189.395	1075.25
1194.345	1083.25
1199.29	1085.25
1204.23	1072.25
1209.165	1070.25
1214.095	1089.25
1219.021	1098.25
1223.941	1118.25
1228.856	1107.25
1233.766	1108.25
1238.672	1105.25
1243.572	1103.25
1248.467	1114.25
1253.358	1091.25
1258.244	1075.25
1263.124	1066.25
1268	1036.25
1272.871	1039.25
1277.737	1018.25
1282.599	1011.25
1287.455	1028.25
1292.306	1026.25
1297.153	1021.25
1301.995	1041.25
1306.832	1036.25
1311.664	1058.25
1316.491	1060.25
1321.314	1038.25
1326.132	1023.25
1330.945	1022.25
1335.753	989.25
1340.556	979.25
1345.354	951.25
1350.148	933.25
1354.937	930.25
1359.722	924.25
1364.501	935.25
1369.276	968.25
1374.046	977.25
1378.811	993.25
1383.572	991.25
1388.327	991.25
1393.079	970.25
1397.825	953.25
1402.567	942.25
1407.304	925.25
1412.036	916.25
1416.764	907.25
1421.487	916.25
1426.205	906.25
1430.919	929.25
1435.628	923.25
1440.333	935.25
1445.032	926.25
1449.727	933.25
1454.418	945.25
1459.104	945.25
1463.785	938.25
1468.462	907.25
1473.134	903.25
1477.802	911.25
1482.465	911.25
1487.123	891.25
1491.777	908.25
1496.426	913.25
1501.071	914.25
1505.711	930.25
1510.347	943.25
1514.978	955.25
1519.604	978.25
1524.226	975.25
1528.844	987.25
1533.457	990.25
1538.065	1000.25
1542.669	993.25
1547.269	990.25
1551.864	996.25
1556.454	992.25
1561.041	1012.25
1565.622	1015.25
1570.199	1020.25
1574.772	1037.25
1579.34	1054.25
1583.904	1069.25
1588.464	1085.25
1593.019	1096.25
1597.569	1109.25
1602.115	1131.25
1606.657	1121.25
1611.195	1130.25
1615.728	1146.25
1620.256	1154.25
1624.78	1169.25
1629.3	1192.25
1633.816	1204.25
1638.327	1228.25
1642.834	1226.25
1647.336	1248.25
1651.834	1232.25
1656.328	1241.25
1660.817	1229.25
1665.302	1224.25
1669.783	1198.25
1674.259	1155.25
1678.732	1111.25
1683.199	1086.25
1687.663	1038.25
1692.122	984.25
1696.577	948.25
1701.028	941.25
1705.474	935.25
1709.917	918.25
1714.355	902.25
1718.788	876.25
1723.218	851.25
1727.643	831.25
1732.064	809.25
1736.481	777.25
1740.893	758.25
1745.301	730.25
1749.705	715.25
1754.105	695.25
1758.501	673.25
1762.893	666.25
1767.28	650.25
1771.663	647.25
1776.042	635.25
1780.417	626.25
1784.787	633.25
1789.154	627.25
1793.516	652.25
1797.874	657.25
1802.228	657.25
1806.578	667.25
1810.924	656.25
1815.266	644.25
1819.603	638.25
1823.937	628.25
1828.266	618.25
1832.591	608.25
1836.913	602.25
1841.23	593.25
1845.543	580.25
1849.852	586.25
1854.156	591.25
1858.457	579.25
1862.754	598.25
1867.047	587.25
1871.335	590.25
1875.62	593.25
1879.9	596.25
1884.177	585.25
1888.449	599.25
1892.718	587.25
1896.982	577.25
1901.243	580.25
1905.499	575.25
1909.752	574.25
1914	582.25
1918.245	584.25
1922.485	597.25
1926.722	586.25
1930.954	605.25
1935.183	605.25
1939.408	604.25
1943.628	615.25
1947.845	613.25
1952.058	620.25
1956.267	614.25
1960.472	613.25
1964.673	594.25
1968.87	599.25
1973.063	590.25
1977.252	581.25
1981.438	586.25
1985.619	582.25
1989.797	568.25
1993.971	575.25
1998.14	571.25
2002.306	569.25
2006.469	577.25
2010.627	569.25
2014.781	586.25
2018.932	572.25
2023.078	587.25
2027.221	579.25
2031.36	561.25
2035.495	561.25
2039.627	558.25
2043.754	558.25
2047.878	558.25
2051.998	554.25
2056.114	550.25
2060.226	556.25
2064.334	565.25
2068.439	571.25
2072.54	566.25
2076.637	568.25
2080.73	579.25
2084.82	577.25
2088.906	587.25
2092.988	582.25
2097.066	582.25
2101.14	577.25
2105.211	575.25
2109.278	566.25
2113.342	564.25
2117.401	565.25
2121.457	570.25
2125.509	566.25
2129.558	551.25
2133.602	550.25
2137.643	555.25
2141.681	551.25
2145.714	546.25
2149.744	551.25
2153.77	545.25
2157.793	536.25
2161.812	537.25
2165.827	518.25
2169.838	519.25
2173.846	504.25
2177.851	501.25
2181.851	495.25
2185.848	472.25
2189.841	482.25
2193.831	479.25
2197.817	475.25
2201.799	472.25
2205.778	467.25
2209.753	474.25
2213.725	467.25
2217.693	457.25
2221.657	460.25
2225.618	459.25
2229.575	459.25
2233.529	458.25
2237.479	450.25
2241.425	444.25
2245.368	440.25
2249.307	438.25
2253.243	426.25
2257.175	419.25
2261.104	411.25
2265.029	404.25
2268.95	403.25
2272.868	405.25
2276.783	394.25
2280.694	396.25
2284.601	387.25
2288.505	380.25
2292.405	388.25
2296.302	376.25
2300.195	377.25
2304.085	366.25
2307.971	362.25
2311.854	352.25
2315.734	342.25
2319.609	341.25
2323.482	331.25
2327.351	336.25
2331.216	332.25
2335.078	322.25
2338.937	326.25
2342.792	329.25
2346.643	314.25
2350.492	318.25
2354.336	321.25
2358.178	313.25
2362.015	321.25
2365.85	315.25
2369.681	315.25
2373.508	313.25
2377.333	321.25
2381.153	324.25
2384.971	312.25
2388.785	318.25
2392.595	310.25
2396.402	297.25
2400.206	307.25
2404.007	293.25
2407.804	291.25
2411.597	301.25
2415.388	288.25
2419.174	305.25
2422.958	291.25
2426.738	290.25
2430.515	294.25
2434.289	293.25
2438.059	290.25
2441.825	284.25
2445.589	278.25
2449.349	280.25
2453.106	278.25
2456.859	279.25
2460.61	271.25
2464.356	264.25
2468.1	268.25
2471.84	264.25
2475.577	256.25
2479.311	268.25
2483.041	263.25
2486.768	264.25
2490.492	258.25
2494.213	261.25
2497.93	276.25
2501.644	264.25
2505.355	261.25
2509.062	260.25
2512.766	263.25
2516.467	263.25
2520.165	263.25
2523.859	258.25
2527.551	248.25
2531.239	246.25
2534.923	248.25
2538.605	247.25
2542.283	239.25
2545.958	247.25
2549.63	254.25
2553.299	246.25
2556.964	245.25
2560.626	243.25
2564.285	231.25
2567.941	238.25
2571.594	223.25
2575.243	232.25
2578.89	232.25
2582.533	237.25
2586.173	230.25
2589.809	234.25
2593.443	232.25
2597.073	224.25
2600.701	228.25
2604.325	229.25
2607.946	217.25
2611.564	219.25
2615.178	223.25
2618.79	225.25
2622.398	222.25
2626.004	220.25
2629.606	216.25
2633.205	221.25
2636.801	206.25
2640.394	211.25
2643.983	205.25
2647.57	196.25
2651.153	199.25
2654.734	197.25
2658.311	197.25
2661.885	199.25
2665.456	190.25
2669.025	191.25
2672.589	184.25
2676.151	188.25
2679.71	184.25
2683.266	185.25
2686.819	189.25
2690.368	178.25
2693.915	175.25
2697.458	167.25
2700.999	169.25
2704.536	170.25
2708.071	166.25
2711.602	169.25
2715.13	163.25
2718.656	164.25
2722.178	166.25
2725.697	156.25
2729.214	165.25
2732.727	158.25
2736.237	161.25
2739.744	167.25
2743.249	165.25
2746.75	164.25
2750.248	173.25
2753.743	172.25
2757.236	171.25
2760.725	168.25
2764.211	172.25
2767.695	171.25
2771.175	169.25
2774.652	176.25
2778.127	173.25
2781.598	178.25
2785.067	173.25
2788.532	172.25
2791.995	173.25
2795.455	176.25
2798.911	174.25
2802.365	176.25
2805.816	171.25
2809.264	164.25
2812.709	176.25
2816.151	173.25
2819.59	175.25
2823.026	168.25
2826.46	170.25
2829.89	171.25
2833.318	171.25
2836.742	178.25
2840.164	176.25
2843.583	180.25
2846.999	183.25
2850.412	183.25
2853.822	189.25
2857.229	181.25
2860.634	193.25
2864.035	195.25
2867.434	198.25
2870.83	189.25
2874.223	203.25
2877.613	195.25
2881	210.25
2884.385	197.25
2887.766	205.25
2891.145	204.25
2894.521	207.25
2897.894	204.25
2901.264	207.25
2904.631	209.25
2907.996	208.25
2911.358	212.25
2914.717	209.25
2918.073	220.25
2921.426	220.25
2924.777	219.25
2928.124	228.25
2931.469	233.25
2934.811	230.25
2938.15	247.25
2941.487	251.25
2944.821	257.25
2948.152	253.25
2951.48	264.25
2954.805	261.25
2958.128	259.25
2961.447	266.25
2964.765	269.25
2968.079	276.25
2971.39	279.25
2974.699	294.25
2978.005	308.25
2981.308	311.25
2984.609	330.25
2987.907	340.25
2991.202	341.25
2994.494	353.25
2997.784	363.25
3001.07	372.25
3004.355	394.25
3007.636	400.25
3010.915	405.25
3014.191	419.25
3017.464	424.25
3020.734	425.25
3024.002	445.25
3027.267	449.25
3030.53	448.25
3033.789	449.25
3037.046	470.25
3040.301	472.25
3043.552	488.25
3046.801	499.25
3050.048	507.25
3053.291	529.25
3056.532	538.25
3059.771	559.25
3063.006	566.25
3066.239	589.25
3069.469	593.25
3072.697	629.25
3075.922	633.25
3079.144	657.25
3082.364	687.25
3085.581	693.25
3088.795	703.25
3092.007	716.25
3095.216	735.25
3098.423	749.25
3101.627	776.25
3104.828	794.25
3108.026	810.25
3111.222	811.25
3114.416	835.25
3117.607	870.25
3120.795	878.25
3123.98	914.25
3127.163	917.25
3130.344	946.25
3133.521	975.25
3136.696	992.25
3139.869	992.25
3143.039	1011.25
3146.206	1047.25
3149.371	1056.25
3152.533	1057.25
3155.693	1061.25
3158.85	1076.25
3162.005	1089.25
3165.157	1084.25
3168.306	1095.25
3171.453	1101.25
3174.597	1098.25
3177.739	1110.25
3180.878	1112.25
3184.014	1115.25
3187.149	1114.25
3190.28	1120.25
3193.409	1139.25
3196.536	1129.25
3199.659	1131.25
3202.781	1135.25
3205.9	1139.25
3209.016	1135.25
3212.13	1138.25
3215.241	1134.25
3218.35	1126.25
3221.456	1123.25
3224.56	1112.25
3227.661	1096.25
3230.76	1091.25
3233.856	1087.25
3236.95	1071.25
3240.041	1056.25
3243.13	1057.25
3246.216	1053.25
3249.3	1064.25
3252.382	1040.25
3255.46	1042.25
3258.537	1039.25
3261.611	1027.25
3264.682	1039.25
3267.751	1027.25
3270.818	1023.25
3273.882	1029.25
3276.943	1015.25
3280.002	1013.25
3283.059	994.25
3286.113	987.25
3289.165	976.25
3292.214	957.25
3295.261	941.25
3298.306	935.25
3301.348	916.25
3304.387	910.25
3307.425	886.25
3310.459	882.25
3313.492	866.25
3316.521	854.25
3319.549	839.25
3322.574	839.25
3325.597	819.25
3328.617	816.25
3331.635	818.25
3334.65	810.25
3337.663	801.25
3340.674	801.25
3343.682	808.25
3346.688	796.25
3349.691	803.25
3352.692	789.25
3355.691	784.25
3358.687	773.25
3361.681	766.25
3364.673	760.25
3367.662	747.25
3370.649	729.25
3373.633	730.25
3376.615	721.25
3379.595	718.25
3382.572	709.25
3385.547	701.25
3388.52	689.25
3391.49	667.25
3394.458	673.25
3397.424	663.25
3400.387	644.25
3403.348	643.25
3406.307	637.25
3409.263	628.25
3412.217	629.25
3415.168	607.25
3418.118	617.25
3421.065	605.25
3424.009	585.25
3426.951	595.25
3429.891	580.25
3432.829	570.25
3435.764	558.25
3438.697	548.25
3441.628	532.25
3444.557	519.25
3447.483	520.25
3450.407	491.25
3453.328	477.25
3456.247	474.25
3459.164	456.25
3462.079	441.25
3464.991	423.25
3467.902	406.25
3470.809	403.25
3473.715	390.25
3476.618	394.25
3479.519	384.25
3482.418	358.25
3485.315	348.25
3488.209	336.25
3491.101	326.25
3493.99	327.25
3496.878	315.25
3499.763	309.25
3502.646	298.25
3505.527	290.25
3508.405	268.25
3511.281	269.25
3514.155	260.25
3517.027	247.25
3519.897	235.25
3522.764	231.25
3525.629	212.25
3528.492	200.25
3531.352	188.25
3534.211	171.25
3537.067	165.25
3539.921	150.25
3542.773	150.25
3545.622	143.25
3548.469	134.25
3551.315	130.25
3554.157	120.25
3556.998	108.25
3559.837	105.25
3562.673	102.25
3565.507	93.25
3568.339	90.25
3571.169	84.25
3573.996	80.25
3576.822	74.25
3579.645	69.25
3582.466	57.25
3585.285	56.25
3588.101	46.25
3590.916	44.25
3593.728	34.25
3596.538	32.25
3599.346	27.25
3602.152	25.25
3604.956	24.25
3607.757	18.25
3610.556	12.25
3613.354	8.25
3616.149	4.25
3618.942	3.25
3621.732	-3.75
3624.521	-9.75
3627.307	-5.75
3630.092	-13.75
3632.874	-14.75
3635.654	-16.75
3638.432	-16.75
3641.208	-17.75
3643.982	-23.75
3646.753	-32.75
3649.523	-28.75
3652.29	-33.75
3655.055	-38.75
3657.818	-36.75
3660.579	-43.75
3663.338	-45.75
3666.095	-45.75
3668.849	-48.75
3671.602	-47.75
3674.352	-52.75
3677.101	-52.75
3679.847	-54.75
3682.591	-61.75
3685.333	-63.75
3688.073	-63.75
3690.811	-67.75
3693.547	-69.75
3696.281	-67.75
3699.013	-67.75
3701.742	-66.75
3704.47	-72.75
3707.195	-68.75
3709.919	-64.75
3712.64	-71.75
3715.359	-76.75
3718.076	-73.75
3720.792	-77.75
3723.505	-82.75
3726.216	-83.75
3728.925	-77.75
3731.632	-80.75
3734.336	-80.75
3737.039	-80.75
3739.74	-82.75
3742.439	-87.75
3745.136	-82.75
3747.83	-84.75
3750.523	-86.75
3753.213	-86.75
3755.902	-88.75
3758.589	-86.75
3761.273	-86.75
3763.956	-83.75
3766.636	-86.75
3769.315	-90.75
3771.991	-89.75
3774.665	-90.75
3777.338	-89.75
3780.008	-89.75
3782.677	-90.75
3785.343	-90.75
3788.007	-92.75
3790.67	-90.75
3793.33	-87.75
3795.989	-94.75
3798.645	-93.75
3801.299	-94.75
3803.952	-94.75
3806.602	-90.75
3809.251	-94.75
3811.897	-95.75
3814.542	-92.75
3817.184	-95.75
3819.825	-92.75
3822.463	-94.75
3825.1	-91.75
3827.735	-94.75
3830.367	-90.75
3832.998	-99.75
3835.627	-94.75
3838.253	-100.75
3840.878	-96.75
3843.501	-96.75
3846.122	-97.75
3848.741	-93.75
3851.358	-95.75
3853.973	-89.75
3856.586	-96.75
3859.197	-99.75
3861.806	-98.75
3864.414	-100.75
3867.019	-102.75
3869.622	-100.75
3872.224	-95.75
3874.823	-96.75
3877.421	-91.75
3880.016	-90.75
3882.61	-82.75
3885.202	-83.75
3887.792	-89.75
3890.38	-92.75
3892.966	-98.75
3895.55	-100.75
3898.132	-99.75
3900.713	-99.75
3903.291	-99.75
3905.868	-96.75
3908.442	-96.75
3911.015	-94.75
3913.586	-98.75
3916.155	-102.75
3918.722	-96.75
3921.287	-101.75
3923.85	-100.75
3926.411	-103.75
3928.971	-103.75
3931.528	-102.75
3934.084	-100.75
3936.638	-102.75
3939.19	-97.75
3941.74	-100.75
3944.288	-101.75
3946.834	-101.75
3949.378	-102.75
3951.921	-104.75
3954.462	-103.75
3957	-104.75
3959.537	-102.75
3962.072	-100.75
3964.606	-98.75
3967.137	-97.75
3969.667	-97.75
3972.194	-101.75
3974.72	-98.75
3977.244	-104.75
3979.766	-103.75
3982.286	-105.75
3984.805	-101.75
3987.321	-97.75
3989.836	-97.75
3992.349	-94.75
3994.86	-94.75
3997.369	-96.75
3999.877	-97.75
4002.382	-99.75
4004.886	-98.75
4007.388	-102.75
4009.888	-100.75
4012.386	-99.75
4014.883	-103.75
4017.377	-100.75
4019.87	-97.75
4022.361	-100.75
4024.85	-95.75
4027.338	-100.75
4029.823	-98.75
4032.307	-101.75
4034.789	-102.75
4037.269	-102.75
4039.747	-100.75
4042.224	-100.75
4044.699	-102.75
4047.172	-99.75
4049.643	-99.75
4052.112	-98.75
4054.58	-99.75
4057.046	-102.75
4059.51	-104.75
4061.972	-106.75
4064.432	-100.75
4066.891	-100.75
4069.348	-98.75
4071.803	-101.75
4074.256	-98.75
4076.708	-95.75
4079.158	-100.75
4081.606	-99.75
4084.052	-102.75
4086.497	-100.75
4088.939	-104.75
4091.38	-102.75
4093.819	-104.75
4096.257	-106.75
4098.693	-104.75
4101.127	-105.75
4103.559	-104.75
4105.989	-68.75
4108.418	-60.75
4110.845	-57.75
4113.27	-54.75
4115.694	-51.75
4118.115	-40.75
4120.535	-101.75
4122.954	-97.75
4125.37	-98.75
4127.785	-97.75
4130.198	-98.75
4132.609	-100.75
4135.019	-107.75
4137.427	-107.75
4139.833	-105.75
4142.237	-108.75
