Data from 0CFU_3_RamanShift_1.txt Node
Date: Tue Jan 24 17:07:36 IST 2017
User: aro
Spectrometer: QEPB0276
Trigger mode: 0
Integration Time (sec): 5.000000E0
Scans to average: 1
Electric dark correction enabled: true
Nonlinearity correction enabled: false
Boxcar width: 0
XAxis mode: Raman Shifts
Number of Pixels in Spectrum: 1044
>>>>>Begin Spectral Data<<<<<
160.701	-31.75
166.742	-0.75
172.777	90.25
178.805	387.25
184.826	1056.25
190.841	2185.25
196.849	3439.25
202.85	4224.25
208.845	4391.25
214.833	4280.25
220.815	4089.25
226.789	3978.25
232.758	3857.25
238.719	3765.25
244.674	3630.25
250.623	3464.25
256.565	3341.25
262.5	3140.25
268.429	3017.25
274.351	2915.25
280.267	2790.25
286.176	2719.25
292.079	2607.25
297.975	2520.25
303.865	2450.25
309.748	2381.25
315.625	2318.25
321.495	2278.25
327.359	2261.25
333.217	2212.25
339.068	2201.25
344.912	2184.25
350.751	2177.25
356.583	2158.25
362.408	2167.25
368.227	2200.25
374.04	2188.25
379.847	2188.25
385.647	2214.25
391.44	2205.25
397.228	2220.25
403.009	2234.25
408.784	2239.25
414.553	2246.25
420.315	2260.25
426.071	2268.25
431.821	2254.25
437.565	2256.25
443.302	2239.25
449.033	2243.25
454.758	2245.25
460.477	2229.25
466.189	2214.25
471.896	2220.25
477.596	2212.25
483.29	2193.25
488.978	2186.25
494.66	2177.25
500.335	2141.25
506.005	2097.25
511.668	2079.25
517.325	2028.25
522.977	2007.25
528.622	1938.25
534.261	1965.25
539.894	1917.25
545.521	1901.25
551.141	1902.25
556.756	1878.25
562.365	1868.25
567.968	1863.25
573.565	1862.25
579.155	1861.25
584.74	1819.25
590.319	1824.25
595.892	1829.25
601.459	1816.25
607.02	1783.25
612.575	1778.25
618.124	1751.25
623.667	1723.25
629.204	1726.25
634.735	1703.25
640.261	1679.25
645.781	1679.25
651.294	1662.25
656.802	1664.25
662.304	1659.25
667.8	1658.25
673.29	1652.25
678.775	1643.25
684.254	1662.25
689.726	1651.25
695.193	1621.25
700.655	1629.25
706.11	1610.25
711.56	1597.25
717.004	1571.25
722.442	1572.25
727.874	1563.25
733.301	1567.25
738.722	1539.25
744.137	1542.25
749.547	1548.25
754.951	1536.25
760.349	1548.25
765.741	1532.25
771.128	1547.25
776.509	1537.25
781.885	1532.25
787.254	1522.25
792.618	1510.25
797.977	1526.25
803.33	1504.25
808.677	1472.25
814.019	1488.25
819.355	1466.25
824.686	1447.25
830.011	1439.25
835.33	1432.25
840.644	1423.25
845.952	1403.25
851.255	1408.25
856.552	1394.25
861.844	1408.25
867.13	1385.25
872.41	1389.25
877.686	1368.25
882.955	1348.25
888.219	1340.25
893.478	1301.25
898.731	1304.25
903.979	1278.25
909.221	1268.25
914.458	1263.25
919.69	1259.25
924.916	1246.25
930.136	1249.25
935.351	1241.25
940.561	1242.25
945.766	1231.25
950.965	1240.25
956.158	1223.25
961.347	1203.25
966.529	1184.25
971.707	1172.25
976.879	1158.25
982.046	1153.25
987.208	1156.25
992.364	1152.25
997.515	1153.25
1002.66	1157.25
1007.801	1171.25
1012.936	1177.25
1018.066	1194.25
1023.19	1199.25
1028.309	1198.25
1033.423	1212.25
1038.532	1183.25
1043.636	1175.25
1048.734	1158.25
1053.827	1147.25
1058.915	1144.25
1063.998	1134.25
1069.075	1135.25
1074.147	1127.25
1079.214	1130.25
1084.276	1155.25
1089.333	1154.25
1094.385	1155.25
1099.431	1170.25
1104.472	1167.25
1109.509	1164.25
1114.54	1165.25
1119.565	1138.25
1124.586	1119.25
1129.602	1107.25
1134.613	1117.25
1139.618	1108.25
1144.619	1114.25
1149.614	1102.25
1154.604	1109.25
1159.589	1134.25
1164.57	1126.25
1169.545	1127.25
1174.515	1134.25
1179.48	1118.25
1184.44	1122.25
1189.395	1114.25
1194.345	1089.25
1199.29	1103.25
1204.23	1105.25
1209.165	1126.25
1214.095	1130.25
1219.021	1127.25
1223.941	1147.25
1228.856	1141.25
1233.766	1155.25
1238.672	1152.25
1243.572	1130.25
1248.467	1151.25
1253.358	1116.25
1258.244	1106.25
1263.124	1101.25
1268	1079.25
1272.871	1079.25
1277.737	1082.25
1282.599	1068.25
1287.455	1069.25
1292.306	1075.25
1297.153	1089.25
1301.995	1072.25
1306.832	1079.25
1311.664	1081.25
1316.491	1092.25
1321.314	1100.25
1326.132	1079.25
1330.945	1063.25
1335.753	1057.25
1340.556	1064.25
1345.354	1048.25
1350.148	1033.25
1354.937	1023.25
1359.722	1014.25
1364.501	1010.25
1369.276	996.25
1374.046	986.25
1378.811	981.25
1383.572	976.25
1388.327	975.25
1393.079	985.25
1397.825	979.25
1402.567	960.25
1407.304	973.25
1412.036	967.25
1416.764	953.25
1421.487	945.25
1426.205	952.25
1430.919	966.25
1435.628	989.25
1440.333	990.25
1445.032	991.25
1449.727	1008.25
1454.418	1008.25
1459.104	1008.25
1463.785	996.25
1468.462	984.25
1473.134	970.25
1477.802	977.25
1482.465	969.25
1487.123	963.25
1491.777	953.25
1496.426	956.25
1501.071	976.25
1505.711	991.25
1510.347	981.25
1514.978	1008.25
1519.604	1004.25
1524.226	1017.25
1528.844	1013.25
1533.457	1018.25
1538.065	1026.25
1542.669	1017.25
1547.269	1026.25
1551.864	1013.25
1556.454	1024.25
1561.041	1025.25
1565.622	1051.25
1570.199	1045.25
1574.772	1072.25
1579.34	1085.25
1583.904	1119.25
1588.464	1126.25
1593.019	1148.25
1597.569	1151.25
1602.115	1175.25
1606.657	1171.25
1611.195	1196.25
1615.728	1196.25
1620.256	1217.25
1624.78	1221.25
1629.3	1250.25
1633.816	1262.25
1638.327	1276.25
1642.834	1293.25
1647.336	1290.25
1651.834	1314.25
1656.328	1301.25
1660.817	1284.25
1665.302	1280.25
1669.783	1238.25
1674.259	1225.25
1678.732	1188.25
1683.199	1137.25
1687.663	1108.25
1692.122	1066.25
1696.577	1028.25
1701.028	976.25
1705.474	941.25
1709.917	921.25
1714.355	895.25
1718.788	878.25
1723.218	870.25
1727.643	853.25
1732.064	838.25
1736.481	812.25
1740.893	787.25
1745.301	777.25
1749.705	744.25
1754.105	735.25
1758.501	724.25
1762.893	706.25
1767.28	701.25
1771.663	691.25
1776.042	686.25
1780.417	685.25
1784.787	690.25
1789.154	686.25
1793.516	680.25
1797.874	687.25
1802.228	689.25
1806.578	673.25
1810.924	654.25
1815.266	649.25
1819.603	643.25
1823.937	633.25
1828.266	627.25
1832.591	624.25
1836.913	614.25
1841.23	610.25
1845.543	621.25
1849.852	615.25
1854.156	626.25
1858.457	617.25
1862.754	637.25
1867.047	627.25
1871.335	641.25
1875.62	628.25
1879.9	630.25
1884.177	634.25
1888.449	625.25
1892.718	637.25
1896.982	628.25
1901.243	618.25
1905.499	616.25
1909.752	623.25
1914	613.25
1918.245	621.25
1922.485	621.25
1926.722	630.25
1930.954	620.25
1935.183	620.25
1939.408	627.25
1943.628	626.25
1947.845	635.25
1952.058	626.25
1956.267	616.25
1960.472	613.25
1964.673	612.25
1968.87	606.25
1973.063	598.25
1977.252	591.25
1981.438	587.25
1985.619	587.25
1989.797	586.25
1993.971	599.25
1998.14	591.25
2002.306	593.25
2006.469	608.25
2010.627	604.25
2014.781	607.25
2018.932	592.25
2023.078	606.25
2027.221	605.25
2031.36	594.25
2035.495	597.25
2039.627	584.25
2043.754	583.25
2047.878	579.25
2051.998	578.25
2056.114	573.25
2060.226	594.25
2064.334	596.25
2068.439	599.25
2072.54	601.25
2076.637	595.25
2080.73	601.25
2084.82	606.25
2088.906	612.25
2092.988	607.25
2097.066	609.25
2101.14	587.25
2105.211	579.25
2109.278	582.25
2113.342	591.25
2117.401	582.25
2121.457	574.25
2125.509	580.25
2129.558	566.25
2133.602	571.25
2137.643	567.25
2141.681	572.25
2145.714	555.25
2149.744	560.25
2153.77	563.25
2157.793	559.25
2161.812	560.25
2165.827	552.25
2169.838	537.25
2173.846	522.25
2177.851	526.25
2181.851	517.25
2185.848	516.25
2189.841	522.25
2193.831	511.25
2197.817	494.25
2201.799	497.25
2205.778	498.25
2209.753	490.25
2213.725	494.25
2217.693	490.25
2221.657	496.25
2225.618	487.25
2229.575	488.25
2233.529	475.25
2237.479	472.25
2241.425	478.25
2245.368	467.25
2249.307	466.25
2253.243	453.25
2257.175	444.25
2261.104	451.25
2265.029	440.25
2268.95	433.25
2272.868	418.25
2276.783	406.25
2280.694	406.25
2284.601	405.25
2288.505	399.25
2292.405	399.25
2296.302	405.25
2300.195	383.25
2304.085	388.25
2307.971	370.25
2311.854	376.25
2315.734	372.25
2319.609	370.25
2323.482	353.25
2327.351	351.25
2331.216	353.25
2335.078	352.25
2338.937	344.25
2342.792	346.25
2346.643	341.25
2350.492	337.25
2354.336	336.25
2358.178	348.25
2362.015	345.25
2365.85	345.25
2369.681	346.25
2373.508	338.25
2377.333	341.25
2381.153	345.25
2384.971	345.25
2388.785	343.25
2392.595	331.25
2396.402	335.25
2400.206	323.25
2404.007	328.25
2407.804	328.25
2411.597	319.25
2415.388	330.25
2419.174	326.25
2422.958	330.25
2426.738	321.25
2430.515	326.25
2434.289	314.25
2438.059	327.25
2441.825	315.25
2445.589	317.25
2449.349	315.25
2453.106	307.25
2456.859	303.25
2460.61	313.25
2464.356	297.25
2468.1	303.25
2471.84	290.25
2475.577	292.25
2479.311	295.25
2483.041	301.25
2486.768	297.25
2490.492	296.25
2494.213	295.25
2497.93	290.25
2501.644	291.25
2505.355	290.25
2509.062	295.25
2512.766	292.25
2516.467	288.25
2520.165	284.25
2523.859	279.25
2527.551	286.25
2531.239	279.25
2534.923	273.25
2538.605	278.25
2542.283	263.25
2545.958	272.25
2549.63	271.25
2553.299	263.25
2556.964	263.25
2560.626	267.25
2564.285	265.25
2567.941	262.25
2571.594	254.25
2575.243	251.25
2578.89	247.25
2582.533	252.25
2586.173	251.25
2589.809	246.25
2593.443	243.25
2597.073	242.25
2600.701	240.25
2604.325	235.25
2607.946	244.25
2611.564	244.25
2615.178	235.25
2618.79	234.25
2622.398	228.25
2626.004	229.25
2629.606	218.25
2633.205	229.25
2636.801	224.25
2640.394	221.25
2643.983	232.25
2647.57	225.25
2651.153	225.25
2654.734	223.25
2658.311	219.25
2661.885	212.25
2665.456	215.25
2669.025	218.25
2672.589	211.25
2676.151	203.25
2679.71	201.25
2683.266	205.25
2686.819	210.25
2690.368	206.25
2693.915	194.25
2697.458	201.25
2700.999	193.25
2704.536	197.25
2708.071	189.25
2711.602	190.25
2715.13	184.25
2718.656	184.25
2722.178	184.25
2725.697	182.25
2729.214	189.25
2732.727	186.25
2736.237	186.25
2739.744	186.25
2743.249	192.25
2746.75	196.25
2750.248	188.25
2753.743	190.25
2757.236	181.25
2760.725	183.25
2764.211	179.25
2767.695	183.25
2771.175	180.25
2774.652	179.25
2778.127	174.25
2781.598	180.25
2785.067	174.25
2788.532	179.25
2791.995	177.25
2795.455	186.25
2798.911	178.25
2802.365	185.25
2805.816	188.25
2809.264	184.25
2812.709	182.25
2816.151	184.25
2819.59	182.25
2823.026	179.25
2826.46	187.25
2829.89	180.25
2833.318	186.25
2836.742	188.25
2840.164	189.25
2843.583	189.25
2846.999	194.25
2850.412	199.25
2853.822	194.25
2857.229	201.25
2860.634	208.25
2864.035	205.25
2867.434	216.25
2870.83	209.25
2874.223	208.25
2877.613	212.25
2881	211.25
2884.385	223.25
2887.766	223.25
2891.145	223.25
2894.521	219.25
2897.894	221.25
2901.264	229.25
2904.631	227.25
2907.996	219.25
2911.358	228.25
2914.717	229.25
2918.073	226.25
2921.426	235.25
2924.777	238.25
2928.124	238.25
2931.469	261.25
2934.811	260.25
2938.15	271.25
2941.487	264.25
2944.821	272.25
2948.152	279.25
2951.48	279.25
2954.805	285.25
2958.128	282.25
2961.447	294.25
2964.765	293.25
2968.079	299.25
2971.39	298.25
2974.699	322.25
2978.005	326.25
2981.308	327.25
2984.609	337.25
2987.907	358.25
2991.202	360.25
2994.494	367.25
2997.784	373.25
3001.07	379.25
3004.355	394.25
3007.636	409.25
3010.915	402.25
3014.191	420.25
3017.464	433.25
3020.734	441.25
3024.002	443.25
3027.267	449.25
3030.53	452.25
3033.789	481.25
3037.046	488.25
3040.301	491.25
3043.552	502.25
3046.801	526.25
3050.048	526.25
3053.291	543.25
3056.532	566.25
3059.771	573.25
3063.006	603.25
3066.239	605.25
3069.469	641.25
3072.697	663.25
3075.922	671.25
3079.144	687.25
3082.364	698.25
3085.581	717.25
3088.795	735.25
3092.007	754.25
3095.216	769.25
3098.423	792.25
3101.627	824.25
3104.828	832.25
3108.026	842.25
3111.222	872.25
3114.416	872.25
3117.607	911.25
3120.795	918.25
3123.98	936.25
3127.163	956.25
3130.344	977.25
3133.521	1007.25
3136.696	1036.25
3139.869	1037.25
3143.039	1069.25
3146.206	1085.25
3149.371	1090.25
3152.533	1096.25
3155.693	1109.25
3158.85	1124.25
3162.005	1130.25
3165.157	1131.25
3168.306	1144.25
3171.453	1142.25
3174.597	1144.25
3177.739	1157.25
3180.878	1165.25
3184.014	1167.25
3187.149	1159.25
3190.28	1177.25
3193.409	1167.25
3196.536	1171.25
3199.659	1185.25
3202.781	1187.25
3205.9	1187.25
3209.016	1175.25
3212.13	1174.25
3215.241	1159.25
3218.35	1166.25
3221.456	1150.25
3224.56	1136.25
3227.661	1124.25
3230.76	1111.25
3233.856	1095.25
3236.95	1086.25
3240.041	1087.25
3243.13	1088.25
3246.216	1058.25
3249.3	1055.25
3252.382	1060.25
3255.46	1049.25
3258.537	1045.25
3261.611	1046.25
3264.682	1028.25
3267.751	1019.25
3270.818	1029.25
3273.882	1021.25
3276.943	1009.25
3280.002	1019.25
3283.059	991.25
3286.113	997.25
3289.165	971.25
3292.214	959.25
3295.261	946.25
3298.306	941.25
3301.348	930.25
3304.387	915.25
3307.425	903.25
3310.459	883.25
3313.492	865.25
3316.521	867.25
3319.549	859.25
3322.574	850.25
3325.597	826.25
3328.617	836.25
3331.635	825.25
3334.65	827.25
3337.663	827.25
3340.674	813.25
3343.682	812.25
3346.688	809.25
3349.691	805.25
3352.692	801.25
3355.691	806.25
3358.687	785.25
3361.681	785.25
3364.673	770.25
3367.662	763.25
3370.649	742.25
3373.633	747.25
3376.615	726.25
3379.595	722.25
3382.572	711.25
3385.547	709.25
3388.52	701.25
3391.49	691.25
3394.458	678.25
3397.424	661.25
3400.387	651.25
3403.348	647.25
3406.307	625.25
3409.263	631.25
3412.217	621.25
3415.168	616.25
3418.118	611.25
3421.065	616.25
3424.009	601.25
3426.951	574.25
3429.891	594.25
3432.829	569.25
3435.764	559.25
3438.697	536.25
3441.628	533.25
3444.557	511.25
3447.483	503.25
3450.407	482.25
3453.328	474.25
3456.247	463.25
3459.164	450.25
3462.079	428.25
3464.991	422.25
3467.902	398.25
3470.809	395.25
3473.715	383.25
3476.618	359.25
3479.519	349.25
3482.418	346.25
3485.315	328.25
3488.209	326.25
3491.101	317.25
3493.99	315.25
3496.878	300.25
3499.763	282.25
3502.646	274.25
3505.527	268.25
3508.405	244.25
3511.281	249.25
3514.155	236.25
3517.027	226.25
3519.897	211.25
3522.764	207.25
3525.629	188.25
3528.492	182.25
3531.352	170.25
3534.211	158.25
3537.067	146.25
3539.921	139.25
3542.773	125.25
3545.622	121.25
3548.469	112.25
3551.315	104.25
3554.157	100.25
3556.998	92.25
3559.837	86.25
3562.673	86.25
3565.507	76.25
3568.339	68.25
3571.169	65.25
3573.996	55.25
3576.822	50.25
3579.645	45.25
3582.466	36.25
3585.285	34.25
3588.101	22.25
3590.916	28.25
3593.728	23.25
3596.538	16.25
3599.346	16.25
3602.152	12.25
3604.956	3.25
3607.757	-2.75
3610.556	-8.75
3613.354	-5.75
3616.149	-16.75
3618.942	-14.75
3621.732	-18.75
3624.521	-21.75
3627.307	-23.75
3630.092	-30.75
3632.874	-31.75
3635.654	-36.75
3638.432	-34.75
3641.208	-36.75
3643.982	-33.75
3646.753	-41.75
3649.523	-48.75
3652.29	-40.75
3655.055	-50.75
3657.818	-49.75
3660.579	-48.75
3663.338	-56.75
3666.095	-60.75
3668.849	-60.75
3671.602	-60.75
3674.352	-69.75
3677.101	-70.75
3679.847	-68.75
3682.591	-76.75
3685.333	-69.75
3688.073	-72.75
3690.811	-72.75
3693.547	-70.75
3696.281	-72.75
3699.013	-74.75
3701.742	-81.75
3704.47	-81.75
3707.195	-82.75
3709.919	-82.75
3712.64	-82.75
3715.359	-84.75
3718.076	-86.75
3720.792	-87.75
3723.505	-83.75
3726.216	-87.75
3728.925	-89.75
3731.632	-88.75
3734.336	-88.75
3737.039	-92.75
3739.74	-94.75
3742.439	-94.75
3745.136	-91.75
3747.83	-90.75
3750.523	-90.75
3753.213	-94.75
3755.902	-93.75
3758.589	-97.75
3761.273	-95.75
3763.956	-97.75
3766.636	-99.75
3769.315	-96.75
3771.991	-100.75
3774.665	-99.75
3777.338	-96.75
3780.008	-99.75
3782.677	-95.75
3785.343	-98.75
3788.007	-100.75
3790.67	-100.75
3793.33	-98.75
3795.989	-100.75
3798.645	-101.75
3801.299	-103.75
3803.952	-102.75
3806.602	-104.75
3809.251	-105.75
3811.897	-99.75
3814.542	-99.75
3817.184	-99.75
3819.825	-101.75
3822.463	-101.75
3825.1	-104.75
3827.735	-104.75
3830.367	-105.75
3832.998	-106.75
3835.627	-105.75
3838.253	-105.75
3840.878	-105.75
3843.501	-104.75
3846.122	-105.75
3848.741	-106.75
3851.358	-106.75
3853.973	-105.75
3856.586	-102.75
3859.197	-108.75
3861.806	-105.75
3864.414	-106.75
3867.019	-104.75
3869.622	-105.75
3872.224	-105.75
3874.823	-102.75
3877.421	-102.75
3880.016	-97.75
3882.61	-100.75
3885.202	-97.75
3887.792	-100.75
3890.38	-100.75
3892.966	-103.75
3895.55	-103.75
3898.132	-104.75
3900.713	-107.75
3903.291	-106.75
3905.868	-110.75
3908.442	-104.75
3911.015	-109.75
3913.586	-111.75
3916.155	-113.75
3918.722	-113.75
3921.287	-111.75
3923.85	-109.75
3926.411	-111.75
3928.971	-106.75
3931.528	-109.75
3934.084	-108.75
3936.638	-111.75
3939.19	-110.75
3941.74	-111.75
3944.288	-112.75
3946.834	-112.75
3949.378	-112.75
3951.921	-114.75
3954.462	-114.75
3957	-110.75
3959.537	-110.75
3962.072	-106.75
3964.606	-104.75
3967.137	-107.75
3969.667	-108.75
3972.194	-110.75
3974.72	-108.75
3977.244	-112.75
3979.766	-111.75
3982.286	-108.75
3984.805	-109.75
3987.321	-105.75
3989.836	-108.75
3992.349	-108.75
3994.86	-111.75
3997.369	-109.75
3999.877	-107.75
4002.382	-104.75
4004.886	-105.75
4007.388	-103.75
4009.888	-109.75
4012.386	-107.75
4014.883	-105.75
4017.377	-105.75
4019.87	-105.75
4022.361	-107.75
4024.85	-108.75
4027.338	-110.75
4029.823	-112.75
4032.307	-112.75
4034.789	-108.75
4037.269	-106.75
4039.747	-109.75
4042.224	-109.75
4044.699	-104.75
4047.172	-105.75
4049.643	-103.75
4052.112	-106.75
4054.58	-107.75
4057.046	-107.75
4059.51	-109.75
4061.972	-113.75
4064.432	-114.75
4066.891	-111.75
4069.348	-106.75
4071.803	-107.75
4074.256	-105.75
4076.708	-108.75
4079.158	-109.75
4081.606	-108.75
4084.052	-107.75
4086.497	-110.75
4088.939	-111.75
4091.38	-110.75
4093.819	-112.75
4096.257	-110.75
4098.693	-110.75
4101.127	-114.75
4103.559	-114.75
4105.989	-77.75
4108.418	-72.75
4110.845	-68.75
4113.27	-65.75
4115.694	-53.75
4118.115	-48.75
4120.535	-111.75
4122.954	-109.75
4125.37	-109.75
4127.785	-112.75
4130.198	-107.75
4132.609	-107.75
4135.019	-110.75
4137.427	-108.75
4139.833	-113.75
4142.237	-111.75
