Data from 100000000CFU2_A_RamanShift_1.txt Node
Date: Tue Jan 24 17:45:21 IST 2017
User: aro
Spectrometer: QEPB0276
Trigger mode: 0
Integration Time (sec): 5.000000E0
Scans to average: 1
Electric dark correction enabled: true
Nonlinearity correction enabled: false
Boxcar width: 0
XAxis mode: Raman Shifts
Number of Pixels in Spectrum: 1044
>>>>>Begin Spectral Data<<<<<
160.701	-16.75
166.742	-0.75
172.777	77.25
178.805	291.25
184.826	808.25
190.841	1639.25
196.849	2576.25
202.85	3203.25
208.845	3302.25
214.833	3234.25
220.815	3136.25
226.789	3030.25
232.758	2960.25
238.719	2907.25
244.674	2791.25
250.623	2666.25
256.565	2546.25
262.5	2436.25
268.429	2357.25
274.351	2273.25
280.267	2179.25
286.176	2128.25
292.079	2047.25
297.975	1974.25
303.865	1926.25
309.748	1888.25
315.625	1843.25
321.495	1828.25
327.359	1808.25
333.217	1773.25
339.068	1773.25
344.912	1751.25
350.751	1750.25
356.583	1760.25
362.408	1751.25
368.227	1764.25
374.04	1745.25
379.847	1749.25
385.647	1756.25
391.44	1769.25
397.228	1784.25
403.009	1790.25
408.784	1821.25
414.553	1793.25
420.315	1840.25
426.071	1815.25
431.821	1828.25
437.565	1828.25
443.302	1814.25
449.033	1793.25
454.758	1808.25
460.477	1788.25
466.189	1779.25
471.896	1773.25
477.596	1775.25
483.29	1765.25
488.978	1759.25
494.66	1741.25
500.335	1708.25
506.005	1671.25
511.668	1650.25
517.325	1600.25
522.977	1581.25
528.622	1566.25
534.261	1547.25
539.894	1534.25
545.521	1527.25
551.141	1527.25
556.756	1513.25
562.365	1490.25
567.968	1492.25
573.565	1463.25
579.155	1450.25
584.74	1453.25
590.319	1446.25
595.892	1429.25
601.459	1437.25
607.02	1423.25
612.575	1417.25
618.124	1398.25
623.667	1385.25
629.204	1373.25
634.735	1364.25
640.261	1337.25
645.781	1334.25
651.294	1334.25
656.802	1326.25
662.304	1325.25
667.8	1320.25
673.29	1317.25
678.775	1293.25
684.254	1299.25
689.726	1287.25
695.193	1291.25
700.655	1276.25
706.11	1280.25
711.56	1270.25
717.004	1252.25
722.442	1254.25
727.874	1239.25
733.301	1237.25
738.722	1233.25
744.137	1223.25
749.547	1240.25
754.951	1236.25
760.349	1217.25
765.741	1207.25
771.128	1210.25
776.509	1220.25
781.885	1233.25
787.254	1212.25
792.618	1222.25
797.977	1201.25
803.33	1205.25
808.677	1201.25
814.019	1173.25
819.355	1175.25
824.686	1145.25
830.011	1136.25
835.33	1135.25
840.644	1142.25
845.952	1120.25
851.255	1111.25
856.552	1118.25
861.844	1120.25
867.13	1107.25
872.41	1103.25
877.686	1096.25
882.955	1084.25
888.219	1066.25
893.478	1040.25
898.731	1030.25
903.979	1011.25
909.221	1003.25
914.458	999.25
919.69	983.25
924.916	982.25
930.136	998.25
935.351	999.25
940.561	990.25
945.766	986.25
950.965	976.25
956.158	966.25
961.347	960.25
966.529	935.25
971.707	944.25
976.879	926.25
982.046	908.25
987.208	907.25
992.364	920.25
997.515	911.25
1002.66	912.25
1007.801	926.25
1012.936	926.25
1018.066	936.25
1023.19	953.25
1028.309	935.25
1033.423	958.25
1038.532	939.25
1043.636	941.25
1048.734	931.25
1053.827	904.25
1058.915	905.25
1063.998	899.25
1069.075	888.25
1074.147	883.25
1079.214	895.25
1084.276	911.25
1089.333	908.25
1094.385	924.25
1099.431	927.25
1104.472	929.25
1109.509	934.25
1114.54	912.25
1119.565	907.25
1124.586	897.25
1129.602	885.25
1134.613	869.25
1139.618	865.25
1144.619	874.25
1149.614	877.25
1154.604	884.25
1159.589	904.25
1164.57	884.25
1169.545	885.25
1174.515	875.25
1179.48	884.25
1184.44	880.25
1189.395	874.25
1194.345	867.25
1199.29	862.25
1204.23	863.25
1209.165	880.25
1214.095	883.25
1219.021	879.25
1223.941	890.25
1228.856	893.25
1233.766	909.25
1238.672	890.25
1243.572	893.25
1248.467	881.25
1253.358	885.25
1258.244	864.25
1263.124	857.25
1268	833.25
1272.871	824.25
1277.737	835.25
1282.599	821.25
1287.455	832.25
1292.306	831.25
1297.153	837.25
1301.995	840.25
1306.832	840.25
1311.664	843.25
1316.491	862.25
1321.314	833.25
1326.132	836.25
1330.945	833.25
1335.753	807.25
1340.556	809.25
1345.354	799.25
1350.148	793.25
1354.937	798.25
1359.722	786.25
1364.501	772.25
1369.276	768.25
1374.046	766.25
1378.811	775.25
1383.572	766.25
1388.327	762.25
1393.079	764.25
1397.825	759.25
1402.567	742.25
1407.304	748.25
1412.036	736.25
1416.764	733.25
1421.487	740.25
1426.205	739.25
1430.919	753.25
1435.628	760.25
1440.333	766.25
1445.032	781.25
1449.727	771.25
1454.418	758.25
1459.104	766.25
1463.785	764.25
1468.462	761.25
1473.134	749.25
1477.802	755.25
1482.465	740.25
1487.123	740.25
1491.777	751.25
1496.426	751.25
1501.071	752.25
1505.711	765.25
1510.347	768.25
1514.978	781.25
1519.604	793.25
1524.226	787.25
1528.844	786.25
1533.457	780.25
1538.065	781.25
1542.669	786.25
1547.269	770.25
1551.864	773.25
1556.454	781.25
1561.041	791.25
1565.622	805.25
1570.199	799.25
1574.772	817.25
1579.34	839.25
1583.904	850.25
1588.464	858.25
1593.019	879.25
1597.569	882.25
1602.115	885.25
1606.657	886.25
1611.195	907.25
1615.728	898.25
1620.256	932.25
1624.78	933.25
1629.3	930.25
1633.816	968.25
1638.327	992.25
1642.834	983.25
1647.336	997.25
1651.834	997.25
1656.328	1000.25
1660.817	991.25
1665.302	972.25
1669.783	956.25
1674.259	931.25
1678.732	899.25
1683.199	882.25
1687.663	842.25
1692.122	819.25
1696.577	787.25
1701.028	754.25
1705.474	724.25
1709.917	699.25
1714.355	693.25
1718.788	686.25
1723.218	655.25
1727.643	651.25
1732.064	640.25
1736.481	620.25
1740.893	603.25
1745.301	586.25
1749.705	581.25
1754.105	562.25
1758.501	554.25
1762.893	537.25
1767.28	526.25
1771.663	521.25
1776.042	517.25
1780.417	531.25
1784.787	524.25
1789.154	526.25
1793.516	530.25
1797.874	529.25
1802.228	530.25
1806.578	529.25
1810.924	521.25
1815.266	504.25
1819.603	498.25
1823.937	482.25
1828.266	486.25
1832.591	474.25
1836.913	468.25
1841.23	469.25
1845.543	464.25
1849.852	465.25
1854.156	469.25
1858.457	467.25
1862.754	485.25
1867.047	473.25
1871.335	490.25
1875.62	493.25
1879.9	490.25
1884.177	468.25
1888.449	485.25
1892.718	473.25
1896.982	473.25
1901.243	482.25
1905.499	480.25
1909.752	475.25
1914	481.25
1918.245	467.25
1922.485	471.25
1926.722	478.25
1930.954	483.25
1935.183	483.25
1939.408	478.25
1943.628	475.25
1947.845	477.25
1952.058	480.25
1956.267	481.25
1960.472	461.25
1964.673	468.25
1968.87	458.25
1973.063	465.25
1977.252	461.25
1981.438	451.25
1985.619	456.25
1989.797	449.25
1993.971	453.25
1998.14	438.25
2002.306	449.25
2006.469	466.25
2010.627	457.25
2014.781	459.25
2018.932	461.25
2023.078	467.25
2027.221	456.25
2031.36	464.25
2035.495	448.25
2039.627	453.25
2043.754	444.25
2047.878	440.25
2051.998	442.25
2056.114	439.25
2060.226	447.25
2064.334	453.25
2068.439	450.25
2072.54	451.25
2076.637	460.25
2080.73	457.25
2084.82	458.25
2088.906	464.25
2092.988	455.25
2097.066	458.25
2101.14	455.25
2105.211	458.25
2109.278	438.25
2113.342	444.25
2117.401	447.25
2121.457	437.25
2125.509	442.25
2129.558	430.25
2133.602	436.25
2137.643	426.25
2141.681	434.25
2145.714	427.25
2149.744	434.25
2153.77	422.25
2157.793	429.25
2161.812	418.25
2165.827	410.25
2169.838	407.25
2173.846	399.25
2177.851	387.25
2181.851	387.25
2185.848	381.25
2189.841	379.25
2193.831	365.25
2197.817	371.25
2201.799	362.25
2205.778	373.25
2209.753	374.25
2213.725	375.25
2217.693	372.25
2221.657	369.25
2225.618	384.25
2229.575	362.25
2233.529	362.25
2237.479	353.25
2241.425	356.25
2245.368	334.25
2249.307	338.25
2253.243	332.25
2257.175	337.25
2261.104	327.25
2265.029	322.25
2268.95	320.25
2272.868	318.25
2276.783	312.25
2280.694	301.25
2284.601	298.25
2288.505	302.25
2292.405	291.25
2296.302	292.25
2300.195	288.25
2304.085	284.25
2307.971	279.25
2311.854	275.25
2315.734	275.25
2319.609	270.25
2323.482	260.25
2327.351	258.25
2331.216	260.25
2335.078	258.25
2338.937	250.25
2342.792	247.25
2346.643	245.25
2350.492	251.25
2354.336	252.25
2358.178	254.25
2362.015	253.25
2365.85	245.25
2369.681	250.25
2373.508	259.25
2377.333	249.25
2381.153	245.25
2384.971	252.25
2388.785	254.25
2392.595	240.25
2396.402	236.25
2400.206	241.25
2404.007	234.25
2407.804	240.25
2411.597	239.25
2415.388	232.25
2419.174	231.25
2422.958	231.25
2426.738	238.25
2430.515	236.25
2434.289	234.25
2438.059	233.25
2441.825	233.25
2445.589	220.25
2449.349	219.25
2453.106	221.25
2456.859	218.25
2460.61	213.25
2464.356	207.25
2468.1	216.25
2471.84	219.25
2475.577	220.25
2479.311	210.25
2483.041	221.25
2486.768	219.25
2490.492	214.25
2494.213	217.25
2497.93	222.25
2501.644	215.25
2505.355	217.25
2509.062	221.25
2512.766	205.25
2516.467	204.25
2520.165	209.25
2523.859	209.25
2527.551	207.25
2531.239	205.25
2534.923	196.25
2538.605	203.25
2542.283	204.25
2545.958	192.25
2549.63	194.25
2553.299	197.25
2556.964	195.25
2560.626	193.25
2564.285	192.25
2567.941	201.25
2571.594	187.25
2575.243	193.25
2578.89	189.25
2582.533	184.25
2586.173	185.25
2589.809	176.25
2593.443	176.25
2597.073	171.25
2600.701	166.25
2604.325	177.25
2607.946	178.25
2611.564	177.25
2615.178	178.25
2618.79	167.25
2622.398	173.25
2626.004	168.25
2629.606	166.25
2633.205	159.25
2636.801	160.25
2640.394	163.25
2643.983	160.25
2647.57	162.25
2651.153	157.25
2654.734	155.25
2658.311	154.25
2661.885	154.25
2665.456	161.25
2669.025	153.25
2672.589	150.25
2676.151	143.25
2679.71	145.25
2683.266	148.25
2686.819	140.25
2690.368	137.25
2693.915	143.25
2697.458	127.25
2700.999	139.25
2704.536	143.25
2708.071	130.25
2711.602	134.25
2715.13	138.25
2718.656	123.25
2722.178	128.25
2725.697	131.25
2729.214	131.25
2732.727	135.25
2736.237	132.25
2739.744	134.25
2743.249	138.25
2746.75	129.25
2750.248	134.25
2753.743	131.25
2757.236	130.25
2760.725	130.25
2764.211	131.25
2767.695	127.25
2771.175	129.25
2774.652	132.25
2778.127	131.25
2781.598	138.25
2785.067	126.25
2788.532	126.25
2791.995	131.25
2795.455	124.25
2798.911	128.25
2802.365	131.25
2805.816	132.25
2809.264	129.25
2812.709	126.25
2816.151	131.25
2819.59	137.25
2823.026	138.25
2826.46	136.25
2829.89	140.25
2833.318	134.25
2836.742	139.25
2840.164	136.25
2843.583	140.25
2846.999	136.25
2850.412	144.25
2853.822	144.25
2857.229	146.25
2860.634	146.25
2864.035	151.25
2867.434	161.25
2870.83	153.25
2874.223	157.25
2877.613	156.25
2881	153.25
2884.385	168.25
2887.766	155.25
2891.145	164.25
2894.521	159.25
2897.894	160.25
2901.264	158.25
2904.631	164.25
2907.996	162.25
2911.358	171.25
2914.717	173.25
2918.073	161.25
2921.426	179.25
2924.777	183.25
2928.124	181.25
2931.469	186.25
2934.811	193.25
2938.15	193.25
2941.487	198.25
2944.821	200.25
2948.152	198.25
2951.48	205.25
2954.805	211.25
2958.128	213.25
2961.447	223.25
2964.765	220.25
2968.079	228.25
2971.39	232.25
2974.699	242.25
2978.005	242.25
2981.308	248.25
2984.609	254.25
2987.907	261.25
2991.202	275.25
2994.494	278.25
2997.784	289.25
3001.07	289.25
3004.355	298.25
3007.636	300.25
3010.915	314.25
3014.191	310.25
3017.464	321.25
3020.734	331.25
3024.002	334.25
3027.267	344.25
3030.53	357.25
3033.789	356.25
3037.046	371.25
3040.301	377.25
3043.552	379.25
3046.801	384.25
3050.048	394.25
3053.291	414.25
3056.532	424.25
3059.771	436.25
3063.006	451.25
3066.239	467.25
3069.469	479.25
3072.697	493.25
3075.922	508.25
3079.144	518.25
3082.364	543.25
3085.581	545.25
3088.795	562.25
3092.007	572.25
3095.216	581.25
3098.423	594.25
3101.627	619.25
3104.828	624.25
3108.026	630.25
3111.222	658.25
3114.416	670.25
3117.607	686.25
3120.795	702.25
3123.98	719.25
3127.163	732.25
3130.344	755.25
3133.521	762.25
3136.696	780.25
3139.869	797.25
3143.039	816.25
3146.206	834.25
3149.371	831.25
3152.533	841.25
3155.693	853.25
3158.85	853.25
3162.005	849.25
3165.157	867.25
3168.306	871.25
3171.453	864.25
3174.597	870.25
3177.739	887.25
3180.878	893.25
3184.014	891.25
3187.149	899.25
3190.28	895.25
3193.409	899.25
3196.536	902.25
3199.659	893.25
3202.781	913.25
3205.9	905.25
3209.016	897.25
3212.13	886.25
3215.241	900.25
3218.35	893.25
3221.456	877.25
3224.56	877.25
3227.661	870.25
3230.76	858.25
3233.856	860.25
3236.95	850.25
3240.041	838.25
3243.13	828.25
3246.216	836.25
3249.3	812.25
3252.382	806.25
3255.46	802.25
3258.537	809.25
3261.611	802.25
3264.682	804.25
3267.751	802.25
3270.818	801.25
3273.882	788.25
3276.943	775.25
3280.002	781.25
3283.059	764.25
3286.113	765.25
3289.165	756.25
3292.214	736.25
3295.261	738.25
3298.306	718.25
3301.348	710.25
3304.387	691.25
3307.425	689.25
3310.459	670.25
3313.492	674.25
3316.521	661.25
3319.549	658.25
3322.574	654.25
3325.597	641.25
3328.617	636.25
3331.635	624.25
3334.65	628.25
3337.663	621.25
3340.674	624.25
3343.682	630.25
3346.688	631.25
3349.691	613.25
3352.692	621.25
3355.691	628.25
3358.687	600.25
3361.681	605.25
3364.673	595.25
3367.662	580.25
3370.649	574.25
3373.633	567.25
3376.615	555.25
3379.595	559.25
3382.572	540.25
3385.547	555.25
3388.52	543.25
3391.49	523.25
3394.458	529.25
3397.424	517.25
3400.387	514.25
3403.348	493.25
3406.307	496.25
3409.263	486.25
3412.217	484.25
3415.168	471.25
3418.118	468.25
3421.065	479.25
3424.009	470.25
3426.951	456.25
3429.891	454.25
3432.829	441.25
3435.764	435.25
3438.697	408.25
3441.628	420.25
3444.557	395.25
3447.483	390.25
3450.407	379.25
3453.328	372.25
3456.247	358.25
3459.164	348.25
3462.079	341.25
3464.991	329.25
3467.902	307.25
3470.809	305.25
3473.715	292.25
3476.618	285.25
3479.519	268.25
3482.418	276.25
3485.315	262.25
3488.209	257.25
3491.101	251.25
3493.99	243.25
3496.878	237.25
3499.763	226.25
3502.646	225.25
3505.527	204.25
3508.405	207.25
3511.281	189.25
3514.155	183.25
3517.027	174.25
3519.897	164.25
3522.764	163.25
3525.629	151.25
3528.492	150.25
3531.352	136.25
3534.211	128.25
3537.067	120.25
3539.921	109.25
3542.773	100.25
3545.622	95.25
3548.469	89.25
3551.315	84.25
3554.157	82.25
3556.998	77.25
3559.837	72.25
3562.673	62.25
3565.507	59.25
3568.339	56.25
3571.169	47.25
3573.996	46.25
3576.822	41.25
3579.645	32.25
3582.466	35.25
3585.285	27.25
3588.101	27.25
3590.916	26.25
3593.728	22.25
3596.538	14.25
3599.346	10.25
3602.152	11.25
3604.956	4.25
3607.757	-1.75
3610.556	-4.75
3613.354	-6.75
3616.149	-11.75
3618.942	-9.75
3621.732	-11.75
3624.521	-14.75
3627.307	-17.75
3630.092	-19.75
3632.874	-20.75
3635.654	-18.75
3638.432	-19.75
3641.208	-28.75
3643.982	-27.75
3646.753	-27.75
3649.523	-34.75
3652.29	-34.75
3655.055	-36.75
3657.818	-33.75
3660.579	-37.75
3663.338	-46.75
3666.095	-44.75
3668.849	-42.75
3671.602	-45.75
3674.352	-53.75
3677.101	-51.75
3679.847	-52.75
3682.591	-55.75
3685.333	-52.75
3688.073	-59.75
3690.811	-53.75
3693.547	-51.75
3696.281	-56.75
3699.013	-58.75
3701.742	-62.75
3704.47	-62.75
3707.195	-63.75
3709.919	-63.75
3712.64	-63.75
3715.359	-67.75
3718.076	-71.75
3720.792	-66.75
3723.505	-67.75
3726.216	-63.75
3728.925	-65.75
3731.632	-65.75
3734.336	-70.75
3737.039	-72.75
3739.74	-69.75
3742.439	-69.75
3745.136	-73.75
3747.83	-67.75
3750.523	-68.75
3753.213	-72.75
3755.902	-72.75
3758.589	-71.75
3761.273	-73.75
3763.956	-72.75
3766.636	-72.75
3769.315	-75.75
3771.991	-78.75
3774.665	-73.75
3777.338	-74.75
3780.008	-73.75
3782.677	-72.75
3785.343	-73.75
3788.007	-77.75
3790.67	-73.75
3793.33	-81.75
3795.989	-77.75
3798.645	-78.75
3801.299	-78.75
3803.952	-77.75
3806.602	-79.75
3809.251	-77.75
3811.897	-74.75
3814.542	-76.75
3817.184	-74.75
3819.825	-77.75
3822.463	-79.75
3825.1	-79.75
3827.735	-81.75
3830.367	-81.75
3832.998	-81.75
3835.627	-78.75
3838.253	-81.75
3840.878	-78.75
3843.501	-78.75
3846.122	-77.75
3848.741	-82.75
3851.358	-83.75
3853.973	-81.75
3856.586	-78.75
3859.197	-79.75
3861.806	-81.75
3864.414	-81.75
3867.019	-78.75
3869.622	-79.75
3872.224	-79.75
3874.823	-79.75
3877.421	-77.75
3880.016	-74.75
3882.61	-77.75
3885.202	-77.75
3887.792	-74.75
3890.38	-80.75
3892.966	-81.75
3895.55	-81.75
3898.132	-79.75
3900.713	-79.75
3903.291	-78.75
3905.868	-79.75
3908.442	-80.75
3911.015	-81.75
3913.586	-82.75
3916.155	-86.75
3918.722	-83.75
3921.287	-85.75
3923.85	-86.75
3926.411	-85.75
3928.971	-82.75
3931.528	-83.75
3934.084	-85.75
3936.638	-83.75
3939.19	-82.75
3941.74	-83.75
3944.288	-82.75
3946.834	-85.75
3949.378	-83.75
3951.921	-85.75
3954.462	-86.75
3957	-85.75
3959.537	-84.75
3962.072	-81.75
3964.606	-84.75
3967.137	-85.75
3969.667	-87.75
3972.194	-84.75
3974.72	-83.75
3977.244	-84.75
3979.766	-88.75
3982.286	-79.75
3984.805	-83.75
3987.321	-79.75
3989.836	-81.75
3992.349	-80.75
3994.86	-83.75
3997.369	-82.75
3999.877	-83.75
4002.382	-82.75
4004.886	-84.75
4007.388	-81.75
4009.888	-85.75
4012.386	-84.75
4014.883	-78.75
4017.377	-77.75
4019.87	-78.75
4022.361	-80.75
4024.85	-81.75
4027.338	-82.75
4029.823	-82.75
4032.307	-86.75
4034.789	-85.75
4037.269	-81.75
4039.747	-85.75
4042.224	-87.75
4044.699	-83.75
4047.172	-84.75
4049.643	-79.75
4052.112	-81.75
4054.58	-78.75
4057.046	-82.75
4059.51	-80.75
4061.972	-83.75
4064.432	-83.75
4066.891	-83.75
4069.348	-84.75
4071.803	-82.75
4074.256	-84.75
4076.708	-82.75
4079.158	-86.75
4081.606	-82.75
4084.052	-84.75
4086.497	-81.75
4088.939	-87.75
4091.38	-81.75
4093.819	-85.75
4096.257	-83.75
4098.693	-82.75
4101.127	-87.75
4103.559	-91.75
4105.989	-57.75
4108.418	-50.75
4110.845	-51.75
4113.27	-46.75
4115.694	-42.75
4118.115	-32.75
4120.535	-83.75
4122.954	-85.75
4125.37	-83.75
4127.785	-88.75
4130.198	-82.75
4132.609	-82.75
4135.019	-86.75
4137.427	-85.75
4139.833	-88.75
4142.237	-89.75
