Data from 100000CFU3_A_RamanShift_1.txt Node
Date: Tue Jan 24 17:32:26 IST 2017
User: aro
Spectrometer: QEPB0276
Trigger mode: 0
Integration Time (sec): 5.000000E0
Scans to average: 1
Electric dark correction enabled: true
Nonlinearity correction enabled: false
Boxcar width: 0
XAxis mode: Raman Shifts
Number of Pixels in Spectrum: 1044
>>>>>Begin Spectral Data<<<<<
160.701	-30
166.742	-6
172.777	91
178.805	390
184.826	1049
190.841	2181
196.849	3398
202.85	4241
208.845	4419
214.833	4287
220.815	4116
226.789	3999
232.758	3922
238.719	3818
244.674	3660
250.623	3525
256.565	3367
262.5	3230
268.429	3111
274.351	2981
280.267	2879
286.176	2798
292.079	2694
297.975	2603
303.865	2529
309.748	2468
315.625	2434
321.495	2368
327.359	2349
333.217	2315
339.068	2302
344.912	2303
350.751	2278
356.583	2273
362.408	2287
368.227	2243
374.04	2284
379.847	2266
385.647	2269
391.44	2308
397.228	2306
403.009	2321
408.784	2320
414.553	2337
420.315	2353
426.071	2367
431.821	2342
437.565	2369
443.302	2344
449.033	2316
454.758	2333
460.477	2339
466.189	2302
471.896	2320
477.596	2293
483.29	2284
488.978	2279
494.66	2266
500.335	2249
506.005	2205
511.668	2161
517.325	2129
522.977	2097
528.622	2071
534.261	2069
539.894	2035
545.521	2037
551.141	2014
556.756	2005
562.365	1986
567.968	1985
573.565	1980
579.155	1954
584.74	1943
590.319	1947
595.892	1935
601.459	1905
607.02	1907
612.575	1902
618.124	1884
623.667	1853
629.204	1850
634.735	1828
640.261	1813
645.781	1806
651.294	1798
656.802	1815
662.304	1784
667.8	1774
673.29	1774
678.775	1774
684.254	1754
689.726	1767
695.193	1751
700.655	1742
706.11	1729
711.56	1721
717.004	1709
722.442	1702
727.874	1690
733.301	1669
738.722	1662
744.137	1676
749.547	1670
754.951	1669
760.349	1670
765.741	1667
771.128	1659
776.509	1651
781.885	1674
787.254	1663
792.618	1663
797.977	1648
803.33	1626
808.677	1619
814.019	1611
819.355	1599
824.686	1574
830.011	1575
835.33	1561
840.644	1562
845.952	1572
851.255	1546
856.552	1551
861.844	1546
867.13	1526
872.41	1548
877.686	1506
882.955	1500
888.219	1474
893.478	1450
898.731	1422
903.979	1420
909.221	1414
914.458	1387
919.69	1396
924.916	1402
930.136	1396
935.351	1389
940.561	1396
945.766	1392
950.965	1387
956.158	1372
961.347	1360
966.529	1338
971.707	1321
976.879	1318
982.046	1298
987.208	1293
992.364	1293
997.515	1304
1002.66	1309
1007.801	1321
1012.936	1328
1018.066	1345
1023.19	1350
1028.309	1350
1033.423	1359
1038.532	1337
1043.636	1329
1048.734	1316
1053.827	1320
1058.915	1284
1063.998	1296
1069.075	1271
1074.147	1289
1079.214	1294
1084.276	1299
1089.333	1315
1094.385	1322
1099.431	1340
1104.472	1343
1109.509	1323
1114.54	1318
1119.565	1308
1124.586	1276
1129.602	1272
1134.613	1258
1139.618	1255
1144.619	1257
1149.614	1261
1154.604	1282
1159.589	1290
1164.57	1296
1169.545	1299
1174.515	1302
1179.48	1278
1184.44	1286
1189.395	1273
1194.345	1264
1199.29	1253
1204.23	1271
1209.165	1271
1214.095	1281
1219.021	1298
1223.941	1302
1228.856	1295
1233.766	1318
1238.672	1318
1243.572	1327
1248.467	1310
1253.358	1290
1258.244	1270
1263.124	1266
1268	1233
1272.871	1230
1277.737	1226
1282.599	1216
1287.455	1213
1292.306	1212
1297.153	1233
1301.995	1239
1306.832	1240
1311.664	1247
1316.491	1246
1321.314	1261
1326.132	1234
1330.945	1231
1335.753	1223
1340.556	1213
1345.354	1197
1350.148	1186
1354.937	1180
1359.722	1175
1364.501	1153
1369.276	1149
1374.046	1140
1378.811	1128
1383.572	1126
1388.327	1139
1393.079	1124
1397.825	1124
1402.567	1107
1407.304	1107
1412.036	1115
1416.764	1097
1421.487	1102
1426.205	1112
1430.919	1106
1435.628	1126
1440.333	1133
1445.032	1154
1449.727	1169
1454.418	1151
1459.104	1157
1463.785	1148
1468.462	1134
1473.134	1143
1477.802	1136
1482.465	1127
1487.123	1114
1491.777	1131
1496.426	1113
1501.071	1133
1505.711	1151
1510.347	1140
1514.978	1164
1519.604	1167
1524.226	1173
1528.844	1164
1533.457	1162
1538.065	1175
1542.669	1157
1547.269	1162
1551.864	1154
1556.454	1161
1561.041	1178
1565.622	1184
1570.199	1217
1574.772	1226
1579.34	1248
1583.904	1254
1588.464	1284
1593.019	1278
1597.569	1293
1602.115	1306
1606.657	1330
1611.195	1320
1615.728	1336
1620.256	1351
1624.78	1381
1629.3	1381
1633.816	1405
1638.327	1424
1642.834	1427
1647.336	1445
1651.834	1442
1656.328	1451
1660.817	1440
1665.302	1411
1669.783	1377
1674.259	1355
1678.732	1325
1683.199	1287
1687.663	1261
1692.122	1213
1696.577	1174
1701.028	1122
1705.474	1073
1709.917	1056
1714.355	1035
1718.788	1025
1723.218	1017
1727.643	988
1732.064	977
1736.481	945
1740.893	945
1745.301	910
1749.705	888
1754.105	869
1758.501	851
1762.893	843
1767.28	831
1771.663	822
1776.042	829
1780.417	829
1784.787	818
1789.154	833
1793.516	818
1797.874	828
1802.228	818
1806.578	807
1810.924	803
1815.266	791
1819.603	785
1823.937	768
1828.266	771
1832.591	757
1836.913	754
1841.23	754
1845.543	753
1849.852	749
1854.156	758
1858.457	755
1862.754	761
1867.047	768
1871.335	769
1875.62	765
1879.9	768
1884.177	775
1888.449	776
1892.718	760
1896.982	766
1901.243	769
1905.499	750
1909.752	747
1914	745
1918.245	752
1922.485	758
1926.722	758
1930.954	753
1935.183	751
1939.408	765
1943.628	768
1947.845	768
1952.058	768
1956.267	764
1960.472	754
1964.673	754
1968.87	742
1973.063	742
1977.252	720
1981.438	720
1985.619	714
1989.797	711
1993.971	706
1998.14	714
2002.306	728
2006.469	722
2010.627	724
2014.781	729
2018.932	723
2023.078	741
2027.221	725
2031.36	736
2035.495	712
2039.627	704
2043.754	700
2047.878	706
2051.998	698
2056.114	698
2060.226	698
2064.334	709
2068.439	713
2072.54	724
2076.637	719
2080.73	731
2084.82	721
2088.906	728
2092.988	726
2097.066	708
2101.14	712
2105.211	715
2109.278	714
2113.342	696
2117.401	691
2121.457	683
2125.509	687
2129.558	688
2133.602	677
2137.643	685
2141.681	674
2145.714	674
2149.744	666
2153.77	684
2157.793	675
2161.812	670
2165.827	655
2169.838	653
2173.846	638
2177.851	621
2181.851	615
2185.848	609
2189.841	618
2193.831	595
2197.817	595
2201.799	590
2205.778	592
2209.753	590
2213.725	600
2217.693	591
2221.657	594
2225.618	598
2229.575	595
2233.529	575
2237.479	578
2241.425	578
2245.368	569
2249.307	556
2253.243	547
2257.175	540
2261.104	538
2265.029	546
2268.95	531
2272.868	519
2276.783	509
2280.694	500
2284.601	500
2288.505	484
2292.405	486
2296.302	478
2300.195	475
2304.085	478
2307.971	461
2311.854	463
2315.734	462
2319.609	451
2323.482	431
2327.351	434
2331.216	434
2335.078	438
2338.937	417
2342.792	422
2346.643	407
2350.492	418
2354.336	439
2358.178	424
2362.015	431
2365.85	429
2369.681	423
2373.508	428
2377.333	431
2381.153	426
2384.971	429
2388.785	415
2392.595	401
2396.402	414
2400.206	416
2404.007	410
2407.804	410
2411.597	409
2415.388	405
2419.174	406
2422.958	404
2426.738	398
2430.515	406
2434.289	402
2438.059	398
2441.825	387
2445.589	396
2449.349	393
2453.106	384
2456.859	377
2460.61	385
2464.356	381
2468.1	367
2471.84	368
2475.577	366
2479.311	359
2483.041	364
2486.768	379
2490.492	363
2494.213	372
2497.93	369
2501.644	367
2505.355	370
2509.062	366
2512.766	366
2516.467	359
2520.165	357
2523.859	358
2527.551	352
2531.239	354
2534.923	347
2538.605	345
2542.283	333
2545.958	341
2549.63	345
2553.299	344
2556.964	327
2560.626	336
2564.285	332
2567.941	330
2571.594	327
2575.243	329
2578.89	327
2582.533	321
2586.173	317
2589.809	310
2593.443	312
2597.073	312
2600.701	309
2604.325	317
2607.946	304
2611.564	316
2615.178	309
2618.79	311
2622.398	305
2626.004	297
2629.606	295
2633.205	296
2636.801	295
2640.394	288
2643.983	295
2647.57	289
2651.153	283
2654.734	284
2658.311	272
2661.885	275
2665.456	274
2669.025	271
2672.589	263
2676.151	264
2679.71	259
2683.266	263
2686.819	258
2690.368	254
2693.915	258
2697.458	250
2700.999	244
2704.536	251
2708.071	236
2711.602	241
2715.13	240
2718.656	235
2722.178	241
2725.697	238
2729.214	237
2732.727	244
2736.237	239
2739.744	248
2743.249	241
2746.75	240
2750.248	243
2753.743	248
2757.236	234
2760.725	234
2764.211	236
2767.695	238
2771.175	229
2774.652	231
2778.127	228
2781.598	226
2785.067	231
2788.532	230
2791.995	233
2795.455	221
2798.911	234
2802.365	238
2805.816	233
2809.264	230
2812.709	232
2816.151	227
2819.59	226
2823.026	233
2826.46	245
2829.89	232
2833.318	235
2836.742	236
2840.164	228
2843.583	243
2846.999	238
2850.412	240
2853.822	242
2857.229	242
2860.634	241
2864.035	247
2867.434	251
2870.83	246
2874.223	246
2877.613	259
2881	252
2884.385	258
2887.766	260
2891.145	255
2894.521	258
2897.894	262
2901.264	266
2904.631	258
2907.996	272
2911.358	263
2914.717	261
2918.073	265
2921.426	268
2924.777	283
2928.124	279
2931.469	276
2934.811	284
2938.15	299
2941.487	299
2944.821	306
2948.152	300
2951.48	303
2954.805	308
2958.128	317
2961.447	333
2964.765	321
2968.079	323
2971.39	338
2974.699	342
2978.005	339
2981.308	352
2984.609	366
2987.907	365
2991.202	384
2994.494	402
2997.784	398
3001.07	407
3004.355	411
3007.636	427
3010.915	428
3014.191	447
3017.464	443
3020.734	447
3024.002	462
3027.267	474
3030.53	483
3033.789	489
3037.046	494
3040.301	507
3043.552	516
3046.801	521
3050.048	542
3053.291	564
3056.532	575
3059.771	594
3063.006	606
3066.239	628
3069.469	651
3072.697	665
3075.922	668
3079.144	689
3082.364	727
3085.581	726
3088.795	732
3092.007	755
3095.216	766
3098.423	785
3101.627	808
3104.828	822
3108.026	837
3111.222	860
3114.416	869
3117.607	904
3120.795	904
3123.98	930
3127.163	959
3130.344	950
3133.521	1005
3136.696	1020
3139.869	1038
3143.039	1055
3146.206	1069
3149.371	1075
3152.533	1101
3155.693	1103
3158.85	1108
3162.005	1112
3165.157	1118
3168.306	1123
3171.453	1121
3174.597	1123
3177.739	1128
3180.878	1138
3184.014	1154
3187.149	1140
3190.28	1156
3193.409	1157
3196.536	1161
3199.659	1148
3202.781	1160
3205.9	1160
3209.016	1142
3212.13	1160
3215.241	1167
3218.35	1150
3221.456	1128
3224.56	1116
3227.661	1112
3230.76	1098
3233.856	1084
3236.95	1081
3240.041	1067
3243.13	1075
3246.216	1045
3249.3	1048
3252.382	1043
3255.46	1033
3258.537	1034
3261.611	1038
3264.682	1030
3267.751	1035
3270.818	1019
3273.882	1016
3276.943	1002
3280.002	1007
3283.059	992
3286.113	969
3289.165	957
3292.214	950
3295.261	948
3298.306	930
3301.348	918
3304.387	904
3307.425	883
3310.459	866
3313.492	863
3316.521	843
3319.549	850
3322.574	830
3325.597	822
3328.617	816
3331.635	821
3334.65	804
3337.663	807
3340.674	806
3343.682	807
3346.688	791
3349.691	805
3352.692	782
3355.691	778
3358.687	783
3361.681	773
3364.673	756
3367.662	744
3370.649	735
3373.633	724
3376.615	707
3379.595	711
3382.572	688
3385.547	687
3388.52	681
3391.49	661
3394.458	660
3397.424	654
3400.387	636
3403.348	634
3406.307	634
3409.263	625
3412.217	616
3415.168	601
3418.118	603
3421.065	598
3424.009	593
3426.951	587
3429.891	565
3432.829	567
3435.764	552
3438.697	537
3441.628	526
3444.557	513
3447.483	494
3450.407	486
3453.328	465
3456.247	463
3459.164	451
3462.079	433
3464.991	431
3467.902	398
3470.809	391
3473.715	377
3476.618	360
3479.519	352
3482.418	349
3485.315	337
3488.209	330
3491.101	328
3493.99	307
3496.878	299
3499.763	283
3502.646	281
3505.527	262
3508.405	254
3511.281	247
3514.155	236
3517.027	226
3519.897	205
3522.764	203
3525.629	196
3528.492	182
3531.352	171
3534.211	167
3537.067	154
3539.921	139
3542.773	136
3545.622	125
3548.469	114
3551.315	116
3554.157	105
3556.998	96
3559.837	90
3562.673	85
3565.507	76
3568.339	71
3571.169	63
3573.996	57
3576.822	54
3579.645	45
3582.466	45
3585.285	43
3588.101	35
3590.916	34
3593.728	27
3596.538	22
3599.346	13
3602.152	11
3604.956	3
3607.757	-2
3610.556	-9
3613.354	-10
3616.149	-17
3618.942	-18
3621.732	-16
3624.521	-26
3627.307	-19
3630.092	-24
3632.874	-27
3635.654	-29
3638.432	-34
3641.208	-32
3643.982	-36
3646.753	-36
3649.523	-39
3652.29	-40
3655.055	-49
3657.818	-49
3660.579	-51
3663.338	-54
3666.095	-57
3668.849	-57
3671.602	-60
3674.352	-66
3677.101	-65
3679.847	-70
3682.591	-71
3685.333	-68
3688.073	-71
3690.811	-74
3693.547	-73
3696.281	-71
3699.013	-78
3701.742	-79
3704.47	-82
3707.195	-85
3709.919	-84
3712.64	-82
3715.359	-83
3718.076	-84
3720.792	-83
3723.505	-84
3726.216	-84
3728.925	-86
3731.632	-88
3734.336	-88
3737.039	-91
3739.74	-91
3742.439	-93
3745.136	-92
3747.83	-96
3750.523	-90
3753.213	-95
3755.902	-99
3758.589	-90
3761.273	-93
3763.956	-96
3766.636	-95
3769.315	-96
3771.991	-98
3774.665	-93
3777.338	-96
3780.008	-97
3782.677	-94
3785.343	-96
3788.007	-101
3790.67	-98
3793.33	-101
3795.989	-102
3798.645	-103
3801.299	-101
3803.952	-101
3806.602	-102
3809.251	-102
3811.897	-98
3814.542	-98
3817.184	-97
3819.825	-98
3822.463	-102
3825.1	-102
3827.735	-102
3830.367	-106
3832.998	-108
3835.627	-105
3838.253	-105
3840.878	-103
3843.501	-103
3846.122	-103
3848.741	-110
3851.358	-105
3853.973	-109
3856.586	-106
3859.197	-104
3861.806	-104
3864.414	-105
3867.019	-104
3869.622	-103
3872.224	-100
3874.823	-103
3877.421	-101
3880.016	-96
3882.61	-100
3885.202	-98
3887.792	-97
3890.38	-106
3892.966	-106
3895.55	-106
3898.132	-107
3900.713	-105
3903.291	-104
3905.868	-106
3908.442	-105
3911.015	-107
3913.586	-106
3916.155	-108
3918.722	-109
3921.287	-111
3923.85	-110
3926.411	-112
3928.971	-109
3931.528	-107
3934.084	-108
3936.638	-110
3939.19	-111
3941.74	-108
3944.288	-109
3946.834	-110
3949.378	-108
3951.921	-108
3954.462	-109
3957	-107
3959.537	-108
3962.072	-107
3964.606	-104
3967.137	-111
3969.667	-112
3972.194	-109
3974.72	-111
3977.244	-115
3979.766	-111
3982.286	-108
3984.805	-106
3987.321	-104
3989.836	-104
3992.349	-103
3994.86	-109
3997.369	-105
3999.877	-106
4002.382	-105
4004.886	-104
4007.388	-106
4009.888	-110
4012.386	-111
4014.883	-107
4017.377	-107
4019.87	-105
4022.361	-104
4024.85	-106
4027.338	-107
4029.823	-107
4032.307	-110
4034.789	-108
4037.269	-108
4039.747	-110
4042.224	-110
4044.699	-104
4047.172	-106
4049.643	-108
4052.112	-108
4054.58	-107
4057.046	-107
4059.51	-111
4061.972	-112
4064.432	-110
4066.891	-109
4069.348	-105
4071.803	-109
4074.256	-109
4076.708	-106
4079.158	-108
4081.606	-105
4084.052	-105
4086.497	-107
4088.939	-114
4091.38	-109
4093.819	-113
4096.257	-111
4098.693	-107
4101.127	-113
4103.559	-117
4105.989	-79
4108.418	-71
4110.845	-71
4113.27	-61
4115.694	-55
4118.115	-50
4120.535	-113
4122.954	-110
4125.37	-108
4127.785	-107
4130.198	-107
4132.609	-105
4135.019	-112
4137.427	-108
4139.833	-112
4142.237	-113
