Data from 10000CFU3_B_RamanShift_1.txt Node
Date: Tue Jan 24 18:06:11 IST 2017
User: aro
Spectrometer: QEPB0276
Trigger mode: 0
Integration Time (sec): 5.000000E0
Scans to average: 1
Electric dark correction enabled: true
Nonlinearity correction enabled: false
Boxcar width: 0
XAxis mode: Raman Shifts
Number of Pixels in Spectrum: 1044
>>>>>Begin Spectral Data<<<<<
160.701	-29.75
166.742	-0.75
172.777	100.25
178.805	408.25
184.826	1141.25
190.841	2327.25
196.849	3691.25
202.85	4560.25
208.845	4767.25
214.833	4635.25
220.815	4440.25
226.789	4352.25
232.758	4214.25
238.719	4097.25
244.674	3948.25
250.623	3761.25
256.565	3600.25
262.5	3444.25
268.429	3307.25
274.351	3194.25
280.267	3061.25
286.176	2956.25
292.079	2851.25
297.975	2766.25
303.865	2675.25
309.748	2629.25
315.625	2553.25
321.495	2481.25
327.359	2471.25
333.217	2413.25
339.068	2412.25
344.912	2408.25
350.751	2387.25
356.583	2393.25
362.408	2384.25
368.227	2396.25
374.04	2400.25
379.847	2409.25
385.647	2412.25
391.44	2417.25
397.228	2417.25
403.009	2427.25
408.784	2460.25
414.553	2475.25
420.315	2469.25
426.071	2480.25
431.821	2482.25
437.565	2471.25
443.302	2438.25
449.033	2454.25
454.758	2462.25
460.477	2409.25
466.189	2419.25
471.896	2415.25
477.596	2388.25
483.29	2383.25
488.978	2392.25
494.66	2348.25
500.335	2339.25
506.005	2296.25
511.668	2257.25
517.325	2222.25
522.977	2176.25
528.622	2155.25
534.261	2127.25
539.894	2120.25
545.521	2097.25
551.141	2097.25
556.756	2072.25
562.365	2071.25
567.968	2044.25
573.565	2072.25
579.155	2022.25
584.74	2015.25
590.319	1996.25
595.892	1982.25
601.459	1968.25
607.02	1966.25
612.575	1955.25
618.124	1938.25
623.667	1908.25
629.204	1902.25
634.735	1877.25
640.261	1871.25
645.781	1842.25
651.294	1838.25
656.802	1849.25
662.304	1817.25
667.8	1833.25
673.29	1834.25
678.775	1821.25
684.254	1819.25
689.726	1802.25
695.193	1781.25
700.655	1769.25
706.11	1753.25
711.56	1748.25
717.004	1736.25
722.442	1746.25
727.874	1718.25
733.301	1706.25
738.722	1696.25
744.137	1706.25
749.547	1702.25
754.951	1695.25
760.349	1693.25
765.741	1689.25
771.128	1692.25
776.509	1694.25
781.885	1692.25
787.254	1668.25
792.618	1669.25
797.977	1665.25
803.33	1649.25
808.677	1656.25
814.019	1627.25
819.355	1624.25
824.686	1585.25
830.011	1562.25
835.33	1573.25
840.644	1562.25
845.952	1565.25
851.255	1549.25
856.552	1556.25
861.844	1534.25
867.13	1528.25
872.41	1525.25
877.686	1514.25
882.955	1495.25
888.219	1472.25
893.478	1449.25
898.731	1414.25
903.979	1408.25
909.221	1394.25
914.458	1391.25
919.69	1380.25
924.916	1388.25
930.136	1403.25
935.351	1384.25
940.561	1376.25
945.766	1359.25
950.965	1351.25
956.158	1366.25
961.347	1343.25
966.529	1321.25
971.707	1299.25
976.879	1288.25
982.046	1275.25
987.208	1252.25
992.364	1274.25
997.515	1261.25
1002.66	1269.25
1007.801	1282.25
1012.936	1289.25
1018.066	1301.25
1023.19	1319.25
1028.309	1316.25
1033.423	1315.25
1038.532	1304.25
1043.636	1301.25
1048.734	1296.25
1053.827	1270.25
1058.915	1273.25
1063.998	1263.25
1069.075	1238.25
1074.147	1263.25
1079.214	1261.25
1084.276	1269.25
1089.333	1280.25
1094.385	1299.25
1099.431	1310.25
1104.472	1301.25
1109.509	1295.25
1114.54	1271.25
1119.565	1265.25
1124.586	1241.25
1129.602	1236.25
1134.613	1242.25
1139.618	1231.25
1144.619	1231.25
1149.614	1239.25
1154.604	1238.25
1159.589	1238.25
1164.57	1251.25
1169.545	1244.25
1174.515	1249.25
1179.48	1251.25
1184.44	1250.25
1189.395	1229.25
1194.345	1230.25
1199.29	1206.25
1204.23	1218.25
1209.165	1235.25
1214.095	1260.25
1219.021	1258.25
1223.941	1266.25
1228.856	1273.25
1233.766	1282.25
1238.672	1272.25
1243.572	1275.25
1248.467	1254.25
1253.358	1247.25
1258.244	1235.25
1263.124	1220.25
1268	1205.25
1272.871	1185.25
1277.737	1181.25
1282.599	1175.25
1287.455	1177.25
1292.306	1195.25
1297.153	1195.25
1301.995	1222.25
1306.832	1209.25
1311.664	1228.25
1316.491	1212.25
1321.314	1221.25
1326.132	1214.25
1330.945	1196.25
1335.753	1180.25
1340.556	1158.25
1345.354	1156.25
1350.148	1157.25
1354.937	1149.25
1359.722	1147.25
1364.501	1136.25
1369.276	1118.25
1374.046	1126.25
1378.811	1114.25
1383.572	1108.25
1388.327	1094.25
1393.079	1097.25
1397.825	1089.25
1402.567	1081.25
1407.304	1066.25
1412.036	1071.25
1416.764	1067.25
1421.487	1071.25
1426.205	1083.25
1430.919	1085.25
1435.628	1105.25
1440.333	1107.25
1445.032	1116.25
1449.727	1119.25
1454.418	1118.25
1459.104	1109.25
1463.785	1119.25
1468.462	1116.25
1473.134	1119.25
1477.802	1089.25
1482.465	1101.25
1487.123	1086.25
1491.777	1088.25
1496.426	1097.25
1501.071	1099.25
1505.711	1118.25
1510.347	1119.25
1514.978	1140.25
1519.604	1142.25
1524.226	1149.25
1528.844	1138.25
1533.457	1138.25
1538.065	1150.25
1542.669	1143.25
1547.269	1147.25
1551.864	1146.25
1556.454	1142.25
1561.041	1165.25
1565.622	1173.25
1570.199	1181.25
1574.772	1203.25
1579.34	1218.25
1583.904	1243.25
1588.464	1254.25
1593.019	1281.25
1597.569	1284.25
1602.115	1301.25
1606.657	1301.25
1611.195	1306.25
1615.728	1347.25
1620.256	1358.25
1624.78	1375.25
1629.3	1398.25
1633.816	1422.25
1638.327	1423.25
1642.834	1442.25
1647.336	1455.25
1651.834	1458.25
1656.328	1478.25
1660.817	1453.25
1665.302	1435.25
1669.783	1405.25
1674.259	1356.25
1678.732	1336.25
1683.199	1309.25
1687.663	1243.25
1692.122	1215.25
1696.577	1169.25
1701.028	1131.25
1705.474	1092.25
1709.917	1057.25
1714.355	1030.25
1718.788	1023.25
1723.218	999.25
1727.643	980.25
1732.064	964.25
1736.481	923.25
1740.893	907.25
1745.301	872.25
1749.705	868.25
1754.105	834.25
1758.501	815.25
1762.893	808.25
1767.28	809.25
1771.663	791.25
1776.042	784.25
1780.417	787.25
1784.787	794.25
1789.154	788.25
1793.516	780.25
1797.874	785.25
1802.228	795.25
1806.578	784.25
1810.924	766.25
1815.266	744.25
1819.603	740.25
1823.937	713.25
1828.266	727.25
1832.591	700.25
1836.913	705.25
1841.23	714.25
1845.543	710.25
1849.852	718.25
1854.156	706.25
1858.457	710.25
1862.754	721.25
1867.047	716.25
1871.335	724.25
1875.62	732.25
1879.9	727.25
1884.177	720.25
1888.449	723.25
1892.718	730.25
1896.982	718.25
1901.243	729.25
1905.499	716.25
1909.752	705.25
1914	710.25
1918.245	711.25
1922.485	700.25
1926.722	713.25
1930.954	722.25
1935.183	719.25
1939.408	730.25
1943.628	729.25
1947.845	739.25
1952.058	718.25
1956.267	724.25
1960.472	717.25
1964.673	697.25
1968.87	692.25
1973.063	691.25
1977.252	679.25
1981.438	676.25
1985.619	686.25
1989.797	673.25
1993.971	687.25
1998.14	673.25
2002.306	690.25
2006.469	685.25
2010.627	683.25
2014.781	693.25
2018.932	694.25
2023.078	688.25
2027.221	693.25
2031.36	683.25
2035.495	672.25
2039.627	677.25
2043.754	671.25
2047.878	663.25
2051.998	666.25
2056.114	670.25
2060.226	667.25
2064.334	677.25
2068.439	671.25
2072.54	679.25
2076.637	693.25
2080.73	677.25
2084.82	681.25
2088.906	693.25
2092.988	692.25
2097.066	682.25
2101.14	682.25
2105.211	685.25
2109.278	673.25
2113.342	671.25
2117.401	679.25
2121.457	656.25
2125.509	665.25
2129.558	657.25
2133.602	664.25
2137.643	647.25
2141.681	658.25
2145.714	638.25
2149.744	650.25
2153.77	641.25
2157.793	640.25
2161.812	619.25
2165.827	638.25
2169.838	605.25
2173.846	605.25
2177.851	594.25
2181.851	584.25
2185.848	576.25
2189.841	589.25
2193.831	569.25
2197.817	569.25
2201.799	564.25
2205.778	558.25
2209.753	560.25
2213.725	564.25
2217.693	561.25
2221.657	557.25
2225.618	550.25
2229.575	552.25
2233.529	558.25
2237.479	543.25
2241.425	546.25
2245.368	515.25
2249.307	524.25
2253.243	516.25
2257.175	507.25
2261.104	499.25
2265.029	493.25
2268.95	481.25
2272.868	489.25
2276.783	474.25
2280.694	468.25
2284.601	463.25
2288.505	451.25
2292.405	455.25
2296.302	433.25
2300.195	436.25
2304.085	444.25
2307.971	431.25
2311.854	424.25
2315.734	418.25
2319.609	406.25
2323.482	399.25
2327.351	400.25
2331.216	390.25
2335.078	396.25
2338.937	383.25
2342.792	373.25
2346.643	384.25
2350.492	379.25
2354.336	390.25
2358.178	385.25
2362.015	389.25
2365.85	384.25
2369.681	383.25
2373.508	376.25
2377.333	375.25
2381.153	381.25
2384.971	383.25
2388.785	384.25
2392.595	376.25
2396.402	365.25
2400.206	370.25
2404.007	383.25
2407.804	374.25
2411.597	369.25
2415.388	361.25
2419.174	369.25
2422.958	367.25
2426.738	366.25
2430.515	362.25
2434.289	360.25
2438.059	369.25
2441.825	350.25
2445.589	346.25
2449.349	347.25
2453.106	346.25
2456.859	340.25
2460.61	340.25
2464.356	339.25
2468.1	333.25
2471.84	334.25
2475.577	331.25
2479.311	334.25
2483.041	340.25
2486.768	332.25
2490.492	329.25
2494.213	333.25
2497.93	330.25
2501.644	337.25
2505.355	332.25
2509.062	332.25
2512.766	318.25
2516.467	334.25
2520.165	318.25
2523.859	328.25
2527.551	322.25
2531.239	315.25
2534.923	310.25
2538.605	307.25
2542.283	322.25
2545.958	300.25
2549.63	308.25
2553.299	305.25
2556.964	310.25
2560.626	305.25
2564.285	298.25
2567.941	299.25
2571.594	294.25
2575.243	293.25
2578.89	289.25
2582.533	288.25
2586.173	282.25
2589.809	283.25
2593.443	273.25
2597.073	283.25
2600.701	273.25
2604.325	282.25
2607.946	277.25
2611.564	270.25
2615.178	274.25
2618.79	271.25
2622.398	272.25
2626.004	263.25
2629.606	268.25
2633.205	260.25
2636.801	260.25
2640.394	257.25
2643.983	252.25
2647.57	254.25
2651.153	249.25
2654.734	251.25
2658.311	243.25
2661.885	246.25
2665.456	245.25
2669.025	235.25
2672.589	240.25
2676.151	232.25
2679.71	236.25
2683.266	229.25
2686.819	237.25
2690.368	224.25
2693.915	221.25
2697.458	222.25
2700.999	223.25
2704.536	213.25
2708.071	220.25
2711.602	211.25
2715.13	209.25
2718.656	219.25
2722.178	198.25
2725.697	212.25
2729.214	212.25
2732.727	216.25
2736.237	219.25
2739.744	220.25
2743.249	211.25
2746.75	218.25
2750.248	215.25
2753.743	211.25
2757.236	213.25
2760.725	205.25
2764.211	219.25
2767.695	210.25
2771.175	215.25
2774.652	201.25
2778.127	200.25
2781.598	211.25
2785.067	203.25
2788.532	199.25
2791.995	208.25
2795.455	203.25
2798.911	210.25
2802.365	212.25
2805.816	213.25
2809.264	209.25
2812.709	211.25
2816.151	209.25
2819.59	215.25
2823.026	215.25
2826.46	217.25
2829.89	211.25
2833.318	213.25
2836.742	218.25
2840.164	221.25
2843.583	217.25
2846.999	215.25
2850.412	228.25
2853.822	224.25
2857.229	225.25
2860.634	227.25
2864.035	246.25
2867.434	236.25
2870.83	239.25
2874.223	251.25
2877.613	244.25
2881	244.25
2884.385	247.25
2887.766	242.25
2891.145	248.25
2894.521	244.25
2897.894	256.25
2901.264	250.25
2904.631	260.25
2907.996	252.25
2911.358	258.25
2914.717	259.25
2918.073	265.25
2921.426	273.25
2924.777	277.25
2928.124	276.25
2931.469	275.25
2934.811	289.25
2938.15	294.25
2941.487	301.25
2944.821	301.25
2948.152	303.25
2951.48	304.25
2954.805	310.25
2958.128	313.25
2961.447	331.25
2964.765	330.25
2968.079	333.25
2971.39	340.25
2974.699	358.25
2978.005	354.25
2981.308	363.25
2984.609	385.25
2987.907	397.25
2991.202	393.25
2994.494	417.25
2997.784	426.25
3001.07	434.25
3004.355	441.25
3007.636	460.25
3010.915	467.25
3014.191	481.25
3017.464	476.25
3020.734	487.25
3024.002	502.25
3027.267	504.25
3030.53	521.25
3033.789	531.25
3037.046	539.25
3040.301	549.25
3043.552	557.25
3046.801	572.25
3050.048	596.25
3053.291	616.25
3056.532	632.25
3059.771	643.25
3063.006	663.25
3066.239	681.25
3069.469	715.25
3072.697	729.25
3075.922	747.25
3079.144	775.25
3082.364	792.25
3085.581	803.25
3088.795	810.25
3092.007	839.25
3095.216	870.25
3098.423	872.25
3101.627	909.25
3104.828	916.25
3108.026	943.25
3111.222	947.25
3114.416	984.25
3117.607	1012.25
3120.795	1027.25
3123.98	1053.25
3127.163	1076.25
3130.344	1096.25
3133.521	1130.25
3136.696	1150.25
3139.869	1169.25
3143.039	1179.25
3146.206	1218.25
3149.371	1236.25
3152.533	1227.25
3155.693	1236.25
3158.85	1248.25
3162.005	1267.25
3165.157	1270.25
3168.306	1278.25
3171.453	1280.25
3174.597	1286.25
3177.739	1281.25
3180.878	1282.25
3184.014	1291.25
3187.149	1294.25
3190.28	1309.25
3193.409	1303.25
3196.536	1306.25
3199.659	1310.25
3202.781	1306.25
3205.9	1309.25
3209.016	1319.25
3212.13	1315.25
3215.241	1301.25
3218.35	1295.25
3221.456	1293.25
3224.56	1276.25
3227.661	1255.25
3230.76	1260.25
3233.856	1247.25
3236.95	1231.25
3240.041	1224.25
3243.13	1207.25
3246.216	1190.25
3249.3	1199.25
3252.382	1188.25
3255.46	1165.25
3258.537	1168.25
3261.611	1160.25
3264.682	1176.25
3267.751	1171.25
3270.818	1156.25
3273.882	1154.25
3276.943	1145.25
3280.002	1135.25
3283.059	1126.25
3286.113	1127.25
3289.165	1086.25
3292.214	1076.25
3295.261	1061.25
3298.306	1048.25
3301.348	1024.25
3304.387	1019.25
3307.425	994.25
3310.459	976.25
3313.492	968.25
3316.521	969.25
3319.549	943.25
3322.574	946.25
3325.597	923.25
3328.617	930.25
3331.635	910.25
3334.65	915.25
3337.663	908.25
3340.674	903.25
3343.682	912.25
3346.688	903.25
3349.691	909.25
3352.692	896.25
3355.691	886.25
3358.687	886.25
3361.681	872.25
3364.673	850.25
3367.662	852.25
3370.649	830.25
3373.633	837.25
3376.615	814.25
3379.595	811.25
3382.572	796.25
3385.547	781.25
3388.52	773.25
3391.49	770.25
3394.458	738.25
3397.424	750.25
3400.387	732.25
3403.348	722.25
3406.307	708.25
3409.263	699.25
3412.217	698.25
3415.168	691.25
3418.118	683.25
3421.065	684.25
3424.009	664.25
3426.951	669.25
3429.891	656.25
3432.829	648.25
3435.764	634.25
3438.697	605.25
3441.628	598.25
3444.557	579.25
3447.483	573.25
3450.407	562.25
3453.328	534.25
3456.247	529.25
3459.164	517.25
3462.079	489.25
3464.991	474.25
3467.902	456.25
3470.809	446.25
3473.715	435.25
3476.618	414.25
3479.519	411.25
3482.418	389.25
3485.315	390.25
3488.209	375.25
3491.101	363.25
3493.99	360.25
3496.878	342.25
3499.763	332.25
3502.646	314.25
3505.527	317.25
3508.405	299.25
3511.281	283.25
3514.155	274.25
3517.027	256.25
3519.897	238.25
3522.764	236.25
3525.629	220.25
3528.492	206.25
3531.352	207.25
3534.211	194.25
3537.067	178.25
3539.921	160.25
3542.773	152.25
3545.622	149.25
3548.469	138.25
3551.315	120.25
3554.157	125.25
3556.998	115.25
3559.837	109.25
3562.673	98.25
3565.507	92.25
3568.339	81.25
3571.169	76.25
3573.996	68.25
3576.822	59.25
3579.645	57.25
3582.466	51.25
3585.285	41.25
3588.101	48.25
3590.916	46.25
3593.728	37.25
3596.538	29.25
3599.346	21.25
3602.152	18.25
3604.956	15.25
3607.757	5.25
3610.556	-1.75
3613.354	-4.75
3616.149	-10.75
3618.942	-10.75
3621.732	-15.75
3624.521	-17.75
3627.307	-15.75
3630.092	-26.75
3632.874	-24.75
3635.654	-25.75
3638.432	-33.75
3641.208	-29.75
3643.982	-34.75
3646.753	-34.75
3649.523	-41.75
3652.29	-42.75
3655.055	-43.75
3657.818	-47.75
3660.579	-48.75
3663.338	-52.75
3666.095	-60.75
3668.849	-57.75
3671.602	-62.75
3674.352	-68.75
3677.101	-67.75
3679.847	-72.75
3682.591	-74.75
3685.333	-70.75
3688.073	-71.75
3690.811	-69.75
3693.547	-71.75
3696.281	-77.75
3699.013	-79.75
3701.742	-83.75
3704.47	-84.75
3707.195	-85.75
3709.919	-82.75
3712.64	-84.75
3715.359	-86.75
3718.076	-93.75
3720.792	-84.75
3723.505	-85.75
3726.216	-89.75
3728.925	-92.75
3731.632	-90.75
3734.336	-91.75
3737.039	-95.75
3739.74	-95.75
3742.439	-97.75
3745.136	-94.75
3747.83	-98.75
3750.523	-92.75
3753.213	-95.75
3755.902	-92.75
3758.589	-95.75
3761.273	-96.75
3763.956	-99.75
3766.636	-99.75
3769.315	-105.75
3771.991	-105.75
3774.665	-103.75
3777.338	-103.75
3780.008	-103.75
3782.677	-102.75
3785.343	-102.75
3788.007	-107.75
3790.67	-103.75
3793.33	-106.75
3795.989	-103.75
3798.645	-98.75
3801.299	-105.75
3803.952	-102.75
3806.602	-101.75
3809.251	-107.75
3811.897	-104.75
3814.542	-107.75
3817.184	-104.75
3819.825	-108.75
3822.463	-110.75
3825.1	-109.75
3827.735	-109.75
3830.367	-109.75
3832.998	-111.75
3835.627	-110.75
3838.253	-107.75
3840.878	-106.75
3843.501	-106.75
3846.122	-107.75
3848.741	-107.75
3851.358	-108.75
3853.973	-109.75
3856.586	-105.75
3859.197	-110.75
3861.806	-111.75
3864.414	-109.75
3867.019	-108.75
3869.622	-111.75
3872.224	-107.75
3874.823	-107.75
3877.421	-104.75
3880.016	-101.75
3882.61	-99.75
3885.202	-102.75
3887.792	-103.75
3890.38	-104.75
3892.966	-113.75
3895.55	-110.75
3898.132	-110.75
3900.713	-109.75
3903.291	-108.75
3905.868	-110.75
3908.442	-111.75
3911.015	-110.75
3913.586	-115.75
3916.155	-109.75
3918.722	-109.75
3921.287	-112.75
3923.85	-114.75
3926.411	-114.75
3928.971	-112.75
3931.528	-111.75
3934.084	-117.75
3936.638	-115.75
3939.19	-115.75
3941.74	-114.75
3944.288	-115.75
3946.834	-115.75
3949.378	-111.75
3951.921	-113.75
3954.462	-113.75
3957	-111.75
3959.537	-110.75
3962.072	-109.75
3964.606	-109.75
3967.137	-112.75
3969.667	-116.75
3972.194	-114.75
3974.72	-115.75
3977.244	-114.75
3979.766	-115.75
3982.286	-111.75
3984.805	-114.75
3987.321	-107.75
3989.836	-110.75
3992.349	-110.75
3994.86	-108.75
3997.369	-108.75
3999.877	-108.75
4002.382	-109.75
4004.886	-110.75
4007.388	-112.75
4009.888	-111.75
4012.386	-112.75
4014.883	-106.75
4017.377	-109.75
4019.87	-109.75
4022.361	-111.75
4024.85	-113.75
4027.338	-112.75
4029.823	-113.75
4032.307	-116.75
4034.789	-114.75
4037.269	-113.75
4039.747	-116.75
4042.224	-117.75
4044.699	-110.75
4047.172	-109.75
4049.643	-109.75
4052.112	-107.75
4054.58	-109.75
4057.046	-110.75
4059.51	-111.75
4061.972	-117.75
4064.432	-114.75
4066.891	-115.75
4069.348	-115.75
4071.803	-114.75
4074.256	-112.75
4076.708	-114.75
4079.158	-110.75
4081.606	-110.75
4084.052	-111.75
4086.497	-114.75
4088.939	-115.75
4091.38	-112.75
4093.819	-114.75
4096.257	-114.75
4098.693	-115.75
4101.127	-119.75
4103.559	-120.75
4105.989	-75.75
4108.418	-72.75
4110.845	-69.75
4113.27	-65.75
4115.694	-56.75
4118.115	-45.75
4120.535	-114.75
4122.954	-112.75
4125.37	-111.75
4127.785	-112.75
4130.198	-111.75
4132.609	-114.75
4135.019	-117.75
4137.427	-116.75
4139.833	-119.75
4142.237	-123.75
