Data from 10000CFU3_A_RamanShift_1.txt Node
Date: Tue Jan 24 17:28:51 IST 2017
User: aro
Spectrometer: QEPB0276
Trigger mode: 0
Integration Time (sec): 5.000000E0
Scans to average: 1
Electric dark correction enabled: true
Nonlinearity correction enabled: false
Boxcar width: 0
XAxis mode: Raman Shifts
Number of Pixels in Spectrum: 1044
>>>>>Begin Spectral Data<<<<<
160.701	-36.38
166.742	1.62
172.777	99.62
178.805	407.62
184.826	1129.62
190.841	2332.62
196.849	3650.62
202.85	4510.62
208.845	4700.62
214.833	4561.62
220.815	4386.62
226.789	4270.62
232.758	4153.62
238.719	4030.62
244.674	3875.62
250.623	3699.62
256.565	3547.62
262.5	3390.62
268.429	3258.62
274.351	3105.62
280.267	3009.62
286.176	2895.62
292.079	2814.62
297.975	2712.62
303.865	2642.62
309.748	2565.62
315.625	2487.62
321.495	2447.62
327.359	2412.62
333.217	2384.62
339.068	2351.62
344.912	2357.62
350.751	2330.62
356.583	2332.62
362.408	2347.62
368.227	2319.62
374.04	2338.62
379.847	2361.62
385.647	2361.62
391.44	2368.62
397.228	2373.62
403.009	2404.62
408.784	2421.62
414.553	2432.62
420.315	2419.62
426.071	2433.62
431.821	2442.62
437.565	2401.62
443.302	2420.62
449.033	2396.62
454.758	2405.62
460.477	2411.62
466.189	2381.62
471.896	2372.62
477.596	2358.62
483.29	2345.62
488.978	2363.62
494.66	2342.62
500.335	2297.62
506.005	2247.62
511.668	2208.62
517.325	2200.62
522.977	2144.62
528.622	2126.62
534.261	2088.62
539.894	2085.62
545.521	2084.62
551.141	2060.62
556.756	2050.62
562.365	2026.62
567.968	2005.62
573.565	1998.62
579.155	1987.62
584.74	1984.62
590.319	1972.62
595.892	1965.62
601.459	1932.62
607.02	1922.62
612.575	1912.62
618.124	1879.62
623.667	1869.62
629.204	1867.62
634.735	1862.62
640.261	1859.62
645.781	1815.62
651.294	1817.62
656.802	1805.62
662.304	1809.62
667.8	1788.62
673.29	1776.62
678.775	1789.62
684.254	1775.62
689.726	1759.62
695.193	1759.62
700.655	1745.62
706.11	1731.62
711.56	1723.62
717.004	1701.62
722.442	1688.62
727.874	1687.62
733.301	1677.62
738.722	1676.62
744.137	1662.62
749.547	1679.62
754.951	1674.62
760.349	1668.62
765.741	1646.62
771.128	1663.62
776.509	1658.62
781.885	1671.62
787.254	1648.62
792.618	1635.62
797.977	1626.62
803.33	1615.62
808.677	1619.62
814.019	1595.62
819.355	1587.62
824.686	1578.62
830.011	1557.62
835.33	1552.62
840.644	1530.62
845.952	1540.62
851.255	1540.62
856.552	1519.62
861.844	1529.62
867.13	1502.62
872.41	1517.62
877.686	1486.62
882.955	1473.62
888.219	1437.62
893.478	1423.62
898.731	1398.62
903.979	1378.62
909.221	1368.62
914.458	1365.62
919.69	1361.62
924.916	1356.62
930.136	1371.62
935.351	1360.62
940.561	1344.62
945.766	1344.62
950.965	1338.62
956.158	1326.62
961.347	1313.62
966.529	1282.62
971.707	1276.62
976.879	1280.62
982.046	1245.62
987.208	1243.62
992.364	1242.62
997.515	1257.62
1002.66	1258.62
1007.801	1279.62
1012.936	1278.62
1018.066	1286.62
1023.19	1301.62
1028.309	1300.62
1033.423	1299.62
1038.532	1280.62
1043.636	1282.62
1048.734	1281.62
1053.827	1255.62
1058.915	1242.62
1063.998	1240.62
1069.075	1243.62
1074.147	1243.62
1079.214	1249.62
1084.276	1258.62
1089.333	1281.62
1094.385	1260.62
1099.431	1283.62
1104.472	1271.62
1109.509	1273.62
1114.54	1275.62
1119.565	1241.62
1124.586	1228.62
1129.602	1218.62
1134.613	1213.62
1139.618	1200.62
1144.619	1201.62
1149.614	1215.62
1154.604	1216.62
1159.589	1227.62
1164.57	1236.62
1169.545	1234.62
1174.515	1239.62
1179.48	1218.62
1184.44	1221.62
1189.395	1204.62
1194.345	1193.62
1199.29	1200.62
1204.23	1208.62
1209.165	1218.62
1214.095	1229.62
1219.021	1228.62
1223.941	1248.62
1228.856	1251.62
1233.766	1245.62
1238.672	1262.62
1243.572	1253.62
1248.467	1241.62
1253.358	1221.62
1258.244	1195.62
1263.124	1182.62
1268	1191.62
1272.871	1174.62
1277.737	1167.62
1282.599	1156.62
1287.455	1158.62
1292.306	1162.62
1297.153	1171.62
1301.995	1176.62
1306.832	1196.62
1311.664	1192.62
1316.491	1200.62
1321.314	1180.62
1326.132	1181.62
1330.945	1169.62
1335.753	1156.62
1340.556	1146.62
1345.354	1150.62
1350.148	1121.62
1354.937	1111.62
1359.722	1111.62
1364.501	1097.62
1369.276	1084.62
1374.046	1091.62
1378.811	1070.62
1383.572	1073.62
1388.327	1067.62
1393.079	1066.62
1397.825	1076.62
1402.567	1066.62
1407.304	1058.62
1412.036	1050.62
1416.764	1037.62
1421.487	1043.62
1426.205	1072.62
1430.919	1060.62
1435.628	1067.62
1440.333	1079.62
1445.032	1074.62
1449.727	1105.62
1454.418	1100.62
1459.104	1114.62
1463.785	1101.62
1468.462	1079.62
1473.134	1074.62
1477.802	1054.62
1482.465	1056.62
1487.123	1058.62
1491.777	1064.62
1496.426	1060.62
1501.071	1053.62
1505.711	1088.62
1510.347	1098.62
1514.978	1112.62
1519.604	1114.62
1524.226	1108.62
1528.844	1094.62
1533.457	1111.62
1538.065	1113.62
1542.669	1121.62
1547.269	1106.62
1551.864	1103.62
1556.454	1122.62
1561.041	1129.62
1565.622	1135.62
1570.199	1151.62
1574.772	1152.62
1579.34	1205.62
1583.904	1204.62
1588.464	1226.62
1593.019	1244.62
1597.569	1257.62
1602.115	1264.62
1606.657	1278.62
1611.195	1289.62
1615.728	1305.62
1620.256	1306.62
1624.78	1341.62
1629.3	1363.62
1633.816	1372.62
1638.327	1402.62
1642.834	1397.62
1647.336	1430.62
1651.834	1423.62
1656.328	1420.62
1660.817	1413.62
1665.302	1406.62
1669.783	1351.62
1674.259	1320.62
1678.732	1282.62
1683.199	1263.62
1687.663	1200.62
1692.122	1165.62
1696.577	1122.62
1701.028	1070.62
1705.474	1045.62
1709.917	1002.62
1714.355	986.62
1718.788	967.62
1723.218	968.62
1727.643	926.62
1732.064	927.62
1736.481	896.62
1740.893	872.62
1745.301	849.62
1749.705	823.62
1754.105	797.62
1758.501	810.62
1762.893	778.62
1767.28	774.62
1771.663	770.62
1776.042	759.62
1780.417	761.62
1784.787	761.62
1789.154	768.62
1793.516	756.62
1797.874	750.62
1802.228	748.62
1806.578	746.62
1810.924	735.62
1815.266	719.62
1819.603	709.62
1823.937	698.62
1828.266	704.62
1832.591	694.62
1836.913	680.62
1841.23	684.62
1845.543	681.62
1849.852	687.62
1854.156	684.62
1858.457	685.62
1862.754	699.62
1867.047	701.62
1871.335	703.62
1875.62	703.62
1879.9	699.62
1884.177	694.62
1888.449	691.62
1892.718	708.62
1896.982	688.62
1901.243	688.62
1905.499	682.62
1909.752	689.62
1914	685.62
1918.245	689.62
1922.485	683.62
1926.722	697.62
1930.954	679.62
1935.183	689.62
1939.408	698.62
1943.628	692.62
1947.845	696.62
1952.058	701.62
1956.267	697.62
1960.472	678.62
1964.673	676.62
1968.87	658.62
1973.063	668.62
1977.252	652.62
1981.438	655.62
1985.619	657.62
1989.797	649.62
1993.971	650.62
1998.14	653.62
2002.306	657.62
2006.469	666.62
2010.627	673.62
2014.781	663.62
2018.932	677.62
2023.078	669.62
2027.221	672.62
2031.36	663.62
2035.495	652.62
2039.627	648.62
2043.754	641.62
2047.878	630.62
2051.998	655.62
2056.114	637.62
2060.226	642.62
2064.334	647.62
2068.439	648.62
2072.54	653.62
2076.637	665.62
2080.73	658.62
2084.82	671.62
2088.906	678.62
2092.988	668.62
2097.066	653.62
2101.14	655.62
2105.211	648.62
2109.278	652.62
2113.342	642.62
2117.401	642.62
2121.457	633.62
2125.509	631.62
2129.558	634.62
2133.602	633.62
2137.643	628.62
2141.681	621.62
2145.714	616.62
2149.744	623.62
2153.77	614.62
2157.793	606.62
2161.812	606.62
2165.827	599.62
2169.838	598.62
2173.846	580.62
2177.851	579.62
2181.851	562.62
2185.848	559.62
2189.841	563.62
2193.831	562.62
2197.817	552.62
2201.799	533.62
2205.778	530.62
2209.753	541.62
2213.725	536.62
2217.693	549.62
2221.657	542.62
2225.618	534.62
2229.575	526.62
2233.529	524.62
2237.479	524.62
2241.425	519.62
2245.368	511.62
2249.307	508.62
2253.243	497.62
2257.175	499.62
2261.104	487.62
2265.029	472.62
2268.95	463.62
2272.868	475.62
2276.783	464.62
2280.694	451.62
2284.601	451.62
2288.505	447.62
2292.405	439.62
2296.302	427.62
2300.195	423.62
2304.085	422.62
2307.971	414.62
2311.854	408.62
2315.734	407.62
2319.609	384.62
2323.482	399.62
2327.351	396.62
2331.216	380.62
2335.078	377.62
2338.937	370.62
2342.792	368.62
2346.643	374.62
2350.492	374.62
2354.336	377.62
2358.178	373.62
2362.015	374.62
2365.85	380.62
2369.681	376.62
2373.508	375.62
2377.333	380.62
2381.153	376.62
2384.971	375.62
2388.785	371.62
2392.595	367.62
2396.402	365.62
2400.206	360.62
2404.007	362.62
2407.804	363.62
2411.597	361.62
2415.388	357.62
2419.174	356.62
2422.958	349.62
2426.738	361.62
2430.515	346.62
2434.289	352.62
2438.059	351.62
2441.825	345.62
2445.589	346.62
2449.349	349.62
2453.106	347.62
2456.859	327.62
2460.61	331.62
2464.356	319.62
2468.1	329.62
2471.84	324.62
2475.577	324.62
2479.311	321.62
2483.041	330.62
2486.768	329.62
2490.492	331.62
2494.213	323.62
2497.93	320.62
2501.644	332.62
2505.355	316.62
2509.062	326.62
2512.766	316.62
2516.467	314.62
2520.165	318.62
2523.859	313.62
2527.551	309.62
2531.239	311.62
2534.923	308.62
2538.605	317.62
2542.283	301.62
2545.958	306.62
2549.63	293.62
2553.299	288.62
2556.964	292.62
2560.626	292.62
2564.285	294.62
2567.941	293.62
2571.594	289.62
2575.243	286.62
2578.89	274.62
2582.533	283.62
2586.173	271.62
2589.809	276.62
2593.443	275.62
2597.073	271.62
2600.701	265.62
2604.325	275.62
2607.946	272.62
2611.564	267.62
2615.178	268.62
2618.79	269.62
2622.398	254.62
2626.004	255.62
2629.606	255.62
2633.205	255.62
2636.801	248.62
2640.394	251.62
2643.983	255.62
2647.57	241.62
2651.153	248.62
2654.734	246.62
2658.311	244.62
2661.885	242.62
2665.456	237.62
2669.025	234.62
2672.589	235.62
2676.151	227.62
2679.71	234.62
2683.266	227.62
2686.819	223.62
2690.368	224.62
2693.915	222.62
2697.458	216.62
2700.999	219.62
2704.536	222.62
2708.071	213.62
2711.602	207.62
2715.13	213.62
2718.656	209.62
2722.178	199.62
2725.697	202.62
2729.214	205.62
2732.727	202.62
2736.237	216.62
2739.744	208.62
2743.249	215.62
2746.75	210.62
2750.248	210.62
2753.743	208.62
2757.236	209.62
2760.725	204.62
2764.211	196.62
2767.695	198.62
2771.175	195.62
2774.652	196.62
2778.127	204.62
2781.598	200.62
2785.067	199.62
2788.532	197.62
2791.995	200.62
2795.455	200.62
2798.911	201.62
2802.365	201.62
2805.816	200.62
2809.264	197.62
2812.709	200.62
2816.151	199.62
2819.59	205.62
2823.026	202.62
2826.46	208.62
2829.89	212.62
2833.318	210.62
2836.742	206.62
2840.164	208.62
2843.583	214.62
2846.999	203.62
2850.412	211.62
2853.822	215.62
2857.229	223.62
2860.634	225.62
2864.035	230.62
2867.434	223.62
2870.83	232.62
2874.223	239.62
2877.613	236.62
2881	238.62
2884.385	237.62
2887.766	233.62
2891.145	238.62
2894.521	229.62
2897.894	244.62
2901.264	240.62
2904.631	244.62
2907.996	245.62
2911.358	244.62
2914.717	245.62
2918.073	247.62
2921.426	254.62
2924.777	260.62
2928.124	254.62
2931.469	267.62
2934.811	285.62
2938.15	280.62
2941.487	285.62
2944.821	291.62
2948.152	295.62
2951.48	295.62
2954.805	296.62
2958.128	302.62
2961.447	315.62
2964.765	320.62
2968.079	319.62
2971.39	328.62
2974.699	347.62
2978.005	347.62
2981.308	348.62
2984.609	367.62
2987.907	372.62
2991.202	386.62
2994.494	393.62
2997.784	408.62
3001.07	417.62
3004.355	424.62
3007.636	424.62
3010.915	445.62
3014.191	456.62
3017.464	459.62
3020.734	457.62
3024.002	474.62
3027.267	486.62
3030.53	480.62
3033.789	505.62
3037.046	513.62
3040.301	519.62
3043.552	535.62
3046.801	559.62
3050.048	562.62
3053.291	570.62
3056.532	596.62
3059.771	615.62
3063.006	634.62
3066.239	659.62
3069.469	681.62
3072.697	694.62
3075.922	715.62
3079.144	743.62
3082.364	746.62
3085.581	775.62
3088.795	780.62
3092.007	792.62
3095.216	835.62
3098.423	841.62
3101.627	855.62
3104.828	873.62
3108.026	900.62
3111.222	913.62
3114.416	941.62
3117.607	962.62
3120.795	963.62
3123.98	995.62
3127.163	1019.62
3130.344	1050.62
3133.521	1069.62
3136.696	1083.62
3139.869	1123.62
3143.039	1147.62
3146.206	1157.62
3149.371	1166.62
3152.533	1173.62
3155.693	1183.62
3158.85	1192.62
3162.005	1212.62
3165.157	1202.62
3168.306	1206.62
3171.453	1220.62
3174.597	1220.62
3177.739	1226.62
3180.878	1221.62
3184.014	1224.62
3187.149	1221.62
3190.28	1240.62
3193.409	1230.62
3196.536	1250.62
3199.659	1246.62
3202.781	1255.62
3205.9	1265.62
3209.016	1246.62
3212.13	1244.62
3215.241	1250.62
3218.35	1235.62
3221.456	1230.62
3224.56	1213.62
3227.661	1197.62
3230.76	1199.62
3233.856	1183.62
3236.95	1165.62
3240.041	1153.62
3243.13	1139.62
3246.216	1138.62
3249.3	1124.62
3252.382	1114.62
3255.46	1110.62
3258.537	1119.62
3261.611	1101.62
3264.682	1110.62
3267.751	1101.62
3270.818	1095.62
3273.882	1086.62
3276.943	1074.62
3280.002	1066.62
3283.059	1070.62
3286.113	1043.62
3289.165	1045.62
3292.214	1007.62
3295.261	994.62
3298.306	998.62
3301.348	983.62
3304.387	971.62
3307.425	952.62
3310.459	942.62
3313.492	917.62
3316.521	911.62
3319.549	903.62
3322.574	900.62
3325.597	888.62
3328.617	886.62
3331.635	881.62
3334.65	862.62
3337.663	864.62
3340.674	869.62
3343.682	854.62
3346.688	849.62
3349.691	845.62
3352.692	851.62
3355.691	849.62
3358.687	836.62
3361.681	822.62
3364.673	812.62
3367.662	807.62
3370.649	787.62
3373.633	779.62
3376.615	769.62
3379.595	774.62
3382.572	748.62
3385.547	736.62
3388.52	735.62
3391.49	721.62
3394.458	716.62
3397.424	713.62
3400.387	712.62
3403.348	686.62
3406.307	680.62
3409.263	663.62
3412.217	670.62
3415.168	664.62
3418.118	650.62
3421.065	636.62
3424.009	638.62
3426.951	631.62
3429.891	616.62
3432.829	598.62
3435.764	579.62
3438.697	573.62
3441.628	558.62
3444.557	546.62
3447.483	537.62
3450.407	516.62
3453.328	503.62
3456.247	488.62
3459.164	485.62
3462.079	467.62
3464.991	453.62
3467.902	424.62
3470.809	415.62
3473.715	405.62
3476.618	389.62
3479.519	378.62
3482.418	371.62
3485.315	355.62
3488.209	345.62
3491.101	345.62
3493.99	331.62
3496.878	328.62
3499.763	310.62
3502.646	300.62
3505.527	283.62
3508.405	272.62
3511.281	268.62
3514.155	250.62
3517.027	239.62
3519.897	227.62
3522.764	213.62
3525.629	193.62
3528.492	195.62
3531.352	177.62
3534.211	163.62
3537.067	161.62
3539.921	149.62
3542.773	143.62
3545.622	122.62
3548.469	121.62
3551.315	116.62
3554.157	108.62
3556.998	96.62
3559.837	99.62
3562.673	83.62
3565.507	75.62
3568.339	74.62
3571.169	69.62
3573.996	55.62
3576.822	52.62
3579.645	45.62
3582.466	44.62
3585.285	36.62
3588.101	33.62
3590.916	29.62
3593.728	24.62
3596.538	24.62
3599.346	16.62
3602.152	10.62
3604.956	4.62
3607.757	-4.38
3610.556	-9.38
3613.354	-14.38
3616.149	-14.38
3618.942	-14.38
3621.732	-16.38
3624.521	-23.38
3627.307	-21.38
3630.092	-26.38
3632.874	-32.38
3635.654	-30.38
3638.432	-34.38
3641.208	-39.38
3643.982	-39.38
3646.753	-41.38
3649.523	-46.38
3652.29	-52.38
3655.055	-53.38
3657.818	-55.38
3660.579	-54.38
3663.338	-59.38
3666.095	-61.38
3668.849	-59.38
3671.602	-65.38
3674.352	-68.38
3677.101	-68.38
3679.847	-75.38
3682.591	-77.38
3685.333	-74.38
3688.073	-80.38
3690.811	-76.38
3693.547	-76.38
3696.281	-82.38
3699.013	-83.38
3701.742	-88.38
3704.47	-89.38
3707.195	-89.38
3709.919	-88.38
3712.64	-87.38
3715.359	-91.38
3718.076	-90.38
3720.792	-88.38
3723.505	-87.38
3726.216	-94.38
3728.925	-95.38
3731.632	-95.38
3734.336	-98.38
3737.039	-103.38
3739.74	-103.38
3742.439	-100.38
3745.136	-100.38
3747.83	-98.38
3750.523	-95.38
3753.213	-99.38
3755.902	-97.38
3758.589	-99.38
3761.273	-100.38
3763.956	-100.38
3766.636	-102.38
3769.315	-103.38
3771.991	-106.38
3774.665	-104.38
3777.338	-107.38
3780.008	-111.38
3782.677	-100.38
3785.343	-104.38
3788.007	-107.38
3790.67	-103.38
3793.33	-105.38
3795.989	-102.38
3798.645	-107.38
3801.299	-106.38
3803.952	-105.38
3806.602	-107.38
3809.251	-109.38
3811.897	-110.38
3814.542	-110.38
3817.184	-106.38
3819.825	-108.38
3822.463	-110.38
3825.1	-111.38
3827.735	-109.38
3830.367	-112.38
3832.998	-111.38
3835.627	-108.38
3838.253	-107.38
3840.878	-107.38
3843.501	-109.38
3846.122	-110.38
3848.741	-113.38
3851.358	-112.38
3853.973	-112.38
3856.586	-114.38
3859.197	-112.38
3861.806	-112.38
3864.414	-115.38
3867.019	-112.38
3869.622	-108.38
3872.224	-109.38
3874.823	-109.38
3877.421	-105.38
3880.016	-102.38
3882.61	-105.38
3885.202	-101.38
3887.792	-106.38
3890.38	-112.38
3892.966	-114.38
3895.55	-112.38
3898.132	-115.38
3900.713	-113.38
3903.291	-112.38
3905.868	-114.38
3908.442	-112.38
3911.015	-117.38
3913.586	-113.38
3916.155	-113.38
3918.722	-115.38
3921.287	-114.38
3923.85	-114.38
3926.411	-118.38
3928.971	-114.38
3931.528	-113.38
3934.084	-116.38
3936.638	-118.38
3939.19	-117.38
3941.74	-115.38
3944.288	-115.38
3946.834	-117.38
3949.378	-114.38
3951.921	-116.38
3954.462	-119.38
3957	-115.38
3959.537	-118.38
3962.072	-109.38
3964.606	-112.38
3967.137	-118.38
3969.667	-119.38
3972.194	-119.38
3974.72	-119.38
3977.244	-120.38
3979.766	-123.38
3982.286	-117.38
3984.805	-117.38
3987.321	-108.38
3989.836	-111.38
3992.349	-112.38
3994.86	-114.38
3997.369	-109.38
3999.877	-112.38
4002.382	-111.38
4004.886	-113.38
4007.388	-118.38
4009.888	-119.38
4012.386	-119.38
4014.883	-111.38
4017.377	-113.38
4019.87	-113.38
4022.361	-110.38
4024.85	-113.38
4027.338	-113.38
4029.823	-114.38
4032.307	-114.38
4034.789	-114.38
4037.269	-115.38
4039.747	-116.38
4042.224	-116.38
4044.699	-113.38
4047.172	-116.38
4049.643	-117.38
4052.112	-115.38
4054.58	-116.38
4057.046	-113.38
4059.51	-117.38
4061.972	-118.38
4064.432	-115.38
4066.891	-116.38
4069.348	-113.38
4071.803	-114.38
4074.256	-115.38
4076.708	-115.38
4079.158	-113.38
4081.606	-111.38
4084.052	-113.38
4086.497	-115.38
4088.939	-120.38
4091.38	-117.38
4093.819	-123.38
4096.257	-117.38
4098.693	-116.38
4101.127	-122.38
4103.559	-123.38
4105.989	-82.38
4108.418	-74.38
4110.845	-73.38
4113.27	-69.38
4115.694	-61.38
4118.115	-53.38
4120.535	-119.38
4122.954	-116.38
4125.37	-116.38
4127.785	-117.38
4130.198	-114.38
4132.609	-114.38
4135.019	-117.38
4137.427	-116.38
4139.833	-119.38
4142.237	-119.38
