Data from 1000000CFU1_B_RamanShift_1.txt Node
Date: Tue Jan 24 18:10:11 IST 2017
User: aro
Spectrometer: QEPB0276
Trigger mode: 0
Integration Time (sec): 5.000000E0
Scans to average: 1
Electric dark correction enabled: true
Nonlinearity correction enabled: false
Boxcar width: 0
XAxis mode: Raman Shifts
Number of Pixels in Spectrum: 1044
>>>>>Begin Spectral Data<<<<<
160.701	-30.62
166.742	-1.62
172.777	99.38
178.805	393.38
184.826	1105.38
190.841	2266.38
196.849	3540.38
202.85	4362.38
208.845	4550.38
214.833	4407.38
220.815	4249.38
226.789	4134.38
232.758	4028.38
238.719	3910.38
244.674	3761.38
250.623	3603.38
256.565	3450.38
262.5	3287.38
268.429	3132.38
274.351	3030.38
280.267	2936.38
286.176	2817.38
292.079	2703.38
297.975	2633.38
303.865	2546.38
309.748	2479.38
315.625	2413.38
321.495	2364.38
327.359	2340.38
333.217	2299.38
339.068	2296.38
344.912	2280.38
350.751	2254.38
356.583	2269.38
362.408	2266.38
368.227	2262.38
374.04	2281.38
379.847	2277.38
385.647	2282.38
391.44	2280.38
397.228	2310.38
403.009	2328.38
408.784	2339.38
414.553	2358.38
420.315	2350.38
426.071	2357.38
431.821	2352.38
437.565	2325.38
443.302	2338.38
449.033	2339.38
454.758	2344.38
460.477	2326.38
466.189	2304.38
471.896	2299.38
477.596	2281.38
483.29	2274.38
488.978	2263.38
494.66	2257.38
500.335	2235.38
506.005	2205.38
511.668	2143.38
517.325	2100.38
522.977	2066.38
528.622	2059.38
534.261	2046.38
539.894	2019.38
545.521	1986.38
551.141	1998.38
556.756	1973.38
562.365	1974.38
567.968	1947.38
573.565	1922.38
579.155	1925.38
584.74	1907.38
590.319	1894.38
595.892	1902.38
601.459	1884.38
607.02	1881.38
612.575	1839.38
618.124	1833.38
623.667	1827.38
629.204	1801.38
634.735	1784.38
640.261	1789.38
645.781	1761.38
651.294	1759.38
656.802	1743.38
662.304	1748.38
667.8	1738.38
673.29	1721.38
678.775	1740.38
684.254	1719.38
689.726	1739.38
695.193	1701.38
700.655	1681.38
706.11	1683.38
711.56	1662.38
717.004	1641.38
722.442	1662.38
727.874	1627.38
733.301	1642.38
738.722	1633.38
744.137	1636.38
749.547	1607.38
754.951	1633.38
760.349	1618.38
765.741	1615.38
771.128	1604.38
776.509	1607.38
781.885	1614.38
787.254	1612.38
792.618	1592.38
797.977	1569.38
803.33	1576.38
808.677	1550.38
814.019	1549.38
819.355	1545.38
824.686	1530.38
830.011	1506.38
835.33	1513.38
840.644	1506.38
845.952	1507.38
851.255	1486.38
856.552	1470.38
861.844	1463.38
867.13	1456.38
872.41	1462.38
877.686	1448.38
882.955	1445.38
888.219	1404.38
893.478	1376.38
898.731	1355.38
903.979	1350.38
909.221	1332.38
914.458	1331.38
919.69	1325.38
924.916	1323.38
930.136	1329.38
935.351	1320.38
940.561	1327.38
945.766	1315.38
950.965	1304.38
956.158	1308.38
961.347	1279.38
966.529	1250.38
971.707	1249.38
976.879	1240.38
982.046	1221.38
987.208	1230.38
992.364	1209.38
997.515	1232.38
1002.66	1238.38
1007.801	1241.38
1012.936	1247.38
1018.066	1262.38
1023.19	1267.38
1028.309	1268.38
1033.423	1274.38
1038.532	1262.38
1043.636	1257.38
1048.734	1241.38
1053.827	1229.38
1058.915	1221.38
1063.998	1210.38
1069.075	1194.38
1074.147	1212.38
1079.214	1230.38
1084.276	1223.38
1089.333	1248.38
1094.385	1245.38
1099.431	1250.38
1104.472	1258.38
1109.509	1265.38
1114.54	1240.38
1119.565	1235.38
1124.586	1205.38
1129.602	1186.38
1134.613	1180.38
1139.618	1185.38
1144.619	1180.38
1149.614	1207.38
1154.604	1190.38
1159.589	1200.38
1164.57	1215.38
1169.545	1217.38
1174.515	1211.38
1179.48	1201.38
1184.44	1197.38
1189.395	1190.38
1194.345	1177.38
1199.29	1184.38
1204.23	1192.38
1209.165	1205.38
1214.095	1190.38
1219.021	1206.38
1223.941	1213.38
1228.856	1225.38
1233.766	1235.38
1238.672	1239.38
1243.572	1233.38
1248.467	1226.38
1253.358	1212.38
1258.244	1197.38
1263.124	1189.38
1268	1172.38
1272.871	1150.38
1277.737	1134.38
1282.599	1140.38
1287.455	1138.38
1292.306	1144.38
1297.153	1143.38
1301.995	1173.38
1306.832	1167.38
1311.664	1174.38
1316.491	1170.38
1321.314	1176.38
1326.132	1171.38
1330.945	1161.38
1335.753	1138.38
1340.556	1129.38
1345.354	1121.38
1350.148	1106.38
1354.937	1109.38
1359.722	1087.38
1364.501	1071.38
1369.276	1063.38
1374.046	1063.38
1378.811	1060.38
1383.572	1058.38
1388.327	1066.38
1393.079	1042.38
1397.825	1047.38
1402.567	1039.38
1407.304	1026.38
1412.036	1034.38
1416.764	1033.38
1421.487	1033.38
1426.205	1040.38
1430.919	1047.38
1435.628	1058.38
1440.333	1059.38
1445.032	1071.38
1449.727	1084.38
1454.418	1081.38
1459.104	1077.38
1463.785	1081.38
1468.462	1070.38
1473.134	1067.38
1477.802	1054.38
1482.465	1050.38
1487.123	1051.38
1491.777	1037.38
1496.426	1043.38
1501.071	1044.38
1505.711	1064.38
1510.347	1067.38
1514.978	1098.38
1519.604	1106.38
1524.226	1092.38
1528.844	1092.38
1533.457	1096.38
1538.065	1096.38
1542.669	1079.38
1547.269	1079.38
1551.864	1095.38
1556.454	1084.38
1561.041	1111.38
1565.622	1108.38
1570.199	1134.38
1574.772	1144.38
1579.34	1170.38
1583.904	1201.38
1588.464	1210.38
1593.019	1217.38
1597.569	1235.38
1602.115	1253.38
1606.657	1262.38
1611.195	1270.38
1615.728	1276.38
1620.256	1296.38
1624.78	1322.38
1629.3	1324.38
1633.816	1353.38
1638.327	1379.38
1642.834	1384.38
1647.336	1394.38
1651.834	1397.38
1656.328	1385.38
1660.817	1383.38
1665.302	1363.38
1669.783	1341.38
1674.259	1312.38
1678.732	1279.38
1683.199	1245.38
1687.663	1205.38
1692.122	1163.38
1696.577	1102.38
1701.028	1063.38
1705.474	1024.38
1709.917	998.38
1714.355	982.38
1718.788	963.38
1723.218	952.38
1727.643	934.38
1732.064	908.38
1736.481	888.38
1740.893	874.38
1745.301	841.38
1749.705	821.38
1754.105	800.38
1758.501	794.38
1762.893	783.38
1767.28	772.38
1771.663	757.38
1776.042	746.38
1780.417	759.38
1784.787	752.38
1789.154	750.38
1793.516	754.38
1797.874	751.38
1802.228	751.38
1806.578	727.38
1810.924	724.38
1815.266	725.38
1819.603	702.38
1823.937	692.38
1828.266	694.38
1832.591	680.38
1836.913	689.38
1841.23	693.38
1845.543	678.38
1849.852	674.38
1854.156	675.38
1858.457	669.38
1862.754	699.38
1867.047	698.38
1871.335	702.38
1875.62	700.38
1879.9	696.38
1884.177	687.38
1888.449	707.38
1892.718	687.38
1896.982	697.38
1901.243	705.38
1905.499	695.38
1909.752	688.38
1914	684.38
1918.245	683.38
1922.485	680.38
1926.722	688.38
1930.954	691.38
1935.183	698.38
1939.408	693.38
1943.628	691.38
1947.845	690.38
1952.058	699.38
1956.267	681.38
1960.472	676.38
1964.673	675.38
1968.87	667.38
1973.063	671.38
1977.252	669.38
1981.438	658.38
1985.619	661.38
1989.797	661.38
1993.971	651.38
1998.14	656.38
2002.306	655.38
2006.469	660.38
2010.627	661.38
2014.781	668.38
2018.932	658.38
2023.078	673.38
2027.221	661.38
2031.36	667.38
2035.495	659.38
2039.627	649.38
2043.754	646.38
2047.878	648.38
2051.998	652.38
2056.114	649.38
2060.226	657.38
2064.334	653.38
2068.439	666.38
2072.54	655.38
2076.637	667.38
2080.73	670.38
2084.82	664.38
2088.906	663.38
2092.988	660.38
2097.066	659.38
2101.14	656.38
2105.211	662.38
2109.278	652.38
2113.342	661.38
2117.401	649.38
2121.457	648.38
2125.509	646.38
2129.558	629.38
2133.602	617.38
2137.643	617.38
2141.681	624.38
2145.714	616.38
2149.744	626.38
2153.77	615.38
2157.793	612.38
2161.812	610.38
2165.827	599.38
2169.838	599.38
2173.846	587.38
2177.851	575.38
2181.851	567.38
2185.848	554.38
2189.841	564.38
2193.831	553.38
2197.817	559.38
2201.799	553.38
2205.778	551.38
2209.753	543.38
2213.725	543.38
2217.693	538.38
2221.657	538.38
2225.618	549.38
2229.575	539.38
2233.529	537.38
2237.479	533.38
2241.425	517.38
2245.368	510.38
2249.307	511.38
2253.243	498.38
2257.175	494.38
2261.104	488.38
2265.029	484.38
2268.95	484.38
2272.868	474.38
2276.783	464.38
2280.694	457.38
2284.601	455.38
2288.505	450.38
2292.405	447.38
2296.302	443.38
2300.195	434.38
2304.085	425.38
2307.971	424.38
2311.854	414.38
2315.734	413.38
2319.609	398.38
2323.482	389.38
2327.351	393.38
2331.216	394.38
2335.078	392.38
2338.937	375.38
2342.792	379.38
2346.643	383.38
2350.492	376.38
2354.336	382.38
2358.178	389.38
2362.015	387.38
2365.85	386.38
2369.681	371.38
2373.508	378.38
2377.333	381.38
2381.153	382.38
2384.971	379.38
2388.785	383.38
2392.595	371.38
2396.402	380.38
2400.206	369.38
2404.007	370.38
2407.804	366.38
2411.597	371.38
2415.388	359.38
2419.174	358.38
2422.958	348.38
2426.738	362.38
2430.515	359.38
2434.289	362.38
2438.059	358.38
2441.825	358.38
2445.589	347.38
2449.349	344.38
2453.106	343.38
2456.859	345.38
2460.61	346.38
2464.356	339.38
2468.1	335.38
2471.84	330.38
2475.577	328.38
2479.311	330.38
2483.041	333.38
2486.768	327.38
2490.492	326.38
2494.213	333.38
2497.93	332.38
2501.644	327.38
2505.355	337.38
2509.062	324.38
2512.766	326.38
2516.467	327.38
2520.165	324.38
2523.859	334.38
2527.551	321.38
2531.239	324.38
2534.923	321.38
2538.605	312.38
2542.283	306.38
2545.958	296.38
2549.63	303.38
2553.299	303.38
2556.964	299.38
2560.626	300.38
2564.285	295.38
2567.941	304.38
2571.594	295.38
2575.243	293.38
2578.89	295.38
2582.533	295.38
2586.173	284.38
2589.809	289.38
2593.443	281.38
2597.073	275.38
2600.701	274.38
2604.325	271.38
2607.946	268.38
2611.564	279.38
2615.178	272.38
2618.79	265.38
2622.398	265.38
2626.004	266.38
2629.606	262.38
2633.205	267.38
2636.801	262.38
2640.394	253.38
2643.983	254.38
2647.57	247.38
2651.153	252.38
2654.734	247.38
2658.311	242.38
2661.885	247.38
2665.456	240.38
2669.025	243.38
2672.589	235.38
2676.151	237.38
2679.71	240.38
2683.266	226.38
2686.819	228.38
2690.368	226.38
2693.915	225.38
2697.458	229.38
2700.999	225.38
2704.536	218.38
2708.071	221.38
2711.602	218.38
2715.13	212.38
2718.656	216.38
2722.178	208.38
2725.697	206.38
2729.214	207.38
2732.727	221.38
2736.237	220.38
2739.744	215.38
2743.249	216.38
2746.75	223.38
2750.248	219.38
2753.743	211.38
2757.236	212.38
2760.725	205.38
2764.211	215.38
2767.695	207.38
2771.175	204.38
2774.652	199.38
2778.127	198.38
2781.598	210.38
2785.067	195.38
2788.532	199.38
2791.995	200.38
2795.455	214.38
2798.911	204.38
2802.365	204.38
2805.816	211.38
2809.264	205.38
2812.709	214.38
2816.151	206.38
2819.59	217.38
2823.026	213.38
2826.46	212.38
2829.89	214.38
2833.318	212.38
2836.742	215.38
2840.164	215.38
2843.583	221.38
2846.999	218.38
2850.412	215.38
2853.822	230.38
2857.229	229.38
2860.634	223.38
2864.035	233.38
2867.434	230.38
2870.83	240.38
2874.223	237.38
2877.613	243.38
2881	235.38
2884.385	249.38
2887.766	249.38
2891.145	244.38
2894.521	239.38
2897.894	249.38
2901.264	246.38
2904.631	246.38
2907.996	251.38
2911.358	251.38
2914.717	257.38
2918.073	258.38
2921.426	254.38
2924.777	265.38
2928.124	269.38
2931.469	273.38
2934.811	282.38
2938.15	284.38
2941.487	293.38
2944.821	292.38
2948.152	306.38
2951.48	296.38
2954.805	301.38
2958.128	305.38
2961.447	314.38
2964.765	315.38
2968.079	327.38
2971.39	334.38
2974.699	349.38
2978.005	341.38
2981.308	356.38
2984.609	368.38
2987.907	378.38
2991.202	389.38
2994.494	407.38
2997.784	413.38
3001.07	423.38
3004.355	433.38
3007.636	429.38
3010.915	449.38
3014.191	456.38
3017.464	460.38
3020.734	470.38
3024.002	475.38
3027.267	484.38
3030.53	484.38
3033.789	510.38
3037.046	519.38
3040.301	527.38
3043.552	534.38
3046.801	549.38
3050.048	558.38
3053.291	586.38
3056.532	593.38
3059.771	626.38
3063.006	627.38
3066.239	651.38
3069.469	679.38
3072.697	692.38
3075.922	715.38
3079.144	734.38
3082.364	749.38
3085.581	758.38
3088.795	771.38
3092.007	802.38
3095.216	825.38
3098.423	827.38
3101.627	850.38
3104.828	871.38
3108.026	892.38
3111.222	914.38
3114.416	925.38
3117.607	961.38
3120.795	983.38
3123.98	1001.38
3127.163	1025.38
3130.344	1031.38
3133.521	1063.38
3136.696	1098.38
3139.869	1109.38
3143.039	1127.38
3146.206	1149.38
3149.371	1145.38
3152.533	1173.38
3155.693	1165.38
3158.85	1197.38
3162.005	1199.38
3165.157	1195.38
3168.306	1195.38
3171.453	1206.38
3174.597	1210.38
3177.739	1211.38
3180.878	1220.38
3184.014	1221.38
3187.149	1224.38
3190.28	1226.38
3193.409	1232.38
3196.536	1244.38
3199.659	1250.38
3202.781	1239.38
3205.9	1251.38
3209.016	1240.38
3212.13	1245.38
3215.241	1231.38
3218.35	1221.38
3221.456	1220.38
3224.56	1202.38
3227.661	1195.38
3230.76	1179.38
3233.856	1169.38
3236.95	1157.38
3240.041	1153.38
3243.13	1151.38
3246.216	1146.38
3249.3	1120.38
3252.382	1122.38
3255.46	1133.38
3258.537	1109.38
3261.611	1116.38
3264.682	1090.38
3267.751	1095.38
3270.818	1075.38
3273.882	1080.38
3276.943	1064.38
3280.002	1072.38
3283.059	1054.38
3286.113	1046.38
3289.165	1050.38
3292.214	1006.38
3295.261	1016.38
3298.306	992.38
3301.348	967.38
3304.387	969.38
3307.425	951.38
3310.459	938.38
3313.492	922.38
3316.521	925.38
3319.549	898.38
3322.574	889.38
3325.597	878.38
3328.617	880.38
3331.635	874.38
3334.65	869.38
3337.663	869.38
3340.674	864.38
3343.682	855.38
3346.688	868.38
3349.691	851.38
3352.692	852.38
3355.691	853.38
3358.687	832.38
3361.681	817.38
3364.673	820.38
3367.662	800.38
3370.649	806.38
3373.633	782.38
3376.615	771.38
3379.595	761.38
3382.572	751.38
3385.547	760.38
3388.52	724.38
3391.49	708.38
3394.458	703.38
3397.424	700.38
3400.387	688.38
3403.348	688.38
3406.307	676.38
3409.263	673.38
3412.217	660.38
3415.168	672.38
3418.118	655.38
3421.065	641.38
3424.009	646.38
3426.951	630.38
3429.891	617.38
3432.829	594.38
3435.764	582.38
3438.697	583.38
3441.628	575.38
3444.557	559.38
3447.483	538.38
3450.407	525.38
3453.328	499.38
3456.247	490.38
3459.164	478.38
3462.079	465.38
3464.991	453.38
3467.902	435.38
3470.809	420.38
3473.715	406.38
3476.618	394.38
3479.519	376.38
3482.418	370.38
3485.315	360.38
3488.209	348.38
3491.101	339.38
3493.99	324.38
3496.878	327.38
3499.763	309.38
3502.646	298.38
3505.527	285.38
3508.405	280.38
3511.281	264.38
3514.155	260.38
3517.027	240.38
3519.897	232.38
3522.764	224.38
3525.629	204.38
3528.492	198.38
3531.352	179.38
3534.211	175.38
3537.067	162.38
3539.921	142.38
3542.773	139.38
3545.622	133.38
3548.469	121.38
3551.315	114.38
3554.157	114.38
3556.998	106.38
3559.837	100.38
3562.673	87.38
3565.507	84.38
3568.339	81.38
3571.169	81.38
3573.996	61.38
3576.822	55.38
3579.645	52.38
3582.466	50.38
3585.285	39.38
3588.101	37.38
3590.916	33.38
3593.728	24.38
3596.538	22.38
3599.346	17.38
3602.152	15.38
3604.956	8.38
3607.757	4.38
3610.556	-4.62
3613.354	-5.62
3616.149	-5.62
3618.942	-12.62
3621.732	-12.62
3624.521	-17.62
3627.307	-20.62
3630.092	-21.62
3632.874	-24.62
3635.654	-27.62
3638.432	-34.62
3641.208	-33.62
3643.982	-35.62
3646.753	-38.62
3649.523	-41.62
3652.29	-45.62
3655.055	-47.62
3657.818	-46.62
3660.579	-47.62
3663.338	-54.62
3666.095	-58.62
3668.849	-52.62
3671.602	-64.62
3674.352	-70.62
3677.101	-69.62
3679.847	-67.62
3682.591	-75.62
3685.333	-73.62
3688.073	-74.62
3690.811	-78.62
3693.547	-69.62
3696.281	-72.62
3699.013	-76.62
3701.742	-83.62
3704.47	-82.62
3707.195	-84.62
3709.919	-86.62
3712.64	-88.62
3715.359	-84.62
3718.076	-87.62
3720.792	-86.62
3723.505	-91.62
3726.216	-90.62
3728.925	-94.62
3731.632	-92.62
3734.336	-93.62
3737.039	-92.62
3739.74	-93.62
3742.439	-93.62
3745.136	-92.62
3747.83	-91.62
3750.523	-91.62
3753.213	-95.62
3755.902	-93.62
3758.589	-94.62
3761.273	-98.62
3763.956	-96.62
3766.636	-99.62
3769.315	-101.62
3771.991	-100.62
3774.665	-101.62
3777.338	-102.62
3780.008	-101.62
3782.677	-98.62
3785.343	-95.62
3788.007	-100.62
3790.67	-100.62
3793.33	-101.62
3795.989	-100.62
3798.645	-100.62
3801.299	-101.62
3803.952	-103.62
3806.602	-102.62
3809.251	-107.62
3811.897	-102.62
3814.542	-105.62
3817.184	-102.62
3819.825	-104.62
3822.463	-107.62
3825.1	-102.62
3827.735	-105.62
3830.367	-108.62
3832.998	-106.62
3835.627	-104.62
3838.253	-106.62
3840.878	-103.62
3843.501	-106.62
3846.122	-106.62
3848.741	-110.62
3851.358	-109.62
3853.973	-113.62
3856.586	-108.62
3859.197	-110.62
3861.806	-110.62
3864.414	-110.62
3867.019	-109.62
3869.622	-106.62
3872.224	-102.62
3874.823	-101.62
3877.421	-99.62
3880.016	-99.62
3882.61	-100.62
3885.202	-98.62
3887.792	-100.62
3890.38	-105.62
3892.966	-107.62
3895.55	-111.62
3898.132	-112.62
3900.713	-110.62
3903.291	-107.62
3905.868	-110.62
3908.442	-110.62
3911.015	-113.62
3913.586	-111.62
3916.155	-108.62
3918.722	-110.62
3921.287	-109.62
3923.85	-109.62
3926.411	-113.62
3928.971	-110.62
3931.528	-111.62
3934.084	-112.62
3936.638	-115.62
3939.19	-110.62
3941.74	-112.62
3944.288	-116.62
3946.834	-116.62
3949.378	-112.62
3951.921	-113.62
3954.462	-113.62
3957	-108.62
3959.537	-112.62
3962.072	-106.62
3964.606	-105.62
3967.137	-110.62
3969.667	-114.62
3972.194	-111.62
3974.72	-111.62
3977.244	-114.62
3979.766	-117.62
3982.286	-111.62
3984.805	-114.62
3987.321	-106.62
3989.836	-109.62
3992.349	-108.62
3994.86	-111.62
3997.369	-110.62
3999.877	-110.62
4002.382	-106.62
4004.886	-108.62
4007.388	-108.62
4009.888	-112.62
4012.386	-109.62
4014.883	-107.62
4017.377	-110.62
4019.87	-108.62
4022.361	-107.62
4024.85	-111.62
4027.338	-112.62
4029.823	-115.62
4032.307	-114.62
4034.789	-112.62
4037.269	-110.62
4039.747	-115.62
4042.224	-115.62
4044.699	-109.62
4047.172	-108.62
4049.643	-110.62
4052.112	-103.62
4054.58	-107.62
4057.046	-110.62
4059.51	-108.62
4061.972	-114.62
4064.432	-111.62
4066.891	-112.62
4069.348	-111.62
4071.803	-111.62
4074.256	-110.62
4076.708	-110.62
4079.158	-113.62
4081.606	-109.62
4084.052	-111.62
4086.497	-111.62
4088.939	-115.62
4091.38	-109.62
4093.819	-113.62
4096.257	-109.62
4098.693	-111.62
4101.127	-113.62
4103.559	-116.62
4105.989	-72.62
4108.418	-71.62
4110.845	-68.62
4113.27	-64.62
4115.694	-52.62
4118.115	-51.62
4120.535	-112.62
4122.954	-111.62
4125.37	-111.62
4127.785	-110.62
4130.198	-108.62
4132.609	-113.62
4135.019	-115.62
4137.427	-113.62
4139.833	-115.62
4142.237	-115.62
