Data from 100CFU2_B_RamanShift_1.txt Node
Date: Tue Jan 24 17:57:56 IST 2017
User: aro
Spectrometer: QEPB0276
Trigger mode: 0
Integration Time (sec): 5.000000E0
Scans to average: 1
Electric dark correction enabled: true
Nonlinearity correction enabled: false
Boxcar width: 0
XAxis mode: Raman Shifts
Number of Pixels in Spectrum: 1044
>>>>>Begin Spectral Data<<<<<
160.701	-36.62
166.742	-1.62
172.777	109.38
178.805	431.38
184.826	1202.38
190.841	2472.38
196.849	3888.38
202.85	4815.38
208.845	5042.38
214.833	4892.38
220.815	4721.38
226.789	4603.38
232.758	4501.38
238.719	4388.38
244.674	4235.38
250.623	4059.38
256.565	3911.38
262.5	3740.38
268.429	3613.38
274.351	3475.38
280.267	3376.38
286.176	3266.38
292.079	3165.38
297.975	3091.38
303.865	3003.38
309.748	2929.38
315.625	2864.38
321.495	2821.38
327.359	2775.38
333.217	2769.38
339.068	2754.38
344.912	2732.38
350.751	2682.38
356.583	2711.38
362.408	2699.38
368.227	2714.38
374.04	2718.38
379.847	2726.38
385.647	2729.38
391.44	2758.38
397.228	2758.38
403.009	2785.38
408.784	2806.38
414.553	2800.38
420.315	2784.38
426.071	2819.38
431.821	2812.38
437.565	2801.38
443.302	2804.38
449.033	2817.38
454.758	2781.38
460.477	2784.38
466.189	2750.38
471.896	2764.38
477.596	2739.38
483.29	2720.38
488.978	2726.38
494.66	2714.38
500.335	2691.38
506.005	2647.38
511.668	2596.38
517.325	2546.38
522.977	2535.38
528.622	2490.38
534.261	2483.38
539.894	2457.38
545.521	2461.38
551.141	2439.38
556.756	2399.38
562.365	2403.38
567.968	2393.38
573.565	2383.38
579.155	2370.38
584.74	2354.38
590.319	2350.38
595.892	2325.38
601.459	2295.38
607.02	2317.38
612.575	2303.38
618.124	2258.38
623.667	2257.38
629.204	2240.38
634.735	2205.38
640.261	2204.38
645.781	2187.38
651.294	2172.38
656.802	2180.38
662.304	2164.38
667.8	2171.38
673.29	2155.38
678.775	2141.38
684.254	2145.38
689.726	2129.38
695.193	2124.38
700.655	2111.38
706.11	2094.38
711.56	2084.38
717.004	2064.38
722.442	2051.38
727.874	2038.38
733.301	2029.38
738.722	2024.38
744.137	2037.38
749.547	2021.38
754.951	2037.38
760.349	2020.38
765.741	2005.38
771.128	2001.38
776.509	2036.38
781.885	2027.38
787.254	2003.38
792.618	2019.38
797.977	1989.38
803.33	1994.38
808.677	1987.38
814.019	1948.38
819.355	1949.38
824.686	1916.38
830.011	1900.38
835.33	1889.38
840.644	1904.38
845.952	1887.38
851.255	1882.38
856.552	1889.38
861.844	1878.38
867.13	1891.38
872.41	1869.38
877.686	1847.38
882.955	1840.38
888.219	1810.38
893.478	1797.38
898.731	1756.38
903.979	1754.38
909.221	1727.38
914.458	1716.38
919.69	1721.38
924.916	1704.38
930.136	1706.38
935.351	1729.38
940.561	1705.38
945.766	1694.38
950.965	1689.38
956.158	1672.38
961.347	1675.38
966.529	1636.38
971.707	1636.38
976.879	1620.38
982.046	1593.38
987.208	1588.38
992.364	1591.38
997.515	1606.38
1002.66	1612.38
1007.801	1616.38
1012.936	1644.38
1018.066	1638.38
1023.19	1659.38
1028.309	1649.38
1033.423	1650.38
1038.532	1643.38
1043.636	1630.38
1048.734	1620.38
1053.827	1605.38
1058.915	1602.38
1063.998	1596.38
1069.075	1575.38
1074.147	1588.38
1079.214	1588.38
1084.276	1598.38
1089.333	1620.38
1094.385	1619.38
1099.431	1641.38
1104.472	1621.38
1109.509	1636.38
1114.54	1609.38
1119.565	1594.38
1124.586	1563.38
1129.602	1554.38
1134.613	1550.38
1139.618	1557.38
1144.619	1542.38
1149.614	1549.38
1154.604	1562.38
1159.589	1564.38
1164.57	1578.38
1169.545	1580.38
1174.515	1586.38
1179.48	1571.38
1184.44	1558.38
1189.395	1555.38
1194.345	1563.38
1199.29	1540.38
1204.23	1523.38
1209.165	1548.38
1214.095	1582.38
1219.021	1584.38
1223.941	1590.38
1228.856	1600.38
1233.766	1599.38
1238.672	1605.38
1243.572	1608.38
1248.467	1588.38
1253.358	1570.38
1258.244	1551.38
1263.124	1522.38
1268	1507.38
1272.871	1500.38
1277.737	1488.38
1282.599	1471.38
1287.455	1504.38
1292.306	1483.38
1297.153	1503.38
1301.995	1538.38
1306.832	1526.38
1311.664	1523.38
1316.491	1533.38
1321.314	1535.38
1326.132	1512.38
1330.945	1515.38
1335.753	1486.38
1340.556	1471.38
1345.354	1455.38
1350.148	1459.38
1354.937	1425.38
1359.722	1437.38
1364.501	1392.38
1369.276	1401.38
1374.046	1381.38
1378.811	1370.38
1383.572	1371.38
1388.327	1382.38
1393.079	1386.38
1397.825	1377.38
1402.567	1355.38
1407.304	1360.38
1412.036	1350.38
1416.764	1341.38
1421.487	1345.38
1426.205	1361.38
1430.919	1340.38
1435.628	1367.38
1440.333	1383.38
1445.032	1395.38
1449.727	1411.38
1454.418	1410.38
1459.104	1404.38
1463.785	1399.38
1468.462	1384.38
1473.134	1390.38
1477.802	1366.38
1482.465	1369.38
1487.123	1355.38
1491.777	1351.38
1496.426	1364.38
1501.071	1357.38
1505.711	1388.38
1510.347	1391.38
1514.978	1406.38
1519.604	1408.38
1524.226	1428.38
1528.844	1416.38
1533.457	1417.38
1538.065	1413.38
1542.669	1405.38
1547.269	1388.38
1551.864	1401.38
1556.454	1408.38
1561.041	1428.38
1565.622	1436.38
1570.199	1436.38
1574.772	1456.38
1579.34	1478.38
1583.904	1498.38
1588.464	1536.38
1593.019	1542.38
1597.569	1557.38
1602.115	1547.38
1606.657	1574.38
1611.195	1575.38
1615.728	1572.38
1620.256	1594.38
1624.78	1609.38
1629.3	1618.38
1633.816	1647.38
1638.327	1669.38
1642.834	1706.38
1647.336	1730.38
1651.834	1705.38
1656.328	1707.38
1660.817	1690.38
1665.302	1667.38
1669.783	1641.38
1674.259	1599.38
1678.732	1563.38
1683.199	1535.38
1687.663	1494.38
1692.122	1440.38
1696.577	1384.38
1701.028	1331.38
1705.474	1294.38
1709.917	1259.38
1714.355	1252.38
1718.788	1220.38
1723.218	1209.38
1727.643	1198.38
1732.064	1172.38
1736.481	1152.38
1740.893	1129.38
1745.301	1109.38
1749.705	1080.38
1754.105	1058.38
1758.501	1045.38
1762.893	1016.38
1767.28	999.38
1771.663	1000.38
1776.042	1000.38
1780.417	982.38
1784.787	993.38
1789.154	1008.38
1793.516	993.38
1797.874	1010.38
1802.228	1002.38
1806.578	986.38
1810.924	975.38
1815.266	950.38
1819.603	945.38
1823.937	932.38
1828.266	926.38
1832.591	915.38
1836.913	920.38
1841.23	905.38
1845.543	901.38
1849.852	910.38
1854.156	914.38
1858.457	918.38
1862.754	920.38
1867.047	924.38
1871.335	934.38
1875.62	927.38
1879.9	922.38
1884.177	929.38
1888.449	921.38
1892.718	933.38
1896.982	912.38
1901.243	915.38
1905.499	920.38
1909.752	905.38
1914	911.38
1918.245	899.38
1922.485	900.38
1926.722	915.38
1930.954	910.38
1935.183	907.38
1939.408	905.38
1943.628	919.38
1947.845	912.38
1952.058	910.38
1956.267	898.38
1960.472	900.38
1964.673	887.38
1968.87	887.38
1973.063	873.38
1977.252	876.38
1981.438	852.38
1985.619	855.38
1989.797	864.38
1993.971	848.38
1998.14	866.38
2002.306	874.38
2006.469	871.38
2010.627	865.38
2014.781	860.38
2018.932	871.38
2023.078	867.38
2027.221	857.38
2031.36	855.38
2035.495	847.38
2039.627	855.38
2043.754	838.38
2047.878	836.38
2051.998	819.38
2056.114	843.38
2060.226	842.38
2064.334	837.38
2068.439	859.38
2072.54	855.38
2076.637	849.38
2080.73	849.38
2084.82	859.38
2088.906	843.38
2092.988	849.38
2097.066	852.38
2101.14	847.38
2105.211	839.38
2109.278	832.38
2113.342	837.38
2117.401	818.38
2121.457	821.38
2125.509	815.38
2129.558	813.38
2133.602	809.38
2137.643	805.38
2141.681	814.38
2145.714	794.38
2149.744	794.38
2153.77	788.38
2157.793	777.38
2161.812	769.38
2165.827	772.38
2169.838	772.38
2173.846	760.38
2177.851	737.38
2181.851	725.38
2185.848	717.38
2189.841	714.38
2193.831	700.38
2197.817	717.38
2201.799	701.38
2205.778	703.38
2209.753	701.38
2213.725	703.38
2217.693	697.38
2221.657	704.38
2225.618	694.38
2229.575	702.38
2233.529	692.38
2237.479	677.38
2241.425	667.38
2245.368	657.38
2249.307	661.38
2253.243	651.38
2257.175	638.38
2261.104	631.38
2265.029	620.38
2268.95	617.38
2272.868	623.38
2276.783	602.38
2280.694	602.38
2284.601	594.38
2288.505	583.38
2292.405	581.38
2296.302	569.38
2300.195	561.38
2304.085	563.38
2307.971	542.38
2311.854	543.38
2315.734	536.38
2319.609	520.38
2323.482	508.38
2327.351	501.38
2331.216	510.38
2335.078	503.38
2338.937	502.38
2342.792	489.38
2346.643	500.38
2350.492	492.38
2354.336	505.38
2358.178	492.38
2362.015	499.38
2365.85	504.38
2369.681	490.38
2373.508	503.38
2377.333	494.38
2381.153	495.38
2384.971	492.38
2388.785	493.38
2392.595	478.38
2396.402	477.38
2400.206	478.38
2404.007	478.38
2407.804	475.38
2411.597	480.38
2415.388	473.38
2419.174	466.38
2422.958	471.38
2426.738	472.38
2430.515	455.38
2434.289	464.38
2438.059	462.38
2441.825	463.38
2445.589	470.38
2449.349	455.38
2453.106	457.38
2456.859	433.38
2460.61	443.38
2464.356	436.38
2468.1	424.38
2471.84	425.38
2475.577	436.38
2479.311	434.38
2483.041	435.38
2486.768	431.38
2490.492	436.38
2494.213	437.38
2497.93	430.38
2501.644	423.38
2505.355	424.38
2509.062	420.38
2512.766	428.38
2516.467	425.38
2520.165	421.38
2523.859	417.38
2527.551	414.38
2531.239	409.38
2534.923	399.38
2538.605	408.38
2542.283	403.38
2545.958	397.38
2549.63	399.38
2553.299	400.38
2556.964	387.38
2560.626	380.38
2564.285	380.38
2567.941	394.38
2571.594	390.38
2575.243	373.38
2578.89	374.38
2582.533	375.38
2586.173	368.38
2589.809	374.38
2593.443	373.38
2597.073	360.38
2600.701	360.38
2604.325	359.38
2607.946	354.38
2611.564	356.38
2615.178	358.38
2618.79	351.38
2622.398	346.38
2626.004	346.38
2629.606	344.38
2633.205	341.38
2636.801	342.38
2640.394	341.38
2643.983	338.38
2647.57	327.38
2651.153	323.38
2654.734	325.38
2658.311	320.38
2661.885	319.38
2665.456	319.38
2669.025	314.38
2672.589	312.38
2676.151	304.38
2679.71	307.38
2683.266	310.38
2686.819	291.38
2690.368	287.38
2693.915	284.38
2697.458	293.38
2700.999	282.38
2704.536	286.38
2708.071	280.38
2711.602	279.38
2715.13	273.38
2718.656	275.38
2722.178	280.38
2725.697	277.38
2729.214	277.38
2732.727	279.38
2736.237	280.38
2739.744	277.38
2743.249	281.38
2746.75	275.38
2750.248	284.38
2753.743	279.38
2757.236	269.38
2760.725	267.38
2764.211	272.38
2767.695	267.38
2771.175	265.38
2774.652	269.38
2778.127	269.38
2781.598	266.38
2785.067	259.38
2788.532	252.38
2791.995	265.38
2795.455	263.38
2798.911	268.38
2802.365	267.38
2805.816	270.38
2809.264	266.38
2812.709	261.38
2816.151	271.38
2819.59	257.38
2823.026	260.38
2826.46	255.38
2829.89	267.38
2833.318	260.38
2836.742	268.38
2840.164	268.38
2843.583	265.38
2846.999	265.38
2850.412	273.38
2853.822	275.38
2857.229	278.38
2860.634	281.38
2864.035	282.38
2867.434	287.38
2870.83	292.38
2874.223	293.38
2877.613	288.38
2881	283.38
2884.385	293.38
2887.766	294.38
2891.145	284.38
2894.521	285.38
2897.894	287.38
2901.264	290.38
2904.631	297.38
2907.996	294.38
2911.358	293.38
2914.717	305.38
2918.073	309.38
2921.426	298.38
2924.777	318.38
2928.124	310.38
2931.469	323.38
2934.811	327.38
2938.15	332.38
2941.487	339.38
2944.821	341.38
2948.152	346.38
2951.48	345.38
2954.805	343.38
2958.128	349.38
2961.447	360.38
2964.765	359.38
2968.079	356.38
2971.39	374.38
2974.699	381.38
2978.005	389.38
2981.308	393.38
2984.609	406.38
2987.907	423.38
2991.202	436.38
2994.494	438.38
2997.784	447.38
3001.07	457.38
3004.355	477.38
3007.636	475.38
3010.915	493.38
3014.191	496.38
3017.464	498.38
3020.734	509.38
3024.002	513.38
3027.267	521.38
3030.53	533.38
3033.789	534.38
3037.046	562.38
3040.301	554.38
3043.552	568.38
3046.801	590.38
3050.048	601.38
3053.291	618.38
3056.532	636.38
3059.771	669.38
3063.006	677.38
3066.239	700.38
3069.469	730.38
3072.697	741.38
3075.922	753.38
3079.144	785.38
3082.364	792.38
3085.581	800.38
3088.795	822.38
3092.007	849.38
3095.216	858.38
3098.423	868.38
3101.627	903.38
3104.828	912.38
3108.026	947.38
3111.222	957.38
3114.416	975.38
3117.607	1005.38
3120.795	1018.38
3123.98	1051.38
3127.163	1057.38
3130.344	1099.38
3133.521	1126.38
3136.696	1131.38
3139.869	1170.38
3143.039	1189.38
3146.206	1210.38
3149.371	1219.38
3152.533	1209.38
3155.693	1225.38
3158.85	1239.38
3162.005	1236.38
3165.157	1241.38
3168.306	1253.38
3171.453	1260.38
3174.597	1255.38
3177.739	1270.38
3180.878	1266.38
3184.014	1267.38
3187.149	1289.38
3190.28	1276.38
3193.409	1278.38
3196.536	1300.38
3199.659	1292.38
3202.781	1298.38
3205.9	1283.38
3209.016	1275.38
3212.13	1279.38
3215.241	1290.38
3218.35	1268.38
3221.456	1262.38
3224.56	1264.38
3227.661	1232.38
3230.76	1218.38
3233.856	1207.38
3236.95	1205.38
3240.041	1191.38
3243.13	1190.38
3246.216	1182.38
3249.3	1163.38
3252.382	1167.38
3255.46	1155.38
3258.537	1155.38
3261.611	1149.38
3264.682	1143.38
3267.751	1123.38
3270.818	1130.38
3273.882	1130.38
3276.943	1112.38
3280.002	1112.38
3283.059	1103.38
3286.113	1085.38
3289.165	1070.38
3292.214	1055.38
3295.261	1033.38
3298.306	1036.38
3301.348	1011.38
3304.387	1005.38
3307.425	981.38
3310.459	966.38
3313.492	945.38
3316.521	949.38
3319.549	928.38
3322.574	919.38
3325.597	916.38
3328.617	908.38
3331.635	899.38
3334.65	893.38
3337.663	889.38
3340.674	897.38
3343.682	892.38
3346.688	893.38
3349.691	876.38
3352.692	873.38
3355.691	878.38
3358.687	862.38
3361.681	851.38
3364.673	843.38
3367.662	831.38
3370.649	816.38
3373.633	805.38
3376.615	791.38
3379.595	786.38
3382.572	766.38
3385.547	756.38
3388.52	761.38
3391.49	740.38
3394.458	723.38
3397.424	711.38
3400.387	713.38
3403.348	709.38
3406.307	699.38
3409.263	700.38
3412.217	687.38
3415.168	673.38
3418.118	665.38
3421.065	667.38
3424.009	654.38
3426.951	643.38
3429.891	622.38
3432.829	621.38
3435.764	602.38
3438.697	586.38
3441.628	580.38
3444.557	563.38
3447.483	542.38
3450.407	536.38
3453.328	510.38
3456.247	507.38
3459.164	488.38
3462.079	492.38
3464.991	459.38
3467.902	442.38
3470.809	433.38
3473.715	408.38
3476.618	411.38
3479.519	384.38
3482.418	383.38
3485.315	376.38
3488.209	364.38
3491.101	344.38
3493.99	342.38
3496.878	322.38
3499.763	311.38
3502.646	310.38
3505.527	293.38
3508.405	285.38
3511.281	271.38
3514.155	257.38
3517.027	244.38
3519.897	230.38
3522.764	220.38
3525.629	205.38
3528.492	199.38
3531.352	182.38
3534.211	172.38
3537.067	154.38
3539.921	144.38
3542.773	142.38
3545.622	127.38
3548.469	123.38
3551.315	115.38
3554.157	106.38
3556.998	92.38
3559.837	91.38
3562.673	83.38
3565.507	82.38
3568.339	70.38
3571.169	67.38
3573.996	56.38
3576.822	52.38
3579.645	46.38
3582.466	42.38
3585.285	33.38
3588.101	34.38
3590.916	29.38
3593.728	24.38
3596.538	20.38
3599.346	8.38
3602.152	9.38
3604.956	2.38
3607.757	-2.62
3610.556	-5.62
3613.354	-10.62
3616.149	-12.62
3618.942	-18.62
3621.732	-20.62
3624.521	-19.62
3627.307	-25.62
3630.092	-31.62
3632.874	-30.62
3635.654	-35.62
3638.432	-38.62
3641.208	-43.62
3643.982	-44.62
3646.753	-45.62
3649.523	-51.62
3652.29	-51.62
3655.055	-53.62
3657.818	-53.62
3660.579	-58.62
3663.338	-61.62
3666.095	-67.62
3668.849	-63.62
3671.602	-66.62
3674.352	-80.62
3677.101	-76.62
3679.847	-78.62
3682.591	-78.62
3685.333	-83.62
3688.073	-86.62
3690.811	-86.62
3693.547	-80.62
3696.281	-85.62
3699.013	-90.62
3701.742	-87.62
3704.47	-91.62
3707.195	-91.62
3709.919	-95.62
3712.64	-90.62
3715.359	-94.62
3718.076	-95.62
3720.792	-94.62
3723.505	-93.62
3726.216	-94.62
3728.925	-94.62
3731.632	-93.62
3734.336	-102.62
3737.039	-100.62
3739.74	-100.62
3742.439	-105.62
3745.136	-102.62
3747.83	-104.62
3750.523	-99.62
3753.213	-107.62
3755.902	-104.62
3758.589	-107.62
3761.273	-104.62
3763.956	-108.62
3766.636	-106.62
3769.315	-108.62
3771.991	-112.62
3774.665	-108.62
3777.338	-110.62
3780.008	-108.62
3782.677	-103.62
3785.343	-108.62
3788.007	-111.62
3790.67	-113.62
3793.33	-109.62
3795.989	-109.62
3798.645	-107.62
3801.299	-112.62
3803.952	-110.62
3806.602	-114.62
3809.251	-115.62
3811.897	-114.62
3814.542	-111.62
3817.184	-113.62
3819.825	-110.62
3822.463	-116.62
3825.1	-116.62
3827.735	-116.62
3830.367	-117.62
3832.998	-115.62
3835.627	-116.62
3838.253	-114.62
3840.878	-113.62
3843.501	-114.62
3846.122	-115.62
3848.741	-121.62
3851.358	-118.62
3853.973	-117.62
3856.586	-116.62
3859.197	-119.62
3861.806	-118.62
3864.414	-121.62
3867.019	-120.62
3869.622	-115.62
3872.224	-112.62
3874.823	-115.62
3877.421	-113.62
3880.016	-108.62
3882.61	-108.62
3885.202	-107.62
3887.792	-107.62
3890.38	-112.62
3892.966	-116.62
3895.55	-120.62
3898.132	-118.62
3900.713	-118.62
3903.291	-118.62
3905.868	-123.62
3908.442	-119.62
3911.015	-125.62
3913.586	-125.62
3916.155	-125.62
3918.722	-125.62
3921.287	-122.62
3923.85	-120.62
3926.411	-123.62
3928.971	-116.62
3931.528	-119.62
3934.084	-121.62
3936.638	-120.62
3939.19	-122.62
3941.74	-120.62
3944.288	-122.62
3946.834	-122.62
3949.378	-122.62
3951.921	-126.62
3954.462	-123.62
3957	-122.62
3959.537	-124.62
3962.072	-117.62
3964.606	-119.62
3967.137	-123.62
3969.667	-123.62
3972.194	-121.62
3974.72	-123.62
3977.244	-122.62
3979.766	-121.62
3982.286	-120.62
3984.805	-118.62
3987.321	-115.62
3989.836	-119.62
3992.349	-116.62
3994.86	-121.62
3997.369	-117.62
3999.877	-119.62
4002.382	-118.62
4004.886	-121.62
4007.388	-120.62
4009.888	-125.62
4012.386	-124.62
4014.883	-116.62
4017.377	-117.62
4019.87	-119.62
4022.361	-118.62
4024.85	-118.62
4027.338	-120.62
4029.823	-122.62
4032.307	-124.62
4034.789	-120.62
4037.269	-117.62
4039.747	-123.62
4042.224	-121.62
4044.699	-119.62
4047.172	-118.62
4049.643	-119.62
4052.112	-119.62
4054.58	-120.62
4057.046	-121.62
4059.51	-122.62
4061.972	-125.62
4064.432	-125.62
4066.891	-125.62
4069.348	-123.62
4071.803	-123.62
4074.256	-121.62
4076.708	-122.62
4079.158	-119.62
4081.606	-118.62
4084.052	-118.62
4086.497	-118.62
4088.939	-125.62
4091.38	-119.62
4093.819	-125.62
4096.257	-125.62
4098.693	-123.62
4101.127	-125.62
4103.559	-124.62
4105.989	-80.62
4108.418	-78.62
4110.845	-72.62
4113.27	-66.62
4115.694	-57.62
4118.115	-53.62
4120.535	-123.62
4122.954	-123.62
4125.37	-122.62
4127.785	-123.62
4130.198	-121.62
4132.609	-121.62
4135.019	-124.62
4137.427	-123.62
4139.833	-126.62
4142.237	-127.62
