Data from 100CFU3_B_RamanShift_1.txt Node
Date: Tue Jan 24 18:00:21 IST 2017
User: aro
Spectrometer: QEPB0276
Trigger mode: 0
Integration Time (sec): 5.000000E0
Scans to average: 1
Electric dark correction enabled: true
Nonlinearity correction enabled: false
Boxcar width: 0
XAxis mode: Raman Shifts
Number of Pixels in Spectrum: 1044
>>>>>Begin Spectral Data<<<<<
160.701	-32.88
166.742	2.12
172.777	100.12
178.805	391.12
184.826	1059.12
190.841	2224.12
196.849	3505.12
202.85	4332.12
208.845	4530.12
214.833	4380.12
220.815	4246.12
226.789	4103.12
232.758	4030.12
238.719	3882.12
244.674	3745.12
250.623	3597.12
256.565	3411.12
262.5	3288.12
268.429	3142.12
274.351	3012.12
280.267	2887.12
286.176	2792.12
292.079	2699.12
297.975	2611.12
303.865	2532.12
309.748	2465.12
315.625	2410.12
321.495	2377.12
327.359	2317.12
333.217	2305.12
339.068	2284.12
344.912	2277.12
350.751	2265.12
356.583	2263.12
362.408	2267.12
368.227	2250.12
374.04	2263.12
379.847	2262.12
385.647	2270.12
391.44	2289.12
397.228	2309.12
403.009	2322.12
408.784	2326.12
414.553	2341.12
420.315	2321.12
426.071	2332.12
431.821	2343.12
437.565	2358.12
443.302	2336.12
449.033	2339.12
454.758	2314.12
460.477	2324.12
466.189	2286.12
471.896	2283.12
477.596	2261.12
483.29	2267.12
488.978	2240.12
494.66	2235.12
500.335	2204.12
506.005	2185.12
511.668	2158.12
517.325	2120.12
522.977	2081.12
528.622	2042.12
534.261	2034.12
539.894	2011.12
545.521	1980.12
551.141	1989.12
556.756	1969.12
562.365	1972.12
567.968	1953.12
573.565	1952.12
579.155	1929.12
584.74	1921.12
590.319	1894.12
595.892	1899.12
601.459	1886.12
607.02	1872.12
612.575	1861.12
618.124	1805.12
623.667	1822.12
629.204	1801.12
634.735	1793.12
640.261	1773.12
645.781	1777.12
651.294	1772.12
656.802	1746.12
662.304	1739.12
667.8	1736.12
673.29	1738.12
678.775	1754.12
684.254	1743.12
689.726	1723.12
695.193	1696.12
700.655	1694.12
706.11	1672.12
711.56	1651.12
717.004	1650.12
722.442	1659.12
727.874	1644.12
733.301	1638.12
738.722	1625.12
744.137	1622.12
749.547	1619.12
754.951	1619.12
760.349	1614.12
765.741	1611.12
771.128	1616.12
776.509	1612.12
781.885	1619.12
787.254	1610.12
792.618	1602.12
797.977	1592.12
803.33	1574.12
808.677	1555.12
814.019	1561.12
819.355	1525.12
824.686	1512.12
830.011	1496.12
835.33	1516.12
840.644	1503.12
845.952	1489.12
851.255	1488.12
856.552	1491.12
861.844	1480.12
867.13	1467.12
872.41	1471.12
877.686	1455.12
882.955	1436.12
888.219	1419.12
893.478	1399.12
898.731	1374.12
903.979	1355.12
909.221	1335.12
914.458	1336.12
919.69	1330.12
924.916	1333.12
930.136	1330.12
935.351	1331.12
940.561	1326.12
945.766	1323.12
950.965	1327.12
956.158	1311.12
961.347	1276.12
966.529	1272.12
971.707	1255.12
976.879	1250.12
982.046	1233.12
987.208	1229.12
992.364	1231.12
997.515	1248.12
1002.66	1238.12
1007.801	1258.12
1012.936	1269.12
1018.066	1260.12
1023.19	1293.12
1028.309	1270.12
1033.423	1275.12
1038.532	1278.12
1043.636	1262.12
1048.734	1255.12
1053.827	1237.12
1058.915	1218.12
1063.998	1220.12
1069.075	1216.12
1074.147	1216.12
1079.214	1231.12
1084.276	1230.12
1089.333	1247.12
1094.385	1242.12
1099.431	1268.12
1104.472	1250.12
1109.509	1261.12
1114.54	1237.12
1119.565	1226.12
1124.586	1215.12
1129.602	1208.12
1134.613	1205.12
1139.618	1204.12
1144.619	1200.12
1149.614	1196.12
1154.604	1215.12
1159.589	1209.12
1164.57	1228.12
1169.545	1228.12
1174.515	1226.12
1179.48	1217.12
1184.44	1217.12
1189.395	1188.12
1194.345	1198.12
1199.29	1195.12
1204.23	1185.12
1209.165	1201.12
1214.095	1212.12
1219.021	1221.12
1223.941	1240.12
1228.856	1240.12
1233.766	1241.12
1238.672	1244.12
1243.572	1228.12
1248.467	1240.12
1253.358	1206.12
1258.244	1201.12
1263.124	1193.12
1268	1178.12
1272.871	1179.12
1277.737	1167.12
1282.599	1151.12
1287.455	1150.12
1292.306	1157.12
1297.153	1168.12
1301.995	1171.12
1306.832	1181.12
1311.664	1185.12
1316.491	1190.12
1321.314	1181.12
1326.132	1163.12
1330.945	1166.12
1335.753	1144.12
1340.556	1146.12
1345.354	1130.12
1350.148	1135.12
1354.937	1111.12
1359.722	1108.12
1364.501	1096.12
1369.276	1090.12
1374.046	1083.12
1378.811	1086.12
1383.572	1078.12
1388.327	1060.12
1393.079	1060.12
1397.825	1067.12
1402.567	1059.12
1407.304	1042.12
1412.036	1038.12
1416.764	1034.12
1421.487	1042.12
1426.205	1051.12
1430.919	1057.12
1435.628	1070.12
1440.333	1079.12
1445.032	1090.12
1449.727	1080.12
1454.418	1106.12
1459.104	1108.12
1463.785	1088.12
1468.462	1079.12
1473.134	1065.12
1477.802	1068.12
1482.465	1069.12
1487.123	1075.12
1491.777	1058.12
1496.426	1064.12
1501.071	1068.12
1505.711	1078.12
1510.347	1097.12
1514.978	1108.12
1519.604	1113.12
1524.226	1119.12
1528.844	1108.12
1533.457	1100.12
1538.065	1123.12
1542.669	1107.12
1547.269	1111.12
1551.864	1102.12
1556.454	1114.12
1561.041	1131.12
1565.622	1142.12
1570.199	1152.12
1574.772	1158.12
1579.34	1185.12
1583.904	1211.12
1588.464	1225.12
1593.019	1243.12
1597.569	1254.12
1602.115	1257.12
1606.657	1270.12
1611.195	1274.12
1615.728	1293.12
1620.256	1318.12
1624.78	1327.12
1629.3	1326.12
1633.816	1362.12
1638.327	1369.12
1642.834	1399.12
1647.336	1411.12
1651.834	1424.12
1656.328	1396.12
1660.817	1406.12
1665.302	1374.12
1669.783	1348.12
1674.259	1321.12
1678.732	1277.12
1683.199	1254.12
1687.663	1217.12
1692.122	1170.12
1696.577	1125.12
1701.028	1075.12
1705.474	1025.12
1709.917	1001.12
1714.355	992.12
1718.788	976.12
1723.218	955.12
1727.643	936.12
1732.064	914.12
1736.481	911.12
1740.893	875.12
1745.301	868.12
1749.705	837.12
1754.105	812.12
1758.501	811.12
1762.893	801.12
1767.28	789.12
1771.663	766.12
1776.042	770.12
1780.417	780.12
1784.787	770.12
1789.154	762.12
1793.516	758.12
1797.874	767.12
1802.228	756.12
1806.578	753.12
1810.924	733.12
1815.266	727.12
1819.603	718.12
1823.937	713.12
1828.266	698.12
1832.591	706.12
1836.913	695.12
1841.23	691.12
1845.543	696.12
1849.852	698.12
1854.156	700.12
1858.457	702.12
1862.754	706.12
1867.047	712.12
1871.335	711.12
1875.62	725.12
1879.9	715.12
1884.177	706.12
1888.449	708.12
1892.718	718.12
1896.982	698.12
1901.243	712.12
1905.499	703.12
1909.752	702.12
1914	691.12
1918.245	698.12
1922.485	700.12
1926.722	704.12
1930.954	710.12
1935.183	710.12
1939.408	722.12
1943.628	698.12
1947.845	716.12
1952.058	710.12
1956.267	708.12
1960.472	695.12
1964.673	687.12
1968.87	688.12
1973.063	677.12
1977.252	668.12
1981.438	684.12
1985.619	668.12
1989.797	669.12
1993.971	669.12
1998.14	669.12
2002.306	676.12
2006.469	685.12
2010.627	679.12
2014.781	679.12
2018.932	683.12
2023.078	674.12
2027.221	667.12
2031.36	668.12
2035.495	657.12
2039.627	656.12
2043.754	659.12
2047.878	645.12
2051.998	645.12
2056.114	660.12
2060.226	660.12
2064.334	665.12
2068.439	661.12
2072.54	676.12
2076.637	680.12
2080.73	673.12
2084.82	682.12
2088.906	684.12
2092.988	674.12
2097.066	663.12
2101.14	663.12
2105.211	669.12
2109.278	661.12
2113.342	650.12
2117.401	652.12
2121.457	648.12
2125.509	645.12
2129.558	650.12
2133.602	646.12
2137.643	654.12
2141.681	631.12
2145.714	627.12
2149.744	627.12
2153.77	628.12
2157.793	624.12
2161.812	618.12
2165.827	606.12
2169.838	607.12
2173.846	596.12
2177.851	593.12
2181.851	573.12
2185.848	568.12
2189.841	574.12
2193.831	560.12
2197.817	554.12
2201.799	550.12
2205.778	549.12
2209.753	551.12
2213.725	557.12
2217.693	549.12
2221.657	558.12
2225.618	556.12
2229.575	548.12
2233.529	548.12
2237.479	539.12
2241.425	539.12
2245.368	525.12
2249.307	524.12
2253.243	499.12
2257.175	497.12
2261.104	506.12
2265.029	497.12
2268.95	489.12
2272.868	494.12
2276.783	470.12
2280.694	460.12
2284.601	463.12
2288.505	454.12
2292.405	460.12
2296.302	444.12
2300.195	440.12
2304.085	439.12
2307.971	431.12
2311.854	429.12
2315.734	418.12
2319.609	406.12
2323.482	403.12
2327.351	395.12
2331.216	398.12
2335.078	401.12
2338.937	395.12
2342.792	387.12
2346.643	389.12
2350.492	387.12
2354.336	380.12
2358.178	389.12
2362.015	394.12
2365.85	382.12
2369.681	385.12
2373.508	387.12
2377.333	382.12
2381.153	385.12
2384.971	393.12
2388.785	375.12
2392.595	379.12
2396.402	381.12
2400.206	374.12
2404.007	376.12
2407.804	374.12
2411.597	368.12
2415.388	374.12
2419.174	373.12
2422.958	363.12
2426.738	373.12
2430.515	367.12
2434.289	366.12
2438.059	359.12
2441.825	367.12
2445.589	365.12
2449.349	359.12
2453.106	351.12
2456.859	348.12
2460.61	350.12
2464.356	347.12
2468.1	344.12
2471.84	341.12
2475.577	343.12
2479.311	335.12
2483.041	337.12
2486.768	340.12
2490.492	340.12
2494.213	340.12
2497.93	338.12
2501.644	334.12
2505.355	334.12
2509.062	336.12
2512.766	328.12
2516.467	321.12
2520.165	323.12
2523.859	328.12
2527.551	327.12
2531.239	319.12
2534.923	329.12
2538.605	317.12
2542.283	318.12
2545.958	309.12
2549.63	313.12
2553.299	308.12
2556.964	313.12
2560.626	307.12
2564.285	310.12
2567.941	308.12
2571.594	305.12
2575.243	312.12
2578.89	287.12
2582.533	294.12
2586.173	294.12
2589.809	298.12
2593.443	291.12
2597.073	284.12
2600.701	283.12
2604.325	287.12
2607.946	284.12
2611.564	285.12
2615.178	281.12
2618.79	273.12
2622.398	277.12
2626.004	284.12
2629.606	271.12
2633.205	272.12
2636.801	268.12
2640.394	268.12
2643.983	270.12
2647.57	255.12
2651.153	263.12
2654.734	249.12
2658.311	259.12
2661.885	254.12
2665.456	242.12
2669.025	247.12
2672.589	238.12
2676.151	247.12
2679.71	244.12
2683.266	242.12
2686.819	234.12
2690.368	233.12
2693.915	234.12
2697.458	228.12
2700.999	226.12
2704.536	231.12
2708.071	228.12
2711.602	223.12
2715.13	219.12
2718.656	225.12
2722.178	217.12
2725.697	210.12
2729.214	221.12
2732.727	225.12
2736.237	230.12
2739.744	225.12
2743.249	214.12
2746.75	224.12
2750.248	223.12
2753.743	224.12
2757.236	216.12
2760.725	216.12
2764.211	215.12
2767.695	222.12
2771.175	209.12
2774.652	213.12
2778.127	207.12
2781.598	214.12
2785.067	216.12
2788.532	208.12
2791.995	205.12
2795.455	211.12
2798.911	210.12
2802.365	214.12
2805.816	215.12
2809.264	220.12
2812.709	213.12
2816.151	222.12
2819.59	213.12
2823.026	213.12
2826.46	226.12
2829.89	220.12
2833.318	219.12
2836.742	218.12
2840.164	217.12
2843.583	220.12
2846.999	221.12
2850.412	231.12
2853.822	220.12
2857.229	221.12
2860.634	226.12
2864.035	233.12
2867.434	235.12
2870.83	239.12
2874.223	241.12
2877.613	255.12
2881	237.12
2884.385	242.12
2887.766	248.12
2891.145	251.12
2894.521	242.12
2897.894	249.12
2901.264	248.12
2904.631	244.12
2907.996	248.12
2911.358	259.12
2914.717	255.12
2918.073	259.12
2921.426	261.12
2924.777	261.12
2928.124	265.12
2931.469	272.12
2934.811	284.12
2938.15	283.12
2941.487	286.12
2944.821	302.12
2948.152	293.12
2951.48	304.12
2954.805	306.12
2958.128	313.12
2961.447	317.12
2964.765	322.12
2968.079	328.12
2971.39	333.12
2974.699	346.12
2978.005	353.12
2981.308	354.12
2984.609	358.12
2987.907	377.12
2991.202	377.12
2994.494	406.12
2997.784	402.12
3001.07	414.12
3004.355	431.12
3007.636	442.12
3010.915	448.12
3014.191	456.12
3017.464	453.12
3020.734	464.12
3024.002	469.12
3027.267	473.12
3030.53	496.12
3033.789	495.12
3037.046	512.12
3040.301	515.12
3043.552	532.12
3046.801	541.12
3050.048	550.12
3053.291	577.12
3056.532	577.12
3059.771	597.12
3063.006	622.12
3066.239	639.12
3069.469	672.12
3072.697	689.12
3075.922	689.12
3079.144	712.12
3082.364	731.12
3085.581	742.12
3088.795	757.12
3092.007	781.12
3095.216	795.12
3098.423	798.12
3101.627	828.12
3104.828	851.12
3108.026	882.12
3111.222	892.12
3114.416	917.12
3117.607	934.12
3120.795	940.12
3123.98	966.12
3127.163	993.12
3130.344	997.12
3133.521	1040.12
3136.696	1067.12
3139.869	1079.12
3143.039	1101.12
3146.206	1125.12
3149.371	1129.12
3152.533	1139.12
3155.693	1153.12
3158.85	1154.12
3162.005	1160.12
3165.157	1158.12
3168.306	1155.12
3171.453	1190.12
3174.597	1174.12
3177.739	1183.12
3180.878	1173.12
3184.014	1189.12
3187.149	1197.12
3190.28	1197.12
3193.409	1194.12
3196.536	1215.12
3199.659	1215.12
3202.781	1212.12
3205.9	1216.12
3209.016	1221.12
3212.13	1204.12
3215.241	1193.12
3218.35	1192.12
3221.456	1183.12
3224.56	1167.12
3227.661	1145.12
3230.76	1166.12
3233.856	1131.12
3236.95	1140.12
3240.041	1113.12
3243.13	1121.12
3246.216	1108.12
3249.3	1090.12
3252.382	1099.12
3255.46	1084.12
3258.537	1082.12
3261.611	1062.12
3264.682	1060.12
3267.751	1074.12
3270.818	1071.12
3273.882	1062.12
3276.943	1056.12
3280.002	1041.12
3283.059	1027.12
3286.113	1020.12
3289.165	1011.12
3292.214	991.12
3295.261	979.12
3298.306	959.12
3301.348	952.12
3304.387	934.12
3307.425	923.12
3310.459	908.12
3313.492	905.12
3316.521	891.12
3319.549	878.12
3322.574	868.12
3325.597	850.12
3328.617	855.12
3331.635	846.12
3334.65	847.12
3337.663	833.12
3340.674	829.12
3343.682	843.12
3346.688	826.12
3349.691	821.12
3352.692	837.12
3355.691	808.12
3358.687	823.12
3361.681	802.12
3364.673	799.12
3367.662	781.12
3370.649	773.12
3373.633	769.12
3376.615	748.12
3379.595	734.12
3382.572	724.12
3385.547	707.12
3388.52	716.12
3391.49	708.12
3394.458	694.12
3397.424	678.12
3400.387	675.12
3403.348	664.12
3406.307	663.12
3409.263	660.12
3412.217	645.12
3415.168	645.12
3418.118	634.12
3421.065	628.12
3424.009	619.12
3426.951	611.12
3429.891	606.12
3432.829	591.12
3435.764	569.12
3438.697	561.12
3441.628	555.12
3444.557	540.12
3447.483	524.12
3450.407	500.12
3453.328	497.12
3456.247	483.12
3459.164	468.12
3462.079	449.12
3464.991	433.12
3467.902	414.12
3470.809	410.12
3473.715	392.12
3476.618	375.12
3479.519	365.12
3482.418	355.12
3485.315	346.12
3488.209	345.12
3491.101	340.12
3493.99	325.12
3496.878	316.12
3499.763	304.12
3502.646	293.12
3505.527	280.12
3508.405	266.12
3511.281	254.12
3514.155	250.12
3517.027	236.12
3519.897	227.12
3522.764	216.12
3525.629	198.12
3528.492	195.12
3531.352	185.12
3534.211	171.12
3537.067	160.12
3539.921	143.12
3542.773	133.12
3545.622	139.12
3548.469	119.12
3551.315	119.12
3554.157	106.12
3556.998	99.12
3559.837	94.12
3562.673	92.12
3565.507	88.12
3568.339	77.12
3571.169	71.12
3573.996	61.12
3576.822	54.12
3579.645	53.12
3582.466	45.12
3585.285	41.12
3588.101	32.12
3590.916	34.12
3593.728	29.12
3596.538	22.12
3599.346	17.12
3602.152	14.12
3604.956	9.12
3607.757	2.12
3610.556	-3.88
3613.354	-0.88
3616.149	-9.88
3618.942	-7.88
3621.732	-14.88
3624.521	-18.88
3627.307	-16.88
3630.092	-24.88
3632.874	-31.88
3635.654	-28.88
3638.432	-30.88
3641.208	-35.88
3643.982	-30.88
3646.753	-37.88
3649.523	-44.88
3652.29	-42.88
3655.055	-39.88
3657.818	-41.88
3660.579	-46.88
3663.338	-53.88
3666.095	-53.88
3668.849	-58.88
3671.602	-61.88
3674.352	-69.88
3677.101	-63.88
3679.847	-66.88
3682.591	-70.88
3685.333	-67.88
3688.073	-70.88
3690.811	-71.88
3693.547	-64.88
3696.281	-72.88
3699.013	-71.88
3701.742	-79.88
3704.47	-80.88
3707.195	-79.88
3709.919	-83.88
3712.64	-82.88
3715.359	-82.88
3718.076	-86.88
3720.792	-85.88
3723.505	-85.88
3726.216	-89.88
3728.925	-84.88
3731.632	-85.88
3734.336	-89.88
3737.039	-90.88
3739.74	-90.88
3742.439	-88.88
3745.136	-91.88
3747.83	-90.88
3750.523	-85.88
3753.213	-91.88
3755.902	-88.88
3758.589	-91.88
3761.273	-91.88
3763.956	-94.88
3766.636	-97.88
3769.315	-95.88
3771.991	-99.88
3774.665	-97.88
3777.338	-100.88
3780.008	-100.88
3782.677	-94.88
3785.343	-95.88
3788.007	-98.88
3790.67	-96.88
3793.33	-98.88
3795.989	-97.88
3798.645	-94.88
3801.299	-99.88
3803.952	-99.88
3806.602	-98.88
3809.251	-101.88
3811.897	-99.88
3814.542	-101.88
3817.184	-99.88
3819.825	-103.88
3822.463	-104.88
3825.1	-104.88
3827.735	-104.88
3830.367	-104.88
3832.998	-105.88
3835.627	-105.88
3838.253	-102.88
3840.878	-100.88
3843.501	-101.88
3846.122	-101.88
3848.741	-103.88
3851.358	-105.88
3853.973	-102.88
3856.586	-103.88
3859.197	-105.88
3861.806	-106.88
3864.414	-106.88
3867.019	-105.88
3869.622	-104.88
3872.224	-105.88
3874.823	-105.88
3877.421	-97.88
3880.016	-99.88
3882.61	-98.88
3885.202	-93.88
3887.792	-98.88
3890.38	-99.88
3892.966	-104.88
3895.55	-105.88
3898.132	-102.88
3900.713	-103.88
3903.291	-102.88
3905.868	-106.88
3908.442	-105.88
3911.015	-106.88
3913.586	-106.88
3916.155	-108.88
3918.722	-108.88
3921.287	-110.88
3923.85	-108.88
3926.411	-112.88
3928.971	-107.88
3931.528	-108.88
3934.084	-108.88
3936.638	-107.88
3939.19	-109.88
3941.74	-109.88
3944.288	-108.88
3946.834	-111.88
3949.378	-109.88
3951.921	-111.88
3954.462	-109.88
3957	-107.88
3959.537	-107.88
3962.072	-106.88
3964.606	-104.88
3967.137	-109.88
3969.667	-110.88
3972.194	-110.88
3974.72	-111.88
3977.244	-107.88
3979.766	-111.88
3982.286	-107.88
3984.805	-105.88
3987.321	-102.88
3989.836	-106.88
3992.349	-105.88
3994.86	-105.88
3997.369	-104.88
3999.877	-107.88
4002.382	-109.88
4004.886	-107.88
4007.388	-104.88
4009.888	-108.88
4012.386	-108.88
4014.883	-105.88
4017.377	-104.88
4019.87	-107.88
4022.361	-105.88
4024.85	-105.88
4027.338	-106.88
4029.823	-111.88
4032.307	-109.88
4034.789	-107.88
4037.269	-105.88
4039.747	-107.88
4042.224	-109.88
4044.699	-108.88
4047.172	-106.88
4049.643	-104.88
4052.112	-106.88
4054.58	-106.88
4057.046	-104.88
4059.51	-107.88
4061.972	-110.88
4064.432	-111.88
4066.891	-110.88
4069.348	-109.88
4071.803	-111.88
4074.256	-111.88
4076.708	-108.88
4079.158	-105.88
4081.606	-107.88
4084.052	-110.88
4086.497	-107.88
4088.939	-109.88
4091.38	-108.88
4093.819	-111.88
4096.257	-112.88
4098.693	-110.88
4101.127	-115.88
4103.559	-113.88
4105.989	-70.88
4108.418	-69.88
4110.845	-61.88
4113.27	-59.88
4115.694	-47.88
4118.115	-39.88
4120.535	-108.88
4122.954	-107.88
4125.37	-110.88
4127.785	-109.88
4130.198	-107.88
4132.609	-111.88
4135.019	-115.88
4137.427	-110.88
4139.833	-115.88
4142.237	-117.88
