Data from 10CFU1_A_RamanShift_1.txt Node
Date: Tue Jan 24 17:13:36 IST 2017
User: aro
Spectrometer: QEPB0276
Trigger mode: 0
Integration Time (sec): 5.000000E0
Scans to average: 1
Electric dark correction enabled: true
Nonlinearity correction enabled: false
Boxcar width: 0
XAxis mode: Raman Shifts
Number of Pixels in Spectrum: 1044
>>>>>Begin Spectral Data<<<<<
160.701	-36.62
166.742	-0.62
172.777	99.38
178.805	393.38
184.826	1077.38
190.841	2249.38
196.849	3478.38
202.85	4330.38
208.845	4505.38
214.833	4378.38
220.815	4184.38
226.789	4057.38
232.758	3985.38
238.719	3847.38
244.674	3737.38
250.623	3590.38
256.565	3406.38
262.5	3273.38
268.429	3138.38
274.351	3019.38
280.267	2924.38
286.176	2829.38
292.079	2717.38
297.975	2640.38
303.865	2569.38
309.748	2521.38
315.625	2461.38
321.495	2408.38
327.359	2365.38
333.217	2317.38
339.068	2318.38
344.912	2307.38
350.751	2301.38
356.583	2310.38
362.408	2281.38
368.227	2287.38
374.04	2292.38
379.847	2302.38
385.647	2302.38
391.44	2327.38
397.228	2338.38
403.009	2368.38
408.784	2353.38
414.553	2368.38
420.315	2375.38
426.071	2362.38
431.821	2382.38
437.565	2358.38
443.302	2364.38
449.033	2389.38
454.758	2380.38
460.477	2342.38
466.189	2352.38
471.896	2328.38
477.596	2310.38
483.29	2302.38
488.978	2289.38
494.66	2274.38
500.335	2239.38
506.005	2212.38
511.668	2164.38
517.325	2132.38
522.977	2099.38
528.622	2090.38
534.261	2086.38
539.894	2037.38
545.521	2048.38
551.141	2030.38
556.756	2043.38
562.365	2003.38
567.968	1991.38
573.565	1968.38
579.155	1983.38
584.74	1970.38
590.319	1963.38
595.892	1932.38
601.459	1926.38
607.02	1912.38
612.575	1888.38
618.124	1889.38
623.667	1858.38
629.204	1849.38
634.735	1825.38
640.261	1829.38
645.781	1810.38
651.294	1793.38
656.802	1788.38
662.304	1778.38
667.8	1790.38
673.29	1794.38
678.775	1765.38
684.254	1767.38
689.726	1771.38
695.193	1758.38
700.655	1752.38
706.11	1716.38
711.56	1717.38
717.004	1704.38
722.442	1697.38
727.874	1682.38
733.301	1690.38
738.722	1673.38
744.137	1671.38
749.547	1672.38
754.951	1658.38
760.349	1665.38
765.741	1668.38
771.128	1642.38
776.509	1655.38
781.885	1663.38
787.254	1661.38
792.618	1649.38
797.977	1648.38
803.33	1616.38
808.677	1614.38
814.019	1608.38
819.355	1595.38
824.686	1576.38
830.011	1557.38
835.33	1557.38
840.644	1550.38
845.952	1536.38
851.255	1533.38
856.552	1526.38
861.844	1517.38
867.13	1519.38
872.41	1496.38
877.686	1500.38
882.955	1485.38
888.219	1453.38
893.478	1446.38
898.731	1422.38
903.979	1412.38
909.221	1400.38
914.458	1381.38
919.69	1373.38
924.916	1380.38
930.136	1385.38
935.351	1389.38
940.561	1380.38
945.766	1369.38
950.965	1364.38
956.158	1363.38
961.347	1323.38
966.529	1320.38
971.707	1302.38
976.879	1289.38
982.046	1283.38
987.208	1275.38
992.364	1260.38
997.515	1269.38
1002.66	1281.38
1007.801	1296.38
1012.936	1306.38
1018.066	1307.38
1023.19	1335.38
1028.309	1318.38
1033.423	1324.38
1038.532	1323.38
1043.636	1313.38
1048.734	1299.38
1053.827	1295.38
1058.915	1271.38
1063.998	1251.38
1069.075	1280.38
1074.147	1261.38
1079.214	1277.38
1084.276	1277.38
1089.333	1272.38
1094.385	1302.38
1099.431	1305.38
1104.472	1302.38
1109.509	1315.38
1114.54	1301.38
1119.565	1269.38
1124.586	1275.38
1129.602	1261.38
1134.613	1226.38
1139.618	1247.38
1144.619	1242.38
1149.614	1251.38
1154.604	1251.38
1159.589	1261.38
1164.57	1265.38
1169.545	1258.38
1174.515	1266.38
1179.48	1281.38
1184.44	1257.38
1189.395	1253.38
1194.345	1235.38
1199.29	1236.38
1204.23	1240.38
1209.165	1237.38
1214.095	1262.38
1219.021	1271.38
1223.941	1293.38
1228.856	1294.38
1233.766	1296.38
1238.672	1288.38
1243.572	1271.38
1248.467	1283.38
1253.358	1264.38
1258.244	1237.38
1263.124	1224.38
1268	1207.38
1272.871	1199.38
1277.737	1196.38
1282.599	1201.38
1287.455	1188.38
1292.306	1204.38
1297.153	1218.38
1301.995	1230.38
1306.832	1228.38
1311.664	1239.38
1316.491	1229.38
1321.314	1228.38
1326.132	1217.38
1330.945	1218.38
1335.753	1193.38
1340.556	1176.38
1345.354	1166.38
1350.148	1158.38
1354.937	1141.38
1359.722	1153.38
1364.501	1137.38
1369.276	1126.38
1374.046	1124.38
1378.811	1113.38
1383.572	1115.38
1388.327	1114.38
1393.079	1114.38
1397.825	1107.38
1402.567	1077.38
1407.304	1092.38
1412.036	1083.38
1416.764	1078.38
1421.487	1071.38
1426.205	1084.38
1430.919	1086.38
1435.628	1100.38
1440.333	1125.38
1445.032	1125.38
1449.727	1144.38
1454.418	1148.38
1459.104	1154.38
1463.785	1120.38
1468.462	1117.38
1473.134	1114.38
1477.802	1113.38
1482.465	1106.38
1487.123	1113.38
1491.777	1096.38
1496.426	1105.38
1501.071	1094.38
1505.711	1117.38
1510.347	1130.38
1514.978	1138.38
1519.604	1146.38
1524.226	1152.38
1528.844	1141.38
1533.457	1150.38
1538.065	1160.38
1542.669	1154.38
1547.269	1153.38
1551.864	1144.38
1556.454	1150.38
1561.041	1159.38
1565.622	1165.38
1570.199	1174.38
1574.772	1199.38
1579.34	1225.38
1583.904	1249.38
1588.464	1257.38
1593.019	1268.38
1597.569	1283.38
1602.115	1303.38
1606.657	1299.38
1611.195	1322.38
1615.728	1314.38
1620.256	1345.38
1624.78	1362.38
1629.3	1377.38
1633.816	1386.38
1638.327	1414.38
1642.834	1422.38
1647.336	1430.38
1651.834	1436.38
1656.328	1434.38
1660.817	1421.38
1665.302	1415.38
1669.783	1384.38
1674.259	1366.38
1678.732	1314.38
1683.199	1269.38
1687.663	1245.38
1692.122	1204.38
1696.577	1162.38
1701.028	1120.38
1705.474	1060.38
1709.917	1038.38
1714.355	1012.38
1718.788	998.38
1723.218	985.38
1727.643	975.38
1732.064	940.38
1736.481	930.38
1740.893	917.38
1745.301	882.38
1749.705	871.38
1754.105	850.38
1758.501	842.38
1762.893	823.38
1767.28	827.38
1771.663	802.38
1776.042	800.38
1780.417	797.38
1784.787	794.38
1789.154	818.38
1793.516	808.38
1797.874	803.38
1802.228	788.38
1806.578	773.38
1810.924	766.38
1815.266	758.38
1819.603	757.38
1823.937	750.38
1828.266	731.38
1832.591	729.38
1836.913	732.38
1841.23	728.38
1845.543	734.38
1849.852	732.38
1854.156	725.38
1858.457	741.38
1862.754	733.38
1867.047	739.38
1871.335	748.38
1875.62	750.38
1879.9	735.38
1884.177	741.38
1888.449	745.38
1892.718	748.38
1896.982	732.38
1901.243	740.38
1905.499	719.38
1909.752	734.38
1914	725.38
1918.245	732.38
1922.485	728.38
1926.722	739.38
1930.954	738.38
1935.183	729.38
1939.408	730.38
1943.628	743.38
1947.845	732.38
1952.058	732.38
1956.267	719.38
1960.472	724.38
1964.673	718.38
1968.87	702.38
1973.063	715.38
1977.252	685.38
1981.438	696.38
1985.619	699.38
1989.797	688.38
1993.971	704.38
1998.14	688.38
2002.306	706.38
2006.469	704.38
2010.627	712.38
2014.781	702.38
2018.932	712.38
2023.078	717.38
2027.221	697.38
2031.36	691.38
2035.495	685.38
2039.627	689.38
2043.754	682.38
2047.878	678.38
2051.998	685.38
2056.114	676.38
2060.226	689.38
2064.334	691.38
2068.439	690.38
2072.54	694.38
2076.637	692.38
2080.73	706.38
2084.82	704.38
2088.906	700.38
2092.988	698.38
2097.066	696.38
2101.14	684.38
2105.211	680.38
2109.278	680.38
2113.342	682.38
2117.401	669.38
2121.457	673.38
2125.509	674.38
2129.558	667.38
2133.602	659.38
2137.643	661.38
2141.681	656.38
2145.714	645.38
2149.744	649.38
2153.77	662.38
2157.793	637.38
2161.812	643.38
2165.827	630.38
2169.838	629.38
2173.846	606.38
2177.851	599.38
2181.851	592.38
2185.848	581.38
2189.841	586.38
2193.831	571.38
2197.817	580.38
2201.799	584.38
2205.778	574.38
2209.753	577.38
2213.725	574.38
2217.693	568.38
2221.657	555.38
2225.618	570.38
2229.575	561.38
2233.529	568.38
2237.479	551.38
2241.425	549.38
2245.368	537.38
2249.307	536.38
2253.243	522.38
2257.175	527.38
2261.104	512.38
2265.029	516.38
2268.95	506.38
2272.868	504.38
2276.783	488.38
2280.694	486.38
2284.601	476.38
2288.505	484.38
2292.405	461.38
2296.302	470.38
2300.195	458.38
2304.085	457.38
2307.971	444.38
2311.854	444.38
2315.734	430.38
2319.609	427.38
2323.482	417.38
2327.351	421.38
2331.216	421.38
2335.078	413.38
2338.937	408.38
2342.792	402.38
2346.643	391.38
2350.492	400.38
2354.336	409.38
2358.178	403.38
2362.015	398.38
2365.85	406.38
2369.681	412.38
2373.508	397.38
2377.333	404.38
2381.153	397.38
2384.971	403.38
2388.785	401.38
2392.595	391.38
2396.402	405.38
2400.206	400.38
2404.007	394.38
2407.804	395.38
2411.597	386.38
2415.388	385.38
2419.174	372.38
2422.958	378.38
2426.738	384.38
2430.515	378.38
2434.289	376.38
2438.059	377.38
2441.825	377.38
2445.589	372.38
2449.349	369.38
2453.106	369.38
2456.859	365.38
2460.61	363.38
2464.356	366.38
2468.1	354.38
2471.84	345.38
2475.577	348.38
2479.311	349.38
2483.041	345.38
2486.768	354.38
2490.492	351.38
2494.213	356.38
2497.93	354.38
2501.644	347.38
2505.355	348.38
2509.062	354.38
2512.766	352.38
2516.467	341.38
2520.165	341.38
2523.859	344.38
2527.551	339.38
2531.239	330.38
2534.923	337.38
2538.605	332.38
2542.283	333.38
2545.958	323.38
2549.63	325.38
2553.299	319.38
2556.964	305.38
2560.626	314.38
2564.285	322.38
2567.941	316.38
2571.594	321.38
2575.243	319.38
2578.89	312.38
2582.533	304.38
2586.173	304.38
2589.809	304.38
2593.443	299.38
2597.073	292.38
2600.701	288.38
2604.325	299.38
2607.946	285.38
2611.564	293.38
2615.178	294.38
2618.79	297.38
2622.398	288.38
2626.004	285.38
2629.606	281.38
2633.205	284.38
2636.801	276.38
2640.394	269.38
2643.983	273.38
2647.57	259.38
2651.153	261.38
2654.734	263.38
2658.311	262.38
2661.885	263.38
2665.456	261.38
2669.025	258.38
2672.589	253.38
2676.151	253.38
2679.71	257.38
2683.266	244.38
2686.819	248.38
2690.368	247.38
2693.915	243.38
2697.458	240.38
2700.999	234.38
2704.536	232.38
2708.071	238.38
2711.602	226.38
2715.13	229.38
2718.656	227.38
2722.178	224.38
2725.697	228.38
2729.214	231.38
2732.727	229.38
2736.237	230.38
2739.744	237.38
2743.249	222.38
2746.75	225.38
2750.248	230.38
2753.743	230.38
2757.236	218.38
2760.725	223.38
2764.211	225.38
2767.695	217.38
2771.175	211.38
2774.652	218.38
2778.127	211.38
2781.598	215.38
2785.067	217.38
2788.532	215.38
2791.995	225.38
2795.455	212.38
2798.911	218.38
2802.365	215.38
2805.816	221.38
2809.264	216.38
2812.709	216.38
2816.151	211.38
2819.59	215.38
2823.026	214.38
2826.46	218.38
2829.89	222.38
2833.318	220.38
2836.742	219.38
2840.164	224.38
2843.583	228.38
2846.999	221.38
2850.412	229.38
2853.822	238.38
2857.229	222.38
2860.634	236.38
2864.035	231.38
2867.434	243.38
2870.83	248.38
2874.223	243.38
2877.613	243.38
2881	246.38
2884.385	257.38
2887.766	246.38
2891.145	241.38
2894.521	243.38
2897.894	252.38
2901.264	243.38
2904.631	247.38
2907.996	255.38
2911.358	259.38
2914.717	258.38
2918.073	254.38
2921.426	262.38
2924.777	271.38
2928.124	265.38
2931.469	269.38
2934.811	288.38
2938.15	283.38
2941.487	297.38
2944.821	293.38
2948.152	296.38
2951.48	308.38
2954.805	304.38
2958.128	316.38
2961.447	320.38
2964.765	319.38
2968.079	320.38
2971.39	333.38
2974.699	336.38
2978.005	348.38
2981.308	347.38
2984.609	368.38
2987.907	369.38
2991.202	389.38
2994.494	395.38
2997.784	395.38
3001.07	411.38
3004.355	424.38
3007.636	431.38
3010.915	433.38
3014.191	444.38
3017.464	461.38
3020.734	456.38
3024.002	465.38
3027.267	478.38
3030.53	485.38
3033.789	496.38
3037.046	503.38
3040.301	518.38
3043.552	522.38
3046.801	546.38
3050.048	550.38
3053.291	571.38
3056.532	578.38
3059.771	598.38
3063.006	619.38
3066.239	631.38
3069.469	659.38
3072.697	681.38
3075.922	688.38
3079.144	715.38
3082.364	728.38
3085.581	732.38
3088.795	751.38
3092.007	779.38
3095.216	798.38
3098.423	803.38
3101.627	834.38
3104.828	838.38
3108.026	865.38
3111.222	892.38
3114.416	907.38
3117.607	919.38
3120.795	950.38
3123.98	960.38
3127.163	984.38
3130.344	1014.38
3133.521	1023.38
3136.696	1070.38
3139.869	1082.38
3143.039	1103.38
3146.206	1096.38
3149.371	1121.38
3152.533	1114.38
3155.693	1138.38
3158.85	1130.38
3162.005	1145.38
3165.157	1158.38
3168.306	1165.38
3171.453	1170.38
3174.597	1161.38
3177.739	1154.38
3180.878	1172.38
3184.014	1184.38
3187.149	1187.38
3190.28	1192.38
3193.409	1185.38
3196.536	1188.38
3199.659	1200.38
3202.781	1207.38
3205.9	1189.38
3209.016	1187.38
3212.13	1191.38
3215.241	1188.38
3218.35	1168.38
3221.456	1168.38
3224.56	1149.38
3227.661	1156.38
3230.76	1146.38
3233.856	1126.38
3236.95	1113.38
3240.041	1108.38
3243.13	1102.38
3246.216	1090.38
3249.3	1064.38
3252.382	1069.38
3255.46	1070.38
3258.537	1072.38
3261.611	1059.38
3264.682	1046.38
3267.751	1054.38
3270.818	1049.38
3273.882	1044.38
3276.943	1038.38
3280.002	1035.38
3283.059	1018.38
3286.113	1001.38
3289.165	973.38
3292.214	987.38
3295.261	958.38
3298.306	947.38
3301.348	929.38
3304.387	912.38
3307.425	912.38
3310.459	892.38
3313.492	881.38
3316.521	863.38
3319.549	859.38
3322.574	858.38
3325.597	837.38
3328.617	834.38
3331.635	834.38
3334.65	829.38
3337.663	837.38
3340.674	819.38
3343.682	816.38
3346.688	813.38
3349.691	812.38
3352.692	807.38
3355.691	803.38
3358.687	800.38
3361.681	778.38
3364.673	772.38
3367.662	777.38
3370.649	754.38
3373.633	750.38
3376.615	730.38
3379.595	728.38
3382.572	709.38
3385.547	705.38
3388.52	709.38
3391.49	695.38
3394.458	668.38
3397.424	672.38
3400.387	659.38
3403.348	653.38
3406.307	645.38
3409.263	632.38
3412.217	635.38
3415.168	625.38
3418.118	627.38
3421.065	617.38
3424.009	607.38
3426.951	596.38
3429.891	582.38
3432.829	569.38
3435.764	555.38
3438.697	540.38
3441.628	537.38
3444.557	528.38
3447.483	499.38
3450.407	497.38
3453.328	477.38
3456.247	463.38
3459.164	450.38
3462.079	434.38
3464.991	425.38
3467.902	405.38
3470.809	396.38
3473.715	381.38
3476.618	375.38
3479.519	364.38
3482.418	342.38
3485.315	340.38
3488.209	331.38
3491.101	328.38
3493.99	322.38
3496.878	313.38
3499.763	294.38
3502.646	283.38
3505.527	272.38
3508.405	268.38
3511.281	247.38
3514.155	233.38
3517.027	222.38
3519.897	215.38
3522.764	202.38
3525.629	189.38
3528.492	185.38
3531.352	165.38
3534.211	170.38
3537.067	161.38
3539.921	138.38
3542.773	132.38
3545.622	120.38
3548.469	116.38
3551.315	103.38
3554.157	100.38
3556.998	90.38
3559.837	92.38
3562.673	85.38
3565.507	76.38
3568.339	71.38
3571.169	64.38
3573.996	59.38
3576.822	52.38
3579.645	49.38
3582.466	44.38
3585.285	36.38
3588.101	34.38
3590.916	29.38
3593.728	24.38
3596.538	14.38
3599.346	14.38
3602.152	9.38
3604.956	3.38
3607.757	-8.62
3610.556	-9.62
3613.354	-10.62
3616.149	-14.62
3618.942	-20.62
3621.732	-16.62
3624.521	-19.62
3627.307	-22.62
3630.092	-25.62
3632.874	-26.62
3635.654	-26.62
3638.432	-35.62
3641.208	-36.62
3643.982	-37.62
3646.753	-43.62
3649.523	-46.62
3652.29	-46.62
3655.055	-45.62
3657.818	-50.62
3660.579	-49.62
3663.338	-54.62
3666.095	-59.62
3668.849	-57.62
3671.602	-61.62
3674.352	-69.62
3677.101	-69.62
3679.847	-70.62
3682.591	-71.62
3685.333	-69.62
3688.073	-73.62
3690.811	-72.62
3693.547	-73.62
3696.281	-79.62
3699.013	-82.62
3701.742	-82.62
3704.47	-84.62
3707.195	-84.62
3709.919	-86.62
3712.64	-85.62
3715.359	-85.62
3718.076	-87.62
3720.792	-85.62
3723.505	-86.62
3726.216	-88.62
3728.925	-88.62
3731.632	-86.62
3734.336	-95.62
3737.039	-94.62
3739.74	-95.62
3742.439	-92.62
3745.136	-94.62
3747.83	-94.62
3750.523	-91.62
3753.213	-92.62
3755.902	-94.62
3758.589	-95.62
3761.273	-95.62
3763.956	-95.62
3766.636	-95.62
3769.315	-98.62
3771.991	-101.62
3774.665	-99.62
3777.338	-99.62
3780.008	-100.62
3782.677	-100.62
3785.343	-101.62
3788.007	-106.62
3790.67	-103.62
3793.33	-100.62
3795.989	-97.62
3798.645	-97.62
3801.299	-102.62
3803.952	-98.62
3806.602	-102.62
3809.251	-102.62
3811.897	-103.62
3814.542	-101.62
3817.184	-102.62
3819.825	-102.62
3822.463	-105.62
3825.1	-108.62
3827.735	-106.62
3830.367	-108.62
3832.998	-105.62
3835.627	-102.62
3838.253	-101.62
3840.878	-100.62
3843.501	-104.62
3846.122	-104.62
3848.741	-108.62
3851.358	-106.62
3853.973	-108.62
3856.586	-107.62
3859.197	-107.62
3861.806	-111.62
3864.414	-112.62
3867.019	-109.62
3869.622	-106.62
3872.224	-103.62
3874.823	-104.62
3877.421	-95.62
3880.016	-98.62
3882.61	-99.62
3885.202	-95.62
3887.792	-97.62
3890.38	-103.62
3892.966	-106.62
3895.55	-111.62
3898.132	-108.62
3900.713	-111.62
3903.291	-108.62
3905.868	-109.62
3908.442	-111.62
3911.015	-110.62
3913.586	-108.62
3916.155	-110.62
3918.722	-111.62
3921.287	-113.62
3923.85	-109.62
3926.411	-112.62
3928.971	-109.62
3931.528	-110.62
3934.084	-110.62
3936.638	-113.62
3939.19	-110.62
3941.74	-113.62
3944.288	-111.62
3946.834	-114.62
3949.378	-113.62
3951.921	-115.62
3954.462	-111.62
3957	-107.62
3959.537	-111.62
3962.072	-107.62
3964.606	-106.62
3967.137	-114.62
3969.667	-112.62
3972.194	-112.62
3974.72	-111.62
3977.244	-114.62
3979.766	-114.62
3982.286	-112.62
3984.805	-110.62
3987.321	-107.62
3989.836	-109.62
3992.349	-106.62
3994.86	-107.62
3997.369	-107.62
3999.877	-112.62
4002.382	-107.62
4004.886	-108.62
4007.388	-107.62
4009.888	-110.62
4012.386	-112.62
4014.883	-108.62
4017.377	-107.62
4019.87	-108.62
4022.361	-109.62
4024.85	-110.62
4027.338	-110.62
4029.823	-110.62
4032.307	-114.62
4034.789	-111.62
4037.269	-108.62
4039.747	-110.62
4042.224	-112.62
4044.699	-106.62
4047.172	-110.62
4049.643	-108.62
4052.112	-109.62
4054.58	-111.62
4057.046	-112.62
4059.51	-112.62
4061.972	-115.62
4064.432	-112.62
4066.891	-111.62
4069.348	-111.62
4071.803	-108.62
4074.256	-110.62
4076.708	-109.62
4079.158	-108.62
4081.606	-108.62
4084.052	-107.62
4086.497	-110.62
4088.939	-113.62
4091.38	-117.62
4093.819	-117.62
4096.257	-109.62
4098.693	-111.62
4101.127	-115.62
4103.559	-115.62
4105.989	-74.62
4108.418	-74.62
4110.845	-68.62
4113.27	-66.62
4115.694	-53.62
4118.115	-50.62
4120.535	-115.62
4122.954	-113.62
4125.37	-113.62
4127.785	-112.62
4130.198	-112.62
4132.609	-110.62
4135.019	-114.62
4137.427	-109.62
4139.833	-115.62
4142.237	-115.62
