Data from 10CFU2_A_RamanShift_1.txt Node
Date: Tue Jan 24 17:15:46 IST 2017
User: aro
Spectrometer: QEPB0276
Trigger mode: 0
Integration Time (sec): 5.000000E0
Scans to average: 1
Electric dark correction enabled: true
Nonlinearity correction enabled: false
Boxcar width: 0
XAxis mode: Raman Shifts
Number of Pixels in Spectrum: 1044
>>>>>Begin Spectral Data<<<<<
160.701	-30.38
166.742	-1.38
172.777	104.62
178.805	408.62
184.826	1149.62
190.841	2352.62
196.849	3700.62
202.85	4542.62
208.845	4718.62
214.833	4585.62
220.815	4401.62
226.789	4275.62
232.758	4176.62
238.719	4051.62
244.674	3897.62
250.623	3738.62
256.565	3575.62
262.5	3402.62
268.429	3260.62
274.351	3124.62
280.267	3000.62
286.176	2894.62
292.079	2797.62
297.975	2713.62
303.865	2631.62
309.748	2567.62
315.625	2527.62
321.495	2448.62
327.359	2411.62
333.217	2383.62
339.068	2393.62
344.912	2339.62
350.751	2353.62
356.583	2335.62
362.408	2342.62
368.227	2335.62
374.04	2336.62
379.847	2375.62
385.647	2372.62
391.44	2383.62
397.228	2397.62
403.009	2431.62
408.784	2388.62
414.553	2443.62
420.315	2424.62
426.071	2442.62
431.821	2409.62
437.565	2454.62
443.302	2418.62
449.033	2413.62
454.758	2417.62
460.477	2382.62
466.189	2365.62
471.896	2372.62
477.596	2356.62
483.29	2365.62
488.978	2330.62
494.66	2325.62
500.335	2306.62
506.005	2249.62
511.668	2219.62
517.325	2181.62
522.977	2156.62
528.622	2125.62
534.261	2102.62
539.894	2087.62
545.521	2058.62
551.141	2057.62
556.756	2048.62
562.365	2019.62
567.968	2015.62
573.565	1995.62
579.155	1992.62
584.74	1978.62
590.319	1954.62
595.892	1962.62
601.459	1932.62
607.02	1920.62
612.575	1902.62
618.124	1901.62
623.667	1874.62
629.204	1837.62
634.735	1831.62
640.261	1805.62
645.781	1836.62
651.294	1801.62
656.802	1809.62
662.304	1789.62
667.8	1780.62
673.29	1773.62
678.775	1785.62
684.254	1784.62
689.726	1762.62
695.193	1749.62
700.655	1725.62
706.11	1731.62
711.56	1720.62
717.004	1709.62
722.442	1690.62
727.874	1690.62
733.301	1690.62
738.722	1666.62
744.137	1680.62
749.547	1661.62
754.951	1657.62
760.349	1675.62
765.741	1674.62
771.128	1665.62
776.509	1652.62
781.885	1651.62
787.254	1661.62
792.618	1649.62
797.977	1639.62
803.33	1624.62
808.677	1617.62
814.019	1604.62
819.355	1600.62
824.686	1565.62
830.011	1551.62
835.33	1549.62
840.644	1524.62
845.952	1541.62
851.255	1521.62
856.552	1517.62
861.844	1504.62
867.13	1510.62
872.41	1503.62
877.686	1491.62
882.955	1473.62
888.219	1441.62
893.478	1443.62
898.731	1400.62
903.979	1386.62
909.221	1371.62
914.458	1367.62
919.69	1369.62
924.916	1377.62
930.136	1366.62
935.351	1361.62
940.561	1351.62
945.766	1345.62
950.965	1339.62
956.158	1321.62
961.347	1316.62
966.529	1297.62
971.707	1273.62
976.879	1264.62
982.046	1252.62
987.208	1243.62
992.364	1247.62
997.515	1253.62
1002.66	1265.62
1007.801	1276.62
1012.936	1291.62
1018.066	1295.62
1023.19	1297.62
1028.309	1310.62
1033.423	1293.62
1038.532	1285.62
1043.636	1275.62
1048.734	1267.62
1053.827	1252.62
1058.915	1246.62
1063.998	1251.62
1069.075	1238.62
1074.147	1228.62
1079.214	1242.62
1084.276	1243.62
1089.333	1279.62
1094.385	1275.62
1099.431	1275.62
1104.472	1274.62
1109.509	1282.62
1114.54	1256.62
1119.565	1255.62
1124.586	1231.62
1129.602	1211.62
1134.613	1223.62
1139.618	1205.62
1144.619	1216.62
1149.614	1230.62
1154.604	1222.62
1159.589	1240.62
1164.57	1239.62
1169.545	1246.62
1174.515	1247.62
1179.48	1229.62
1184.44	1223.62
1189.395	1218.62
1194.345	1207.62
1199.29	1208.62
1204.23	1197.62
1209.165	1220.62
1214.095	1218.62
1219.021	1232.62
1223.941	1243.62
1228.856	1248.62
1233.766	1278.62
1238.672	1254.62
1243.572	1249.62
1248.467	1236.62
1253.358	1230.62
1258.244	1223.62
1263.124	1204.62
1268	1172.62
1272.871	1163.62
1277.737	1171.62
1282.599	1169.62
1287.455	1166.62
1292.306	1165.62
1297.153	1180.62
1301.995	1188.62
1306.832	1199.62
1311.664	1186.62
1316.491	1215.62
1321.314	1186.62
1326.132	1191.62
1330.945	1182.62
1335.753	1166.62
1340.556	1140.62
1345.354	1137.62
1350.148	1135.62
1354.937	1117.62
1359.722	1104.62
1364.501	1102.62
1369.276	1081.62
1374.046	1083.62
1378.811	1081.62
1383.572	1072.62
1388.327	1086.62
1393.079	1077.62
1397.825	1079.62
1402.567	1065.62
1407.304	1054.62
1412.036	1040.62
1416.764	1043.62
1421.487	1042.62
1426.205	1051.62
1430.919	1056.62
1435.628	1080.62
1440.333	1081.62
1445.032	1096.62
1449.727	1100.62
1454.418	1115.62
1459.104	1097.62
1463.785	1098.62
1468.462	1080.62
1473.134	1062.62
1477.802	1073.62
1482.465	1079.62
1487.123	1068.62
1491.777	1060.62
1496.426	1058.62
1501.071	1082.62
1505.711	1076.62
1510.347	1078.62
1514.978	1116.62
1519.604	1121.62
1524.226	1114.62
1528.844	1128.62
1533.457	1121.62
1538.065	1133.62
1542.669	1120.62
1547.269	1117.62
1551.864	1109.62
1556.454	1115.62
1561.041	1127.62
1565.622	1142.62
1570.199	1143.62
1574.772	1173.62
1579.34	1205.62
1583.904	1211.62
1588.464	1234.62
1593.019	1259.62
1597.569	1265.62
1602.115	1253.62
1606.657	1290.62
1611.195	1299.62
1615.728	1296.62
1620.256	1328.62
1624.78	1346.62
1629.3	1367.62
1633.816	1385.62
1638.327	1405.62
1642.834	1418.62
1647.336	1418.62
1651.834	1412.62
1656.328	1427.62
1660.817	1421.62
1665.302	1396.62
1669.783	1347.62
1674.259	1339.62
1678.732	1290.62
1683.199	1269.62
1687.663	1212.62
1692.122	1169.62
1696.577	1136.62
1701.028	1064.62
1705.474	1041.62
1709.917	1009.62
1714.355	991.62
1718.788	968.62
1723.218	957.62
1727.643	940.62
1732.064	932.62
1736.481	887.62
1740.893	881.62
1745.301	852.62
1749.705	830.62
1754.105	811.62
1758.501	792.62
1762.893	774.62
1767.28	773.62
1771.663	758.62
1776.042	760.62
1780.417	757.62
1784.787	757.62
1789.154	756.62
1793.516	757.62
1797.874	745.62
1802.228	763.62
1806.578	740.62
1810.924	743.62
1815.266	718.62
1819.603	707.62
1823.937	695.62
1828.266	705.62
1832.591	686.62
1836.913	677.62
1841.23	688.62
1845.543	682.62
1849.852	680.62
1854.156	693.62
1858.457	697.62
1862.754	688.62
1867.047	698.62
1871.335	707.62
1875.62	702.62
1879.9	695.62
1884.177	706.62
1888.449	705.62
1892.718	700.62
1896.982	699.62
1901.243	693.62
1905.499	694.62
1909.752	673.62
1914	691.62
1918.245	675.62
1922.485	684.62
1926.722	686.62
1930.954	698.62
1935.183	695.62
1939.408	693.62
1943.628	693.62
1947.845	697.62
1952.058	693.62
1956.267	691.62
1960.472	693.62
1964.673	677.62
1968.87	662.62
1973.063	656.62
1977.252	655.62
1981.438	651.62
1985.619	642.62
1989.797	659.62
1993.971	652.62
1998.14	650.62
2002.306	657.62
2006.469	672.62
2010.627	670.62
2014.781	676.62
2018.932	679.62
2023.078	680.62
2027.221	661.62
2031.36	669.62
2035.495	647.62
2039.627	651.62
2043.754	642.62
2047.878	645.62
2051.998	642.62
2056.114	644.62
2060.226	658.62
2064.334	654.62
2068.439	659.62
2072.54	666.62
2076.637	668.62
2080.73	665.62
2084.82	657.62
2088.906	667.62
2092.988	663.62
2097.066	661.62
2101.14	659.62
2105.211	657.62
2109.278	642.62
2113.342	644.62
2117.401	633.62
2121.457	638.62
2125.509	630.62
2129.558	633.62
2133.602	635.62
2137.643	623.62
2141.681	630.62
2145.714	616.62
2149.744	626.62
2153.77	619.62
2157.793	618.62
2161.812	598.62
2165.827	601.62
2169.838	597.62
2173.846	588.62
2177.851	578.62
2181.851	571.62
2185.848	555.62
2189.841	556.62
2193.831	548.62
2197.817	545.62
2201.799	543.62
2205.778	541.62
2209.753	537.62
2213.725	540.62
2217.693	548.62
2221.657	538.62
2225.618	545.62
2229.575	538.62
2233.529	526.62
2237.479	525.62
2241.425	518.62
2245.368	504.62
2249.307	506.62
2253.243	506.62
2257.175	496.62
2261.104	484.62
2265.029	473.62
2268.95	476.62
2272.868	474.62
2276.783	470.62
2280.694	457.62
2284.601	445.62
2288.505	446.62
2292.405	443.62
2296.302	432.62
2300.195	433.62
2304.085	425.62
2307.971	417.62
2311.854	411.62
2315.734	409.62
2319.609	401.62
2323.482	390.62
2327.351	383.62
2331.216	390.62
2335.078	379.62
2338.937	383.62
2342.792	369.62
2346.643	371.62
2350.492	369.62
2354.336	383.62
2358.178	376.62
2362.015	377.62
2365.85	376.62
2369.681	387.62
2373.508	378.62
2377.333	377.62
2381.153	373.62
2384.971	371.62
2388.785	371.62
2392.595	362.62
2396.402	366.62
2400.206	373.62
2404.007	359.62
2407.804	357.62
2411.597	355.62
2415.388	350.62
2419.174	361.62
2422.958	357.62
2426.738	355.62
2430.515	352.62
2434.289	353.62
2438.059	353.62
2441.825	352.62
2445.589	350.62
2449.349	353.62
2453.106	343.62
2456.859	342.62
2460.61	337.62
2464.356	337.62
2468.1	337.62
2471.84	325.62
2475.577	324.62
2479.311	321.62
2483.041	338.62
2486.768	325.62
2490.492	325.62
2494.213	324.62
2497.93	322.62
2501.644	318.62
2505.355	323.62
2509.062	324.62
2512.766	324.62
2516.467	321.62
2520.165	317.62
2523.859	311.62
2527.551	306.62
2531.239	313.62
2534.923	303.62
2538.605	307.62
2542.283	304.62
2545.958	295.62
2549.63	298.62
2553.299	296.62
2556.964	287.62
2560.626	294.62
2564.285	295.62
2567.941	289.62
2571.594	282.62
2575.243	291.62
2578.89	280.62
2582.533	278.62
2586.173	277.62
2589.809	277.62
2593.443	271.62
2597.073	272.62
2600.701	272.62
2604.325	272.62
2607.946	275.62
2611.564	260.62
2615.178	267.62
2618.79	265.62
2622.398	266.62
2626.004	256.62
2629.606	258.62
2633.205	257.62
2636.801	250.62
2640.394	250.62
2643.983	257.62
2647.57	248.62
2651.153	246.62
2654.734	237.62
2658.311	241.62
2661.885	245.62
2665.456	236.62
2669.025	233.62
2672.589	235.62
2676.151	229.62
2679.71	232.62
2683.266	229.62
2686.819	222.62
2690.368	221.62
2693.915	214.62
2697.458	222.62
2700.999	211.62
2704.536	212.62
2708.071	201.62
2711.602	199.62
2715.13	201.62
2718.656	208.62
2722.178	208.62
2725.697	211.62
2729.214	208.62
2732.727	215.62
2736.237	211.62
2739.744	205.62
2743.249	213.62
2746.75	209.62
2750.248	210.62
2753.743	213.62
2757.236	200.62
2760.725	203.62
2764.211	199.62
2767.695	202.62
2771.175	202.62
2774.652	196.62
2778.127	202.62
2781.598	204.62
2785.067	205.62
2788.532	197.62
2791.995	204.62
2795.455	206.62
2798.911	201.62
2802.365	198.62
2805.816	200.62
2809.264	208.62
2812.709	203.62
2816.151	210.62
2819.59	203.62
2823.026	208.62
2826.46	209.62
2829.89	215.62
2833.318	205.62
2836.742	215.62
2840.164	212.62
2843.583	214.62
2846.999	216.62
2850.412	215.62
2853.822	220.62
2857.229	227.62
2860.634	227.62
2864.035	231.62
2867.434	235.62
2870.83	232.62
2874.223	238.62
2877.613	231.62
2881	237.62
2884.385	242.62
2887.766	241.62
2891.145	241.62
2894.521	242.62
2897.894	245.62
2901.264	243.62
2904.631	247.62
2907.996	247.62
2911.358	246.62
2914.717	250.62
2918.073	258.62
2921.426	259.62
2924.777	269.62
2928.124	259.62
2931.469	272.62
2934.811	278.62
2938.15	286.62
2941.487	297.62
2944.821	293.62
2948.152	304.62
2951.48	308.62
2954.805	304.62
2958.128	306.62
2961.447	321.62
2964.765	322.62
2968.079	326.62
2971.39	333.62
2974.699	345.62
2978.005	348.62
2981.308	352.62
2984.609	379.62
2987.907	373.62
2991.202	384.62
2994.494	411.62
2997.784	407.62
3001.07	424.62
3004.355	443.62
3007.636	442.62
3010.915	436.62
3014.191	465.62
3017.464	457.62
3020.734	477.62
3024.002	485.62
3027.267	487.62
3030.53	505.62
3033.789	510.62
3037.046	528.62
3040.301	538.62
3043.552	545.62
3046.801	552.62
3050.048	571.62
3053.291	606.62
3056.532	600.62
3059.771	625.62
3063.006	636.62
3066.239	677.62
3069.469	688.62
3072.697	714.62
3075.922	733.62
3079.144	740.62
3082.364	758.62
3085.581	782.62
3088.795	787.62
3092.007	802.62
3095.216	841.62
3098.423	864.62
3101.627	893.62
3104.828	897.62
3108.026	907.62
3111.222	933.62
3114.416	961.62
3117.607	971.62
3120.795	974.62
3123.98	1025.62
3127.163	1028.62
3130.344	1051.62
3133.521	1092.62
3136.696	1101.62
3139.869	1143.62
3143.039	1148.62
3146.206	1172.62
3149.371	1196.62
3152.533	1198.62
3155.693	1201.62
3158.85	1206.62
3162.005	1217.62
3165.157	1214.62
3168.306	1208.62
3171.453	1231.62
3174.597	1232.62
3177.739	1234.62
3180.878	1241.62
3184.014	1248.62
3187.149	1264.62
3190.28	1254.62
3193.409	1250.62
3196.536	1261.62
3199.659	1260.62
3202.781	1262.62
3205.9	1271.62
3209.016	1271.62
3212.13	1264.62
3215.241	1250.62
3218.35	1245.62
3221.456	1241.62
3224.56	1222.62
3227.661	1221.62
3230.76	1210.62
3233.856	1196.62
3236.95	1203.62
3240.041	1167.62
3243.13	1159.62
3246.216	1162.62
3249.3	1151.62
3252.382	1149.62
3255.46	1140.62
3258.537	1138.62
3261.611	1119.62
3264.682	1115.62
3267.751	1114.62
3270.818	1101.62
3273.882	1102.62
3276.943	1089.62
3280.002	1095.62
3283.059	1084.62
3286.113	1075.62
3289.165	1055.62
3292.214	1043.62
3295.261	1017.62
3298.306	1015.62
3301.348	992.62
3304.387	984.62
3307.425	949.62
3310.459	955.62
3313.492	927.62
3316.521	921.62
3319.549	916.62
3322.574	912.62
3325.597	902.62
3328.617	893.62
3331.635	885.62
3334.65	885.62
3337.663	878.62
3340.674	877.62
3343.682	882.62
3346.688	876.62
3349.691	872.62
3352.692	846.62
3355.691	860.62
3358.687	847.62
3361.681	837.62
3364.673	820.62
3367.662	822.62
3370.649	814.62
3373.633	796.62
3376.615	777.62
3379.595	767.62
3382.572	754.62
3385.547	749.62
3388.52	748.62
3391.49	737.62
3394.458	723.62
3397.424	724.62
3400.387	703.62
3403.348	704.62
3406.307	683.62
3409.263	682.62
3412.217	686.62
3415.168	676.62
3418.118	669.62
3421.065	655.62
3424.009	647.62
3426.951	638.62
3429.891	635.62
3432.829	611.62
3435.764	602.62
3438.697	589.62
3441.628	572.62
3444.557	548.62
3447.483	545.62
3450.407	534.62
3453.328	517.62
3456.247	496.62
3459.164	484.62
3462.079	471.62
3464.991	461.62
3467.902	439.62
3470.809	427.62
3473.715	407.62
3476.618	397.62
3479.519	380.62
3482.418	370.62
3485.315	360.62
3488.209	356.62
3491.101	346.62
3493.99	337.62
3496.878	332.62
3499.763	317.62
3502.646	307.62
3505.527	290.62
3508.405	276.62
3511.281	254.62
3514.155	255.62
3517.027	236.62
3519.897	233.62
3522.764	215.62
3525.629	205.62
3528.492	201.62
3531.352	181.62
3534.211	184.62
3537.067	162.62
3539.921	150.62
3542.773	144.62
3545.622	128.62
3548.469	125.62
3551.315	117.62
3554.157	108.62
3556.998	104.62
3559.837	100.62
3562.673	89.62
3565.507	82.62
3568.339	72.62
3571.169	64.62
3573.996	60.62
3576.822	49.62
3579.645	52.62
3582.466	47.62
3585.285	41.62
3588.101	33.62
3590.916	33.62
3593.728	30.62
3596.538	18.62
3599.346	13.62
3602.152	9.62
3604.956	1.62
3607.757	-2.38
3610.556	-6.38
3613.354	-13.38
3616.149	-17.38
3618.942	-12.38
3621.732	-13.38
3624.521	-20.38
3627.307	-20.38
3630.092	-24.38
3632.874	-24.38
3635.654	-31.38
3638.432	-35.38
3641.208	-34.38
3643.982	-38.38
3646.753	-38.38
3649.523	-49.38
3652.29	-50.38
3655.055	-51.38
3657.818	-51.38
3660.579	-56.38
3663.338	-61.38
3666.095	-61.38
3668.849	-60.38
3671.602	-60.38
3674.352	-70.38
3677.101	-70.38
3679.847	-70.38
3682.591	-78.38
3685.333	-75.38
3688.073	-76.38
3690.811	-79.38
3693.547	-77.38
3696.281	-79.38
3699.013	-85.38
3701.742	-88.38
3704.47	-88.38
3707.195	-88.38
3709.919	-89.38
3712.64	-88.38
3715.359	-89.38
3718.076	-89.38
3720.792	-86.38
3723.505	-88.38
3726.216	-89.38
3728.925	-91.38
3731.632	-89.38
3734.336	-95.38
3737.039	-99.38
3739.74	-97.38
3742.439	-100.38
3745.136	-101.38
3747.83	-97.38
3750.523	-94.38
3753.213	-100.38
3755.902	-98.38
3758.589	-100.38
3761.273	-101.38
3763.956	-104.38
3766.636	-101.38
3769.315	-102.38
3771.991	-103.38
3774.665	-103.38
3777.338	-106.38
3780.008	-104.38
3782.677	-102.38
3785.343	-105.38
3788.007	-108.38
3790.67	-105.38
3793.33	-110.38
3795.989	-108.38
3798.645	-108.38
3801.299	-108.38
3803.952	-106.38
3806.602	-108.38
3809.251	-109.38
3811.897	-109.38
3814.542	-105.38
3817.184	-104.38
3819.825	-107.38
3822.463	-114.38
3825.1	-109.38
3827.735	-109.38
3830.367	-112.38
3832.998	-115.38
3835.627	-112.38
3838.253	-111.38
3840.878	-113.38
3843.501	-113.38
3846.122	-112.38
3848.741	-113.38
3851.358	-112.38
3853.973	-114.38
3856.586	-112.38
3859.197	-111.38
3861.806	-112.38
3864.414	-112.38
3867.019	-111.38
3869.622	-113.38
3872.224	-108.38
3874.823	-110.38
3877.421	-105.38
3880.016	-105.38
3882.61	-104.38
3885.202	-101.38
3887.792	-104.38
3890.38	-107.38
3892.966	-110.38
3895.55	-112.38
3898.132	-115.38
3900.713	-113.38
3903.291	-110.38
3905.868	-114.38
3908.442	-113.38
3911.015	-115.38
3913.586	-117.38
3916.155	-118.38
3918.722	-118.38
3921.287	-118.38
3923.85	-118.38
3926.411	-123.38
3928.971	-112.38
3931.528	-117.38
3934.084	-119.38
3936.638	-120.38
3939.19	-116.38
3941.74	-118.38
3944.288	-114.38
3946.834	-117.38
3949.378	-118.38
3951.921	-116.38
3954.462	-117.38
3957	-116.38
3959.537	-114.38
3962.072	-115.38
3964.606	-113.38
3967.137	-118.38
3969.667	-116.38
3972.194	-118.38
3974.72	-117.38
3977.244	-120.38
3979.766	-119.38
3982.286	-118.38
3984.805	-112.38
3987.321	-109.38
3989.836	-112.38
3992.349	-113.38
3994.86	-116.38
3997.369	-114.38
3999.877	-114.38
4002.382	-113.38
4004.886	-115.38
4007.388	-114.38
4009.888	-115.38
4012.386	-118.38
4014.883	-115.38
4017.377	-113.38
4019.87	-112.38
4022.361	-115.38
4024.85	-112.38
4027.338	-116.38
4029.823	-116.38
4032.307	-117.38
4034.789	-114.38
4037.269	-115.38
4039.747	-117.38
4042.224	-115.38
4044.699	-114.38
4047.172	-116.38
4049.643	-111.38
4052.112	-117.38
4054.58	-118.38
4057.046	-114.38
4059.51	-117.38
4061.972	-120.38
4064.432	-113.38
4066.891	-115.38
4069.348	-116.38
4071.803	-115.38
4074.256	-117.38
4076.708	-115.38
4079.158	-113.38
4081.606	-114.38
4084.052	-114.38
4086.497	-116.38
4088.939	-119.38
4091.38	-119.38
4093.819	-120.38
4096.257	-120.38
4098.693	-117.38
4101.127	-123.38
4103.559	-125.38
4105.989	-80.38
4108.418	-77.38
4110.845	-72.38
4113.27	-69.38
4115.694	-60.38
4118.115	-49.38
4120.535	-118.38
4122.954	-118.38
4125.37	-115.38
4127.785	-116.38
4130.198	-116.38
4132.609	-114.38
4135.019	-119.38
4137.427	-118.38
4139.833	-121.38
4142.237	-122.38
