Data from 1CFU3_B_RamanShift_1.txt Node
Date: Tue Jan 24 17:52:41 IST 2017
User: aro
Spectrometer: QEPB0276
Trigger mode: 0
Integration Time (sec): 5.000000E0
Scans to average: 1
Electric dark correction enabled: true
Nonlinearity correction enabled: false
Boxcar width: 0
XAxis mode: Raman Shifts
Number of Pixels in Spectrum: 1044
>>>>>Begin Spectral Data<<<<<
160.701	-36.88
166.742	1.12
172.777	107.12
178.805	425.12
184.826	1183.12
190.841	2454.12
196.849	3835.12
202.85	4783.12
208.845	4967.12
214.833	4840.12
220.815	4658.12
226.789	4519.12
232.758	4376.12
238.719	4262.12
244.674	4135.12
250.623	3946.12
256.565	3772.12
262.5	3611.12
268.429	3460.12
274.351	3348.12
280.267	3235.12
286.176	3107.12
292.079	2996.12
297.975	2930.12
303.865	2829.12
309.748	2782.12
315.625	2696.12
321.495	2637.12
327.359	2615.12
333.217	2581.12
339.068	2585.12
344.912	2561.12
350.751	2547.12
356.583	2520.12
362.408	2524.12
368.227	2528.12
374.04	2507.12
379.847	2541.12
385.647	2563.12
391.44	2568.12
397.228	2609.12
403.009	2614.12
408.784	2606.12
414.553	2624.12
420.315	2622.12
426.071	2648.12
431.821	2617.12
437.565	2608.12
443.302	2611.12
449.033	2598.12
454.758	2605.12
460.477	2602.12
466.189	2575.12
471.896	2577.12
477.596	2557.12
483.29	2536.12
488.978	2521.12
494.66	2522.12
500.335	2485.12
506.005	2454.12
511.668	2384.12
517.325	2375.12
522.977	2341.12
528.622	2302.12
534.261	2271.12
539.894	2256.12
545.521	2255.12
551.141	2223.12
556.756	2219.12
562.365	2198.12
567.968	2199.12
573.565	2184.12
579.155	2157.12
584.74	2154.12
590.319	2136.12
595.892	2131.12
601.459	2114.12
607.02	2098.12
612.575	2085.12
618.124	2076.12
623.667	2029.12
629.204	2030.12
634.735	2002.12
640.261	2008.12
645.781	1984.12
651.294	1973.12
656.802	1957.12
662.304	1965.12
667.8	1948.12
673.29	1958.12
678.775	1924.12
684.254	1939.12
689.726	1918.12
695.193	1926.12
700.655	1894.12
706.11	1873.12
711.56	1872.12
717.004	1862.12
722.442	1851.12
727.874	1822.12
733.301	1822.12
738.722	1820.12
744.137	1810.12
749.547	1818.12
754.951	1819.12
760.349	1822.12
765.741	1805.12
771.128	1813.12
776.509	1811.12
781.885	1818.12
787.254	1798.12
792.618	1792.12
797.977	1781.12
803.33	1774.12
808.677	1763.12
814.019	1740.12
819.355	1738.12
824.686	1704.12
830.011	1683.12
835.33	1692.12
840.644	1676.12
845.952	1672.12
851.255	1679.12
856.552	1651.12
861.844	1650.12
867.13	1643.12
872.41	1658.12
877.686	1614.12
882.955	1606.12
888.219	1575.12
893.478	1560.12
898.731	1538.12
903.979	1502.12
909.221	1500.12
914.458	1478.12
919.69	1479.12
924.916	1475.12
930.136	1486.12
935.351	1486.12
940.561	1481.12
945.766	1481.12
950.965	1469.12
956.158	1454.12
961.347	1440.12
966.529	1416.12
971.707	1407.12
976.879	1387.12
982.046	1387.12
987.208	1376.12
992.364	1374.12
997.515	1368.12
1002.66	1369.12
1007.801	1379.12
1012.936	1411.12
1018.066	1409.12
1023.19	1432.12
1028.309	1427.12
1033.423	1417.12
1038.532	1425.12
1043.636	1425.12
1048.734	1374.12
1053.827	1382.12
1058.915	1374.12
1063.998	1358.12
1069.075	1354.12
1074.147	1355.12
1079.214	1357.12
1084.276	1375.12
1089.333	1383.12
1094.385	1386.12
1099.431	1409.12
1104.472	1400.12
1109.509	1398.12
1114.54	1376.12
1119.565	1369.12
1124.586	1348.12
1129.602	1330.12
1134.613	1317.12
1139.618	1335.12
1144.619	1325.12
1149.614	1335.12
1154.604	1338.12
1159.589	1350.12
1164.57	1352.12
1169.545	1356.12
1174.515	1343.12
1179.48	1346.12
1184.44	1322.12
1189.395	1330.12
1194.345	1312.12
1199.29	1317.12
1204.23	1323.12
1209.165	1316.12
1214.095	1332.12
1219.021	1346.12
1223.941	1362.12
1228.856	1341.12
1233.766	1368.12
1238.672	1376.12
1243.572	1362.12
1248.467	1364.12
1253.358	1357.12
1258.244	1344.12
1263.124	1319.12
1268	1297.12
1272.871	1282.12
1277.737	1265.12
1282.599	1278.12
1287.455	1257.12
1292.306	1266.12
1297.153	1280.12
1301.995	1303.12
1306.832	1287.12
1311.664	1293.12
1316.491	1296.12
1321.314	1302.12
1326.132	1290.12
1330.945	1273.12
1335.753	1258.12
1340.556	1268.12
1345.354	1237.12
1350.148	1246.12
1354.937	1234.12
1359.722	1202.12
1364.501	1190.12
1369.276	1198.12
1374.046	1173.12
1378.811	1185.12
1383.572	1167.12
1388.327	1172.12
1393.079	1167.12
1397.825	1158.12
1402.567	1141.12
1407.304	1142.12
1412.036	1141.12
1416.764	1133.12
1421.487	1143.12
1426.205	1146.12
1430.919	1164.12
1435.628	1165.12
1440.333	1172.12
1445.032	1190.12
1449.727	1201.12
1454.418	1196.12
1459.104	1193.12
1463.785	1198.12
1468.462	1179.12
1473.134	1174.12
1477.802	1170.12
1482.465	1148.12
1487.123	1157.12
1491.777	1157.12
1496.426	1149.12
1501.071	1173.12
1505.711	1176.12
1510.347	1197.12
1514.978	1213.12
1519.604	1210.12
1524.226	1216.12
1528.844	1216.12
1533.457	1209.12
1538.065	1203.12
1542.669	1207.12
1547.269	1194.12
1551.864	1209.12
1556.454	1207.12
1561.041	1218.12
1565.622	1225.12
1570.199	1241.12
1574.772	1257.12
1579.34	1286.12
1583.904	1297.12
1588.464	1333.12
1593.019	1346.12
1597.569	1359.12
1602.115	1356.12
1606.657	1395.12
1611.195	1383.12
1615.728	1394.12
1620.256	1423.12
1624.78	1447.12
1629.3	1465.12
1633.816	1488.12
1638.327	1484.12
1642.834	1517.12
1647.336	1525.12
1651.834	1515.12
1656.328	1519.12
1660.817	1523.12
1665.302	1485.12
1669.783	1459.12
1674.259	1439.12
1678.732	1391.12
1683.199	1361.12
1687.663	1316.12
1692.122	1269.12
1696.577	1217.12
1701.028	1179.12
1705.474	1132.12
1709.917	1101.12
1714.355	1081.12
1718.788	1033.12
1723.218	1050.12
1727.643	1015.12
1732.064	1001.12
1736.481	974.12
1740.893	948.12
1745.301	929.12
1749.705	925.12
1754.105	876.12
1758.501	862.12
1762.893	860.12
1767.28	854.12
1771.663	843.12
1776.042	844.12
1780.417	831.12
1784.787	833.12
1789.154	839.12
1793.516	832.12
1797.874	828.12
1802.228	834.12
1806.578	818.12
1810.924	811.12
1815.266	782.12
1819.603	776.12
1823.937	774.12
1828.266	768.12
1832.591	756.12
1836.913	765.12
1841.23	762.12
1845.543	749.12
1849.852	765.12
1854.156	758.12
1858.457	756.12
1862.754	747.12
1867.047	764.12
1871.335	759.12
1875.62	781.12
1879.9	787.12
1884.177	777.12
1888.449	782.12
1892.718	776.12
1896.982	763.12
1901.243	756.12
1905.499	766.12
1909.752	752.12
1914	760.12
1918.245	757.12
1922.485	747.12
1926.722	763.12
1930.954	771.12
1935.183	772.12
1939.408	768.12
1943.628	763.12
1947.845	780.12
1952.058	775.12
1956.267	763.12
1960.472	760.12
1964.673	745.12
1968.87	752.12
1973.063	736.12
1977.252	735.12
1981.438	719.12
1985.619	725.12
1989.797	720.12
1993.971	715.12
1998.14	712.12
2002.306	730.12
2006.469	722.12
2010.627	734.12
2014.781	749.12
2018.932	735.12
2023.078	725.12
2027.221	733.12
2031.36	736.12
2035.495	728.12
2039.627	717.12
2043.754	715.12
2047.878	707.12
2051.998	702.12
2056.114	714.12
2060.226	709.12
2064.334	713.12
2068.439	726.12
2072.54	721.12
2076.637	736.12
2080.73	734.12
2084.82	727.12
2088.906	726.12
2092.988	722.12
2097.066	724.12
2101.14	725.12
2105.211	715.12
2109.278	708.12
2113.342	705.12
2117.401	690.12
2121.457	698.12
2125.509	702.12
2129.558	697.12
2133.602	677.12
2137.643	689.12
2141.681	681.12
2145.714	680.12
2149.744	666.12
2153.77	691.12
2157.793	668.12
2161.812	662.12
2165.827	665.12
2169.838	659.12
2173.846	650.12
2177.851	623.12
2181.851	619.12
2185.848	623.12
2189.841	613.12
2193.831	601.12
2197.817	604.12
2201.799	597.12
2205.778	594.12
2209.753	604.12
2213.725	598.12
2217.693	592.12
2221.657	584.12
2225.618	588.12
2229.575	577.12
2233.529	589.12
2237.479	571.12
2241.425	572.12
2245.368	576.12
2249.307	562.12
2253.243	550.12
2257.175	542.12
2261.104	532.12
2265.029	528.12
2268.95	535.12
2272.868	526.12
2276.783	503.12
2280.694	495.12
2284.601	494.12
2288.505	486.12
2292.405	487.12
2296.302	483.12
2300.195	474.12
2304.085	468.12
2307.971	467.12
2311.854	458.12
2315.734	453.12
2319.609	439.12
2323.482	424.12
2327.351	415.12
2331.216	427.12
2335.078	419.12
2338.937	418.12
2342.792	414.12
2346.643	405.12
2350.492	413.12
2354.336	414.12
2358.178	409.12
2362.015	415.12
2365.85	419.12
2369.681	421.12
2373.508	416.12
2377.333	414.12
2381.153	418.12
2384.971	412.12
2388.785	405.12
2392.595	398.12
2396.402	409.12
2400.206	401.12
2404.007	407.12
2407.804	394.12
2411.597	398.12
2415.388	390.12
2419.174	385.12
2422.958	385.12
2426.738	391.12
2430.515	389.12
2434.289	374.12
2438.059	382.12
2441.825	384.12
2445.589	384.12
2449.349	375.12
2453.106	366.12
2456.859	379.12
2460.61	367.12
2464.356	354.12
2468.1	358.12
2471.84	357.12
2475.577	352.12
2479.311	353.12
2483.041	367.12
2486.768	352.12
2490.492	364.12
2494.213	363.12
2497.93	363.12
2501.644	358.12
2505.355	357.12
2509.062	354.12
2512.766	349.12
2516.467	351.12
2520.165	347.12
2523.859	356.12
2527.551	349.12
2531.239	340.12
2534.923	344.12
2538.605	331.12
2542.283	333.12
2545.958	338.12
2549.63	334.12
2553.299	329.12
2556.964	329.12
2560.626	324.12
2564.285	328.12
2567.941	326.12
2571.594	326.12
2575.243	315.12
2578.89	314.12
2582.533	307.12
2586.173	308.12
2589.809	309.12
2593.443	305.12
2597.073	296.12
2600.701	296.12
2604.325	292.12
2607.946	295.12
2611.564	295.12
2615.178	293.12
2618.79	289.12
2622.398	290.12
2626.004	284.12
2629.606	290.12
2633.205	289.12
2636.801	293.12
2640.394	270.12
2643.983	272.12
2647.57	277.12
2651.153	275.12
2654.734	267.12
2658.311	266.12
2661.885	270.12
2665.456	263.12
2669.025	262.12
2672.589	256.12
2676.151	253.12
2679.71	253.12
2683.266	252.12
2686.819	250.12
2690.368	242.12
2693.915	237.12
2697.458	247.12
2700.999	234.12
2704.536	241.12
2708.071	226.12
2711.602	233.12
2715.13	218.12
2718.656	218.12
2722.178	227.12
2725.697	223.12
2729.214	227.12
2732.727	229.12
2736.237	234.12
2739.744	235.12
2743.249	226.12
2746.75	234.12
2750.248	236.12
2753.743	231.12
2757.236	232.12
2760.725	231.12
2764.211	225.12
2767.695	229.12
2771.175	222.12
2774.652	218.12
2778.127	221.12
2781.598	223.12
2785.067	221.12
2788.532	216.12
2791.995	219.12
2795.455	228.12
2798.911	221.12
2802.365	230.12
2805.816	228.12
2809.264	231.12
2812.709	223.12
2816.151	228.12
2819.59	223.12
2823.026	228.12
2826.46	231.12
2829.89	229.12
2833.318	238.12
2836.742	232.12
2840.164	223.12
2843.583	235.12
2846.999	232.12
2850.412	229.12
2853.822	240.12
2857.229	246.12
2860.634	246.12
2864.035	244.12
2867.434	245.12
2870.83	254.12
2874.223	258.12
2877.613	260.12
2881	253.12
2884.385	261.12
2887.766	262.12
2891.145	256.12
2894.521	256.12
2897.894	259.12
2901.264	265.12
2904.631	268.12
2907.996	264.12
2911.358	269.12
2914.717	269.12
2918.073	269.12
2921.426	283.12
2924.777	286.12
2928.124	281.12
2931.469	293.12
2934.811	296.12
2938.15	301.12
2941.487	309.12
2944.821	311.12
2948.152	316.12
2951.48	325.12
2954.805	321.12
2958.128	327.12
2961.447	342.12
2964.765	339.12
2968.079	344.12
2971.39	352.12
2974.699	357.12
2978.005	364.12
2981.308	382.12
2984.609	388.12
2987.907	398.12
2991.202	412.12
2994.494	419.12
2997.784	431.12
3001.07	441.12
3004.355	450.12
3007.636	456.12
3010.915	476.12
3014.191	478.12
3017.464	485.12
3020.734	493.12
3024.002	509.12
3027.267	519.12
3030.53	534.12
3033.789	528.12
3037.046	545.12
3040.301	558.12
3043.552	566.12
3046.801	582.12
3050.048	583.12
3053.291	611.12
3056.532	632.12
3059.771	647.12
3063.006	667.12
3066.239	703.12
3069.469	710.12
3072.697	734.12
3075.922	756.12
3079.144	782.12
3082.364	795.12
3085.581	807.12
3088.795	822.12
3092.007	839.12
3095.216	863.12
3098.423	865.12
3101.627	898.12
3104.828	922.12
3108.026	940.12
3111.222	957.12
3114.416	973.12
3117.607	1003.12
3120.795	1019.12
3123.98	1035.12
3127.163	1064.12
3130.344	1091.12
3133.521	1122.12
3136.696	1142.12
3139.869	1162.12
3143.039	1183.12
3146.206	1215.12
3149.371	1216.12
3152.533	1242.12
3155.693	1231.12
3158.85	1241.12
3162.005	1260.12
3165.157	1254.12
3168.306	1256.12
3171.453	1258.12
3174.597	1260.12
3177.739	1287.12
3180.878	1283.12
3184.014	1293.12
3187.149	1289.12
3190.28	1285.12
3193.409	1290.12
3196.536	1297.12
3199.659	1303.12
3202.781	1313.12
3205.9	1301.12
3209.016	1301.12
3212.13	1302.12
3215.241	1291.12
3218.35	1279.12
3221.456	1294.12
3224.56	1264.12
3227.661	1252.12
3230.76	1242.12
3233.856	1231.12
3236.95	1215.12
3240.041	1211.12
3243.13	1201.12
3246.216	1183.12
3249.3	1171.12
3252.382	1176.12
3255.46	1172.12
3258.537	1175.12
3261.611	1144.12
3264.682	1143.12
3267.751	1151.12
3270.818	1139.12
3273.882	1133.12
3276.943	1115.12
3280.002	1119.12
3283.059	1099.12
3286.113	1110.12
3289.165	1093.12
3292.214	1065.12
3295.261	1048.12
3298.306	1035.12
3301.348	1026.12
3304.387	1008.12
3307.425	988.12
3310.459	991.12
3313.492	956.12
3316.521	959.12
3319.549	949.12
3322.574	933.12
3325.597	934.12
3328.617	934.12
3331.635	913.12
3334.65	923.12
3337.663	896.12
3340.674	907.12
3343.682	900.12
3346.688	901.12
3349.691	896.12
3352.692	886.12
3355.691	892.12
3358.687	868.12
3361.681	869.12
3364.673	862.12
3367.662	844.12
3370.649	820.12
3373.633	815.12
3376.615	803.12
3379.595	800.12
3382.572	794.12
3385.547	778.12
3388.52	764.12
3391.49	762.12
3394.458	749.12
3397.424	733.12
3400.387	727.12
3403.348	707.12
3406.307	717.12
3409.263	715.12
3412.217	696.12
3415.168	683.12
3418.118	682.12
3421.065	673.12
3424.009	670.12
3426.951	658.12
3429.891	649.12
3432.829	624.12
3435.764	617.12
3438.697	592.12
3441.628	594.12
3444.557	567.12
3447.483	556.12
3450.407	543.12
3453.328	528.12
3456.247	517.12
3459.164	494.12
3462.079	481.12
3464.991	466.12
3467.902	457.12
3470.809	444.12
3473.715	422.12
3476.618	413.12
3479.519	382.12
3482.418	392.12
3485.315	364.12
3488.209	364.12
3491.101	358.12
3493.99	346.12
3496.878	329.12
3499.763	322.12
3502.646	302.12
3505.527	306.12
3508.405	283.12
3511.281	262.12
3514.155	259.12
3517.027	242.12
3519.897	236.12
3522.764	230.12
3525.629	213.12
3528.492	204.12
3531.352	197.12
3534.211	183.12
3537.067	169.12
3539.921	149.12
3542.773	146.12
3545.622	141.12
3548.469	125.12
3551.315	116.12
3554.157	109.12
3556.998	104.12
3559.837	92.12
3562.673	90.12
3565.507	78.12
3568.339	82.12
3571.169	74.12
3573.996	64.12
3576.822	59.12
3579.645	50.12
3582.466	46.12
3585.285	38.12
3588.101	38.12
3590.916	32.12
3593.728	23.12
3596.538	19.12
3599.346	19.12
3602.152	11.12
3604.956	2.12
3607.757	-1.88
3610.556	-8.88
3613.354	-6.88
3616.149	-16.88
3618.942	-13.88
3621.732	-17.88
3624.521	-18.88
3627.307	-20.88
3630.092	-27.88
3632.874	-27.88
3635.654	-31.88
3638.432	-36.88
3641.208	-38.88
3643.982	-39.88
3646.753	-46.88
3649.523	-48.88
3652.29	-52.88
3655.055	-51.88
3657.818	-49.88
3660.579	-56.88
3663.338	-64.88
3666.095	-66.88
3668.849	-61.88
3671.602	-66.88
3674.352	-75.88
3677.101	-69.88
3679.847	-75.88
3682.591	-80.88
3685.333	-76.88
3688.073	-82.88
3690.811	-81.88
3693.547	-77.88
3696.281	-83.88
3699.013	-85.88
3701.742	-91.88
3704.47	-89.88
3707.195	-91.88
3709.919	-93.88
3712.64	-90.88
3715.359	-89.88
3718.076	-97.88
3720.792	-91.88
3723.505	-89.88
3726.216	-97.88
3728.925	-95.88
3731.632	-94.88
3734.336	-101.88
3737.039	-102.88
3739.74	-103.88
3742.439	-102.88
3745.136	-102.88
3747.83	-103.88
3750.523	-100.88
3753.213	-100.88
3755.902	-102.88
3758.589	-102.88
3761.273	-103.88
3763.956	-100.88
3766.636	-104.88
3769.315	-103.88
3771.991	-106.88
3774.665	-107.88
3777.338	-106.88
3780.008	-109.88
3782.677	-103.88
3785.343	-106.88
3788.007	-111.88
3790.67	-108.88
3793.33	-112.88
3795.989	-109.88
3798.645	-111.88
3801.299	-113.88
3803.952	-113.88
3806.602	-112.88
3809.251	-110.88
3811.897	-107.88
3814.542	-107.88
3817.184	-109.88
3819.825	-110.88
3822.463	-111.88
3825.1	-112.88
3827.735	-116.88
3830.367	-117.88
3832.998	-117.88
3835.627	-114.88
3838.253	-115.88
3840.878	-114.88
3843.501	-113.88
3846.122	-111.88
3848.741	-118.88
3851.358	-116.88
3853.973	-116.88
3856.586	-111.88
3859.197	-115.88
3861.806	-115.88
3864.414	-114.88
3867.019	-113.88
3869.622	-114.88
3872.224	-114.88
3874.823	-112.88
3877.421	-110.88
3880.016	-108.88
3882.61	-109.88
3885.202	-106.88
3887.792	-112.88
3890.38	-114.88
3892.966	-117.88
3895.55	-114.88
3898.132	-116.88
3900.713	-113.88
3903.291	-116.88
3905.868	-117.88
3908.442	-115.88
3911.015	-117.88
3913.586	-117.88
3916.155	-119.88
3918.722	-119.88
3921.287	-122.88
3923.85	-122.88
3926.411	-122.88
3928.971	-117.88
3931.528	-119.88
3934.084	-119.88
3936.638	-121.88
3939.19	-121.88
3941.74	-119.88
3944.288	-119.88
3946.834	-121.88
3949.378	-124.88
3951.921	-121.88
3954.462	-122.88
3957	-117.88
3959.537	-117.88
3962.072	-118.88
3964.606	-115.88
3967.137	-120.88
3969.667	-123.88
3972.194	-123.88
3974.72	-123.88
3977.244	-121.88
3979.766	-123.88
3982.286	-116.88
3984.805	-118.88
3987.321	-111.88
3989.836	-115.88
3992.349	-110.88
3994.86	-116.88
3997.369	-115.88
3999.877	-119.88
4002.382	-117.88
4004.886	-120.88
4007.388	-120.88
4009.888	-122.88
4012.386	-123.88
4014.883	-118.88
4017.377	-117.88
4019.87	-120.88
4022.361	-116.88
4024.85	-118.88
4027.338	-120.88
4029.823	-118.88
4032.307	-118.88
4034.789	-117.88
4037.269	-118.88
4039.747	-119.88
4042.224	-120.88
4044.699	-117.88
4047.172	-117.88
4049.643	-115.88
4052.112	-118.88
4054.58	-117.88
4057.046	-118.88
4059.51	-121.88
4061.972	-123.88
4064.432	-122.88
4066.891	-122.88
4069.348	-121.88
4071.803	-117.88
4074.256	-119.88
4076.708	-121.88
4079.158	-117.88
4081.606	-115.88
4084.052	-116.88
4086.497	-116.88
4088.939	-121.88
4091.38	-118.88
4093.819	-122.88
4096.257	-120.88
4098.693	-119.88
4101.127	-121.88
4103.559	-125.88
4105.989	-83.88
4108.418	-81.88
4110.845	-73.88
4113.27	-69.88
4115.694	-59.88
4118.115	-55.88
4120.535	-120.88
4122.954	-120.88
4125.37	-122.88
4127.785	-122.88
4130.198	-122.88
4132.609	-121.88
4135.019	-125.88
4137.427	-119.88
4139.833	-125.88
4142.237	-124.88
