Data from 1CFU3_A_RamanShift_1.txt Node
Date: Tue Jan 24 17:12:16 IST 2017
User: aro
Spectrometer: QEPB0276
Trigger mode: 0
Integration Time (sec): 5.000000E0
Scans to average: 1
Electric dark correction enabled: true
Nonlinearity correction enabled: false
Boxcar width: 0
XAxis mode: Raman Shifts
Number of Pixels in Spectrum: 1044
>>>>>Begin Spectral Data<<<<<
160.701	-34
166.742	-4
172.777	96
178.805	399
184.826	1096
190.841	2265
196.849	3503
202.85	4352
208.845	4504
214.833	4373
220.815	4198
226.789	4096
232.758	3987
238.719	3874
244.674	3706
250.623	3557
256.565	3420
262.5	3238
268.429	3094
274.351	2991
280.267	2897
286.176	2767
292.079	2686
297.975	2595
303.865	2514
309.748	2449
315.625	2394
321.495	2327
327.359	2297
333.217	2270
339.068	2265
344.912	2259
350.751	2246
356.583	2228
362.408	2248
368.227	2252
374.04	2242
379.847	2245
385.647	2252
391.44	2281
397.228	2296
403.009	2289
408.784	2314
414.553	2308
420.315	2327
426.071	2332
431.821	2302
437.565	2310
443.302	2296
449.033	2320
454.758	2304
460.477	2286
466.189	2273
471.896	2272
477.596	2253
483.29	2241
488.978	2229
494.66	2210
500.335	2179
506.005	2167
511.668	2108
517.325	2086
522.977	2069
528.622	2022
534.261	2012
539.894	1971
545.521	1953
551.141	1966
556.756	1954
562.365	1915
567.968	1922
573.565	1899
579.155	1901
584.74	1892
590.319	1876
595.892	1868
601.459	1854
607.02	1846
612.575	1823
618.124	1798
623.667	1784
629.204	1759
634.735	1746
640.261	1749
645.781	1718
651.294	1723
656.802	1728
662.304	1718
667.8	1713
673.29	1693
678.775	1701
684.254	1700
689.726	1685
695.193	1667
700.655	1651
706.11	1650
711.56	1639
717.004	1631
722.442	1618
727.874	1599
733.301	1601
738.722	1580
744.137	1577
749.547	1590
754.951	1586
760.349	1580
765.741	1563
771.128	1575
776.509	1590
781.885	1579
787.254	1564
792.618	1568
797.977	1552
803.33	1545
808.677	1542
814.019	1525
819.355	1499
824.686	1490
830.011	1490
835.33	1467
840.644	1474
845.952	1470
851.255	1457
856.552	1454
861.844	1455
867.13	1413
872.41	1431
877.686	1421
882.955	1391
888.219	1381
893.478	1361
898.731	1344
903.979	1306
909.221	1293
914.458	1297
919.69	1290
924.916	1294
930.136	1308
935.351	1281
940.561	1289
945.766	1280
950.965	1256
956.158	1254
961.347	1226
966.529	1229
971.707	1204
976.879	1182
982.046	1193
987.208	1185
992.364	1181
997.515	1185
1002.66	1204
1007.801	1194
1012.936	1226
1018.066	1236
1023.19	1217
1028.309	1222
1033.423	1236
1038.532	1236
1043.636	1216
1048.734	1204
1053.827	1187
1058.915	1181
1063.998	1183
1069.075	1161
1074.147	1183
1079.214	1177
1084.276	1182
1089.333	1205
1094.385	1211
1099.431	1221
1104.472	1209
1109.509	1213
1114.54	1204
1119.565	1176
1124.586	1157
1129.602	1157
1134.613	1139
1139.618	1130
1144.619	1139
1149.614	1145
1154.604	1169
1159.589	1166
1164.57	1171
1169.545	1175
1174.515	1166
1179.48	1164
1184.44	1170
1189.395	1156
1194.345	1136
1199.29	1131
1204.23	1134
1209.165	1152
1214.095	1170
1219.021	1167
1223.941	1185
1228.856	1176
1233.766	1197
1238.672	1190
1243.572	1180
1248.467	1174
1253.358	1171
1258.244	1135
1263.124	1135
1268	1116
1272.871	1108
1277.737	1107
1282.599	1104
1287.455	1105
1292.306	1124
1297.153	1112
1301.995	1114
1306.832	1135
1311.664	1132
1316.491	1132
1321.314	1128
1326.132	1123
1330.945	1102
1335.753	1108
1340.556	1090
1345.354	1074
1350.148	1070
1354.937	1056
1359.722	1067
1364.501	1051
1369.276	1040
1374.046	1022
1378.811	1028
1383.572	1021
1388.327	999
1393.079	1004
1397.825	1022
1402.567	1001
1407.304	979
1412.036	998
1416.764	985
1421.487	984
1426.205	1010
1430.919	1002
1435.628	1022
1440.333	1026
1445.032	1033
1449.727	1051
1454.418	1050
1459.104	1039
1463.785	1040
1468.462	1032
1473.134	1031
1477.802	1031
1482.465	987
1487.123	1013
1491.777	1005
1496.426	1020
1501.071	1018
1505.711	1035
1510.347	1038
1514.978	1053
1519.604	1060
1524.226	1056
1528.844	1061
1533.457	1058
1538.065	1063
1542.669	1053
1547.269	1046
1551.864	1041
1556.454	1061
1561.041	1056
1565.622	1090
1570.199	1099
1574.772	1112
1579.34	1137
1583.904	1151
1588.464	1166
1593.019	1206
1597.569	1201
1602.115	1222
1606.657	1220
1611.195	1223
1615.728	1228
1620.256	1259
1624.78	1288
1629.3	1292
1633.816	1307
1638.327	1324
1642.834	1346
1647.336	1359
1651.834	1347
1656.328	1345
1660.817	1335
1665.302	1334
1669.783	1311
1674.259	1265
1678.732	1230
1683.199	1195
1687.663	1158
1692.122	1113
1696.577	1083
1701.028	1017
1705.474	981
1709.917	954
1714.355	920
1718.788	915
1723.218	917
1727.643	880
1732.064	872
1736.481	842
1740.893	830
1745.301	808
1749.705	798
1754.105	764
1758.501	759
1762.893	740
1767.28	725
1771.663	725
1776.042	712
1780.417	722
1784.787	725
1789.154	727
1793.516	729
1797.874	716
1802.228	711
1806.578	693
1810.924	696
1815.266	664
1819.603	679
1823.937	673
1828.266	655
1832.591	656
1836.913	647
1841.23	641
1845.543	642
1849.852	644
1854.156	648
1858.457	647
1862.754	662
1867.047	658
1871.335	672
1875.62	656
1879.9	651
1884.177	655
1888.449	665
1892.718	655
1896.982	655
1901.243	659
1905.499	653
1909.752	648
1914	658
1918.245	650
1922.485	654
1926.722	656
1930.954	646
1935.183	647
1939.408	666
1943.628	655
1947.845	663
1952.058	650
1956.267	653
1960.472	632
1964.673	651
1968.87	639
1973.063	627
1977.252	624
1981.438	612
1985.619	613
1989.797	615
1993.971	627
1998.14	618
2002.306	630
2006.469	628
2010.627	629
2014.781	634
2018.932	632
2023.078	634
2027.221	634
2031.36	638
2035.495	624
2039.627	613
2043.754	614
2047.878	604
2051.998	607
2056.114	616
2060.226	611
2064.334	616
2068.439	617
2072.54	623
2076.637	629
2080.73	635
2084.82	629
2088.906	627
2092.988	638
2097.066	633
2101.14	612
2105.211	620
2109.278	611
2113.342	608
2117.401	610
2121.457	600
2125.509	616
2129.558	594
2133.602	593
2137.643	594
2141.681	597
2145.714	587
2149.744	588
2153.77	587
2157.793	578
2161.812	575
2165.827	577
2169.838	572
2173.846	542
2177.851	535
2181.851	531
2185.848	530
2189.841	524
2193.831	531
2197.817	508
2201.799	522
2205.778	516
2209.753	503
2213.725	513
2217.693	524
2221.657	513
2225.618	514
2229.575	509
2233.529	506
2237.479	501
2241.425	487
2245.368	479
2249.307	472
2253.243	480
2257.175	467
2261.104	457
2265.029	457
2268.95	451
2272.868	453
2276.783	429
2280.694	427
2284.601	429
2288.505	422
2292.405	416
2296.302	419
2300.195	395
2304.085	398
2307.971	395
2311.854	391
2315.734	387
2319.609	372
2323.482	371
2327.351	362
2331.216	371
2335.078	371
2338.937	353
2342.792	357
2346.643	351
2350.492	343
2354.336	355
2358.178	355
2362.015	351
2365.85	351
2369.681	347
2373.508	350
2377.333	350
2381.153	349
2384.971	359
2388.785	357
2392.595	354
2396.402	351
2400.206	349
2404.007	343
2407.804	351
2411.597	348
2415.388	341
2419.174	333
2422.958	335
2426.738	331
2430.515	330
2434.289	336
2438.059	341
2441.825	330
2445.589	326
2449.349	335
2453.106	331
2456.859	322
2460.61	317
2464.356	311
2468.1	316
2471.84	317
2475.577	306
2479.311	307
2483.041	306
2486.768	305
2490.492	307
2494.213	307
2497.93	308
2501.644	314
2505.355	309
2509.062	308
2512.766	305
2516.467	294
2520.165	300
2523.859	296
2527.551	298
2531.239	284
2534.923	292
2538.605	285
2542.283	287
2545.958	283
2549.63	295
2553.299	278
2556.964	272
2560.626	275
2564.285	274
2567.941	273
2571.594	268
2575.243	275
2578.89	262
2582.533	262
2586.173	257
2589.809	254
2593.443	252
2597.073	252
2600.701	251
2604.325	247
2607.946	262
2611.564	252
2615.178	255
2618.79	259
2622.398	249
2626.004	241
2629.606	245
2633.205	243
2636.801	238
2640.394	234
2643.983	244
2647.57	235
2651.153	239
2654.734	230
2658.311	229
2661.885	229
2665.456	227
2669.025	230
2672.589	215
2676.151	214
2679.71	214
2683.266	216
2686.819	206
2690.368	209
2693.915	201
2697.458	208
2700.999	206
2704.536	203
2708.071	199
2711.602	201
2715.13	189
2718.656	197
2722.178	202
2725.697	195
2729.214	200
2732.727	205
2736.237	196
2739.744	208
2743.249	191
2746.75	204
2750.248	197
2753.743	200
2757.236	194
2760.725	191
2764.211	193
2767.695	189
2771.175	188
2774.652	192
2778.127	186
2781.598	186
2785.067	182
2788.532	189
2791.995	188
2795.455	187
2798.911	195
2802.365	188
2805.816	203
2809.264	197
2812.709	188
2816.151	200
2819.59	193
2823.026	198
2826.46	198
2829.89	202
2833.318	189
2836.742	197
2840.164	194
2843.583	193
2846.999	196
2850.412	204
2853.822	210
2857.229	210
2860.634	210
2864.035	223
2867.434	229
2870.83	221
2874.223	226
2877.613	227
2881	223
2884.385	227
2887.766	230
2891.145	230
2894.521	224
2897.894	233
2901.264	237
2904.631	235
2907.996	242
2911.358	244
2914.717	236
2918.073	249
2921.426	251
2924.777	257
2928.124	255
2931.469	264
2934.811	273
2938.15	275
2941.487	280
2944.821	282
2948.152	288
2951.48	298
2954.805	290
2958.128	300
2961.447	304
2964.765	308
2968.079	318
2971.39	313
2974.699	331
2978.005	328
2981.308	339
2984.609	351
2987.907	363
2991.202	362
2994.494	385
2997.784	386
3001.07	407
3004.355	430
3007.636	415
3010.915	425
3014.191	435
3017.464	441
3020.734	455
3024.002	464
3027.267	468
3030.53	467
3033.789	486
3037.046	510
3040.301	506
3043.552	526
3046.801	534
3050.048	538
3053.291	568
3056.532	582
3059.771	595
3063.006	620
3066.239	641
3069.469	658
3072.697	679
3075.922	693
3079.144	704
3082.364	726
3085.581	737
3088.795	751
3092.007	776
3095.216	795
3098.423	812
3101.627	836
3104.828	843
3108.026	879
3111.222	879
3114.416	904
3117.607	932
3120.795	946
3123.98	964
3127.163	989
3130.344	999
3133.521	1042
3136.696	1074
3139.869	1083
3143.039	1109
3146.206	1125
3149.371	1135
3152.533	1146
3155.693	1151
3158.85	1152
3162.005	1174
3165.157	1189
3168.306	1175
3171.453	1189
3174.597	1188
3177.739	1189
3180.878	1176
3184.014	1197
3187.149	1194
3190.28	1199
3193.409	1198
3196.536	1218
3199.659	1221
3202.781	1211
3205.9	1222
3209.016	1231
3212.13	1208
3215.241	1222
3218.35	1208
3221.456	1201
3224.56	1187
3227.661	1168
3230.76	1171
3233.856	1150
3236.95	1152
3240.041	1121
3243.13	1117
3246.216	1113
3249.3	1108
3252.382	1101
3255.46	1083
3258.537	1093
3261.611	1079
3264.682	1078
3267.751	1072
3270.818	1079
3273.882	1067
3276.943	1047
3280.002	1068
3283.059	1044
3286.113	1020
3289.165	1009
3292.214	1007
3295.261	988
3298.306	964
3301.348	962
3304.387	952
3307.425	927
3310.459	928
3313.492	915
3316.521	908
3319.549	882
3322.574	883
3325.597	866
3328.617	868
3331.635	855
3334.65	848
3337.663	858
3340.674	843
3343.682	846
3346.688	840
3349.691	839
3352.692	829
3355.691	832
3358.687	821
3361.681	814
3364.673	810
3367.662	797
3370.649	789
3373.633	770
3376.615	760
3379.595	746
3382.572	744
3385.547	736
3388.52	728
3391.49	698
3394.458	700
3397.424	688
3400.387	683
3403.348	671
3406.307	667
3409.263	658
3412.217	655
3415.168	644
3418.118	634
3421.065	620
3424.009	617
3426.951	604
3429.891	598
3432.829	582
3435.764	574
3438.697	565
3441.628	549
3444.557	538
3447.483	521
3450.407	508
3453.328	507
3456.247	488
3459.164	470
3462.079	456
3464.991	443
3467.902	419
3470.809	417
3473.715	398
3476.618	384
3479.519	362
3482.418	355
3485.315	356
3488.209	346
3491.101	334
3493.99	325
3496.878	313
3499.763	301
3502.646	296
3505.527	283
3508.405	278
3511.281	256
3514.155	239
3517.027	237
3519.897	221
3522.764	223
3525.629	197
3528.492	188
3531.352	179
3534.211	166
3537.067	163
3539.921	149
3542.773	140
3545.622	131
3548.469	122
3551.315	117
3554.157	117
3556.998	96
3559.837	90
3562.673	84
3565.507	83
3568.339	72
3571.169	64
3573.996	60
3576.822	57
3579.645	45
3582.466	41
3585.285	37
3588.101	38
3590.916	36
3593.728	27
3596.538	23
3599.346	18
3602.152	10
3604.956	4
3607.757	0
3610.556	-6
3613.354	-14
3616.149	-7
3618.942	-15
3621.732	-19
3624.521	-17
3627.307	-18
3630.092	-22
3632.874	-23
3635.654	-27
3638.432	-28
3641.208	-33
3643.982	-35
3646.753	-41
3649.523	-41
3652.29	-52
3655.055	-50
3657.818	-46
3660.579	-48
3663.338	-57
3666.095	-59
3668.849	-56
3671.602	-61
3674.352	-66
3677.101	-68
3679.847	-68
3682.591	-70
3685.333	-70
3688.073	-79
3690.811	-74
3693.547	-70
3696.281	-78
3699.013	-77
3701.742	-81
3704.47	-85
3707.195	-84
3709.919	-85
3712.64	-80
3715.359	-85
3718.076	-90
3720.792	-87
3723.505	-84
3726.216	-92
3728.925	-90
3731.632	-94
3734.336	-92
3737.039	-95
3739.74	-95
3742.439	-93
3745.136	-93
3747.83	-90
3750.523	-92
3753.213	-92
3755.902	-93
3758.589	-90
3761.273	-99
3763.956	-95
3766.636	-99
3769.315	-102
3771.991	-105
3774.665	-105
3777.338	-101
3780.008	-101
3782.677	-96
3785.343	-95
3788.007	-103
3790.67	-97
3793.33	-101
3795.989	-101
3798.645	-99
3801.299	-101
3803.952	-103
3806.602	-103
3809.251	-106
3811.897	-106
3814.542	-105
3817.184	-101
3819.825	-101
3822.463	-109
3825.1	-102
3827.735	-105
3830.367	-108
3832.998	-107
3835.627	-104
3838.253	-107
3840.878	-102
3843.501	-104
3846.122	-105
3848.741	-111
3851.358	-109
3853.973	-107
3856.586	-105
3859.197	-106
3861.806	-106
3864.414	-107
3867.019	-102
3869.622	-102
3872.224	-101
3874.823	-104
3877.421	-101
3880.016	-99
3882.61	-99
3885.202	-95
3887.792	-103
3890.38	-105
3892.966	-106
3895.55	-111
3898.132	-109
3900.713	-108
3903.291	-105
3905.868	-107
3908.442	-105
3911.015	-111
3913.586	-109
3916.155	-112
3918.722	-113
3921.287	-112
3923.85	-112
3926.411	-115
3928.971	-109
3931.528	-111
3934.084	-111
3936.638	-111
3939.19	-110
3941.74	-111
3944.288	-111
3946.834	-113
3949.378	-112
3951.921	-115
3954.462	-115
3957	-112
3959.537	-112
3962.072	-107
3964.606	-109
3967.137	-111
3969.667	-112
3972.194	-111
3974.72	-110
3977.244	-111
3979.766	-110
3982.286	-109
3984.805	-108
3987.321	-105
3989.836	-106
3992.349	-110
3994.86	-109
3997.369	-108
3999.877	-110
4002.382	-107
4004.886	-107
4007.388	-108
4009.888	-109
4012.386	-109
4014.883	-107
4017.377	-103
4019.87	-105
4022.361	-106
4024.85	-108
4027.338	-111
4029.823	-113
4032.307	-113
4034.789	-113
4037.269	-111
4039.747	-111
4042.224	-111
4044.699	-108
4047.172	-109
4049.643	-108
4052.112	-107
4054.58	-107
4057.046	-110
4059.51	-112
4061.972	-112
4064.432	-113
4066.891	-116
4069.348	-108
4071.803	-111
4074.256	-110
4076.708	-108
4079.158	-110
4081.606	-109
4084.052	-109
4086.497	-108
4088.939	-111
4091.38	-109
4093.819	-112
4096.257	-111
4098.693	-111
4101.127	-116
4103.559	-116
4105.989	-76
4108.418	-73
4110.845	-66
4113.27	-62
4115.694	-57
4118.115	-46
4120.535	-112
4122.954	-110
4125.37	-112
4127.785	-115
4130.198	-112
4132.609	-110
4135.019	-114
4137.427	-112
4139.833	-117
4142.237	-114
