Data from 0CFU1_RamanShift_1.txt Node
Date: Wed Feb 01 16:29:36 IST 2017
User: aro
Spectrometer: QEPB0276
Trigger mode: 0
Integration Time (sec): 5.000000E0
Scans to average: 1
Electric dark correction enabled: true
Nonlinearity correction enabled: false
Boxcar width: 0
XAxis mode: Raman Shifts
Number of Pixels in Spectrum: 1044
>>>>>Begin Spectral Data<<<<<
160.701	-2.5
166.742	1.5
172.777	20.5
178.805	74.5
184.826	188.5
190.841	380.5
196.849	597.5
202.85	733.5
208.845	776.5
214.833	758.5
220.815	734.5
226.789	730.5
232.758	725.5
238.719	711.5
244.674	700.5
250.623	686.5
256.565	679.5
262.5	652.5
268.429	628.5
274.351	629.5
280.267	622.5
286.176	606.5
292.079	602.5
297.975	590.5
303.865	590.5
309.748	576.5
315.625	571.5
321.495	587.5
327.359	587.5
333.217	583.5
339.068	582.5
344.912	587.5
350.751	598.5
356.583	608.5
362.408	605.5
368.227	593.5
374.04	594.5
379.847	587.5
385.647	595.5
391.44	572.5
397.228	591.5
403.009	599.5
408.784	589.5
414.553	600.5
420.315	600.5
426.071	608.5
431.821	609.5
437.565	617.5
443.302	619.5
449.033	604.5
454.758	604.5
460.477	595.5
466.189	586.5
471.896	583.5
477.596	579.5
483.29	574.5
488.978	566.5
494.66	555.5
500.335	540.5
506.005	514.5
511.668	492.5
517.325	484.5
522.977	467.5
528.622	450.5
534.261	439.5
539.894	434.5
545.521	429.5
551.141	414.5
556.756	414.5
562.365	412.5
567.968	400.5
573.565	395.5
579.155	402.5
584.74	402.5
590.319	408.5
595.892	398.5
601.459	394.5
607.02	390.5
612.575	394.5
618.124	387.5
623.667	379.5
629.204	379.5
634.735	371.5
640.261	366.5
645.781	366.5
651.294	359.5
656.802	358.5
662.304	359.5
667.8	349.5
673.29	345.5
678.775	346.5
684.254	344.5
689.726	340.5
695.193	340.5
700.655	350.5
706.11	338.5
711.56	337.5
717.004	338.5
722.442	330.5
727.874	336.5
733.301	329.5
738.722	333.5
744.137	326.5
749.547	322.5
754.951	330.5
760.349	325.5
765.741	315.5
771.128	338.5
776.509	335.5
781.885	325.5
787.254	330.5
792.618	339.5
797.977	331.5
803.33	341.5
808.677	328.5
814.019	334.5
819.355	322.5
824.686	332.5
830.011	333.5
835.33	327.5
840.644	345.5
845.952	345.5
851.255	341.5
856.552	343.5
861.844	355.5
867.13	350.5
872.41	352.5
877.686	354.5
882.955	362.5
888.219	348.5
893.478	340.5
898.731	333.5
903.979	329.5
909.221	319.5
914.458	315.5
919.69	307.5
924.916	305.5
930.136	297.5
935.351	298.5
940.561	302.5
945.766	305.5
950.965	305.5
956.158	308.5
961.347	296.5
966.529	287.5
971.707	283.5
976.879	281.5
982.046	281.5
987.208	272.5
992.364	268.5
997.515	278.5
1002.66	281.5
1007.801	292.5
1012.936	301.5
1018.066	305.5
1023.19	303.5
1028.309	300.5
1033.423	309.5
1038.532	314.5
1043.636	312.5
1048.734	321.5
1053.827	313.5
1058.915	315.5
1063.998	328.5
1069.075	339.5
1074.147	347.5
1079.214	342.5
1084.276	347.5
1089.333	347.5
1094.385	338.5
1099.431	337.5
1104.472	327.5
1109.509	312.5
1114.54	310.5
1119.565	313.5
1124.586	315.5
1129.602	316.5
1134.613	306.5
1139.618	299.5
1144.619	272.5
1149.614	256.5
1154.604	265.5
1159.589	266.5
1164.57	254.5
1169.545	255.5
1174.515	251.5
1179.48	247.5
1184.44	233.5
1189.395	234.5
1194.345	227.5
1199.29	228.5
1204.23	232.5
1209.165	238.5
1214.095	235.5
1219.021	233.5
1223.941	243.5
1228.856	244.5
1233.766	249.5
1238.672	257.5
1243.572	257.5
1248.467	263.5
1253.358	265.5
1258.244	269.5
1263.124	270.5
1268	273.5
1272.871	270.5
1277.737	264.5
1282.599	250.5
1287.455	251.5
1292.306	267.5
1297.153	279.5
1301.995	296.5
1306.832	286.5
1311.664	295.5
1316.491	278.5
1321.314	269.5
1326.132	265.5
1330.945	248.5
1335.753	242.5
1340.556	235.5
1345.354	235.5
1350.148	228.5
1354.937	219.5
1359.722	215.5
1364.501	220.5
1369.276	213.5
1374.046	218.5
1378.811	218.5
1383.572	221.5
1388.327	208.5
1393.079	206.5
1397.825	203.5
1402.567	199.5
1407.304	194.5
1412.036	199.5
1416.764	203.5
1421.487	207.5
1426.205	212.5
1430.919	224.5
1435.628	248.5
1440.333	270.5
1445.032	291.5
1449.727	310.5
1454.418	304.5
1459.104	288.5
1463.785	274.5
1468.462	268.5
1473.134	235.5
1477.802	215.5
1482.465	191.5
1487.123	167.5
1491.777	170.5
1496.426	159.5
1501.071	158.5
1505.711	156.5
1510.347	152.5
1514.978	159.5
1519.604	153.5
1524.226	151.5
1528.844	151.5
1533.457	149.5
1538.065	146.5
1542.669	152.5
1547.269	147.5
1551.864	154.5
1556.454	148.5
1561.041	153.5
1565.622	149.5
1570.199	142.5
1574.772	147.5
1579.34	148.5
1583.904	148.5
1588.464	155.5
1593.019	151.5
1597.569	159.5
1602.115	151.5
1606.657	159.5
1611.195	157.5
1615.728	159.5
1620.256	165.5
1624.78	169.5
1629.3	164.5
1633.816	169.5
1638.327	167.5
1642.834	169.5
1647.336	179.5
1651.834	183.5
1656.328	192.5
1660.817	188.5
1665.302	185.5
1669.783	182.5
1674.259	177.5
1678.732	169.5
1683.199	152.5
1687.663	151.5
1692.122	147.5
1696.577	135.5
1701.028	126.5
1705.474	121.5
1709.917	118.5
1714.355	120.5
1718.788	109.5
1723.218	115.5
1727.643	106.5
1732.064	102.5
1736.481	109.5
1740.893	103.5
1745.301	109.5
1749.705	108.5
1754.105	96.5
1758.501	91.5
1762.893	88.5
1767.28	82.5
1771.663	78.5
1776.042	79.5
1780.417	81.5
1784.787	72.5
1789.154	71.5
1793.516	72.5
1797.874	76.5
1802.228	81.5
1806.578	77.5
1810.924	80.5
1815.266	69.5
1819.603	69.5
1823.937	68.5
1828.266	72.5
1832.591	68.5
1836.913	70.5
1841.23	71.5
1845.543	66.5
1849.852	61.5
1854.156	63.5
1858.457	64.5
1862.754	69.5
1867.047	72.5
1871.335	66.5
1875.62	68.5
1879.9	64.5
1884.177	62.5
1888.449	64.5
1892.718	69.5
1896.982	66.5
1901.243	62.5
1905.499	66.5
1909.752	57.5
1914	59.5
1918.245	64.5
1922.485	63.5
1926.722	60.5
1930.954	59.5
1935.183	64.5
1939.408	59.5
1943.628	65.5
1947.845	64.5
1952.058	63.5
1956.267	62.5
1960.472	64.5
1964.673	57.5
1968.87	59.5
1973.063	62.5
1977.252	60.5
1981.438	54.5
1985.619	56.5
1989.797	52.5
1993.971	50.5
1998.14	57.5
2002.306	58.5
2006.469	60.5
2010.627	57.5
2014.781	52.5
2018.932	53.5
2023.078	51.5
2027.221	54.5
2031.36	55.5
2035.495	55.5
2039.627	51.5
2043.754	46.5
2047.878	46.5
2051.998	51.5
2056.114	51.5
2060.226	50.5
2064.334	50.5
2068.439	47.5
2072.54	49.5
2076.637	50.5
2080.73	51.5
2084.82	61.5
2088.906	55.5
2092.988	51.5
2097.066	48.5
2101.14	47.5
2105.211	46.5
2109.278	50.5
2113.342	48.5
2117.401	45.5
2121.457	48.5
2125.509	46.5
2129.558	50.5
2133.602	48.5
2137.643	47.5
2141.681	44.5
2145.714	48.5
2149.744	44.5
2153.77	43.5
2157.793	45.5
2161.812	46.5
2165.827	45.5
2169.838	46.5
2173.846	42.5
2177.851	34.5
2181.851	34.5
2185.848	44.5
2189.841	44.5
2193.831	41.5
2197.817	41.5
2201.799	34.5
2205.778	31.5
2209.753	35.5
2213.725	37.5
2217.693	41.5
2221.657	34.5
2225.618	32.5
2229.575	30.5
2233.529	31.5
2237.479	33.5
2241.425	37.5
2245.368	37.5
2249.307	33.5
2253.243	28.5
2257.175	28.5
2261.104	26.5
2265.029	31.5
2268.95	28.5
2272.868	27.5
2276.783	24.5
2280.694	24.5
2284.601	24.5
2288.505	27.5
2292.405	26.5
2296.302	19.5
2300.195	25.5
2304.085	22.5
2307.971	25.5
2311.854	22.5
2315.734	26.5
2319.609	19.5
2323.482	21.5
2327.351	20.5
2331.216	22.5
2335.078	23.5
2338.937	21.5
2342.792	21.5
2346.643	16.5
2350.492	15.5
2354.336	13.5
2358.178	14.5
2362.015	15.5
2365.85	14.5
2369.681	17.5
2373.508	16.5
2377.333	14.5
2381.153	14.5
2384.971	20.5
2388.785	16.5
2392.595	18.5
2396.402	18.5
2400.206	12.5
2404.007	10.5
2407.804	10.5
2411.597	12.5
2415.388	11.5
2419.174	14.5
2422.958	12.5
2426.738	12.5
2430.515	9.5
2434.289	11.5
2438.059	17.5
2441.825	13.5
2445.589	10.5
2449.349	7.5
2453.106	6.5
2456.859	8.5
2460.61	10.5
2464.356	10.5
2468.1	8.5
2471.84	9.5
2475.577	4.5
2479.311	8.5
2483.041	11.5
2486.768	13.5
2490.492	10.5
2494.213	6.5
2497.93	6.5
2501.644	2.5
2505.355	13.5
2509.062	9.5
2512.766	7.5
2516.467	10.5
2520.165	8.5
2523.859	0.5
2527.551	10.5
2531.239	9.5
2534.923	6.5
2538.605	6.5
2542.283	5.5
2545.958	2.5
2549.63	7.5
2553.299	10.5
2556.964	7.5
2560.626	9.5
2564.285	3.5
2567.941	3.5
2571.594	2.5
2575.243	9.5
2578.89	5.5
2582.533	6.5
2586.173	2.5
2589.809	8.5
2593.443	7.5
2597.073	5.5
2600.701	9.5
2604.325	10.5
2607.946	6.5
2611.564	4.5
2615.178	8.5
2618.79	11.5
2622.398	5.5
2626.004	6.5
2629.606	7.5
2633.205	4.5
2636.801	1.5
2640.394	2.5
2643.983	2.5
2647.57	7.5
2651.153	1.5
2654.734	5.5
2658.311	2.5
2661.885	7.5
2665.456	8.5
2669.025	7.5
2672.589	6.5
2676.151	8.5
2679.71	3.5
2683.266	4.5
2686.819	6.5
2690.368	4.5
2693.915	6.5
2697.458	5.5
2700.999	5.5
2704.536	5.5
2708.071	6.5
2711.602	5.5
2715.13	10.5
2718.656	10.5
2722.178	9.5
2725.697	5.5
2729.214	9.5
2732.727	5.5
2736.237	13.5
2739.744	12.5
2743.249	11.5
2746.75	8.5
2750.248	9.5
2753.743	4.5
2757.236	8.5
2760.725	7.5
2764.211	6.5
2767.695	6.5
2771.175	2.5
2774.652	4.5
2778.127	11.5
2781.598	6.5
2785.067	5.5
2788.532	7.5
2791.995	8.5
2795.455	8.5
2798.911	10.5
2802.365	15.5
2805.816	12.5
2809.264	15.5
2812.709	13.5
2816.151	18.5
2819.59	21.5
2823.026	19.5
2826.46	16.5
2829.89	23.5
2833.318	24.5
2836.742	33.5
2840.164	41.5
2843.583	48.5
2846.999	60.5
2850.412	77.5
2853.822	81.5
2857.229	85.5
2860.634	90.5
2864.035	92.5
2867.434	94.5
2870.83	98.5
2874.223	100.5
2877.613	101.5
2881	105.5
2884.385	112.5
2887.766	117.5
2891.145	112.5
2894.521	119.5
2897.894	113.5
2901.264	110.5
2904.631	111.5
2907.996	114.5
2911.358	117.5
2914.717	112.5
2918.073	106.5
2921.426	103.5
2924.777	105.5
2928.124	106.5
2931.469	107.5
2934.811	101.5
2938.15	101.5
2941.487	100.5
2944.821	96.5
2948.152	84.5
2951.48	82.5
2954.805	74.5
2958.128	71.5
2961.447	68.5
2964.765	61.5
2968.079	64.5
2971.39	59.5
2974.699	57.5
2978.005	54.5
2981.308	48.5
2984.609	49.5
2987.907	48.5
2991.202	44.5
2994.494	45.5
2997.784	41.5
3001.07	41.5
3004.355	36.5
3007.636	38.5
3010.915	44.5
3014.191	33.5
3017.464	35.5
3020.734	34.5
3024.002	31.5
3027.267	31.5
3030.53	31.5
3033.789	37.5
3037.046	28.5
3040.301	33.5
3043.552	31.5
3046.801	35.5
3050.048	31.5
3053.291	34.5
3056.532	37.5
3059.771	34.5
3063.006	39.5
3066.239	39.5
3069.469	36.5
3072.697	40.5
3075.922	43.5
3079.144	43.5
3082.364	44.5
3085.581	45.5
3088.795	43.5
3092.007	50.5
3095.216	49.5
3098.423	54.5
3101.627	57.5
3104.828	54.5
3108.026	50.5
3111.222	54.5
3114.416	59.5
3117.607	59.5
3120.795	63.5
3123.98	60.5
3127.163	65.5
3130.344	59.5
3133.521	63.5
3136.696	73.5
3139.869	70.5
3143.039	72.5
3146.206	71.5
3149.371	69.5
3152.533	69.5
3155.693	74.5
3158.85	79.5
3162.005	80.5
3165.157	76.5
3168.306	72.5
3171.453	71.5
3174.597	74.5
3177.739	72.5
3180.878	79.5
3184.014	80.5
3187.149	81.5
3190.28	77.5
3193.409	73.5
3196.536	78.5
3199.659	76.5
3202.781	80.5
3205.9	82.5
3209.016	81.5
3212.13	78.5
3215.241	73.5
3218.35	74.5
3221.456	84.5
3224.56	79.5
3227.661	79.5
3230.76	78.5
3233.856	74.5
3236.95	69.5
3240.041	75.5
3243.13	70.5
3246.216	73.5
3249.3	68.5
3252.382	66.5
3255.46	65.5
3258.537	71.5
3261.611	69.5
3264.682	67.5
3267.751	69.5
3270.818	70.5
3273.882	64.5
3276.943	68.5
3280.002	66.5
3283.059	69.5
3286.113	71.5
3289.165	63.5
3292.214	58.5
3295.261	60.5
3298.306	63.5
3301.348	61.5
3304.387	62.5
3307.425	59.5
3310.459	59.5
3313.492	60.5
3316.521	59.5
3319.549	54.5
3322.574	57.5
3325.597	54.5
3328.617	52.5
3331.635	49.5
3334.65	55.5
3337.663	52.5
3340.674	53.5
3343.682	49.5
3346.688	53.5
3349.691	53.5
3352.692	49.5
3355.691	49.5
3358.687	48.5
3361.681	53.5
3364.673	46.5
3367.662	41.5
3370.649	46.5
3373.633	45.5
3376.615	44.5
3379.595	39.5
3382.572	48.5
3385.547	45.5
3388.52	41.5
3391.49	42.5
3394.458	41.5
3397.424	42.5
3400.387	40.5
3403.348	38.5
3406.307	35.5
3409.263	36.5
3412.217	37.5
3415.168	36.5
3418.118	34.5
3421.065	40.5
3424.009	32.5
3426.951	33.5
3429.891	31.5
3432.829	30.5
3435.764	35.5
3438.697	34.5
3441.628	33.5
3444.557	27.5
3447.483	25.5
3450.407	21.5
3453.328	25.5
3456.247	23.5
3459.164	30.5
3462.079	19.5
3464.991	13.5
3467.902	16.5
3470.809	18.5
3473.715	21.5
3476.618	13.5
3479.519	17.5
3482.418	15.5
3485.315	11.5
3488.209	9.5
3491.101	16.5
3493.99	10.5
3496.878	14.5
3499.763	8.5
3502.646	5.5
3505.527	3.5
3508.405	5.5
3511.281	7.5
3514.155	9.5
3517.027	7.5
3519.897	7.5
3522.764	0.5
3525.629	4.5
3528.492	-1.5
3531.352	2.5
3534.211	-2.5
3537.067	0.5
3539.921	-4.5
3542.773	-6.5
3545.622	-2.5
3548.469	-3.5
3551.315	-4.5
3554.157	-5.5
3556.998	-0.5
3559.837	-3.5
3562.673	-4.5
3565.507	-10.5
3568.339	-10.5
3571.169	-8.5
3573.996	-7.5
3576.822	-10.5
3579.645	-13.5
3582.466	-9.5
3585.285	-13.5
3588.101	-13.5
3590.916	-12.5
3593.728	-13.5
3596.538	-15.5
3599.346	-12.5
3602.152	-13.5
3604.956	-15.5
3607.757	-15.5
3610.556	-18.5
3613.354	-16.5
3616.149	-17.5
3618.942	-14.5
3621.732	-15.5
3624.521	-13.5
3627.307	-15.5
3630.092	-13.5
3632.874	-18.5
3635.654	-17.5
3638.432	-19.5
3641.208	-17.5
3643.982	-17.5
3646.753	-22.5
3649.523	-19.5
3652.29	-20.5
3655.055	-18.5
3657.818	-16.5
3660.579	-19.5
3663.338	-20.5
3666.095	-18.5
3668.849	-19.5
3671.602	-17.5
3674.352	-21.5
3677.101	-20.5
3679.847	-19.5
3682.591	-19.5
3685.333	-19.5
3688.073	-19.5
3690.811	-23.5
3693.547	-24.5
3696.281	-19.5
3699.013	-20.5
3701.742	-19.5
3704.47	-20.5
3707.195	-21.5
3709.919	-24.5
3712.64	-22.5
3715.359	-19.5
3718.076	-23.5
3720.792	-21.5
3723.505	-21.5
3726.216	-22.5
3728.925	-22.5
3731.632	-22.5
3734.336	-20.5
3737.039	-23.5
3739.74	-23.5
3742.439	-21.5
3745.136	-20.5
3747.83	-21.5
3750.523	-24.5
3753.213	-22.5
3755.902	-23.5
3758.589	-22.5
3761.273	-23.5
3763.956	-23.5
3766.636	-25.5
3769.315	-24.5
3771.991	-24.5
3774.665	-22.5
3777.338	-22.5
3780.008	-20.5
3782.677	-22.5
3785.343	-24.5
3788.007	-21.5
3790.67	-20.5
3793.33	-21.5
3795.989	-22.5
3798.645	-22.5
3801.299	-22.5
3803.952	-25.5
3806.602	-23.5
3809.251	-23.5
3811.897	-20.5
3814.542	-24.5
3817.184	-26.5
3819.825	-23.5
3822.463	-23.5
3825.1	-21.5
3827.735	-23.5
3830.367	-24.5
3832.998	-25.5
3835.627	-23.5
3838.253	-20.5
3840.878	-19.5
3843.501	-21.5
3846.122	-23.5
3848.741	-28.5
3851.358	-25.5
3853.973	-25.5
3856.586	-22.5
3859.197	-22.5
3861.806	-22.5
3864.414	-26.5
3867.019	-26.5
3869.622	-27.5
3872.224	-22.5
3874.823	-20.5
3877.421	-21.5
3880.016	-19.5
3882.61	-16.5
3885.202	-19.5
3887.792	-20.5
3890.38	-16.5
3892.966	-20.5
3895.55	-23.5
3898.132	-23.5
3900.713	-23.5
3903.291	-24.5
3905.868	-24.5
3908.442	-23.5
3911.015	-20.5
3913.586	-25.5
3916.155	-26.5
3918.722	-28.5
3921.287	-24.5
3923.85	-22.5
3926.411	-21.5
3928.971	-23.5
3931.528	-24.5
3934.084	-29.5
3936.638	-21.5
3939.19	-20.5
3941.74	-21.5
3944.288	-23.5
3946.834	-25.5
3949.378	-27.5
3951.921	-23.5
3954.462	-21.5
3957	-20.5
3959.537	-21.5
3962.072	-24.5
3964.606	-25.5
3967.137	-24.5
3969.667	-23.5
3972.194	-19.5
3974.72	-25.5
3977.244	-27.5
3979.766	-26.5
3982.286	-24.5
3984.805	-24.5
3987.321	-23.5
3989.836	-24.5
3992.349	-24.5
3994.86	-22.5
3997.369	-25.5
3999.877	-21.5
4002.382	-23.5
4004.886	-21.5
4007.388	-25.5
4009.888	-25.5
4012.386	-26.5
4014.883	-22.5
4017.377	-23.5
4019.87	-19.5
4022.361	-22.5
4024.85	-20.5
4027.338	-25.5
4029.823	-24.5
4032.307	-21.5
4034.789	-20.5
4037.269	-22.5
4039.747	-27.5
4042.224	-28.5
4044.699	-26.5
4047.172	-22.5
4049.643	-17.5
4052.112	-16.5
4054.58	-24.5
4057.046	-24.5
4059.51	-24.5
4061.972	-24.5
4064.432	-20.5
4066.891	-22.5
4069.348	-29.5
4071.803	-22.5
4074.256	-24.5
4076.708	-23.5
4079.158	-21.5
4081.606	-21.5
4084.052	-22.5
4086.497	-25.5
4088.939	-32.5
4091.38	-27.5
4093.819	-23.5
4096.257	-23.5
4098.693	-22.5
4101.127	-21.5
4103.559	-24.5
4105.989	-10.5
4108.418	-9.5
4110.845	-9.5
4113.27	-10.5
4115.694	-9.5
4118.115	-8.5
4120.535	-19.5
4122.954	-22.5
4125.37	-25.5
4127.785	-25.5
4130.198	-24.5
4132.609	-22.5
4135.019	-22.5
4137.427	-22.5
4139.833	-24.5
4142.237	-24.5
