Data from oiljah_RamanShift_1.txt Node
Date: Tue Oct 17 15:02:54 IDT 2017
User: aro
Spectrometer: QEPB0276
Trigger mode: 0
Integration Time (sec): 1.000000E1
Scans to average: 1
Electric dark correction enabled: true
Nonlinearity correction enabled: false
Boxcar width: 0
XAxis mode: Raman Shifts
Number of Pixels in Spectrum: 1044
>>>>>Begin Spectral Data<<<<<
160.701	-16
166.742	37
172.777	161
178.805	569
184.826	1581
190.841	3492
196.849	6063
202.85	8235
208.845	9264
214.833	9590
220.815	9854
226.789	10019
232.758	10267
238.719	10351
244.674	10299
250.623	10241
256.565	10169
262.5	10073
268.429	10068
274.351	10129
280.267	10104
286.176	10114
292.079	10099
297.975	10118
303.865	10072
309.748	10048
315.625	9992
321.495	9979
327.359	9945
333.217	9880
339.068	9832
344.912	9782
350.751	9692
356.583	9600
362.408	9528
368.227	9462
374.04	9449
379.847	9408
385.647	9425
391.44	9372
397.228	9329
403.009	9275
408.784	9284
414.553	9306
420.315	9377
426.071	9258
431.821	9066
437.565	8876
443.302	8766
449.033	8643
454.758	8584
460.477	8499
466.189	8401
471.896	8314
477.596	8252
483.29	8199
488.978	8137
494.66	8115
500.335	7949
506.005	7876
511.668	7805
517.325	7666
522.977	7549
528.622	7506
534.261	7415
539.894	7363
545.521	7282
551.141	7242
556.756	7170
562.365	7104
567.968	7050
573.565	6972
579.155	6911
584.74	6856
590.319	6801
595.892	6757
601.459	6710
607.02	6667
612.575	6645
618.124	6675
623.667	6743
629.204	6730
634.735	6536
640.261	6341
645.781	6261
651.294	6224
656.802	6118
662.304	6045
667.8	5986
673.29	5912
678.775	5853
684.254	5838
689.726	5786
695.193	5774
700.655	5747
706.11	5735
711.56	5658
717.004	5647
722.442	5593
727.874	5591
733.301	5615
738.722	5590
744.137	5607
749.547	5622
754.951	5668
760.349	5680
765.741	5646
771.128	5665
776.509	5626
781.885	5575
787.254	5617
792.618	5696
797.977	5743
803.33	5735
808.677	5608
814.019	5545
819.355	5448
824.686	5366
830.011	5395
835.33	5395
840.644	5474
845.952	5577
851.255	5619
856.552	5599
861.844	5609
867.13	5590
872.41	5612
877.686	5579
882.955	5492
888.219	5440
893.478	5343
898.731	5269
903.979	5144
909.221	5128
914.458	5075
919.69	5014
924.916	4980
930.136	4973
935.351	4943
940.561	4906
945.766	4903
950.965	4881
956.158	4838
961.347	4769
966.529	4771
971.707	4737
976.879	4713
982.046	4727
987.208	4730
992.364	4984
997.515	5641
1002.66	6963
1007.801	7872
1012.936	7130
1018.066	5700
1023.19	5154
1028.309	5253
1033.423	5570
1038.532	5711
1043.636	5429
1048.734	5034
1053.827	4741
1058.915	4667
1063.998	4679
1069.075	4762
1074.147	4819
1079.214	4883
1084.276	4943
1089.333	4969
1094.385	4891
1099.431	4753
1104.472	4530
1109.509	4361
1114.54	4228
1119.565	4112
1124.586	4037
1129.602	3906
1134.613	3806
1139.618	3724
1144.619	3713
1149.614	3785
1154.604	3867
1159.589	4020
1164.57	4017
1169.545	3915
1174.515	3836
1179.48	3925
1184.44	4014
1189.395	4134
1194.345	4124
1199.29	4071
1204.23	4074
1209.165	3987
1214.095	3853
1219.021	3774
1223.941	3681
1228.856	3630
1233.766	3634
1238.672	3625
1243.572	3633
1248.467	3686
1253.358	3684
1258.244	3727
1263.124	3780
1268	3804
1272.871	3769
1277.737	3776
1282.599	3687
1287.455	3676
1292.306	3717
1297.153	3851
1301.995	4117
1306.832	4319
1311.664	4310
1316.491	4145
1321.314	3919
1326.132	3741
1330.945	3554
1335.753	3373
1340.556	3230
1345.354	3135
1350.148	3029
1354.937	2966
1359.722	2879
1364.501	2823
1369.276	2740
1374.046	2695
1378.811	2597
1383.572	2518
1388.327	2414
1393.079	2378
1397.825	2349
1402.567	2344
1407.304	2350
1412.036	2385
1416.764	2386
1421.487	2471
1426.205	2607
1430.919	2816
1435.628	3277
1440.333	3840
1445.032	4264
1449.727	4365
1454.418	4252
1459.104	4003
1463.785	3669
1468.462	3304
1473.134	2984
1477.802	2721
1482.465	2492
1487.123	2382
1491.777	2307
1496.426	2266
1501.071	2240
1505.711	2198
1510.347	2193
1514.978	2158
1519.604	2142
1524.226	2109
1528.844	2074
1533.457	2015
1538.065	1948
1542.669	1892
1547.269	1844
1551.864	1796
1556.454	1776
1561.041	1764
1565.622	1746
1570.199	1735
1574.772	1750
1579.34	1815
1583.904	1914
1588.464	2006
1593.019	1981
1597.569	1978
1602.115	2128
1606.657	2275
1611.195	2177
1615.728	1894
1620.256	1699
1624.78	1628
1629.3	1609
1633.816	1620
1638.327	1620
1642.834	1694
1647.336	1869
1651.834	2124
1656.328	2437
1660.817	2629
1665.302	2474
1669.783	2149
1674.259	1858
1678.732	1731
1683.199	1650
1687.663	1609
1692.122	1574
1696.577	1537
1701.028	1489
1705.474	1463
1709.917	1432
1714.355	1410
1718.788	1387
1723.218	1391
1727.643	1392
1732.064	1406
1736.481	1403
1740.893	1409
1745.301	1447
1749.705	1456
1754.105	1429
1758.501	1395
1762.893	1306
1767.28	1253
1771.663	1199
1776.042	1176
1780.417	1181
1784.787	1198
1789.154	1200
1793.516	1211
1797.874	1173
1802.228	1178
1806.578	1128
1810.924	1108
1815.266	1072
1819.603	1041
1823.937	1014
1828.266	994
1832.591	983
1836.913	981
1841.23	970
1845.543	979
1849.852	968
1854.156	972
1858.457	987
1862.754	991
1867.047	997
1871.335	1007
1875.62	1000
1879.9	1001
1884.177	1006
1888.449	1012
1892.718	1010
1896.982	1009
1901.243	1005
1905.499	1013
1909.752	1018
1914	1011
1918.245	1031
1922.485	1065
1926.722	1065
1930.954	1078
1935.183	1072
1939.408	1061
1943.628	1058
1947.845	1030
1952.058	1001
1956.267	966
1960.472	949
1964.673	911
1968.87	881
1973.063	855
1977.252	827
1981.438	800
1985.619	780
1989.797	778
1993.971	771
1998.14	762
2002.306	754
2006.469	751
2010.627	751
2014.781	740
2018.932	742
2023.078	726
2027.221	715
2031.36	704
2035.495	720
2039.627	710
2043.754	693
2047.878	692
2051.998	702
2056.114	707
2060.226	704
2064.334	700
2068.439	716
2072.54	726
2076.637	730
2080.73	739
2084.82	743
2088.906	742
2092.988	736
2097.066	726
2101.14	712
2105.211	715
2109.278	686
2113.342	682
2117.401	674
2121.457	661
2125.509	652
2129.558	650
2133.602	633
2137.643	623
2141.681	606
2145.714	608
2149.744	609
2153.77	594
2157.793	586
2161.812	567
2165.827	572
2169.838	563
2173.846	556
2177.851	537
2181.851	544
2185.848	532
2189.841	530
2193.831	517
2197.817	512
2201.799	508
2205.778	508
2209.753	510
2213.725	503
2217.693	509
2221.657	489
2225.618	499
2229.575	490
2233.529	494
2237.479	493
2241.425	477
2245.368	469
2249.307	459
2253.243	452
2257.175	443
2261.104	437
2265.029	434
2268.95	426
2272.868	419
2276.783	407
2280.694	404
2284.601	397
2288.505	384
2292.405	382
2296.302	381
2300.195	368
2304.085	360
2307.971	354
2311.854	346
2315.734	341
2319.609	346
2323.482	322
2327.351	330
2331.216	338
2335.078	358
2338.937	324
2342.792	309
2346.643	307
2350.492	301
2354.336	296
2358.178	304
2362.015	294
2365.85	307
2369.681	313
2373.508	313
2377.333	291
2381.153	303
2384.971	296
2388.785	291
2392.595	301
2396.402	297
2400.206	296
2404.007	285
2407.804	282
2411.597	298
2415.388	300
2419.174	288
2422.958	281
2426.738	294
2430.515	282
2434.289	287
2438.059	289
2441.825	278
2445.589	282
2449.349	263
2453.106	274
2456.859	271
2460.61	269
2464.356	263
2468.1	254
2471.84	255
2475.577	254
2479.311	257
2483.041	261
2486.768	254
2490.492	244
2494.213	250
2497.93	251
2501.644	250
2505.355	260
2509.062	269
2512.766	261
2516.467	262
2520.165	260
2523.859	262
2527.551	262
2531.239	268
2534.923	265
2538.605	268
2542.283	264
2545.958	263
2549.63	256
2553.299	273
2556.964	275
2560.626	265
2564.285	272
2567.941	265
2571.594	268
2575.243	265
2578.89	266
2582.533	273
2586.173	269
2589.809	257
2593.443	264
2597.073	258
2600.701	256
2604.325	258
2607.946	254
2611.564	242
2615.178	241
2618.79	239
2622.398	240
2626.004	238
2629.606	230
2633.205	232
2636.801	226
2640.394	224
2643.983	212
2647.57	215
2651.153	209
2654.734	209
2658.311	212
2661.885	201
2665.456	211
2669.025	208
2672.589	218
2676.151	203
2679.71	203
2683.266	212
2686.819	207
2690.368	214
2693.915	214
2697.458	209
2700.999	202
2704.536	211
2708.071	212
2711.602	219
2715.13	231
2718.656	230
2722.178	245
2725.697	236
2729.214	254
2732.727	256
2736.237	242
2739.744	251
2743.249	235
2746.75	221
2750.248	209
2753.743	208
2757.236	191
2760.725	179
2764.211	181
2767.695	171
2771.175	166
2774.652	170
2778.127	169
2781.598	170
2785.067	189
2788.532	178
2791.995	193
2795.455	202
2798.911	227
2802.365	244
2805.816	259
2809.264	279
2812.709	291
2816.151	335
2819.59	351
2823.026	393
2826.46	436
2829.89	497
2833.318	573
2836.742	671
2840.164	791
2843.583	972
2846.999	1215
2850.412	1493
2853.822	1801
2857.229	1974
2860.634	1979
2864.035	1927
2867.434	1859
2870.83	1813
2874.223	1774
2877.613	1775
2881	1780
2884.385	1765
2887.766	1779
2891.145	1815
2894.521	1822
2897.894	1860
2901.264	1826
2904.631	1816
2907.996	1801
2911.358	1757
2914.717	1715
2918.073	1667
2921.426	1611
2924.777	1581
2928.124	1543
2931.469	1469
2934.811	1455
2938.15	1393
2941.487	1293
2944.821	1173
2948.152	1071
2951.48	946
2954.805	844
2958.128	788
2961.447	713
2964.765	657
2968.079	593
2971.39	547
2974.699	507
2978.005	460
2981.308	411
2984.609	385
2987.907	357
2991.202	322
2994.494	304
2997.784	295
3001.07	294
3004.355	294
3007.636	295
3010.915	297
3014.191	287
3017.464	253
3020.734	230
3024.002	201
3027.267	190
3030.53	175
3033.789	163
3037.046	168
3040.301	182
3043.552	175
3046.801	176
3050.048	199
3053.291	215
3056.532	236
3059.771	250
3063.006	236
3066.239	223
3069.469	193
3072.697	159
3075.922	122
3079.144	89
3082.364	64
3085.581	48
3088.795	29
3092.007	5
3095.216	-3
3098.423	-12
3101.627	-27
3104.828	-27
3108.026	-32
3111.222	-42
3114.416	-47
3117.607	-49
3120.795	-58
3123.98	-58
3127.163	-65
3130.344	-72
3133.521	-75
3136.696	-75
3139.869	-80
3143.039	-79
3146.206	-79
3149.371	-83
3152.533	-81
3155.693	-83
3158.85	-93
3162.005	-96
3165.157	-95
3168.306	-95
3171.453	-102
3174.597	-98
3177.739	-111
3180.878	-110
3184.014	-108
3187.149	-112
3190.28	-110
3193.409	-117
3196.536	-114
3199.659	-112
3202.781	-118
3205.9	-118
3209.016	-121
3212.13	-121
3215.241	-123
3218.35	-121
3221.456	-130
3224.56	-127
3227.661	-135
3230.76	-135
3233.856	-126
3236.95	-136
3240.041	-134
3243.13	-141
3246.216	-136
3249.3	-140
3252.382	-136
3255.46	-136
3258.537	-138
3261.611	-141
3264.682	-144
3267.751	-143
3270.818	-142
3273.882	-144
3276.943	-141
3280.002	-144
3283.059	-144
3286.113	-151
3289.165	-147
3292.214	-146
3295.261	-147
3298.306	-146
3301.348	-145
3304.387	-150
3307.425	-152
3310.459	-154
3313.492	-152
3316.521	-155
3319.549	-153
3322.574	-155
3325.597	-160
3328.617	-157
3331.635	-158
3334.65	-153
3337.663	-156
3340.674	-154
3343.682	-158
3346.688	-157
3349.691	-161
3352.692	-157
3355.691	-153
3358.687	-160
3361.681	-163
3364.673	-158
3367.662	-162
3370.649	-161
3373.633	-157
3376.615	-162
3379.595	-161
3382.572	-160
3385.547	-163
3388.52	-162
3391.49	-166
3394.458	-155
3397.424	-166
3400.387	-163
3403.348	-167
3406.307	-165
3409.263	-170
3412.217	-163
3415.168	-168
3418.118	-160
3421.065	-164
3424.009	-164
3426.951	-164
3429.891	-165
3432.829	-165
3435.764	-163
3438.697	-166
3441.628	-165
3444.557	-168
3447.483	-161
3450.407	-162
3453.328	-173
3456.247	-165
3459.164	-167
3462.079	-166
3464.991	-168
3467.902	-167
3470.809	-173
3473.715	-168
3476.618	-169
3479.519	-173
3482.418	-172
3485.315	-170
3488.209	-172
3491.101	-167
3493.99	-173
3496.878	-170
3499.763	-173
3502.646	-168
3505.527	-167
3508.405	-171
3511.281	-170
3514.155	-170
3517.027	-170
3519.897	-173
3522.764	-172
3525.629	-170
3528.492	-170
3531.352	-171
3534.211	-177
3537.067	-175
3539.921	-175
3542.773	-175
3545.622	-173
3548.469	-175
3551.315	-172
3554.157	-178
3556.998	-174
3559.837	-177
3562.673	-175
3565.507	-177
3568.339	-176
3571.169	-176
3573.996	-175
3576.822	-173
3579.645	-179
3582.466	-175
3585.285	-172
3588.101	-177
3590.916	-175
3593.728	-176
3596.538	-177
3599.346	-179
3602.152	-177
3604.956	-178
3607.757	-177
3610.556	-182
3613.354	-176
3616.149	-179
3618.942	-177
3621.732	-180
3624.521	-178
3627.307	-177
3630.092	-177
3632.874	-185
3635.654	-178
3638.432	-181
3641.208	-185
3643.982	-180
3646.753	-179
3649.523	-178
3652.29	-181
3655.055	-181
3657.818	-180
3660.579	-178
3663.338	-178
3666.095	-181
3668.849	-177
3671.602	-180
3674.352	-180
3677.101	-176
3679.847	-182
3682.591	-180
3685.333	-183
3688.073	-179
3690.811	-181
3693.547	-179
3696.281	-181
3699.013	-175
3701.742	-180
3704.47	-181
3707.195	-178
3709.919	-177
3712.64	-180
3715.359	-180
3718.076	-175
3720.792	-176
3723.505	-179
3726.216	-182
3728.925	-183
3731.632	-181
3734.336	-177
3737.039	-180
3739.74	-177
3742.439	-181
3745.136	-176
3747.83	-182
3750.523	-177
3753.213	-177
3755.902	-179
3758.589	-181
3761.273	-181
3763.956	-176
3766.636	-181
3769.315	-178
3771.991	-177
3774.665	-178
3777.338	-180
3780.008	-185
3782.677	-178
3785.343	-179
3788.007	-185
3790.67	-180
3793.33	-179
3795.989	-183
3798.645	-181
3801.299	-183
3803.952	-181
3806.602	-182
3809.251	-183
3811.897	-182
3814.542	-183
3817.184	-177
3819.825	-178
3822.463	-183
3825.1	-181
3827.735	-179
3830.367	-184
3832.998	-182
3835.627	-180
3838.253	-184
3840.878	-181
3843.501	-183
3846.122	-186
3848.741	-184
3851.358	-186
3853.973	-182
3856.586	-182
3859.197	-184
3861.806	-185
3864.414	-180
3867.019	-185
3869.622	-185
3872.224	-177
3874.823	-173
3877.421	-176
3880.016	-165
3882.61	-159
3885.202	-162
3887.792	-161
3890.38	-170
3892.966	-182
3895.55	-179
3898.132	-181
3900.713	-180
3903.291	-183
3905.868	-179
3908.442	-188
3911.015	-184
3913.586	-183
3916.155	-185
3918.722	-185
3921.287	-186
3923.85	-185
3926.411	-181
3928.971	-186
3931.528	-188
3934.084	-187
3936.638	-181
3939.19	-182
3941.74	-182
3944.288	-185
3946.834	-180
3949.378	-182
3951.921	-186
3954.462	-185
3957	-183
3959.537	-183
3962.072	-186
3964.606	-185
3967.137	-184
3969.667	-186
3972.194	-182
3974.72	-181
3977.244	-181
3979.766	-182
3982.286	-182
3984.805	-182
3987.321	-175
3989.836	-181
3992.349	-176
3994.86	-176
3997.369	-175
3999.877	-178
4002.382	-178
4004.886	-178
4007.388	-175
4009.888	-175
4012.386	-176
4014.883	-179
4017.377	-178
4019.87	-174
4022.361	-179
4024.85	-176
4027.338	-176
4029.823	-178
4032.307	-175
4034.789	-178
4037.269	-178
4039.747	-179
4042.224	-178
4044.699	-174
4047.172	-175
4049.643	-180
4052.112	-181
4054.58	-179
4057.046	-177
4059.51	-177
4061.972	-176
4064.432	-177
4066.891	-176
4069.348	-181
4071.803	-176
4074.256	-180
4076.708	-180
4079.158	-178
4081.606	-177
4084.052	-180
4086.497	-178
4088.939	-178
4091.38	-179
4093.819	-175
4096.257	-191
4098.693	-187
4101.127	-190
4103.559	-187
4105.989	-95
4108.418	-91
4110.845	-75
4113.27	-70
4115.694	-57
4118.115	-39
4120.535	-174
4122.954	-179
4125.37	-177
4127.785	-179
4130.198	-179
4132.609	-176
4135.019	-188
4137.427	-190
4139.833	-184
4142.237	-189
