Data from 171017-reg-dw_RamanShift_3.txt Node
Date: Tue Oct 17 12:44:59 IDT 2017
User: aro
Spectrometer: QEPB0276
Trigger mode: 0
Integration Time (sec): 5.000000E0
Scans to average: 1
Electric dark correction enabled: true
Nonlinearity correction enabled: false
Boxcar width: 0
XAxis mode: Raman Shifts
Number of Pixels in Spectrum: 1044
>>>>>Begin Spectral Data<<<<<
160.701	-0.75
166.742	3.25
172.777	11.25
178.805	29.25
184.826	71.25
190.841	156.25
196.849	268.25
202.85	362.25
208.845	412.25
214.833	422.25
220.815	431.25
226.789	444.25
232.758	448.25
238.719	465.25
244.674	476.25
250.623	479.25
256.565	477.25
262.5	484.25
268.429	472.25
274.351	484.25
280.267	482.25
286.176	492.25
292.079	496.25
297.975	502.25
303.865	513.25
309.748	514.25
315.625	514.25
321.495	515.25
327.359	517.25
333.217	498.25
339.068	509.25
344.912	500.25
350.751	504.25
356.583	510.25
362.408	504.25
368.227	503.25
374.04	503.25
379.847	514.25
385.647	503.25
391.44	512.25
397.228	513.25
403.009	499.25
408.784	515.25
414.553	527.25
420.315	553.25
426.071	555.25
431.821	542.25
437.565	513.25
443.302	495.25
449.033	495.25
454.758	483.25
460.477	490.25
466.189	476.25
471.896	468.25
477.596	462.25
483.29	450.25
488.978	449.25
494.66	440.25
500.335	423.25
506.005	407.25
511.668	406.25
517.325	427.25
522.977	469.25
528.622	503.25
534.261	529.25
539.894	519.25
545.521	519.25
551.141	506.25
556.756	505.25
562.365	504.25
567.968	504.25
573.565	493.25
579.155	500.25
584.74	477.25
590.319	487.25
595.892	483.25
601.459	478.25
607.02	481.25
612.575	466.25
618.124	466.25
623.667	472.25
629.204	486.25
634.735	484.25
640.261	487.25
645.781	486.25
651.294	502.25
656.802	500.25
662.304	498.25
667.8	478.25
673.29	495.25
678.775	491.25
684.254	487.25
689.726	484.25
695.193	483.25
700.655	489.25
706.11	487.25
711.56	490.25
717.004	494.25
722.442	481.25
727.874	488.25
733.301	489.25
738.722	491.25
744.137	494.25
749.547	488.25
754.951	507.25
760.349	499.25
765.741	497.25
771.128	504.25
776.509	507.25
781.885	515.25
787.254	506.25
792.618	510.25
797.977	511.25
803.33	512.25
808.677	518.25
814.019	499.25
819.355	508.25
824.686	507.25
830.011	509.25
835.33	509.25
840.644	518.25
845.952	515.25
851.255	510.25
856.552	522.25
861.844	526.25
867.13	519.25
872.41	521.25
877.686	525.25
882.955	522.25
888.219	521.25
893.478	523.25
898.731	523.25
903.979	512.25
909.221	520.25
914.458	520.25
919.69	533.25
924.916	534.25
930.136	535.25
935.351	557.25
940.561	567.25
945.766	551.25
950.965	567.25
956.158	562.25
961.347	551.25
966.529	541.25
971.707	544.25
976.879	537.25
982.046	532.25
987.208	533.25
992.364	538.25
997.515	545.25
1002.66	554.25
1007.801	543.25
1012.936	540.25
1018.066	560.25
1023.19	561.25
1028.309	569.25
1033.423	566.25
1038.532	565.25
1043.636	565.25
1048.734	559.25
1053.827	555.25
1058.915	544.25
1063.998	544.25
1069.075	540.25
1074.147	550.25
1079.214	554.25
1084.276	552.25
1089.333	558.25
1094.385	576.25
1099.431	572.25
1104.472	574.25
1109.509	571.25
1114.54	566.25
1119.565	573.25
1124.586	556.25
1129.602	556.25
1134.613	548.25
1139.618	550.25
1144.619	543.25
1149.614	554.25
1154.604	561.25
1159.589	565.25
1164.57	568.25
1169.545	572.25
1174.515	571.25
1179.48	567.25
1184.44	571.25
1189.395	561.25
1194.345	571.25
1199.29	566.25
1204.23	567.25
1209.165	574.25
1214.095	575.25
1219.021	574.25
1223.941	592.25
1228.856	601.25
1233.766	597.25
1238.672	605.25
1243.572	606.25
1248.467	600.25
1253.358	588.25
1258.244	583.25
1263.124	584.25
1268	575.25
1272.871	564.25
1277.737	557.25
1282.599	558.25
1287.455	572.25
1292.306	574.25
1297.153	571.25
1301.995	586.25
1306.832	588.25
1311.664	602.25
1316.491	606.25
1321.314	595.25
1326.132	599.25
1330.945	599.25
1335.753	611.25
1340.556	598.25
1345.354	599.25
1350.148	604.25
1354.937	602.25
1359.722	597.25
1364.501	579.25
1369.276	570.25
1374.046	555.25
1378.811	543.25
1383.572	545.25
1388.327	527.25
1393.079	537.25
1397.825	537.25
1402.567	543.25
1407.304	544.25
1412.036	542.25
1416.764	558.25
1421.487	563.25
1426.205	569.25
1430.919	576.25
1435.628	579.25
1440.333	589.25
1445.032	586.25
1449.727	612.25
1454.418	606.25
1459.104	615.25
1463.785	607.25
1468.462	607.25
1473.134	610.25
1477.802	622.25
1482.465	609.25
1487.123	612.25
1491.777	616.25
1496.426	614.25
1501.071	612.25
1505.711	612.25
1510.347	633.25
1514.978	620.25
1519.604	605.25
1524.226	603.25
1528.844	594.25
1533.457	591.25
1538.065	580.25
1542.669	567.25
1547.269	570.25
1551.864	560.25
1556.454	562.25
1561.041	573.25
1565.622	573.25
1570.199	572.25
1574.772	575.25
1579.34	592.25
1583.904	590.25
1588.464	592.25
1593.019	585.25
1597.569	596.25
1602.115	588.25
1606.657	583.25
1611.195	585.25
1615.728	575.25
1620.256	585.25
1624.78	569.25
1629.3	573.25
1633.816	592.25
1638.327	590.25
1642.834	597.25
1647.336	601.25
1651.834	618.25
1656.328	622.25
1660.817	626.25
1665.302	632.25
1669.783	626.25
1674.259	624.25
1678.732	638.25
1683.199	633.25
1687.663	645.25
1692.122	642.25
1696.577	618.25
1701.028	605.25
1705.474	586.25
1709.917	572.25
1714.355	558.25
1718.788	561.25
1723.218	559.25
1727.643	577.25
1732.064	580.25
1736.481	575.25
1740.893	558.25
1745.301	569.25
1749.705	560.25
1754.105	563.25
1758.501	543.25
1762.893	541.25
1767.28	559.25
1771.663	552.25
1776.042	561.25
1780.417	571.25
1784.787	573.25
1789.154	583.25
1793.516	590.25
1797.874	577.25
1802.228	551.25
1806.578	550.25
1810.924	541.25
1815.266	525.25
1819.603	524.25
1823.937	522.25
1828.266	523.25
1832.591	521.25
1836.913	525.25
1841.23	534.25
1845.543	544.25
1849.852	548.25
1854.156	556.25
1858.457	562.25
1862.754	574.25
1867.047	580.25
1871.335	587.25
1875.62	595.25
1879.9	599.25
1884.177	612.25
1888.449	597.25
1892.718	606.25
1896.982	608.25
1901.243	609.25
1905.499	603.25
1909.752	608.25
1914	613.25
1918.245	617.25
1922.485	621.25
1926.722	622.25
1930.954	626.25
1935.183	623.25
1939.408	628.25
1943.628	617.25
1947.845	613.25
1952.058	597.25
1956.267	586.25
1960.472	579.25
1964.673	573.25
1968.87	561.25
1973.063	557.25
1977.252	554.25
1981.438	554.25
1985.619	544.25
1989.797	551.25
1993.971	556.25
1998.14	551.25
2002.306	564.25
2006.469	567.25
2010.627	571.25
2014.781	563.25
2018.932	572.25
2023.078	577.25
2027.221	575.25
2031.36	571.25
2035.495	576.25
2039.627	564.25
2043.754	579.25
2047.878	567.25
2051.998	572.25
2056.114	577.25
2060.226	583.25
2064.334	590.25
2068.439	587.25
2072.54	601.25
2076.637	606.25
2080.73	611.25
2084.82	612.25
2088.906	609.25
2092.988	609.25
2097.066	614.25
2101.14	605.25
2105.211	603.25
2109.278	591.25
2113.342	593.25
2117.401	577.25
2121.457	577.25
2125.509	579.25
2129.558	573.25
2133.602	569.25
2137.643	578.25
2141.681	567.25
2145.714	578.25
2149.744	574.25
2153.77	569.25
2157.793	586.25
2161.812	586.25
2165.827	574.25
2169.838	570.25
2173.846	574.25
2177.851	566.25
2181.851	568.25
2185.848	565.25
2189.841	563.25
2193.831	578.25
2197.817	554.25
2201.799	574.25
2205.778	575.25
2209.753	579.25
2213.725	582.25
2217.693	591.25
2221.657	595.25
2225.618	595.25
2229.575	599.25
2233.529	596.25
2237.479	598.25
2241.425	596.25
2245.368	581.25
2249.307	579.25
2253.243	579.25
2257.175	578.25
2261.104	579.25
2265.029	576.25
2268.95	573.25
2272.868	586.25
2276.783	578.25
2280.694	563.25
2284.601	565.25
2288.505	577.25
2292.405	561.25
2296.302	568.25
2300.195	556.25
2304.085	558.25
2307.971	554.25
2311.854	545.25
2315.734	539.25
2319.609	541.25
2323.482	541.25
2327.351	535.25
2331.216	543.25
2335.078	542.25
2338.937	531.25
2342.792	542.25
2346.643	546.25
2350.492	556.25
2354.336	555.25
2358.178	559.25
2362.015	569.25
2365.85	579.25
2369.681	584.25
2373.508	589.25
2377.333	594.25
2381.153	588.25
2384.971	593.25
2388.785	592.25
2392.595	589.25
2396.402	599.25
2400.206	599.25
2404.007	611.25
2407.804	599.25
2411.597	611.25
2415.388	604.25
2419.174	619.25
2422.958	611.25
2426.738	620.25
2430.515	623.25
2434.289	614.25
2438.059	616.25
2441.825	627.25
2445.589	620.25
2449.349	613.25
2453.106	620.25
2456.859	622.25
2460.61	613.25
2464.356	618.25
2468.1	621.25
2471.84	607.25
2475.577	614.25
2479.311	622.25
2483.041	626.25
2486.768	631.25
2490.492	642.25
2494.213	630.25
2497.93	642.25
2501.644	645.25
2505.355	637.25
2509.062	650.25
2512.766	653.25
2516.467	653.25
2520.165	660.25
2523.859	665.25
2527.551	663.25
2531.239	640.25
2534.923	648.25
2538.605	660.25
2542.283	652.25
2545.958	660.25
2549.63	657.25
2553.299	674.25
2556.964	660.25
2560.626	662.25
2564.285	653.25
2567.941	659.25
2571.594	663.25
2575.243	657.25
2578.89	657.25
2582.533	644.25
2586.173	653.25
2589.809	638.25
2593.443	643.25
2597.073	637.25
2600.701	629.25
2604.325	626.25
2607.946	624.25
2611.564	626.25
2615.178	631.25
2618.79	627.25
2622.398	608.25
2626.004	619.25
2629.606	618.25
2633.205	620.25
2636.801	614.25
2640.394	611.25
2643.983	617.25
2647.57	614.25
2651.153	605.25
2654.734	615.25
2658.311	599.25
2661.885	605.25
2665.456	608.25
2669.025	604.25
2672.589	603.25
2676.151	600.25
2679.71	608.25
2683.266	599.25
2686.819	599.25
2690.368	586.25
2693.915	599.25
2697.458	590.25
2700.999	587.25
2704.536	592.25
2708.071	586.25
2711.602	585.25
2715.13	593.25
2718.656	582.25
2722.178	587.25
2725.697	593.25
2729.214	598.25
2732.727	600.25
2736.237	606.25
2739.744	618.25
2743.249	625.25
2746.75	617.25
2750.248	616.25
2753.743	604.25
2757.236	591.25
2760.725	593.25
2764.211	571.25
2767.695	560.25
2771.175	558.25
2774.652	551.25
2778.127	537.25
2781.598	550.25
2785.067	550.25
2788.532	562.25
2791.995	572.25
2795.455	573.25
2798.911	580.25
2802.365	591.25
2805.816	596.25
2809.264	609.25
2812.709	600.25
2816.151	593.25
2819.59	600.25
2823.026	600.25
2826.46	596.25
2829.89	604.25
2833.318	611.25
2836.742	606.25
2840.164	608.25
2843.583	597.25
2846.999	611.25
2850.412	599.25
2853.822	604.25
2857.229	612.25
2860.634	601.25
2864.035	603.25
2867.434	601.25
2870.83	595.25
2874.223	598.25
2877.613	583.25
2881	579.25
2884.385	562.25
2887.766	578.25
2891.145	567.25
2894.521	563.25
2897.894	553.25
2901.264	547.25
2904.631	551.25
2907.996	549.25
2911.358	545.25
2914.717	546.25
2918.073	546.25
2921.426	547.25
2924.777	548.25
2928.124	542.25
2931.469	543.25
2934.811	547.25
2938.15	545.25
2941.487	549.25
2944.821	547.25
2948.152	554.25
2951.48	548.25
2954.805	546.25
2958.128	541.25
2961.447	545.25
2964.765	542.25
2968.079	533.25
2971.39	536.25
2974.699	533.25
2978.005	531.25
2981.308	539.25
2984.609	541.25
2987.907	533.25
2991.202	529.25
2994.494	530.25
2997.784	524.25
3001.07	527.25
3004.355	509.25
3007.636	507.25
3010.915	504.25
3014.191	491.25
3017.464	486.25
3020.734	493.25
3024.002	484.25
3027.267	479.25
3030.53	482.25
3033.789	474.25
3037.046	468.25
3040.301	478.25
3043.552	468.25
3046.801	469.25
3050.048	469.25
3053.291	474.25
3056.532	476.25
3059.771	480.25
3063.006	482.25
3066.239	485.25
3069.469	485.25
3072.697	490.25
3075.922	494.25
3079.144	489.25
3082.364	495.25
3085.581	494.25
3088.795	489.25
3092.007	494.25
3095.216	487.25
3098.423	485.25
3101.627	481.25
3104.828	488.25
3108.026	475.25
3111.222	482.25
3114.416	471.25
3117.607	486.25
3120.795	470.25
3123.98	481.25
3127.163	471.25
3130.344	482.25
3133.521	475.25
3136.696	482.25
3139.869	472.25
3143.039	472.25
3146.206	458.25
3149.371	460.25
3152.533	453.25
3155.693	452.25
3158.85	446.25
3162.005	427.25
3165.157	427.25
3168.306	423.25
3171.453	417.25
3174.597	418.25
3177.739	408.25
3180.878	394.25
3184.014	390.25
3187.149	391.25
3190.28	379.25
3193.409	379.25
3196.536	389.25
3199.659	378.25
3202.781	368.25
3205.9	376.25
3209.016	373.25
3212.13	362.25
3215.241	362.25
3218.35	367.25
3221.456	356.25
3224.56	355.25
3227.661	351.25
3230.76	344.25
3233.856	347.25
3236.95	342.25
3240.041	337.25
3243.13	338.25
3246.216	326.25
3249.3	333.25
3252.382	326.25
3255.46	325.25
3258.537	317.25
3261.611	320.25
3264.682	316.25
3267.751	313.25
3270.818	316.25
3273.882	310.25
3276.943	306.25
3280.002	298.25
3283.059	299.25
3286.113	292.25
3289.165	294.25
3292.214	289.25
3295.261	283.25
3298.306	278.25
3301.348	278.25
3304.387	270.25
3307.425	268.25
3310.459	274.25
3313.492	262.25
3316.521	276.25
3319.549	259.25
3322.574	263.25
3325.597	257.25
3328.617	255.25
3331.635	264.25
3334.65	260.25
3337.663	266.25
3340.674	259.25
3343.682	263.25
3346.688	257.25
3349.691	263.25
3352.692	253.25
3355.691	260.25
3358.687	257.25
3361.681	250.25
3364.673	250.25
3367.662	260.25
3370.649	244.25
3373.633	248.25
3376.615	237.25
3379.595	242.25
3382.572	241.25
3385.547	237.25
3388.52	235.25
3391.49	229.25
3394.458	232.25
3397.424	230.25
3400.387	223.25
3403.348	224.25
3406.307	218.25
3409.263	219.25
3412.217	220.25
3415.168	223.25
3418.118	212.25
3421.065	219.25
3424.009	212.25
3426.951	210.25
3429.891	214.25
3432.829	207.25
3435.764	202.25
3438.697	203.25
3441.628	198.25
3444.557	202.25
3447.483	191.25
3450.407	185.25
3453.328	182.25
3456.247	186.25
3459.164	186.25
3462.079	183.25
3464.991	178.25
3467.902	171.25
3470.809	177.25
3473.715	177.25
3476.618	170.25
3479.519	163.25
3482.418	163.25
3485.315	162.25
3488.209	157.25
3491.101	159.25
3493.99	156.25
3496.878	156.25
3499.763	144.25
3502.646	145.25
3505.527	144.25
3508.405	147.25
3511.281	142.25
3514.155	138.25
3517.027	137.25
3519.897	132.25
3522.764	131.25
3525.629	125.25
3528.492	120.25
3531.352	124.25
3534.211	118.25
3537.067	115.25
3539.921	113.25
3542.773	116.25
3545.622	109.25
3548.469	104.25
3551.315	108.25
3554.157	104.25
3556.998	101.25
3559.837	105.25
3562.673	101.25
3565.507	109.25
3568.339	101.25
3571.169	101.25
3573.996	97.25
3576.822	97.25
3579.645	94.25
3582.466	94.25
3585.285	93.25
3588.101	90.25
3590.916	89.25
3593.728	85.25
3596.538	84.25
3599.346	78.25
3602.152	81.25
3604.956	80.25
3607.757	75.25
3610.556	76.25
3613.354	79.25
3616.149	73.25
3618.942	68.25
3621.732	71.25
3624.521	72.25
3627.307	68.25
3630.092	65.25
3632.874	68.25
3635.654	66.25
3638.432	65.25
3641.208	68.25
3643.982	68.25
3646.753	68.25
3649.523	65.25
3652.29	61.25
3655.055	63.25
3657.818	65.25
3660.579	65.25
3663.338	61.25
3666.095	58.25
3668.849	60.25
3671.602	58.25
3674.352	60.25
3677.101	63.25
3679.847	59.25
3682.591	56.25
3685.333	59.25
3688.073	54.25
3690.811	63.25
3693.547	56.25
3696.281	55.25
3699.013	65.25
3701.742	61.25
3704.47	56.25
3707.195	60.25
3709.919	56.25
3712.64	60.25
3715.359	59.25
3718.076	55.25
3720.792	55.25
3723.505	54.25
3726.216	54.25
3728.925	50.25
3731.632	49.25
3734.336	52.25
3737.039	55.25
3739.74	53.25
3742.439	51.25
3745.136	47.25
3747.83	50.25
3750.523	47.25
3753.213	54.25
3755.902	53.25
3758.589	52.25
3761.273	58.25
3763.956	54.25
3766.636	52.25
3769.315	49.25
3771.991	48.25
3774.665	47.25
3777.338	48.25
3780.008	47.25
3782.677	44.25
3785.343	46.25
3788.007	43.25
3790.67	43.25
3793.33	39.25
3795.989	38.25
3798.645	38.25
3801.299	40.25
3803.952	35.25
3806.602	37.25
3809.251	34.25
3811.897	38.25
3814.542	33.25
3817.184	36.25
3819.825	33.25
3822.463	32.25
3825.1	35.25
3827.735	34.25
3830.367	27.25
3832.998	29.25
3835.627	28.25
3838.253	30.25
3840.878	28.25
3843.501	26.25
3846.122	24.25
3848.741	24.25
3851.358	24.25
3853.973	23.25
3856.586	26.25
3859.197	27.25
3861.806	23.25
3864.414	24.25
3867.019	23.25
3869.622	21.25
3872.224	20.25
3874.823	20.25
3877.421	23.25
3880.016	23.25
3882.61	26.25
3885.202	24.25
3887.792	23.25
3890.38	20.25
3892.966	16.25
3895.55	12.25
3898.132	9.25
3900.713	11.25
3903.291	9.25
3905.868	12.25
3908.442	8.25
3911.015	8.25
3913.586	9.25
3916.155	7.25
3918.722	1.25
3921.287	8.25
3923.85	4.25
3926.411	6.25
3928.971	6.25
3931.528	4.25
3934.084	3.25
3936.638	1.25
3939.19	2.25
3941.74	3.25
3944.288	4.25
3946.834	2.25
3949.378	1.25
3951.921	2.25
3954.462	-0.75
3957	0.25
3959.537	0.25
3962.072	6.25
3964.606	2.25
3967.137	1.25
3969.667	4.25
3972.194	4.25
3974.72	4.25
3977.244	5.25
3979.766	-1.75
3982.286	0.25
3984.805	2.25
3987.321	3.25
3989.836	4.25
3992.349	0.25
3994.86	2.25
3997.369	0.25
3999.877	-3.75
4002.382	-1.75
4004.886	4.25
4007.388	-2.75
4009.888	1.25
4012.386	-2.75
4014.883	-3.75
4017.377	-5.75
4019.87	-1.75
4022.361	-1.75
4024.85	-7.75
4027.338	-5.75
4029.823	-7.75
4032.307	-3.75
4034.789	-3.75
4037.269	-8.75
4039.747	-5.75
4042.224	-2.75
4044.699	-5.75
4047.172	-3.75
4049.643	-5.75
4052.112	-2.75
4054.58	-1.75
4057.046	-7.75
4059.51	-2.75
4061.972	-1.75
4064.432	-5.75
4066.891	-1.75
4069.348	-1.75
4071.803	-4.75
4074.256	-7.75
4076.708	-2.75
4079.158	-4.75
4081.606	-7.75
4084.052	-5.75
4086.497	-4.75
4088.939	-5.75
4091.38	-4.75
4093.819	-8.75
4096.257	-8.75
4098.693	-8.75
4101.127	-11.75
4103.559	-10.75
4105.989	-1.75
4108.418	2.25
4110.845	-6.75
4113.27	-2.75
4115.694	-0.75
4118.115	2.25
4120.535	-4.75
4122.954	-7.75
4125.37	-2.75
4127.785	-8.75
4130.198	-7.75
4132.609	-6.75
4135.019	-10.75
4137.427	-9.75
4139.833	-10.75
4142.237	-11.75
