Data from 171017-reg-ec10_RamanShift_4.txt Node
Date: Tue Oct 17 12:37:42 IDT 2017
User: aro
Spectrometer: QEPB0276
Trigger mode: 0
Integration Time (sec): 5.000000E0
Scans to average: 1
Electric dark correction enabled: true
Nonlinearity correction enabled: false
Boxcar width: 0
XAxis mode: Raman Shifts
Number of Pixels in Spectrum: 1044
>>>>>Begin Spectral Data<<<<<
160.701	5.12
166.742	3.12
172.777	9.12
178.805	25.12
184.826	71.12
190.841	157.12
196.849	261.12
202.85	360.12
208.845	412.12
214.833	412.12
220.815	419.12
226.789	437.12
232.758	454.12
238.719	453.12
244.674	461.12
250.623	462.12
256.565	459.12
262.5	461.12
268.429	459.12
274.351	466.12
280.267	468.12
286.176	473.12
292.079	475.12
297.975	481.12
303.865	487.12
309.748	496.12
315.625	490.12
321.495	490.12
327.359	487.12
333.217	486.12
339.068	479.12
344.912	479.12
350.751	464.12
356.583	479.12
362.408	474.12
368.227	478.12
374.04	470.12
379.847	485.12
385.647	486.12
391.44	476.12
397.228	470.12
403.009	468.12
408.784	482.12
414.553	500.12
420.315	519.12
426.071	525.12
431.821	500.12
437.565	479.12
443.302	456.12
449.033	464.12
454.758	456.12
460.477	443.12
466.189	450.12
471.896	445.12
477.596	438.12
483.29	431.12
488.978	423.12
494.66	413.12
500.335	401.12
506.005	379.12
511.668	385.12
517.325	401.12
522.977	436.12
528.622	467.12
534.261	473.12
539.894	471.12
545.521	461.12
551.141	453.12
556.756	446.12
562.365	438.12
567.968	440.12
573.565	428.12
579.155	419.12
584.74	422.12
590.319	417.12
595.892	411.12
601.459	410.12
607.02	406.12
612.575	405.12
618.124	396.12
623.667	399.12
629.204	400.12
634.735	407.12
640.261	412.12
645.781	415.12
651.294	426.12
656.802	417.12
662.304	421.12
667.8	414.12
673.29	411.12
678.775	407.12
684.254	405.12
689.726	408.12
695.193	403.12
700.655	399.12
706.11	416.12
711.56	414.12
717.004	403.12
722.442	399.12
727.874	409.12
733.301	405.12
738.722	404.12
744.137	412.12
749.547	406.12
754.951	406.12
760.349	410.12
765.741	416.12
771.128	408.12
776.509	407.12
781.885	415.12
787.254	415.12
792.618	418.12
797.977	410.12
803.33	419.12
808.677	411.12
814.019	423.12
819.355	416.12
824.686	409.12
830.011	405.12
835.33	404.12
840.644	417.12
845.952	411.12
851.255	415.12
856.552	412.12
861.844	429.12
867.13	410.12
872.41	414.12
877.686	414.12
882.955	411.12
888.219	419.12
893.478	415.12
898.731	408.12
903.979	406.12
909.221	409.12
914.458	418.12
919.69	422.12
924.916	423.12
930.136	438.12
935.351	438.12
940.561	449.12
945.766	453.12
950.965	449.12
956.158	456.12
961.347	447.12
966.529	441.12
971.707	437.12
976.879	433.12
982.046	433.12
987.208	428.12
992.364	431.12
997.515	427.12
1002.66	421.12
1007.801	421.12
1012.936	439.12
1018.066	440.12
1023.19	447.12
1028.309	442.12
1033.423	435.12
1038.532	448.12
1043.636	442.12
1048.734	435.12
1053.827	432.12
1058.915	421.12
1063.998	426.12
1069.075	426.12
1074.147	431.12
1079.214	426.12
1084.276	431.12
1089.333	445.12
1094.385	449.12
1099.431	432.12
1104.472	444.12
1109.509	450.12
1114.54	443.12
1119.565	445.12
1124.586	437.12
1129.602	431.12
1134.613	427.12
1139.618	430.12
1144.619	429.12
1149.614	429.12
1154.604	431.12
1159.589	434.12
1164.57	441.12
1169.545	449.12
1174.515	443.12
1179.48	450.12
1184.44	432.12
1189.395	431.12
1194.345	434.12
1199.29	436.12
1204.23	431.12
1209.165	437.12
1214.095	439.12
1219.021	448.12
1223.941	459.12
1228.856	458.12
1233.766	455.12
1238.672	464.12
1243.572	460.12
1248.467	454.12
1253.358	461.12
1258.244	450.12
1263.124	446.12
1268	444.12
1272.871	439.12
1277.737	437.12
1282.599	441.12
1287.455	427.12
1292.306	442.12
1297.153	442.12
1301.995	444.12
1306.832	449.12
1311.664	450.12
1316.491	458.12
1321.314	446.12
1326.132	464.12
1330.945	461.12
1335.753	462.12
1340.556	457.12
1345.354	455.12
1350.148	454.12
1354.937	445.12
1359.722	432.12
1364.501	433.12
1369.276	422.12
1374.046	412.12
1378.811	407.12
1383.572	406.12
1388.327	413.12
1393.079	405.12
1397.825	408.12
1402.567	404.12
1407.304	412.12
1412.036	417.12
1416.764	423.12
1421.487	420.12
1426.205	425.12
1430.919	431.12
1435.628	434.12
1440.333	432.12
1445.032	448.12
1449.727	458.12
1454.418	456.12
1459.104	444.12
1463.785	451.12
1468.462	446.12
1473.134	452.12
1477.802	453.12
1482.465	445.12
1487.123	438.12
1491.777	442.12
1496.426	446.12
1501.071	452.12
1505.711	445.12
1510.347	442.12
1514.978	440.12
1519.604	429.12
1524.226	424.12
1528.844	429.12
1533.457	423.12
1538.065	413.12
1542.669	410.12
1547.269	414.12
1551.864	408.12
1556.454	410.12
1561.041	412.12
1565.622	418.12
1570.199	430.12
1574.772	418.12
1579.34	433.12
1583.904	439.12
1588.464	440.12
1593.019	442.12
1597.569	437.12
1602.115	431.12
1606.657	432.12
1611.195	433.12
1615.728	428.12
1620.256	419.12
1624.78	425.12
1629.3	419.12
1633.816	435.12
1638.327	443.12
1642.834	443.12
1647.336	439.12
1651.834	448.12
1656.328	461.12
1660.817	458.12
1665.302	462.12
1669.783	468.12
1674.259	474.12
1678.732	463.12
1683.199	459.12
1687.663	460.12
1692.122	459.12
1696.577	448.12
1701.028	439.12
1705.474	421.12
1709.917	405.12
1714.355	401.12
1718.788	407.12
1723.218	416.12
1727.643	413.12
1732.064	423.12
1736.481	422.12
1740.893	413.12
1745.301	413.12
1749.705	417.12
1754.105	406.12
1758.501	395.12
1762.893	399.12
1767.28	411.12
1771.663	394.12
1776.042	413.12
1780.417	411.12
1784.787	415.12
1789.154	427.12
1793.516	419.12
1797.874	417.12
1802.228	396.12
1806.578	382.12
1810.924	390.12
1815.266	385.12
1819.603	378.12
1823.937	383.12
1828.266	384.12
1832.591	397.12
1836.913	394.12
1841.23	397.12
1845.543	409.12
1849.852	410.12
1854.156	411.12
1858.457	424.12
1862.754	416.12
1867.047	425.12
1871.335	438.12
1875.62	429.12
1879.9	446.12
1884.177	435.12
1888.449	447.12
1892.718	441.12
1896.982	436.12
1901.243	447.12
1905.499	442.12
1909.752	438.12
1914	449.12
1918.245	445.12
1922.485	444.12
1926.722	442.12
1930.954	453.12
1935.183	449.12
1939.408	443.12
1943.628	442.12
1947.845	426.12
1952.058	421.12
1956.267	429.12
1960.472	420.12
1964.673	409.12
1968.87	399.12
1973.063	404.12
1977.252	401.12
1981.438	406.12
1985.619	398.12
1989.797	410.12
1993.971	410.12
1998.14	408.12
2002.306	404.12
2006.469	421.12
2010.627	412.12
2014.781	425.12
2018.932	418.12
2023.078	425.12
2027.221	424.12
2031.36	422.12
2035.495	414.12
2039.627	413.12
2043.754	418.12
2047.878	413.12
2051.998	420.12
2056.114	421.12
2060.226	419.12
2064.334	429.12
2068.439	422.12
2072.54	431.12
2076.637	437.12
2080.73	436.12
2084.82	443.12
2088.906	438.12
2092.988	435.12
2097.066	433.12
2101.14	434.12
2105.211	433.12
2109.278	422.12
2113.342	425.12
2117.401	414.12
2121.457	412.12
2125.509	424.12
2129.558	414.12
2133.602	423.12
2137.643	413.12
2141.681	424.12
2145.714	415.12
2149.744	424.12
2153.77	421.12
2157.793	429.12
2161.812	424.12
2165.827	428.12
2169.838	416.12
2173.846	419.12
2177.851	420.12
2181.851	417.12
2185.848	410.12
2189.841	419.12
2193.831	421.12
2197.817	419.12
2201.799	417.12
2205.778	427.12
2209.753	423.12
2213.725	432.12
2217.693	421.12
2221.657	436.12
2225.618	437.12
2229.575	440.12
2233.529	433.12
2237.479	436.12
2241.425	431.12
2245.368	443.12
2249.307	433.12
2253.243	429.12
2257.175	429.12
2261.104	437.12
2265.029	416.12
2268.95	429.12
2272.868	421.12
2276.783	420.12
2280.694	421.12
2284.601	422.12
2288.505	429.12
2292.405	420.12
2296.302	429.12
2300.195	420.12
2304.085	423.12
2307.971	421.12
2311.854	412.12
2315.734	420.12
2319.609	419.12
2323.482	420.12
2327.351	410.12
2331.216	420.12
2335.078	422.12
2338.937	420.12
2342.792	428.12
2346.643	432.12
2350.492	432.12
2354.336	431.12
2358.178	444.12
2362.015	438.12
2365.85	449.12
2369.681	451.12
2373.508	456.12
2377.333	465.12
2381.153	474.12
2384.971	470.12
2388.785	478.12
2392.595	460.12
2396.402	468.12
2400.206	475.12
2404.007	482.12
2407.804	477.12
2411.597	481.12
2415.388	487.12
2419.174	493.12
2422.958	491.12
2426.738	490.12
2430.515	495.12
2434.289	498.12
2438.059	502.12
2441.825	499.12
2445.589	504.12
2449.349	502.12
2453.106	492.12
2456.859	507.12
2460.61	502.12
2464.356	500.12
2468.1	509.12
2471.84	504.12
2475.577	500.12
2479.311	497.12
2483.041	503.12
2486.768	507.12
2490.492	520.12
2494.213	518.12
2497.93	523.12
2501.644	524.12
2505.355	528.12
2509.062	519.12
2512.766	522.12
2516.467	531.12
2520.165	539.12
2523.859	534.12
2527.551	533.12
2531.239	535.12
2534.923	537.12
2538.605	543.12
2542.283	527.12
2545.958	534.12
2549.63	542.12
2553.299	550.12
2556.964	537.12
2560.626	548.12
2564.285	543.12
2567.941	545.12
2571.594	540.12
2575.243	553.12
2578.89	531.12
2582.533	538.12
2586.173	539.12
2589.809	534.12
2593.443	530.12
2597.073	538.12
2600.701	527.12
2604.325	526.12
2607.946	525.12
2611.564	519.12
2615.178	532.12
2618.79	515.12
2622.398	529.12
2626.004	517.12
2629.606	525.12
2633.205	518.12
2636.801	525.12
2640.394	514.12
2643.983	523.12
2647.57	517.12
2651.153	506.12
2654.734	515.12
2658.311	508.12
2661.885	512.12
2665.456	508.12
2669.025	511.12
2672.589	519.12
2676.151	513.12
2679.71	523.12
2683.266	515.12
2686.819	518.12
2690.368	499.12
2693.915	515.12
2697.458	510.12
2700.999	505.12
2704.536	504.12
2708.071	507.12
2711.602	507.12
2715.13	501.12
2718.656	504.12
2722.178	498.12
2725.697	511.12
2729.214	512.12
2732.727	517.12
2736.237	522.12
2739.744	525.12
2743.249	524.12
2746.75	526.12
2750.248	525.12
2753.743	513.12
2757.236	508.12
2760.725	508.12
2764.211	490.12
2767.695	492.12
2771.175	486.12
2774.652	476.12
2778.127	475.12
2781.598	480.12
2785.067	479.12
2788.532	485.12
2791.995	491.12
2795.455	494.12
2798.911	517.12
2802.365	505.12
2805.816	511.12
2809.264	521.12
2812.709	521.12
2816.151	517.12
2819.59	516.12
2823.026	523.12
2826.46	521.12
2829.89	519.12
2833.318	522.12
2836.742	522.12
2840.164	518.12
2843.583	524.12
2846.999	517.12
2850.412	517.12
2853.822	511.12
2857.229	516.12
2860.634	525.12
2864.035	524.12
2867.434	518.12
2870.83	509.12
2874.223	513.12
2877.613	510.12
2881	505.12
2884.385	497.12
2887.766	498.12
2891.145	494.12
2894.521	479.12
2897.894	476.12
2901.264	472.12
2904.631	487.12
2907.996	483.12
2911.358	484.12
2914.717	477.12
2918.073	480.12
2921.426	466.12
2924.777	471.12
2928.124	472.12
2931.469	473.12
2934.811	474.12
2938.15	470.12
2941.487	460.12
2944.821	471.12
2948.152	473.12
2951.48	463.12
2954.805	469.12
2958.128	462.12
2961.447	458.12
2964.765	471.12
2968.079	458.12
2971.39	459.12
2974.699	457.12
2978.005	465.12
2981.308	463.12
2984.609	463.12
2987.907	461.12
2991.202	460.12
2994.494	453.12
2997.784	449.12
3001.07	452.12
3004.355	446.12
3007.636	435.12
3010.915	422.12
3014.191	417.12
3017.464	412.12
3020.734	413.12
3024.002	414.12
3027.267	407.12
3030.53	407.12
3033.789	410.12
3037.046	401.12
3040.301	398.12
3043.552	398.12
3046.801	410.12
3050.048	409.12
3053.291	410.12
3056.532	403.12
3059.771	414.12
3063.006	416.12
3066.239	416.12
3069.469	419.12
3072.697	412.12
3075.922	417.12
3079.144	422.12
3082.364	424.12
3085.581	422.12
3088.795	424.12
3092.007	422.12
3095.216	424.12
3098.423	418.12
3101.627	422.12
3104.828	408.12
3108.026	417.12
3111.222	412.12
3114.416	413.12
3117.607	409.12
3120.795	400.12
3123.98	407.12
3127.163	414.12
3130.344	404.12
3133.521	404.12
3136.696	407.12
3139.869	411.12
3143.039	405.12
3146.206	395.12
3149.371	395.12
3152.533	383.12
3155.693	384.12
3158.85	377.12
3162.005	370.12
3165.157	377.12
3168.306	366.12
3171.453	362.12
3174.597	356.12
3177.739	354.12
3180.878	336.12
3184.014	340.12
3187.149	343.12
3190.28	327.12
3193.409	331.12
3196.536	324.12
3199.659	324.12
3202.781	324.12
3205.9	327.12
3209.016	323.12
3212.13	316.12
3215.241	319.12
3218.35	321.12
3221.456	314.12
3224.56	304.12
3227.661	312.12
3230.76	293.12
3233.856	301.12
3236.95	295.12
3240.041	291.12
3243.13	299.12
3246.216	287.12
3249.3	283.12
3252.382	284.12
3255.46	283.12
3258.537	276.12
3261.611	276.12
3264.682	272.12
3267.751	260.12
3270.818	261.12
3273.882	267.12
3276.943	266.12
3280.002	257.12
3283.059	260.12
3286.113	252.12
3289.165	245.12
3292.214	246.12
3295.261	246.12
3298.306	245.12
3301.348	235.12
3304.387	239.12
3307.425	234.12
3310.459	231.12
3313.492	231.12
3316.521	233.12
3319.549	231.12
3322.574	229.12
3325.597	222.12
3328.617	227.12
3331.635	231.12
3334.65	220.12
3337.663	224.12
3340.674	221.12
3343.682	230.12
3346.688	227.12
3349.691	225.12
3352.692	225.12
3355.691	221.12
3358.687	228.12
3361.681	219.12
3364.673	221.12
3367.662	222.12
3370.649	211.12
3373.633	209.12
3376.615	208.12
3379.595	207.12
3382.572	208.12
3385.547	200.12
3388.52	209.12
3391.49	200.12
3394.458	201.12
3397.424	198.12
3400.387	196.12
3403.348	192.12
3406.307	196.12
3409.263	194.12
3412.217	187.12
3415.168	199.12
3418.118	190.12
3421.065	189.12
3424.009	187.12
3426.951	184.12
3429.891	186.12
3432.829	181.12
3435.764	178.12
3438.697	178.12
3441.628	177.12
3444.557	169.12
3447.483	168.12
3450.407	164.12
3453.328	162.12
3456.247	165.12
3459.164	159.12
3462.079	159.12
3464.991	152.12
3467.902	150.12
3470.809	151.12
3473.715	150.12
3476.618	140.12
3479.519	146.12
3482.418	138.12
3485.315	136.12
3488.209	138.12
3491.101	143.12
3493.99	137.12
3496.878	134.12
3499.763	127.12
3502.646	130.12
3505.527	129.12
3508.405	122.12
3511.281	122.12
3514.155	120.12
3517.027	122.12
3519.897	115.12
3522.764	114.12
3525.629	110.12
3528.492	111.12
3531.352	107.12
3534.211	100.12
3537.067	102.12
3539.921	102.12
3542.773	104.12
3545.622	94.12
3548.469	91.12
3551.315	93.12
3554.157	89.12
3556.998	86.12
3559.837	95.12
3562.673	90.12
3565.507	89.12
3568.339	89.12
3571.169	89.12
3573.996	85.12
3576.822	82.12
3579.645	79.12
3582.466	77.12
3585.285	82.12
3588.101	80.12
3590.916	69.12
3593.728	70.12
3596.538	72.12
3599.346	73.12
3602.152	70.12
3604.956	63.12
3607.757	69.12
3610.556	66.12
3613.354	65.12
3616.149	65.12
3618.942	59.12
3621.732	65.12
3624.521	57.12
3627.307	56.12
3630.092	58.12
3632.874	59.12
3635.654	56.12
3638.432	58.12
3641.208	55.12
3643.982	57.12
3646.753	55.12
3649.523	55.12
3652.29	52.12
3655.055	56.12
3657.818	51.12
3660.579	52.12
3663.338	50.12
3666.095	48.12
3668.849	54.12
3671.602	50.12
3674.352	50.12
3677.101	52.12
3679.847	50.12
3682.591	48.12
3685.333	45.12
3688.073	45.12
3690.811	46.12
3693.547	47.12
3696.281	45.12
3699.013	49.12
3701.742	48.12
3704.47	49.12
3707.195	47.12
3709.919	48.12
3712.64	45.12
3715.359	47.12
3718.076	47.12
3720.792	42.12
3723.505	47.12
3726.216	44.12
3728.925	42.12
3731.632	40.12
3734.336	43.12
3737.039	40.12
3739.74	44.12
3742.439	38.12
3745.136	42.12
3747.83	42.12
3750.523	40.12
3753.213	42.12
3755.902	43.12
3758.589	45.12
3761.273	47.12
3763.956	42.12
3766.636	40.12
3769.315	35.12
3771.991	41.12
3774.665	40.12
3777.338	38.12
3780.008	37.12
3782.677	40.12
3785.343	39.12
3788.007	34.12
3790.67	31.12
3793.33	37.12
3795.989	29.12
3798.645	28.12
3801.299	30.12
3803.952	31.12
3806.602	28.12
3809.251	28.12
3811.897	26.12
3814.542	22.12
3817.184	28.12
3819.825	27.12
3822.463	30.12
3825.1	26.12
3827.735	28.12
3830.367	23.12
3832.998	24.12
3835.627	23.12
3838.253	22.12
3840.878	22.12
3843.501	21.12
3846.122	25.12
3848.741	20.12
3851.358	18.12
3853.973	16.12
3856.586	19.12
3859.197	18.12
3861.806	17.12
3864.414	18.12
3867.019	18.12
3869.622	16.12
3872.224	17.12
3874.823	18.12
3877.421	19.12
3880.016	20.12
3882.61	19.12
3885.202	19.12
3887.792	18.12
3890.38	13.12
3892.966	9.12
3895.55	10.12
3898.132	12.12
3900.713	5.12
3903.291	5.12
3905.868	9.12
3908.442	7.12
3911.015	7.12
3913.586	5.12
3916.155	2.12
3918.722	1.12
3921.287	7.12
3923.85	2.12
3926.411	1.12
3928.971	1.12
3931.528	2.12
3934.084	4.12
3936.638	0.12
3939.19	-2.88
3941.74	-0.88
3944.288	2.12
3946.834	-1.88
3949.378	2.12
3951.921	-1.88
3954.462	-2.88
3957	-2.88
3959.537	0.12
3962.072	-0.88
3964.606	-0.88
3967.137	-1.88
3969.667	0.12
3972.194	1.12
3974.72	1.12
3977.244	0.12
3979.766	-1.88
3982.286	-2.88
3984.805	0.12
3987.321	-2.88
3989.836	-0.88
3992.349	-3.88
3994.86	-0.88
3997.369	2.12
3999.877	-2.88
4002.382	-2.88
4004.886	1.12
4007.388	-4.88
4009.888	-2.88
4012.386	-4.88
4014.883	-2.88
4017.377	-4.88
4019.87	-1.88
4022.361	-5.88
4024.85	-6.88
4027.338	-5.88
4029.823	-7.88
4032.307	-2.88
4034.789	-3.88
4037.269	-7.88
4039.747	-6.88
4042.224	-3.88
4044.699	-0.88
4047.172	-3.88
4049.643	-6.88
4052.112	-7.88
4054.58	-4.88
4057.046	-9.88
4059.51	-9.88
4061.972	-6.88
4064.432	-9.88
4066.891	-7.88
4069.348	-6.88
4071.803	-7.88
4074.256	-11.88
4076.708	-10.88
4079.158	-8.88
4081.606	-12.88
4084.052	-6.88
4086.497	-11.88
4088.939	-8.88
4091.38	-5.88
4093.819	-8.88
4096.257	-11.88
4098.693	-6.88
4101.127	-12.88
4103.559	-10.88
4105.989	-1.88
4108.418	0.12
4110.845	-1.88
4113.27	0.12
4115.694	2.12
4118.115	2.12
4120.535	-9.88
4122.954	-7.88
4125.37	-9.88
4127.785	-11.88
4130.198	-8.88
4132.609	-8.88
4135.019	-9.88
4137.427	-10.88
4139.833	-10.88
4142.237	-10.88
