Data from 171017-reg-dw-e_RamanShift_1.txt Node
Date: Tue Oct 17 12:59:57 IDT 2017
User: aro
Spectrometer: QEPB0276
Trigger mode: 0
Integration Time (sec): 5.000000E0
Scans to average: 1
Electric dark correction enabled: true
Nonlinearity correction enabled: false
Boxcar width: 0
XAxis mode: Raman Shifts
Number of Pixels in Spectrum: 1044
>>>>>Begin Spectral Data<<<<<
160.701	3.12
166.742	1.12
172.777	9.12
178.805	17.12
184.826	51.12
190.841	112.12
196.849	178.12
202.85	246.12
208.845	271.12
214.833	281.12
220.815	286.12
226.789	284.12
232.758	299.12
238.719	308.12
244.674	304.12
250.623	314.12
256.565	315.12
262.5	311.12
268.429	304.12
274.351	308.12
280.267	310.12
286.176	316.12
292.079	316.12
297.975	322.12
303.865	320.12
309.748	320.12
315.625	325.12
321.495	314.12
327.359	315.12
333.217	312.12
339.068	302.12
344.912	299.12
350.751	300.12
356.583	292.12
362.408	297.12
368.227	300.12
374.04	300.12
379.847	304.12
385.647	309.12
391.44	295.12
397.228	286.12
403.009	295.12
408.784	292.12
414.553	310.12
420.315	336.12
426.071	340.12
431.821	310.12
437.565	289.12
443.302	269.12
449.033	252.12
454.758	250.12
460.477	249.12
466.189	230.12
471.896	219.12
477.596	223.12
483.29	211.12
488.978	201.12
494.66	182.12
500.335	160.12
506.005	148.12
511.668	144.12
517.325	158.12
522.977	195.12
528.622	226.12
534.261	269.12
539.894	261.12
545.521	252.12
551.141	241.12
556.756	244.12
562.365	237.12
567.968	229.12
573.565	222.12
579.155	225.12
584.74	211.12
590.319	210.12
595.892	197.12
601.459	203.12
607.02	189.12
612.575	185.12
618.124	184.12
623.667	186.12
629.204	186.12
634.735	194.12
640.261	199.12
645.781	206.12
651.294	206.12
656.802	202.12
662.304	190.12
667.8	189.12
673.29	190.12
678.775	186.12
684.254	188.12
689.726	175.12
695.193	179.12
700.655	175.12
706.11	170.12
711.56	172.12
717.004	168.12
722.442	168.12
727.874	171.12
733.301	166.12
738.722	170.12
744.137	161.12
749.547	166.12
754.951	170.12
760.349	170.12
765.741	161.12
771.128	167.12
776.509	162.12
781.885	168.12
787.254	161.12
792.618	168.12
797.977	160.12
803.33	163.12
808.677	161.12
814.019	160.12
819.355	158.12
824.686	151.12
830.011	151.12
835.33	153.12
840.644	152.12
845.952	147.12
851.255	144.12
856.552	150.12
861.844	148.12
867.13	146.12
872.41	144.12
877.686	144.12
882.955	140.12
888.219	150.12
893.478	143.12
898.731	138.12
903.979	134.12
909.221	138.12
914.458	137.12
919.69	145.12
924.916	145.12
930.136	141.12
935.351	151.12
940.561	149.12
945.766	153.12
950.965	159.12
956.158	149.12
961.347	149.12
966.529	144.12
971.707	142.12
976.879	143.12
982.046	138.12
987.208	135.12
992.364	135.12
997.515	130.12
1002.66	124.12
1007.801	124.12
1012.936	127.12
1018.066	130.12
1023.19	124.12
1028.309	124.12
1033.423	131.12
1038.532	127.12
1043.636	126.12
1048.734	121.12
1053.827	119.12
1058.915	123.12
1063.998	116.12
1069.075	118.12
1074.147	121.12
1079.214	118.12
1084.276	113.12
1089.333	121.12
1094.385	123.12
1099.431	123.12
1104.472	123.12
1109.509	122.12
1114.54	124.12
1119.565	120.12
1124.586	121.12
1129.602	111.12
1134.613	106.12
1139.618	109.12
1144.619	111.12
1149.614	112.12
1154.604	108.12
1159.589	109.12
1164.57	111.12
1169.545	111.12
1174.515	108.12
1179.48	108.12
1184.44	102.12
1189.395	104.12
1194.345	105.12
1199.29	107.12
1204.23	103.12
1209.165	103.12
1214.095	102.12
1219.021	102.12
1223.941	103.12
1228.856	104.12
1233.766	102.12
1238.672	109.12
1243.572	101.12
1248.467	98.12
1253.358	101.12
1258.244	103.12
1263.124	104.12
1268	96.12
1272.871	99.12
1277.737	93.12
1282.599	96.12
1287.455	91.12
1292.306	96.12
1297.153	91.12
1301.995	92.12
1306.832	98.12
1311.664	94.12
1316.491	97.12
1321.314	98.12
1326.132	96.12
1330.945	94.12
1335.753	102.12
1340.556	96.12
1345.354	94.12
1350.148	90.12
1354.937	88.12
1359.722	88.12
1364.501	84.12
1369.276	82.12
1374.046	82.12
1378.811	77.12
1383.572	80.12
1388.327	82.12
1393.079	76.12
1397.825	79.12
1402.567	76.12
1407.304	82.12
1412.036	80.12
1416.764	80.12
1421.487	75.12
1426.205	81.12
1430.919	79.12
1435.628	83.12
1440.333	86.12
1445.032	86.12
1449.727	86.12
1454.418	88.12
1459.104	81.12
1463.785	82.12
1468.462	80.12
1473.134	85.12
1477.802	86.12
1482.465	77.12
1487.123	83.12
1491.777	79.12
1496.426	81.12
1501.071	80.12
1505.711	78.12
1510.347	83.12
1514.978	79.12
1519.604	80.12
1524.226	75.12
1528.844	78.12
1533.457	77.12
1538.065	77.12
1542.669	74.12
1547.269	73.12
1551.864	78.12
1556.454	75.12
1561.041	77.12
1565.622	79.12
1570.199	79.12
1574.772	76.12
1579.34	83.12
1583.904	78.12
1588.464	78.12
1593.019	75.12
1597.569	84.12
1602.115	79.12
1606.657	82.12
1611.195	78.12
1615.728	80.12
1620.256	79.12
1624.78	75.12
1629.3	78.12
1633.816	81.12
1638.327	75.12
1642.834	73.12
1647.336	80.12
1651.834	82.12
1656.328	79.12
1660.817	79.12
1665.302	80.12
1669.783	77.12
1674.259	81.12
1678.732	79.12
1683.199	80.12
1687.663	82.12
1692.122	84.12
1696.577	82.12
1701.028	76.12
1705.474	77.12
1709.917	75.12
1714.355	73.12
1718.788	73.12
1723.218	71.12
1727.643	72.12
1732.064	75.12
1736.481	81.12
1740.893	79.12
1745.301	79.12
1749.705	79.12
1754.105	73.12
1758.501	74.12
1762.893	72.12
1767.28	72.12
1771.663	73.12
1776.042	73.12
1780.417	76.12
1784.787	71.12
1789.154	81.12
1793.516	75.12
1797.874	75.12
1802.228	71.12
1806.578	67.12
1810.924	71.12
1815.266	70.12
1819.603	66.12
1823.937	68.12
1828.266	68.12
1832.591	71.12
1836.913	71.12
1841.23	72.12
1845.543	75.12
1849.852	71.12
1854.156	77.12
1858.457	80.12
1862.754	79.12
1867.047	82.12
1871.335	80.12
1875.62	80.12
1879.9	86.12
1884.177	82.12
1888.449	89.12
1892.718	91.12
1896.982	87.12
1901.243	83.12
1905.499	88.12
1909.752	84.12
1914	93.12
1918.245	86.12
1922.485	89.12
1926.722	87.12
1930.954	92.12
1935.183	90.12
1939.408	90.12
1943.628	90.12
1947.845	81.12
1952.058	83.12
1956.267	86.12
1960.472	86.12
1964.673	83.12
1968.87	85.12
1973.063	82.12
1977.252	86.12
1981.438	78.12
1985.619	89.12
1989.797	83.12
1993.971	82.12
1998.14	83.12
2002.306	87.12
2006.469	90.12
2010.627	93.12
2014.781	91.12
2018.932	100.12
2023.078	96.12
2027.221	94.12
2031.36	93.12
2035.495	93.12
2039.627	89.12
2043.754	92.12
2047.878	92.12
2051.998	91.12
2056.114	95.12
2060.226	98.12
2064.334	99.12
2068.439	100.12
2072.54	105.12
2076.637	101.12
2080.73	100.12
2084.82	103.12
2088.906	104.12
2092.988	109.12
2097.066	104.12
2101.14	107.12
2105.211	103.12
2109.278	101.12
2113.342	106.12
2117.401	102.12
2121.457	103.12
2125.509	98.12
2129.558	102.12
2133.602	106.12
2137.643	101.12
2141.681	104.12
2145.714	106.12
2149.744	106.12
2153.77	105.12
2157.793	106.12
2161.812	110.12
2165.827	111.12
2169.838	109.12
2173.846	115.12
2177.851	111.12
2181.851	113.12
2185.848	114.12
2189.841	114.12
2193.831	111.12
2197.817	117.12
2201.799	119.12
2205.778	113.12
2209.753	122.12
2213.725	120.12
2217.693	119.12
2221.657	125.12
2225.618	128.12
2229.575	122.12
2233.529	126.12
2237.479	126.12
2241.425	132.12
2245.368	130.12
2249.307	129.12
2253.243	128.12
2257.175	125.12
2261.104	131.12
2265.029	125.12
2268.95	130.12
2272.868	131.12
2276.783	136.12
2280.694	133.12
2284.601	130.12
2288.505	138.12
2292.405	132.12
2296.302	134.12
2300.195	138.12
2304.085	136.12
2307.971	139.12
2311.854	134.12
2315.734	139.12
2319.609	142.12
2323.482	140.12
2327.351	135.12
2331.216	146.12
2335.078	146.12
2338.937	147.12
2342.792	144.12
2346.643	150.12
2350.492	150.12
2354.336	154.12
2358.178	152.12
2362.015	155.12
2365.85	165.12
2369.681	163.12
2373.508	167.12
2377.333	171.12
2381.153	170.12
2384.971	166.12
2388.785	176.12
2392.595	174.12
2396.402	178.12
2400.206	173.12
2404.007	179.12
2407.804	185.12
2411.597	182.12
2415.388	181.12
2419.174	185.12
2422.958	185.12
2426.738	184.12
2430.515	193.12
2434.289	189.12
2438.059	194.12
2441.825	198.12
2445.589	199.12
2449.349	200.12
2453.106	203.12
2456.859	203.12
2460.61	204.12
2464.356	201.12
2468.1	203.12
2471.84	202.12
2475.577	214.12
2479.311	211.12
2483.041	210.12
2486.768	214.12
2490.492	211.12
2494.213	215.12
2497.93	225.12
2501.644	224.12
2505.355	227.12
2509.062	233.12
2512.766	227.12
2516.467	235.12
2520.165	239.12
2523.859	235.12
2527.551	236.12
2531.239	244.12
2534.923	243.12
2538.605	245.12
2542.283	248.12
2545.958	248.12
2549.63	244.12
2553.299	246.12
2556.964	253.12
2560.626	246.12
2564.285	258.12
2567.941	252.12
2571.594	257.12
2575.243	261.12
2578.89	253.12
2582.533	261.12
2586.173	258.12
2589.809	257.12
2593.443	258.12
2597.073	256.12
2600.701	258.12
2604.325	252.12
2607.946	267.12
2611.564	265.12
2615.178	267.12
2618.79	262.12
2622.398	268.12
2626.004	262.12
2629.606	270.12
2633.205	269.12
2636.801	265.12
2640.394	274.12
2643.983	266.12
2647.57	270.12
2651.153	275.12
2654.734	274.12
2658.311	268.12
2661.885	277.12
2665.456	278.12
2669.025	275.12
2672.589	279.12
2676.151	277.12
2679.71	277.12
2683.266	279.12
2686.819	281.12
2690.368	276.12
2693.915	277.12
2697.458	283.12
2700.999	285.12
2704.536	279.12
2708.071	281.12
2711.602	283.12
2715.13	282.12
2718.656	285.12
2722.178	285.12
2725.697	286.12
2729.214	289.12
2732.727	298.12
2736.237	300.12
2739.744	301.12
2743.249	300.12
2746.75	308.12
2750.248	298.12
2753.743	301.12
2757.236	289.12
2760.725	292.12
2764.211	285.12
2767.695	281.12
2771.175	284.12
2774.652	284.12
2778.127	276.12
2781.598	283.12
2785.067	289.12
2788.532	296.12
2791.995	303.12
2795.455	301.12
2798.911	304.12
2802.365	307.12
2805.816	317.12
2809.264	316.12
2812.709	322.12
2816.151	319.12
2819.59	322.12
2823.026	324.12
2826.46	328.12
2829.89	329.12
2833.318	322.12
2836.742	326.12
2840.164	332.12
2843.583	334.12
2846.999	329.12
2850.412	330.12
2853.822	325.12
2857.229	326.12
2860.634	327.12
2864.035	343.12
2867.434	326.12
2870.83	335.12
2874.223	327.12
2877.613	334.12
2881	334.12
2884.385	329.12
2887.766	318.12
2891.145	320.12
2894.521	324.12
2897.894	319.12
2901.264	324.12
2904.631	324.12
2907.996	320.12
2911.358	323.12
2914.717	317.12
2918.073	316.12
2921.426	317.12
2924.777	317.12
2928.124	319.12
2931.469	319.12
2934.811	319.12
2938.15	329.12
2941.487	322.12
2944.821	315.12
2948.152	324.12
2951.48	314.12
2954.805	313.12
2958.128	325.12
2961.447	311.12
2964.765	318.12
2968.079	312.12
2971.39	317.12
2974.699	317.12
2978.005	312.12
2981.308	318.12
2984.609	315.12
2987.907	326.12
2991.202	316.12
2994.494	320.12
2997.784	317.12
3001.07	315.12
3004.355	308.12
3007.636	309.12
3010.915	314.12
3014.191	303.12
3017.464	307.12
3020.734	311.12
3024.002	302.12
3027.267	299.12
3030.53	300.12
3033.789	296.12
3037.046	293.12
3040.301	295.12
3043.552	296.12
3046.801	306.12
3050.048	301.12
3053.291	313.12
3056.532	302.12
3059.771	308.12
3063.006	316.12
3066.239	307.12
3069.469	310.12
3072.697	313.12
3075.922	309.12
3079.144	305.12
3082.364	314.12
3085.581	320.12
3088.795	312.12
3092.007	312.12
3095.216	313.12
3098.423	305.12
3101.627	315.12
3104.828	314.12
3108.026	319.12
3111.222	323.12
3114.416	314.12
3117.607	311.12
3120.795	309.12
3123.98	314.12
3127.163	313.12
3130.344	312.12
3133.521	306.12
3136.696	312.12
3139.869	317.12
3143.039	313.12
3146.206	299.12
3149.371	308.12
3152.533	298.12
3155.693	293.12
3158.85	294.12
3162.005	291.12
3165.157	287.12
3168.306	278.12
3171.453	276.12
3174.597	269.12
3177.739	263.12
3180.878	262.12
3184.014	269.12
3187.149	259.12
3190.28	256.12
3193.409	254.12
3196.536	255.12
3199.659	254.12
3202.781	252.12
3205.9	258.12
3209.016	254.12
3212.13	257.12
3215.241	250.12
3218.35	245.12
3221.456	244.12
3224.56	248.12
3227.661	247.12
3230.76	235.12
3233.856	231.12
3236.95	238.12
3240.041	230.12
3243.13	230.12
3246.216	232.12
3249.3	225.12
3252.382	220.12
3255.46	220.12
3258.537	223.12
3261.611	227.12
3264.682	219.12
3267.751	215.12
3270.818	209.12
3273.882	217.12
3276.943	215.12
3280.002	210.12
3283.059	208.12
3286.113	199.12
3289.165	206.12
3292.214	199.12
3295.261	204.12
3298.306	196.12
3301.348	199.12
3304.387	193.12
3307.425	190.12
3310.459	194.12
3313.492	189.12
3316.521	187.12
3319.549	196.12
3322.574	186.12
3325.597	193.12
3328.617	186.12
3331.635	186.12
3334.65	186.12
3337.663	194.12
3340.674	192.12
3343.682	188.12
3346.688	191.12
3349.691	188.12
3352.692	193.12
3355.691	187.12
3358.687	185.12
3361.681	187.12
3364.673	188.12
3367.662	186.12
3370.649	181.12
3373.633	178.12
3376.615	178.12
3379.595	173.12
3382.572	175.12
3385.547	172.12
3388.52	173.12
3391.49	168.12
3394.458	169.12
3397.424	169.12
3400.387	168.12
3403.348	167.12
3406.307	164.12
3409.263	165.12
3412.217	164.12
3415.168	165.12
3418.118	165.12
3421.065	159.12
3424.009	156.12
3426.951	154.12
3429.891	151.12
3432.829	162.12
3435.764	152.12
3438.697	161.12
3441.628	157.12
3444.557	156.12
3447.483	143.12
3450.407	139.12
3453.328	135.12
3456.247	141.12
3459.164	140.12
3462.079	132.12
3464.991	130.12
3467.902	129.12
3470.809	126.12
3473.715	130.12
3476.618	122.12
3479.519	122.12
3482.418	118.12
3485.315	117.12
3488.209	116.12
3491.101	117.12
3493.99	115.12
3496.878	117.12
3499.763	105.12
3502.646	112.12
3505.527	112.12
3508.405	108.12
3511.281	104.12
3514.155	102.12
3517.027	105.12
3519.897	106.12
3522.764	98.12
3525.629	101.12
3528.492	97.12
3531.352	96.12
3534.211	89.12
3537.067	88.12
3539.921	90.12
3542.773	84.12
3545.622	80.12
3548.469	85.12
3551.315	84.12
3554.157	83.12
3556.998	80.12
3559.837	79.12
3562.673	78.12
3565.507	80.12
3568.339	81.12
3571.169	76.12
3573.996	76.12
3576.822	75.12
3579.645	68.12
3582.466	69.12
3585.285	75.12
3588.101	70.12
3590.916	65.12
3593.728	67.12
3596.538	65.12
3599.346	64.12
3602.152	61.12
3604.956	66.12
3607.757	60.12
3610.556	59.12
3613.354	64.12
3616.149	64.12
3618.942	59.12
3621.732	58.12
3624.521	52.12
3627.307	60.12
3630.092	58.12
3632.874	53.12
3635.654	56.12
3638.432	52.12
3641.208	56.12
3643.982	56.12
3646.753	53.12
3649.523	56.12
3652.29	45.12
3655.055	56.12
3657.818	48.12
3660.579	51.12
3663.338	44.12
3666.095	46.12
3668.849	44.12
3671.602	48.12
3674.352	49.12
3677.101	48.12
3679.847	45.12
3682.591	46.12
3685.333	47.12
3688.073	42.12
3690.811	45.12
3693.547	48.12
3696.281	47.12
3699.013	49.12
3701.742	45.12
3704.47	47.12
3707.195	49.12
3709.919	48.12
3712.64	46.12
3715.359	47.12
3718.076	48.12
3720.792	46.12
3723.505	43.12
3726.216	43.12
3728.925	43.12
3731.632	43.12
3734.336	43.12
3737.039	43.12
3739.74	38.12
3742.439	35.12
3745.136	41.12
3747.83	44.12
3750.523	39.12
3753.213	41.12
3755.902	37.12
3758.589	44.12
3761.273	43.12
3763.956	42.12
3766.636	38.12
3769.315	37.12
3771.991	37.12
3774.665	42.12
3777.338	41.12
3780.008	42.12
3782.677	38.12
3785.343	38.12
3788.007	33.12
3790.67	35.12
3793.33	39.12
3795.989	29.12
3798.645	31.12
3801.299	32.12
3803.952	29.12
3806.602	30.12
3809.251	28.12
3811.897	35.12
3814.542	24.12
3817.184	26.12
3819.825	27.12
3822.463	28.12
3825.1	26.12
3827.735	28.12
3830.367	22.12
3832.998	29.12
3835.627	25.12
3838.253	28.12
3840.878	22.12
3843.501	23.12
3846.122	23.12
3848.741	26.12
3851.358	22.12
3853.973	20.12
3856.586	24.12
3859.197	23.12
3861.806	21.12
3864.414	23.12
3867.019	22.12
3869.622	21.12
3872.224	22.12
3874.823	22.12
3877.421	22.12
3880.016	26.12
3882.61	23.12
3885.202	26.12
3887.792	19.12
3890.38	17.12
3892.966	13.12
3895.55	13.12
3898.132	12.12
3900.713	10.12
3903.291	11.12
3905.868	14.12
3908.442	9.12
3911.015	13.12
3913.586	7.12
3916.155	6.12
3918.722	5.12
3921.287	8.12
3923.85	7.12
3926.411	7.12
3928.971	4.12
3931.528	8.12
3934.084	8.12
3936.638	2.12
3939.19	7.12
3941.74	6.12
3944.288	3.12
3946.834	7.12
3949.378	4.12
3951.921	5.12
3954.462	5.12
3957	3.12
3959.537	7.12
3962.072	8.12
3964.606	3.12
3967.137	4.12
3969.667	5.12
3972.194	8.12
3974.72	5.12
3977.244	5.12
3979.766	3.12
3982.286	3.12
3984.805	5.12
3987.321	1.12
3989.836	5.12
3992.349	1.12
3994.86	3.12
3997.369	3.12
3999.877	1.12
4002.382	2.12
4004.886	3.12
4007.388	1.12
4009.888	-0.88
4012.386	-0.88
4014.883	-0.88
4017.377	-1.88
4019.87	1.12
4022.361	1.12
4024.85	-1.88
4027.338	-2.88
4029.823	-4.88
4032.307	0.12
4034.789	-1.88
4037.269	-1.88
4039.747	-0.88
4042.224	0.12
4044.699	2.12
4047.172	3.12
4049.643	-1.88
4052.112	0.12
4054.58	1.12
4057.046	0.12
4059.51	0.12
4061.972	0.12
4064.432	-3.88
4066.891	-0.88
4069.348	-1.88
4071.803	-1.88
4074.256	-1.88
4076.708	-2.88
4079.158	-2.88
4081.606	-5.88
4084.052	-2.88
4086.497	-3.88
4088.939	-5.88
4091.38	-2.88
4093.819	-6.88
4096.257	-1.88
4098.693	-2.88
4101.127	-5.88
4103.559	-0.88
4105.989	1.12
4108.418	4.12
4110.845	-0.88
4113.27	-0.88
4115.694	5.12
4118.115	4.12
4120.535	-5.88
4122.954	-6.88
4125.37	-5.88
4127.785	-6.88
4130.198	-4.88
4132.609	-5.88
4135.019	-7.88
4137.427	-6.88
4139.833	-7.88
4142.237	-7.88
