Data from 171017-reg-ec10_RamanShift_2.txt Node
Date: Tue Oct 17 12:35:18 IDT 2017
User: aro
Spectrometer: QEPB0276
Trigger mode: 0
Integration Time (sec): 5.000000E0
Scans to average: 1
Electric dark correction enabled: true
Nonlinearity correction enabled: false
Boxcar width: 0
XAxis mode: Raman Shifts
Number of Pixels in Spectrum: 1044
>>>>>Begin Spectral Data<<<<<
160.701	2.25
166.742	2.25
172.777	10.25
178.805	29.25
184.826	77.25
190.841	165.25
196.849	290.25
202.85	386.25
208.845	453.25
214.833	463.25
220.815	466.25
226.789	480.25
232.758	495.25
238.719	509.25
244.674	512.25
250.623	514.25
256.565	511.25
262.5	517.25
268.429	511.25
274.351	508.25
280.267	510.25
286.176	499.25
292.079	502.25
297.975	508.25
303.865	518.25
309.748	523.25
315.625	519.25
321.495	509.25
327.359	515.25
333.217	502.25
339.068	500.25
344.912	498.25
350.751	499.25
356.583	499.25
362.408	484.25
368.227	488.25
374.04	498.25
379.847	493.25
385.647	501.25
391.44	490.25
397.228	489.25
403.009	492.25
408.784	496.25
414.553	510.25
420.315	537.25
426.071	535.25
431.821	520.25
437.565	486.25
443.302	469.25
449.033	469.25
454.758	461.25
460.477	449.25
466.189	444.25
471.896	445.25
477.596	449.25
483.29	432.25
488.978	416.25
494.66	419.25
500.335	384.25
506.005	382.25
511.668	373.25
517.325	399.25
522.977	434.25
528.622	466.25
534.261	489.25
539.894	490.25
545.521	476.25
551.141	476.25
556.756	458.25
562.365	454.25
567.968	459.25
573.565	445.25
579.155	450.25
584.74	436.25
590.319	434.25
595.892	428.25
601.459	425.25
607.02	416.25
612.575	406.25
618.124	409.25
623.667	420.25
629.204	422.25
634.735	429.25
640.261	433.25
645.781	439.25
651.294	445.25
656.802	439.25
662.304	437.25
667.8	434.25
673.29	430.25
678.775	423.25
684.254	428.25
689.726	427.25
695.193	431.25
700.655	425.25
706.11	412.25
711.56	425.25
717.004	415.25
722.442	418.25
727.874	414.25
733.301	418.25
738.722	421.25
744.137	414.25
749.547	422.25
754.951	424.25
760.349	427.25
765.741	419.25
771.128	435.25
776.509	431.25
781.885	424.25
787.254	429.25
792.618	431.25
797.977	428.25
803.33	431.25
808.677	424.25
814.019	425.25
819.355	425.25
824.686	429.25
830.011	428.25
835.33	427.25
840.644	430.25
845.952	440.25
851.255	431.25
856.552	431.25
861.844	431.25
867.13	425.25
872.41	434.25
877.686	437.25
882.955	432.25
888.219	432.25
893.478	422.25
898.731	422.25
903.979	421.25
909.221	428.25
914.458	422.25
919.69	423.25
924.916	438.25
930.136	436.25
935.351	452.25
940.561	458.25
945.766	454.25
950.965	465.25
956.158	454.25
961.347	455.25
966.529	444.25
971.707	449.25
976.879	438.25
982.046	437.25
987.208	436.25
992.364	435.25
997.515	444.25
1002.66	434.25
1007.801	436.25
1012.936	450.25
1018.066	448.25
1023.19	452.25
1028.309	446.25
1033.423	452.25
1038.532	443.25
1043.636	451.25
1048.734	450.25
1053.827	445.25
1058.915	440.25
1063.998	437.25
1069.075	441.25
1074.147	434.25
1079.214	432.25
1084.276	440.25
1089.333	443.25
1094.385	455.25
1099.431	445.25
1104.472	453.25
1109.509	454.25
1114.54	448.25
1119.565	446.25
1124.586	443.25
1129.602	435.25
1134.613	430.25
1139.618	430.25
1144.619	432.25
1149.614	430.25
1154.604	429.25
1159.589	438.25
1164.57	443.25
1169.545	444.25
1174.515	444.25
1179.48	439.25
1184.44	440.25
1189.395	438.25
1194.345	429.25
1199.29	428.25
1204.23	431.25
1209.165	443.25
1214.095	441.25
1219.021	446.25
1223.941	452.25
1228.856	457.25
1233.766	449.25
1238.672	456.25
1243.572	458.25
1248.467	461.25
1253.358	462.25
1258.244	450.25
1263.124	448.25
1268	442.25
1272.871	438.25
1277.737	436.25
1282.599	437.25
1287.455	428.25
1292.306	437.25
1297.153	432.25
1301.995	440.25
1306.832	456.25
1311.664	449.25
1316.491	454.25
1321.314	463.25
1326.132	455.25
1330.945	452.25
1335.753	466.25
1340.556	457.25
1345.354	447.25
1350.148	458.25
1354.937	451.25
1359.722	440.25
1364.501	427.25
1369.276	420.25
1374.046	413.25
1378.811	403.25
1383.572	400.25
1388.327	409.25
1393.079	400.25
1397.825	401.25
1402.567	410.25
1407.304	407.25
1412.036	408.25
1416.764	414.25
1421.487	420.25
1426.205	420.25
1430.919	415.25
1435.628	425.25
1440.333	436.25
1445.032	443.25
1449.727	447.25
1454.418	457.25
1459.104	451.25
1463.785	449.25
1468.462	443.25
1473.134	451.25
1477.802	459.25
1482.465	442.25
1487.123	446.25
1491.777	445.25
1496.426	446.25
1501.071	457.25
1505.711	451.25
1510.347	466.25
1514.978	448.25
1519.604	443.25
1524.226	441.25
1528.844	429.25
1533.457	423.25
1538.065	421.25
1542.669	428.25
1547.269	413.25
1551.864	417.25
1556.454	424.25
1561.041	426.25
1565.622	424.25
1570.199	418.25
1574.772	430.25
1579.34	444.25
1583.904	436.25
1588.464	441.25
1593.019	438.25
1597.569	441.25
1602.115	436.25
1606.657	434.25
1611.195	435.25
1615.728	428.25
1620.256	424.25
1624.78	427.25
1629.3	429.25
1633.816	433.25
1638.327	437.25
1642.834	444.25
1647.336	453.25
1651.834	458.25
1656.328	462.25
1660.817	464.25
1665.302	476.25
1669.783	465.25
1674.259	468.25
1678.732	470.25
1683.199	465.25
1687.663	478.25
1692.122	470.25
1696.577	455.25
1701.028	449.25
1705.474	441.25
1709.917	431.25
1714.355	411.25
1718.788	418.25
1723.218	422.25
1727.643	432.25
1732.064	436.25
1736.481	435.25
1740.893	434.25
1745.301	424.25
1749.705	427.25
1754.105	419.25
1758.501	409.25
1762.893	413.25
1767.28	406.25
1771.663	414.25
1776.042	423.25
1780.417	422.25
1784.787	431.25
1789.154	438.25
1793.516	437.25
1797.874	434.25
1802.228	417.25
1806.578	409.25
1810.924	396.25
1815.266	391.25
1819.603	386.25
1823.937	388.25
1828.266	392.25
1832.591	411.25
1836.913	405.25
1841.23	403.25
1845.543	418.25
1849.852	416.25
1854.156	420.25
1858.457	434.25
1862.754	431.25
1867.047	440.25
1871.335	436.25
1875.62	457.25
1879.9	459.25
1884.177	458.25
1888.449	455.25
1892.718	462.25
1896.982	454.25
1901.243	446.25
1905.499	464.25
1909.752	453.25
1914	467.25
1918.245	463.25
1922.485	474.25
1926.722	476.25
1930.954	467.25
1935.183	471.25
1939.408	474.25
1943.628	472.25
1947.845	460.25
1952.058	448.25
1956.267	442.25
1960.472	435.25
1964.673	431.25
1968.87	430.25
1973.063	419.25
1977.252	415.25
1981.438	407.25
1985.619	413.25
1989.797	415.25
1993.971	422.25
1998.14	416.25
2002.306	421.25
2006.469	432.25
2010.627	435.25
2014.781	423.25
2018.932	435.25
2023.078	448.25
2027.221	439.25
2031.36	430.25
2035.495	432.25
2039.627	422.25
2043.754	428.25
2047.878	431.25
2051.998	428.25
2056.114	434.25
2060.226	445.25
2064.334	443.25
2068.439	443.25
2072.54	446.25
2076.637	458.25
2080.73	460.25
2084.82	460.25
2088.906	456.25
2092.988	468.25
2097.066	458.25
2101.14	457.25
2105.211	448.25
2109.278	446.25
2113.342	450.25
2117.401	440.25
2121.457	441.25
2125.509	434.25
2129.558	438.25
2133.602	438.25
2137.643	436.25
2141.681	439.25
2145.714	431.25
2149.744	438.25
2153.77	432.25
2157.793	439.25
2161.812	432.25
2165.827	433.25
2169.838	426.25
2173.846	434.25
2177.851	441.25
2181.851	437.25
2185.848	427.25
2189.841	428.25
2193.831	427.25
2197.817	427.25
2201.799	435.25
2205.778	440.25
2209.753	451.25
2213.725	438.25
2217.693	440.25
2221.657	446.25
2225.618	445.25
2229.575	454.25
2233.529	459.25
2237.479	447.25
2241.425	461.25
2245.368	451.25
2249.307	454.25
2253.243	451.25
2257.175	449.25
2261.104	453.25
2265.029	438.25
2268.95	439.25
2272.868	442.25
2276.783	440.25
2280.694	437.25
2284.601	443.25
2288.505	428.25
2292.405	435.25
2296.302	433.25
2300.195	429.25
2304.085	425.25
2307.971	427.25
2311.854	419.25
2315.734	433.25
2319.609	422.25
2323.482	422.25
2327.351	421.25
2331.216	429.25
2335.078	426.25
2338.937	423.25
2342.792	432.25
2346.643	429.25
2350.492	433.25
2354.336	439.25
2358.178	446.25
2362.015	444.25
2365.85	452.25
2369.681	459.25
2373.508	461.25
2377.333	471.25
2381.153	467.25
2384.971	476.25
2388.785	476.25
2392.595	475.25
2396.402	481.25
2400.206	488.25
2404.007	489.25
2407.804	485.25
2411.597	490.25
2415.388	489.25
2419.174	496.25
2422.958	507.25
2426.738	488.25
2430.515	506.25
2434.289	513.25
2438.059	513.25
2441.825	505.25
2445.589	509.25
2449.349	510.25
2453.106	511.25
2456.859	506.25
2460.61	510.25
2464.356	516.25
2468.1	516.25
2471.84	506.25
2475.577	509.25
2479.311	512.25
2483.041	516.25
2486.768	519.25
2490.492	525.25
2494.213	534.25
2497.93	527.25
2501.644	529.25
2505.355	532.25
2509.062	550.25
2512.766	541.25
2516.467	544.25
2520.165	558.25
2523.859	550.25
2527.551	548.25
2531.239	555.25
2534.923	549.25
2538.605	565.25
2542.283	563.25
2545.958	558.25
2549.63	554.25
2553.299	567.25
2556.964	568.25
2560.626	571.25
2564.285	564.25
2567.941	568.25
2571.594	566.25
2575.243	569.25
2578.89	573.25
2582.533	573.25
2586.173	563.25
2589.809	557.25
2593.443	557.25
2597.073	556.25
2600.701	548.25
2604.325	542.25
2607.946	554.25
2611.564	550.25
2615.178	562.25
2618.79	548.25
2622.398	541.25
2626.004	542.25
2629.606	546.25
2633.205	545.25
2636.801	530.25
2640.394	540.25
2643.983	534.25
2647.57	539.25
2651.153	539.25
2654.734	528.25
2658.311	521.25
2661.885	529.25
2665.456	525.25
2669.025	534.25
2672.589	528.25
2676.151	535.25
2679.71	527.25
2683.266	530.25
2686.819	543.25
2690.368	534.25
2693.915	519.25
2697.458	526.25
2700.999	527.25
2704.536	537.25
2708.071	524.25
2711.602	527.25
2715.13	524.25
2718.656	527.25
2722.178	530.25
2725.697	538.25
2729.214	545.25
2732.727	537.25
2736.237	539.25
2739.744	545.25
2743.249	546.25
2746.75	544.25
2750.248	545.25
2753.743	538.25
2757.236	531.25
2760.725	527.25
2764.211	517.25
2767.695	503.25
2771.175	502.25
2774.652	501.25
2778.127	498.25
2781.598	504.25
2785.067	504.25
2788.532	501.25
2791.995	517.25
2795.455	516.25
2798.911	524.25
2802.365	529.25
2805.816	526.25
2809.264	539.25
2812.709	542.25
2816.151	537.25
2819.59	536.25
2823.026	551.25
2826.46	553.25
2829.89	550.25
2833.318	544.25
2836.742	538.25
2840.164	545.25
2843.583	553.25
2846.999	546.25
2850.412	547.25
2853.822	546.25
2857.229	545.25
2860.634	552.25
2864.035	539.25
2867.434	545.25
2870.83	549.25
2874.223	542.25
2877.613	542.25
2881	536.25
2884.385	529.25
2887.766	517.25
2891.145	511.25
2894.521	504.25
2897.894	505.25
2901.264	497.25
2904.631	502.25
2907.996	499.25
2911.358	501.25
2914.717	493.25
2918.073	498.25
2921.426	483.25
2924.777	489.25
2928.124	489.25
2931.469	486.25
2934.811	482.25
2938.15	506.25
2941.487	489.25
2944.821	497.25
2948.152	498.25
2951.48	485.25
2954.805	492.25
2958.128	499.25
2961.447	493.25
2964.765	483.25
2968.079	490.25
2971.39	496.25
2974.699	490.25
2978.005	492.25
2981.308	490.25
2984.609	488.25
2987.907	488.25
2991.202	485.25
2994.494	486.25
2997.784	478.25
3001.07	474.25
3004.355	476.25
3007.636	461.25
3010.915	465.25
3014.191	453.25
3017.464	442.25
3020.734	453.25
3024.002	437.25
3027.267	434.25
3030.53	433.25
3033.789	427.25
3037.046	427.25
3040.301	427.25
3043.552	429.25
3046.801	433.25
3050.048	429.25
3053.291	428.25
3056.532	435.25
3059.771	430.25
3063.006	427.25
3066.239	440.25
3069.469	436.25
3072.697	441.25
3075.922	444.25
3079.144	443.25
3082.364	448.25
3085.581	444.25
3088.795	440.25
3092.007	447.25
3095.216	447.25
3098.423	447.25
3101.627	446.25
3104.828	444.25
3108.026	433.25
3111.222	439.25
3114.416	443.25
3117.607	426.25
3120.795	437.25
3123.98	433.25
3127.163	431.25
3130.344	430.25
3133.521	426.25
3136.696	433.25
3139.869	429.25
3143.039	427.25
3146.206	412.25
3149.371	420.25
3152.533	407.25
3155.693	413.25
3158.85	404.25
3162.005	398.25
3165.157	390.25
3168.306	380.25
3171.453	383.25
3174.597	384.25
3177.739	375.25
3180.878	361.25
3184.014	361.25
3187.149	358.25
3190.28	351.25
3193.409	350.25
3196.536	353.25
3199.659	337.25
3202.781	340.25
3205.9	340.25
3209.016	343.25
3212.13	328.25
3215.241	328.25
3218.35	330.25
3221.456	319.25
3224.56	327.25
3227.661	324.25
3230.76	319.25
3233.856	317.25
3236.95	315.25
3240.041	304.25
3243.13	316.25
3246.216	297.25
3249.3	302.25
3252.382	305.25
3255.46	298.25
3258.537	288.25
3261.611	295.25
3264.682	289.25
3267.751	285.25
3270.818	292.25
3273.882	288.25
3276.943	283.25
3280.002	282.25
3283.059	279.25
3286.113	268.25
3289.165	269.25
3292.214	266.25
3295.261	262.25
3298.306	263.25
3301.348	251.25
3304.387	255.25
3307.425	250.25
3310.459	249.25
3313.492	251.25
3316.521	244.25
3319.549	243.25
3322.574	249.25
3325.597	241.25
3328.617	246.25
3331.635	240.25
3334.65	237.25
3337.663	242.25
3340.674	236.25
3343.682	244.25
3346.688	241.25
3349.691	240.25
3352.692	236.25
3355.691	236.25
3358.687	238.25
3361.681	228.25
3364.673	233.25
3367.662	233.25
3370.649	227.25
3373.633	237.25
3376.615	224.25
3379.595	222.25
3382.572	223.25
3385.547	216.25
3388.52	218.25
3391.49	216.25
3394.458	211.25
3397.424	216.25
3400.387	208.25
3403.348	210.25
3406.307	206.25
3409.263	208.25
3412.217	211.25
3415.168	207.25
3418.118	200.25
3421.065	201.25
3424.009	197.25
3426.951	198.25
3429.891	196.25
3432.829	194.25
3435.764	192.25
3438.697	188.25
3441.628	181.25
3444.557	188.25
3447.483	182.25
3450.407	175.25
3453.328	174.25
3456.247	170.25
3459.164	170.25
3462.079	167.25
3464.991	160.25
3467.902	160.25
3470.809	159.25
3473.715	157.25
3476.618	154.25
3479.519	152.25
3482.418	146.25
3485.315	149.25
3488.209	143.25
3491.101	151.25
3493.99	142.25
3496.878	139.25
3499.763	134.25
3502.646	140.25
3505.527	135.25
3508.405	134.25
3511.281	128.25
3514.155	129.25
3517.027	121.25
3519.897	122.25
3522.764	129.25
3525.629	122.25
3528.492	117.25
3531.352	117.25
3534.211	110.25
3537.067	105.25
3539.921	108.25
3542.773	108.25
3545.622	103.25
3548.469	99.25
3551.315	100.25
3554.157	96.25
3556.998	99.25
3559.837	96.25
3562.673	94.25
3565.507	97.25
3568.339	93.25
3571.169	87.25
3573.996	91.25
3576.822	88.25
3579.645	83.25
3582.466	86.25
3585.285	81.25
3588.101	85.25
3590.916	82.25
3593.728	79.25
3596.538	79.25
3599.346	76.25
3602.152	74.25
3604.956	74.25
3607.757	71.25
3610.556	62.25
3613.354	67.25
3616.149	66.25
3618.942	63.25
3621.732	69.25
3624.521	58.25
3627.307	61.25
3630.092	65.25
3632.874	61.25
3635.654	60.25
3638.432	61.25
3641.208	58.25
3643.982	58.25
3646.753	56.25
3649.523	57.25
3652.29	55.25
3655.055	57.25
3657.818	56.25
3660.579	58.25
3663.338	51.25
3666.095	55.25
3668.849	54.25
3671.602	52.25
3674.352	59.25
3677.101	59.25
3679.847	53.25
3682.591	55.25
3685.333	48.25
3688.073	46.25
3690.811	51.25
3693.547	57.25
3696.281	54.25
3699.013	56.25
3701.742	51.25
3704.47	53.25
3707.195	50.25
3709.919	53.25
3712.64	53.25
3715.359	53.25
3718.076	50.25
3720.792	48.25
3723.505	50.25
3726.216	47.25
3728.925	44.25
3731.632	47.25
3734.336	46.25
3737.039	40.25
3739.74	44.25
3742.439	42.25
3745.136	42.25
3747.83	42.25
3750.523	46.25
3753.213	46.25
3755.902	41.25
3758.589	47.25
3761.273	50.25
3763.956	47.25
3766.636	46.25
3769.315	43.25
3771.991	41.25
3774.665	41.25
3777.338	42.25
3780.008	40.25
3782.677	40.25
3785.343	37.25
3788.007	38.25
3790.67	38.25
3793.33	39.25
3795.989	34.25
3798.645	34.25
3801.299	33.25
3803.952	36.25
3806.602	40.25
3809.251	30.25
3811.897	36.25
3814.542	29.25
3817.184	30.25
3819.825	31.25
3822.463	34.25
3825.1	31.25
3827.735	31.25
3830.367	26.25
3832.998	26.25
3835.627	27.25
3838.253	21.25
3840.878	20.25
3843.501	20.25
3846.122	21.25
3848.741	19.25
3851.358	21.25
3853.973	22.25
3856.586	19.25
3859.197	19.25
3861.806	21.25
3864.414	18.25
3867.019	17.25
3869.622	15.25
3872.224	16.25
3874.823	17.25
3877.421	18.25
3880.016	21.25
3882.61	23.25
3885.202	19.25
3887.792	21.25
3890.38	15.25
3892.966	17.25
3895.55	11.25
3898.132	13.25
3900.713	7.25
3903.291	10.25
3905.868	11.25
3908.442	9.25
3911.015	9.25
3913.586	9.25
3916.155	6.25
3918.722	6.25
3921.287	6.25
3923.85	4.25
3926.411	2.25
3928.971	2.25
3931.528	8.25
3934.084	2.25
3936.638	2.25
3939.19	2.25
3941.74	2.25
3944.288	3.25
3946.834	1.25
3949.378	-2.75
3951.921	0.25
3954.462	-2.75
3957	-1.75
3959.537	0.25
3962.072	1.25
3964.606	-1.75
3967.137	-1.75
3969.667	0.25
3972.194	-1.75
3974.72	-0.75
3977.244	1.25
3979.766	-1.75
3982.286	-1.75
3984.805	-0.75
3987.321	-0.75
3989.836	-0.75
3992.349	-3.75
3994.86	-0.75
3997.369	3.25
3999.877	0.25
4002.382	0.25
4004.886	0.25
4007.388	-2.75
4009.888	-0.75
4012.386	-3.75
4014.883	-3.75
4017.377	-4.75
4019.87	-3.75
4022.361	-0.75
4024.85	-6.75
4027.338	-4.75
4029.823	-6.75
4032.307	-2.75
4034.789	-6.75
4037.269	-7.75
4039.747	-6.75
4042.224	-5.75
4044.699	-4.75
4047.172	-3.75
4049.643	-7.75
4052.112	-9.75
4054.58	-7.75
4057.046	-9.75
4059.51	-6.75
4061.972	-5.75
4064.432	-5.75
4066.891	-4.75
4069.348	-2.75
4071.803	-6.75
4074.256	-7.75
4076.708	-7.75
4079.158	-4.75
4081.606	-6.75
4084.052	-3.75
4086.497	-2.75
4088.939	-6.75
4091.38	-4.75
4093.819	-8.75
4096.257	-11.75
4098.693	-9.75
4101.127	-11.75
4103.559	-10.75
4105.989	-2.75
4108.418	0.25
4110.845	-3.75
4113.27	-1.75
4115.694	0.25
4118.115	2.25
4120.535	-4.75
4122.954	-5.75
4125.37	-5.75
4127.785	-8.75
4130.198	-6.75
4132.609	-7.75
4135.019	-9.75
4137.427	-11.75
4139.833	-11.75
4142.237	-10.75
