Data from h100_RamanShift_01.txt Node
Date: Mon Mar 19 12:37:23 IST 2018
User: aro
Spectrometer: QEPB0276
Trigger mode: 0
Integration Time (sec): 5.000000E0
Scans to average: 1
Electric dark correction enabled: true
Nonlinearity correction enabled: false
Boxcar width: 0
XAxis mode: Raman Shifts
Number of Pixels in Spectrum: 1044
>>>>>Begin Spectral Data<<<<<
160.701	-0.8
166.742	1.2
172.777	4.2
178.805	16.2
184.826	34.2
190.841	72.2
196.849	115.2
202.85	144.2
208.845	153.2
214.833	158.2
220.815	155.2
226.789	158.2
232.758	159.2
238.719	161.2
244.674	167.2
250.623	169.2
256.565	165.2
262.5	166.2
268.429	163.2
274.351	157.2
280.267	165.2
286.176	161.2
292.079	155.2
297.975	161.2
303.865	161.2
309.748	161.2
315.625	167.2
321.495	169.2
327.359	176.2
333.217	173.2
339.068	163.2
344.912	168.2
350.751	163.2
356.583	157.2
362.408	158.2
368.227	158.2
374.04	163.2
379.847	171.2
385.647	182.2
391.44	189.2
397.228	202.2
403.009	218.2
408.784	214.2
414.553	207.2
420.315	208.2
426.071	209.2
431.821	195.2
437.565	177.2
443.302	167.2
449.033	172.2
454.758	176.2
460.477	175.2
466.189	169.2
471.896	159.2
477.596	158.2
483.29	153.2
488.978	150.2
494.66	155.2
500.335	152.2
506.005	141.2
511.668	140.2
517.325	130.2
522.977	124.2
528.622	137.2
534.261	130.2
539.894	125.2
545.521	124.2
551.141	112.2
556.756	114.2
562.365	105.2
567.968	103.2
573.565	105.2
579.155	101.2
584.74	104.2
590.319	103.2
595.892	103.2
601.459	103.2
607.02	98.2
612.575	97.2
618.124	99.2
623.667	93.2
629.204	89.2
634.735	90.2
640.261	96.2
645.781	94.2
651.294	104.2
656.802	103.2
662.304	93.2
667.8	93.2
673.29	87.2
678.775	87.2
684.254	85.2
689.726	81.2
695.193	88.2
700.655	88.2
706.11	89.2
711.56	90.2
717.004	88.2
722.442	83.2
727.874	84.2
733.301	80.2
738.722	80.2
744.137	80.2
749.547	78.2
754.951	86.2
760.349	94.2
765.741	93.2
771.128	94.2
776.509	89.2
781.885	95.2
787.254	94.2
792.618	97.2
797.977	108.2
803.33	126.2
808.677	157.2
814.019	180.2
819.355	175.2
824.686	142.2
830.011	116.2
835.33	125.2
840.644	144.2
845.952	152.2
851.255	149.2
856.552	131.2
861.844	105.2
867.13	94.2
872.41	90.2
877.686	83.2
882.955	79.2
888.219	80.2
893.478	79.2
898.731	85.2
903.979	88.2
909.221	93.2
914.458	84.2
919.69	83.2
924.916	77.2
930.136	79.2
935.351	80.2
940.561	82.2
945.766	93.2
950.965	83.2
956.158	83.2
961.347	84.2
966.529	91.2
971.707	96.2
976.879	106.2
982.046	109.2
987.208	94.2
992.364	88.2
997.515	88.2
1002.66	102.2
1007.801	98.2
1012.936	87.2
1018.066	85.2
1023.19	77.2
1028.309	79.2
1033.423	87.2
1038.532	97.2
1043.636	103.2
1048.734	97.2
1053.827	84.2
1058.915	84.2
1063.998	73.2
1069.075	72.2
1074.147	73.2
1079.214	69.2
1084.276	66.2
1089.333	76.2
1094.385	73.2
1099.431	76.2
1104.472	75.2
1109.509	73.2
1114.54	70.2
1119.565	68.2
1124.586	71.2
1129.602	70.2
1134.613	65.2
1139.618	74.2
1144.619	87.2
1149.614	100.2
1154.604	131.2
1159.589	145.2
1164.57	143.2
1169.545	126.2
1174.515	112.2
1179.48	97.2
1184.44	80.2
1189.395	71.2
1194.345	69.2
1199.29	62.2
1204.23	68.2
1209.165	74.2
1214.095	74.2
1219.021	85.2
1223.941	96.2
1228.856	88.2
1233.766	86.2
1238.672	68.2
1243.572	70.2
1248.467	67.2
1253.358	67.2
1258.244	72.2
1263.124	68.2
1268	63.2
1272.871	61.2
1277.737	58.2
1282.599	58.2
1287.455	62.2
1292.306	64.2
1297.153	71.2
1301.995	75.2
1306.832	78.2
1311.664	72.2
1316.491	77.2
1321.314	81.2
1326.132	98.2
1330.945	125.2
1335.753	144.2
1340.556	129.2
1345.354	97.2
1350.148	83.2
1354.937	80.2
1359.722	81.2
1364.501	87.2
1369.276	87.2
1374.046	82.2
1378.811	70.2
1383.572	61.2
1388.327	59.2
1393.079	58.2
1397.825	52.2
1402.567	49.2
1407.304	48.2
1412.036	48.2
1416.764	49.2
1421.487	50.2
1426.205	46.2
1430.919	58.2
1435.628	74.2
1440.333	92.2
1445.032	101.2
1449.727	104.2
1454.418	128.2
1459.104	144.2
1463.785	164.2
1468.462	159.2
1473.134	127.2
1477.802	84.2
1482.465	67.2
1487.123	56.2
1491.777	50.2
1496.426	52.2
1501.071	44.2
1505.711	46.2
1510.347	44.2
1514.978	41.2
1519.604	44.2
1524.226	41.2
1528.844	47.2
1533.457	44.2
1538.065	44.2
1542.669	40.2
1547.269	39.2
1551.864	34.2
1556.454	41.2
1561.041	40.2
1565.622	36.2
1570.199	39.2
1574.772	38.2
1579.34	39.2
1583.904	41.2
1588.464	41.2
1593.019	34.2
1597.569	35.2
1602.115	41.2
1606.657	34.2
1611.195	39.2
1615.728	40.2
1620.256	35.2
1624.78	38.2
1629.3	36.2
1633.816	34.2
1638.327	39.2
1642.834	38.2
1647.336	33.2
1651.834	33.2
1656.328	35.2
1660.817	37.2
1665.302	39.2
1669.783	38.2
1674.259	34.2
1678.732	35.2
1683.199	30.2
1687.663	35.2
1692.122	35.2
1696.577	37.2
1701.028	38.2
1705.474	36.2
1709.917	32.2
1714.355	29.2
1718.788	28.2
1723.218	29.2
1727.643	28.2
1732.064	29.2
1736.481	30.2
1740.893	28.2
1745.301	34.2
1749.705	30.2
1754.105	30.2
1758.501	22.2
1762.893	23.2
1767.28	24.2
1771.663	23.2
1776.042	24.2
1780.417	27.2
1784.787	27.2
1789.154	23.2
1793.516	23.2
1797.874	25.2
1802.228	23.2
1806.578	16.2
1810.924	23.2
1815.266	22.2
1819.603	22.2
1823.937	24.2
1828.266	24.2
1832.591	20.2
1836.913	15.2
1841.23	18.2
1845.543	18.2
1849.852	18.2
1854.156	22.2
1858.457	20.2
1862.754	25.2
1867.047	22.2
1871.335	25.2
1875.62	20.2
1879.9	21.2
1884.177	19.2
1888.449	17.2
1892.718	22.2
1896.982	21.2
1901.243	25.2
1905.499	25.2
1909.752	22.2
1914	21.2
1918.245	17.2
1922.485	17.2
1926.722	20.2
1930.954	16.2
1935.183	17.2
1939.408	24.2
1943.628	22.2
1947.845	19.2
1952.058	21.2
1956.267	15.2
1960.472	13.2
1964.673	14.2
1968.87	17.2
1973.063	19.2
1977.252	20.2
1981.438	17.2
1985.619	19.2
1989.797	18.2
1993.971	13.2
1998.14	14.2
2002.306	11.2
2006.469	15.2
2010.627	16.2
2014.781	16.2
2018.932	18.2
2023.078	17.2
2027.221	17.2
2031.36	15.2
2035.495	13.2
2039.627	11.2
2043.754	13.2
2047.878	13.2
2051.998	16.2
2056.114	16.2
2060.226	19.2
2064.334	11.2
2068.439	11.2
2072.54	8.2
2076.637	13.2
2080.73	13.2
2084.82	12.2
2088.906	15.2
2092.988	17.2
2097.066	9.2
2101.14	13.2
2105.211	16.2
2109.278	15.2
2113.342	13.2
2117.401	13.2
2121.457	12.2
2125.509	12.2
2129.558	9.2
2133.602	11.2
2137.643	10.2
2141.681	8.2
2145.714	10.2
2149.744	12.2
2153.77	9.2
2157.793	15.2
2161.812	14.2
2165.827	11.2
2169.838	8.2
2173.846	6.2
2177.851	7.2
2181.851	8.2
2185.848	10.2
2189.841	12.2
2193.831	9.2
2197.817	11.2
2201.799	9.2
2205.778	8.2
2209.753	6.2
2213.725	4.2
2217.693	8.2
2221.657	4.2
2225.618	13.2
2229.575	10.2
2233.529	10.2
2237.479	5.2
2241.425	3.2
2245.368	6.2
2249.307	3.2
2253.243	4.2
2257.175	2.2
2261.104	9.2
2265.029	9.2
2268.95	8.2
2272.868	5.2
2276.783	4.2
2280.694	5.2
2284.601	4.2
2288.505	4.2
2292.405	4.2
2296.302	9.2
2300.195	10.2
2304.085	6.2
2307.971	4.2
2311.854	3.2
2315.734	1.2
2319.609	1.2
2323.482	5.2
2327.351	3.2
2331.216	8.2
2335.078	6.2
2338.937	8.2
2342.792	1.2
2346.643	1.2
2350.492	4.2
2354.336	2.2
2358.178	3.2
2362.015	-0.8
2365.85	3.2
2369.681	5.2
2373.508	0.2
2377.333	1.2
2381.153	4.2
2384.971	2.2
2388.785	4.2
2392.595	4.2
2396.402	8.2
2400.206	2.2
2404.007	1.2
2407.804	-0.8
2411.597	1.2
2415.388	1.2
2419.174	6.2
2422.958	5.2
2426.738	2.2
2430.515	4.2
2434.289	4.2
2438.059	1.2
2441.825	-4.8
2445.589	-1.8
2449.349	-0.8
2453.106	0.2
2456.859	0.2
2460.61	3.2
2464.356	6.2
2468.1	4.2
2471.84	0.2
2475.577	-2.8
2479.311	-3.8
2483.041	0.2
2486.768	-0.8
2490.492	-0.8
2494.213	3.2
2497.93	-0.8
2501.644	3.2
2505.355	1.2
2509.062	1.2
2512.766	1.2
2516.467	-1.8
2520.165	1.2
2523.859	3.2
2527.551	-0.8
2531.239	1.2
2534.923	2.2
2538.605	1.2
2542.283	-1.8
2545.958	1.2
2549.63	-0.8
2553.299	0.2
2556.964	2.2
2560.626	1.2
2564.285	-2.8
2567.941	2.2
2571.594	2.2
2575.243	-2.8
2578.89	0.2
2582.533	0.2
2586.173	1.2
2589.809	0.2
2593.443	4.2
2597.073	-0.8
2600.701	-0.8
2604.325	0.2
2607.946	2.2
2611.564	4.2
2615.178	4.2
2618.79	2.2
2622.398	1.2
2626.004	0.2
2629.606	-1.8
2633.205	1.2
2636.801	4.2
2640.394	1.2
2643.983	0.2
2647.57	6.2
2651.153	7.2
2654.734	4.2
2658.311	3.2
2661.885	1.2
2665.456	3.2
2669.025	0.2
2672.589	6.2
2676.151	4.2
2679.71	7.2
2683.266	6.2
2686.819	7.2
2690.368	-0.8
2693.915	-0.8
2697.458	-3.8
2700.999	4.2
2704.536	4.2
2708.071	5.2
2711.602	9.2
2715.13	11.2
2718.656	5.2
2722.178	7.2
2725.697	3.2
2729.214	1.2
2732.727	4.2
2736.237	6.2
2739.744	7.2
2743.249	9.2
2746.75	7.2
2750.248	5.2
2753.743	2.2
2757.236	2.2
2760.725	-0.8
2764.211	0.2
2767.695	3.2
2771.175	3.2
2774.652	3.2
2778.127	2.2
2781.598	3.2
2785.067	0.2
2788.532	-0.8
2791.995	-0.8
2795.455	4.2
2798.911	4.2
2802.365	5.2
2805.816	5.2
2809.264	4.2
2812.709	8.2
2816.151	7.2
2819.59	2.2
2823.026	6.2
2826.46	7.2
2829.89	15.2
2833.318	18.2
2836.742	24.2
2840.164	36.2
2843.583	36.2
2846.999	41.2
2850.412	41.2
2853.822	32.2
2857.229	33.2
2860.634	34.2
2864.035	38.2
2867.434	51.2
2870.83	62.2
2874.223	70.2
2877.613	74.2
2881	71.2
2884.385	76.2
2887.766	84.2
2891.145	90.2
2894.521	81.2
2897.894	78.2
2901.264	74.2
2904.631	63.2
2907.996	69.2
2911.358	67.2
2914.717	57.2
2918.073	54.2
2921.426	50.2
2924.777	49.2
2928.124	44.2
2931.469	44.2
2934.811	42.2
2938.15	43.2
2941.487	33.2
2944.821	35.2
2948.152	28.2
2951.48	33.2
2954.805	37.2
2958.128	42.2
2961.447	36.2
2964.765	37.2
2968.079	39.2
2971.39	31.2
2974.699	29.2
2978.005	19.2
2981.308	14.2
2984.609	12.2
2987.907	10.2
2991.202	8.2
2994.494	8.2
2997.784	13.2
3001.07	6.2
3004.355	6.2
3007.636	2.2
3010.915	4.2
3014.191	5.2
3017.464	2.2
3020.734	5.2
3024.002	0.2
3027.267	7.2
3030.53	4.2
3033.789	5.2
3037.046	2.2
3040.301	1.2
3043.552	0.2
3046.801	-0.8
3050.048	0.2
3053.291	1.2
3056.532	-1.8
3059.771	7.2
3063.006	2.2
3066.239	0.2
3069.469	2.2
3072.697	-0.8
3075.922	-0.8
3079.144	0.2
3082.364	0.2
3085.581	1.2
3088.795	7.2
3092.007	3.2
3095.216	4.2
3098.423	0.2
3101.627	0.2
3104.828	2.2
3108.026	2.2
3111.222	2.2
3114.416	5.2
3117.607	7.2
3120.795	6.2
3123.98	9.2
3127.163	3.2
3130.344	4.2
3133.521	7.2
3136.696	2.2
3139.869	5.2
3143.039	7.2
3146.206	6.2
3149.371	7.2
3152.533	6.2
3155.693	5.2
3158.85	3.2
3162.005	6.2
3165.157	2.2
3168.306	2.2
3171.453	5.2
3174.597	8.2
3177.739	8.2
3180.878	8.2
3184.014	5.2
3187.149	5.2
3190.28	1.2
3193.409	1.2
3196.536	2.2
3199.659	7.2
3202.781	8.2
3205.9	9.2
3209.016	10.2
3212.13	5.2
3215.241	2.2
3218.35	8.2
3221.456	6.2
3224.56	5.2
3227.661	4.2
3230.76	10.2
3233.856	8.2
3236.95	9.2
3240.041	4.2
3243.13	0.2
3246.216	1.2
3249.3	1.2
3252.382	5.2
3255.46	4.2
3258.537	6.2
3261.611	7.2
3264.682	6.2
3267.751	5.2
3270.818	4.2
3273.882	2.2
3276.943	3.2
3280.002	-2.8
3283.059	-0.8
3286.113	5.2
3289.165	4.2
3292.214	3.2
3295.261	2.2
3298.306	3.2
3301.348	2.2
3304.387	0.2
3307.425	1.2
3310.459	2.2
3313.492	0.2
3316.521	4.2
3319.549	4.2
3322.574	4.2
3325.597	2.2
3328.617	-1.8
3331.635	2.2
3334.65	-0.8
3337.663	-0.8
3340.674	2.2
3343.682	1.2
3346.688	2.2
3349.691	4.2
3352.692	0.2
3355.691	0.2
3358.687	-2.8
3361.681	3.2
3364.673	1.2
3367.662	-0.8
3370.649	5.2
3373.633	2.2
3376.615	3.2
3379.595	-3.8
3382.572	4.2
3385.547	0.2
3388.52	-0.8
3391.49	3.2
3394.458	0.2
3397.424	-0.8
3400.387	2.2
3403.348	-2.8
3406.307	-0.8
3409.263	7.2
3412.217	0.2
3415.168	1.2
3418.118	0.2
3421.065	2.2
3424.009	-1.8
3426.951	-0.8
3429.891	-0.8
3432.829	-1.8
3435.764	2.2
3438.697	0.2
3441.628	-1.8
3444.557	-1.8
3447.483	0.2
3450.407	-1.8
3453.328	3.2
3456.247	-5.8
3459.164	-1.8
3462.079	0.2
3464.991	-0.8
3467.902	-1.8
3470.809	-0.8
3473.715	-0.8
3476.618	-0.8
3479.519	-7.8
3482.418	-4.8
3485.315	-5.8
3488.209	-4.8
3491.101	-1.8
3493.99	-2.8
3496.878	0.2
3499.763	-2.8
3502.646	0.2
3505.527	-4.8
3508.405	-5.8
3511.281	-5.8
3514.155	-6.8
3517.027	-2.8
3519.897	-0.8
3522.764	-3.8
3525.629	-3.8
3528.492	-3.8
3531.352	-2.8
3534.211	-0.8
3537.067	-8.8
3539.921	-6.8
3542.773	-3.8
3545.622	-3.8
3548.469	-5.8
3551.315	-0.8
3554.157	-1.8
3556.998	0.2
3559.837	-5.8
3562.673	-6.8
3565.507	-6.8
3568.339	-5.8
3571.169	-3.8
3573.996	-4.8
3576.822	-9.8
3579.645	-6.8
3582.466	-3.8
3585.285	-3.8
3588.101	-4.8
3590.916	-2.8
3593.728	-4.8
3596.538	-9.8
3599.346	-8.8
3602.152	-9.8
3604.956	-7.8
3607.757	-6.8
3610.556	-5.8
3613.354	-3.8
3616.149	-4.8
3618.942	-4.8
3621.732	-2.8
3624.521	-3.8
3627.307	-6.8
3630.092	-5.8
3632.874	-7.8
3635.654	-5.8
3638.432	-6.8
3641.208	-3.8
3643.982	-3.8
3646.753	-4.8
3649.523	-10.8
3652.29	-8.8
3655.055	-10.8
3657.818	-6.8
3660.579	-1.8
3663.338	-4.8
3666.095	-3.8
3668.849	-3.8
3671.602	-4.8
3674.352	-0.8
3677.101	-7.8
3679.847	-8.8
3682.591	-7.8
3685.333	-5.8
3688.073	-5.8
3690.811	-0.8
3693.547	-2.8
3696.281	-7.8
3699.013	-6.8
3701.742	-7.8
3704.47	-9.8
3707.195	-9.8
3709.919	-7.8
3712.64	-3.8
3715.359	-3.8
3718.076	-4.8
3720.792	-0.8
3723.505	-3.8
3726.216	-4.8
3728.925	-8.8
3731.632	-10.8
3734.336	-10.8
3737.039	-4.8
3739.74	-6.8
3742.439	-7.8
3745.136	-1.8
3747.83	-4.8
3750.523	-5.8
3753.213	-4.8
3755.902	-2.8
3758.589	-6.8
3761.273	-5.8
3763.956	-7.8
3766.636	-7.8
3769.315	-7.8
3771.991	-8.8
3774.665	-3.8
3777.338	-2.8
3780.008	-3.8
3782.677	-7.8
3785.343	-8.8
3788.007	-7.8
3790.67	-5.8
3793.33	-6.8
3795.989	-4.8
3798.645	-6.8
3801.299	-7.8
3803.952	-4.8
3806.602	-6.8
3809.251	-7.8
3811.897	-8.8
3814.542	-5.8
3817.184	-8.8
3819.825	-9.8
3822.463	-8.8
3825.1	-6.8
3827.735	-3.8
3830.367	-3.8
3832.998	-5.8
3835.627	-2.8
3838.253	-8.8
3840.878	-8.8
3843.501	-10.8
3846.122	-9.8
3848.741	-5.8
3851.358	-5.8
3853.973	-4.8
3856.586	-4.8
3859.197	-4.8
3861.806	-7.8
3864.414	-10.8
3867.019	-8.8
3869.622	-7.8
3872.224	-6.8
3874.823	-5.8
3877.421	0.2
3880.016	-2.8
3882.61	0.2
3885.202	3.2
3887.792	-3.8
3890.38	-8.8
3892.966	-10.8
3895.55	-6.8
3898.132	-4.8
3900.713	-1.8
3903.291	-3.8
3905.868	-2.8
3908.442	-5.8
3911.015	-9.8
3913.586	-6.8
3916.155	-8.8
3918.722	-7.8
3921.287	-4.8
3923.85	-2.8
3926.411	-3.8
3928.971	-7.8
3931.528	-4.8
3934.084	-7.8
3936.638	-10.8
3939.19	-9.8
3941.74	-7.8
3944.288	-8.8
3946.834	-3.8
3949.378	-1.8
3951.921	-4.8
3954.462	-7.8
3957	-5.8
3959.537	-3.8
3962.072	-6.8
3964.606	-7.8
3967.137	-5.8
3969.667	-3.8
3972.194	-6.8
3974.72	-6.8
3977.244	-4.8
3979.766	-5.8
3982.286	-10.8
3984.805	-6.8
3987.321	-6.8
3989.836	-7.8
3992.349	-3.8
3994.86	-1.8
3997.369	-5.8
3999.877	-5.8
4002.382	-6.8
4004.886	-8.8
4007.388	-7.8
4009.888	-9.8
4012.386	-6.8
4014.883	-9.8
4017.377	-5.8
4019.87	-5.8
4022.361	-1.8
4024.85	-7.8
4027.338	-9.8
4029.823	-4.8
4032.307	-5.8
4034.789	-10.8
4037.269	-6.8
4039.747	-3.8
4042.224	-6.8
4044.699	-4.8
4047.172	-4.8
4049.643	-9.8
4052.112	-9.8
4054.58	-5.8
4057.046	-9.8
4059.51	-6.8
4061.972	-3.8
4064.432	-4.8
4066.891	-4.8
4069.348	-3.8
4071.803	-5.8
4074.256	-12.8
4076.708	-3.8
4079.158	-2.8
4081.606	-9.8
4084.052	-5.8
4086.497	-5.8
4088.939	-4.8
4091.38	-1.8
4093.819	-5.8
4096.257	-4.8
4098.693	-6.8
4101.127	-5.8
4103.559	-4.8
4105.989	5.2
4108.418	-0.8
4110.845	-1.8
4113.27	-1.8
4115.694	-0.8
4118.115	1.2
4120.535	-9.8
4122.954	-5.8
4125.37	-10.8
4127.785	-10.8
4130.198	-7.8
4132.609	-6.8
4135.019	-4.8
4137.427	-4.8
4139.833	-4.8
4142.237	-6.8
