Data from h150_RamanShift_03.txt Node
Date: Mon Mar 19 12:38:18 IST 2018
User: aro
Spectrometer: QEPB0276
Trigger mode: 0
Integration Time (sec): 5.000000E0
Scans to average: 1
Electric dark correction enabled: true
Nonlinearity correction enabled: false
Boxcar width: 0
XAxis mode: Raman Shifts
Number of Pixels in Spectrum: 1044
>>>>>Begin Spectral Data<<<<<
160.701	0.8
166.742	0.8
172.777	6.8
178.805	15.8
184.826	45.8
190.841	89.8
196.849	140.8
202.85	181.8
208.845	185.8
214.833	184.8
220.815	184.8
226.789	185.8
232.758	187.8
238.719	193.8
244.674	200.8
250.623	196.8
256.565	195.8
262.5	192.8
268.429	185.8
274.351	180.8
280.267	183.8
286.176	178.8
292.079	175.8
297.975	175.8
303.865	180.8
309.748	184.8
315.625	184.8
321.495	189.8
327.359	195.8
333.217	193.8
339.068	182.8
344.912	180.8
350.751	182.8
356.583	176.8
362.408	183.8
368.227	177.8
374.04	180.8
379.847	184.8
385.647	197.8
391.44	208.8
397.228	221.8
403.009	240.8
408.784	243.8
414.553	238.8
420.315	228.8
426.071	231.8
431.821	210.8
437.565	188.8
443.302	186.8
449.033	193.8
454.758	193.8
460.477	198.8
466.189	196.8
471.896	186.8
477.596	180.8
483.29	172.8
488.978	170.8
494.66	168.8
500.335	171.8
506.005	157.8
511.668	151.8
517.325	148.8
522.977	146.8
528.622	148.8
534.261	147.8
539.894	144.8
545.521	133.8
551.141	128.8
556.756	124.8
562.365	120.8
567.968	118.8
573.565	120.8
579.155	121.8
584.74	116.8
590.319	114.8
595.892	112.8
601.459	119.8
607.02	111.8
612.575	111.8
618.124	110.8
623.667	108.8
629.204	107.8
634.735	111.8
640.261	113.8
645.781	108.8
651.294	120.8
656.802	118.8
662.304	109.8
667.8	104.8
673.29	99.8
678.775	102.8
684.254	103.8
689.726	97.8
695.193	103.8
700.655	106.8
706.11	104.8
711.56	99.8
717.004	97.8
722.442	95.8
727.874	91.8
733.301	91.8
738.722	96.8
744.137	97.8
749.547	93.8
754.951	105.8
760.349	101.8
765.741	97.8
771.128	99.8
776.509	100.8
781.885	107.8
787.254	108.8
792.618	110.8
797.977	123.8
803.33	145.8
808.677	175.8
814.019	208.8
819.355	196.8
824.686	155.8
830.011	133.8
835.33	142.8
840.644	160.8
845.952	177.8
851.255	171.8
856.552	149.8
861.844	119.8
867.13	105.8
872.41	101.8
877.686	97.8
882.955	89.8
888.219	90.8
893.478	94.8
898.731	103.8
903.979	102.8
909.221	106.8
914.458	94.8
919.69	94.8
924.916	84.8
930.136	84.8
935.351	85.8
940.561	95.8
945.766	105.8
950.965	100.8
956.158	95.8
961.347	97.8
966.529	101.8
971.707	105.8
976.879	123.8
982.046	124.8
987.208	107.8
992.364	93.8
997.515	102.8
1002.66	113.8
1007.801	112.8
1012.936	98.8
1018.066	96.8
1023.19	88.8
1028.309	91.8
1033.423	99.8
1038.532	106.8
1043.636	114.8
1048.734	117.8
1053.827	101.8
1058.915	92.8
1063.998	86.8
1069.075	79.8
1074.147	76.8
1079.214	73.8
1084.276	79.8
1089.333	79.8
1094.385	84.8
1099.431	87.8
1104.472	89.8
1109.509	87.8
1114.54	88.8
1119.565	79.8
1124.586	78.8
1129.602	72.8
1134.613	82.8
1139.618	82.8
1144.619	97.8
1149.614	119.8
1154.604	148.8
1159.589	164.8
1164.57	156.8
1169.545	139.8
1174.515	130.8
1179.48	107.8
1184.44	92.8
1189.395	81.8
1194.345	73.8
1199.29	78.8
1204.23	81.8
1209.165	77.8
1214.095	82.8
1219.021	103.8
1223.941	108.8
1228.856	106.8
1233.766	89.8
1238.672	85.8
1243.572	81.8
1248.467	77.8
1253.358	77.8
1258.244	78.8
1263.124	72.8
1268	67.8
1272.871	71.8
1277.737	64.8
1282.599	75.8
1287.455	74.8
1292.306	79.8
1297.153	75.8
1301.995	83.8
1306.832	81.8
1311.664	80.8
1316.491	84.8
1321.314	91.8
1326.132	113.8
1330.945	141.8
1335.753	166.8
1340.556	151.8
1345.354	110.8
1350.148	92.8
1354.937	85.8
1359.722	92.8
1364.501	105.8
1369.276	99.8
1374.046	92.8
1378.811	82.8
1383.572	74.8
1388.327	64.8
1393.079	62.8
1397.825	56.8
1402.567	57.8
1407.304	53.8
1412.036	55.8
1416.764	55.8
1421.487	57.8
1426.205	60.8
1430.919	67.8
1435.628	82.8
1440.333	106.8
1445.032	109.8
1449.727	112.8
1454.418	139.8
1459.104	165.8
1463.785	192.8
1468.462	184.8
1473.134	144.8
1477.802	95.8
1482.465	69.8
1487.123	66.8
1491.777	57.8
1496.426	55.8
1501.071	54.8
1505.711	53.8
1510.347	51.8
1514.978	55.8
1519.604	52.8
1524.226	49.8
1528.844	46.8
1533.457	48.8
1538.065	51.8
1542.669	46.8
1547.269	49.8
1551.864	48.8
1556.454	52.8
1561.041	44.8
1565.622	43.8
1570.199	46.8
1574.772	42.8
1579.34	45.8
1583.904	49.8
1588.464	46.8
1593.019	45.8
1597.569	47.8
1602.115	51.8
1606.657	45.8
1611.195	46.8
1615.728	45.8
1620.256	45.8
1624.78	44.8
1629.3	43.8
1633.816	41.8
1638.327	45.8
1642.834	50.8
1647.336	43.8
1651.834	44.8
1656.328	43.8
1660.817	40.8
1665.302	44.8
1669.783	44.8
1674.259	46.8
1678.732	42.8
1683.199	41.8
1687.663	41.8
1692.122	40.8
1696.577	41.8
1701.028	41.8
1705.474	40.8
1709.917	39.8
1714.355	38.8
1718.788	40.8
1723.218	38.8
1727.643	34.8
1732.064	31.8
1736.481	34.8
1740.893	29.8
1745.301	35.8
1749.705	35.8
1754.105	34.8
1758.501	31.8
1762.893	31.8
1767.28	29.8
1771.663	27.8
1776.042	25.8
1780.417	26.8
1784.787	28.8
1789.154	28.8
1793.516	29.8
1797.874	32.8
1802.228	31.8
1806.578	25.8
1810.924	31.8
1815.266	25.8
1819.603	23.8
1823.937	26.8
1828.266	24.8
1832.591	23.8
1836.913	23.8
1841.23	25.8
1845.543	22.8
1849.852	26.8
1854.156	25.8
1858.457	23.8
1862.754	24.8
1867.047	23.8
1871.335	26.8
1875.62	23.8
1879.9	26.8
1884.177	28.8
1888.449	22.8
1892.718	25.8
1896.982	23.8
1901.243	23.8
1905.499	22.8
1909.752	20.8
1914	25.8
1918.245	23.8
1922.485	22.8
1926.722	24.8
1930.954	21.8
1935.183	22.8
1939.408	21.8
1943.628	28.8
1947.845	22.8
1952.058	26.8
1956.267	21.8
1960.472	21.8
1964.673	21.8
1968.87	20.8
1973.063	25.8
1977.252	20.8
1981.438	20.8
1985.619	20.8
1989.797	18.8
1993.971	16.8
1998.14	17.8
2002.306	20.8
2006.469	18.8
2010.627	18.8
2014.781	25.8
2018.932	21.8
2023.078	17.8
2027.221	17.8
2031.36	14.8
2035.495	16.8
2039.627	15.8
2043.754	17.8
2047.878	22.8
2051.998	22.8
2056.114	18.8
2060.226	21.8
2064.334	16.8
2068.439	14.8
2072.54	13.8
2076.637	17.8
2080.73	16.8
2084.82	16.8
2088.906	18.8
2092.988	19.8
2097.066	16.8
2101.14	17.8
2105.211	15.8
2109.278	15.8
2113.342	14.8
2117.401	14.8
2121.457	14.8
2125.509	18.8
2129.558	17.8
2133.602	17.8
2137.643	12.8
2141.681	13.8
2145.714	12.8
2149.744	13.8
2153.77	11.8
2157.793	19.8
2161.812	16.8
2165.827	14.8
2169.838	12.8
2173.846	13.8
2177.851	14.8
2181.851	14.8
2185.848	17.8
2189.841	13.8
2193.831	6.8
2197.817	12.8
2201.799	10.8
2205.778	10.8
2209.753	8.8
2213.725	11.8
2217.693	11.8
2221.657	9.8
2225.618	10.8
2229.575	11.8
2233.529	10.8
2237.479	7.8
2241.425	9.8
2245.368	11.8
2249.307	7.8
2253.243	13.8
2257.175	9.8
2261.104	14.8
2265.029	11.8
2268.95	6.8
2272.868	10.8
2276.783	4.8
2280.694	9.8
2284.601	6.8
2288.505	5.8
2292.405	8.8
2296.302	9.8
2300.195	10.8
2304.085	6.8
2307.971	4.8
2311.854	2.8
2315.734	5.8
2319.609	3.8
2323.482	7.8
2327.351	6.8
2331.216	12.8
2335.078	11.8
2338.937	11.8
2342.792	4.8
2346.643	5.8
2350.492	4.8
2354.336	3.8
2358.178	4.8
2362.015	4.8
2365.85	10.8
2369.681	7.8
2373.508	3.8
2377.333	3.8
2381.153	2.8
2384.971	6.8
2388.785	4.8
2392.595	7.8
2396.402	5.8
2400.206	6.8
2404.007	2.8
2407.804	4.8
2411.597	4.8
2415.388	1.8
2419.174	4.8
2422.958	9.8
2426.738	1.8
2430.515	9.8
2434.289	3.8
2438.059	6.8
2441.825	4.8
2445.589	3.8
2449.349	6.8
2453.106	5.8
2456.859	5.8
2460.61	5.8
2464.356	6.8
2468.1	3.8
2471.84	3.8
2475.577	4.8
2479.311	2.8
2483.041	5.8
2486.768	2.8
2490.492	3.8
2494.213	4.8
2497.93	-0.2
2501.644	1.8
2505.355	2.8
2509.062	1.8
2512.766	5.8
2516.467	0.8
2520.165	4.8
2523.859	7.8
2527.551	2.8
2531.239	6.8
2534.923	-0.2
2538.605	1.8
2542.283	0.8
2545.958	3.8
2549.63	5.8
2553.299	8.8
2556.964	6.8
2560.626	3.8
2564.285	1.8
2567.941	-1.2
2571.594	-2.2
2575.243	-2.2
2578.89	3.8
2582.533	3.8
2586.173	5.8
2589.809	7.8
2593.443	7.8
2597.073	7.8
2600.701	2.8
2604.325	0.8
2607.946	1.8
2611.564	8.8
2615.178	8.8
2618.79	4.8
2622.398	7.8
2626.004	6.8
2629.606	7.8
2633.205	2.8
2636.801	4.8
2640.394	1.8
2643.983	4.8
2647.57	3.8
2651.153	8.8
2654.734	7.8
2658.311	7.8
2661.885	5.8
2665.456	6.8
2669.025	4.8
2672.589	8.8
2676.151	3.8
2679.71	7.8
2683.266	0.8
2686.819	8.8
2690.368	4.8
2693.915	7.8
2697.458	4.8
2700.999	10.8
2704.536	4.8
2708.071	7.8
2711.602	6.8
2715.13	7.8
2718.656	8.8
2722.178	7.8
2725.697	7.8
2729.214	10.8
2732.727	11.8
2736.237	7.8
2739.744	9.8
2743.249	8.8
2746.75	5.8
2750.248	0.8
2753.743	4.8
2757.236	7.8
2760.725	3.8
2764.211	5.8
2767.695	9.8
2771.175	5.8
2774.652	5.8
2778.127	5.8
2781.598	1.8
2785.067	1.8
2788.532	3.8
2791.995	2.8
2795.455	6.8
2798.911	11.8
2802.365	8.8
2805.816	11.8
2809.264	6.8
2812.709	8.8
2816.151	7.8
2819.59	11.8
2823.026	9.8
2826.46	16.8
2829.89	19.8
2833.318	24.8
2836.742	27.8
2840.164	39.8
2843.583	39.8
2846.999	44.8
2850.412	38.8
2853.822	39.8
2857.229	38.8
2860.634	37.8
2864.035	42.8
2867.434	56.8
2870.83	62.8
2874.223	73.8
2877.613	73.8
2881	82.8
2884.385	81.8
2887.766	91.8
2891.145	97.8
2894.521	92.8
2897.894	89.8
2901.264	81.8
2904.631	74.8
2907.996	72.8
2911.358	69.8
2914.717	59.8
2918.073	59.8
2921.426	62.8
2924.777	54.8
2928.124	53.8
2931.469	51.8
2934.811	50.8
2938.15	41.8
2941.487	38.8
2944.821	34.8
2948.152	35.8
2951.48	38.8
2954.805	47.8
2958.128	46.8
2961.447	46.8
2964.765	43.8
2968.079	44.8
2971.39	36.8
2974.699	29.8
2978.005	21.8
2981.308	25.8
2984.609	15.8
2987.907	18.8
2991.202	17.8
2994.494	14.8
2997.784	13.8
3001.07	9.8
3004.355	8.8
3007.636	10.8
3010.915	8.8
3014.191	10.8
3017.464	6.8
3020.734	10.8
3024.002	8.8
3027.267	10.8
3030.53	9.8
3033.789	6.8
3037.046	2.8
3040.301	6.8
3043.552	5.8
3046.801	11.8
3050.048	6.8
3053.291	7.8
3056.532	6.8
3059.771	9.8
3063.006	4.8
3066.239	2.8
3069.469	4.8
3072.697	6.8
3075.922	7.8
3079.144	9.8
3082.364	9.8
3085.581	10.8
3088.795	11.8
3092.007	7.8
3095.216	5.8
3098.423	6.8
3101.627	4.8
3104.828	11.8
3108.026	10.8
3111.222	13.8
3114.416	13.8
3117.607	13.8
3120.795	10.8
3123.98	10.8
3127.163	9.8
3130.344	12.8
3133.521	15.8
3136.696	13.8
3139.869	15.8
3143.039	17.8
3146.206	13.8
3149.371	15.8
3152.533	14.8
3155.693	14.8
3158.85	12.8
3162.005	14.8
3165.157	14.8
3168.306	13.8
3171.453	14.8
3174.597	18.8
3177.739	13.8
3180.878	12.8
3184.014	8.8
3187.149	6.8
3190.28	9.8
3193.409	12.8
3196.536	13.8
3199.659	18.8
3202.781	13.8
3205.9	18.8
3209.016	19.8
3212.13	10.8
3215.241	11.8
3218.35	13.8
3221.456	11.8
3224.56	16.8
3227.661	13.8
3230.76	17.8
3233.856	13.8
3236.95	14.8
3240.041	9.8
3243.13	4.8
3246.216	8.8
3249.3	10.8
3252.382	15.8
3255.46	13.8
3258.537	13.8
3261.611	15.8
3264.682	12.8
3267.751	9.8
3270.818	8.8
3273.882	7.8
3276.943	12.8
3280.002	15.8
3283.059	12.8
3286.113	12.8
3289.165	10.8
3292.214	13.8
3295.261	7.8
3298.306	7.8
3301.348	3.8
3304.387	5.8
3307.425	11.8
3310.459	12.8
3313.492	13.8
3316.521	11.8
3319.549	7.8
3322.574	9.8
3325.597	4.8
3328.617	3.8
3331.635	8.8
3334.65	9.8
3337.663	11.8
3340.674	12.8
3343.682	10.8
3346.688	11.8
3349.691	9.8
3352.692	6.8
3355.691	5.8
3358.687	2.8
3361.681	7.8
3364.673	8.8
3367.662	10.8
3370.649	17.8
3373.633	5.8
3376.615	8.8
3379.595	0.8
3382.572	6.8
3385.547	2.8
3388.52	5.8
3391.49	8.8
3394.458	10.8
3397.424	8.8
3400.387	8.8
3403.348	5.8
3406.307	4.8
3409.263	7.8
3412.217	7.8
3415.168	2.8
3418.118	7.8
3421.065	10.8
3424.009	8.8
3426.951	8.8
3429.891	4.8
3432.829	3.8
3435.764	6.8
3438.697	1.8
3441.628	3.8
3444.557	3.8
3447.483	4.8
3450.407	6.8
3453.328	9.8
3456.247	1.8
3459.164	4.8
3462.079	3.8
3464.991	3.8
3467.902	0.8
3470.809	6.8
3473.715	2.8
3476.618	4.8
3479.519	-1.2
3482.418	4.8
3485.315	0.8
3488.209	3.8
3491.101	1.8
3493.99	-2.2
3496.878	0.8
3499.763	3.8
3502.646	1.8
3505.527	1.8
3508.405	2.8
3511.281	1.8
3514.155	0.8
3517.027	3.8
3519.897	3.8
3522.764	0.8
3525.629	-2.2
3528.492	-2.2
3531.352	-1.2
3534.211	-1.2
3537.067	-4.2
3539.921	-3.2
3542.773	-2.2
3545.622	3.8
3548.469	1.8
3551.315	2.8
3554.157	-3.2
3556.998	0.8
3559.837	-6.2
3562.673	-6.2
3565.507	-2.2
3568.339	-1.2
3571.169	0.8
3573.996	1.8
3576.822	0.8
3579.645	-2.2
3582.466	-3.2
3585.285	-0.2
3588.101	-3.2
3590.916	-2.2
3593.728	-1.2
3596.538	-0.2
3599.346	-1.2
3602.152	-0.2
3604.956	-2.2
3607.757	-6.2
3610.556	-5.2
3613.354	-2.2
3616.149	-5.2
3618.942	-2.2
3621.732	-1.2
3624.521	-0.2
3627.307	-4.2
3630.092	-2.2
3632.874	-4.2
3635.654	-3.2
3638.432	-5.2
3641.208	-4.2
3643.982	-2.2
3646.753	-2.2
3649.523	-7.2
3652.29	-1.2
3655.055	-8.2
3657.818	-5.2
3660.579	-2.2
3663.338	-3.2
3666.095	-2.2
3668.849	-0.2
3671.602	-4.2
3674.352	2.8
3677.101	-4.2
3679.847	-2.2
3682.591	-1.2
3685.333	-5.2
3688.073	-3.2
3690.811	-1.2
3693.547	-2.2
3696.281	-5.2
3699.013	-3.2
3701.742	-0.2
3704.47	-4.2
3707.195	-2.2
3709.919	-2.2
3712.64	-3.2
3715.359	-2.2
3718.076	-0.2
3720.792	-2.2
3723.505	-5.2
3726.216	-8.2
3728.925	-2.2
3731.632	-4.2
3734.336	-4.2
3737.039	-1.2
3739.74	-4.2
3742.439	-1.2
3745.136	-3.2
3747.83	-6.2
3750.523	-6.2
3753.213	-7.2
3755.902	-1.2
3758.589	-2.2
3761.273	0.8
3763.956	-1.2
3766.636	-1.2
3769.315	-5.2
3771.991	-10.2
3774.665	-5.2
3777.338	-4.2
3780.008	-3.2
3782.677	-2.2
3785.343	-2.2
3788.007	-0.2
3790.67	-0.2
3793.33	-5.2
3795.989	-5.2
3798.645	-7.2
3801.299	-6.2
3803.952	-2.2
3806.602	-5.2
3809.251	-1.2
3811.897	-3.2
3814.542	-4.2
3817.184	-5.2
3819.825	-6.2
3822.463	-4.2
3825.1	-3.2
3827.735	-5.2
3830.367	-0.2
3832.998	-2.2
3835.627	1.8
3838.253	-1.2
3840.878	-2.2
3843.501	-0.2
3846.122	-6.2
3848.741	-5.2
3851.358	-5.2
3853.973	-2.2
3856.586	-5.2
3859.197	-3.2
3861.806	-4.2
3864.414	-4.2
3867.019	-5.2
3869.622	-7.2
3872.224	-4.2
3874.823	-3.2
3877.421	-1.2
3880.016	-3.2
3882.61	-0.2
3885.202	2.8
3887.792	-0.2
3890.38	-3.2
3892.966	-3.2
3895.55	-4.2
3898.132	1.8
3900.713	-0.2
3903.291	-5.2
3905.868	-4.2
3908.442	-7.2
3911.015	-7.2
3913.586	-4.2
3916.155	-2.2
3918.722	-1.2
3921.287	-4.2
3923.85	-2.2
3926.411	-4.2
3928.971	-7.2
3931.528	-6.2
3934.084	-5.2
3936.638	-5.2
3939.19	-6.2
3941.74	-3.2
3944.288	-2.2
3946.834	-3.2
3949.378	-0.2
3951.921	-3.2
3954.462	-7.2
3957	-8.2
3959.537	-4.2
3962.072	-1.2
3964.606	-3.2
3967.137	-2.2
3969.667	0.8
3972.194	-6.2
3974.72	-5.2
3977.244	-6.2
3979.766	-4.2
3982.286	-7.2
3984.805	-4.2
3987.321	0.8
3989.836	-2.2
3992.349	-1.2
3994.86	1.8
3997.369	-6.2
3999.877	-5.2
4002.382	-8.2
4004.886	-5.2
4007.388	-5.2
4009.888	-3.2
4012.386	-2.2
4014.883	-4.2
4017.377	-2.2
4019.87	-3.2
4022.361	-1.2
4024.85	-6.2
4027.338	-5.2
4029.823	-3.2
4032.307	-3.2
4034.789	-1.2
4037.269	-0.2
4039.747	-0.2
4042.224	-2.2
4044.699	-6.2
4047.172	-5.2
4049.643	-8.2
4052.112	-5.2
4054.58	-4.2
4057.046	-3.2
4059.51	0.8
4061.972	-0.2
4064.432	-1.2
4066.891	-3.2
4069.348	-2.2
4071.803	-7.2
4074.256	-10.2
4076.708	-4.2
4079.158	0.8
4081.606	-6.2
4084.052	1.8
4086.497	-3.2
4088.939	-0.2
4091.38	-5.2
4093.819	-8.2
4096.257	-4.2
4098.693	-4.2
4101.127	-6.2
4103.559	-2.2
4105.989	4.8
4108.418	3.8
4110.845	3.8
4113.27	3.8
4115.694	2.8
4118.115	0.8
4120.535	-6.2
4122.954	-6.2
4125.37	-6.2
4127.785	-5.2
4130.198	-3.2
4132.609	-1.2
4135.019	-3.2
4137.427	-3.2
4139.833	-8.2
4142.237	-9.2
