Data from h150_RamanShift_02.txt Node
Date: Mon Mar 19 12:38:13 IST 2018
User: aro
Spectrometer: QEPB0276
Trigger mode: 0
Integration Time (sec): 5.000000E0
Scans to average: 1
Electric dark correction enabled: true
Nonlinearity correction enabled: false
Boxcar width: 0
XAxis mode: Raman Shifts
Number of Pixels in Spectrum: 1044
>>>>>Begin Spectral Data<<<<<
160.701	-0.6
166.742	0.4
172.777	7.4
178.805	19.4
184.826	43.4
190.841	89.4
196.849	137.4
202.85	176.4
208.845	181.4
214.833	190.4
220.815	184.4
226.789	188.4
232.758	190.4
238.719	186.4
244.674	190.4
250.623	192.4
256.565	191.4
262.5	189.4
268.429	186.4
274.351	179.4
280.267	182.4
286.176	186.4
292.079	180.4
297.975	176.4
303.865	179.4
309.748	182.4
315.625	186.4
321.495	182.4
327.359	186.4
333.217	192.4
339.068	186.4
344.912	191.4
350.751	177.4
356.583	179.4
362.408	177.4
368.227	177.4
374.04	172.4
379.847	186.4
385.647	195.4
391.44	208.4
397.228	224.4
403.009	244.4
408.784	237.4
414.553	234.4
420.315	234.4
426.071	223.4
431.821	206.4
437.565	191.4
443.302	177.4
449.033	198.4
454.758	192.4
460.477	191.4
466.189	196.4
471.896	179.4
477.596	184.4
483.29	169.4
488.978	169.4
494.66	169.4
500.335	164.4
506.005	152.4
511.668	157.4
517.325	146.4
522.977	144.4
528.622	149.4
534.261	153.4
539.894	138.4
545.521	138.4
551.141	128.4
556.756	120.4
562.365	120.4
567.968	118.4
573.565	121.4
579.155	120.4
584.74	112.4
590.319	117.4
595.892	119.4
601.459	112.4
607.02	116.4
612.575	112.4
618.124	111.4
623.667	114.4
629.204	109.4
634.735	109.4
640.261	111.4
645.781	105.4
651.294	120.4
656.802	110.4
662.304	101.4
667.8	106.4
673.29	99.4
678.775	108.4
684.254	99.4
689.726	98.4
695.193	103.4
700.655	92.4
706.11	101.4
711.56	100.4
717.004	94.4
722.442	97.4
727.874	98.4
733.301	93.4
738.722	95.4
744.137	97.4
749.547	96.4
754.951	102.4
760.349	98.4
765.741	101.4
771.128	101.4
776.509	103.4
781.885	107.4
787.254	111.4
792.618	107.4
797.977	120.4
803.33	141.4
808.677	173.4
814.019	204.4
819.355	190.4
824.686	160.4
830.011	140.4
835.33	146.4
840.644	160.4
845.952	175.4
851.255	173.4
856.552	146.4
861.844	116.4
867.13	101.4
872.41	102.4
877.686	94.4
882.955	91.4
888.219	94.4
893.478	93.4
898.731	97.4
903.979	102.4
909.221	105.4
914.458	100.4
919.69	85.4
924.916	84.4
930.136	86.4
935.351	88.4
940.561	97.4
945.766	100.4
950.965	100.4
956.158	97.4
961.347	97.4
966.529	97.4
971.707	105.4
976.879	120.4
982.046	120.4
987.208	109.4
992.364	99.4
997.515	103.4
1002.66	111.4
1007.801	113.4
1012.936	97.4
1018.066	94.4
1023.19	86.4
1028.309	92.4
1033.423	95.4
1038.532	113.4
1043.636	115.4
1048.734	116.4
1053.827	100.4
1058.915	90.4
1063.998	81.4
1069.075	79.4
1074.147	71.4
1079.214	77.4
1084.276	82.4
1089.333	83.4
1094.385	86.4
1099.431	87.4
1104.472	84.4
1109.509	86.4
1114.54	75.4
1119.565	79.4
1124.586	75.4
1129.602	76.4
1134.613	77.4
1139.618	86.4
1144.619	97.4
1149.614	119.4
1154.604	143.4
1159.589	164.4
1164.57	156.4
1169.545	138.4
1174.515	126.4
1179.48	109.4
1184.44	95.4
1189.395	83.4
1194.345	78.4
1199.29	74.4
1204.23	79.4
1209.165	79.4
1214.095	81.4
1219.021	90.4
1223.941	107.4
1228.856	105.4
1233.766	93.4
1238.672	86.4
1243.572	82.4
1248.467	77.4
1253.358	77.4
1258.244	77.4
1263.124	68.4
1268	70.4
1272.871	72.4
1277.737	72.4
1282.599	69.4
1287.455	72.4
1292.306	76.4
1297.153	75.4
1301.995	76.4
1306.832	87.4
1311.664	79.4
1316.491	78.4
1321.314	94.4
1326.132	113.4
1330.945	137.4
1335.753	164.4
1340.556	149.4
1345.354	111.4
1350.148	92.4
1354.937	84.4
1359.722	91.4
1364.501	96.4
1369.276	101.4
1374.046	91.4
1378.811	81.4
1383.572	73.4
1388.327	68.4
1393.079	58.4
1397.825	55.4
1402.567	59.4
1407.304	54.4
1412.036	55.4
1416.764	54.4
1421.487	59.4
1426.205	62.4
1430.919	69.4
1435.628	80.4
1440.333	99.4
1445.032	109.4
1449.727	114.4
1454.418	139.4
1459.104	164.4
1463.785	189.4
1468.462	180.4
1473.134	138.4
1477.802	97.4
1482.465	74.4
1487.123	66.4
1491.777	54.4
1496.426	56.4
1501.071	56.4
1505.711	56.4
1510.347	52.4
1514.978	49.4
1519.604	50.4
1524.226	48.4
1528.844	49.4
1533.457	49.4
1538.065	48.4
1542.669	50.4
1547.269	50.4
1551.864	47.4
1556.454	48.4
1561.041	43.4
1565.622	40.4
1570.199	45.4
1574.772	46.4
1579.34	44.4
1583.904	43.4
1588.464	47.4
1593.019	42.4
1597.569	46.4
1602.115	44.4
1606.657	48.4
1611.195	46.4
1615.728	42.4
1620.256	47.4
1624.78	42.4
1629.3	47.4
1633.816	43.4
1638.327	47.4
1642.834	46.4
1647.336	46.4
1651.834	43.4
1656.328	44.4
1660.817	41.4
1665.302	42.4
1669.783	43.4
1674.259	43.4
1678.732	41.4
1683.199	42.4
1687.663	38.4
1692.122	38.4
1696.577	39.4
1701.028	39.4
1705.474	35.4
1709.917	37.4
1714.355	37.4
1718.788	39.4
1723.218	36.4
1727.643	31.4
1732.064	34.4
1736.481	34.4
1740.893	29.4
1745.301	35.4
1749.705	32.4
1754.105	30.4
1758.501	26.4
1762.893	28.4
1767.28	27.4
1771.663	27.4
1776.042	25.4
1780.417	27.4
1784.787	32.4
1789.154	25.4
1793.516	30.4
1797.874	31.4
1802.228	30.4
1806.578	25.4
1810.924	28.4
1815.266	28.4
1819.603	27.4
1823.937	29.4
1828.266	25.4
1832.591	22.4
1836.913	25.4
1841.23	27.4
1845.543	23.4
1849.852	24.4
1854.156	23.4
1858.457	19.4
1862.754	28.4
1867.047	22.4
1871.335	25.4
1875.62	22.4
1879.9	26.4
1884.177	26.4
1888.449	21.4
1892.718	23.4
1896.982	22.4
1901.243	28.4
1905.499	24.4
1909.752	19.4
1914	21.4
1918.245	21.4
1922.485	21.4
1926.722	23.4
1930.954	19.4
1935.183	20.4
1939.408	25.4
1943.628	23.4
1947.845	23.4
1952.058	24.4
1956.267	21.4
1960.472	20.4
1964.673	21.4
1968.87	18.4
1973.063	24.4
1977.252	19.4
1981.438	17.4
1985.619	17.4
1989.797	15.4
1993.971	12.4
1998.14	20.4
2002.306	19.4
2006.469	20.4
2010.627	20.4
2014.781	21.4
2018.932	20.4
2023.078	19.4
2027.221	14.4
2031.36	11.4
2035.495	17.4
2039.627	17.4
2043.754	16.4
2047.878	19.4
2051.998	18.4
2056.114	16.4
2060.226	17.4
2064.334	11.4
2068.439	11.4
2072.54	14.4
2076.637	16.4
2080.73	16.4
2084.82	20.4
2088.906	19.4
2092.988	17.4
2097.066	15.4
2101.14	16.4
2105.211	16.4
2109.278	13.4
2113.342	12.4
2117.401	16.4
2121.457	17.4
2125.509	17.4
2129.558	15.4
2133.602	16.4
2137.643	11.4
2141.681	11.4
2145.714	8.4
2149.744	7.4
2153.77	10.4
2157.793	19.4
2161.812	18.4
2165.827	15.4
2169.838	13.4
2173.846	9.4
2177.851	11.4
2181.851	9.4
2185.848	10.4
2189.841	13.4
2193.831	7.4
2197.817	13.4
2201.799	14.4
2205.778	13.4
2209.753	11.4
2213.725	5.4
2217.693	8.4
2221.657	5.4
2225.618	10.4
2229.575	11.4
2233.529	9.4
2237.479	6.4
2241.425	7.4
2245.368	10.4
2249.307	6.4
2253.243	10.4
2257.175	9.4
2261.104	10.4
2265.029	7.4
2268.95	3.4
2272.868	7.4
2276.783	7.4
2280.694	9.4
2284.601	7.4
2288.505	10.4
2292.405	8.4
2296.302	6.4
2300.195	11.4
2304.085	5.4
2307.971	2.4
2311.854	1.4
2315.734	5.4
2319.609	4.4
2323.482	8.4
2327.351	7.4
2331.216	14.4
2335.078	10.4
2338.937	4.4
2342.792	2.4
2346.643	-0.6
2350.492	3.4
2354.336	5.4
2358.178	5.4
2362.015	4.4
2365.85	7.4
2369.681	7.4
2373.508	1.4
2377.333	1.4
2381.153	3.4
2384.971	2.4
2388.785	2.4
2392.595	6.4
2396.402	8.4
2400.206	9.4
2404.007	4.4
2407.804	1.4
2411.597	3.4
2415.388	-1.6
2419.174	1.4
2422.958	3.4
2426.738	1.4
2430.515	7.4
2434.289	6.4
2438.059	4.4
2441.825	0.4
2445.589	0.4
2449.349	-0.6
2453.106	1.4
2456.859	3.4
2460.61	1.4
2464.356	8.4
2468.1	4.4
2471.84	3.4
2475.577	1.4
2479.311	0.4
2483.041	1.4
2486.768	2.4
2490.492	-2.6
2494.213	0.4
2497.93	1.4
2501.644	3.4
2505.355	4.4
2509.062	2.4
2512.766	6.4
2516.467	4.4
2520.165	1.4
2523.859	2.4
2527.551	1.4
2531.239	2.4
2534.923	-1.6
2538.605	0.4
2542.283	-0.6
2545.958	5.4
2549.63	4.4
2553.299	7.4
2556.964	5.4
2560.626	1.4
2564.285	-3.6
2567.941	-0.6
2571.594	-2.6
2575.243	-0.6
2578.89	3.4
2582.533	4.4
2586.173	4.4
2589.809	5.4
2593.443	7.4
2597.073	4.4
2600.701	0.4
2604.325	-1.6
2607.946	-0.6
2611.564	4.4
2615.178	2.4
2618.79	6.4
2622.398	4.4
2626.004	6.4
2629.606	7.4
2633.205	0.4
2636.801	1.4
2640.394	2.4
2643.983	3.4
2647.57	3.4
2651.153	8.4
2654.734	5.4
2658.311	6.4
2661.885	7.4
2665.456	4.4
2669.025	3.4
2672.589	4.4
2676.151	4.4
2679.71	4.4
2683.266	3.4
2686.819	8.4
2690.368	7.4
2693.915	4.4
2697.458	5.4
2700.999	8.4
2704.536	4.4
2708.071	5.4
2711.602	5.4
2715.13	6.4
2718.656	7.4
2722.178	7.4
2725.697	8.4
2729.214	10.4
2732.727	7.4
2736.237	10.4
2739.744	8.4
2743.249	12.4
2746.75	6.4
2750.248	2.4
2753.743	4.4
2757.236	4.4
2760.725	1.4
2764.211	7.4
2767.695	5.4
2771.175	5.4
2774.652	6.4
2778.127	1.4
2781.598	4.4
2785.067	0.4
2788.532	1.4
2791.995	3.4
2795.455	6.4
2798.911	7.4
2802.365	6.4
2805.816	11.4
2809.264	6.4
2812.709	6.4
2816.151	9.4
2819.59	4.4
2823.026	11.4
2826.46	8.4
2829.89	20.4
2833.318	23.4
2836.742	26.4
2840.164	36.4
2843.583	46.4
2846.999	43.4
2850.412	37.4
2853.822	38.4
2857.229	38.4
2860.634	34.4
2864.035	41.4
2867.434	56.4
2870.83	64.4
2874.223	73.4
2877.613	79.4
2881	79.4
2884.385	79.4
2887.766	89.4
2891.145	92.4
2894.521	90.4
2897.894	86.4
2901.264	79.4
2904.631	73.4
2907.996	73.4
2911.358	69.4
2914.717	58.4
2918.073	56.4
2921.426	55.4
2924.777	54.4
2928.124	53.4
2931.469	50.4
2934.811	47.4
2938.15	42.4
2941.487	33.4
2944.821	36.4
2948.152	30.4
2951.48	33.4
2954.805	41.4
2958.128	45.4
2961.447	45.4
2964.765	41.4
2968.079	43.4
2971.39	33.4
2974.699	26.4
2978.005	22.4
2981.308	20.4
2984.609	15.4
2987.907	17.4
2991.202	18.4
2994.494	15.4
2997.784	15.4
3001.07	11.4
3004.355	5.4
3007.636	6.4
3010.915	7.4
3014.191	4.4
3017.464	6.4
3020.734	9.4
3024.002	7.4
3027.267	8.4
3030.53	8.4
3033.789	7.4
3037.046	1.4
3040.301	2.4
3043.552	3.4
3046.801	5.4
3050.048	7.4
3053.291	6.4
3056.532	8.4
3059.771	8.4
3063.006	6.4
3066.239	3.4
3069.469	8.4
3072.697	5.4
3075.922	8.4
3079.144	10.4
3082.364	10.4
3085.581	9.4
3088.795	9.4
3092.007	5.4
3095.216	6.4
3098.423	3.4
3101.627	2.4
3104.828	7.4
3108.026	7.4
3111.222	9.4
3114.416	14.4
3117.607	15.4
3120.795	11.4
3123.98	12.4
3127.163	11.4
3130.344	9.4
3133.521	12.4
3136.696	8.4
3139.869	14.4
3143.039	14.4
3146.206	17.4
3149.371	13.4
3152.533	16.4
3155.693	12.4
3158.85	8.4
3162.005	9.4
3165.157	7.4
3168.306	8.4
3171.453	15.4
3174.597	18.4
3177.739	14.4
3180.878	14.4
3184.014	12.4
3187.149	8.4
3190.28	9.4
3193.409	11.4
3196.536	12.4
3199.659	16.4
3202.781	17.4
3205.9	14.4
3209.016	13.4
3212.13	14.4
3215.241	10.4
3218.35	13.4
3221.456	10.4
3224.56	14.4
3227.661	19.4
3230.76	16.4
3233.856	17.4
3236.95	17.4
3240.041	11.4
3243.13	7.4
3246.216	9.4
3249.3	11.4
3252.382	12.4
3255.46	16.4
3258.537	14.4
3261.611	15.4
3264.682	10.4
3267.751	10.4
3270.818	6.4
3273.882	8.4
3276.943	10.4
3280.002	10.4
3283.059	11.4
3286.113	13.4
3289.165	9.4
3292.214	10.4
3295.261	9.4
3298.306	6.4
3301.348	7.4
3304.387	7.4
3307.425	7.4
3310.459	10.4
3313.492	6.4
3316.521	11.4
3319.549	7.4
3322.574	7.4
3325.597	5.4
3328.617	4.4
3331.635	4.4
3334.65	6.4
3337.663	7.4
3340.674	10.4
3343.682	9.4
3346.688	10.4
3349.691	9.4
3352.692	7.4
3355.691	1.4
3358.687	2.4
3361.681	6.4
3364.673	11.4
3367.662	8.4
3370.649	11.4
3373.633	7.4
3376.615	10.4
3379.595	3.4
3382.572	5.4
3385.547	5.4
3388.52	6.4
3391.49	7.4
3394.458	7.4
3397.424	4.4
3400.387	8.4
3403.348	6.4
3406.307	3.4
3409.263	4.4
3412.217	3.4
3415.168	5.4
3418.118	7.4
3421.065	10.4
3424.009	7.4
3426.951	6.4
3429.891	4.4
3432.829	3.4
3435.764	2.4
3438.697	-1.6
3441.628	0.4
3444.557	3.4
3447.483	3.4
3450.407	5.4
3453.328	8.4
3456.247	2.4
3459.164	1.4
3462.079	0.4
3464.991	1.4
3467.902	-0.6
3470.809	1.4
3473.715	1.4
3476.618	4.4
3479.519	1.4
3482.418	2.4
3485.315	-1.6
3488.209	0.4
3491.101	0.4
3493.99	-3.6
3496.878	0.4
3499.763	1.4
3502.646	2.4
3505.527	1.4
3508.405	2.4
3511.281	1.4
3514.155	-0.6
3517.027	4.4
3519.897	-1.6
3522.764	-0.6
3525.629	-3.6
3528.492	-0.6
3531.352	-2.6
3534.211	0.4
3537.067	-5.6
3539.921	-3.6
3542.773	-4.6
3545.622	0.4
3548.469	-1.6
3551.315	-2.6
3554.157	-3.6
3556.998	-1.6
3559.837	-5.6
3562.673	-4.6
3565.507	-3.6
3568.339	0.4
3571.169	-0.6
3573.996	2.4
3576.822	-2.6
3579.645	-5.6
3582.466	-4.6
3585.285	-2.6
3588.101	-3.6
3590.916	-2.6
3593.728	-0.6
3596.538	-1.6
3599.346	-3.6
3602.152	-1.6
3604.956	-3.6
3607.757	-2.6
3610.556	-4.6
3613.354	-5.6
3616.149	-3.6
3618.942	-2.6
3621.732	-1.6
3624.521	-0.6
3627.307	-3.6
3630.092	-4.6
3632.874	-4.6
3635.654	-3.6
3638.432	-6.6
3641.208	-4.6
3643.982	-3.6
3646.753	-2.6
3649.523	-3.6
3652.29	-2.6
3655.055	-6.6
3657.818	-6.6
3660.579	-3.6
3663.338	-6.6
3666.095	-3.6
3668.849	-4.6
3671.602	-6.6
3674.352	1.4
3677.101	-5.6
3679.847	-6.6
3682.591	-2.6
3685.333	-3.6
3688.073	-3.6
3690.811	-1.6
3693.547	-3.6
3696.281	-5.6
3699.013	-3.6
3701.742	-4.6
3704.47	-6.6
3707.195	-7.6
3709.919	-7.6
3712.64	-4.6
3715.359	-2.6
3718.076	-5.6
3720.792	-6.6
3723.505	-5.6
3726.216	-6.6
3728.925	-3.6
3731.632	-4.6
3734.336	-9.6
3737.039	-4.6
3739.74	-3.6
3742.439	-3.6
3745.136	-5.6
3747.83	-6.6
3750.523	-5.6
3753.213	-4.6
3755.902	0.4
3758.589	-2.6
3761.273	-1.6
3763.956	-5.6
3766.636	-7.6
3769.315	-9.6
3771.991	-9.6
3774.665	-6.6
3777.338	-2.6
3780.008	-2.6
3782.677	-5.6
3785.343	-3.6
3788.007	-2.6
3790.67	-5.6
3793.33	-7.6
3795.989	-6.6
3798.645	-8.6
3801.299	-5.6
3803.952	-2.6
3806.602	-0.6
3809.251	-3.6
3811.897	-4.6
3814.542	-5.6
3817.184	-5.6
3819.825	-7.6
3822.463	-8.6
3825.1	-7.6
3827.735	-6.6
3830.367	-3.6
3832.998	-4.6
3835.627	-0.6
3838.253	-2.6
3840.878	-6.6
3843.501	-3.6
3846.122	-9.6
3848.741	-7.6
3851.358	-5.6
3853.973	-6.6
3856.586	-7.6
3859.197	-0.6
3861.806	-5.6
3864.414	-4.6
3867.019	-3.6
3869.622	-8.6
3872.224	-5.6
3874.823	-5.6
3877.421	-4.6
3880.016	-4.6
3882.61	-4.6
3885.202	1.4
3887.792	-2.6
3890.38	-4.6
3892.966	-3.6
3895.55	-2.6
3898.132	-2.6
3900.713	-4.6
3903.291	-6.6
3905.868	-6.6
3908.442	-7.6
3911.015	-5.6
3913.586	-3.6
3916.155	-1.6
3918.722	-4.6
3921.287	-4.6
3923.85	-6.6
3926.411	-3.6
3928.971	-4.6
3931.528	-6.6
3934.084	-6.6
3936.638	-6.6
3939.19	-6.6
3941.74	-2.6
3944.288	-4.6
3946.834	-1.6
3949.378	-6.6
3951.921	-5.6
3954.462	-10.6
3957	-8.6
3959.537	-3.6
3962.072	-5.6
3964.606	-0.6
3967.137	-1.6
3969.667	-2.6
3972.194	-3.6
3974.72	-6.6
3977.244	-8.6
3979.766	-5.6
3982.286	-9.6
3984.805	-3.6
3987.321	-6.6
3989.836	-2.6
3992.349	-0.6
3994.86	-0.6
3997.369	-5.6
3999.877	-6.6
4002.382	-9.6
4004.886	-7.6
4007.388	-3.6
4009.888	-8.6
4012.386	-2.6
4014.883	-5.6
4017.377	-2.6
4019.87	-4.6
4022.361	-4.6
4024.85	-10.6
4027.338	-9.6
4029.823	-5.6
4032.307	-3.6
4034.789	-5.6
4037.269	-6.6
4039.747	-3.6
4042.224	-3.6
4044.699	-8.6
4047.172	-6.6
4049.643	-9.6
4052.112	-9.6
4054.58	-7.6
4057.046	-5.6
4059.51	-1.6
4061.972	0.4
4064.432	-5.6
4066.891	-5.6
4069.348	-6.6
4071.803	-7.6
4074.256	-10.6
4076.708	-4.6
4079.158	-3.6
4081.606	-3.6
4084.052	-2.6
4086.497	-0.6
4088.939	0.4
4091.38	-5.6
4093.819	-6.6
4096.257	-7.6
4098.693	-7.6
4101.127	-4.6
4103.559	-2.6
4105.989	6.4
4108.418	3.4
4110.845	1.4
4113.27	1.4
4115.694	-2.6
4118.115	0.4
4120.535	-8.6
4122.954	-6.6
4125.37	-11.6
4127.785	-6.6
4130.198	-2.6
4132.609	-4.6
4135.019	-3.6
4137.427	-5.6
4139.833	-5.6
4142.237	-11.6
