Data from h200_RamanShift_01.txt Node
Date: Mon Mar 19 12:39:03 IST 2018
User: aro
Spectrometer: QEPB0276
Trigger mode: 0
Integration Time (sec): 5.000000E0
Scans to average: 1
Electric dark correction enabled: true
Nonlinearity correction enabled: false
Boxcar width: 0
XAxis mode: Raman Shifts
Number of Pixels in Spectrum: 1044
>>>>>Begin Spectral Data<<<<<
160.701	0.1
166.742	-0.9
172.777	4.1
178.805	24.1
184.826	55.1
190.841	109.1
196.849	180.1
202.85	228.1
208.845	237.1
214.833	244.1
220.815	234.1
226.789	234.1
232.758	224.1
238.719	234.1
244.674	238.1
250.623	230.1
256.565	234.1
262.5	214.1
268.429	216.1
274.351	208.1
280.267	207.1
286.176	203.1
292.079	204.1
297.975	206.1
303.865	194.1
309.748	205.1
315.625	205.1
321.495	208.1
327.359	208.1
333.217	202.1
339.068	197.1
344.912	195.1
350.751	191.1
356.583	196.1
362.408	188.1
368.227	194.1
374.04	192.1
379.847	204.1
385.647	207.1
391.44	227.1
397.228	237.1
403.009	253.1
408.784	257.1
414.553	248.1
420.315	249.1
426.071	248.1
431.821	231.1
437.565	212.1
443.302	206.1
449.033	203.1
454.758	209.1
460.477	207.1
466.189	215.1
471.896	200.1
477.596	195.1
483.29	186.1
488.978	181.1
494.66	170.1
500.335	180.1
506.005	172.1
511.668	169.1
517.325	165.1
522.977	163.1
528.622	163.1
534.261	160.1
539.894	159.1
545.521	151.1
551.141	138.1
556.756	139.1
562.365	134.1
567.968	140.1
573.565	134.1
579.155	130.1
584.74	124.1
590.319	124.1
595.892	129.1
601.459	124.1
607.02	123.1
612.575	121.1
618.124	124.1
623.667	130.1
629.204	118.1
634.735	120.1
640.261	122.1
645.781	114.1
651.294	124.1
656.802	120.1
662.304	117.1
667.8	119.1
673.29	114.1
678.775	114.1
684.254	115.1
689.726	108.1
695.193	107.1
700.655	112.1
706.11	109.1
711.56	111.1
717.004	106.1
722.442	104.1
727.874	107.1
733.301	108.1
738.722	101.1
744.137	107.1
749.547	105.1
754.951	108.1
760.349	107.1
765.741	107.1
771.128	108.1
776.509	109.1
781.885	118.1
787.254	120.1
792.618	117.1
797.977	128.1
803.33	151.1
808.677	179.1
814.019	203.1
819.355	202.1
824.686	164.1
830.011	139.1
835.33	150.1
840.644	168.1
845.952	179.1
851.255	174.1
856.552	145.1
861.844	118.1
867.13	112.1
872.41	105.1
877.686	99.1
882.955	101.1
888.219	101.1
893.478	96.1
898.731	106.1
903.979	101.1
909.221	109.1
914.458	96.1
919.69	95.1
924.916	87.1
930.136	89.1
935.351	93.1
940.561	98.1
945.766	104.1
950.965	101.1
956.158	98.1
961.347	97.1
966.529	103.1
971.707	112.1
976.879	120.1
982.046	123.1
987.208	112.1
992.364	99.1
997.515	101.1
1002.66	114.1
1007.801	115.1
1012.936	103.1
1018.066	96.1
1023.19	85.1
1028.309	91.1
1033.423	100.1
1038.532	110.1
1043.636	116.1
1048.734	119.1
1053.827	99.1
1058.915	95.1
1063.998	83.1
1069.075	86.1
1074.147	79.1
1079.214	82.1
1084.276	81.1
1089.333	83.1
1094.385	82.1
1099.431	83.1
1104.472	87.1
1109.509	88.1
1114.54	86.1
1119.565	84.1
1124.586	81.1
1129.602	78.1
1134.613	78.1
1139.618	83.1
1144.619	98.1
1149.614	113.1
1154.604	146.1
1159.589	163.1
1164.57	158.1
1169.545	142.1
1174.515	133.1
1179.48	114.1
1184.44	94.1
1189.395	81.1
1194.345	82.1
1199.29	80.1
1204.23	82.1
1209.165	85.1
1214.095	89.1
1219.021	99.1
1223.941	108.1
1228.856	103.1
1233.766	90.1
1238.672	83.1
1243.572	80.1
1248.467	81.1
1253.358	80.1
1258.244	80.1
1263.124	75.1
1268	75.1
1272.871	72.1
1277.737	71.1
1282.599	72.1
1287.455	72.1
1292.306	72.1
1297.153	77.1
1301.995	87.1
1306.832	84.1
1311.664	83.1
1316.491	83.1
1321.314	91.1
1326.132	115.1
1330.945	137.1
1335.753	161.1
1340.556	139.1
1345.354	114.1
1350.148	97.1
1354.937	87.1
1359.722	89.1
1364.501	105.1
1369.276	95.1
1374.046	94.1
1378.811	81.1
1383.572	69.1
1388.327	70.1
1393.079	65.1
1397.825	62.1
1402.567	60.1
1407.304	54.1
1412.036	59.1
1416.764	51.1
1421.487	59.1
1426.205	61.1
1430.919	67.1
1435.628	83.1
1440.333	101.1
1445.032	112.1
1449.727	112.1
1454.418	135.1
1459.104	164.1
1463.785	183.1
1468.462	175.1
1473.134	138.1
1477.802	99.1
1482.465	70.1
1487.123	68.1
1491.777	62.1
1496.426	56.1
1501.071	54.1
1505.711	54.1
1510.347	53.1
1514.978	53.1
1519.604	56.1
1524.226	46.1
1528.844	56.1
1533.457	50.1
1538.065	53.1
1542.669	51.1
1547.269	43.1
1551.864	44.1
1556.454	51.1
1561.041	48.1
1565.622	46.1
1570.199	46.1
1574.772	46.1
1579.34	47.1
1583.904	50.1
1588.464	51.1
1593.019	47.1
1597.569	49.1
1602.115	51.1
1606.657	47.1
1611.195	55.1
1615.728	48.1
1620.256	54.1
1624.78	51.1
1629.3	48.1
1633.816	49.1
1638.327	54.1
1642.834	51.1
1647.336	50.1
1651.834	52.1
1656.328	49.1
1660.817	51.1
1665.302	50.1
1669.783	54.1
1674.259	47.1
1678.732	51.1
1683.199	44.1
1687.663	48.1
1692.122	44.1
1696.577	42.1
1701.028	45.1
1705.474	45.1
1709.917	44.1
1714.355	34.1
1718.788	34.1
1723.218	37.1
1727.643	29.1
1732.064	34.1
1736.481	36.1
1740.893	32.1
1745.301	42.1
1749.705	32.1
1754.105	34.1
1758.501	30.1
1762.893	28.1
1767.28	25.1
1771.663	28.1
1776.042	26.1
1780.417	31.1
1784.787	34.1
1789.154	32.1
1793.516	30.1
1797.874	30.1
1802.228	30.1
1806.578	22.1
1810.924	24.1
1815.266	24.1
1819.603	27.1
1823.937	31.1
1828.266	28.1
1832.591	26.1
1836.913	22.1
1841.23	28.1
1845.543	23.1
1849.852	23.1
1854.156	21.1
1858.457	18.1
1862.754	28.1
1867.047	25.1
1871.335	27.1
1875.62	22.1
1879.9	24.1
1884.177	24.1
1888.449	26.1
1892.718	23.1
1896.982	22.1
1901.243	24.1
1905.499	23.1
1909.752	22.1
1914	26.1
1918.245	21.1
1922.485	20.1
1926.722	24.1
1930.954	21.1
1935.183	21.1
1939.408	23.1
1943.628	26.1
1947.845	23.1
1952.058	23.1
1956.267	21.1
1960.472	21.1
1964.673	22.1
1968.87	21.1
1973.063	21.1
1977.252	20.1
1981.438	21.1
1985.619	19.1
1989.797	18.1
1993.971	15.1
1998.14	17.1
2002.306	19.1
2006.469	17.1
2010.627	19.1
2014.781	22.1
2018.932	20.1
2023.078	14.1
2027.221	17.1
2031.36	18.1
2035.495	19.1
2039.627	20.1
2043.754	14.1
2047.878	18.1
2051.998	20.1
2056.114	17.1
2060.226	18.1
2064.334	13.1
2068.439	15.1
2072.54	14.1
2076.637	17.1
2080.73	18.1
2084.82	15.1
2088.906	22.1
2092.988	18.1
2097.066	18.1
2101.14	16.1
2105.211	17.1
2109.278	13.1
2113.342	15.1
2117.401	17.1
2121.457	16.1
2125.509	16.1
2129.558	18.1
2133.602	16.1
2137.643	12.1
2141.681	10.1
2145.714	10.1
2149.744	16.1
2153.77	12.1
2157.793	16.1
2161.812	17.1
2165.827	14.1
2169.838	12.1
2173.846	10.1
2177.851	12.1
2181.851	7.1
2185.848	10.1
2189.841	13.1
2193.831	9.1
2197.817	16.1
2201.799	15.1
2205.778	11.1
2209.753	8.1
2213.725	6.1
2217.693	6.1
2221.657	5.1
2225.618	11.1
2229.575	13.1
2233.529	14.1
2237.479	8.1
2241.425	8.1
2245.368	9.1
2249.307	9.1
2253.243	9.1
2257.175	7.1
2261.104	11.1
2265.029	7.1
2268.95	5.1
2272.868	10.1
2276.783	6.1
2280.694	7.1
2284.601	7.1
2288.505	4.1
2292.405	9.1
2296.302	7.1
2300.195	8.1
2304.085	3.1
2307.971	7.1
2311.854	6.1
2315.734	6.1
2319.609	5.1
2323.482	7.1
2327.351	4.1
2331.216	10.1
2335.078	5.1
2338.937	3.1
2342.792	3.1
2346.643	2.1
2350.492	4.1
2354.336	6.1
2358.178	8.1
2362.015	6.1
2365.85	4.1
2369.681	2.1
2373.508	1.1
2377.333	2.1
2381.153	4.1
2384.971	6.1
2388.785	8.1
2392.595	8.1
2396.402	7.1
2400.206	8.1
2404.007	2.1
2407.804	1.1
2411.597	1.1
2415.388	1.1
2419.174	4.1
2422.958	7.1
2426.738	1.1
2430.515	10.1
2434.289	3.1
2438.059	1.1
2441.825	-5.9
2445.589	-2.9
2449.349	1.1
2453.106	3.1
2456.859	6.1
2460.61	5.1
2464.356	10.1
2468.1	3.1
2471.84	3.1
2475.577	0.1
2479.311	-2.9
2483.041	1.1
2486.768	-1.9
2490.492	-0.9
2494.213	5.1
2497.93	4.1
2501.644	6.1
2505.355	2.1
2509.062	1.1
2512.766	-1.9
2516.467	-3.9
2520.165	0.1
2523.859	1.1
2527.551	-0.9
2531.239	4.1
2534.923	1.1
2538.605	0.1
2542.283	-3.9
2545.958	4.1
2549.63	1.1
2553.299	3.1
2556.964	3.1
2560.626	3.1
2564.285	-2.9
2567.941	1.1
2571.594	1.1
2575.243	-0.9
2578.89	1.1
2582.533	0.1
2586.173	0.1
2589.809	1.1
2593.443	7.1
2597.073	5.1
2600.701	1.1
2604.325	2.1
2607.946	0.1
2611.564	3.1
2615.178	3.1
2618.79	0.1
2622.398	2.1
2626.004	4.1
2629.606	3.1
2633.205	4.1
2636.801	4.1
2640.394	1.1
2643.983	4.1
2647.57	3.1
2651.153	6.1
2654.734	3.1
2658.311	3.1
2661.885	1.1
2665.456	5.1
2669.025	5.1
2672.589	5.1
2676.151	3.1
2679.71	6.1
2683.266	0.1
2686.819	3.1
2690.368	4.1
2693.915	3.1
2697.458	3.1
2700.999	5.1
2704.536	4.1
2708.071	6.1
2711.602	6.1
2715.13	7.1
2718.656	5.1
2722.178	4.1
2725.697	6.1
2729.214	7.1
2732.727	8.1
2736.237	10.1
2739.744	10.1
2743.249	10.1
2746.75	7.1
2750.248	2.1
2753.743	2.1
2757.236	3.1
2760.725	4.1
2764.211	5.1
2767.695	7.1
2771.175	5.1
2774.652	10.1
2778.127	1.1
2781.598	4.1
2785.067	0.1
2788.532	-1.9
2791.995	3.1
2795.455	4.1
2798.911	8.1
2802.365	10.1
2805.816	6.1
2809.264	7.1
2812.709	7.1
2816.151	7.1
2819.59	5.1
2823.026	7.1
2826.46	9.1
2829.89	16.1
2833.318	18.1
2836.742	24.1
2840.164	32.1
2843.583	39.1
2846.999	37.1
2850.412	38.1
2853.822	35.1
2857.229	33.1
2860.634	36.1
2864.035	40.1
2867.434	52.1
2870.83	62.1
2874.223	69.1
2877.613	67.1
2881	71.1
2884.385	74.1
2887.766	87.1
2891.145	87.1
2894.521	81.1
2897.894	75.1
2901.264	73.1
2904.631	70.1
2907.996	64.1
2911.358	66.1
2914.717	57.1
2918.073	52.1
2921.426	50.1
2924.777	48.1
2928.124	50.1
2931.469	49.1
2934.811	41.1
2938.15	45.1
2941.487	36.1
2944.821	35.1
2948.152	35.1
2951.48	36.1
2954.805	40.1
2958.128	46.1
2961.447	41.1
2964.765	38.1
2968.079	39.1
2971.39	30.1
2974.699	33.1
2978.005	24.1
2981.308	21.1
2984.609	18.1
2987.907	23.1
2991.202	17.1
2994.494	13.1
2997.784	14.1
3001.07	10.1
3004.355	9.1
3007.636	10.1
3010.915	12.1
3014.191	11.1
3017.464	9.1
3020.734	13.1
3024.002	10.1
3027.267	14.1
3030.53	7.1
3033.789	9.1
3037.046	5.1
3040.301	9.1
3043.552	10.1
3046.801	12.1
3050.048	12.1
3053.291	10.1
3056.532	13.1
3059.771	17.1
3063.006	9.1
3066.239	8.1
3069.469	15.1
3072.697	14.1
3075.922	11.1
3079.144	17.1
3082.364	17.1
3085.581	17.1
3088.795	18.1
3092.007	13.1
3095.216	15.1
3098.423	14.1
3101.627	12.1
3104.828	16.1
3108.026	18.1
3111.222	18.1
3114.416	21.1
3117.607	23.1
3120.795	22.1
3123.98	19.1
3127.163	20.1
3130.344	21.1
3133.521	22.1
3136.696	25.1
3139.869	25.1
3143.039	31.1
3146.206	25.1
3149.371	25.1
3152.533	23.1
3155.693	20.1
3158.85	20.1
3162.005	22.1
3165.157	24.1
3168.306	26.1
3171.453	27.1
3174.597	30.1
3177.739	26.1
3180.878	24.1
3184.014	24.1
3187.149	23.1
3190.28	23.1
3193.409	23.1
3196.536	24.1
3199.659	32.1
3202.781	25.1
3205.9	29.1
3209.016	24.1
3212.13	26.1
3215.241	24.1
3218.35	28.1
3221.456	23.1
3224.56	27.1
3227.661	28.1
3230.76	30.1
3233.856	29.1
3236.95	26.1
3240.041	24.1
3243.13	19.1
3246.216	21.1
3249.3	20.1
3252.382	21.1
3255.46	23.1
3258.537	23.1
3261.611	24.1
3264.682	26.1
3267.751	24.1
3270.818	24.1
3273.882	21.1
3276.943	19.1
3280.002	19.1
3283.059	19.1
3286.113	23.1
3289.165	18.1
3292.214	18.1
3295.261	21.1
3298.306	19.1
3301.348	20.1
3304.387	16.1
3307.425	18.1
3310.459	16.1
3313.492	17.1
3316.521	17.1
3319.549	19.1
3322.574	19.1
3325.597	18.1
3328.617	18.1
3331.635	20.1
3334.65	18.1
3337.663	17.1
3340.674	19.1
3343.682	18.1
3346.688	17.1
3349.691	19.1
3352.692	18.1
3355.691	16.1
3358.687	13.1
3361.681	16.1
3364.673	16.1
3367.662	13.1
3370.649	18.1
3373.633	17.1
3376.615	20.1
3379.595	13.1
3382.572	15.1
3385.547	17.1
3388.52	14.1
3391.49	22.1
3394.458	14.1
3397.424	15.1
3400.387	14.1
3403.348	11.1
3406.307	12.1
3409.263	18.1
3412.217	13.1
3415.168	15.1
3418.118	14.1
3421.065	17.1
3424.009	12.1
3426.951	11.1
3429.891	13.1
3432.829	9.1
3435.764	13.1
3438.697	5.1
3441.628	12.1
3444.557	13.1
3447.483	11.1
3450.407	11.1
3453.328	11.1
3456.247	3.1
3459.164	9.1
3462.079	7.1
3464.991	6.1
3467.902	6.1
3470.809	8.1
3473.715	6.1
3476.618	5.1
3479.519	3.1
3482.418	4.1
3485.315	4.1
3488.209	1.1
3491.101	6.1
3493.99	3.1
3496.878	6.1
3499.763	5.1
3502.646	8.1
3505.527	4.1
3508.405	0.1
3511.281	2.1
3514.155	-1.9
3517.027	4.1
3519.897	4.1
3522.764	2.1
3525.629	1.1
3528.492	4.1
3531.352	2.1
3534.211	1.1
3537.067	-5.9
3539.921	-0.9
3542.773	-0.9
3545.622	2.1
3548.469	-2.9
3551.315	1.1
3554.157	1.1
3556.998	1.1
3559.837	-3.9
3562.673	-3.9
3565.507	-0.9
3568.339	-4.9
3571.169	0.1
3573.996	-1.9
3576.822	-2.9
3579.645	-1.9
3582.466	-2.9
3585.285	-1.9
3588.101	-3.9
3590.916	-0.9
3593.728	-1.9
3596.538	-3.9
3599.346	-2.9
3602.152	-1.9
3604.956	-3.9
3607.757	-3.9
3610.556	0.1
3613.354	-0.9
3616.149	-4.9
3618.942	-4.9
3621.732	-1.9
3624.521	-1.9
3627.307	-5.9
3630.092	-2.9
3632.874	-3.9
3635.654	-1.9
3638.432	-4.9
3641.208	-2.9
3643.982	-1.9
3646.753	-3.9
3649.523	-6.9
3652.29	-5.9
3655.055	-8.9
3657.818	-5.9
3660.579	0.1
3663.338	-2.9
3666.095	-3.9
3668.849	-1.9
3671.602	-6.9
3674.352	-2.9
3677.101	-5.9
3679.847	-8.9
3682.591	-5.9
3685.333	-6.9
3688.073	-2.9
3690.811	0.1
3693.547	-1.9
3696.281	-6.9
3699.013	-3.9
3701.742	-6.9
3704.47	-9.9
3707.195	-6.9
3709.919	-7.9
3712.64	-7.9
3715.359	-2.9
3718.076	-0.9
3720.792	-0.9
3723.505	-3.9
3726.216	-8.9
3728.925	-5.9
3731.632	-6.9
3734.336	-5.9
3737.039	-1.9
3739.74	-0.9
3742.439	-1.9
3745.136	-4.9
3747.83	-5.9
3750.523	-5.9
3753.213	-10.9
3755.902	-5.9
3758.589	-5.9
3761.273	-3.9
3763.956	-3.9
3766.636	-6.9
3769.315	-6.9
3771.991	-7.9
3774.665	-1.9
3777.338	-2.9
3780.008	-3.9
3782.677	-6.9
3785.343	-5.9
3788.007	-3.9
3790.67	-1.9
3793.33	-4.9
3795.989	-7.9
3798.645	-3.9
3801.299	-6.9
3803.952	-4.9
3806.602	-4.9
3809.251	-5.9
3811.897	-8.9
3814.542	-3.9
3817.184	-6.9
3819.825	-5.9
3822.463	-7.9
3825.1	-6.9
3827.735	-9.9
3830.367	-4.9
3832.998	-6.9
3835.627	0.1
3838.253	-3.9
3840.878	-5.9
3843.501	-3.9
3846.122	-5.9
3848.741	-5.9
3851.358	-9.9
3853.973	-5.9
3856.586	-8.9
3859.197	-2.9
3861.806	-3.9
3864.414	-6.9
3867.019	-6.9
3869.622	-4.9
3872.224	-8.9
3874.823	-3.9
3877.421	-3.9
3880.016	-3.9
3882.61	-3.9
3885.202	1.1
3887.792	-1.9
3890.38	-3.9
3892.966	-5.9
3895.55	-4.9
3898.132	-4.9
3900.713	-2.9
3903.291	-6.9
3905.868	-4.9
3908.442	-3.9
3911.015	-5.9
3913.586	-4.9
3916.155	-1.9
3918.722	-2.9
3921.287	-4.9
3923.85	-3.9
3926.411	-3.9
3928.971	-7.9
3931.528	-3.9
3934.084	-6.9
3936.638	-1.9
3939.19	-5.9
3941.74	-2.9
3944.288	-5.9
3946.834	-4.9
3949.378	-3.9
3951.921	-4.9
3954.462	-5.9
3957	-5.9
3959.537	-2.9
3962.072	-1.9
3964.606	-2.9
3967.137	-4.9
3969.667	-6.9
3972.194	-5.9
3974.72	-6.9
3977.244	-8.9
3979.766	-4.9
3982.286	-6.9
3984.805	-4.9
3987.321	-2.9
3989.836	-8.9
3992.349	-3.9
3994.86	-2.9
3997.369	-7.9
3999.877	-5.9
4002.382	-7.9
4004.886	-3.9
4007.388	-5.9
4009.888	-5.9
4012.386	-2.9
4014.883	-3.9
4017.377	-5.9
4019.87	-8.9
4022.361	-4.9
4024.85	-7.9
4027.338	-6.9
4029.823	-6.9
4032.307	-2.9
4034.789	-3.9
4037.269	-2.9
4039.747	-4.9
4042.224	-5.9
4044.699	-8.9
4047.172	-7.9
4049.643	-6.9
4052.112	-5.9
4054.58	-5.9
4057.046	-5.9
4059.51	-2.9
4061.972	-1.9
4064.432	-7.9
4066.891	-6.9
4069.348	-6.9
4071.803	-6.9
4074.256	-8.9
4076.708	0.1
4079.158	-2.9
4081.606	-6.9
4084.052	-3.9
4086.497	-3.9
4088.939	-3.9
4091.38	-5.9
4093.819	-3.9
4096.257	-3.9
4098.693	-6.9
4101.127	-9.9
4103.559	-4.9
4105.989	4.1
4108.418	1.1
4110.845	0.1
4113.27	0.1
4115.694	1.1
4118.115	1.1
4120.535	-6.9
4122.954	-5.9
4125.37	-8.9
4127.785	-6.9
4130.198	-4.9
4132.609	-7.9
4135.019	-5.9
4137.427	-5.9
4139.833	-6.9
4142.237	-8.9
