Data from h250_RamanShift_03.txt Node
Date: Mon Mar 19 12:39:58 IST 2018
User: aro
Spectrometer: QEPB0276
Trigger mode: 0
Integration Time (sec): 5.000000E0
Scans to average: 1
Electric dark correction enabled: true
Nonlinearity correction enabled: false
Boxcar width: 0
XAxis mode: Raman Shifts
Number of Pixels in Spectrum: 1044
>>>>>Begin Spectral Data<<<<<
160.701	-1.2
166.742	0.8
172.777	8.8
178.805	36.8
184.826	89.8
190.841	175.8
196.849	294.8
202.85	378.8
208.845	411.8
214.833	405.8
220.815	389.8
226.789	388.8
232.758	375.8
238.719	367.8
244.674	362.8
250.623	355.8
256.565	346.8
262.5	333.8
268.429	318.8
274.351	304.8
280.267	305.8
286.176	295.8
292.079	278.8
297.975	275.8
303.865	274.8
309.748	273.8
315.625	273.8
321.495	277.8
327.359	275.8
333.217	274.8
339.068	263.8
344.912	261.8
350.751	259.8
356.583	253.8
362.408	253.8
368.227	255.8
374.04	260.8
379.847	264.8
385.647	276.8
391.44	289.8
397.228	308.8
403.009	317.8
408.784	322.8
414.553	315.8
420.315	302.8
426.071	314.8
431.821	288.8
437.565	278.8
443.302	266.8
449.033	273.8
454.758	272.8
460.477	270.8
466.189	269.8
471.896	252.8
477.596	258.8
483.29	248.8
488.978	246.8
494.66	245.8
500.335	248.8
506.005	234.8
511.668	227.8
517.325	225.8
522.977	219.8
528.622	219.8
534.261	221.8
539.894	217.8
545.521	201.8
551.141	205.8
556.756	195.8
562.365	186.8
567.968	187.8
573.565	183.8
579.155	176.8
584.74	172.8
590.319	172.8
595.892	180.8
601.459	179.8
607.02	172.8
612.575	175.8
618.124	173.8
623.667	169.8
629.204	161.8
634.735	156.8
640.261	167.8
645.781	174.8
651.294	178.8
656.802	174.8
662.304	167.8
667.8	163.8
673.29	158.8
678.775	158.8
684.254	148.8
689.726	148.8
695.193	151.8
700.655	153.8
706.11	153.8
711.56	149.8
717.004	147.8
722.442	144.8
727.874	141.8
733.301	143.8
738.722	146.8
744.137	142.8
749.547	146.8
754.951	146.8
760.349	143.8
765.741	145.8
771.128	144.8
776.509	148.8
781.885	147.8
787.254	155.8
792.618	152.8
797.977	159.8
803.33	187.8
808.677	219.8
814.019	235.8
819.355	243.8
824.686	198.8
830.011	174.8
835.33	181.8
840.644	195.8
845.952	215.8
851.255	209.8
856.552	180.8
861.844	153.8
867.13	143.8
872.41	141.8
877.686	131.8
882.955	127.8
888.219	124.8
893.478	122.8
898.731	132.8
903.979	133.8
909.221	134.8
914.458	119.8
919.69	120.8
924.916	115.8
930.136	110.8
935.351	115.8
940.561	124.8
945.766	123.8
950.965	126.8
956.158	122.8
961.347	116.8
966.529	126.8
971.707	126.8
976.879	139.8
982.046	142.8
987.208	129.8
992.364	123.8
997.515	125.8
1002.66	129.8
1007.801	139.8
1012.936	116.8
1018.066	117.8
1023.19	111.8
1028.309	111.8
1033.423	119.8
1038.532	133.8
1043.636	141.8
1048.734	138.8
1053.827	123.8
1058.915	109.8
1063.998	101.8
1069.075	97.8
1074.147	95.8
1079.214	101.8
1084.276	100.8
1089.333	101.8
1094.385	104.8
1099.431	102.8
1104.472	104.8
1109.509	106.8
1114.54	100.8
1119.565	97.8
1124.586	95.8
1129.602	93.8
1134.613	98.8
1139.618	100.8
1144.619	112.8
1149.614	131.8
1154.604	164.8
1159.589	178.8
1164.57	171.8
1169.545	155.8
1174.515	147.8
1179.48	131.8
1184.44	112.8
1189.395	94.8
1194.345	100.8
1199.29	92.8
1204.23	93.8
1209.165	96.8
1214.095	97.8
1219.021	111.8
1223.941	126.8
1228.856	116.8
1233.766	112.8
1238.672	101.8
1243.572	99.8
1248.467	95.8
1253.358	93.8
1258.244	95.8
1263.124	89.8
1268	83.8
1272.871	82.8
1277.737	82.8
1282.599	86.8
1287.455	85.8
1292.306	94.8
1297.153	96.8
1301.995	97.8
1306.832	97.8
1311.664	100.8
1316.491	99.8
1321.314	107.8
1326.132	126.8
1330.945	150.8
1335.753	177.8
1340.556	160.8
1345.354	126.8
1350.148	106.8
1354.937	101.8
1359.722	107.8
1364.501	109.8
1369.276	115.8
1374.046	95.8
1378.811	94.8
1383.572	82.8
1388.327	80.8
1393.079	74.8
1397.825	73.8
1402.567	70.8
1407.304	67.8
1412.036	65.8
1416.764	60.8
1421.487	67.8
1426.205	71.8
1430.919	75.8
1435.628	93.8
1440.333	113.8
1445.032	127.8
1449.727	127.8
1454.418	146.8
1459.104	176.8
1463.785	195.8
1468.462	187.8
1473.134	153.8
1477.802	110.8
1482.465	85.8
1487.123	71.8
1491.777	66.8
1496.426	64.8
1501.071	61.8
1505.711	59.8
1510.347	61.8
1514.978	60.8
1519.604	66.8
1524.226	63.8
1528.844	59.8
1533.457	60.8
1538.065	64.8
1542.669	60.8
1547.269	59.8
1551.864	54.8
1556.454	61.8
1561.041	59.8
1565.622	62.8
1570.199	59.8
1574.772	61.8
1579.34	69.8
1583.904	63.8
1588.464	67.8
1593.019	58.8
1597.569	64.8
1602.115	70.8
1606.657	66.8
1611.195	70.8
1615.728	73.8
1620.256	75.8
1624.78	69.8
1629.3	72.8
1633.816	72.8
1638.327	75.8
1642.834	71.8
1647.336	75.8
1651.834	74.8
1656.328	78.8
1660.817	75.8
1665.302	77.8
1669.783	72.8
1674.259	71.8
1678.732	65.8
1683.199	59.8
1687.663	56.8
1692.122	55.8
1696.577	54.8
1701.028	55.8
1705.474	51.8
1709.917	50.8
1714.355	46.8
1718.788	48.8
1723.218	45.8
1727.643	37.8
1732.064	33.8
1736.481	41.8
1740.893	36.8
1745.301	41.8
1749.705	37.8
1754.105	36.8
1758.501	28.8
1762.893	32.8
1767.28	27.8
1771.663	26.8
1776.042	20.8
1780.417	29.8
1784.787	30.8
1789.154	29.8
1793.516	29.8
1797.874	30.8
1802.228	23.8
1806.578	21.8
1810.924	24.8
1815.266	23.8
1819.603	20.8
1823.937	29.8
1828.266	27.8
1832.591	24.8
1836.913	23.8
1841.23	21.8
1845.543	23.8
1849.852	21.8
1854.156	19.8
1858.457	22.8
1862.754	25.8
1867.047	24.8
1871.335	25.8
1875.62	24.8
1879.9	21.8
1884.177	22.8
1888.449	19.8
1892.718	24.8
1896.982	18.8
1901.243	20.8
1905.499	22.8
1909.752	22.8
1914	24.8
1918.245	23.8
1922.485	18.8
1926.722	20.8
1930.954	19.8
1935.183	21.8
1939.408	21.8
1943.628	24.8
1947.845	20.8
1952.058	26.8
1956.267	21.8
1960.472	19.8
1964.673	19.8
1968.87	18.8
1973.063	20.8
1977.252	16.8
1981.438	14.8
1985.619	14.8
1989.797	15.8
1993.971	14.8
1998.14	17.8
2002.306	17.8
2006.469	17.8
2010.627	20.8
2014.781	22.8
2018.932	18.8
2023.078	16.8
2027.221	18.8
2031.36	13.8
2035.495	17.8
2039.627	15.8
2043.754	14.8
2047.878	18.8
2051.998	18.8
2056.114	16.8
2060.226	18.8
2064.334	12.8
2068.439	14.8
2072.54	14.8
2076.637	19.8
2080.73	16.8
2084.82	17.8
2088.906	20.8
2092.988	18.8
2097.066	12.8
2101.14	17.8
2105.211	15.8
2109.278	17.8
2113.342	15.8
2117.401	17.8
2121.457	15.8
2125.509	17.8
2129.558	15.8
2133.602	13.8
2137.643	9.8
2141.681	13.8
2145.714	11.8
2149.744	15.8
2153.77	15.8
2157.793	19.8
2161.812	13.8
2165.827	18.8
2169.838	4.8
2173.846	10.8
2177.851	6.8
2181.851	11.8
2185.848	9.8
2189.841	15.8
2193.831	11.8
2197.817	12.8
2201.799	9.8
2205.778	7.8
2209.753	4.8
2213.725	5.8
2217.693	6.8
2221.657	4.8
2225.618	9.8
2229.575	12.8
2233.529	10.8
2237.479	5.8
2241.425	7.8
2245.368	5.8
2249.307	3.8
2253.243	6.8
2257.175	3.8
2261.104	12.8
2265.029	6.8
2268.95	4.8
2272.868	4.8
2276.783	3.8
2280.694	5.8
2284.601	4.8
2288.505	2.8
2292.405	6.8
2296.302	6.8
2300.195	6.8
2304.085	4.8
2307.971	1.8
2311.854	-1.2
2315.734	2.8
2319.609	-0.2
2323.482	3.8
2327.351	0.8
2331.216	7.8
2335.078	3.8
2338.937	5.8
2342.792	-0.2
2346.643	-1.2
2350.492	1.8
2354.336	-1.2
2358.178	1.8
2362.015	0.8
2365.85	4.8
2369.681	5.8
2373.508	-0.2
2377.333	-1.2
2381.153	1.8
2384.971	-0.2
2388.785	-0.2
2392.595	1.8
2396.402	2.8
2400.206	0.8
2404.007	-0.2
2407.804	-2.2
2411.597	2.8
2415.388	-0.2
2419.174	-1.2
2422.958	0.8
2426.738	-3.2
2430.515	0.8
2434.289	-1.2
2438.059	0.8
2441.825	-5.2
2445.589	-2.2
2449.349	-4.2
2453.106	0.8
2456.859	1.8
2460.61	-0.2
2464.356	0.8
2468.1	1.8
2471.84	-3.2
2475.577	-3.2
2479.311	-0.2
2483.041	0.8
2486.768	-0.2
2490.492	-3.2
2494.213	-2.2
2497.93	-3.2
2501.644	-2.2
2505.355	-5.2
2509.062	-3.2
2512.766	-2.2
2516.467	-4.2
2520.165	-1.2
2523.859	-1.2
2527.551	-4.2
2531.239	-3.2
2534.923	-5.2
2538.605	-4.2
2542.283	-7.2
2545.958	-3.2
2549.63	-1.2
2553.299	-2.2
2556.964	-0.2
2560.626	-3.2
2564.285	-6.2
2567.941	-3.2
2571.594	-4.2
2575.243	-4.2
2578.89	-1.2
2582.533	-2.2
2586.173	-1.2
2589.809	-1.2
2593.443	0.8
2597.073	-2.2
2600.701	-5.2
2604.325	-2.2
2607.946	-1.2
2611.564	2.8
2615.178	0.8
2618.79	2.8
2622.398	-2.2
2626.004	-1.2
2629.606	-2.2
2633.205	-5.2
2636.801	-2.2
2640.394	-2.2
2643.983	-0.2
2647.57	0.8
2651.153	3.8
2654.734	-2.2
2658.311	-2.2
2661.885	-2.2
2665.456	-6.2
2669.025	-4.2
2672.589	1.8
2676.151	-0.2
2679.71	1.8
2683.266	-1.2
2686.819	3.8
2690.368	-2.2
2693.915	-4.2
2697.458	-4.2
2700.999	1.8
2704.536	0.8
2708.071	2.8
2711.602	2.8
2715.13	4.8
2718.656	-1.2
2722.178	0.8
2725.697	-2.2
2729.214	1.8
2732.727	1.8
2736.237	0.8
2739.744	3.8
2743.249	6.8
2746.75	0.8
2750.248	-0.2
2753.743	0.8
2757.236	-2.2
2760.725	-3.2
2764.211	2.8
2767.695	-0.2
2771.175	-2.2
2774.652	3.8
2778.127	0.8
2781.598	1.8
2785.067	-0.2
2788.532	0.8
2791.995	-4.2
2795.455	-0.2
2798.911	-1.2
2802.365	5.8
2805.816	4.8
2809.264	5.8
2812.709	7.8
2816.151	4.8
2819.59	3.8
2823.026	2.8
2826.46	5.8
2829.89	10.8
2833.318	13.8
2836.742	17.8
2840.164	29.8
2843.583	35.8
2846.999	36.8
2850.412	34.8
2853.822	29.8
2857.229	29.8
2860.634	28.8
2864.035	33.8
2867.434	45.8
2870.83	53.8
2874.223	64.8
2877.613	66.8
2881	67.8
2884.385	68.8
2887.766	80.8
2891.145	76.8
2894.521	79.8
2897.894	72.8
2901.264	67.8
2904.631	68.8
2907.996	67.8
2911.358	65.8
2914.717	61.8
2918.073	53.8
2921.426	46.8
2924.777	51.8
2928.124	46.8
2931.469	47.8
2934.811	43.8
2938.15	40.8
2941.487	39.8
2944.821	35.8
2948.152	34.8
2951.48	35.8
2954.805	45.8
2958.128	49.8
2961.447	42.8
2964.765	42.8
2968.079	47.8
2971.39	37.8
2974.699	34.8
2978.005	30.8
2981.308	28.8
2984.609	22.8
2987.907	22.8
2991.202	24.8
2994.494	20.8
2997.784	21.8
3001.07	20.8
3004.355	16.8
3007.636	20.8
3010.915	19.8
3014.191	22.8
3017.464	18.8
3020.734	22.8
3024.002	20.8
3027.267	19.8
3030.53	22.8
3033.789	22.8
3037.046	18.8
3040.301	23.8
3043.552	25.8
3046.801	31.8
3050.048	26.8
3053.291	23.8
3056.532	25.8
3059.771	34.8
3063.006	26.8
3066.239	28.8
3069.469	34.8
3072.697	34.8
3075.922	27.8
3079.144	40.8
3082.364	33.8
3085.581	39.8
3088.795	39.8
3092.007	37.8
3095.216	35.8
3098.423	39.8
3101.627	39.8
3104.828	45.8
3108.026	42.8
3111.222	45.8
3114.416	48.8
3117.607	48.8
3120.795	50.8
3123.98	51.8
3127.163	56.8
3130.344	51.8
3133.521	59.8
3136.696	53.8
3139.869	56.8
3143.039	63.8
3146.206	59.8
3149.371	60.8
3152.533	58.8
3155.693	61.8
3158.85	58.8
3162.005	62.8
3165.157	64.8
3168.306	63.8
3171.453	66.8
3174.597	69.8
3177.739	66.8
3180.878	69.8
3184.014	61.8
3187.149	62.8
3190.28	58.8
3193.409	60.8
3196.536	65.8
3199.659	71.8
3202.781	67.8
3205.9	69.8
3209.016	67.8
3212.13	67.8
3215.241	61.8
3218.35	69.8
3221.456	65.8
3224.56	59.8
3227.661	65.8
3230.76	67.8
3233.856	66.8
3236.95	67.8
3240.041	54.8
3243.13	59.8
3246.216	56.8
3249.3	54.8
3252.382	58.8
3255.46	59.8
3258.537	57.8
3261.611	59.8
3264.682	60.8
3267.751	52.8
3270.818	54.8
3273.882	51.8
3276.943	52.8
3280.002	52.8
3283.059	49.8
3286.113	54.8
3289.165	51.8
3292.214	51.8
3295.261	50.8
3298.306	54.8
3301.348	47.8
3304.387	45.8
3307.425	49.8
3310.459	50.8
3313.492	44.8
3316.521	45.8
3319.549	47.8
3322.574	45.8
3325.597	45.8
3328.617	46.8
3331.635	47.8
3334.65	45.8
3337.663	51.8
3340.674	47.8
3343.682	48.8
3346.688	52.8
3349.691	45.8
3352.692	46.8
3355.691	42.8
3358.687	40.8
3361.681	45.8
3364.673	49.8
3367.662	41.8
3370.649	43.8
3373.633	39.8
3376.615	44.8
3379.595	33.8
3382.572	45.8
3385.547	38.8
3388.52	33.8
3391.49	32.8
3394.458	38.8
3397.424	31.8
3400.387	35.8
3403.348	33.8
3406.307	36.8
3409.263	37.8
3412.217	35.8
3415.168	32.8
3418.118	32.8
3421.065	37.8
3424.009	33.8
3426.951	35.8
3429.891	32.8
3432.829	29.8
3435.764	34.8
3438.697	28.8
3441.628	26.8
3444.557	24.8
3447.483	25.8
3450.407	25.8
3453.328	26.8
3456.247	17.8
3459.164	19.8
3462.079	22.8
3464.991	20.8
3467.902	16.8
3470.809	18.8
3473.715	18.8
3476.618	18.8
3479.519	10.8
3482.418	15.8
3485.315	14.8
3488.209	17.8
3491.101	14.8
3493.99	9.8
3496.878	16.8
3499.763	11.8
3502.646	12.8
3505.527	6.8
3508.405	6.8
3511.281	7.8
3514.155	7.8
3517.027	10.8
3519.897	8.8
3522.764	9.8
3525.629	5.8
3528.492	4.8
3531.352	5.8
3534.211	4.8
3537.067	-0.2
3539.921	0.8
3542.773	0.8
3545.622	7.8
3548.469	4.8
3551.315	6.8
3554.157	-1.2
3556.998	5.8
3559.837	-4.2
3562.673	-6.2
3565.507	-2.2
3568.339	-1.2
3571.169	-1.2
3573.996	0.8
3576.822	-1.2
3579.645	-6.2
3582.466	-5.2
3585.285	-0.2
3588.101	-6.2
3590.916	-1.2
3593.728	-2.2
3596.538	-0.2
3599.346	-4.2
3602.152	-3.2
3604.956	-8.2
3607.757	-5.2
3610.556	-7.2
3613.354	-4.2
3616.149	-7.2
3618.942	-7.2
3621.732	-3.2
3624.521	-1.2
3627.307	-5.2
3630.092	-4.2
3632.874	-8.2
3635.654	-6.2
3638.432	-9.2
3641.208	-6.2
3643.982	-6.2
3646.753	-3.2
3649.523	-8.2
3652.29	-4.2
3655.055	-8.2
3657.818	-10.2
3660.579	-8.2
3663.338	-10.2
3666.095	-10.2
3668.849	-5.2
3671.602	-7.2
3674.352	-4.2
3677.101	-8.2
3679.847	-10.2
3682.591	-9.2
3685.333	-9.2
3688.073	-11.2
3690.811	-8.2
3693.547	-9.2
3696.281	-9.2
3699.013	-10.2
3701.742	-10.2
3704.47	-9.2
3707.195	-11.2
3709.919	-13.2
3712.64	-14.2
3715.359	-8.2
3718.076	-8.2
3720.792	-8.2
3723.505	-9.2
3726.216	-9.2
3728.925	-8.2
3731.632	-9.2
3734.336	-10.2
3737.039	-10.2
3739.74	-9.2
3742.439	-10.2
3745.136	-9.2
3747.83	-11.2
3750.523	-6.2
3753.213	-9.2
3755.902	-6.2
3758.589	-10.2
3761.273	-8.2
3763.956	-9.2
3766.636	-16.2
3769.315	-13.2
3771.991	-13.2
3774.665	-9.2
3777.338	-7.2
3780.008	-8.2
3782.677	-11.2
3785.343	-10.2
3788.007	-9.2
3790.67	-12.2
3793.33	-11.2
3795.989	-11.2
3798.645	-9.2
3801.299	-10.2
3803.952	-8.2
3806.602	-8.2
3809.251	-8.2
3811.897	-11.2
3814.542	-12.2
3817.184	-13.2
3819.825	-12.2
3822.463	-11.2
3825.1	-9.2
3827.735	-10.2
3830.367	-10.2
3832.998	-9.2
3835.627	-7.2
3838.253	-11.2
3840.878	-12.2
3843.501	-11.2
3846.122	-10.2
3848.741	-10.2
3851.358	-6.2
3853.973	-8.2
3856.586	-9.2
3859.197	-10.2
3861.806	-13.2
3864.414	-13.2
3867.019	-12.2
3869.622	-12.2
3872.224	-11.2
3874.823	-8.2
3877.421	-7.2
3880.016	-10.2
3882.61	-7.2
3885.202	-5.2
3887.792	-9.2
3890.38	-12.2
3892.966	-8.2
3895.55	-7.2
3898.132	-7.2
3900.713	-7.2
3903.291	-9.2
3905.868	-9.2
3908.442	-11.2
3911.015	-14.2
3913.586	-10.2
3916.155	-8.2
3918.722	-8.2
3921.287	-8.2
3923.85	-7.2
3926.411	-10.2
3928.971	-12.2
3931.528	-13.2
3934.084	-13.2
3936.638	-10.2
3939.19	-11.2
3941.74	-11.2
3944.288	-8.2
3946.834	-7.2
3949.378	-6.2
3951.921	-9.2
3954.462	-13.2
3957	-14.2
3959.537	-11.2
3962.072	-7.2
3964.606	-11.2
3967.137	-9.2
3969.667	-6.2
3972.194	-10.2
3974.72	-9.2
3977.244	-13.2
3979.766	-10.2
3982.286	-13.2
3984.805	-12.2
3987.321	-10.2
3989.836	-11.2
3992.349	-7.2
3994.86	-6.2
3997.369	-12.2
3999.877	-12.2
4002.382	-12.2
4004.886	-13.2
4007.388	-12.2
4009.888	-15.2
4012.386	-9.2
4014.883	-10.2
4017.377	-9.2
4019.87	-8.2
4022.361	-11.2
4024.85	-12.2
4027.338	-14.2
4029.823	-12.2
4032.307	-12.2
4034.789	-10.2
4037.269	-11.2
4039.747	-7.2
4042.224	-7.2
4044.699	-11.2
4047.172	-13.2
4049.643	-15.2
4052.112	-14.2
4054.58	-15.2
4057.046	-14.2
4059.51	-9.2
4061.972	-8.2
4064.432	-8.2
4066.891	-11.2
4069.348	-6.2
4071.803	-10.2
4074.256	-14.2
4076.708	-11.2
4079.158	-7.2
4081.606	-13.2
4084.052	-7.2
4086.497	-8.2
4088.939	-7.2
4091.38	-6.2
4093.819	-9.2
4096.257	-12.2
4098.693	-11.2
4101.127	-10.2
4103.559	-7.2
4105.989	-1.2
4108.418	-1.2
4110.845	-5.2
4113.27	-1.2
4115.694	-5.2
4118.115	-0.2
4120.535	-12.2
4122.954	-13.2
4125.37	-16.2
4127.785	-11.2
4130.198	-12.2
4132.609	-12.2
4135.019	-11.2
4137.427	-11.2
4139.833	-11.2
4142.237	-11.2
