Data from h300_RamanShift_01.txt Node
Date: Mon Mar 19 12:40:38 IST 2018
User: aro
Spectrometer: QEPB0276
Trigger mode: 0
Integration Time (sec): 5.000000E0
Scans to average: 1
Electric dark correction enabled: true
Nonlinearity correction enabled: false
Boxcar width: 0
XAxis mode: Raman Shifts
Number of Pixels in Spectrum: 1044
>>>>>Begin Spectral Data<<<<<
160.701	-3.4
166.742	-0.4
172.777	13.6
178.805	42.6
184.826	111.6
190.841	237.6
196.849	374.6
202.85	479.6
208.845	500.6
214.833	500.6
220.815	476.6
226.789	474.6
232.758	457.6
238.719	449.6
244.674	436.6
250.623	427.6
256.565	410.6
262.5	396.6
268.429	375.6
274.351	356.6
280.267	357.6
286.176	341.6
292.079	333.6
297.975	321.6
303.865	320.6
309.748	307.6
315.625	310.6
321.495	309.6
327.359	313.6
333.217	306.6
339.068	299.6
344.912	305.6
350.751	291.6
356.583	290.6
362.408	291.6
368.227	297.6
374.04	294.6
379.847	300.6
385.647	311.6
391.44	317.6
397.228	330.6
403.009	358.6
408.784	363.6
414.553	347.6
420.315	346.6
426.071	348.6
431.821	332.6
437.565	313.6
443.302	303.6
449.033	307.6
454.758	313.6
460.477	313.6
466.189	308.6
471.896	304.6
477.596	292.6
483.29	284.6
488.978	281.6
494.66	278.6
500.335	281.6
506.005	274.6
511.668	262.6
517.325	252.6
522.977	246.6
528.622	255.6
534.261	250.6
539.894	246.6
545.521	233.6
551.141	229.6
556.756	226.6
562.365	220.6
567.968	219.6
573.565	218.6
579.155	207.6
584.74	211.6
590.319	214.6
595.892	208.6
601.459	205.6
607.02	202.6
612.575	200.6
618.124	203.6
623.667	203.6
629.204	196.6
634.735	184.6
640.261	197.6
645.781	191.6
651.294	198.6
656.802	193.6
662.304	189.6
667.8	182.6
673.29	176.6
678.775	187.6
684.254	180.6
689.726	176.6
695.193	176.6
700.655	177.6
706.11	182.6
711.56	173.6
717.004	174.6
722.442	168.6
727.874	171.6
733.301	161.6
738.722	172.6
744.137	167.6
749.547	168.6
754.951	167.6
760.349	168.6
765.741	169.6
771.128	171.6
776.509	168.6
781.885	170.6
787.254	177.6
792.618	178.6
797.977	181.6
803.33	202.6
808.677	239.6
814.019	259.6
819.355	256.6
824.686	216.6
830.011	187.6
835.33	200.6
840.644	209.6
845.952	237.6
851.255	220.6
856.552	191.6
861.844	170.6
867.13	160.6
872.41	154.6
877.686	147.6
882.955	146.6
888.219	143.6
893.478	140.6
898.731	140.6
903.979	139.6
909.221	144.6
914.458	135.6
919.69	132.6
924.916	128.6
930.136	126.6
935.351	131.6
940.561	142.6
945.766	141.6
950.965	138.6
956.158	129.6
961.347	130.6
966.529	137.6
971.707	140.6
976.879	162.6
982.046	157.6
987.208	139.6
992.364	133.6
997.515	131.6
1002.66	141.6
1007.801	144.6
1012.936	128.6
1018.066	123.6
1023.19	125.6
1028.309	125.6
1033.423	129.6
1038.532	148.6
1043.636	147.6
1048.734	143.6
1053.827	134.6
1058.915	117.6
1063.998	114.6
1069.075	108.6
1074.147	109.6
1079.214	107.6
1084.276	113.6
1089.333	116.6
1094.385	111.6
1099.431	119.6
1104.472	116.6
1109.509	116.6
1114.54	112.6
1119.565	108.6
1124.586	111.6
1129.602	107.6
1134.613	108.6
1139.618	112.6
1144.619	127.6
1149.614	146.6
1154.604	173.6
1159.589	182.6
1164.57	185.6
1169.545	170.6
1174.515	157.6
1179.48	140.6
1184.44	122.6
1189.395	108.6
1194.345	108.6
1199.29	106.6
1204.23	103.6
1209.165	107.6
1214.095	108.6
1219.021	117.6
1223.941	128.6
1228.856	129.6
1233.766	121.6
1238.672	110.6
1243.572	105.6
1248.467	101.6
1253.358	101.6
1258.244	99.6
1263.124	98.6
1268	96.6
1272.871	96.6
1277.737	98.6
1282.599	94.6
1287.455	99.6
1292.306	97.6
1297.153	100.6
1301.995	105.6
1306.832	103.6
1311.664	110.6
1316.491	108.6
1321.314	114.6
1326.132	137.6
1330.945	170.6
1335.753	178.6
1340.556	162.6
1345.354	124.6
1350.148	112.6
1354.937	108.6
1359.722	111.6
1364.501	116.6
1369.276	119.6
1374.046	110.6
1378.811	97.6
1383.572	82.6
1388.327	89.6
1393.079	78.6
1397.825	80.6
1402.567	75.6
1407.304	74.6
1412.036	78.6
1416.764	72.6
1421.487	77.6
1426.205	78.6
1430.919	81.6
1435.628	101.6
1440.333	118.6
1445.032	125.6
1449.727	127.6
1454.418	158.6
1459.104	189.6
1463.785	201.6
1468.462	190.6
1473.134	152.6
1477.802	112.6
1482.465	89.6
1487.123	78.6
1491.777	74.6
1496.426	71.6
1501.071	68.6
1505.711	70.6
1510.347	67.6
1514.978	68.6
1519.604	68.6
1524.226	64.6
1528.844	70.6
1533.457	69.6
1538.065	71.6
1542.669	62.6
1547.269	66.6
1551.864	66.6
1556.454	67.6
1561.041	65.6
1565.622	65.6
1570.199	67.6
1574.772	74.6
1579.34	75.6
1583.904	75.6
1588.464	74.6
1593.019	72.6
1597.569	76.6
1602.115	84.6
1606.657	79.6
1611.195	86.6
1615.728	82.6
1620.256	83.6
1624.78	87.6
1629.3	83.6
1633.816	81.6
1638.327	92.6
1642.834	88.6
1647.336	90.6
1651.834	88.6
1656.328	93.6
1660.817	87.6
1665.302	86.6
1669.783	81.6
1674.259	76.6
1678.732	72.6
1683.199	67.6
1687.663	69.6
1692.122	65.6
1696.577	69.6
1701.028	64.6
1705.474	58.6
1709.917	54.6
1714.355	47.6
1718.788	51.6
1723.218	46.6
1727.643	43.6
1732.064	45.6
1736.481	48.6
1740.893	39.6
1745.301	44.6
1749.705	42.6
1754.105	38.6
1758.501	34.6
1762.893	31.6
1767.28	30.6
1771.663	30.6
1776.042	29.6
1780.417	33.6
1784.787	35.6
1789.154	28.6
1793.516	30.6
1797.874	27.6
1802.228	26.6
1806.578	25.6
1810.924	28.6
1815.266	27.6
1819.603	24.6
1823.937	28.6
1828.266	24.6
1832.591	27.6
1836.913	20.6
1841.23	24.6
1845.543	23.6
1849.852	24.6
1854.156	25.6
1858.457	28.6
1862.754	27.6
1867.047	29.6
1871.335	28.6
1875.62	25.6
1879.9	24.6
1884.177	24.6
1888.449	18.6
1892.718	22.6
1896.982	21.6
1901.243	25.6
1905.499	26.6
1909.752	23.6
1914	23.6
1918.245	19.6
1922.485	20.6
1926.722	20.6
1930.954	15.6
1935.183	20.6
1939.408	20.6
1943.628	24.6
1947.845	28.6
1952.058	24.6
1956.267	20.6
1960.472	15.6
1964.673	16.6
1968.87	20.6
1973.063	20.6
1977.252	22.6
1981.438	21.6
1985.619	22.6
1989.797	17.6
1993.971	12.6
1998.14	18.6
2002.306	19.6
2006.469	18.6
2010.627	21.6
2014.781	20.6
2018.932	25.6
2023.078	20.6
2027.221	21.6
2031.36	16.6
2035.495	19.6
2039.627	15.6
2043.754	18.6
2047.878	18.6
2051.998	23.6
2056.114	18.6
2060.226	27.6
2064.334	20.6
2068.439	16.6
2072.54	15.6
2076.637	17.6
2080.73	16.6
2084.82	18.6
2088.906	23.6
2092.988	21.6
2097.066	20.6
2101.14	20.6
2105.211	20.6
2109.278	14.6
2113.342	17.6
2117.401	13.6
2121.457	16.6
2125.509	18.6
2129.558	20.6
2133.602	19.6
2137.643	14.6
2141.681	16.6
2145.714	15.6
2149.744	15.6
2153.77	14.6
2157.793	18.6
2161.812	16.6
2165.827	19.6
2169.838	13.6
2173.846	13.6
2177.851	13.6
2181.851	12.6
2185.848	12.6
2189.841	15.6
2193.831	8.6
2197.817	11.6
2201.799	12.6
2205.778	11.6
2209.753	10.6
2213.725	9.6
2217.693	13.6
2221.657	9.6
2225.618	10.6
2229.575	11.6
2233.529	8.6
2237.479	6.6
2241.425	8.6
2245.368	7.6
2249.307	7.6
2253.243	10.6
2257.175	7.6
2261.104	11.6
2265.029	1.6
2268.95	4.6
2272.868	1.6
2276.783	8.6
2280.694	12.6
2284.601	8.6
2288.505	6.6
2292.405	7.6
2296.302	5.6
2300.195	7.6
2304.085	1.6
2307.971	4.6
2311.854	0.6
2315.734	3.6
2319.609	3.6
2323.482	6.6
2327.351	2.6
2331.216	7.6
2335.078	0.6
2338.937	3.6
2342.792	-6.4
2346.643	-0.4
2350.492	3.6
2354.336	4.6
2358.178	3.6
2362.015	2.6
2365.85	-0.4
2369.681	0.6
2373.508	-2.4
2377.333	3.6
2381.153	0.6
2384.971	0.6
2388.785	5.6
2392.595	6.6
2396.402	5.6
2400.206	2.6
2404.007	-0.4
2407.804	-0.4
2411.597	-0.4
2415.388	-0.4
2419.174	-0.4
2422.958	4.6
2426.738	-2.4
2430.515	4.6
2434.289	-1.4
2438.059	-2.4
2441.825	-7.4
2445.589	-3.4
2449.349	-2.4
2453.106	3.6
2456.859	3.6
2460.61	0.6
2464.356	5.6
2468.1	2.6
2471.84	-0.4
2475.577	-2.4
2479.311	-1.4
2483.041	1.6
2486.768	-2.4
2490.492	-1.4
2494.213	-0.4
2497.93	-3.4
2501.644	0.6
2505.355	-1.4
2509.062	-5.4
2512.766	-0.4
2516.467	-6.4
2520.165	-0.4
2523.859	-1.4
2527.551	-2.4
2531.239	0.6
2534.923	-3.4
2538.605	-2.4
2542.283	-5.4
2545.958	-2.4
2549.63	-1.4
2553.299	-2.4
2556.964	1.6
2560.626	-1.4
2564.285	-5.4
2567.941	-1.4
2571.594	-7.4
2575.243	-5.4
2578.89	-3.4
2582.533	-4.4
2586.173	-1.4
2589.809	0.6
2593.443	3.6
2597.073	0.6
2600.701	-6.4
2604.325	-5.4
2607.946	-0.4
2611.564	1.6
2615.178	0.6
2618.79	-3.4
2622.398	1.6
2626.004	4.6
2629.606	2.6
2633.205	-0.4
2636.801	-1.4
2640.394	-4.4
2643.983	-4.4
2647.57	-1.4
2651.153	2.6
2654.734	1.6
2658.311	-0.4
2661.885	1.6
2665.456	0.6
2669.025	-0.4
2672.589	2.6
2676.151	-2.4
2679.71	1.6
2683.266	-4.4
2686.819	5.6
2690.368	3.6
2693.915	-0.4
2697.458	1.6
2700.999	3.6
2704.536	2.6
2708.071	2.6
2711.602	0.6
2715.13	3.6
2718.656	-0.4
2722.178	1.6
2725.697	-1.4
2729.214	0.6
2732.727	3.6
2736.237	4.6
2739.744	4.6
2743.249	4.6
2746.75	1.6
2750.248	-3.4
2753.743	-0.4
2757.236	-1.4
2760.725	-1.4
2764.211	1.6
2767.695	1.6
2771.175	1.6
2774.652	2.6
2778.127	-2.4
2781.598	-2.4
2785.067	-1.4
2788.532	-4.4
2791.995	0.6
2795.455	2.6
2798.911	6.6
2802.365	3.6
2805.816	5.6
2809.264	1.6
2812.709	2.6
2816.151	3.6
2819.59	3.6
2823.026	2.6
2826.46	6.6
2829.89	14.6
2833.318	16.6
2836.742	18.6
2840.164	30.6
2843.583	32.6
2846.999	30.6
2850.412	29.6
2853.822	28.6
2857.229	29.6
2860.634	27.6
2864.035	33.6
2867.434	40.6
2870.83	54.6
2874.223	55.6
2877.613	62.6
2881	62.6
2884.385	65.6
2887.766	74.6
2891.145	72.6
2894.521	71.6
2897.894	67.6
2901.264	69.6
2904.631	63.6
2907.996	61.6
2911.358	62.6
2914.717	55.6
2918.073	50.6
2921.426	45.6
2924.777	45.6
2928.124	47.6
2931.469	46.6
2934.811	42.6
2938.15	45.6
2941.487	38.6
2944.821	36.6
2948.152	33.6
2951.48	39.6
2954.805	43.6
2958.128	44.6
2961.447	42.6
2964.765	42.6
2968.079	48.6
2971.39	38.6
2974.699	35.6
2978.005	30.6
2981.308	27.6
2984.609	24.6
2987.907	26.6
2991.202	23.6
2994.494	31.6
2997.784	26.6
3001.07	24.6
3004.355	23.6
3007.636	27.6
3010.915	25.6
3014.191	26.6
3017.464	19.6
3020.734	28.6
3024.002	23.6
3027.267	32.6
3030.53	31.6
3033.789	33.6
3037.046	27.6
3040.301	29.6
3043.552	29.6
3046.801	37.6
3050.048	30.6
3053.291	35.6
3056.532	39.6
3059.771	46.6
3063.006	41.6
3066.239	41.6
3069.469	46.6
3072.697	44.6
3075.922	44.6
3079.144	43.6
3082.364	49.6
3085.581	48.6
3088.795	51.6
3092.007	50.6
3095.216	51.6
3098.423	50.6
3101.627	55.6
3104.828	57.6
3108.026	55.6
3111.222	59.6
3114.416	65.6
3117.607	66.6
3120.795	68.6
3123.98	67.6
3127.163	72.6
3130.344	69.6
3133.521	80.6
3136.696	74.6
3139.869	77.6
3143.039	77.6
3146.206	76.6
3149.371	79.6
3152.533	81.6
3155.693	78.6
3158.85	79.6
3162.005	81.6
3165.157	82.6
3168.306	80.6
3171.453	83.6
3174.597	84.6
3177.739	86.6
3180.878	87.6
3184.014	85.6
3187.149	85.6
3190.28	83.6
3193.409	86.6
3196.536	80.6
3199.659	88.6
3202.781	86.6
3205.9	85.6
3209.016	83.6
3212.13	86.6
3215.241	83.6
3218.35	88.6
3221.456	83.6
3224.56	79.6
3227.661	80.6
3230.76	79.6
3233.856	80.6
3236.95	81.6
3240.041	72.6
3243.13	71.6
3246.216	74.6
3249.3	76.6
3252.382	74.6
3255.46	76.6
3258.537	75.6
3261.611	77.6
3264.682	73.6
3267.751	69.6
3270.818	66.6
3273.882	72.6
3276.943	75.6
3280.002	70.6
3283.059	71.6
3286.113	71.6
3289.165	64.6
3292.214	67.6
3295.261	65.6
3298.306	69.6
3301.348	66.6
3304.387	65.6
3307.425	68.6
3310.459	70.6
3313.492	61.6
3316.521	63.6
3319.549	64.6
3322.574	56.6
3325.597	62.6
3328.617	57.6
3331.635	62.6
3334.65	55.6
3337.663	61.6
3340.674	65.6
3343.682	63.6
3346.688	62.6
3349.691	62.6
3352.692	56.6
3355.691	48.6
3358.687	55.6
3361.681	56.6
3364.673	64.6
3367.662	54.6
3370.649	62.6
3373.633	59.6
3376.615	58.6
3379.595	47.6
3382.572	56.6
3385.547	51.6
3388.52	47.6
3391.49	55.6
3394.458	53.6
3397.424	46.6
3400.387	50.6
3403.348	45.6
3406.307	44.6
3409.263	43.6
3412.217	42.6
3415.168	43.6
3418.118	46.6
3421.065	47.6
3424.009	45.6
3426.951	45.6
3429.891	42.6
3432.829	40.6
3435.764	36.6
3438.697	33.6
3441.628	31.6
3444.557	39.6
3447.483	36.6
3450.407	37.6
3453.328	36.6
3456.247	25.6
3459.164	28.6
3462.079	24.6
3464.991	27.6
3467.902	24.6
3470.809	29.6
3473.715	29.6
3476.618	28.6
3479.519	22.6
3482.418	25.6
3485.315	24.6
3488.209	22.6
3491.101	20.6
3493.99	14.6
3496.878	19.6
3499.763	19.6
3502.646	21.6
3505.527	18.6
3508.405	19.6
3511.281	15.6
3514.155	11.6
3517.027	14.6
3519.897	12.6
3522.764	11.6
3525.629	8.6
3528.492	12.6
3531.352	7.6
3534.211	13.6
3537.067	2.6
3539.921	1.6
3542.773	5.6
3545.622	7.6
3548.469	3.6
3551.315	9.6
3554.157	5.6
3556.998	4.6
3559.837	1.6
3562.673	2.6
3565.507	2.6
3568.339	2.6
3571.169	1.6
3573.996	3.6
3576.822	2.6
3579.645	-3.4
3582.466	2.6
3585.285	1.6
3588.101	-4.4
3590.916	-0.4
3593.728	-0.4
3596.538	-2.4
3599.346	-2.4
3602.152	-0.4
3604.956	-2.4
3607.757	-2.4
3610.556	-1.4
3613.354	0.6
3616.149	-5.4
3618.942	-4.4
3621.732	-1.4
3624.521	-3.4
3627.307	-2.4
3630.092	-4.4
3632.874	-5.4
3635.654	-0.4
3638.432	-6.4
3641.208	-5.4
3643.982	-4.4
3646.753	-3.4
3649.523	-9.4
3652.29	-5.4
3655.055	-8.4
3657.818	-7.4
3660.579	-3.4
3663.338	-3.4
3666.095	-3.4
3668.849	-6.4
3671.602	-8.4
3674.352	-6.4
3677.101	-8.4
3679.847	-8.4
3682.591	-6.4
3685.333	-8.4
3688.073	-4.4
3690.811	-3.4
3693.547	-7.4
3696.281	-7.4
3699.013	-10.4
3701.742	-8.4
3704.47	-11.4
3707.195	-8.4
3709.919	-7.4
3712.64	-6.4
3715.359	-3.4
3718.076	-7.4
3720.792	-9.4
3723.505	-9.4
3726.216	-12.4
3728.925	-10.4
3731.632	-11.4
3734.336	-9.4
3737.039	-6.4
3739.74	-8.4
3742.439	-7.4
3745.136	-7.4
3747.83	-11.4
3750.523	-10.4
3753.213	-12.4
3755.902	-5.4
3758.589	-7.4
3761.273	-4.4
3763.956	-8.4
3766.636	-10.4
3769.315	-11.4
3771.991	-11.4
3774.665	-10.4
3777.338	-9.4
3780.008	-7.4
3782.677	-10.4
3785.343	-7.4
3788.007	-11.4
3790.67	-8.4
3793.33	-9.4
3795.989	-10.4
3798.645	-13.4
3801.299	-8.4
3803.952	-9.4
3806.602	-7.4
3809.251	-5.4
3811.897	-9.4
3814.542	-8.4
3817.184	-13.4
3819.825	-13.4
3822.463	-14.4
3825.1	-11.4
3827.735	-11.4
3830.367	-7.4
3832.998	-5.4
3835.627	-3.4
3838.253	-6.4
3840.878	-11.4
3843.501	-11.4
3846.122	-14.4
3848.741	-11.4
3851.358	-11.4
3853.973	-6.4
3856.586	-9.4
3859.197	-7.4
3861.806	-9.4
3864.414	-10.4
3867.019	-10.4
3869.622	-15.4
3872.224	-11.4
3874.823	-9.4
3877.421	-6.4
3880.016	-8.4
3882.61	-4.4
3885.202	0.6
3887.792	-5.4
3890.38	-9.4
3892.966	-10.4
3895.55	-9.4
3898.132	-9.4
3900.713	-8.4
3903.291	-8.4
3905.868	-6.4
3908.442	-8.4
3911.015	-12.4
3913.586	-8.4
3916.155	-8.4
3918.722	-10.4
3921.287	-12.4
3923.85	-10.4
3926.411	-9.4
3928.971	-11.4
3931.528	-8.4
3934.084	-9.4
3936.638	-7.4
3939.19	-11.4
3941.74	-7.4
3944.288	-10.4
3946.834	-7.4
3949.378	-10.4
3951.921	-10.4
3954.462	-12.4
3957	-9.4
3959.537	-6.4
3962.072	-8.4
3964.606	-6.4
3967.137	-10.4
3969.667	-8.4
3972.194	-12.4
3974.72	-12.4
3977.244	-8.4
3979.766	-9.4
3982.286	-11.4
3984.805	-8.4
3987.321	-8.4
3989.836	-12.4
3992.349	-8.4
3994.86	-6.4
3997.369	-14.4
3999.877	-12.4
4002.382	-12.4
4004.886	-10.4
4007.388	-9.4
4009.888	-8.4
4012.386	-7.4
4014.883	-8.4
4017.377	-8.4
4019.87	-10.4
4022.361	-9.4
4024.85	-15.4
4027.338	-12.4
4029.823	-9.4
4032.307	-6.4
4034.789	-8.4
4037.269	-7.4
4039.747	-6.4
4042.224	-8.4
4044.699	-10.4
4047.172	-13.4
4049.643	-14.4
4052.112	-13.4
4054.58	-12.4
4057.046	-7.4
4059.51	-7.4
4061.972	-5.4
4064.432	-7.4
4066.891	-9.4
4069.348	-8.4
4071.803	-14.4
4074.256	-16.4
4076.708	-7.4
4079.158	-2.4
4081.606	-8.4
4084.052	-3.4
4086.497	-9.4
4088.939	-7.4
4091.38	-10.4
4093.819	-10.4
4096.257	-11.4
4098.693	-13.4
4101.127	-15.4
4103.559	-7.4
4105.989	2.6
4108.418	1.6
4110.845	1.6
4113.27	-2.4
4115.694	1.6
4118.115	2.6
4120.535	-13.4
4122.954	-11.4
4125.37	-11.4
4127.785	-9.4
4130.198	-10.4
4132.609	-8.4
4135.019	-11.4
4137.427	-11.4
4139.833	-14.4
4142.237	-15.4
