Data from h300_RamanShift_02.txt Node
Date: Mon Mar 19 12:40:43 IST 2018
User: aro
Spectrometer: QEPB0276
Trigger mode: 0
Integration Time (sec): 5.000000E0
Scans to average: 1
Electric dark correction enabled: true
Nonlinearity correction enabled: false
Boxcar width: 0
XAxis mode: Raman Shifts
Number of Pixels in Spectrum: 1044
>>>>>Begin Spectral Data<<<<<
160.701	-1.2
166.742	2.8
172.777	13.8
178.805	38.8
184.826	109.8
190.841	225.8
196.849	369.8
202.85	470.8
208.845	507.8
214.833	496.8
220.815	481.8
226.789	469.8
232.758	464.8
238.719	452.8
244.674	437.8
250.623	422.8
256.565	405.8
262.5	383.8
268.429	384.8
274.351	358.8
280.267	348.8
286.176	335.8
292.079	333.8
297.975	334.8
303.865	309.8
309.748	308.8
315.625	310.8
321.495	308.8
327.359	311.8
333.217	311.8
339.068	305.8
344.912	295.8
350.751	294.8
356.583	290.8
362.408	289.8
368.227	291.8
374.04	300.8
379.847	298.8
385.647	315.8
391.44	328.8
397.228	339.8
403.009	351.8
408.784	364.8
414.553	353.8
420.315	345.8
426.071	342.8
431.821	329.8
437.565	301.8
443.302	306.8
449.033	313.8
454.758	314.8
460.477	302.8
466.189	314.8
471.896	292.8
477.596	281.8
483.29	279.8
488.978	282.8
494.66	282.8
500.335	282.8
506.005	263.8
511.668	260.8
517.325	256.8
522.977	257.8
528.622	253.8
534.261	249.8
539.894	238.8
545.521	237.8
551.141	228.8
556.756	224.8
562.365	220.8
567.968	215.8
573.565	207.8
579.155	207.8
584.74	209.8
590.319	205.8
595.892	205.8
601.459	210.8
607.02	202.8
612.575	201.8
618.124	195.8
623.667	195.8
629.204	198.8
634.735	183.8
640.261	194.8
645.781	194.8
651.294	196.8
656.802	195.8
662.304	187.8
667.8	180.8
673.29	176.8
678.775	177.8
684.254	179.8
689.726	179.8
695.193	176.8
700.655	176.8
706.11	176.8
711.56	174.8
717.004	167.8
722.442	169.8
727.874	165.8
733.301	165.8
738.722	163.8
744.137	164.8
749.547	164.8
754.951	170.8
760.349	171.8
765.741	167.8
771.128	167.8
776.509	168.8
781.885	165.8
787.254	168.8
792.618	171.8
797.977	183.8
803.33	200.8
808.677	234.8
814.019	263.8
819.355	252.8
824.686	216.8
830.011	189.8
835.33	192.8
840.644	214.8
845.952	225.8
851.255	221.8
856.552	193.8
861.844	170.8
867.13	157.8
872.41	157.8
877.686	146.8
882.955	141.8
888.219	137.8
893.478	136.8
898.731	140.8
903.979	141.8
909.221	150.8
914.458	139.8
919.69	133.8
924.916	127.8
930.136	126.8
935.351	129.8
940.561	132.8
945.766	137.8
950.965	135.8
956.158	133.8
961.347	129.8
966.529	135.8
971.707	134.8
976.879	151.8
982.046	153.8
987.208	137.8
992.364	128.8
997.515	129.8
1002.66	134.8
1007.801	141.8
1012.936	128.8
1018.066	123.8
1023.19	120.8
1028.309	121.8
1033.423	129.8
1038.532	136.8
1043.636	142.8
1048.734	139.8
1053.827	129.8
1058.915	118.8
1063.998	113.8
1069.075	112.8
1074.147	105.8
1079.214	107.8
1084.276	104.8
1089.333	112.8
1094.385	112.8
1099.431	108.8
1104.472	111.8
1109.509	116.8
1114.54	112.8
1119.565	110.8
1124.586	107.8
1129.602	104.8
1134.613	108.8
1139.618	110.8
1144.619	121.8
1149.614	139.8
1154.604	163.8
1159.589	194.8
1164.57	188.8
1169.545	169.8
1174.515	157.8
1179.48	139.8
1184.44	117.8
1189.395	101.8
1194.345	102.8
1199.29	101.8
1204.23	96.8
1209.165	105.8
1214.095	111.8
1219.021	123.8
1223.941	131.8
1228.856	129.8
1233.766	120.8
1238.672	115.8
1243.572	99.8
1248.467	102.8
1253.358	100.8
1258.244	100.8
1263.124	102.8
1268	95.8
1272.871	90.8
1277.737	96.8
1282.599	89.8
1287.455	92.8
1292.306	96.8
1297.153	96.8
1301.995	104.8
1306.832	109.8
1311.664	104.8
1316.491	109.8
1321.314	122.8
1326.132	135.8
1330.945	156.8
1335.753	174.8
1340.556	158.8
1345.354	122.8
1350.148	112.8
1354.937	107.8
1359.722	116.8
1364.501	114.8
1369.276	118.8
1374.046	103.8
1378.811	94.8
1383.572	87.8
1388.327	84.8
1393.079	80.8
1397.825	80.8
1402.567	78.8
1407.304	76.8
1412.036	78.8
1416.764	70.8
1421.487	73.8
1426.205	70.8
1430.919	84.8
1435.628	92.8
1440.333	120.8
1445.032	133.8
1449.727	135.8
1454.418	155.8
1459.104	180.8
1463.785	199.8
1468.462	185.8
1473.134	149.8
1477.802	110.8
1482.465	91.8
1487.123	83.8
1491.777	76.8
1496.426	71.8
1501.071	67.8
1505.711	68.8
1510.347	65.8
1514.978	67.8
1519.604	63.8
1524.226	64.8
1528.844	65.8
1533.457	70.8
1538.065	71.8
1542.669	62.8
1547.269	69.8
1551.864	62.8
1556.454	63.8
1561.041	61.8
1565.622	63.8
1570.199	69.8
1574.772	72.8
1579.34	74.8
1583.904	74.8
1588.464	78.8
1593.019	75.8
1597.569	73.8
1602.115	77.8
1606.657	77.8
1611.195	82.8
1615.728	86.8
1620.256	84.8
1624.78	83.8
1629.3	89.8
1633.816	84.8
1638.327	87.8
1642.834	84.8
1647.336	93.8
1651.834	83.8
1656.328	88.8
1660.817	86.8
1665.302	88.8
1669.783	83.8
1674.259	79.8
1678.732	78.8
1683.199	66.8
1687.663	67.8
1692.122	61.8
1696.577	57.8
1701.028	59.8
1705.474	56.8
1709.917	60.8
1714.355	51.8
1718.788	45.8
1723.218	48.8
1727.643	40.8
1732.064	41.8
1736.481	47.8
1740.893	40.8
1745.301	44.8
1749.705	38.8
1754.105	36.8
1758.501	29.8
1762.893	27.8
1767.28	31.8
1771.663	31.8
1776.042	23.8
1780.417	34.8
1784.787	31.8
1789.154	27.8
1793.516	31.8
1797.874	27.8
1802.228	25.8
1806.578	19.8
1810.924	26.8
1815.266	24.8
1819.603	25.8
1823.937	30.8
1828.266	26.8
1832.591	25.8
1836.913	21.8
1841.23	16.8
1845.543	20.8
1849.852	17.8
1854.156	20.8
1858.457	22.8
1862.754	28.8
1867.047	22.8
1871.335	27.8
1875.62	24.8
1879.9	23.8
1884.177	22.8
1888.449	17.8
1892.718	20.8
1896.982	20.8
1901.243	23.8
1905.499	18.8
1909.752	22.8
1914	25.8
1918.245	18.8
1922.485	17.8
1926.722	17.8
1930.954	20.8
1935.183	17.8
1939.408	21.8
1943.628	22.8
1947.845	20.8
1952.058	24.8
1956.267	17.8
1960.472	12.8
1964.673	16.8
1968.87	15.8
1973.063	21.8
1977.252	23.8
1981.438	18.8
1985.619	21.8
1989.797	18.8
1993.971	16.8
1998.14	12.8
2002.306	16.8
2006.469	17.8
2010.627	15.8
2014.781	23.8
2018.932	20.8
2023.078	20.8
2027.221	17.8
2031.36	13.8
2035.495	13.8
2039.627	13.8
2043.754	15.8
2047.878	18.8
2051.998	22.8
2056.114	19.8
2060.226	21.8
2064.334	18.8
2068.439	14.8
2072.54	11.8
2076.637	16.8
2080.73	16.8
2084.82	16.8
2088.906	20.8
2092.988	18.8
2097.066	18.8
2101.14	18.8
2105.211	16.8
2109.278	16.8
2113.342	9.8
2117.401	13.8
2121.457	13.8
2125.509	20.8
2129.558	17.8
2133.602	17.8
2137.643	14.8
2141.681	14.8
2145.714	12.8
2149.744	15.8
2153.77	10.8
2157.793	14.8
2161.812	16.8
2165.827	14.8
2169.838	12.8
2173.846	11.8
2177.851	10.8
2181.851	11.8
2185.848	10.8
2189.841	10.8
2193.831	8.8
2197.817	10.8
2201.799	8.8
2205.778	11.8
2209.753	9.8
2213.725	10.8
2217.693	8.8
2221.657	6.8
2225.618	6.8
2229.575	7.8
2233.529	7.8
2237.479	6.8
2241.425	4.8
2245.368	7.8
2249.307	4.8
2253.243	7.8
2257.175	6.8
2261.104	11.8
2265.029	6.8
2268.95	2.8
2272.868	1.8
2276.783	2.8
2280.694	1.8
2284.601	4.8
2288.505	5.8
2292.405	7.8
2296.302	4.8
2300.195	5.8
2304.085	0.8
2307.971	0.8
2311.854	-1.2
2315.734	0.8
2319.609	1.8
2323.482	4.8
2327.351	0.8
2331.216	5.8
2335.078	4.8
2338.937	1.8
2342.792	-2.2
2346.643	-4.2
2350.492	-1.2
2354.336	-3.2
2358.178	-0.2
2362.015	-0.2
2365.85	2.8
2369.681	0.8
2373.508	-3.2
2377.333	0.8
2381.153	-1.2
2384.971	-0.2
2388.785	1.8
2392.595	-0.2
2396.402	-3.2
2400.206	0.8
2404.007	1.8
2407.804	-3.2
2411.597	-1.2
2415.388	-4.2
2419.174	1.8
2422.958	2.8
2426.738	-5.2
2430.515	-0.2
2434.289	-2.2
2438.059	-2.2
2441.825	-6.2
2445.589	-1.2
2449.349	-1.2
2453.106	-1.2
2456.859	-1.2
2460.61	-0.2
2464.356	-1.2
2468.1	-3.2
2471.84	-6.2
2475.577	-2.2
2479.311	-4.2
2483.041	2.8
2486.768	-1.2
2490.492	-4.2
2494.213	-2.2
2497.93	-5.2
2501.644	-3.2
2505.355	-5.2
2509.062	-7.2
2512.766	-3.2
2516.467	-5.2
2520.165	-3.2
2523.859	-3.2
2527.551	-2.2
2531.239	-5.2
2534.923	-7.2
2538.605	-7.2
2542.283	-9.2
2545.958	-2.2
2549.63	-0.2
2553.299	-2.2
2556.964	-1.2
2560.626	-4.2
2564.285	-8.2
2567.941	-3.2
2571.594	-8.2
2575.243	-9.2
2578.89	-1.2
2582.533	-0.2
2586.173	-1.2
2589.809	-2.2
2593.443	0.8
2597.073	-3.2
2600.701	-6.2
2604.325	-7.2
2607.946	-4.2
2611.564	-3.2
2615.178	-0.2
2618.79	1.8
2622.398	-0.2
2626.004	-1.2
2629.606	-0.2
2633.205	-4.2
2636.801	-2.2
2640.394	-5.2
2643.983	-3.2
2647.57	-2.2
2651.153	-1.2
2654.734	-2.2
2658.311	-2.2
2661.885	-0.2
2665.456	-4.2
2669.025	-2.2
2672.589	-2.2
2676.151	-3.2
2679.71	0.8
2683.266	-2.2
2686.819	-0.2
2690.368	-1.2
2693.915	-2.2
2697.458	-2.2
2700.999	-1.2
2704.536	-2.2
2708.071	0.8
2711.602	-0.2
2715.13	-2.2
2718.656	0.8
2722.178	-1.2
2725.697	-2.2
2729.214	1.8
2732.727	0.8
2736.237	1.8
2739.744	2.8
2743.249	6.8
2746.75	-1.2
2750.248	-6.2
2753.743	-1.2
2757.236	-2.2
2760.725	-0.2
2764.211	-0.2
2767.695	-2.2
2771.175	0.8
2774.652	1.8
2778.127	-1.2
2781.598	-1.2
2785.067	-5.2
2788.532	-5.2
2791.995	-2.2
2795.455	-0.2
2798.911	3.8
2802.365	3.8
2805.816	-0.2
2809.264	-0.2
2812.709	2.8
2816.151	1.8
2819.59	1.8
2823.026	1.8
2826.46	3.8
2829.89	8.8
2833.318	11.8
2836.742	17.8
2840.164	28.8
2843.583	30.8
2846.999	29.8
2850.412	28.8
2853.822	23.8
2857.229	26.8
2860.634	26.8
2864.035	31.8
2867.434	43.8
2870.83	46.8
2874.223	53.8
2877.613	57.8
2881	54.8
2884.385	61.8
2887.766	75.8
2891.145	74.8
2894.521	73.8
2897.894	67.8
2901.264	66.8
2904.631	60.8
2907.996	62.8
2911.358	60.8
2914.717	53.8
2918.073	50.8
2921.426	50.8
2924.777	43.8
2928.124	44.8
2931.469	42.8
2934.811	43.8
2938.15	40.8
2941.487	31.8
2944.821	34.8
2948.152	32.8
2951.48	38.8
2954.805	43.8
2958.128	43.8
2961.447	43.8
2964.765	39.8
2968.079	44.8
2971.39	38.8
2974.699	35.8
2978.005	23.8
2981.308	26.8
2984.609	25.8
2987.907	24.8
2991.202	24.8
2994.494	18.8
2997.784	24.8
3001.07	27.8
3004.355	21.8
3007.636	19.8
3010.915	21.8
3014.191	23.8
3017.464	21.8
3020.734	30.8
3024.002	28.8
3027.267	29.8
3030.53	27.8
3033.789	31.8
3037.046	22.8
3040.301	28.8
3043.552	26.8
3046.801	33.8
3050.048	34.8
3053.291	37.8
3056.532	36.8
3059.771	39.8
3063.006	34.8
3066.239	35.8
3069.469	40.8
3072.697	38.8
3075.922	39.8
3079.144	45.8
3082.364	45.8
3085.581	49.8
3088.795	50.8
3092.007	53.8
3095.216	54.8
3098.423	49.8
3101.627	49.8
3104.828	57.8
3108.026	55.8
3111.222	57.8
3114.416	61.8
3117.607	66.8
3120.795	64.8
3123.98	70.8
3127.163	62.8
3130.344	64.8
3133.521	68.8
3136.696	67.8
3139.869	78.8
3143.039	86.8
3146.206	78.8
3149.371	76.8
3152.533	78.8
3155.693	74.8
3158.85	74.8
3162.005	78.8
3165.157	78.8
3168.306	74.8
3171.453	82.8
3174.597	86.8
3177.739	81.8
3180.878	83.8
3184.014	79.8
3187.149	77.8
3190.28	82.8
3193.409	81.8
3196.536	83.8
3199.659	85.8
3202.781	88.8
3205.9	85.8
3209.016	85.8
3212.13	86.8
3215.241	79.8
3218.35	83.8
3221.456	79.8
3224.56	85.8
3227.661	87.8
3230.76	83.8
3233.856	83.8
3236.95	82.8
3240.041	72.8
3243.13	76.8
3246.216	69.8
3249.3	70.8
3252.382	75.8
3255.46	77.8
3258.537	69.8
3261.611	74.8
3264.682	70.8
3267.751	68.8
3270.818	67.8
3273.882	69.8
3276.943	68.8
3280.002	67.8
3283.059	71.8
3286.113	69.8
3289.165	66.8
3292.214	68.8
3295.261	65.8
3298.306	64.8
3301.348	62.8
3304.387	61.8
3307.425	64.8
3310.459	64.8
3313.492	63.8
3316.521	59.8
3319.549	60.8
3322.574	61.8
3325.597	57.8
3328.617	57.8
3331.635	61.8
3334.65	55.8
3337.663	60.8
3340.674	61.8
3343.682	61.8
3346.688	59.8
3349.691	60.8
3352.692	56.8
3355.691	53.8
3358.687	53.8
3361.681	53.8
3364.673	60.8
3367.662	56.8
3370.649	61.8
3373.633	55.8
3376.615	53.8
3379.595	46.8
3382.572	49.8
3385.547	47.8
3388.52	43.8
3391.49	51.8
3394.458	50.8
3397.424	48.8
3400.387	50.8
3403.348	47.8
3406.307	39.8
3409.263	46.8
3412.217	42.8
3415.168	39.8
3418.118	44.8
3421.065	51.8
3424.009	43.8
3426.951	44.8
3429.891	35.8
3432.829	36.8
3435.764	37.8
3438.697	30.8
3441.628	33.8
3444.557	37.8
3447.483	35.8
3450.407	36.8
3453.328	37.8
3456.247	27.8
3459.164	30.8
3462.079	25.8
3464.991	23.8
3467.902	20.8
3470.809	24.8
3473.715	24.8
3476.618	26.8
3479.519	22.8
3482.418	21.8
3485.315	20.8
3488.209	20.8
3491.101	17.8
3493.99	15.8
3496.878	13.8
3499.763	14.8
3502.646	18.8
3505.527	15.8
3508.405	16.8
3511.281	12.8
3514.155	11.8
3517.027	13.8
3519.897	8.8
3522.764	7.8
3525.629	8.8
3528.492	6.8
3531.352	7.8
3534.211	8.8
3537.067	-0.2
3539.921	1.8
3542.773	3.8
3545.622	6.8
3548.469	2.8
3551.315	4.8
3554.157	3.8
3556.998	5.8
3559.837	2.8
3562.673	1.8
3565.507	0.8
3568.339	1.8
3571.169	-0.2
3573.996	1.8
3576.822	-3.2
3579.645	-4.2
3582.466	0.8
3585.285	-0.2
3588.101	-2.2
3590.916	-3.2
3593.728	1.8
3596.538	-3.2
3599.346	-2.2
3602.152	-5.2
3604.956	-5.2
3607.757	-6.2
3610.556	-6.2
3613.354	-1.2
3616.149	-4.2
3618.942	-5.2
3621.732	-2.2
3624.521	-3.2
3627.307	-3.2
3630.092	-7.2
3632.874	-8.2
3635.654	-6.2
3638.432	-9.2
3641.208	-3.2
3643.982	-1.2
3646.753	-4.2
3649.523	-6.2
3652.29	-8.2
3655.055	-12.2
3657.818	-9.2
3660.579	-7.2
3663.338	-8.2
3666.095	-7.2
3668.849	-6.2
3671.602	-8.2
3674.352	-2.2
3677.101	-7.2
3679.847	-10.2
3682.591	-8.2
3685.333	-14.2
3688.073	-11.2
3690.811	-8.2
3693.547	-8.2
3696.281	-9.2
3699.013	-8.2
3701.742	-8.2
3704.47	-10.2
3707.195	-12.2
3709.919	-11.2
3712.64	-12.2
3715.359	-11.2
3718.076	-8.2
3720.792	-8.2
3723.505	-8.2
3726.216	-10.2
3728.925	-9.2
3731.632	-10.2
3734.336	-14.2
3737.039	-7.2
3739.74	-14.2
3742.439	-11.2
3745.136	-11.2
3747.83	-10.2
3750.523	-11.2
3753.213	-11.2
3755.902	-9.2
3758.589	-8.2
3761.273	-9.2
3763.956	-10.2
3766.636	-10.2
3769.315	-11.2
3771.991	-12.2
3774.665	-10.2
3777.338	-11.2
3780.008	-8.2
3782.677	-11.2
3785.343	-11.2
3788.007	-11.2
3790.67	-11.2
3793.33	-12.2
3795.989	-14.2
3798.645	-11.2
3801.299	-10.2
3803.952	-8.2
3806.602	-8.2
3809.251	-8.2
3811.897	-13.2
3814.542	-14.2
3817.184	-13.2
3819.825	-16.2
3822.463	-15.2
3825.1	-12.2
3827.735	-11.2
3830.367	-7.2
3832.998	-8.2
3835.627	-9.2
3838.253	-9.2
3840.878	-16.2
3843.501	-16.2
3846.122	-15.2
3848.741	-13.2
3851.358	-8.2
3853.973	-8.2
3856.586	-10.2
3859.197	-8.2
3861.806	-13.2
3864.414	-15.2
3867.019	-13.2
3869.622	-16.2
3872.224	-15.2
3874.823	-11.2
3877.421	-6.2
3880.016	-8.2
3882.61	-8.2
3885.202	-2.2
3887.792	-7.2
3890.38	-12.2
3892.966	-13.2
3895.55	-12.2
3898.132	-10.2
3900.713	-11.2
3903.291	-10.2
3905.868	-8.2
3908.442	-8.2
3911.015	-13.2
3913.586	-12.2
3916.155	-10.2
3918.722	-13.2
3921.287	-13.2
3923.85	-12.2
3926.411	-11.2
3928.971	-13.2
3931.528	-10.2
3934.084	-9.2
3936.638	-10.2
3939.19	-12.2
3941.74	-10.2
3944.288	-12.2
3946.834	-10.2
3949.378	-12.2
3951.921	-9.2
3954.462	-13.2
3957	-11.2
3959.537	-7.2
3962.072	-8.2
3964.606	-10.2
3967.137	-13.2
3969.667	-9.2
3972.194	-13.2
3974.72	-13.2
3977.244	-14.2
3979.766	-10.2
3982.286	-13.2
3984.805	-11.2
3987.321	-10.2
3989.836	-13.2
3992.349	-7.2
3994.86	-10.2
3997.369	-14.2
3999.877	-12.2
4002.382	-11.2
4004.886	-14.2
4007.388	-11.2
4009.888	-13.2
4012.386	-10.2
4014.883	-13.2
4017.377	-11.2
4019.87	-14.2
4022.361	-10.2
4024.85	-14.2
4027.338	-13.2
4029.823	-11.2
4032.307	-9.2
4034.789	-9.2
4037.269	-11.2
4039.747	-9.2
4042.224	-12.2
4044.699	-14.2
4047.172	-14.2
4049.643	-15.2
4052.112	-13.2
4054.58	-11.2
4057.046	-9.2
4059.51	-10.2
4061.972	-9.2
4064.432	-10.2
4066.891	-14.2
4069.348	-12.2
4071.803	-14.2
4074.256	-16.2
4076.708	-7.2
4079.158	-9.2
4081.606	-13.2
4084.052	-9.2
4086.497	-13.2
4088.939	-7.2
4091.38	-10.2
4093.819	-11.2
4096.257	-11.2
4098.693	-11.2
4101.127	-15.2
4103.559	-7.2
4105.989	-4.2
4108.418	-2.2
4110.845	-5.2
4113.27	-5.2
4115.694	-2.2
4118.115	-2.2
4120.535	-14.2
4122.954	-12.2
4125.37	-16.2
4127.785	-13.2
4130.198	-10.2
4132.609	-9.2
4135.019	-11.2
4137.427	-14.2
4139.833	-12.2
4142.237	-16.2
