Data from h50_RamanShift_03.txt Node
Date: Mon Mar 19 12:36:53 IST 2018
User: aro
Spectrometer: QEPB0276
Trigger mode: 0
Integration Time (sec): 5.000000E0
Scans to average: 1
Electric dark correction enabled: true
Nonlinearity correction enabled: false
Boxcar width: 0
XAxis mode: Raman Shifts
Number of Pixels in Spectrum: 1044
>>>>>Begin Spectral Data<<<<<
160.701	1.6
166.742	-1.4
172.777	2.6
178.805	15.6
184.826	30.6
190.841	62.6
196.849	98.6
202.85	124.6
208.845	130.6
214.833	128.6
220.815	130.6
226.789	133.6
232.758	136.6
238.719	138.6
244.674	144.6
250.623	140.6
256.565	146.6
262.5	142.6
268.429	145.6
274.351	135.6
280.267	138.6
286.176	139.6
292.079	142.6
297.975	138.6
303.865	142.6
309.748	140.6
315.625	146.6
321.495	155.6
327.359	149.6
333.217	152.6
339.068	150.6
344.912	151.6
350.751	144.6
356.583	141.6
362.408	133.6
368.227	150.6
374.04	146.6
379.847	156.6
385.647	165.6
391.44	167.6
397.228	178.6
403.009	189.6
408.784	191.6
414.553	189.6
420.315	191.6
426.071	196.6
431.821	179.6
437.565	160.6
443.302	154.6
449.033	157.6
454.758	155.6
460.477	155.6
466.189	154.6
471.896	150.6
477.596	144.6
483.29	136.6
488.978	133.6
494.66	133.6
500.335	135.6
506.005	125.6
511.668	116.6
517.325	116.6
522.977	111.6
528.622	117.6
534.261	117.6
539.894	109.6
545.521	103.6
551.141	97.6
556.756	89.6
562.365	90.6
567.968	87.6
573.565	88.6
579.155	85.6
584.74	87.6
590.319	88.6
595.892	88.6
601.459	86.6
607.02	84.6
612.575	85.6
618.124	82.6
623.667	84.6
629.204	75.6
634.735	80.6
640.261	83.6
645.781	82.6
651.294	92.6
656.802	89.6
662.304	79.6
667.8	78.6
673.29	73.6
678.775	75.6
684.254	72.6
689.726	75.6
695.193	74.6
700.655	74.6
706.11	77.6
711.56	78.6
717.004	72.6
722.442	67.6
727.874	68.6
733.301	69.6
738.722	68.6
744.137	72.6
749.547	71.6
754.951	75.6
760.349	73.6
765.741	75.6
771.128	73.6
776.509	73.6
781.885	78.6
787.254	83.6
792.618	82.6
797.977	89.6
803.33	109.6
808.677	133.6
814.019	151.6
819.355	150.6
824.686	119.6
830.011	104.6
835.33	108.6
840.644	127.6
845.952	137.6
851.255	128.6
856.552	107.6
861.844	90.6
867.13	81.6
872.41	79.6
877.686	71.6
882.955	69.6
888.219	71.6
893.478	65.6
898.731	71.6
903.979	76.6
909.221	82.6
914.458	69.6
919.69	71.6
924.916	66.6
930.136	67.6
935.351	67.6
940.561	69.6
945.766	77.6
950.965	77.6
956.158	77.6
961.347	74.6
966.529	80.6
971.707	81.6
976.879	90.6
982.046	93.6
987.208	83.6
992.364	76.6
997.515	75.6
1002.66	87.6
1007.801	90.6
1012.936	73.6
1018.066	71.6
1023.19	69.6
1028.309	66.6
1033.423	71.6
1038.532	80.6
1043.636	90.6
1048.734	91.6
1053.827	81.6
1058.915	73.6
1063.998	63.6
1069.075	59.6
1074.147	60.6
1079.214	57.6
1084.276	63.6
1089.333	66.6
1094.385	63.6
1099.431	71.6
1104.472	66.6
1109.509	66.6
1114.54	62.6
1119.565	61.6
1124.586	55.6
1129.602	54.6
1134.613	56.6
1139.618	63.6
1144.619	73.6
1149.614	89.6
1154.604	109.6
1159.589	123.6
1164.57	119.6
1169.545	105.6
1174.515	100.6
1179.48	85.6
1184.44	77.6
1189.395	66.6
1194.345	60.6
1199.29	59.6
1204.23	63.6
1209.165	58.6
1214.095	61.6
1219.021	77.6
1223.941	82.6
1228.856	78.6
1233.766	72.6
1238.672	64.6
1243.572	61.6
1248.467	58.6
1253.358	56.6
1258.244	62.6
1263.124	56.6
1268	50.6
1272.871	51.6
1277.737	56.6
1282.599	55.6
1287.455	55.6
1292.306	60.6
1297.153	58.6
1301.995	58.6
1306.832	61.6
1311.664	61.6
1316.491	64.6
1321.314	72.6
1326.132	89.6
1330.945	107.6
1335.753	120.6
1340.556	105.6
1345.354	86.6
1350.148	69.6
1354.937	64.6
1359.722	69.6
1364.501	76.6
1369.276	80.6
1374.046	68.6
1378.811	57.6
1383.572	47.6
1388.327	45.6
1393.079	46.6
1397.825	42.6
1402.567	46.6
1407.304	40.6
1412.036	44.6
1416.764	40.6
1421.487	48.6
1426.205	45.6
1430.919	50.6
1435.628	60.6
1440.333	77.6
1445.032	86.6
1449.727	83.6
1454.418	105.6
1459.104	126.6
1463.785	145.6
1468.462	135.6
1473.134	105.6
1477.802	72.6
1482.465	53.6
1487.123	48.6
1491.777	40.6
1496.426	43.6
1501.071	44.6
1505.711	42.6
1510.347	39.6
1514.978	40.6
1519.604	39.6
1524.226	29.6
1528.844	34.6
1533.457	37.6
1538.065	41.6
1542.669	38.6
1547.269	36.6
1551.864	34.6
1556.454	35.6
1561.041	30.6
1565.622	32.6
1570.199	31.6
1574.772	29.6
1579.34	29.6
1583.904	32.6
1588.464	35.6
1593.019	30.6
1597.569	33.6
1602.115	31.6
1606.657	28.6
1611.195	33.6
1615.728	30.6
1620.256	28.6
1624.78	30.6
1629.3	31.6
1633.816	32.6
1638.327	33.6
1642.834	30.6
1647.336	28.6
1651.834	27.6
1656.328	27.6
1660.817	30.6
1665.302	30.6
1669.783	30.6
1674.259	31.6
1678.732	31.6
1683.199	27.6
1687.663	28.6
1692.122	23.6
1696.577	26.6
1701.028	29.6
1705.474	26.6
1709.917	24.6
1714.355	27.6
1718.788	29.6
1723.218	28.6
1727.643	25.6
1732.064	23.6
1736.481	21.6
1740.893	20.6
1745.301	28.6
1749.705	22.6
1754.105	22.6
1758.501	23.6
1762.893	19.6
1767.28	19.6
1771.663	21.6
1776.042	16.6
1780.417	20.6
1784.787	20.6
1789.154	21.6
1793.516	23.6
1797.874	21.6
1802.228	20.6
1806.578	19.6
1810.924	23.6
1815.266	19.6
1819.603	19.6
1823.937	17.6
1828.266	14.6
1832.591	20.6
1836.913	16.6
1841.23	17.6
1845.543	19.6
1849.852	15.6
1854.156	20.6
1858.457	19.6
1862.754	19.6
1867.047	16.6
1871.335	20.6
1875.62	15.6
1879.9	18.6
1884.177	18.6
1888.449	14.6
1892.718	19.6
1896.982	19.6
1901.243	20.6
1905.499	19.6
1909.752	17.6
1914	16.6
1918.245	12.6
1922.485	13.6
1926.722	17.6
1930.954	17.6
1935.183	20.6
1939.408	21.6
1943.628	19.6
1947.845	19.6
1952.058	20.6
1956.267	14.6
1960.472	10.6
1964.673	10.6
1968.87	11.6
1973.063	14.6
1977.252	14.6
1981.438	15.6
1985.619	15.6
1989.797	15.6
1993.971	12.6
1998.14	10.6
2002.306	10.6
2006.469	12.6
2010.627	13.6
2014.781	17.6
2018.932	16.6
2023.078	16.6
2027.221	14.6
2031.36	13.6
2035.495	12.6
2039.627	9.6
2043.754	9.6
2047.878	15.6
2051.998	15.6
2056.114	15.6
2060.226	17.6
2064.334	12.6
2068.439	10.6
2072.54	9.6
2076.637	9.6
2080.73	11.6
2084.82	8.6
2088.906	15.6
2092.988	15.6
2097.066	13.6
2101.14	14.6
2105.211	13.6
2109.278	11.6
2113.342	8.6
2117.401	8.6
2121.457	9.6
2125.509	13.6
2129.558	13.6
2133.602	13.6
2137.643	10.6
2141.681	11.6
2145.714	12.6
2149.744	9.6
2153.77	7.6
2157.793	14.6
2161.812	9.6
2165.827	10.6
2169.838	8.6
2173.846	9.6
2177.851	13.6
2181.851	10.6
2185.848	12.6
2189.841	10.6
2193.831	3.6
2197.817	8.6
2201.799	7.6
2205.778	9.6
2209.753	6.6
2213.725	5.6
2217.693	4.6
2221.657	4.6
2225.618	8.6
2229.575	11.6
2233.529	10.6
2237.479	6.6
2241.425	3.6
2245.368	6.6
2249.307	1.6
2253.243	9.6
2257.175	5.6
2261.104	12.6
2265.029	8.6
2268.95	4.6
2272.868	5.6
2276.783	3.6
2280.694	5.6
2284.601	5.6
2288.505	5.6
2292.405	7.6
2296.302	7.6
2300.195	9.6
2304.085	4.6
2307.971	7.6
2311.854	3.6
2315.734	4.6
2319.609	4.6
2323.482	1.6
2327.351	4.6
2331.216	9.6
2335.078	9.6
2338.937	10.6
2342.792	2.6
2346.643	1.6
2350.492	5.6
2354.336	2.6
2358.178	2.6
2362.015	5.6
2365.85	5.6
2369.681	5.6
2373.508	4.6
2377.333	3.6
2381.153	5.6
2384.971	5.6
2388.785	6.6
2392.595	8.6
2396.402	3.6
2400.206	3.6
2404.007	0.6
2407.804	-0.4
2411.597	3.6
2415.388	2.6
2419.174	5.6
2422.958	6.6
2426.738	1.6
2430.515	6.6
2434.289	4.6
2438.059	0.6
2441.825	-1.4
2445.589	3.6
2449.349	2.6
2453.106	6.6
2456.859	6.6
2460.61	6.6
2464.356	7.6
2468.1	0.6
2471.84	1.6
2475.577	-0.4
2479.311	-1.4
2483.041	4.6
2486.768	3.6
2490.492	5.6
2494.213	7.6
2497.93	0.6
2501.644	4.6
2505.355	3.6
2509.062	-0.4
2512.766	1.6
2516.467	0.6
2520.165	2.6
2523.859	3.6
2527.551	3.6
2531.239	5.6
2534.923	2.6
2538.605	0.6
2542.283	-2.4
2545.958	3.6
2549.63	2.6
2553.299	3.6
2556.964	2.6
2560.626	5.6
2564.285	1.6
2567.941	2.6
2571.594	-0.4
2575.243	0.6
2578.89	1.6
2582.533	1.6
2586.173	0.6
2589.809	4.6
2593.443	7.6
2597.073	0.6
2600.701	0.6
2604.325	1.6
2607.946	1.6
2611.564	2.6
2615.178	4.6
2618.79	3.6
2622.398	3.6
2626.004	3.6
2629.606	5.6
2633.205	5.6
2636.801	3.6
2640.394	0.6
2643.983	2.6
2647.57	5.6
2651.153	7.6
2654.734	3.6
2658.311	5.6
2661.885	6.6
2665.456	4.6
2669.025	5.6
2672.589	6.6
2676.151	5.6
2679.71	6.6
2683.266	3.6
2686.819	8.6
2690.368	5.6
2693.915	3.6
2697.458	3.6
2700.999	8.6
2704.536	6.6
2708.071	8.6
2711.602	8.6
2715.13	7.6
2718.656	2.6
2722.178	3.6
2725.697	3.6
2729.214	9.6
2732.727	7.6
2736.237	8.6
2739.744	10.6
2743.249	10.6
2746.75	7.6
2750.248	2.6
2753.743	3.6
2757.236	3.6
2760.725	2.6
2764.211	4.6
2767.695	6.6
2771.175	6.6
2774.652	8.6
2778.127	3.6
2781.598	1.6
2785.067	-5.4
2788.532	3.6
2791.995	4.6
2795.455	6.6
2798.911	3.6
2802.365	6.6
2805.816	6.6
2809.264	5.6
2812.709	6.6
2816.151	5.6
2819.59	6.6
2823.026	8.6
2826.46	11.6
2829.89	14.6
2833.318	17.6
2836.742	22.6
2840.164	28.6
2843.583	33.6
2846.999	34.6
2850.412	32.6
2853.822	32.6
2857.229	30.6
2860.634	28.6
2864.035	35.6
2867.434	48.6
2870.83	52.6
2874.223	57.6
2877.613	65.6
2881	62.6
2884.385	71.6
2887.766	73.6
2891.145	77.6
2894.521	75.6
2897.894	74.6
2901.264	63.6
2904.631	58.6
2907.996	62.6
2911.358	55.6
2914.717	51.6
2918.073	42.6
2921.426	46.6
2924.777	42.6
2928.124	44.6
2931.469	43.6
2934.811	37.6
2938.15	34.6
2941.487	31.6
2944.821	27.6
2948.152	29.6
2951.48	32.6
2954.805	33.6
2958.128	42.6
2961.447	33.6
2964.765	30.6
2968.079	35.6
2971.39	29.6
2974.699	20.6
2978.005	15.6
2981.308	14.6
2984.609	12.6
2987.907	11.6
2991.202	11.6
2994.494	6.6
2997.784	6.6
3001.07	5.6
3004.355	-0.4
3007.636	5.6
3010.915	6.6
3014.191	6.6
3017.464	2.6
3020.734	4.6
3024.002	3.6
3027.267	3.6
3030.53	2.6
3033.789	1.6
3037.046	-1.4
3040.301	0.6
3043.552	1.6
3046.801	2.6
3050.048	3.6
3053.291	2.6
3056.532	3.6
3059.771	2.6
3063.006	-0.4
3066.239	-0.4
3069.469	2.6
3072.697	1.6
3075.922	-0.4
3079.144	3.6
3082.364	2.6
3085.581	2.6
3088.795	2.6
3092.007	-0.4
3095.216	-1.4
3098.423	-1.4
3101.627	0.6
3104.828	5.6
3108.026	4.6
3111.222	1.6
3114.416	3.6
3117.607	5.6
3120.795	0.6
3123.98	0.6
3127.163	2.6
3130.344	3.6
3133.521	3.6
3136.696	5.6
3139.869	5.6
3143.039	3.6
3146.206	4.6
3149.371	2.6
3152.533	3.6
3155.693	1.6
3158.85	1.6
3162.005	0.6
3165.157	2.6
3168.306	0.6
3171.453	2.6
3174.597	3.6
3177.739	1.6
3180.878	1.6
3184.014	0.6
3187.149	1.6
3190.28	0.6
3193.409	0.6
3196.536	1.6
3199.659	4.6
3202.781	3.6
3205.9	5.6
3209.016	3.6
3212.13	0.6
3215.241	2.6
3218.35	2.6
3221.456	3.6
3224.56	6.6
3227.661	4.6
3230.76	5.6
3233.856	8.6
3236.95	4.6
3240.041	-1.4
3243.13	-3.4
3246.216	1.6
3249.3	1.6
3252.382	5.6
3255.46	4.6
3258.537	3.6
3261.611	8.6
3264.682	3.6
3267.751	1.6
3270.818	-1.4
3273.882	-1.4
3276.943	2.6
3280.002	-0.4
3283.059	-0.4
3286.113	2.6
3289.165	0.6
3292.214	0.6
3295.261	-1.4
3298.306	-4.4
3301.348	-1.4
3304.387	-0.4
3307.425	3.6
3310.459	4.6
3313.492	0.6
3316.521	4.6
3319.549	1.6
3322.574	0.6
3325.597	-2.4
3328.617	-6.4
3331.635	-1.4
3334.65	-6.4
3337.663	4.6
3340.674	1.6
3343.682	3.6
3346.688	2.6
3349.691	1.6
3352.692	1.6
3355.691	-3.4
3358.687	-6.4
3361.681	-1.4
3364.673	-0.4
3367.662	-1.4
3370.649	4.6
3373.633	2.6
3376.615	3.6
3379.595	-1.4
3382.572	1.6
3385.547	-2.4
3388.52	-1.4
3391.49	-0.4
3394.458	-0.4
3397.424	-1.4
3400.387	-1.4
3403.348	-0.4
3406.307	-0.4
3409.263	-0.4
3412.217	0.6
3415.168	0.6
3418.118	2.6
3421.065	5.6
3424.009	-2.4
3426.951	1.6
3429.891	-1.4
3432.829	-5.4
3435.764	-0.4
3438.697	-1.4
3441.628	1.6
3444.557	1.6
3447.483	-0.4
3450.407	0.6
3453.328	1.6
3456.247	-6.4
3459.164	-1.4
3462.079	-1.4
3464.991	1.6
3467.902	-1.4
3470.809	0.6
3473.715	-0.4
3476.618	-0.4
3479.519	-5.4
3482.418	-2.4
3485.315	-5.4
3488.209	-3.4
3491.101	-1.4
3493.99	-4.4
3496.878	-0.4
3499.763	-0.4
3502.646	-1.4
3505.527	-4.4
3508.405	-2.4
3511.281	-5.4
3514.155	-3.4
3517.027	-1.4
3519.897	-0.4
3522.764	-1.4
3525.629	-3.4
3528.492	-2.4
3531.352	-6.4
3534.211	-6.4
3537.067	-6.4
3539.921	-8.4
3542.773	-3.4
3545.622	-0.4
3548.469	-2.4
3551.315	1.6
3554.157	-4.4
3556.998	-1.4
3559.837	-4.4
3562.673	-4.4
3565.507	-5.4
3568.339	-3.4
3571.169	-0.4
3573.996	2.6
3576.822	-2.4
3579.645	-1.4
3582.466	-2.4
3585.285	-1.4
3588.101	-4.4
3590.916	-5.4
3593.728	-2.4
3596.538	-7.4
3599.346	-3.4
3602.152	-4.4
3604.956	-4.4
3607.757	-2.4
3610.556	-3.4
3613.354	-0.4
3616.149	-4.4
3618.942	-4.4
3621.732	-2.4
3624.521	-5.4
3627.307	-5.4
3630.092	-2.4
3632.874	-3.4
3635.654	-2.4
3638.432	-3.4
3641.208	-3.4
3643.982	0.6
3646.753	-3.4
3649.523	-10.4
3652.29	-4.4
3655.055	-5.4
3657.818	-6.4
3660.579	-0.4
3663.338	-2.4
3666.095	-2.4
3668.849	-3.4
3671.602	-3.4
3674.352	1.6
3677.101	-5.4
3679.847	-6.4
3682.591	-4.4
3685.333	-5.4
3688.073	-3.4
3690.811	-0.4
3693.547	-1.4
3696.281	-4.4
3699.013	-2.4
3701.742	-4.4
3704.47	-11.4
3707.195	-6.4
3709.919	-5.4
3712.64	-3.4
3715.359	-2.4
3718.076	-2.4
3720.792	-1.4
3723.505	-4.4
3726.216	-6.4
3728.925	-5.4
3731.632	-3.4
3734.336	-6.4
3737.039	-2.4
3739.74	-4.4
3742.439	-2.4
3745.136	-1.4
3747.83	-5.4
3750.523	-4.4
3753.213	-6.4
3755.902	-5.4
3758.589	-5.4
3761.273	-1.4
3763.956	-3.4
3766.636	-4.4
3769.315	-6.4
3771.991	-2.4
3774.665	-1.4
3777.338	-2.4
3780.008	-4.4
3782.677	-5.4
3785.343	-5.4
3788.007	-1.4
3790.67	-3.4
3793.33	-5.4
3795.989	-3.4
3798.645	-5.4
3801.299	-4.4
3803.952	-2.4
3806.602	-4.4
3809.251	-4.4
3811.897	-3.4
3814.542	-4.4
3817.184	-4.4
3819.825	-6.4
3822.463	-7.4
3825.1	-4.4
3827.735	-6.4
3830.367	-4.4
3832.998	-3.4
3835.627	-2.4
3838.253	-0.4
3840.878	-4.4
3843.501	-3.4
3846.122	-3.4
3848.741	-5.4
3851.358	-5.4
3853.973	-1.4
3856.586	-5.4
3859.197	-4.4
3861.806	-6.4
3864.414	-6.4
3867.019	-4.4
3869.622	-3.4
3872.224	-5.4
3874.823	-2.4
3877.421	-0.4
3880.016	-2.4
3882.61	-1.4
3885.202	1.6
3887.792	-3.4
3890.38	-2.4
3892.966	-3.4
3895.55	-3.4
3898.132	0.6
3900.713	-1.4
3903.291	-4.4
3905.868	-2.4
3908.442	-6.4
3911.015	-8.4
3913.586	-3.4
3916.155	-2.4
3918.722	-2.4
3921.287	-3.4
3923.85	-2.4
3926.411	-2.4
3928.971	-8.4
3931.528	-4.4
3934.084	-8.4
3936.638	-3.4
3939.19	-5.4
3941.74	-1.4
3944.288	-3.4
3946.834	-1.4
3949.378	-2.4
3951.921	-3.4
3954.462	-8.4
3957	-7.4
3959.537	-3.4
3962.072	-2.4
3964.606	-0.4
3967.137	0.6
3969.667	-0.4
3972.194	-2.4
3974.72	-6.4
3977.244	-6.4
3979.766	-4.4
3982.286	-9.4
3984.805	-2.4
3987.321	-1.4
3989.836	-5.4
3992.349	-0.4
3994.86	0.6
3997.369	-4.4
3999.877	-4.4
4002.382	-6.4
4004.886	-5.4
4007.388	-4.4
4009.888	-7.4
4012.386	-3.4
4014.883	-4.4
4017.377	-2.4
4019.87	-6.4
4022.361	-3.4
4024.85	-9.4
4027.338	-7.4
4029.823	-3.4
4032.307	-2.4
4034.789	-4.4
4037.269	-0.4
4039.747	-1.4
4042.224	-1.4
4044.699	-4.4
4047.172	-6.4
4049.643	-8.4
4052.112	-7.4
4054.58	-6.4
4057.046	-4.4
4059.51	-1.4
4061.972	1.6
4064.432	-4.4
4066.891	-4.4
4069.348	-5.4
4071.803	-7.4
4074.256	-9.4
4076.708	-4.4
4079.158	-1.4
4081.606	-5.4
4084.052	-1.4
4086.497	-3.4
4088.939	-0.4
4091.38	-2.4
4093.819	-7.4
4096.257	-4.4
4098.693	-5.4
4101.127	-4.4
4103.559	-1.4
4105.989	0.6
4108.418	1.6
4110.845	4.6
4113.27	2.6
4115.694	3.6
4118.115	0.6
4120.535	-8.4
4122.954	-5.4
4125.37	-7.4
4127.785	-5.4
4130.198	-0.4
4132.609	-3.4
4135.019	-1.4
4137.427	-3.4
4139.833	-5.4
4142.237	-8.4
