Data from h50_RamanShift_02.txt Node
Date: Mon Mar 19 12:36:48 IST 2018
User: aro
Spectrometer: QEPB0276
Trigger mode: 0
Integration Time (sec): 5.000000E0
Scans to average: 1
Electric dark correction enabled: true
Nonlinearity correction enabled: false
Boxcar width: 0
XAxis mode: Raman Shifts
Number of Pixels in Spectrum: 1044
>>>>>Begin Spectral Data<<<<<
160.701	-0.4
166.742	2.6
172.777	3.6
178.805	13.6
184.826	30.6
190.841	60.6
196.849	95.6
202.85	124.6
208.845	129.6
214.833	137.6
220.815	134.6
226.789	137.6
232.758	137.6
238.719	140.6
244.674	143.6
250.623	144.6
256.565	140.6
262.5	142.6
268.429	144.6
274.351	140.6
280.267	141.6
286.176	140.6
292.079	135.6
297.975	142.6
303.865	138.6
309.748	135.6
315.625	145.6
321.495	150.6
327.359	156.6
333.217	151.6
339.068	148.6
344.912	152.6
350.751	144.6
356.583	146.6
362.408	143.6
368.227	141.6
374.04	148.6
379.847	155.6
385.647	161.6
391.44	176.6
397.228	181.6
403.009	189.6
408.784	188.6
414.553	181.6
420.315	185.6
426.071	191.6
431.821	174.6
437.565	154.6
443.302	161.6
449.033	155.6
454.758	159.6
460.477	167.6
466.189	155.6
471.896	144.6
477.596	137.6
483.29	135.6
488.978	134.6
494.66	132.6
500.335	140.6
506.005	124.6
511.668	116.6
517.325	115.6
522.977	113.6
528.622	115.6
534.261	113.6
539.894	107.6
545.521	102.6
551.141	98.6
556.756	98.6
562.365	92.6
567.968	92.6
573.565	91.6
579.155	86.6
584.74	86.6
590.319	83.6
595.892	88.6
601.459	85.6
607.02	84.6
612.575	86.6
618.124	88.6
623.667	85.6
629.204	80.6
634.735	78.6
640.261	83.6
645.781	77.6
651.294	95.6
656.802	86.6
662.304	83.6
667.8	80.6
673.29	76.6
678.775	75.6
684.254	75.6
689.726	70.6
695.193	72.6
700.655	74.6
706.11	79.6
711.56	80.6
717.004	74.6
722.442	72.6
727.874	75.6
733.301	70.6
738.722	72.6
744.137	72.6
749.547	72.6
754.951	75.6
760.349	77.6
765.741	79.6
771.128	75.6
776.509	76.6
781.885	85.6
787.254	83.6
792.618	79.6
797.977	89.6
803.33	111.6
808.677	140.6
814.019	160.6
819.355	150.6
824.686	123.6
830.011	102.6
835.33	113.6
840.644	125.6
845.952	140.6
851.255	127.6
856.552	109.6
861.844	91.6
867.13	84.6
872.41	79.6
877.686	79.6
882.955	68.6
888.219	73.6
893.478	65.6
898.731	73.6
903.979	76.6
909.221	83.6
914.458	72.6
919.69	70.6
924.916	69.6
930.136	66.6
935.351	68.6
940.561	71.6
945.766	77.6
950.965	72.6
956.158	73.6
961.347	74.6
966.529	78.6
971.707	87.6
976.879	94.6
982.046	92.6
987.208	76.6
992.364	73.6
997.515	76.6
1002.66	89.6
1007.801	87.6
1012.936	75.6
1018.066	70.6
1023.19	69.6
1028.309	70.6
1033.423	74.6
1038.532	85.6
1043.636	89.6
1048.734	90.6
1053.827	77.6
1058.915	63.6
1063.998	67.6
1069.075	67.6
1074.147	60.6
1079.214	62.6
1084.276	61.6
1089.333	63.6
1094.385	61.6
1099.431	68.6
1104.472	64.6
1109.509	70.6
1114.54	61.6
1119.565	63.6
1124.586	66.6
1129.602	58.6
1134.613	61.6
1139.618	63.6
1144.619	78.6
1149.614	87.6
1154.604	109.6
1159.589	125.6
1164.57	120.6
1169.545	110.6
1174.515	98.6
1179.48	86.6
1184.44	66.6
1189.395	59.6
1194.345	63.6
1199.29	54.6
1204.23	65.6
1209.165	58.6
1214.095	65.6
1219.021	77.6
1223.941	85.6
1228.856	80.6
1233.766	69.6
1238.672	66.6
1243.572	59.6
1248.467	53.6
1253.358	59.6
1258.244	62.6
1263.124	61.6
1268	52.6
1272.871	53.6
1277.737	51.6
1282.599	51.6
1287.455	51.6
1292.306	57.6
1297.153	58.6
1301.995	59.6
1306.832	62.6
1311.664	59.6
1316.491	65.6
1321.314	75.6
1326.132	85.6
1330.945	110.6
1335.753	123.6
1340.556	109.6
1345.354	84.6
1350.148	72.6
1354.937	64.6
1359.722	72.6
1364.501	76.6
1369.276	75.6
1374.046	66.6
1378.811	61.6
1383.572	54.6
1388.327	51.6
1393.079	48.6
1397.825	47.6
1402.567	44.6
1407.304	44.6
1412.036	43.6
1416.764	41.6
1421.487	45.6
1426.205	41.6
1430.919	49.6
1435.628	64.6
1440.333	82.6
1445.032	89.6
1449.727	86.6
1454.418	106.6
1459.104	127.6
1463.785	138.6
1468.462	133.6
1473.134	108.6
1477.802	71.6
1482.465	55.6
1487.123	54.6
1491.777	47.6
1496.426	43.6
1501.071	41.6
1505.711	42.6
1510.347	38.6
1514.978	36.6
1519.604	36.6
1524.226	35.6
1528.844	38.6
1533.457	38.6
1538.065	38.6
1542.669	36.6
1547.269	32.6
1551.864	30.6
1556.454	35.6
1561.041	34.6
1565.622	31.6
1570.199	35.6
1574.772	33.6
1579.34	30.6
1583.904	33.6
1588.464	33.6
1593.019	25.6
1597.569	29.6
1602.115	34.6
1606.657	32.6
1611.195	37.6
1615.728	38.6
1620.256	30.6
1624.78	31.6
1629.3	28.6
1633.816	27.6
1638.327	33.6
1642.834	29.6
1647.336	31.6
1651.834	27.6
1656.328	32.6
1660.817	30.6
1665.302	30.6
1669.783	27.6
1674.259	27.6
1678.732	31.6
1683.199	29.6
1687.663	30.6
1692.122	30.6
1696.577	25.6
1701.028	31.6
1705.474	26.6
1709.917	29.6
1714.355	23.6
1718.788	22.6
1723.218	23.6
1727.643	23.6
1732.064	23.6
1736.481	29.6
1740.893	21.6
1745.301	27.6
1749.705	22.6
1754.105	24.6
1758.501	18.6
1762.893	20.6
1767.28	18.6
1771.663	23.6
1776.042	19.6
1780.417	23.6
1784.787	21.6
1789.154	20.6
1793.516	22.6
1797.874	23.6
1802.228	19.6
1806.578	17.6
1810.924	22.6
1815.266	18.6
1819.603	21.6
1823.937	23.6
1828.266	22.6
1832.591	17.6
1836.913	14.6
1841.23	18.6
1845.543	18.6
1849.852	18.6
1854.156	18.6
1858.457	18.6
1862.754	24.6
1867.047	22.6
1871.335	20.6
1875.62	18.6
1879.9	19.6
1884.177	18.6
1888.449	12.6
1892.718	16.6
1896.982	18.6
1901.243	19.6
1905.499	21.6
1909.752	17.6
1914	16.6
1918.245	13.6
1922.485	13.6
1926.722	16.6
1930.954	13.6
1935.183	18.6
1939.408	20.6
1943.628	22.6
1947.845	20.6
1952.058	22.6
1956.267	14.6
1960.472	12.6
1964.673	13.6
1968.87	11.6
1973.063	14.6
1977.252	13.6
1981.438	13.6
1985.619	17.6
1989.797	15.6
1993.971	13.6
1998.14	16.6
2002.306	12.6
2006.469	12.6
2010.627	17.6
2014.781	16.6
2018.932	15.6
2023.078	11.6
2027.221	13.6
2031.36	11.6
2035.495	14.6
2039.627	13.6
2043.754	14.6
2047.878	12.6
2051.998	15.6
2056.114	10.6
2060.226	16.6
2064.334	6.6
2068.439	8.6
2072.54	11.6
2076.637	13.6
2080.73	15.6
2084.82	14.6
2088.906	16.6
2092.988	13.6
2097.066	7.6
2101.14	14.6
2105.211	9.6
2109.278	12.6
2113.342	11.6
2117.401	10.6
2121.457	13.6
2125.509	13.6
2129.558	11.6
2133.602	10.6
2137.643	7.6
2141.681	9.6
2145.714	7.6
2149.744	12.6
2153.77	11.6
2157.793	17.6
2161.812	11.6
2165.827	11.6
2169.838	5.6
2173.846	5.6
2177.851	6.6
2181.851	7.6
2185.848	9.6
2189.841	14.6
2193.831	7.6
2197.817	13.6
2201.799	11.6
2205.778	7.6
2209.753	5.6
2213.725	3.6
2217.693	4.6
2221.657	8.6
2225.618	10.6
2229.575	12.6
2233.529	12.6
2237.479	9.6
2241.425	5.6
2245.368	8.6
2249.307	4.6
2253.243	6.6
2257.175	4.6
2261.104	13.6
2265.029	8.6
2268.95	7.6
2272.868	6.6
2276.783	6.6
2280.694	8.6
2284.601	6.6
2288.505	7.6
2292.405	5.6
2296.302	5.6
2300.195	7.6
2304.085	4.6
2307.971	5.6
2311.854	5.6
2315.734	7.6
2319.609	5.6
2323.482	4.6
2327.351	1.6
2331.216	9.6
2335.078	5.6
2338.937	6.6
2342.792	0.6
2346.643	5.6
2350.492	5.6
2354.336	6.6
2358.178	3.6
2362.015	2.6
2365.85	2.6
2369.681	5.6
2373.508	0.6
2377.333	1.6
2381.153	3.6
2384.971	6.6
2388.785	9.6
2392.595	6.6
2396.402	7.6
2400.206	5.6
2404.007	4.6
2407.804	1.6
2411.597	3.6
2415.388	-0.4
2419.174	3.6
2422.958	8.6
2426.738	2.6
2430.515	10.6
2434.289	4.6
2438.059	0.6
2441.825	0.6
2445.589	0.6
2449.349	-1.4
2453.106	1.6
2456.859	4.6
2460.61	9.6
2464.356	6.6
2468.1	5.6
2471.84	3.6
2475.577	3.6
2479.311	-0.4
2483.041	1.6
2486.768	1.6
2490.492	2.6
2494.213	2.6
2497.93	1.6
2501.644	3.6
2505.355	6.6
2509.062	1.6
2512.766	5.6
2516.467	2.6
2520.165	2.6
2523.859	-0.4
2527.551	-0.4
2531.239	3.6
2534.923	0.6
2538.605	1.6
2542.283	-0.4
2545.958	3.6
2549.63	0.6
2553.299	2.6
2556.964	2.6
2560.626	-0.4
2564.285	0.6
2567.941	3.6
2571.594	2.6
2575.243	0.6
2578.89	6.6
2582.533	0.6
2586.173	4.6
2589.809	3.6
2593.443	4.6
2597.073	4.6
2600.701	1.6
2604.325	0.6
2607.946	3.6
2611.564	8.6
2615.178	6.6
2618.79	1.6
2622.398	2.6
2626.004	5.6
2629.606	2.6
2633.205	2.6
2636.801	5.6
2640.394	2.6
2643.983	2.6
2647.57	6.6
2651.153	7.6
2654.734	6.6
2658.311	1.6
2661.885	2.6
2665.456	3.6
2669.025	0.6
2672.589	7.6
2676.151	6.6
2679.71	8.6
2683.266	3.6
2686.819	9.6
2690.368	4.6
2693.915	0.6
2697.458	-1.4
2700.999	6.6
2704.536	6.6
2708.071	9.6
2711.602	8.6
2715.13	9.6
2718.656	5.6
2722.178	7.6
2725.697	5.6
2729.214	4.6
2732.727	5.6
2736.237	7.6
2739.744	7.6
2743.249	12.6
2746.75	6.6
2750.248	3.6
2753.743	2.6
2757.236	2.6
2760.725	-1.4
2764.211	3.6
2767.695	1.6
2771.175	3.6
2774.652	5.6
2778.127	6.6
2781.598	5.6
2785.067	1.6
2788.532	1.6
2791.995	-0.4
2795.455	2.6
2798.911	2.6
2802.365	5.6
2805.816	7.6
2809.264	7.6
2812.709	9.6
2816.151	9.6
2819.59	5.6
2823.026	8.6
2826.46	6.6
2829.89	13.6
2833.318	14.6
2836.742	21.6
2840.164	32.6
2843.583	37.6
2846.999	40.6
2850.412	37.6
2853.822	32.6
2857.229	26.6
2860.634	31.6
2864.035	31.6
2867.434	48.6
2870.83	57.6
2874.223	60.6
2877.613	64.6
2881	68.6
2884.385	70.6
2887.766	76.6
2891.145	75.6
2894.521	74.6
2897.894	72.6
2901.264	66.6
2904.631	63.6
2907.996	62.6
2911.358	60.6
2914.717	51.6
2918.073	45.6
2921.426	46.6
2924.777	40.6
2928.124	42.6
2931.469	41.6
2934.811	37.6
2938.15	37.6
2941.487	31.6
2944.821	26.6
2948.152	28.6
2951.48	29.6
2954.805	34.6
2958.128	34.6
2961.447	33.6
2964.765	36.6
2968.079	33.6
2971.39	31.6
2974.699	23.6
2978.005	12.6
2981.308	15.6
2984.609	9.6
2987.907	11.6
2991.202	9.6
2994.494	10.6
2997.784	8.6
3001.07	9.6
3004.355	1.6
3007.636	4.6
3010.915	2.6
3014.191	5.6
3017.464	-0.4
3020.734	6.6
3024.002	1.6
3027.267	9.6
3030.53	4.6
3033.789	4.6
3037.046	-1.4
3040.301	2.6
3043.552	-0.4
3046.801	2.6
3050.048	1.6
3053.291	0.6
3056.532	2.6
3059.771	6.6
3063.006	4.6
3066.239	1.6
3069.469	0.6
3072.697	-1.4
3075.922	-4.4
3079.144	2.6
3082.364	1.6
3085.581	2.6
3088.795	1.6
3092.007	3.6
3095.216	-0.4
3098.423	1.6
3101.627	-3.4
3104.828	0.6
3108.026	0.6
3111.222	-1.4
3114.416	2.6
3117.607	9.6
3120.795	4.6
3123.98	3.6
3127.163	1.6
3130.344	1.6
3133.521	-0.4
3136.696	2.6
3139.869	3.6
3143.039	5.6
3146.206	5.6
3149.371	4.6
3152.533	7.6
3155.693	4.6
3158.85	-0.4
3162.005	0.6
3165.157	-2.4
3168.306	-0.4
3171.453	2.6
3174.597	6.6
3177.739	6.6
3180.878	4.6
3184.014	4.6
3187.149	-1.4
3190.28	-3.4
3193.409	-3.4
3196.536	-1.4
3199.659	5.6
3202.781	2.6
3205.9	6.6
3209.016	5.6
3212.13	4.6
3215.241	3.6
3218.35	3.6
3221.456	1.6
3224.56	-1.4
3227.661	-1.4
3230.76	3.6
3233.856	5.6
3236.95	9.6
3240.041	1.6
3243.13	-0.4
3246.216	-1.4
3249.3	1.6
3252.382	1.6
3255.46	2.6
3258.537	3.6
3261.611	6.6
3264.682	2.6
3267.751	3.6
3270.818	0.6
3273.882	4.6
3276.943	1.6
3280.002	-0.4
3283.059	0.6
3286.113	0.6
3289.165	-5.4
3292.214	1.6
3295.261	-1.4
3298.306	4.6
3301.348	1.6
3304.387	1.6
3307.425	-1.4
3310.459	0.6
3313.492	-4.4
3316.521	-1.4
3319.549	0.6
3322.574	0.6
3325.597	-0.4
3328.617	-2.4
3331.635	0.6
3334.65	-1.4
3337.663	0.6
3340.674	1.6
3343.682	-2.4
3346.688	0.6
3349.691	0.6
3352.692	0.6
3355.691	-1.4
3358.687	-4.4
3361.681	1.6
3364.673	5.6
3367.662	-2.4
3370.649	5.6
3373.633	1.6
3376.615	-1.4
3379.595	-3.4
3382.572	0.6
3385.547	-1.4
3388.52	1.6
3391.49	3.6
3394.458	1.6
3397.424	0.6
3400.387	0.6
3403.348	-2.4
3406.307	-3.4
3409.263	-1.4
3412.217	-0.4
3415.168	-2.4
3418.118	0.6
3421.065	2.6
3424.009	2.6
3426.951	1.6
3429.891	-2.4
3432.829	-2.4
3435.764	-1.4
3438.697	-5.4
3441.628	-3.4
3444.557	-0.4
3447.483	1.6
3450.407	3.6
3453.328	3.6
3456.247	-1.4
3459.164	-0.4
3462.079	-4.4
3464.991	-3.4
3467.902	-7.4
3470.809	-3.4
3473.715	0.6
3476.618	-1.4
3479.519	-3.4
3482.418	1.6
3485.315	-5.4
3488.209	-1.4
3491.101	-2.4
3493.99	-6.4
3496.878	-4.4
3499.763	-0.4
3502.646	0.6
3505.527	-1.4
3508.405	-2.4
3511.281	-3.4
3514.155	-3.4
3517.027	-0.4
3519.897	-3.4
3522.764	-1.4
3525.629	-2.4
3528.492	-2.4
3531.352	0.6
3534.211	-0.4
3537.067	-7.4
3539.921	-5.4
3542.773	-5.4
3545.622	-2.4
3548.469	-5.4
3551.315	-3.4
3554.157	-4.4
3556.998	-0.4
3559.837	-3.4
3562.673	-4.4
3565.507	-1.4
3568.339	1.6
3571.169	-3.4
3573.996	0.6
3576.822	-5.4
3579.645	-5.4
3582.466	-4.4
3585.285	-2.4
3588.101	-3.4
3590.916	-2.4
3593.728	-1.4
3596.538	-3.4
3599.346	-4.4
3602.152	-3.4
3604.956	-6.4
3607.757	-5.4
3610.556	-4.4
3613.354	-3.4
3616.149	-3.4
3618.942	-0.4
3621.732	-0.4
3624.521	1.6
3627.307	-6.4
3630.092	-1.4
3632.874	-8.4
3635.654	-3.4
3638.432	-6.4
3641.208	-2.4
3643.982	0.6
3646.753	1.6
3649.523	-7.4
3652.29	-2.4
3655.055	-5.4
3657.818	-6.4
3660.579	-5.4
3663.338	-6.4
3666.095	-4.4
3668.849	-1.4
3671.602	-5.4
3674.352	3.6
3677.101	-3.4
3679.847	-5.4
3682.591	-3.4
3685.333	-5.4
3688.073	-4.4
3690.811	0.6
3693.547	-1.4
3696.281	-3.4
3699.013	-4.4
3701.742	-0.4
3704.47	-6.4
3707.195	-6.4
3709.919	-8.4
3712.64	-4.4
3715.359	-3.4
3718.076	-5.4
3720.792	-5.4
3723.505	-3.4
3726.216	-5.4
3728.925	-4.4
3731.632	-3.4
3734.336	-7.4
3737.039	-0.4
3739.74	-5.4
3742.439	-5.4
3745.136	-5.4
3747.83	-6.4
3750.523	-3.4
3753.213	-6.4
3755.902	-0.4
3758.589	-4.4
3761.273	-0.4
3763.956	-3.4
3766.636	-8.4
3769.315	-8.4
3771.991	-5.4
3774.665	-4.4
3777.338	-1.4
3780.008	-2.4
3782.677	-2.4
3785.343	-4.4
3788.007	-1.4
3790.67	-1.4
3793.33	-4.4
3795.989	-5.4
3798.645	-5.4
3801.299	-6.4
3803.952	-3.4
3806.602	-1.4
3809.251	-1.4
3811.897	-4.4
3814.542	-3.4
3817.184	-6.4
3819.825	-6.4
3822.463	-8.4
3825.1	-6.4
3827.735	-5.4
3830.367	0.6
3832.998	-1.4
3835.627	0.6
3838.253	0.6
3840.878	-5.4
3843.501	-5.4
3846.122	-4.4
3848.741	-5.4
3851.358	-3.4
3853.973	-3.4
3856.586	-2.4
3859.197	-1.4
3861.806	-4.4
3864.414	-7.4
3867.019	-6.4
3869.622	-6.4
3872.224	-6.4
3874.823	-5.4
3877.421	-1.4
3880.016	-1.4
3882.61	0.6
3885.202	0.6
3887.792	-1.4
3890.38	-3.4
3892.966	-4.4
3895.55	-3.4
3898.132	-3.4
3900.713	-2.4
3903.291	-2.4
3905.868	-2.4
3908.442	-1.4
3911.015	-7.4
3913.586	-4.4
3916.155	-3.4
3918.722	-3.4
3921.287	-3.4
3923.85	-3.4
3926.411	-2.4
3928.971	-3.4
3931.528	-1.4
3934.084	-2.4
3936.638	-2.4
3939.19	-4.4
3941.74	-3.4
3944.288	-5.4
3946.834	-3.4
3949.378	-3.4
3951.921	-4.4
3954.462	-3.4
3957	-4.4
3959.537	-2.4
3962.072	-1.4
3964.606	-2.4
3967.137	-2.4
3969.667	-4.4
3972.194	-6.4
3974.72	-4.4
3977.244	-5.4
3979.766	0.6
3982.286	-4.4
3984.805	-5.4
3987.321	-2.4
3989.836	-3.4
3992.349	-1.4
3994.86	-3.4
3997.369	-5.4
3999.877	-3.4
4002.382	-4.4
4004.886	-2.4
4007.388	-5.4
4009.888	-6.4
4012.386	-4.4
4014.883	-5.4
4017.377	-4.4
4019.87	-4.4
4022.361	-3.4
4024.85	-7.4
4027.338	-7.4
4029.823	-1.4
4032.307	-3.4
4034.789	-2.4
4037.269	-4.4
4039.747	-2.4
4042.224	-3.4
4044.699	-4.4
4047.172	-5.4
4049.643	-5.4
4052.112	-6.4
4054.58	-3.4
4057.046	-4.4
4059.51	-1.4
4061.972	-7.4
4064.432	-4.4
4066.891	-7.4
4069.348	-2.4
4071.803	-4.4
4074.256	-4.4
4076.708	-1.4
4079.158	-4.4
4081.606	-5.4
4084.052	-0.4
4086.497	-6.4
4088.939	-4.4
4091.38	-4.4
4093.819	-5.4
4096.257	-5.4
4098.693	-4.4
4101.127	-5.4
4103.559	-2.4
4105.989	1.6
4108.418	1.6
4110.845	-0.4
4113.27	-2.4
4115.694	2.6
4118.115	3.6
4120.535	-4.4
4122.954	-6.4
4125.37	-7.4
4127.785	-4.4
4130.198	-5.4
4132.609	-2.4
4135.019	-5.4
4137.427	-3.4
4139.833	-5.4
4142.237	-5.4
