Data from 2018-2-14_conc=5_n=1_RamanShift_03.txt Node
Date: Wed Feb 14 14:04:55 IST 2018
User: aro
Spectrometer: QEPB0276
Trigger mode: 0
Integration Time (sec): 3.000000E1
Scans to average: 1
Electric dark correction enabled: true
Nonlinearity correction enabled: false
Boxcar width: 0
XAxis mode: Raman Shifts
Number of Pixels in Spectrum: 1044
>>>>>Begin Spectral Data<<<<<
160.701	-137
166.742	39
172.777	535
178.805	2091
184.826	5758
190.841	11923
196.849	19148
202.85	24242
208.845	25864
214.833	25628
220.815	25137
226.789	25086
232.758	24915
238.719	24778
244.674	24457
250.623	24028
256.565	23504
262.5	23056
268.429	22601
274.351	22309
280.267	22022
286.176	21802
292.079	21623
297.975	21469
303.865	21231
309.748	21116
315.625	20960
321.495	20820
327.359	20767
333.217	20775
339.068	20718
344.912	20702
350.751	20679
356.583	20661
362.408	20627
368.227	20684
374.04	20620
379.847	20633
385.647	20738
391.44	20867
397.228	20943
403.009	20963
408.784	21018
414.553	21101
420.315	21207
426.071	21212
431.821	21222
437.565	21130
443.302	21129
449.033	21063
454.758	21000
460.477	20930
466.189	20928
471.896	20869
477.596	20809
483.29	20820
488.978	20794
494.66	20719
500.335	20569
506.005	20397
511.668	20094
517.325	19878
522.977	19620
528.622	19579
534.261	19431
539.894	19381
545.521	19258
551.141	19173
556.756	19127
562.365	19034
567.968	18966
573.565	18914
579.155	18903
584.74	18745
590.319	18718
595.892	18640
601.459	18517
607.02	18450
612.575	18379
618.124	18227
623.667	18170
629.204	18094
634.735	18047
640.261	17935
645.781	17879
651.294	17868
656.802	17774
662.304	17784
667.8	17745
673.29	17711
678.775	17675
684.254	17581
689.726	17559
695.193	17472
700.655	17455
706.11	17329
711.56	17184
717.004	17197
722.442	17099
727.874	17035
733.301	16983
738.722	16900
744.137	16908
749.547	16885
754.951	16901
760.349	16867
765.741	16895
771.128	16939
776.509	16931
781.885	16930
787.254	16915
792.618	16827
797.977	16709
803.33	16612
808.677	16523
814.019	16458
819.355	16321
824.686	16323
830.011	16223
835.33	16199
840.644	16240
845.952	16235
851.255	16340
856.552	16363
861.844	16277
867.13	16246
872.41	16153
877.686	16137
882.955	15960
888.219	15780
893.478	15687
898.731	15466
903.979	15302
909.221	15210
914.458	15224
919.69	15143
924.916	15281
930.136	15267
935.351	15268
940.561	15252
945.766	15197
950.965	15138
956.158	15055
961.347	14886
966.529	14699
971.707	14573
976.879	14385
982.046	14235
987.208	14182
992.364	14258
997.515	14305
1002.66	14379
1007.801	14630
1012.936	14676
1018.066	14714
1023.19	14689
1028.309	14715
1033.423	14728
1038.532	14537
1043.636	14444
1048.734	14304
1053.827	14075
1058.915	13907
1063.998	13878
1069.075	13835
1074.147	13791
1079.214	13910
1084.276	13943
1089.333	14017
1094.385	14119
1099.431	14159
1104.472	14129
1109.509	14050
1114.54	13883
1119.565	13708
1124.586	13565
1129.602	13450
1134.613	13330
1139.618	13317
1144.619	13215
1149.614	13212
1154.604	13256
1159.589	13264
1164.57	13358
1169.545	13347
1174.515	13312
1179.48	13240
1184.44	13143
1189.395	13090
1194.345	13025
1199.29	12902
1204.23	12918
1209.165	12944
1214.095	12984
1219.021	13090
1223.941	13181
1228.856	13219
1233.766	13285
1238.672	13278
1243.572	13282
1248.467	13171
1253.358	13051
1258.244	12858
1263.124	12686
1268	12472
1272.871	12335
1277.737	12226
1282.599	12153
1287.455	12172
1292.306	12210
1297.153	12199
1301.995	12272
1306.832	12335
1311.664	12382
1316.491	12278
1321.314	12161
1326.132	12022
1330.945	11763
1335.753	11438
1340.556	11191
1345.354	10963
1350.148	10822
1354.937	10707
1359.722	10709
1364.501	10796
1369.276	10946
1374.046	11120
1378.811	11232
1383.572	11345
1388.327	11457
1393.079	11408
1397.825	11195
1402.567	11037
1407.304	10843
1412.036	10764
1416.764	10684
1421.487	10643
1426.205	10531
1430.919	10494
1435.628	10514
1440.333	10501
1445.032	10522
1449.727	10623
1454.418	10575
1459.104	10463
1463.785	10249
1468.462	10071
1473.134	9897
1477.802	9687
1482.465	9536
1487.123	9481
1491.777	9493
1496.426	9488
1501.071	9641
1505.711	9723
1510.347	9958
1514.978	10177
1519.604	10280
1524.226	10349
1528.844	10348
1533.457	10335
1538.065	10273
1542.669	10203
1547.269	10135
1551.864	10051
1556.454	10001
1561.041	9993
1565.622	9981
1570.199	9978
1574.772	10039
1579.34	10068
1583.904	10127
1588.464	10168
1593.019	10156
1597.569	10085
1602.115	10034
1606.657	9961
1611.195	9944
1615.728	9823
1620.256	9799
1624.78	9798
1629.3	9816
1633.816	9840
1638.327	9835
1642.834	9938
1647.336	9989
1651.834	10003
1656.328	10013
1660.817	9973
1665.302	9851
1669.783	9689
1674.259	9523
1678.732	9237
1683.199	8975
1687.663	8651
1692.122	8464
1696.577	8278
1701.028	8281
1705.474	8395
1709.917	8481
1714.355	8522
1718.788	8463
1723.218	8346
1727.643	8222
1732.064	8022
1736.481	7853
1740.893	7669
1745.301	7417
1749.705	7216
1754.105	7009
1758.501	6826
1762.893	6636
1767.28	6483
1771.663	6356
1776.042	6248
1780.417	6172
1784.787	6199
1789.154	6242
1793.516	6366
1797.874	6491
1802.228	6644
1806.578	6711
1810.924	6733
1815.266	6589
1819.603	6548
1823.937	6436
1828.266	6325
1832.591	6220
1836.913	6159
1841.23	6059
1845.543	6051
1849.852	5995
1854.156	5985
1858.457	5978
1862.754	5995
1867.047	5976
1871.335	5962
1875.62	5935
1879.9	5939
1884.177	5903
1888.449	5857
1892.718	5758
1896.982	5710
1901.243	5729
1905.499	5638
1909.752	5635
1914	5626
1918.245	5651
1922.485	5748
1926.722	5785
1930.954	5890
1935.183	5929
1939.408	5993
1943.628	6057
1947.845	6051
1952.058	6017
1956.267	5987
1960.472	5884
1964.673	5824
1968.87	5710
1973.063	5610
1977.252	5523
1981.438	5481
1985.619	5381
1989.797	5356
1993.971	5286
1998.14	5287
2002.306	5245
2006.469	5220
2010.627	5226
2014.781	5174
2018.932	5130
2023.078	5064
2027.221	5026
2031.36	4914
2035.495	4876
2039.627	4815
2043.754	4687
2047.878	4667
2051.998	4651
2056.114	4639
2060.226	4648
2064.334	4670
2068.439	4659
2072.54	4692
2076.637	4743
2080.73	4796
2084.82	4795
2088.906	4829
2092.988	4823
2097.066	4811
2101.14	4798
2105.211	4756
2109.278	4724
2113.342	4694
2117.401	4686
2121.457	4640
2125.509	4607
2129.558	4600
2133.602	4554
2137.643	4506
2141.681	4508
2145.714	4492
2149.744	4451
2153.77	4420
2157.793	4380
2161.812	4321
2165.827	4241
2169.838	4194
2173.846	4104
2177.851	4034
2181.851	4001
2185.848	3913
2189.841	3877
2193.831	3846
2197.817	3819
2201.799	3812
2205.778	3800
2209.753	3746
2213.725	3763
2217.693	3757
2221.657	3748
2225.618	3727
2229.575	3697
2233.529	3657
2237.479	3625
2241.425	3603
2245.368	3542
2249.307	3468
2253.243	3477
2257.175	3391
2261.104	3347
2265.029	3328
2268.95	3287
2272.868	3260
2276.783	3225
2280.694	3176
2284.601	3188
2288.505	3109
2292.405	3113
2296.302	3064
2300.195	3040
2304.085	3009
2307.971	2943
2311.854	2900
2315.734	2865
2319.609	2843
2323.482	2785
2327.351	2752
2331.216	2741
2335.078	2755
2338.937	2715
2342.792	2669
2346.643	2700
2350.492	2670
2354.336	2700
2358.178	2694
2362.015	2694
2365.85	2687
2369.681	2706
2373.508	2698
2377.333	2722
2381.153	2708
2384.971	2685
2388.785	2649
2392.595	2634
2396.402	2629
2400.206	2619
2404.007	2574
2407.804	2564
2411.597	2546
2415.388	2514
2419.174	2512
2422.958	2488
2426.738	2455
2430.515	2462
2434.289	2440
2438.059	2431
2441.825	2421
2445.589	2384
2449.349	2353
2453.106	2310
2456.859	2291
2460.61	2280
2464.356	2260
2468.1	2230
2471.84	2191
2475.577	2176
2479.311	2163
2483.041	2163
2486.768	2154
2490.492	2149
2494.213	2149
2497.93	2131
2501.644	2119
2505.355	2124
2509.062	2103
2512.766	2093
2516.467	2097
2520.165	2064
2523.859	2060
2527.551	2038
2531.239	2014
2534.923	2030
2538.605	1998
2542.283	2011
2545.958	1969
2549.63	2000
2553.299	2012
2556.964	2010
2560.626	1984
2564.285	1980
2567.941	1976
2571.594	1981
2575.243	1959
2578.89	1961
2582.533	1923
2586.173	1913
2589.809	1893
2593.443	1869
2597.073	1870
2600.701	1842
2604.325	1823
2607.946	1800
2611.564	1794
2615.178	1788
2618.79	1780
2622.398	1753
2626.004	1738
2629.606	1754
2633.205	1693
2636.801	1679
2640.394	1674
2643.983	1632
2647.57	1623
2651.153	1569
2654.734	1568
2658.311	1545
2661.885	1507
2665.456	1494
2669.025	1493
2672.589	1454
2676.151	1434
2679.71	1428
2683.266	1397
2686.819	1346
2690.368	1338
2693.915	1332
2697.458	1281
2700.999	1256
2704.536	1254
2708.071	1207
2711.602	1163
2715.13	1148
2718.656	1135
2722.178	1099
2725.697	1102
2729.214	1084
2732.727	1091
2736.237	1070
2739.744	1058
2743.249	1083
2746.75	1080
2750.248	1110
2753.743	1111
2757.236	1142
2760.725	1153
2764.211	1132
2767.695	1149
2771.175	1148
2774.652	1124
2778.127	1127
2781.598	1126
2785.067	1121
2788.532	1128
2791.995	1100
2795.455	1109
2798.911	1106
2802.365	1106
2805.816	1113
2809.264	1106
2812.709	1093
2816.151	1114
2819.59	1107
2823.026	1120
2826.46	1109
2829.89	1118
2833.318	1110
2836.742	1126
2840.164	1122
2843.583	1121
2846.999	1136
2850.412	1157
2853.822	1172
2857.229	1157
2860.634	1172
2864.035	1206
2867.434	1189
2870.83	1227
2874.223	1248
2877.613	1268
2881	1262
2884.385	1286
2887.766	1299
2891.145	1246
2894.521	1265
2897.894	1268
2901.264	1251
2904.631	1278
2907.996	1272
2911.358	1264
2914.717	1284
2918.073	1286
2921.426	1289
2924.777	1304
2928.124	1316
2931.469	1348
2934.811	1370
2938.15	1355
2941.487	1383
2944.821	1378
2948.152	1367
2951.48	1382
2954.805	1367
2958.128	1353
2961.447	1338
2964.765	1348
2968.079	1340
2971.39	1366
2974.699	1358
2978.005	1372
2981.308	1423
2984.609	1449
2987.907	1461
2991.202	1501
2994.494	1521
2997.784	1561
3001.07	1582
3004.355	1610
3007.636	1630
3010.915	1646
3014.191	1658
3017.464	1646
3020.734	1664
3024.002	1672
3027.267	1704
3030.53	1716
3033.789	1708
3037.046	1721
3040.301	1750
3043.552	1792
3046.801	1828
3050.048	1836
3053.291	1890
3056.532	1965
3059.771	2008
3063.006	2069
3066.239	2119
3069.469	2188
3072.697	2235
3075.922	2292
3079.144	2320
3082.364	2382
3085.581	2463
3088.795	2483
3092.007	2556
3095.216	2610
3098.423	2667
3101.627	2721
3104.828	2791
3108.026	2831
3111.222	2893
3114.416	2969
3117.607	3032
3120.795	3104
3123.98	3156
3127.163	3253
3130.344	3324
3133.521	3368
3136.696	3455
3139.869	3522
3143.039	3611
3146.206	3672
3149.371	3644
3152.533	3723
3155.693	3734
3158.85	3771
3162.005	3795
3165.157	3777
3168.306	3765
3171.453	3806
3174.597	3813
3177.739	3837
3180.878	3817
3184.014	3805
3187.149	3822
3190.28	3827
3193.409	3828
3196.536	3828
3199.659	3853
3202.781	3834
3205.9	3825
3209.016	3837
3212.13	3801
3215.241	3798
3218.35	3749
3221.456	3718
3224.56	3679
3227.661	3630
3230.76	3598
3233.856	3573
3236.95	3522
3240.041	3496
3243.13	3495
3246.216	3479
3249.3	3437
3252.382	3436
3255.46	3408
3258.537	3418
3261.611	3419
3264.682	3397
3267.751	3417
3270.818	3396
3273.882	3381
3276.943	3352
3280.002	3334
3283.059	3305
3286.113	3282
3289.165	3221
3292.214	3182
3295.261	3143
3298.306	3083
3301.348	3013
3304.387	2943
3307.425	2946
3310.459	2887
3313.492	2826
3316.521	2795
3319.549	2781
3322.574	2736
3325.597	2715
3328.617	2700
3331.635	2675
3334.65	2662
3337.663	2665
3340.674	2636
3343.682	2620
3346.688	2642
3349.691	2604
3352.692	2570
3355.691	2577
3358.687	2535
3361.681	2503
3364.673	2481
3367.662	2441
3370.649	2413
3373.633	2362
3376.615	2332
3379.595	2295
3382.572	2275
3385.547	2231
3388.52	2202
3391.49	2181
3394.458	2145
3397.424	2116
3400.387	2071
3403.348	2057
3406.307	2029
3409.263	1998
3412.217	1979
3415.168	1974
3418.118	1947
3421.065	1921
3424.009	1894
3426.951	1879
3429.891	1824
3432.829	1790
3435.764	1741
3438.697	1714
3441.628	1654
3444.557	1619
3447.483	1565
3450.407	1525
3453.328	1469
3456.247	1420
3459.164	1369
3462.079	1325
3464.991	1282
3467.902	1213
3470.809	1184
3473.715	1131
3476.618	1090
3479.519	1069
3482.418	1027
3485.315	982
3488.209	959
3491.101	928
3493.99	882
3496.878	857
3499.763	824
3502.646	791
3505.527	756
3508.405	722
3511.281	669
3514.155	660
3517.027	617
3519.897	560
3522.764	517
3525.629	493
3528.492	445
3531.352	401
3534.211	369
3537.067	335
3539.921	318
3542.773	270
3545.622	241
3548.469	215
3551.315	189
3554.157	171
3556.998	131
3559.837	113
3562.673	80
3565.507	69
3568.339	49
3571.169	21
3573.996	-1
3576.822	-12
3579.645	-40
3582.466	-42
3585.285	-76
3588.101	-85
3590.916	-110
3593.728	-139
3596.538	-140
3599.346	-158
3602.152	-180
3604.956	-188
3607.757	-210
3610.556	-213
3613.354	-230
3616.149	-247
3618.942	-256
3621.732	-266
3624.521	-287
3627.307	-282
3630.092	-294
3632.874	-308
3635.654	-321
3638.432	-324
3641.208	-329
3643.982	-346
3646.753	-348
3649.523	-354
3652.29	-370
3655.055	-371
3657.818	-389
3660.579	-403
3663.338	-413
3666.095	-418
3668.849	-426
3671.602	-431
3674.352	-432
3677.101	-440
3679.847	-455
3682.591	-459
3685.333	-469
3688.073	-466
3690.811	-474
3693.547	-477
3696.281	-481
3699.013	-481
3701.742	-487
3704.47	-495
3707.195	-504
3709.919	-502
3712.64	-514
3715.359	-508
3718.076	-512
3720.792	-515
3723.505	-516
3726.216	-524
3728.925	-527
3731.632	-529
3734.336	-531
3737.039	-537
3739.74	-538
3742.439	-534
3745.136	-541
3747.83	-549
3750.523	-548
3753.213	-544
3755.902	-551
3758.589	-548
3761.273	-548
3763.956	-553
3766.636	-559
3769.315	-563
3771.991	-559
3774.665	-561
3777.338	-564
3780.008	-561
3782.677	-569
3785.343	-561
3788.007	-563
3790.67	-567
3793.33	-569
3795.989	-574
3798.645	-569
3801.299	-573
3803.952	-576
3806.602	-584
3809.251	-581
3811.897	-585
3814.542	-582
3817.184	-581
3819.825	-578
3822.463	-577
3825.1	-585
3827.735	-581
3830.367	-581
3832.998	-585
3835.627	-584
3838.253	-590
3840.878	-589
3843.501	-588
3846.122	-585
3848.741	-586
3851.358	-588
3853.973	-586
3856.586	-593
3859.197	-592
3861.806	-594
3864.414	-589
3867.019	-590
3869.622	-594
3872.224	-590
3874.823	-575
3877.421	-559
3880.016	-542
3882.61	-521
3885.202	-522
3887.792	-538
3890.38	-558
3892.966	-577
3895.55	-589
3898.132	-603
3900.713	-605
3903.291	-598
3905.868	-601
3908.442	-602
3911.015	-605
3913.586	-602
3916.155	-600
3918.722	-605
3921.287	-603
3923.85	-610
3926.411	-608
3928.971	-615
3931.528	-608
3934.084	-604
3936.638	-607
3939.19	-610
3941.74	-609
3944.288	-615
3946.834	-602
3949.378	-610
3951.921	-604
3954.462	-612
3957	-606
3959.537	-607
3962.072	-604
3964.606	-609
3967.137	-605
3969.667	-608
3972.194	-599
3974.72	-609
3977.244	-596
3979.766	-599
3982.286	-597
3984.805	-599
3987.321	-595
3989.836	-599
3992.349	-587
3994.86	-596
3997.369	-606
3999.877	-592
4002.382	-596
4004.886	-597
4007.388	-588
4009.888	-592
4012.386	-599
4014.883	-591
4017.377	-590
4019.87	-586
4022.361	-592
4024.85	-592
4027.338	-598
4029.823	-594
4032.307	-596
4034.789	-597
4037.269	-594
4039.747	-595
4042.224	-595
4044.699	-599
4047.172	-597
4049.643	-593
4052.112	-602
4054.58	-604
4057.046	-601
4059.51	-600
4061.972	-598
4064.432	-602
4066.891	-598
4069.348	-593
4071.803	-589
4074.256	-592
4076.708	-594
4079.158	-599
4081.606	-596
4084.052	-605
4086.497	-596
4088.939	-593
4091.38	-595
4093.819	-596
4096.257	-626
4098.693	-630
4101.127	-630
4103.559	-628
4105.989	-363
4108.418	-336
4110.845	-310
4113.27	-288
4115.694	-255
4118.115	-211
4120.535	-595
4122.954	-594
4125.37	-593
4127.785	-599
4130.198	-603
4132.609	-602
4135.019	-633
4137.427	-633
4139.833	-633
4142.237	-629
