Data from 2018-2-14_conc=4_n=4_RamanShift_04.txt Node
Date: Wed Feb 14 13:38:25 IST 2018
User: aro
Spectrometer: QEPB0276
Trigger mode: 0
Integration Time (sec): 3.000000E1
Scans to average: 1
Electric dark correction enabled: true
Nonlinearity correction enabled: false
Boxcar width: 0
XAxis mode: Raman Shifts
Number of Pixels in Spectrum: 1044
>>>>>Begin Spectral Data<<<<<
160.701	-149.9
166.742	34.1
172.777	595.1
178.805	2289.1
184.826	6314.1
190.841	13210.1
196.849	21188.1
202.85	26761.1
208.845	28580.1
214.833	28348.1
220.815	27787.1
226.789	27636.1
232.758	27486.1
238.719	27284.1
244.674	26918.1
250.623	26418.1
256.565	25918.1
262.5	25307.1
268.429	24855.1
274.351	24459.1
280.267	24220.1
286.176	23893.1
292.079	23642.1
297.975	23421.1
303.865	23238.1
309.748	23132.1
315.625	22951.1
321.495	22744.1
327.359	22658.1
333.217	22705.1
339.068	22646.1
344.912	22675.1
350.751	22596.1
356.583	22540.1
362.408	22559.1
368.227	22547.1
374.04	22589.1
379.847	22698.1
385.647	22732.1
391.44	22817.1
397.228	22888.1
403.009	22933.1
408.784	23078.1
414.553	23155.1
420.315	23173.1
426.071	23242.1
431.821	23204.1
437.565	23179.1
443.302	23164.1
449.033	23104.1
454.758	23005.1
460.477	23004.1
466.189	22952.1
471.896	22924.1
477.596	22865.1
483.29	22805.1
488.978	22745.1
494.66	22655.1
500.335	22557.1
506.005	22291.1
511.668	22055.1
517.325	21788.1
522.977	21660.1
528.622	21470.1
534.261	21352.1
539.894	21258.1
545.521	21146.1
551.141	21103.1
556.756	21054.1
562.365	20969.1
567.968	20839.1
573.565	20768.1
579.155	20718.1
584.74	20579.1
590.319	20544.1
595.892	20453.1
601.459	20381.1
607.02	20310.1
612.575	20189.1
618.124	20058.1
623.667	19886.1
629.204	19839.1
634.735	19752.1
640.261	19621.1
645.781	19563.1
651.294	19585.1
656.802	19579.1
662.304	19485.1
667.8	19445.1
673.29	19446.1
678.775	19384.1
684.254	19362.1
689.726	19230.1
695.193	19201.1
700.655	19092.1
706.11	19056.1
711.56	18891.1
717.004	18853.1
722.442	18750.1
727.874	18665.1
733.301	18666.1
738.722	18539.1
744.137	18514.1
749.547	18504.1
754.951	18508.1
760.349	18492.1
765.741	18535.1
771.128	18565.1
776.509	18497.1
781.885	18506.1
787.254	18478.1
792.618	18329.1
797.977	18314.1
803.33	18132.1
808.677	18134.1
814.019	17951.1
819.355	17837.1
824.686	17837.1
830.011	17781.1
835.33	17803.1
840.644	17805.1
845.952	17768.1
851.255	17896.1
856.552	17856.1
861.844	17838.1
867.13	17791.1
872.41	17736.1
877.686	17616.1
882.955	17522.1
888.219	17422.1
893.478	17136.1
898.731	16943.1
903.979	16757.1
909.221	16600.1
914.458	16598.1
919.69	16608.1
924.916	16610.1
930.136	16716.1
935.351	16723.1
940.561	16713.1
945.766	16668.1
950.965	16608.1
956.158	16454.1
961.347	16340.1
966.529	16090.1
971.707	15950.1
976.879	15711.1
982.046	15558.1
987.208	15535.1
992.364	15543.1
997.515	15595.1
1002.66	15792.1
1007.801	15945.1
1012.936	16052.1
1018.066	16106.1
1023.19	16069.1
1028.309	16090.1
1033.423	16028.1
1038.532	15962.1
1043.636	15881.1
1048.734	15653.1
1053.827	15447.1
1058.915	15245.1
1063.998	15115.1
1069.075	15157.1
1074.147	15103.1
1079.214	15173.1
1084.276	15287.1
1089.333	15353.1
1094.385	15423.1
1099.431	15451.1
1104.472	15465.1
1109.509	15436.1
1114.54	15225.1
1119.565	15036.1
1124.586	14771.1
1129.602	14660.1
1134.613	14589.1
1139.618	14484.1
1144.619	14470.1
1149.614	14441.1
1154.604	14456.1
1159.589	14508.1
1164.57	14542.1
1169.545	14586.1
1174.515	14547.1
1179.48	14484.1
1184.44	14384.1
1189.395	14325.1
1194.345	14236.1
1199.29	14145.1
1204.23	14126.1
1209.165	14161.1
1214.095	14220.1
1219.021	14330.1
1223.941	14382.1
1228.856	14507.1
1233.766	14501.1
1238.672	14574.1
1243.572	14520.1
1248.467	14422.1
1253.358	14269.1
1258.244	14085.1
1263.124	13868.1
1268	13692.1
1272.871	13518.1
1277.737	13447.1
1282.599	13346.1
1287.455	13344.1
1292.306	13401.1
1297.153	13460.1
1301.995	13498.1
1306.832	13562.1
1311.664	13601.1
1316.491	13564.1
1321.314	13398.1
1326.132	13196.1
1330.945	12911.1
1335.753	12570.1
1340.556	12290.1
1345.354	11976.1
1350.148	11699.1
1354.937	11678.1
1359.722	11600.1
1364.501	11713.1
1369.276	11888.1
1374.046	12084.1
1378.811	12292.1
1383.572	12470.1
1388.327	12468.1
1393.079	12483.1
1397.825	12265.1
1402.567	12110.1
1407.304	11904.1
1412.036	11748.1
1416.764	11711.1
1421.487	11625.1
1426.205	11569.1
1430.919	11526.1
1435.628	11500.1
1440.333	11560.1
1445.032	11587.1
1449.727	11595.1
1454.418	11611.1
1459.104	11430.1
1463.785	11233.1
1468.462	10960.1
1473.134	10781.1
1477.802	10507.1
1482.465	10310.1
1487.123	10197.1
1491.777	10146.1
1496.426	10209.1
1501.071	10318.1
1505.711	10494.1
1510.347	10703.1
1514.978	10951.1
1519.604	11061.1
1524.226	11165.1
1528.844	11219.1
1533.457	11258.1
1538.065	11154.1
1542.669	11071.1
1547.269	10966.1
1551.864	10916.1
1556.454	10877.1
1561.041	10860.1
1565.622	10871.1
1570.199	10870.1
1574.772	10922.1
1579.34	10940.1
1583.904	11024.1
1588.464	11112.1
1593.019	11043.1
1597.569	11045.1
1602.115	11004.1
1606.657	10917.1
1611.195	10839.1
1615.728	10751.1
1620.256	10703.1
1624.78	10677.1
1629.3	10728.1
1633.816	10763.1
1638.327	10790.1
1642.834	10815.1
1647.336	10856.1
1651.834	10858.1
1656.328	10791.1
1660.817	10826.1
1665.302	10706.1
1669.783	10479.1
1674.259	10262.1
1678.732	9964.1
1683.199	9640.1
1687.663	9272.1
1692.122	8968.1
1696.577	8825.1
1701.028	8840.1
1705.474	8909.1
1709.917	9087.1
1714.355	9064.1
1718.788	9071.1
1723.218	8909.1
1727.643	8726.1
1732.064	8585.1
1736.481	8377.1
1740.893	8148.1
1745.301	7981.1
1749.705	7757.1
1754.105	7537.1
1758.501	7324.1
1762.893	7133.1
1767.28	6964.1
1771.663	6786.1
1776.042	6659.1
1780.417	6571.1
1784.787	6573.1
1789.154	6634.1
1793.516	6767.1
1797.874	6933.1
1802.228	7060.1
1806.578	7105.1
1810.924	7136.1
1815.266	7055.1
1819.603	6998.1
1823.937	6894.1
1828.266	6726.1
1832.591	6646.1
1836.913	6555.1
1841.23	6488.1
1845.543	6449.1
1849.852	6410.1
1854.156	6372.1
1858.457	6357.1
1862.754	6372.1
1867.047	6335.1
1871.335	6309.1
1875.62	6277.1
1879.9	6273.1
1884.177	6248.1
1888.449	6193.1
1892.718	6124.1
1896.982	6067.1
1901.243	5992.1
1905.499	5914.1
1909.752	5949.1
1914	5948.1
1918.245	5915.1
1922.485	5987.1
1926.722	6051.1
1930.954	6086.1
1935.183	6176.1
1939.408	6246.1
1943.628	6292.1
1947.845	6361.1
1952.058	6305.1
1956.267	6247.1
1960.472	6167.1
1964.673	6082.1
1968.87	5984.1
1973.063	5902.1
1977.252	5828.1
1981.438	5766.1
1985.619	5722.1
1989.797	5674.1
1993.971	5606.1
1998.14	5618.1
2002.306	5587.1
2006.469	5549.1
2010.627	5534.1
2014.781	5510.1
2018.932	5449.1
2023.078	5357.1
2027.221	5319.1
2031.36	5269.1
2035.495	5166.1
2039.627	5076.1
2043.754	5031.1
2047.878	4980.1
2051.998	4960.1
2056.114	4889.1
2060.226	4875.1
2064.334	4904.1
2068.439	4918.1
2072.54	4935.1
2076.637	4984.1
2080.73	5017.1
2084.82	5042.1
2088.906	5064.1
2092.988	5043.1
2097.066	5054.1
2101.14	5013.1
2105.211	4999.1
2109.278	4961.1
2113.342	4904.1
2117.401	4908.1
2121.457	4893.1
2125.509	4868.1
2129.558	4821.1
2133.602	4802.1
2137.643	4771.1
2141.681	4727.1
2145.714	4727.1
2149.744	4713.1
2153.77	4660.1
2157.793	4595.1
2161.812	4569.1
2165.827	4475.1
2169.838	4420.1
2173.846	4362.1
2177.851	4273.1
2181.851	4210.1
2185.848	4172.1
2189.841	4129.1
2193.831	4074.1
2197.817	4055.1
2201.799	4024.1
2205.778	4008.1
2209.753	3972.1
2213.725	3989.1
2217.693	3979.1
2221.657	3949.1
2225.618	3938.1
2229.575	3919.1
2233.529	3898.1
2237.479	3855.1
2241.425	3827.1
2245.368	3767.1
2249.307	3709.1
2253.243	3648.1
2257.175	3596.1
2261.104	3568.1
2265.029	3505.1
2268.95	3505.1
2272.868	3445.1
2276.783	3408.1
2280.694	3376.1
2284.601	3351.1
2288.505	3309.1
2292.405	3289.1
2296.302	3234.1
2300.195	3207.1
2304.085	3140.1
2307.971	3141.1
2311.854	3112.1
2315.734	3041.1
2319.609	2993.1
2323.482	2964.1
2327.351	2930.1
2331.216	2908.1
2335.078	2902.1
2338.937	2876.1
2342.792	2857.1
2346.643	2833.1
2350.492	2853.1
2354.336	2831.1
2358.178	2875.1
2362.015	2892.1
2365.85	2877.1
2369.681	2876.1
2373.508	2872.1
2377.333	2866.1
2381.153	2865.1
2384.971	2841.1
2388.785	2830.1
2392.595	2781.1
2396.402	2762.1
2400.206	2772.1
2404.007	2733.1
2407.804	2721.1
2411.597	2702.1
2415.388	2674.1
2419.174	2640.1
2422.958	2664.1
2426.738	2606.1
2430.515	2607.1
2434.289	2566.1
2438.059	2570.1
2441.825	2517.1
2445.589	2534.1
2449.349	2479.1
2453.106	2451.1
2456.859	2425.1
2460.61	2404.1
2464.356	2357.1
2468.1	2325.1
2471.84	2304.1
2475.577	2282.1
2479.311	2301.1
2483.041	2270.1
2486.768	2266.1
2490.492	2251.1
2494.213	2267.1
2497.93	2219.1
2501.644	2214.1
2505.355	2200.1
2509.062	2197.1
2512.766	2195.1
2516.467	2187.1
2520.165	2165.1
2523.859	2132.1
2527.551	2125.1
2531.239	2127.1
2534.923	2093.1
2538.605	2085.1
2542.283	2064.1
2545.958	2057.1
2549.63	2084.1
2553.299	2089.1
2556.964	2067.1
2560.626	2043.1
2564.285	2044.1
2567.941	2052.1
2571.594	2032.1
2575.243	2024.1
2578.89	2012.1
2582.533	1969.1
2586.173	1979.1
2589.809	1948.1
2593.443	1921.1
2597.073	1908.1
2600.701	1905.1
2604.325	1893.1
2607.946	1874.1
2611.564	1860.1
2615.178	1847.1
2618.79	1848.1
2622.398	1832.1
2626.004	1801.1
2629.606	1814.1
2633.205	1760.1
2636.801	1741.1
2640.394	1706.1
2643.983	1697.1
2647.57	1668.1
2651.153	1635.1
2654.734	1597.1
2658.311	1580.1
2661.885	1568.1
2665.456	1552.1
2669.025	1533.1
2672.589	1514.1
2676.151	1485.1
2679.71	1503.1
2683.266	1442.1
2686.819	1432.1
2690.368	1413.1
2693.915	1388.1
2697.458	1350.1
2700.999	1309.1
2704.536	1276.1
2708.071	1248.1
2711.602	1226.1
2715.13	1197.1
2718.656	1178.1
2722.178	1156.1
2725.697	1145.1
2729.214	1130.1
2732.727	1090.1
2736.237	1109.1
2739.744	1104.1
2743.249	1107.1
2746.75	1106.1
2750.248	1109.1
2753.743	1143.1
2757.236	1172.1
2760.725	1163.1
2764.211	1158.1
2767.695	1168.1
2771.175	1164.1
2774.652	1160.1
2778.127	1149.1
2781.598	1149.1
2785.067	1128.1
2788.532	1144.1
2791.995	1122.1
2795.455	1136.1
2798.911	1134.1
2802.365	1150.1
2805.816	1132.1
2809.264	1117.1
2812.709	1114.1
2816.151	1128.1
2819.59	1136.1
2823.026	1123.1
2826.46	1144.1
2829.89	1126.1
2833.318	1126.1
2836.742	1129.1
2840.164	1150.1
2843.583	1143.1
2846.999	1164.1
2850.412	1172.1
2853.822	1198.1
2857.229	1189.1
2860.634	1209.1
2864.035	1238.1
2867.434	1238.1
2870.83	1274.1
2874.223	1295.1
2877.613	1316.1
2881	1335.1
2884.385	1339.1
2887.766	1329.1
2891.145	1345.1
2894.521	1329.1
2897.894	1333.1
2901.264	1341.1
2904.631	1317.1
2907.996	1327.1
2911.358	1332.1
2914.717	1335.1
2918.073	1358.1
2921.426	1372.1
2924.777	1385.1
2928.124	1418.1
2931.469	1435.1
2934.811	1463.1
2938.15	1453.1
2941.487	1481.1
2944.821	1482.1
2948.152	1466.1
2951.48	1457.1
2954.805	1451.1
2958.128	1456.1
2961.447	1439.1
2964.765	1428.1
2968.079	1412.1
2971.39	1445.1
2974.699	1467.1
2978.005	1484.1
2981.308	1500.1
2984.609	1524.1
2987.907	1563.1
2991.202	1592.1
2994.494	1624.1
2997.784	1672.1
3001.07	1694.1
3004.355	1682.1
3007.636	1736.1
3010.915	1758.1
3014.191	1762.1
3017.464	1769.1
3020.734	1788.1
3024.002	1797.1
3027.267	1823.1
3030.53	1822.1
3033.789	1849.1
3037.046	1872.1
3040.301	1892.1
3043.552	1939.1
3046.801	1954.1
3050.048	1997.1
3053.291	2041.1
3056.532	2118.1
3059.771	2145.1
3063.006	2208.1
3066.239	2299.1
3069.469	2370.1
3072.697	2413.1
3075.922	2466.1
3079.144	2546.1
3082.364	2570.1
3085.581	2624.1
3088.795	2670.1
3092.007	2762.1
3095.216	2807.1
3098.423	2855.1
3101.627	2947.1
3104.828	2970.1
3108.026	3051.1
3111.222	3090.1
3114.416	3171.1
3117.607	3255.1
3120.795	3320.1
3123.98	3401.1
3127.163	3475.1
3130.344	3591.1
3133.521	3661.1
3136.696	3745.1
3139.869	3847.1
3143.039	3886.1
3146.206	3933.1
3149.371	3985.1
3152.533	4008.1
3155.693	4040.1
3158.85	4041.1
3162.005	4093.1
3165.157	4083.1
3168.306	4110.1
3171.453	4120.1
3174.597	4110.1
3177.739	4151.1
3180.878	4124.1
3184.014	4121.1
3187.149	4162.1
3190.28	4159.1
3193.409	4165.1
3196.536	4148.1
3199.659	4208.1
3202.781	4199.1
3205.9	4192.1
3209.016	4174.1
3212.13	4149.1
3215.241	4124.1
3218.35	4098.1
3221.456	4089.1
3224.56	4005.1
3227.661	3973.1
3230.76	3936.1
3233.856	3880.1
3236.95	3844.1
3240.041	3804.1
3243.13	3760.1
3246.216	3780.1
3249.3	3754.1
3252.382	3725.1
3255.46	3731.1
3258.537	3687.1
3261.611	3721.1
3264.682	3710.1
3267.751	3721.1
3270.818	3708.1
3273.882	3677.1
3276.943	3658.1
3280.002	3664.1
3283.059	3599.1
3286.113	3568.1
3289.165	3517.1
3292.214	3486.1
3295.261	3384.1
3298.306	3372.1
3301.348	3324.1
3304.387	3247.1
3307.425	3218.1
3310.459	3142.1
3313.492	3094.1
3316.521	3061.1
3319.549	3013.1
3322.574	2978.1
3325.597	2965.1
3328.617	2956.1
3331.635	2935.1
3334.65	2908.1
3337.663	2895.1
3340.674	2863.1
3343.682	2872.1
3346.688	2865.1
3349.691	2837.1
3352.692	2837.1
3355.691	2798.1
3358.687	2761.1
3361.681	2751.1
3364.673	2703.1
3367.662	2672.1
3370.649	2622.1
3373.633	2606.1
3376.615	2560.1
3379.595	2523.1
3382.572	2494.1
3385.547	2427.1
3388.52	2410.1
3391.49	2345.1
3394.458	2321.1
3397.424	2305.1
3400.387	2257.1
3403.348	2255.1
3406.307	2226.1
3409.263	2186.1
3412.217	2163.1
3415.168	2128.1
3418.118	2126.1
3421.065	2100.1
3424.009	2058.1
3426.951	2025.1
3429.891	1984.1
3432.829	1943.1
3435.764	1890.1
3438.697	1862.1
3441.628	1798.1
3444.557	1751.1
3447.483	1690.1
3450.407	1647.1
3453.328	1595.1
3456.247	1548.1
3459.164	1484.1
3462.079	1446.1
3464.991	1378.1
3467.902	1337.1
3470.809	1290.1
3473.715	1236.1
3476.618	1185.1
3479.519	1137.1
3482.418	1115.1
3485.315	1077.1
3488.209	1029.1
3491.101	1003.1
3493.99	958.1
3496.878	925.1
3499.763	881.1
3502.646	851.1
3505.527	787.1
3508.405	786.1
3511.281	735.1
3514.155	699.1
3517.027	650.1
3519.897	604.1
3522.764	567.1
3525.629	518.1
3528.492	483.1
3531.352	450.1
3534.211	398.1
3537.067	378.1
3539.921	341.1
3542.773	290.1
3545.622	259.1
3548.469	225.1
3551.315	192.1
3554.157	176.1
3556.998	138.1
3559.837	111.1
3562.673	90.1
3565.507	56.1
3568.339	37.1
3571.169	19.1
3573.996	-5.9
3576.822	-22.9
3579.645	-38.9
3582.466	-64.9
3585.285	-85.9
3588.101	-96.9
3590.916	-125.9
3593.728	-144.9
3596.538	-155.9
3599.346	-174.9
3602.152	-194.9
3604.956	-211.9
3607.757	-231.9
3610.556	-249.9
3613.354	-271.9
3616.149	-271.9
3618.942	-288.9
3621.732	-299.9
3624.521	-311.9
3627.307	-316.9
3630.092	-331.9
3632.874	-352.9
3635.654	-352.9
3638.432	-358.9
3641.208	-368.9
3643.982	-385.9
3646.753	-385.9
3649.523	-407.9
3652.29	-400.9
3655.055	-410.9
3657.818	-421.9
3660.579	-436.9
3663.338	-453.9
3666.095	-463.9
3668.849	-469.9
3671.602	-476.9
3674.352	-484.9
3677.101	-486.9
3679.847	-495.9
3682.591	-511.9
3685.333	-511.9
3688.073	-518.9
3690.811	-528.9
3693.547	-532.9
3696.281	-534.9
3699.013	-543.9
3701.742	-551.9
3704.47	-548.9
3707.195	-560.9
3709.919	-552.9
3712.64	-559.9
3715.359	-562.9
3718.076	-572.9
3720.792	-570.9
3723.505	-569.9
3726.216	-573.9
3728.925	-574.9
3731.632	-581.9
3734.336	-585.9
3737.039	-592.9
3739.74	-591.9
3742.439	-590.9
3745.136	-596.9
3747.83	-601.9
3750.523	-603.9
3753.213	-588.9
3755.902	-605.9
3758.589	-612.9
3761.273	-609.9
3763.956	-615.9
3766.636	-614.9
3769.315	-625.9
3771.991	-619.9
3774.665	-627.9
3777.338	-620.9
3780.008	-628.9
3782.677	-624.9
3785.343	-623.9
3788.007	-630.9
3790.67	-622.9
3793.33	-632.9
3795.989	-634.9
3798.645	-626.9
3801.299	-627.9
3803.952	-633.9
3806.602	-636.9
3809.251	-642.9
3811.897	-641.9
3814.542	-634.9
3817.184	-641.9
3819.825	-635.9
3822.463	-641.9
3825.1	-644.9
3827.735	-638.9
3830.367	-640.9
3832.998	-649.9
3835.627	-649.9
3838.253	-647.9
3840.878	-649.9
3843.501	-649.9
3846.122	-645.9
3848.741	-649.9
3851.358	-648.9
3853.973	-652.9
3856.586	-651.9
3859.197	-651.9
3861.806	-657.9
3864.414	-647.9
3867.019	-650.9
3869.622	-653.9
3872.224	-646.9
3874.823	-631.9
3877.421	-620.9
3880.016	-608.9
3882.61	-590.9
3885.202	-592.9
3887.792	-604.9
3890.38	-627.9
3892.966	-641.9
3895.55	-651.9
3898.132	-667.9
3900.713	-667.9
3903.291	-663.9
3905.868	-668.9
3908.442	-665.9
3911.015	-667.9
3913.586	-659.9
3916.155	-658.9
3918.722	-667.9
3921.287	-667.9
3923.85	-670.9
3926.411	-669.9
3928.971	-675.9
3931.528	-669.9
3934.084	-670.9
3936.638	-666.9
3939.19	-669.9
3941.74	-669.9
3944.288	-673.9
3946.834	-663.9
3949.378	-671.9
3951.921	-667.9
3954.462	-675.9
3957	-667.9
3959.537	-666.9
3962.072	-666.9
3964.606	-673.9
3967.137	-663.9
3969.667	-670.9
3972.194	-662.9
3974.72	-671.9
3977.244	-652.9
3979.766	-656.9
3982.286	-659.9
3984.805	-656.9
3987.321	-657.9
3989.836	-655.9
3992.349	-651.9
3994.86	-653.9
3997.369	-662.9
3999.877	-650.9
4002.382	-651.9
4004.886	-655.9
4007.388	-648.9
4009.888	-648.9
4012.386	-658.9
4014.883	-655.9
4017.377	-660.9
4019.87	-653.9
4022.361	-658.9
4024.85	-653.9
4027.338	-655.9
4029.823	-654.9
4032.307	-655.9
4034.789	-652.9
4037.269	-653.9
4039.747	-651.9
4042.224	-656.9
4044.699	-651.9
4047.172	-655.9
4049.643	-651.9
4052.112	-661.9
4054.58	-658.9
4057.046	-663.9
4059.51	-661.9
4061.972	-662.9
4064.432	-660.9
4066.891	-657.9
4069.348	-657.9
4071.803	-654.9
4074.256	-657.9
4076.708	-654.9
4079.158	-662.9
4081.606	-658.9
4084.052	-661.9
4086.497	-664.9
4088.939	-652.9
4091.38	-657.9
4093.819	-654.9
4096.257	-687.9
4098.693	-690.9
4101.127	-692.9
4103.559	-688.9
4105.989	-400.9
4108.418	-384.9
4110.845	-353.9
4113.27	-331.9
4115.694	-286.9
4118.115	-243.9
4120.535	-652.9
4122.954	-659.9
4125.37	-644.9
4127.785	-654.9
4130.198	-657.9
4132.609	-659.9
4135.019	-691.9
4137.427	-692.9
4139.833	-693.9
4142.237	-689.9
