Data from 2018-2-14_conc=4_n=2_RamanShift_01.txt Node
Date: Wed Feb 14 13:28:25 IST 2018
User: aro
Spectrometer: QEPB0276
Trigger mode: 0
Integration Time (sec): 3.000000E1
Scans to average: 1
Electric dark correction enabled: true
Nonlinearity correction enabled: false
Boxcar width: 0
XAxis mode: Raman Shifts
Number of Pixels in Spectrum: 1044
>>>>>Begin Spectral Data<<<<<
160.701	-170.2
166.742	38.8
172.777	619.8
178.805	2368.8
184.826	6550.8
190.841	13565.8
196.849	21739.8
202.85	27328.8
208.845	29093.8
214.833	28718.8
220.815	28110.8
226.789	27974.8
232.758	27740.8
238.719	27471.8
244.674	27079.8
250.623	26492.8
256.565	25921.8
262.5	25385.8
268.429	24816.8
274.351	24394.8
280.267	24070.8
286.176	23713.8
292.079	23489.8
297.975	23185.8
303.865	22933.8
309.748	22758.8
315.625	22633.8
321.495	22510.8
327.359	22397.8
333.217	22305.8
339.068	22288.8
344.912	22235.8
350.751	22217.8
356.583	22135.8
362.408	22165.8
368.227	22155.8
374.04	22223.8
379.847	22188.8
385.647	22341.8
391.44	22415.8
397.228	22465.8
403.009	22530.8
408.784	22682.8
414.553	22753.8
420.315	22827.8
426.071	22854.8
431.821	22779.8
437.565	22786.8
443.302	22787.8
449.033	22718.8
454.758	22637.8
460.477	22639.8
466.189	22504.8
471.896	22491.8
477.596	22444.8
483.29	22363.8
488.978	22327.8
494.66	22302.8
500.335	22062.8
506.005	21844.8
511.668	21574.8
517.325	21307.8
522.977	21142.8
528.622	20923.8
534.261	20792.8
539.894	20680.8
545.521	20561.8
551.141	20500.8
556.756	20450.8
562.365	20388.8
567.968	20319.8
573.565	20166.8
579.155	20097.8
584.74	20031.8
590.319	19998.8
595.892	19858.8
601.459	19847.8
607.02	19680.8
612.575	19592.8
618.124	19451.8
623.667	19358.8
629.204	19243.8
634.735	19187.8
640.261	19063.8
645.781	19041.8
651.294	18879.8
656.802	18940.8
662.304	18924.8
667.8	18875.8
673.29	18794.8
678.775	18798.8
684.254	18693.8
689.726	18634.8
695.193	18587.8
700.655	18463.8
706.11	18390.8
711.56	18322.8
717.004	18219.8
722.442	18154.8
727.874	18119.8
733.301	18041.8
738.722	17984.8
744.137	17933.8
749.547	17980.8
754.951	17940.8
760.349	17924.8
765.741	17945.8
771.128	17916.8
776.509	17936.8
781.885	17998.8
787.254	17902.8
792.618	17807.8
797.977	17694.8
803.33	17601.8
808.677	17485.8
814.019	17391.8
819.355	17394.8
824.686	17263.8
830.011	17245.8
835.33	17192.8
840.644	17164.8
845.952	17265.8
851.255	17299.8
856.552	17295.8
861.844	17248.8
867.13	17167.8
872.41	17121.8
877.686	17007.8
882.955	16913.8
888.219	16732.8
893.478	16585.8
898.731	16375.8
903.979	16144.8
909.221	16113.8
914.458	15967.8
919.69	16020.8
924.916	16034.8
930.136	16043.8
935.351	16097.8
940.561	16059.8
945.766	16053.8
950.965	15968.8
956.158	15880.8
961.347	15645.8
966.529	15458.8
971.707	15310.8
976.879	15100.8
982.046	15014.8
987.208	14940.8
992.364	14953.8
997.515	15029.8
1002.66	15236.8
1007.801	15350.8
1012.936	15464.8
1018.066	15468.8
1023.19	15435.8
1028.309	15483.8
1033.423	15412.8
1038.532	15341.8
1043.636	15189.8
1048.734	15021.8
1053.827	14768.8
1058.915	14677.8
1063.998	14553.8
1069.075	14521.8
1074.147	14509.8
1079.214	14617.8
1084.276	14653.8
1089.333	14818.8
1094.385	14794.8
1099.431	14864.8
1104.472	14865.8
1109.509	14770.8
1114.54	14643.8
1119.565	14416.8
1124.586	14192.8
1129.602	14148.8
1134.613	14021.8
1139.618	13897.8
1144.619	13860.8
1149.614	13850.8
1154.604	13887.8
1159.589	13917.8
1164.57	13955.8
1169.545	14022.8
1174.515	14008.8
1179.48	13844.8
1184.44	13819.8
1189.395	13739.8
1194.345	13605.8
1199.29	13543.8
1204.23	13554.8
1209.165	13583.8
1214.095	13718.8
1219.021	13758.8
1223.941	13822.8
1228.856	13882.8
1233.766	13910.8
1238.672	13984.8
1243.572	13957.8
1248.467	13887.8
1253.358	13695.8
1258.244	13530.8
1263.124	13277.8
1268	13074.8
1272.871	12909.8
1277.737	12871.8
1282.599	12767.8
1287.455	12793.8
1292.306	12748.8
1297.153	12824.8
1301.995	12924.8
1306.832	12939.8
1311.664	12954.8
1316.491	12953.8
1321.314	12826.8
1326.132	12628.8
1330.945	12301.8
1335.753	12106.8
1340.556	11728.8
1345.354	11493.8
1350.148	11316.8
1354.937	11234.8
1359.722	11269.8
1364.501	11346.8
1369.276	11477.8
1374.046	11603.8
1378.811	11816.8
1383.572	11937.8
1388.327	11918.8
1393.079	11892.8
1397.825	11722.8
1402.567	11573.8
1407.304	11420.8
1412.036	11277.8
1416.764	11191.8
1421.487	11129.8
1426.205	11071.8
1430.919	10999.8
1435.628	11028.8
1440.333	11090.8
1445.032	11085.8
1449.727	11110.8
1454.418	11070.8
1459.104	10995.8
1463.785	10756.8
1468.462	10525.8
1473.134	10337.8
1477.802	10154.8
1482.465	9947.8
1487.123	9844.8
1491.777	9873.8
1496.426	9926.8
1501.071	10028.8
1505.711	10157.8
1510.347	10361.8
1514.978	10584.8
1519.604	10750.8
1524.226	10821.8
1528.844	10820.8
1533.457	10817.8
1538.065	10801.8
1542.669	10687.8
1547.269	10593.8
1551.864	10552.8
1556.454	10502.8
1561.041	10480.8
1565.622	10462.8
1570.199	10511.8
1574.772	10538.8
1579.34	10595.8
1583.904	10669.8
1588.464	10712.8
1593.019	10738.8
1597.569	10684.8
1602.115	10640.8
1606.657	10565.8
1611.195	10499.8
1615.728	10427.8
1620.256	10447.8
1624.78	10428.8
1629.3	10465.8
1633.816	10465.8
1638.327	10527.8
1642.834	10570.8
1647.336	10622.8
1651.834	10700.8
1656.328	10664.8
1660.817	10579.8
1665.302	10501.8
1669.783	10314.8
1674.259	10091.8
1678.732	9807.8
1683.199	9433.8
1687.663	9140.8
1692.122	8858.8
1696.577	8732.8
1701.028	8745.8
1705.474	8784.8
1709.917	8915.8
1714.355	8888.8
1718.788	8819.8
1723.218	8647.8
1727.643	8514.8
1732.064	8335.8
1736.481	8126.8
1740.893	7891.8
1745.301	7705.8
1749.705	7479.8
1754.105	7279.8
1758.501	7099.8
1762.893	6888.8
1767.28	6709.8
1771.663	6571.8
1776.042	6417.8
1780.417	6391.8
1784.787	6403.8
1789.154	6500.8
1793.516	6624.8
1797.874	6746.8
1802.228	6895.8
1806.578	6940.8
1810.924	6954.8
1815.266	6857.8
1819.603	6726.8
1823.937	6646.8
1828.266	6525.8
1832.591	6406.8
1836.913	6324.8
1841.23	6266.8
1845.543	6199.8
1849.852	6198.8
1854.156	6163.8
1858.457	6131.8
1862.754	6122.8
1867.047	6109.8
1871.335	6143.8
1875.62	6099.8
1879.9	6082.8
1884.177	6061.8
1888.449	6035.8
1892.718	5939.8
1896.982	5861.8
1901.243	5834.8
1905.499	5805.8
1909.752	5839.8
1914	5812.8
1918.245	5829.8
1922.485	5855.8
1926.722	5949.8
1930.954	6008.8
1935.183	6095.8
1939.408	6181.8
1943.628	6188.8
1947.845	6195.8
1952.058	6156.8
1956.267	6132.8
1960.472	6014.8
1964.673	5962.8
1968.87	5861.8
1973.063	5781.8
1977.252	5679.8
1981.438	5642.8
1985.619	5601.8
1989.797	5544.8
1993.971	5490.8
1998.14	5466.8
2002.306	5444.8
2006.469	5438.8
2010.627	5395.8
2014.781	5342.8
2018.932	5320.8
2023.078	5262.8
2027.221	5182.8
2031.36	5074.8
2035.495	5024.8
2039.627	4936.8
2043.754	4886.8
2047.878	4860.8
2051.998	4828.8
2056.114	4819.8
2060.226	4818.8
2064.334	4811.8
2068.439	4840.8
2072.54	4882.8
2076.637	4929.8
2080.73	4954.8
2084.82	4987.8
2088.906	5005.8
2092.988	4992.8
2097.066	4972.8
2101.14	4944.8
2105.211	4930.8
2109.278	4917.8
2113.342	4870.8
2117.401	4813.8
2121.457	4793.8
2125.509	4796.8
2129.558	4772.8
2133.602	4729.8
2137.643	4696.8
2141.681	4681.8
2145.714	4654.8
2149.744	4628.8
2153.77	4597.8
2157.793	4527.8
2161.812	4458.8
2165.827	4387.8
2169.838	4308.8
2173.846	4271.8
2177.851	4170.8
2181.851	4147.8
2185.848	4083.8
2189.841	4061.8
2193.831	4002.8
2197.817	3935.8
2201.799	3946.8
2205.778	3917.8
2209.753	3919.8
2213.725	3876.8
2217.693	3879.8
2221.657	3902.8
2225.618	3861.8
2229.575	3856.8
2233.529	3812.8
2237.479	3762.8
2241.425	3698.8
2245.368	3675.8
2249.307	3588.8
2253.243	3568.8
2257.175	3515.8
2261.104	3472.8
2265.029	3430.8
2268.95	3388.8
2272.868	3351.8
2276.783	3327.8
2280.694	3294.8
2284.601	3256.8
2288.505	3228.8
2292.405	3171.8
2296.302	3161.8
2300.195	3132.8
2304.085	3087.8
2307.971	3049.8
2311.854	2986.8
2315.734	2966.8
2319.609	2900.8
2323.482	2840.8
2327.351	2840.8
2331.216	2769.8
2335.078	2768.8
2338.937	2765.8
2342.792	2749.8
2346.643	2730.8
2350.492	2734.8
2354.336	2746.8
2358.178	2718.8
2362.015	2768.8
2365.85	2754.8
2369.681	2750.8
2373.508	2759.8
2377.333	2744.8
2381.153	2743.8
2384.971	2723.8
2388.785	2689.8
2392.595	2686.8
2396.402	2670.8
2400.206	2622.8
2404.007	2597.8
2407.804	2581.8
2411.597	2578.8
2415.388	2595.8
2419.174	2544.8
2422.958	2497.8
2426.738	2494.8
2430.515	2469.8
2434.289	2453.8
2438.059	2443.8
2441.825	2448.8
2445.589	2393.8
2449.349	2358.8
2453.106	2350.8
2456.859	2278.8
2460.61	2304.8
2464.356	2248.8
2468.1	2216.8
2471.84	2218.8
2475.577	2185.8
2479.311	2175.8
2483.041	2153.8
2486.768	2146.8
2490.492	2165.8
2494.213	2129.8
2497.93	2123.8
2501.644	2118.8
2505.355	2072.8
2509.062	2090.8
2512.766	2113.8
2516.467	2088.8
2520.165	2068.8
2523.859	2064.8
2527.551	2032.8
2531.239	2029.8
2534.923	2005.8
2538.605	2022.8
2542.283	2004.8
2545.958	2007.8
2549.63	1996.8
2553.299	1976.8
2556.964	1986.8
2560.626	1973.8
2564.285	1966.8
2567.941	1978.8
2571.594	1945.8
2575.243	1930.8
2578.89	1923.8
2582.533	1918.8
2586.173	1900.8
2589.809	1887.8
2593.443	1868.8
2597.073	1821.8
2600.701	1821.8
2604.325	1816.8
2607.946	1792.8
2611.564	1795.8
2615.178	1788.8
2618.79	1762.8
2622.398	1738.8
2626.004	1741.8
2629.606	1716.8
2633.205	1692.8
2636.801	1663.8
2640.394	1657.8
2643.983	1618.8
2647.57	1597.8
2651.153	1574.8
2654.734	1530.8
2658.311	1516.8
2661.885	1493.8
2665.456	1464.8
2669.025	1457.8
2672.589	1436.8
2676.151	1421.8
2679.71	1413.8
2683.266	1397.8
2686.819	1355.8
2690.368	1330.8
2693.915	1298.8
2697.458	1274.8
2700.999	1240.8
2704.536	1209.8
2708.071	1198.8
2711.602	1176.8
2715.13	1142.8
2718.656	1130.8
2722.178	1103.8
2725.697	1106.8
2729.214	1075.8
2732.727	1071.8
2736.237	1083.8
2739.744	1058.8
2743.249	1070.8
2746.75	1083.8
2750.248	1108.8
2753.743	1104.8
2757.236	1148.8
2760.725	1141.8
2764.211	1133.8
2767.695	1147.8
2771.175	1142.8
2774.652	1138.8
2778.127	1107.8
2781.598	1112.8
2785.067	1126.8
2788.532	1112.8
2791.995	1114.8
2795.455	1111.8
2798.911	1102.8
2802.365	1109.8
2805.816	1126.8
2809.264	1090.8
2812.709	1109.8
2816.151	1111.8
2819.59	1094.8
2823.026	1107.8
2826.46	1109.8
2829.89	1115.8
2833.318	1102.8
2836.742	1132.8
2840.164	1137.8
2843.583	1147.8
2846.999	1157.8
2850.412	1148.8
2853.822	1161.8
2857.229	1177.8
2860.634	1207.8
2864.035	1231.8
2867.434	1255.8
2870.83	1266.8
2874.223	1299.8
2877.613	1315.8
2881	1342.8
2884.385	1343.8
2887.766	1342.8
2891.145	1345.8
2894.521	1331.8
2897.894	1343.8
2901.264	1339.8
2904.631	1362.8
2907.996	1370.8
2911.358	1341.8
2914.717	1374.8
2918.073	1390.8
2921.426	1382.8
2924.777	1402.8
2928.124	1422.8
2931.469	1461.8
2934.811	1486.8
2938.15	1502.8
2941.487	1537.8
2944.821	1514.8
2948.152	1534.8
2951.48	1550.8
2954.805	1520.8
2958.128	1490.8
2961.447	1499.8
2964.765	1477.8
2968.079	1477.8
2971.39	1517.8
2974.699	1544.8
2978.005	1572.8
2981.308	1576.8
2984.609	1606.8
2987.907	1641.8
2991.202	1662.8
2994.494	1721.8
2997.784	1745.8
3001.07	1806.8
3004.355	1803.8
3007.636	1837.8
3010.915	1853.8
3014.191	1867.8
3017.464	1892.8
3020.734	1895.8
3024.002	1921.8
3027.267	1923.8
3030.53	1934.8
3033.789	1962.8
3037.046	2003.8
3040.301	2028.8
3043.552	2042.8
3046.801	2091.8
3050.048	2147.8
3053.291	2195.8
3056.532	2243.8
3059.771	2328.8
3063.006	2394.8
3066.239	2457.8
3069.469	2544.8
3072.697	2600.8
3075.922	2659.8
3079.144	2712.8
3082.364	2789.8
3085.581	2857.8
3088.795	2920.8
3092.007	2991.8
3095.216	3034.8
3098.423	3101.8
3101.627	3194.8
3104.828	3230.8
3108.026	3286.8
3111.222	3408.8
3114.416	3462.8
3117.607	3532.8
3120.795	3621.8
3123.98	3716.8
3127.163	3779.8
3130.344	3892.8
3133.521	3972.8
3136.696	4066.8
3139.869	4162.8
3143.039	4229.8
3146.206	4267.8
3149.371	4349.8
3152.533	4383.8
3155.693	4389.8
3158.85	4441.8
3162.005	4433.8
3165.157	4465.8
3168.306	4457.8
3171.453	4506.8
3174.597	4499.8
3177.739	4488.8
3180.878	4524.8
3184.014	4488.8
3187.149	4514.8
3190.28	4538.8
3193.409	4526.8
3196.536	4518.8
3199.659	4541.8
3202.781	4545.8
3205.9	4572.8
3209.016	4552.8
3212.13	4524.8
3215.241	4501.8
3218.35	4468.8
3221.456	4431.8
3224.56	4395.8
3227.661	4314.8
3230.76	4278.8
3233.856	4259.8
3236.95	4206.8
3240.041	4149.8
3243.13	4152.8
3246.216	4104.8
3249.3	4122.8
3252.382	4064.8
3255.46	4067.8
3258.537	4024.8
3261.611	4050.8
3264.682	4073.8
3267.751	4058.8
3270.818	4039.8
3273.882	4027.8
3276.943	3995.8
3280.002	3973.8
3283.059	3926.8
3286.113	3888.8
3289.165	3815.8
3292.214	3760.8
3295.261	3693.8
3298.306	3635.8
3301.348	3620.8
3304.387	3521.8
3307.425	3484.8
3310.459	3430.8
3313.492	3364.8
3316.521	3325.8
3319.549	3304.8
3322.574	3266.8
3325.597	3248.8
3328.617	3204.8
3331.635	3156.8
3334.65	3163.8
3337.663	3165.8
3340.674	3127.8
3343.682	3118.8
3346.688	3111.8
3349.691	3084.8
3352.692	3096.8
3355.691	3054.8
3358.687	3023.8
3361.681	3002.8
3364.673	2959.8
3367.662	2896.8
3370.649	2881.8
3373.633	2840.8
3376.615	2784.8
3379.595	2746.8
3382.572	2728.8
3385.547	2669.8
3388.52	2630.8
3391.49	2590.8
3394.458	2550.8
3397.424	2540.8
3400.387	2483.8
3403.348	2453.8
3406.307	2447.8
3409.263	2408.8
3412.217	2379.8
3415.168	2344.8
3418.118	2301.8
3421.065	2282.8
3424.009	2267.8
3426.951	2226.8
3429.891	2166.8
3432.829	2155.8
3435.764	2083.8
3438.697	2033.8
3441.628	1976.8
3444.557	1933.8
3447.483	1866.8
3450.407	1807.8
3453.328	1756.8
3456.247	1728.8
3459.164	1635.8
3462.079	1573.8
3464.991	1512.8
3467.902	1464.8
3470.809	1409.8
3473.715	1377.8
3476.618	1320.8
3479.519	1277.8
3482.418	1244.8
3485.315	1190.8
3488.209	1146.8
3491.101	1113.8
3493.99	1070.8
3496.878	1030.8
3499.763	1001.8
3502.646	956.8
3505.527	909.8
3508.405	866.8
3511.281	828.8
3514.155	783.8
3517.027	744.8
3519.897	697.8
3522.764	649.8
3525.629	591.8
3528.492	542.8
3531.352	507.8
3534.211	468.8
3537.067	438.8
3539.921	381.8
3542.773	350.8
3545.622	308.8
3548.469	282.8
3551.315	261.8
3554.157	221.8
3556.998	178.8
3559.837	145.8
3562.673	138.8
3565.507	105.8
3568.339	70.8
3571.169	71.8
3573.996	30.8
3576.822	8.8
3579.645	-12.2
3582.466	-27.2
3585.285	-62.2
3588.101	-85.2
3590.916	-100.2
3593.728	-131.2
3596.538	-136.2
3599.346	-151.2
3602.152	-178.2
3604.956	-195.2
3607.757	-215.2
3610.556	-225.2
3613.354	-236.2
3616.149	-265.2
3618.942	-280.2
3621.732	-293.2
3624.521	-304.2
3627.307	-327.2
3630.092	-322.2
3632.874	-335.2
3635.654	-344.2
3638.432	-354.2
3641.208	-362.2
3643.982	-383.2
3646.753	-383.2
3649.523	-393.2
3652.29	-410.2
3655.055	-415.2
3657.818	-434.2
3660.579	-441.2
3663.338	-461.2
3666.095	-469.2
3668.849	-471.2
3671.602	-476.2
3674.352	-489.2
3677.101	-496.2
3679.847	-517.2
3682.591	-518.2
3685.333	-528.2
3688.073	-531.2
3690.811	-541.2
3693.547	-547.2
3696.281	-545.2
3699.013	-550.2
3701.742	-561.2
3704.47	-561.2
3707.195	-570.2
3709.919	-565.2
3712.64	-576.2
3715.359	-578.2
3718.076	-582.2
3720.792	-590.2
3723.505	-593.2
3726.216	-599.2
3728.925	-598.2
3731.632	-602.2
3734.336	-608.2
3737.039	-616.2
3739.74	-608.2
3742.439	-616.2
3745.136	-617.2
3747.83	-617.2
3750.523	-622.2
3753.213	-606.2
3755.902	-624.2
3758.589	-630.2
3761.273	-630.2
3763.956	-628.2
3766.636	-634.2
3769.315	-640.2
3771.991	-636.2
3774.665	-641.2
3777.338	-640.2
3780.008	-647.2
3782.677	-648.2
3785.343	-645.2
3788.007	-647.2
3790.67	-651.2
3793.33	-644.2
3795.989	-650.2
3798.645	-651.2
3801.299	-649.2
3803.952	-660.2
3806.602	-664.2
3809.251	-664.2
3811.897	-660.2
3814.542	-656.2
3817.184	-659.2
3819.825	-655.2
3822.463	-657.2
3825.1	-662.2
3827.735	-659.2
3830.367	-656.2
3832.998	-668.2
3835.627	-666.2
3838.253	-671.2
3840.878	-675.2
3843.501	-669.2
3846.122	-665.2
3848.741	-668.2
3851.358	-667.2
3853.973	-673.2
3856.586	-669.2
3859.197	-674.2
3861.806	-674.2
3864.414	-671.2
3867.019	-672.2
3869.622	-673.2
3872.224	-661.2
3874.823	-650.2
3877.421	-641.2
3880.016	-626.2
3882.61	-611.2
3885.202	-605.2
3887.792	-617.2
3890.38	-645.2
3892.966	-662.2
3895.55	-675.2
3898.132	-687.2
3900.713	-690.2
3903.291	-683.2
3905.868	-686.2
3908.442	-685.2
3911.015	-689.2
3913.586	-681.2
3916.155	-683.2
3918.722	-686.2
3921.287	-681.2
3923.85	-692.2
3926.411	-687.2
3928.971	-697.2
3931.528	-688.2
3934.084	-688.2
3936.638	-692.2
3939.19	-690.2
3941.74	-694.2
3944.288	-697.2
3946.834	-692.2
3949.378	-693.2
3951.921	-696.2
3954.462	-697.2
3957	-687.2
3959.537	-690.2
3962.072	-690.2
3964.606	-690.2
3967.137	-685.2
3969.667	-687.2
3972.194	-682.2
3974.72	-689.2
3977.244	-678.2
3979.766	-674.2
3982.286	-683.2
3984.805	-680.2
3987.321	-678.2
3989.836	-677.2
3992.349	-674.2
3994.86	-676.2
3997.369	-685.2
3999.877	-669.2
4002.382	-675.2
4004.886	-672.2
4007.388	-674.2
4009.888	-677.2
4012.386	-679.2
4014.883	-675.2
4017.377	-674.2
4019.87	-672.2
4022.361	-673.2
4024.85	-675.2
4027.338	-679.2
4029.823	-684.2
4032.307	-679.2
4034.789	-678.2
4037.269	-671.2
4039.747	-675.2
4042.224	-681.2
4044.699	-681.2
4047.172	-680.2
4049.643	-678.2
4052.112	-685.2
4054.58	-682.2
4057.046	-685.2
4059.51	-681.2
4061.972	-686.2
4064.432	-683.2
4066.891	-675.2
4069.348	-676.2
4071.803	-675.2
4074.256	-673.2
4076.708	-678.2
4079.158	-677.2
4081.606	-680.2
4084.052	-683.2
4086.497	-680.2
4088.939	-676.2
4091.38	-678.2
4093.819	-674.2
4096.257	-717.2
4098.693	-713.2
4101.127	-720.2
4103.559	-712.2
4105.989	-424.2
4108.418	-397.2
4110.845	-376.2
4113.27	-345.2
4115.694	-312.2
4118.115	-251.2
4120.535	-680.2
4122.954	-678.2
4125.37	-671.2
4127.785	-680.2
4130.198	-679.2
4132.609	-679.2
4135.019	-714.2
4137.427	-714.2
4139.833	-715.2
4142.237	-713.2
