Data from 2018-2-14_conc=3_n=6_RamanShift_05.txt Node
Date: Wed Feb 14 12:00:56 IST 2018
User: aro
Spectrometer: QEPB0276
Trigger mode: 0
Integration Time (sec): 3.000000E1
Scans to average: 1
Electric dark correction enabled: true
Nonlinearity correction enabled: false
Boxcar width: 0
XAxis mode: Raman Shifts
Number of Pixels in Spectrum: 1044
>>>>>Begin Spectral Data<<<<<
160.701	-151.6
166.742	56.4
172.777	613.4
178.805	2311.4
184.826	6435.4
190.841	13512.4
196.849	21688.4
202.85	27600.4
208.845	29525.4
214.833	29228.4
220.815	28671.4
226.789	28427.4
232.758	28415.4
238.719	28244.4
244.674	27917.4
250.623	27429.4
256.565	26846.4
262.5	26297.4
268.429	25869.4
274.351	25377.4
280.267	25115.4
286.176	24818.4
292.079	24600.4
297.975	24358.4
303.865	24155.4
309.748	23948.4
315.625	23850.4
321.495	23662.4
327.359	23660.4
333.217	23596.4
339.068	23566.4
344.912	23538.4
350.751	23553.4
356.583	23460.4
362.408	23497.4
368.227	23498.4
374.04	23520.4
379.847	23556.4
385.647	23643.4
391.44	23740.4
397.228	23833.4
403.009	23933.4
408.784	24056.4
414.553	24071.4
420.315	24127.4
426.071	24223.4
431.821	24155.4
437.565	24059.4
443.302	24059.4
449.033	24056.4
454.758	24022.4
460.477	23901.4
466.189	23937.4
471.896	23854.4
477.596	23812.4
483.29	23837.4
488.978	23764.4
494.66	23648.4
500.335	23471.4
506.005	23250.4
511.668	23018.4
517.325	22636.4
522.977	22500.4
528.622	22286.4
534.261	22227.4
539.894	22068.4
545.521	21996.4
551.141	21961.4
556.756	21891.4
562.365	21836.4
567.968	21713.4
573.565	21640.4
579.155	21565.4
584.74	21403.4
590.319	21347.4
595.892	21229.4
601.459	21159.4
607.02	21112.4
612.575	20956.4
618.124	20826.4
623.667	20727.4
629.204	20660.4
634.735	20552.4
640.261	20479.4
645.781	20378.4
651.294	20349.4
656.802	20323.4
662.304	20254.4
667.8	20237.4
673.29	20241.4
678.775	20133.4
684.254	20115.4
689.726	20037.4
695.193	19955.4
700.655	19893.4
706.11	19704.4
711.56	19671.4
717.004	19579.4
722.442	19479.4
727.874	19415.4
733.301	19385.4
738.722	19328.4
744.137	19268.4
749.547	19278.4
754.951	19256.4
760.349	19292.4
765.741	19202.4
771.128	19263.4
776.509	19248.4
781.885	19283.4
787.254	19231.4
792.618	19137.4
797.977	19009.4
803.33	18884.4
808.677	18810.4
814.019	18741.4
819.355	18592.4
824.686	18475.4
830.011	18434.4
835.33	18448.4
840.644	18420.4
845.952	18474.4
851.255	18557.4
856.552	18513.4
861.844	18505.4
867.13	18423.4
872.41	18399.4
877.686	18351.4
882.955	18164.4
888.219	18014.4
893.478	17827.4
898.731	17569.4
903.979	17365.4
909.221	17278.4
914.458	17255.4
919.69	17254.4
924.916	17291.4
930.136	17271.4
935.351	17324.4
940.561	17316.4
945.766	17312.4
950.965	17221.4
956.158	17072.4
961.347	16976.4
966.529	16713.4
971.707	16505.4
976.879	16287.4
982.046	16158.4
987.208	16098.4
992.364	16151.4
997.515	16209.4
1002.66	16367.4
1007.801	16528.4
1012.936	16651.4
1018.066	16682.4
1023.19	16654.4
1028.309	16639.4
1033.423	16618.4
1038.532	16470.4
1043.636	16389.4
1048.734	16179.4
1053.827	15950.4
1058.915	15804.4
1063.998	15691.4
1069.075	15622.4
1074.147	15658.4
1079.214	15685.4
1084.276	15784.4
1089.333	15845.4
1094.385	15977.4
1099.431	15997.4
1104.472	15999.4
1109.509	15903.4
1114.54	15766.4
1119.565	15514.4
1124.586	15343.4
1129.602	15163.4
1134.613	15057.4
1139.618	14951.4
1144.619	14933.4
1149.614	14951.4
1154.604	15025.4
1159.589	15025.4
1164.57	15031.4
1169.545	15086.4
1174.515	15051.4
1179.48	14941.4
1184.44	14873.4
1189.395	14739.4
1194.345	14690.4
1199.29	14593.4
1204.23	14597.4
1209.165	14568.4
1214.095	14732.4
1219.021	14730.4
1223.941	14856.4
1228.856	14902.4
1233.766	14921.4
1238.672	15000.4
1243.572	14964.4
1248.467	14854.4
1253.358	14730.4
1258.244	14526.4
1263.124	14257.4
1268	14049.4
1272.871	13885.4
1277.737	13742.4
1282.599	13703.4
1287.455	13700.4
1292.306	13758.4
1297.153	13775.4
1301.995	13867.4
1306.832	13923.4
1311.664	13935.4
1316.491	13825.4
1321.314	13736.4
1326.132	13540.4
1330.945	13187.4
1335.753	12848.4
1340.556	12540.4
1345.354	12259.4
1350.148	12100.4
1354.937	11982.4
1359.722	11983.4
1364.501	12102.4
1369.276	12297.4
1374.046	12473.4
1378.811	12657.4
1383.572	12799.4
1388.327	12862.4
1393.079	12780.4
1397.825	12637.4
1402.567	12393.4
1407.304	12244.4
1412.036	12086.4
1416.764	11998.4
1421.487	11905.4
1426.205	11824.4
1430.919	11788.4
1435.628	11815.4
1440.333	11812.4
1445.032	11855.4
1449.727	11910.4
1454.418	11853.4
1459.104	11697.4
1463.785	11511.4
1468.462	11287.4
1473.134	10986.4
1477.802	10806.4
1482.465	10628.4
1487.123	10485.4
1491.777	10484.4
1496.426	10554.4
1501.071	10689.4
1505.711	10879.4
1510.347	11109.4
1514.978	11268.4
1519.604	11433.4
1524.226	11574.4
1528.844	11544.4
1533.457	11563.4
1538.065	11506.4
1542.669	11425.4
1547.269	11327.4
1551.864	11236.4
1556.454	11142.4
1561.041	11171.4
1565.622	11181.4
1570.199	11143.4
1574.772	11196.4
1579.34	11296.4
1583.904	11318.4
1588.464	11403.4
1593.019	11339.4
1597.569	11324.4
1602.115	11205.4
1606.657	11168.4
1611.195	11111.4
1615.728	11032.4
1620.256	10979.4
1624.78	10974.4
1629.3	10954.4
1633.816	11028.4
1638.327	10996.4
1642.834	11094.4
1647.336	11152.4
1651.834	11188.4
1656.328	11126.4
1660.817	11166.4
1665.302	11002.4
1669.783	10828.4
1674.259	10580.4
1678.732	10290.4
1683.199	9974.4
1687.663	9639.4
1692.122	9338.4
1696.577	9225.4
1701.028	9213.4
1705.474	9308.4
1709.917	9445.4
1714.355	9473.4
1718.788	9416.4
1723.218	9234.4
1727.643	9065.4
1732.064	8858.4
1736.481	8687.4
1740.893	8465.4
1745.301	8256.4
1749.705	8026.4
1754.105	7776.4
1758.501	7604.4
1762.893	7394.4
1767.28	7222.4
1771.663	7073.4
1776.042	6888.4
1780.417	6880.4
1784.787	6910.4
1789.154	6975.4
1793.516	7113.4
1797.874	7265.4
1802.228	7392.4
1806.578	7437.4
1810.924	7434.4
1815.266	7375.4
1819.603	7293.4
1823.937	7126.4
1828.266	7017.4
1832.591	6897.4
1836.913	6796.4
1841.23	6739.4
1845.543	6676.4
1849.852	6654.4
1854.156	6614.4
1858.457	6580.4
1862.754	6602.4
1867.047	6564.4
1871.335	6542.4
1875.62	6584.4
1879.9	6540.4
1884.177	6512.4
1888.449	6449.4
1892.718	6385.4
1896.982	6334.4
1901.243	6291.4
1905.499	6244.4
1909.752	6176.4
1914	6226.4
1918.245	6235.4
1922.485	6300.4
1926.722	6352.4
1930.954	6411.4
1935.183	6556.4
1939.408	6568.4
1943.628	6626.4
1947.845	6629.4
1952.058	6607.4
1956.267	6532.4
1960.472	6500.4
1964.673	6328.4
1968.87	6252.4
1973.063	6157.4
1977.252	6074.4
1981.438	6014.4
1985.619	5950.4
1989.797	5915.4
1993.971	5860.4
1998.14	5843.4
2002.306	5768.4
2006.469	5794.4
2010.627	5737.4
2014.781	5747.4
2018.932	5633.4
2023.078	5602.4
2027.221	5539.4
2031.36	5474.4
2035.495	5363.4
2039.627	5289.4
2043.754	5225.4
2047.878	5155.4
2051.998	5132.4
2056.114	5128.4
2060.226	5118.4
2064.334	5160.4
2068.439	5157.4
2072.54	5170.4
2076.637	5233.4
2080.73	5264.4
2084.82	5255.4
2088.906	5311.4
2092.988	5307.4
2097.066	5273.4
2101.14	5263.4
2105.211	5215.4
2109.278	5163.4
2113.342	5125.4
2117.401	5109.4
2121.457	5097.4
2125.509	5069.4
2129.558	5038.4
2133.602	5010.4
2137.643	4955.4
2141.681	4947.4
2145.714	4936.4
2149.744	4872.4
2153.77	4829.4
2157.793	4762.4
2161.812	4720.4
2165.827	4638.4
2169.838	4595.4
2173.846	4532.4
2177.851	4452.4
2181.851	4378.4
2185.848	4328.4
2189.841	4278.4
2193.831	4215.4
2197.817	4174.4
2201.799	4150.4
2205.778	4157.4
2209.753	4119.4
2213.725	4133.4
2217.693	4082.4
2221.657	4100.4
2225.618	4089.4
2229.575	4047.4
2233.529	4043.4
2237.479	3978.4
2241.425	3940.4
2245.368	3879.4
2249.307	3828.4
2253.243	3784.4
2257.175	3723.4
2261.104	3678.4
2265.029	3615.4
2268.95	3604.4
2272.868	3537.4
2276.783	3541.4
2280.694	3506.4
2284.601	3437.4
2288.505	3411.4
2292.405	3370.4
2296.302	3363.4
2300.195	3290.4
2304.085	3272.4
2307.971	3219.4
2311.854	3177.4
2315.734	3107.4
2319.609	3084.4
2323.482	2998.4
2327.351	2986.4
2331.216	2979.4
2335.078	2973.4
2338.937	2926.4
2342.792	2920.4
2346.643	2901.4
2350.492	2899.4
2354.336	2887.4
2358.178	2920.4
2362.015	2927.4
2365.85	2922.4
2369.681	2925.4
2373.508	2917.4
2377.333	2913.4
2381.153	2894.4
2384.971	2877.4
2388.785	2858.4
2392.595	2830.4
2396.402	2805.4
2400.206	2765.4
2404.007	2753.4
2407.804	2739.4
2411.597	2725.4
2415.388	2713.4
2419.174	2689.4
2422.958	2654.4
2426.738	2642.4
2430.515	2654.4
2434.289	2600.4
2438.059	2570.4
2441.825	2538.4
2445.589	2530.4
2449.349	2487.4
2453.106	2457.4
2456.859	2414.4
2460.61	2394.4
2464.356	2398.4
2468.1	2338.4
2471.84	2323.4
2475.577	2314.4
2479.311	2280.4
2483.041	2291.4
2486.768	2261.4
2490.492	2268.4
2494.213	2271.4
2497.93	2242.4
2501.644	2237.4
2505.355	2217.4
2509.062	2213.4
2512.766	2222.4
2516.467	2191.4
2520.165	2198.4
2523.859	2168.4
2527.551	2157.4
2531.239	2151.4
2534.923	2125.4
2538.605	2107.4
2542.283	2141.4
2545.958	2106.4
2549.63	2130.4
2553.299	2107.4
2556.964	2112.4
2560.626	2091.4
2564.285	2074.4
2567.941	2076.4
2571.594	2061.4
2575.243	2053.4
2578.89	2033.4
2582.533	2035.4
2586.173	1989.4
2589.809	1981.4
2593.443	1966.4
2597.073	1953.4
2600.701	1910.4
2604.325	1915.4
2607.946	1911.4
2611.564	1871.4
2615.178	1863.4
2618.79	1849.4
2622.398	1846.4
2626.004	1823.4
2629.606	1811.4
2633.205	1775.4
2636.801	1754.4
2640.394	1730.4
2643.983	1693.4
2647.57	1682.4
2651.153	1646.4
2654.734	1608.4
2658.311	1583.4
2661.885	1547.4
2665.456	1545.4
2669.025	1528.4
2672.589	1496.4
2676.151	1499.4
2679.71	1482.4
2683.266	1458.4
2686.819	1417.4
2690.368	1406.4
2693.915	1369.4
2697.458	1339.4
2700.999	1299.4
2704.536	1261.4
2708.071	1236.4
2711.602	1212.4
2715.13	1205.4
2718.656	1173.4
2722.178	1160.4
2725.697	1150.4
2729.214	1137.4
2732.727	1135.4
2736.237	1125.4
2739.744	1112.4
2743.249	1129.4
2746.75	1145.4
2750.248	1152.4
2753.743	1148.4
2757.236	1190.4
2760.725	1184.4
2764.211	1179.4
2767.695	1197.4
2771.175	1185.4
2774.652	1173.4
2778.127	1158.4
2781.598	1154.4
2785.067	1162.4
2788.532	1149.4
2791.995	1142.4
2795.455	1135.4
2798.911	1134.4
2802.365	1144.4
2805.816	1139.4
2809.264	1166.4
2812.709	1141.4
2816.151	1154.4
2819.59	1161.4
2823.026	1122.4
2826.46	1155.4
2829.89	1164.4
2833.318	1135.4
2836.742	1147.4
2840.164	1156.4
2843.583	1170.4
2846.999	1171.4
2850.412	1175.4
2853.822	1186.4
2857.229	1204.4
2860.634	1223.4
2864.035	1236.4
2867.434	1261.4
2870.83	1287.4
2874.223	1309.4
2877.613	1333.4
2881	1330.4
2884.385	1341.4
2887.766	1349.4
2891.145	1341.4
2894.521	1333.4
2897.894	1333.4
2901.264	1344.4
2904.631	1340.4
2907.996	1330.4
2911.358	1343.4
2914.717	1373.4
2918.073	1358.4
2921.426	1384.4
2924.777	1391.4
2928.124	1413.4
2931.469	1451.4
2934.811	1440.4
2938.15	1482.4
2941.487	1491.4
2944.821	1507.4
2948.152	1492.4
2951.48	1497.4
2954.805	1479.4
2958.128	1464.4
2961.447	1453.4
2964.765	1444.4
2968.079	1453.4
2971.39	1476.4
2974.699	1484.4
2978.005	1513.4
2981.308	1549.4
2984.609	1558.4
2987.907	1601.4
2991.202	1604.4
2994.494	1644.4
2997.784	1670.4
3001.07	1706.4
3004.355	1723.4
3007.636	1756.4
3010.915	1793.4
3014.191	1785.4
3017.464	1799.4
3020.734	1825.4
3024.002	1832.4
3027.267	1818.4
3030.53	1854.4
3033.789	1858.4
3037.046	1896.4
3040.301	1889.4
3043.552	1935.4
3046.801	1986.4
3050.048	2033.4
3053.291	2090.4
3056.532	2139.4
3059.771	2205.4
3063.006	2249.4
3066.239	2341.4
3069.469	2412.4
3072.697	2472.4
3075.922	2512.4
3079.144	2591.4
3082.364	2638.4
3085.581	2664.4
3088.795	2744.4
3092.007	2788.4
3095.216	2873.4
3098.423	2904.4
3101.627	2987.4
3104.828	3047.4
3108.026	3121.4
3111.222	3184.4
3114.416	3283.4
3117.607	3339.4
3120.795	3414.4
3123.98	3476.4
3127.163	3548.4
3130.344	3655.4
3133.521	3750.4
3136.696	3830.4
3139.869	3904.4
3143.039	3966.4
3146.206	4036.4
3149.371	4085.4
3152.533	4101.4
3155.693	4146.4
3158.85	4147.4
3162.005	4163.4
3165.157	4194.4
3168.306	4191.4
3171.453	4195.4
3174.597	4238.4
3177.739	4213.4
3180.878	4249.4
3184.014	4254.4
3187.149	4225.4
3190.28	4241.4
3193.409	4245.4
3196.536	4253.4
3199.659	4291.4
3202.781	4257.4
3205.9	4245.4
3209.016	4261.4
3212.13	4213.4
3215.241	4226.4
3218.35	4159.4
3221.456	4131.4
3224.56	4103.4
3227.661	4046.4
3230.76	3983.4
3233.856	3978.4
3236.95	3955.4
3240.041	3921.4
3243.13	3847.4
3246.216	3860.4
3249.3	3822.4
3252.382	3788.4
3255.46	3804.4
3258.537	3784.4
3261.611	3786.4
3264.682	3781.4
3267.751	3782.4
3270.818	3776.4
3273.882	3790.4
3276.943	3744.4
3280.002	3720.4
3283.059	3667.4
3286.113	3648.4
3289.165	3595.4
3292.214	3533.4
3295.261	3472.4
3298.306	3424.4
3301.348	3358.4
3304.387	3283.4
3307.425	3260.4
3310.459	3171.4
3313.492	3155.4
3316.521	3096.4
3319.549	3075.4
3322.574	3079.4
3325.597	3040.4
3328.617	3006.4
3331.635	2976.4
3334.65	2974.4
3337.663	2938.4
3340.674	2917.4
3343.682	2902.4
3346.688	2903.4
3349.691	2877.4
3352.692	2860.4
3355.691	2842.4
3358.687	2819.4
3361.681	2792.4
3364.673	2736.4
3367.662	2714.4
3370.649	2672.4
3373.633	2653.4
3376.615	2604.4
3379.595	2546.4
3382.572	2519.4
3385.547	2491.4
3388.52	2453.4
3391.49	2424.4
3394.458	2360.4
3397.424	2361.4
3400.387	2296.4
3403.348	2301.4
3406.307	2271.4
3409.263	2224.4
3412.217	2210.4
3415.168	2178.4
3418.118	2157.4
3421.065	2118.4
3424.009	2079.4
3426.951	2062.4
3429.891	2015.4
3432.829	1979.4
3435.764	1939.4
3438.697	1907.4
3441.628	1830.4
3444.557	1786.4
3447.483	1721.4
3450.407	1676.4
3453.328	1615.4
3456.247	1559.4
3459.164	1500.4
3462.079	1468.4
3464.991	1417.4
3467.902	1369.4
3470.809	1281.4
3473.715	1259.4
3476.618	1208.4
3479.519	1170.4
3482.418	1132.4
3485.315	1088.4
3488.209	1046.4
3491.101	1000.4
3493.99	979.4
3496.878	945.4
3499.763	888.4
3502.646	865.4
3505.527	816.4
3508.405	785.4
3511.281	736.4
3514.155	702.4
3517.027	663.4
3519.897	616.4
3522.764	569.4
3525.629	537.4
3528.492	480.4
3531.352	460.4
3534.211	409.4
3537.067	362.4
3539.921	334.4
3542.773	286.4
3545.622	256.4
3548.469	209.4
3551.315	200.4
3554.157	159.4
3556.998	135.4
3559.837	116.4
3562.673	98.4
3565.507	66.4
3568.339	33.4
3571.169	30.4
3573.996	2.4
3576.822	-14.6
3579.645	-36.6
3582.466	-64.6
3585.285	-84.6
3588.101	-106.6
3590.916	-138.6
3593.728	-163.6
3596.538	-171.6
3599.346	-187.6
3602.152	-217.6
3604.956	-219.6
3607.757	-231.6
3610.556	-250.6
3613.354	-265.6
3616.149	-277.6
3618.942	-289.6
3621.732	-306.6
3624.521	-316.6
3627.307	-323.6
3630.092	-334.6
3632.874	-355.6
3635.654	-374.6
3638.432	-364.6
3641.208	-383.6
3643.982	-394.6
3646.753	-396.6
3649.523	-420.6
3652.29	-420.6
3655.055	-423.6
3657.818	-445.6
3660.579	-447.6
3663.338	-468.6
3666.095	-473.6
3668.849	-475.6
3671.602	-487.6
3674.352	-499.6
3677.101	-497.6
3679.847	-519.6
3682.591	-518.6
3685.333	-522.6
3688.073	-524.6
3690.811	-543.6
3693.547	-539.6
3696.281	-549.6
3699.013	-548.6
3701.742	-564.6
3704.47	-561.6
3707.195	-571.6
3709.919	-569.6
3712.64	-572.6
3715.359	-576.6
3718.076	-583.6
3720.792	-580.6
3723.505	-577.6
3726.216	-581.6
3728.925	-587.6
3731.632	-598.6
3734.336	-599.6
3737.039	-601.6
3739.74	-605.6
3742.439	-608.6
3745.136	-605.6
3747.83	-614.6
3750.523	-614.6
3753.213	-608.6
3755.902	-619.6
3758.589	-622.6
3761.273	-625.6
3763.956	-627.6
3766.636	-628.6
3769.315	-629.6
3771.991	-634.6
3774.665	-634.6
3777.338	-629.6
3780.008	-630.6
3782.677	-637.6
3785.343	-635.6
3788.007	-632.6
3790.67	-640.6
3793.33	-645.6
3795.989	-644.6
3798.645	-645.6
3801.299	-646.6
3803.952	-653.6
3806.602	-657.6
3809.251	-656.6
3811.897	-651.6
3814.542	-655.6
3817.184	-647.6
3819.825	-642.6
3822.463	-644.6
3825.1	-653.6
3827.735	-649.6
3830.367	-651.6
3832.998	-654.6
3835.627	-655.6
3838.253	-660.6
3840.878	-661.6
3843.501	-659.6
3846.122	-655.6
3848.741	-659.6
3851.358	-660.6
3853.973	-663.6
3856.586	-663.6
3859.197	-666.6
3861.806	-666.6
3864.414	-665.6
3867.019	-662.6
3869.622	-663.6
3872.224	-661.6
3874.823	-642.6
3877.421	-634.6
3880.016	-612.6
3882.61	-600.6
3885.202	-593.6
3887.792	-607.6
3890.38	-639.6
3892.966	-653.6
3895.55	-660.6
3898.132	-678.6
3900.713	-677.6
3903.291	-673.6
3905.868	-678.6
3908.442	-679.6
3911.015	-674.6
3913.586	-671.6
3916.155	-675.6
3918.722	-678.6
3921.287	-677.6
3923.85	-676.6
3926.411	-678.6
3928.971	-684.6
3931.528	-677.6
3934.084	-681.6
3936.638	-676.6
3939.19	-681.6
3941.74	-674.6
3944.288	-681.6
3946.834	-676.6
3949.378	-684.6
3951.921	-678.6
3954.462	-686.6
3957	-680.6
3959.537	-681.6
3962.072	-680.6
3964.606	-679.6
3967.137	-682.6
3969.667	-679.6
3972.194	-673.6
3974.72	-675.6
3977.244	-663.6
3979.766	-671.6
3982.286	-668.6
3984.805	-674.6
3987.321	-664.6
3989.836	-668.6
3992.349	-662.6
3994.86	-660.6
3997.369	-666.6
3999.877	-660.6
4002.382	-663.6
4004.886	-664.6
4007.388	-663.6
4009.888	-664.6
4012.386	-671.6
4014.883	-665.6
4017.377	-662.6
4019.87	-663.6
4022.361	-663.6
4024.85	-661.6
4027.338	-665.6
4029.823	-667.6
4032.307	-665.6
4034.789	-661.6
4037.269	-664.6
4039.747	-669.6
4042.224	-665.6
4044.699	-671.6
4047.172	-666.6
4049.643	-665.6
4052.112	-672.6
4054.58	-673.6
4057.046	-672.6
4059.51	-667.6
4061.972	-676.6
4064.432	-677.6
4066.891	-671.6
4069.348	-666.6
4071.803	-660.6
4074.256	-665.6
4076.708	-662.6
4079.158	-669.6
4081.606	-667.6
4084.052	-675.6
4086.497	-669.6
4088.939	-657.6
4091.38	-664.6
4093.819	-658.6
4096.257	-701.6
4098.693	-704.6
4101.127	-708.6
4103.559	-703.6
4105.989	-408.6
4108.418	-380.6
4110.845	-355.6
4113.27	-320.6
4115.694	-280.6
4118.115	-243.6
4120.535	-663.6
4122.954	-666.6
4125.37	-662.6
4127.785	-668.6
4130.198	-672.6
4132.609	-670.6
4135.019	-705.6
4137.427	-710.6
4139.833	-708.6
4142.237	-704.6
