Data from 2018-2-14_conc=5_n=5_RamanShift_01.txt Node
Date: Wed Feb 14 14:17:55 IST 2018
User: aro
Spectrometer: QEPB0276
Trigger mode: 0
Integration Time (sec): 3.000000E1
Scans to average: 1
Electric dark correction enabled: true
Nonlinearity correction enabled: false
Boxcar width: 0
XAxis mode: Raman Shifts
Number of Pixels in Spectrum: 1044
>>>>>Begin Spectral Data<<<<<
160.701	-124.8
166.742	44.2
172.777	524.2
178.805	1993.2
184.826	5565.2
190.841	11595.2
196.849	18699.2
202.85	23692.2
208.845	25408.2
214.833	25119.2
220.815	24608.2
226.789	24500.2
232.758	24374.2
238.719	24201.2
244.674	23874.2
250.623	23367.2
256.565	22942.2
262.5	22540.2
268.429	22100.2
274.351	21797.2
280.267	21481.2
286.176	21177.2
292.079	21034.2
297.975	20886.2
303.865	20702.2
309.748	20542.2
315.625	20401.2
321.495	20258.2
327.359	20174.2
333.217	20151.2
339.068	20123.2
344.912	20131.2
350.751	20130.2
356.583	20073.2
362.408	20152.2
368.227	20073.2
374.04	20098.2
379.847	20173.2
385.647	20218.2
391.44	20371.2
397.228	20424.2
403.009	20512.2
408.784	20568.2
414.553	20606.2
420.315	20628.2
426.071	20687.2
431.821	20605.2
437.565	20627.2
443.302	20620.2
449.033	20552.2
454.758	20541.2
460.477	20511.2
466.189	20433.2
471.896	20322.2
477.596	20338.2
483.29	20272.2
488.978	20197.2
494.66	20146.2
500.335	20074.2
506.005	19814.2
511.668	19494.2
517.325	19255.2
522.977	19064.2
528.622	18903.2
534.261	18725.2
539.894	18651.2
545.521	18607.2
551.141	18447.2
556.756	18423.2
562.365	18348.2
567.968	18288.2
573.565	18184.2
579.155	18144.2
584.74	18112.2
590.319	17995.2
595.892	17904.2
601.459	17869.2
607.02	17786.2
612.575	17629.2
618.124	17540.2
623.667	17430.2
629.204	17314.2
634.735	17227.2
640.261	17193.2
645.781	17163.2
651.294	17064.2
656.802	17083.2
662.304	17055.2
667.8	16995.2
673.29	16971.2
678.775	16871.2
684.254	16906.2
689.726	16819.2
695.193	16749.2
700.655	16737.2
706.11	16579.2
711.56	16556.2
717.004	16422.2
722.442	16356.2
727.874	16254.2
733.301	16222.2
738.722	16200.2
744.137	16147.2
749.547	16200.2
754.951	16197.2
760.349	16187.2
765.741	16198.2
771.128	16225.2
776.509	16275.2
781.885	16199.2
787.254	16133.2
792.618	16154.2
797.977	16036.2
803.33	15997.2
808.677	15835.2
814.019	15742.2
819.355	15681.2
824.686	15616.2
830.011	15556.2
835.33	15571.2
840.644	15580.2
845.952	15563.2
851.255	15572.2
856.552	15552.2
861.844	15564.2
867.13	15518.2
872.41	15470.2
877.686	15376.2
882.955	15226.2
888.219	15164.2
893.478	14965.2
898.731	14784.2
903.979	14638.2
909.221	14507.2
914.458	14489.2
919.69	14504.2
924.916	14514.2
930.136	14575.2
935.351	14612.2
940.561	14614.2
945.766	14539.2
950.965	14446.2
956.158	14352.2
961.347	14205.2
966.529	14011.2
971.707	13878.2
976.879	13676.2
982.046	13595.2
987.208	13578.2
992.364	13551.2
997.515	13604.2
1002.66	13792.2
1007.801	13981.2
1012.936	14023.2
1018.066	13981.2
1023.19	14013.2
1028.309	14037.2
1033.423	13999.2
1038.532	13915.2
1043.636	13762.2
1048.734	13657.2
1053.827	13477.2
1058.915	13356.2
1063.998	13231.2
1069.075	13182.2
1074.147	13227.2
1079.214	13228.2
1084.276	13353.2
1089.333	13380.2
1094.385	13462.2
1099.431	13486.2
1104.472	13514.2
1109.509	13424.2
1114.54	13262.2
1119.565	13113.2
1124.586	12915.2
1129.602	12814.2
1134.613	12717.2
1139.618	12669.2
1144.619	12647.2
1149.614	12595.2
1154.604	12649.2
1159.589	12668.2
1164.57	12685.2
1169.545	12661.2
1174.515	12706.2
1179.48	12626.2
1184.44	12504.2
1189.395	12490.2
1194.345	12448.2
1199.29	12331.2
1204.23	12290.2
1209.165	12383.2
1214.095	12440.2
1219.021	12455.2
1223.941	12603.2
1228.856	12668.2
1233.766	12716.2
1238.672	12682.2
1243.572	12728.2
1248.467	12600.2
1253.358	12471.2
1258.244	12291.2
1263.124	12030.2
1268	11866.2
1272.871	11724.2
1277.737	11682.2
1282.599	11578.2
1287.455	11602.2
1292.306	11638.2
1297.153	11686.2
1301.995	11721.2
1306.832	11753.2
1311.664	11792.2
1316.491	11731.2
1321.314	11643.2
1326.132	11421.2
1330.945	11224.2
1335.753	10886.2
1340.556	10683.2
1345.354	10437.2
1350.148	10268.2
1354.937	10175.2
1359.722	10101.2
1364.501	10157.2
1369.276	10245.2
1374.046	10309.2
1378.811	10511.2
1383.572	10592.2
1388.327	10645.2
1393.079	10605.2
1397.825	10529.2
1402.567	10383.2
1407.304	10238.2
1412.036	10230.2
1416.764	10092.2
1421.487	10054.2
1426.205	9961.2
1430.919	9953.2
1435.628	9992.2
1440.333	9999.2
1445.032	9984.2
1449.727	10049.2
1454.418	10045.2
1459.104	9897.2
1463.785	9669.2
1468.462	9467.2
1473.134	9262.2
1477.802	9039.2
1482.465	8918.2
1487.123	8756.2
1491.777	8734.2
1496.426	8730.2
1501.071	8838.2
1505.711	8925.2
1510.347	9042.2
1514.978	9221.2
1519.604	9339.2
1524.226	9470.2
1528.844	9482.2
1533.457	9498.2
1538.065	9502.2
1542.669	9436.2
1547.269	9354.2
1551.864	9299.2
1556.454	9293.2
1561.041	9316.2
1565.622	9313.2
1570.199	9309.2
1574.772	9402.2
1579.34	9453.2
1583.904	9474.2
1588.464	9521.2
1593.019	9504.2
1597.569	9490.2
1602.115	9452.2
1606.657	9343.2
1611.195	9380.2
1615.728	9289.2
1620.256	9211.2
1624.78	9193.2
1629.3	9266.2
1633.816	9232.2
1638.327	9305.2
1642.834	9315.2
1647.336	9347.2
1651.834	9315.2
1656.328	9327.2
1660.817	9256.2
1665.302	9156.2
1669.783	8983.2
1674.259	8749.2
1678.732	8500.2
1683.199	8210.2
1687.663	7895.2
1692.122	7657.2
1696.577	7495.2
1701.028	7424.2
1705.474	7430.2
1709.917	7527.2
1714.355	7543.2
1718.788	7541.2
1723.218	7477.2
1727.643	7358.2
1732.064	7241.2
1736.481	7046.2
1740.893	6927.2
1745.301	6729.2
1749.705	6555.2
1754.105	6368.2
1758.501	6199.2
1762.893	5983.2
1767.28	5849.2
1771.663	5712.2
1776.042	5585.2
1780.417	5537.2
1784.787	5511.2
1789.154	5526.2
1793.516	5572.2
1797.874	5660.2
1802.228	5791.2
1806.578	5867.2
1810.924	5910.2
1815.266	5851.2
1819.603	5803.2
1823.937	5697.2
1828.266	5619.2
1832.591	5556.2
1836.913	5473.2
1841.23	5407.2
1845.543	5364.2
1849.852	5349.2
1854.156	5339.2
1858.457	5319.2
1862.754	5303.2
1867.047	5313.2
1871.335	5276.2
1875.62	5267.2
1879.9	5288.2
1884.177	5214.2
1888.449	5159.2
1892.718	5119.2
1896.982	5061.2
1901.243	4995.2
1905.499	4945.2
1909.752	4900.2
1914	4895.2
1918.245	4890.2
1922.485	4919.2
1926.722	4970.2
1930.954	5012.2
1935.183	5074.2
1939.408	5127.2
1943.628	5151.2
1947.845	5199.2
1952.058	5196.2
1956.267	5164.2
1960.472	5071.2
1964.673	5016.2
1968.87	4958.2
1973.063	4884.2
1977.252	4810.2
1981.438	4784.2
1985.619	4760.2
1989.797	4715.2
1993.971	4682.2
1998.14	4663.2
2002.306	4647.2
2006.469	4640.2
2010.627	4616.2
2014.781	4583.2
2018.932	4549.2
2023.078	4493.2
2027.221	4439.2
2031.36	4359.2
2035.495	4302.2
2039.627	4227.2
2043.754	4152.2
2047.878	4134.2
2051.998	4089.2
2056.114	4050.2
2060.226	4052.2
2064.334	4060.2
2068.439	4037.2
2072.54	4083.2
2076.637	4119.2
2080.73	4150.2
2084.82	4165.2
2088.906	4203.2
2092.988	4152.2
2097.066	4136.2
2101.14	4138.2
2105.211	4108.2
2109.278	4111.2
2113.342	4079.2
2117.401	4060.2
2121.457	4047.2
2125.509	4009.2
2129.558	4005.2
2133.602	3997.2
2137.643	3965.2
2141.681	3935.2
2145.714	3940.2
2149.744	3929.2
2153.77	3869.2
2157.793	3858.2
2161.812	3785.2
2165.827	3734.2
2169.838	3702.2
2173.846	3624.2
2177.851	3579.2
2181.851	3526.2
2185.848	3488.2
2189.841	3462.2
2193.831	3413.2
2197.817	3384.2
2201.799	3379.2
2205.778	3350.2
2209.753	3342.2
2213.725	3313.2
2217.693	3323.2
2221.657	3328.2
2225.618	3340.2
2229.575	3286.2
2233.529	3251.2
2237.479	3228.2
2241.425	3220.2
2245.368	3157.2
2249.307	3140.2
2253.243	3085.2
2257.175	3024.2
2261.104	2951.2
2265.029	2959.2
2268.95	2917.2
2272.868	2910.2
2276.783	2873.2
2280.694	2848.2
2284.601	2817.2
2288.505	2768.2
2292.405	2781.2
2296.302	2739.2
2300.195	2711.2
2304.085	2668.2
2307.971	2621.2
2311.854	2621.2
2315.734	2592.2
2319.609	2543.2
2323.482	2523.2
2327.351	2504.2
2331.216	2464.2
2335.078	2486.2
2338.937	2454.2
2342.792	2453.2
2346.643	2452.2
2350.492	2438.2
2354.336	2452.2
2358.178	2456.2
2362.015	2460.2
2365.85	2493.2
2369.681	2485.2
2373.508	2479.2
2377.333	2483.2
2381.153	2455.2
2384.971	2455.2
2388.785	2454.2
2392.595	2417.2
2396.402	2411.2
2400.206	2373.2
2404.007	2355.2
2407.804	2345.2
2411.597	2335.2
2415.388	2327.2
2419.174	2321.2
2422.958	2303.2
2426.738	2269.2
2430.515	2272.2
2434.289	2235.2
2438.059	2246.2
2441.825	2198.2
2445.589	2189.2
2449.349	2164.2
2453.106	2129.2
2456.859	2097.2
2460.61	2055.2
2464.356	2062.2
2468.1	2028.2
2471.84	2016.2
2475.577	1991.2
2479.311	1965.2
2483.041	1969.2
2486.768	1962.2
2490.492	1953.2
2494.213	1954.2
2497.93	1946.2
2501.644	1916.2
2505.355	1900.2
2509.062	1889.2
2512.766	1869.2
2516.467	1896.2
2520.165	1875.2
2523.859	1832.2
2527.551	1836.2
2531.239	1816.2
2534.923	1802.2
2538.605	1797.2
2542.283	1792.2
2545.958	1773.2
2549.63	1791.2
2553.299	1790.2
2556.964	1770.2
2560.626	1764.2
2564.285	1767.2
2567.941	1755.2
2571.594	1720.2
2575.243	1741.2
2578.89	1718.2
2582.533	1692.2
2586.173	1709.2
2589.809	1679.2
2593.443	1687.2
2597.073	1667.2
2600.701	1618.2
2604.325	1641.2
2607.946	1620.2
2611.564	1600.2
2615.178	1603.2
2618.79	1598.2
2622.398	1591.2
2626.004	1562.2
2629.606	1545.2
2633.205	1533.2
2636.801	1509.2
2640.394	1492.2
2643.983	1443.2
2647.57	1446.2
2651.153	1429.2
2654.734	1394.2
2658.311	1374.2
2661.885	1347.2
2665.456	1356.2
2669.025	1335.2
2672.589	1311.2
2676.151	1279.2
2679.71	1279.2
2683.266	1272.2
2686.819	1220.2
2690.368	1196.2
2693.915	1185.2
2697.458	1148.2
2700.999	1139.2
2704.536	1101.2
2708.071	1078.2
2711.602	1064.2
2715.13	1030.2
2718.656	1020.2
2722.178	986.2
2725.697	970.2
2729.214	964.2
2732.727	937.2
2736.237	935.2
2739.744	922.2
2743.249	937.2
2746.75	935.2
2750.248	922.2
2753.743	934.2
2757.236	959.2
2760.725	952.2
2764.211	975.2
2767.695	1001.2
2771.175	977.2
2774.652	979.2
2778.127	970.2
2781.598	960.2
2785.067	967.2
2788.532	960.2
2791.995	957.2
2795.455	948.2
2798.911	957.2
2802.365	952.2
2805.816	962.2
2809.264	950.2
2812.709	969.2
2816.151	942.2
2819.59	958.2
2823.026	976.2
2826.46	972.2
2829.89	969.2
2833.318	996.2
2836.742	969.2
2840.164	966.2
2843.583	1008.2
2846.999	1007.2
2850.412	999.2
2853.822	1016.2
2857.229	1032.2
2860.634	1052.2
2864.035	1063.2
2867.434	1088.2
2870.83	1117.2
2874.223	1112.2
2877.613	1136.2
2881	1149.2
2884.385	1152.2
2887.766	1184.2
2891.145	1123.2
2894.521	1151.2
2897.894	1158.2
2901.264	1148.2
2904.631	1145.2
2907.996	1132.2
2911.358	1148.2
2914.717	1178.2
2918.073	1158.2
2921.426	1211.2
2924.777	1191.2
2928.124	1221.2
2931.469	1247.2
2934.811	1243.2
2938.15	1269.2
2941.487	1279.2
2944.821	1283.2
2948.152	1286.2
2951.48	1258.2
2954.805	1248.2
2958.128	1227.2
2961.447	1239.2
2964.765	1227.2
2968.079	1220.2
2971.39	1247.2
2974.699	1260.2
2978.005	1247.2
2981.308	1307.2
2984.609	1304.2
2987.907	1329.2
2991.202	1332.2
2994.494	1387.2
2997.784	1418.2
3001.07	1440.2
3004.355	1464.2
3007.636	1493.2
3010.915	1500.2
3014.191	1514.2
3017.464	1551.2
3020.734	1525.2
3024.002	1547.2
3027.267	1584.2
3030.53	1556.2
3033.789	1591.2
3037.046	1611.2
3040.301	1645.2
3043.552	1647.2
3046.801	1687.2
3050.048	1733.2
3053.291	1762.2
3056.532	1822.2
3059.771	1868.2
3063.006	1922.2
3066.239	1991.2
3069.469	2046.2
3072.697	2079.2
3075.922	2157.2
3079.144	2220.2
3082.364	2243.2
3085.581	2297.2
3088.795	2349.2
3092.007	2401.2
3095.216	2436.2
3098.423	2499.2
3101.627	2550.2
3104.828	2606.2
3108.026	2656.2
3111.222	2724.2
3114.416	2765.2
3117.607	2829.2
3120.795	2895.2
3123.98	2972.2
3127.163	3064.2
3130.344	3126.2
3133.521	3185.2
3136.696	3276.2
3139.869	3318.2
3143.039	3378.2
3146.206	3448.2
3149.371	3488.2
3152.533	3511.2
3155.693	3534.2
3158.85	3540.2
3162.005	3575.2
3165.157	3571.2
3168.306	3585.2
3171.453	3587.2
3174.597	3599.2
3177.739	3608.2
3180.878	3617.2
3184.014	3625.2
3187.149	3601.2
3190.28	3615.2
3193.409	3608.2
3196.536	3625.2
3199.659	3622.2
3202.781	3640.2
3205.9	3621.2
3209.016	3648.2
3212.13	3624.2
3215.241	3585.2
3218.35	3568.2
3221.456	3514.2
3224.56	3482.2
3227.661	3447.2
3230.76	3399.2
3233.856	3333.2
3236.95	3314.2
3240.041	3298.2
3243.13	3270.2
3246.216	3267.2
3249.3	3241.2
3252.382	3215.2
3255.46	3210.2
3258.537	3189.2
3261.611	3176.2
3264.682	3178.2
3267.751	3175.2
3270.818	3181.2
3273.882	3183.2
3276.943	3162.2
3280.002	3126.2
3283.059	3122.2
3286.113	3116.2
3289.165	3027.2
3292.214	3006.2
3295.261	2955.2
3298.306	2898.2
3301.348	2849.2
3304.387	2809.2
3307.425	2781.2
3310.459	2730.2
3313.492	2685.2
3316.521	2648.2
3319.549	2636.2
3322.574	2596.2
3325.597	2587.2
3328.617	2565.2
3331.635	2536.2
3334.65	2519.2
3337.663	2524.2
3340.674	2501.2
3343.682	2483.2
3346.688	2498.2
3349.691	2467.2
3352.692	2459.2
3355.691	2425.2
3358.687	2423.2
3361.681	2417.2
3364.673	2359.2
3367.662	2341.2
3370.649	2304.2
3373.633	2279.2
3376.615	2239.2
3379.595	2179.2
3382.572	2158.2
3385.547	2120.2
3388.52	2098.2
3391.49	2068.2
3394.458	2064.2
3397.424	2008.2
3400.387	1975.2
3403.348	1959.2
3406.307	1946.2
3409.263	1914.2
3412.217	1897.2
3415.168	1870.2
3418.118	1850.2
3421.065	1827.2
3424.009	1779.2
3426.951	1760.2
3429.891	1731.2
3432.829	1680.2
3435.764	1649.2
3438.697	1612.2
3441.628	1555.2
3444.557	1528.2
3447.483	1475.2
3450.407	1434.2
3453.328	1385.2
3456.247	1333.2
3459.164	1277.2
3462.079	1241.2
3464.991	1215.2
3467.902	1159.2
3470.809	1115.2
3473.715	1055.2
3476.618	1018.2
3479.519	988.2
3482.418	959.2
3485.315	919.2
3488.209	887.2
3491.101	859.2
3493.99	824.2
3496.878	790.2
3499.763	761.2
3502.646	721.2
3505.527	694.2
3508.405	666.2
3511.281	614.2
3514.155	587.2
3517.027	555.2
3519.897	508.2
3522.764	479.2
3525.629	443.2
3528.492	413.2
3531.352	373.2
3534.211	342.2
3537.067	298.2
3539.921	283.2
3542.773	243.2
3545.622	226.2
3548.469	182.2
3551.315	156.2
3554.157	139.2
3556.998	106.2
3559.837	87.2
3562.673	70.2
3565.507	42.2
3568.339	15.2
3571.169	13.2
3573.996	-11.8
3576.822	-16.8
3579.645	-50.8
3582.466	-74.8
3585.285	-85.8
3588.101	-94.8
3590.916	-117.8
3593.728	-133.8
3596.538	-141.8
3599.346	-167.8
3602.152	-182.8
3604.956	-183.8
3607.757	-207.8
3610.556	-220.8
3613.354	-228.8
3616.149	-242.8
3618.942	-253.8
3621.732	-263.8
3624.521	-275.8
3627.307	-288.8
3630.092	-285.8
3632.874	-307.8
3635.654	-309.8
3638.432	-319.8
3641.208	-324.8
3643.982	-337.8
3646.753	-343.8
3649.523	-349.8
3652.29	-359.8
3655.055	-363.8
3657.818	-379.8
3660.579	-393.8
3663.338	-409.8
3666.095	-413.8
3668.849	-421.8
3671.602	-418.8
3674.352	-434.8
3677.101	-431.8
3679.847	-442.8
3682.591	-449.8
3685.333	-454.8
3688.073	-454.8
3690.811	-461.8
3693.547	-462.8
3696.281	-471.8
3699.013	-467.8
3701.742	-484.8
3704.47	-478.8
3707.195	-497.8
3709.919	-487.8
3712.64	-493.8
3715.359	-496.8
3718.076	-505.8
3720.792	-506.8
3723.505	-504.8
3726.216	-516.8
3728.925	-507.8
3731.632	-519.8
3734.336	-523.8
3737.039	-522.8
3739.74	-522.8
3742.439	-527.8
3745.136	-533.8
3747.83	-532.8
3750.523	-528.8
3753.213	-530.8
3755.902	-538.8
3758.589	-535.8
3761.273	-537.8
3763.956	-542.8
3766.636	-539.8
3769.315	-544.8
3771.991	-543.8
3774.665	-547.8
3777.338	-550.8
3780.008	-551.8
3782.677	-553.8
3785.343	-549.8
3788.007	-551.8
3790.67	-555.8
3793.33	-556.8
3795.989	-561.8
3798.645	-557.8
3801.299	-558.8
3803.952	-566.8
3806.602	-572.8
3809.251	-569.8
3811.897	-567.8
3814.542	-566.8
3817.184	-568.8
3819.825	-567.8
3822.463	-563.8
3825.1	-567.8
3827.735	-562.8
3830.367	-563.8
3832.998	-571.8
3835.627	-571.8
3838.253	-574.8
3840.878	-580.8
3843.501	-568.8
3846.122	-565.8
3848.741	-566.8
3851.358	-569.8
3853.973	-569.8
3856.586	-576.8
3859.197	-574.8
3861.806	-580.8
3864.414	-573.8
3867.019	-571.8
3869.622	-573.8
3872.224	-570.8
3874.823	-558.8
3877.421	-550.8
3880.016	-531.8
3882.61	-509.8
3885.202	-504.8
3887.792	-521.8
3890.38	-543.8
3892.966	-563.8
3895.55	-582.8
3898.132	-591.8
3900.713	-591.8
3903.291	-584.8
3905.868	-588.8
3908.442	-586.8
3911.015	-587.8
3913.586	-580.8
3916.155	-578.8
3918.722	-586.8
3921.287	-585.8
3923.85	-590.8
3926.411	-588.8
3928.971	-600.8
3931.528	-592.8
3934.084	-591.8
3936.638	-586.8
3939.19	-591.8
3941.74	-590.8
3944.288	-595.8
3946.834	-584.8
3949.378	-592.8
3951.921	-584.8
3954.462	-596.8
3957	-585.8
3959.537	-593.8
3962.072	-585.8
3964.606	-589.8
3967.137	-590.8
3969.667	-589.8
3972.194	-586.8
3974.72	-588.8
3977.244	-576.8
3979.766	-576.8
3982.286	-577.8
3984.805	-578.8
3987.321	-579.8
3989.836	-579.8
3992.349	-575.8
3994.86	-576.8
3997.369	-592.8
3999.877	-576.8
4002.382	-573.8
4004.886	-574.8
4007.388	-575.8
4009.888	-573.8
4012.386	-585.8
4014.883	-573.8
4017.377	-574.8
4019.87	-573.8
4022.361	-577.8
4024.85	-578.8
4027.338	-578.8
4029.823	-580.8
4032.307	-584.8
4034.789	-577.8
4037.269	-574.8
4039.747	-574.8
4042.224	-580.8
4044.699	-581.8
4047.172	-578.8
4049.643	-575.8
4052.112	-586.8
4054.58	-585.8
4057.046	-584.8
4059.51	-580.8
4061.972	-587.8
4064.432	-582.8
4066.891	-577.8
4069.348	-582.8
4071.803	-577.8
4074.256	-575.8
4076.708	-584.8
4079.158	-580.8
4081.606	-582.8
4084.052	-579.8
4086.497	-583.8
4088.939	-576.8
4091.38	-576.8
4093.819	-577.8
4096.257	-610.8
4098.693	-609.8
4101.127	-613.8
4103.559	-613.8
4105.989	-354.8
4108.418	-336.8
4110.845	-311.8
4113.27	-284.8
4115.694	-248.8
4118.115	-220.8
4120.535	-579.8
4122.954	-583.8
4125.37	-572.8
4127.785	-578.8
4130.198	-578.8
4132.609	-583.8
4135.019	-606.8
4137.427	-611.8
4139.833	-609.8
4142.237	-608.8
