Data from 2018-2-14_conc=2_n=7_RamanShift_04.txt Node
Date: Wed Feb 14 11:22:26 IST 2018
User: aro
Spectrometer: QEPB0276
Trigger mode: 0
Integration Time (sec): 3.000000E1
Scans to average: 1
Electric dark correction enabled: true
Nonlinearity correction enabled: false
Boxcar width: 0
XAxis mode: Raman Shifts
Number of Pixels in Spectrum: 1044
>>>>>Begin Spectral Data<<<<<
160.701	-132.8
166.742	56.2
172.777	570.2
178.805	2218.2
184.826	6168.2
190.841	12837.2
196.849	20640.2
202.85	26064.2
208.845	27850.2
214.833	27649.2
220.815	27135.2
226.789	26990.2
232.758	26987.2
238.719	26841.2
244.674	26478.2
250.623	26059.2
256.565	25552.2
262.5	25038.2
268.429	24631.2
274.351	24277.2
280.267	24030.2
286.176	23759.2
292.079	23604.2
297.975	23449.2
303.865	23211.2
309.748	23050.2
315.625	22954.2
321.495	22892.2
327.359	22742.2
333.217	22695.2
339.068	22691.2
344.912	22695.2
350.751	22669.2
356.583	22618.2
362.408	22585.2
368.227	22631.2
374.04	22663.2
379.847	22694.2
385.647	22825.2
391.44	22905.2
397.228	22940.2
403.009	23008.2
408.784	23115.2
414.553	23156.2
420.315	23232.2
426.071	23254.2
431.821	23231.2
437.565	23238.2
443.302	23202.2
449.033	23158.2
454.758	23123.2
460.477	23061.2
466.189	23013.2
471.896	22991.2
477.596	22896.2
483.29	22874.2
488.978	22778.2
494.66	22770.2
500.335	22647.2
506.005	22483.2
511.668	22160.2
517.325	21897.2
522.977	21729.2
528.622	21596.2
534.261	21419.2
539.894	21324.2
545.521	21278.2
551.141	21164.2
556.756	21112.2
562.365	21117.2
567.968	20982.2
573.565	20902.2
579.155	20874.2
584.74	20816.2
590.319	20711.2
595.892	20666.2
601.459	20505.2
607.02	20455.2
612.575	20357.2
618.124	20219.2
623.667	20106.2
629.204	20039.2
634.735	19959.2
640.261	19833.2
645.781	19781.2
651.294	19781.2
656.802	19701.2
662.304	19703.2
667.8	19664.2
673.29	19623.2
678.775	19642.2
684.254	19507.2
689.726	19442.2
695.193	19406.2
700.655	19289.2
706.11	19217.2
711.56	19162.2
717.004	19019.2
722.442	18949.2
727.874	18908.2
733.301	18813.2
738.722	18728.2
744.137	18705.2
749.547	18734.2
754.951	18709.2
760.349	18727.2
765.741	18706.2
771.128	18756.2
776.509	18756.2
781.885	18751.2
787.254	18678.2
792.618	18604.2
797.977	18539.2
803.33	18342.2
808.677	18310.2
814.019	18188.2
819.355	18102.2
824.686	18029.2
830.011	18004.2
835.33	17997.2
840.644	17966.2
845.952	17991.2
851.255	18131.2
856.552	18088.2
861.844	18045.2
867.13	18000.2
872.41	17992.2
877.686	17843.2
882.955	17696.2
888.219	17592.2
893.478	17414.2
898.731	17208.2
903.979	17105.2
909.221	16917.2
914.458	16798.2
919.69	16863.2
924.916	16881.2
930.136	16906.2
935.351	16949.2
940.561	16946.2
945.766	16955.2
950.965	16892.2
956.158	16746.2
961.347	16523.2
966.529	16365.2
971.707	16158.2
976.879	15975.2
982.046	15865.2
987.208	15807.2
992.364	15776.2
997.515	15862.2
1002.66	15969.2
1007.801	16184.2
1012.936	16295.2
1018.066	16311.2
1023.19	16328.2
1028.309	16368.2
1033.423	16273.2
1038.532	16168.2
1043.636	16053.2
1048.734	15863.2
1053.827	15637.2
1058.915	15486.2
1063.998	15395.2
1069.075	15339.2
1074.147	15294.2
1079.214	15419.2
1084.276	15483.2
1089.333	15628.2
1094.385	15640.2
1099.431	15725.2
1104.472	15754.2
1109.509	15600.2
1114.54	15473.2
1119.565	15257.2
1124.586	15027.2
1129.602	14949.2
1134.613	14849.2
1139.618	14704.2
1144.619	14674.2
1149.614	14687.2
1154.604	14704.2
1159.589	14792.2
1164.57	14782.2
1169.545	14804.2
1174.515	14807.2
1179.48	14791.2
1184.44	14643.2
1189.395	14538.2
1194.345	14458.2
1199.29	14345.2
1204.23	14388.2
1209.165	14396.2
1214.095	14486.2
1219.021	14553.2
1223.941	14570.2
1228.856	14719.2
1233.766	14722.2
1238.672	14771.2
1243.572	14749.2
1248.467	14641.2
1253.358	14511.2
1258.244	14293.2
1263.124	14012.2
1268	13849.2
1272.871	13734.2
1277.737	13586.2
1282.599	13535.2
1287.455	13549.2
1292.306	13526.2
1297.153	13578.2
1301.995	13678.2
1306.832	13654.2
1311.664	13714.2
1316.491	13669.2
1321.314	13561.2
1326.132	13346.2
1330.945	13054.2
1335.753	12719.2
1340.556	12363.2
1345.354	12046.2
1350.148	11909.2
1354.937	11827.2
1359.722	11833.2
1364.501	11939.2
1369.276	12137.2
1374.046	12327.2
1378.811	12525.2
1383.572	12671.2
1388.327	12739.2
1393.079	12686.2
1397.825	12524.2
1402.567	12286.2
1407.304	12049.2
1412.036	11962.2
1416.764	11876.2
1421.487	11739.2
1426.205	11738.2
1430.919	11664.2
1435.628	11700.2
1440.333	11674.2
1445.032	11703.2
1449.727	11728.2
1454.418	11688.2
1459.104	11590.2
1463.785	11349.2
1468.462	11104.2
1473.134	10894.2
1477.802	10690.2
1482.465	10468.2
1487.123	10369.2
1491.777	10389.2
1496.426	10411.2
1501.071	10583.2
1505.711	10786.2
1510.347	10999.2
1514.978	11204.2
1519.604	11344.2
1524.226	11520.2
1528.844	11513.2
1533.457	11496.2
1538.065	11412.2
1542.669	11316.2
1547.269	11219.2
1551.864	11167.2
1556.454	11083.2
1561.041	11061.2
1565.622	11032.2
1570.199	11062.2
1574.772	11062.2
1579.34	11118.2
1583.904	11198.2
1588.464	11212.2
1593.019	11204.2
1597.569	11154.2
1602.115	11073.2
1606.657	10991.2
1611.195	10942.2
1615.728	10832.2
1620.256	10756.2
1624.78	10754.2
1629.3	10767.2
1633.816	10771.2
1638.327	10879.2
1642.834	10883.2
1647.336	10920.2
1651.834	10945.2
1656.328	10982.2
1660.817	10866.2
1665.302	10811.2
1669.783	10602.2
1674.259	10350.2
1678.732	10066.2
1683.199	9758.2
1687.663	9389.2
1692.122	9145.2
1696.577	9031.2
1701.028	9065.2
1705.474	9210.2
1709.917	9386.2
1714.355	9424.2
1718.788	9344.2
1723.218	9201.2
1727.643	9018.2
1732.064	8816.2
1736.481	8662.2
1740.893	8443.2
1745.301	8196.2
1749.705	7991.2
1754.105	7780.2
1758.501	7532.2
1762.893	7322.2
1767.28	7111.2
1771.663	6968.2
1776.042	6851.2
1780.417	6789.2
1784.787	6796.2
1789.154	6895.2
1793.516	7036.2
1797.874	7235.2
1802.228	7376.2
1806.578	7462.2
1810.924	7467.2
1815.266	7343.2
1819.603	7300.2
1823.937	7134.2
1828.266	7006.2
1832.591	6906.2
1836.913	6816.2
1841.23	6734.2
1845.543	6690.2
1849.852	6615.2
1854.156	6580.2
1858.457	6598.2
1862.754	6560.2
1867.047	6549.2
1871.335	6567.2
1875.62	6532.2
1879.9	6521.2
1884.177	6444.2
1888.449	6430.2
1892.718	6362.2
1896.982	6273.2
1901.243	6199.2
1905.499	6145.2
1909.752	6150.2
1914	6128.2
1918.245	6190.2
1922.485	6271.2
1926.722	6325.2
1930.954	6373.2
1935.183	6494.2
1939.408	6579.2
1943.628	6639.2
1947.845	6648.2
1952.058	6605.2
1956.267	6548.2
1960.472	6479.2
1964.673	6362.2
1968.87	6229.2
1973.063	6146.2
1977.252	6042.2
1981.438	6004.2
1985.619	5903.2
1989.797	5864.2
1993.971	5831.2
1998.14	5819.2
2002.306	5781.2
2006.469	5733.2
2010.627	5725.2
2014.781	5713.2
2018.932	5636.2
2023.078	5574.2
2027.221	5485.2
2031.36	5383.2
2035.495	5294.2
2039.627	5234.2
2043.754	5161.2
2047.878	5159.2
2051.998	5105.2
2056.114	5087.2
2060.226	5061.2
2064.334	5076.2
2068.439	5094.2
2072.54	5147.2
2076.637	5184.2
2080.73	5216.2
2084.82	5210.2
2088.906	5245.2
2092.988	5277.2
2097.066	5213.2
2101.14	5215.2
2105.211	5181.2
2109.278	5173.2
2113.342	5140.2
2117.401	5117.2
2121.457	5049.2
2125.509	5053.2
2129.558	5012.2
2133.602	4980.2
2137.643	4959.2
2141.681	4934.2
2145.714	4889.2
2149.744	4872.2
2153.77	4837.2
2157.793	4751.2
2161.812	4718.2
2165.827	4658.2
2169.838	4575.2
2173.846	4513.2
2177.851	4426.2
2181.851	4352.2
2185.848	4324.2
2189.841	4254.2
2193.831	4204.2
2197.817	4169.2
2201.799	4149.2
2205.778	4128.2
2209.753	4122.2
2213.725	4077.2
2217.693	4078.2
2221.657	4052.2
2225.618	4082.2
2229.575	4033.2
2233.529	4006.2
2237.479	3962.2
2241.425	3940.2
2245.368	3859.2
2249.307	3800.2
2253.243	3782.2
2257.175	3730.2
2261.104	3645.2
2265.029	3632.2
2268.95	3583.2
2272.868	3572.2
2276.783	3545.2
2280.694	3485.2
2284.601	3440.2
2288.505	3440.2
2292.405	3349.2
2296.302	3349.2
2300.195	3303.2
2304.085	3287.2
2307.971	3243.2
2311.854	3193.2
2315.734	3115.2
2319.609	3098.2
2323.482	3039.2
2327.351	3033.2
2331.216	3008.2
2335.078	2989.2
2338.937	2976.2
2342.792	2964.2
2346.643	2935.2
2350.492	2919.2
2354.336	2935.2
2358.178	2948.2
2362.015	2979.2
2365.85	2951.2
2369.681	2959.2
2373.508	2964.2
2377.333	2955.2
2381.153	2928.2
2384.971	2902.2
2388.785	2924.2
2392.595	2876.2
2396.402	2856.2
2400.206	2819.2
2404.007	2799.2
2407.804	2787.2
2411.597	2775.2
2415.388	2760.2
2419.174	2729.2
2422.958	2725.2
2426.738	2673.2
2430.515	2683.2
2434.289	2658.2
2438.059	2619.2
2441.825	2587.2
2445.589	2587.2
2449.349	2560.2
2453.106	2547.2
2456.859	2491.2
2460.61	2483.2
2464.356	2463.2
2468.1	2430.2
2471.84	2380.2
2475.577	2359.2
2479.311	2346.2
2483.041	2330.2
2486.768	2326.2
2490.492	2323.2
2494.213	2294.2
2497.93	2316.2
2501.644	2289.2
2505.355	2264.2
2509.062	2268.2
2512.766	2260.2
2516.467	2272.2
2520.165	2228.2
2523.859	2212.2
2527.551	2207.2
2531.239	2207.2
2534.923	2164.2
2538.605	2149.2
2542.283	2168.2
2545.958	2163.2
2549.63	2156.2
2553.299	2167.2
2556.964	2155.2
2560.626	2149.2
2564.285	2152.2
2567.941	2133.2
2571.594	2116.2
2575.243	2110.2
2578.89	2083.2
2582.533	2074.2
2586.173	2050.2
2589.809	2032.2
2593.443	2028.2
2597.073	1989.2
2600.701	2006.2
2604.325	1964.2
2607.946	1958.2
2611.564	1948.2
2615.178	1921.2
2618.79	1905.2
2622.398	1924.2
2626.004	1894.2
2629.606	1848.2
2633.205	1826.2
2636.801	1800.2
2640.394	1794.2
2643.983	1764.2
2647.57	1715.2
2651.153	1710.2
2654.734	1676.2
2658.311	1650.2
2661.885	1616.2
2665.456	1608.2
2669.025	1577.2
2672.589	1596.2
2676.151	1568.2
2679.71	1530.2
2683.266	1528.2
2686.819	1486.2
2690.368	1447.2
2693.915	1417.2
2697.458	1390.2
2700.999	1356.2
2704.536	1321.2
2708.071	1298.2
2711.602	1258.2
2715.13	1236.2
2718.656	1206.2
2722.178	1189.2
2725.697	1177.2
2729.214	1153.2
2732.727	1142.2
2736.237	1138.2
2739.744	1127.2
2743.249	1146.2
2746.75	1148.2
2750.248	1173.2
2753.743	1189.2
2757.236	1197.2
2760.725	1232.2
2764.211	1232.2
2767.695	1223.2
2771.175	1217.2
2774.652	1231.2
2778.127	1205.2
2781.598	1180.2
2785.067	1200.2
2788.532	1172.2
2791.995	1182.2
2795.455	1160.2
2798.911	1183.2
2802.365	1182.2
2805.816	1175.2
2809.264	1160.2
2812.709	1170.2
2816.151	1157.2
2819.59	1174.2
2823.026	1163.2
2826.46	1175.2
2829.89	1158.2
2833.318	1176.2
2836.742	1153.2
2840.164	1162.2
2843.583	1188.2
2846.999	1215.2
2850.412	1193.2
2853.822	1223.2
2857.229	1199.2
2860.634	1252.2
2864.035	1259.2
2867.434	1285.2
2870.83	1274.2
2874.223	1309.2
2877.613	1320.2
2881	1348.2
2884.385	1344.2
2887.766	1332.2
2891.145	1337.2
2894.521	1320.2
2897.894	1325.2
2901.264	1318.2
2904.631	1314.2
2907.996	1321.2
2911.358	1325.2
2914.717	1332.2
2918.073	1348.2
2921.426	1353.2
2924.777	1362.2
2928.124	1376.2
2931.469	1398.2
2934.811	1427.2
2938.15	1430.2
2941.487	1450.2
2944.821	1449.2
2948.152	1440.2
2951.48	1436.2
2954.805	1404.2
2958.128	1404.2
2961.447	1392.2
2964.765	1376.2
2968.079	1386.2
2971.39	1395.2
2974.699	1424.2
2978.005	1428.2
2981.308	1459.2
2984.609	1507.2
2987.907	1519.2
2991.202	1549.2
2994.494	1595.2
2997.784	1617.2
3001.07	1626.2
3004.355	1670.2
3007.636	1674.2
3010.915	1695.2
3014.191	1725.2
3017.464	1730.2
3020.734	1740.2
3024.002	1740.2
3027.267	1732.2
3030.53	1761.2
3033.789	1777.2
3037.046	1792.2
3040.301	1808.2
3043.552	1810.2
3046.801	1853.2
3050.048	1916.2
3053.291	1963.2
3056.532	2001.2
3059.771	2045.2
3063.006	2106.2
3066.239	2218.2
3069.469	2243.2
3072.697	2293.2
3075.922	2341.2
3079.144	2416.2
3082.364	2450.2
3085.581	2508.2
3088.795	2555.2
3092.007	2618.2
3095.216	2653.2
3098.423	2687.2
3101.627	2790.2
3104.828	2851.2
3108.026	2898.2
3111.222	2976.2
3114.416	3049.2
3117.607	3115.2
3120.795	3184.2
3123.98	3245.2
3127.163	3312.2
3130.344	3418.2
3133.521	3478.2
3136.696	3560.2
3139.869	3599.2
3143.039	3679.2
3146.206	3715.2
3149.371	3773.2
3152.533	3801.2
3155.693	3868.2
3158.85	3844.2
3162.005	3865.2
3165.157	3891.2
3168.306	3864.2
3171.453	3919.2
3174.597	3883.2
3177.739	3900.2
3180.878	3912.2
3184.014	3916.2
3187.149	3908.2
3190.28	3929.2
3193.409	3930.2
3196.536	3926.2
3199.659	3949.2
3202.781	3948.2
3205.9	3914.2
3209.016	3938.2
3212.13	3940.2
3215.241	3888.2
3218.35	3874.2
3221.456	3817.2
3224.56	3780.2
3227.661	3727.2
3230.76	3714.2
3233.856	3657.2
3236.95	3622.2
3240.041	3589.2
3243.13	3596.2
3246.216	3565.2
3249.3	3548.2
3252.382	3561.2
3255.46	3513.2
3258.537	3528.2
3261.611	3499.2
3264.682	3512.2
3267.751	3503.2
3270.818	3492.2
3273.882	3492.2
3276.943	3477.2
3280.002	3435.2
3283.059	3397.2
3286.113	3392.2
3289.165	3325.2
3292.214	3287.2
3295.261	3237.2
3298.306	3174.2
3301.348	3068.2
3304.387	3053.2
3307.425	2998.2
3310.459	2958.2
3313.492	2929.2
3316.521	2895.2
3319.549	2838.2
3322.574	2823.2
3325.597	2794.2
3328.617	2769.2
3331.635	2736.2
3334.65	2715.2
3337.663	2706.2
3340.674	2715.2
3343.682	2679.2
3346.688	2670.2
3349.691	2661.2
3352.692	2644.2
3355.691	2623.2
3358.687	2632.2
3361.681	2553.2
3364.673	2532.2
3367.662	2503.2
3370.649	2484.2
3373.633	2403.2
3376.615	2403.2
3379.595	2338.2
3382.572	2334.2
3385.547	2269.2
3388.52	2277.2
3391.49	2220.2
3394.458	2182.2
3397.424	2176.2
3400.387	2136.2
3403.348	2081.2
3406.307	2079.2
3409.263	2045.2
3412.217	2020.2
3415.168	1999.2
3418.118	1970.2
3421.065	1948.2
3424.009	1923.2
3426.951	1882.2
3429.891	1867.2
3432.829	1841.2
3435.764	1800.2
3438.697	1734.2
3441.628	1685.2
3444.557	1626.2
3447.483	1590.2
3450.407	1543.2
3453.328	1512.2
3456.247	1433.2
3459.164	1381.2
3462.079	1340.2
3464.991	1299.2
3467.902	1230.2
3470.809	1203.2
3473.715	1146.2
3476.618	1094.2
3479.519	1070.2
3482.418	1045.2
3485.315	992.2
3488.209	947.2
3491.101	940.2
3493.99	893.2
3496.878	845.2
3499.763	839.2
3502.646	789.2
3505.527	749.2
3508.405	717.2
3511.281	670.2
3514.155	651.2
3517.027	599.2
3519.897	563.2
3522.764	516.2
3525.629	486.2
3528.492	434.2
3531.352	396.2
3534.211	366.2
3537.067	334.2
3539.921	296.2
3542.773	253.2
3545.622	224.2
3548.469	207.2
3551.315	185.2
3554.157	156.2
3556.998	114.2
3559.837	99.2
3562.673	78.2
3565.507	47.2
3568.339	26.2
3571.169	-11.8
3573.996	-11.8
3576.822	-39.8
3579.645	-58.8
3582.466	-71.8
3585.285	-85.8
3588.101	-114.8
3590.916	-132.8
3593.728	-160.8
3596.538	-163.8
3599.346	-193.8
3602.152	-200.8
3604.956	-219.8
3607.757	-245.8
3610.556	-247.8
3613.354	-259.8
3616.149	-280.8
3618.942	-293.8
3621.732	-299.8
3624.521	-311.8
3627.307	-316.8
3630.092	-329.8
3632.874	-345.8
3635.654	-352.8
3638.432	-359.8
3641.208	-363.8
3643.982	-381.8
3646.753	-383.8
3649.523	-402.8
3652.29	-400.8
3655.055	-412.8
3657.818	-428.8
3660.579	-439.8
3663.338	-452.8
3666.095	-452.8
3668.849	-461.8
3671.602	-478.8
3674.352	-475.8
3677.101	-475.8
3679.847	-490.8
3682.591	-495.8
3685.333	-501.8
3688.073	-512.8
3690.811	-512.8
3693.547	-520.8
3696.281	-525.8
3699.013	-528.8
3701.742	-535.8
3704.47	-534.8
3707.195	-543.8
3709.919	-545.8
3712.64	-552.8
3715.359	-550.8
3718.076	-560.8
3720.792	-554.8
3723.505	-558.8
3726.216	-571.8
3728.925	-563.8
3731.632	-572.8
3734.336	-572.8
3737.039	-578.8
3739.74	-583.8
3742.439	-581.8
3745.136	-586.8
3747.83	-586.8
3750.523	-589.8
3753.213	-572.8
3755.902	-592.8
3758.589	-591.8
3761.273	-602.8
3763.956	-601.8
3766.636	-599.8
3769.315	-600.8
3771.991	-602.8
3774.665	-608.8
3777.338	-599.8
3780.008	-605.8
3782.677	-615.8
3785.343	-603.8
3788.007	-609.8
3790.67	-610.8
3793.33	-616.8
3795.989	-611.8
3798.645	-616.8
3801.299	-619.8
3803.952	-623.8
3806.602	-630.8
3809.251	-626.8
3811.897	-618.8
3814.542	-626.8
3817.184	-620.8
3819.825	-622.8
3822.463	-625.8
3825.1	-625.8
3827.735	-620.8
3830.367	-616.8
3832.998	-629.8
3835.627	-632.8
3838.253	-634.8
3840.878	-640.8
3843.501	-636.8
3846.122	-632.8
3848.741	-633.8
3851.358	-633.8
3853.973	-632.8
3856.586	-635.8
3859.197	-638.8
3861.806	-639.8
3864.414	-632.8
3867.019	-631.8
3869.622	-635.8
3872.224	-625.8
3874.823	-612.8
3877.421	-598.8
3880.016	-582.8
3882.61	-567.8
3885.202	-562.8
3887.792	-575.8
3890.38	-604.8
3892.966	-630.8
3895.55	-640.8
3898.132	-647.8
3900.713	-650.8
3903.291	-648.8
3905.868	-651.8
3908.442	-651.8
3911.015	-649.8
3913.586	-645.8
3916.155	-642.8
3918.722	-648.8
3921.287	-650.8
3923.85	-651.8
3926.411	-655.8
3928.971	-657.8
3931.528	-652.8
3934.084	-653.8
3936.638	-656.8
3939.19	-649.8
3941.74	-648.8
3944.288	-655.8
3946.834	-646.8
3949.378	-648.8
3951.921	-653.8
3954.462	-654.8
3957	-647.8
3959.537	-653.8
3962.072	-648.8
3964.606	-655.8
3967.137	-653.8
3969.667	-657.8
3972.194	-643.8
3974.72	-649.8
3977.244	-645.8
3979.766	-641.8
3982.286	-645.8
3984.805	-637.8
3987.321	-639.8
3989.836	-640.8
3992.349	-630.8
3994.86	-635.8
3997.369	-644.8
3999.877	-639.8
4002.382	-634.8
4004.886	-634.8
4007.388	-638.8
4009.888	-632.8
4012.386	-642.8
4014.883	-639.8
4017.377	-636.8
4019.87	-636.8
4022.361	-637.8
4024.85	-638.8
4027.338	-642.8
4029.823	-642.8
4032.307	-643.8
4034.789	-640.8
4037.269	-632.8
4039.747	-640.8
4042.224	-637.8
4044.699	-640.8
4047.172	-633.8
4049.643	-642.8
4052.112	-641.8
4054.58	-649.8
4057.046	-647.8
4059.51	-649.8
4061.972	-644.8
4064.432	-646.8
4066.891	-642.8
4069.348	-642.8
4071.803	-634.8
4074.256	-639.8
4076.708	-636.8
4079.158	-634.8
4081.606	-642.8
4084.052	-647.8
4086.497	-642.8
4088.939	-635.8
4091.38	-640.8
4093.819	-637.8
4096.257	-678.8
4098.693	-675.8
4101.127	-680.8
4103.559	-676.8
4105.989	-386.8
4108.418	-364.8
4110.845	-341.8
4113.27	-314.8
4115.694	-284.8
4118.115	-228.8
4120.535	-637.8
4122.954	-640.8
4125.37	-636.8
4127.785	-638.8
4130.198	-646.8
4132.609	-641.8
4135.019	-677.8
4137.427	-677.8
4139.833	-681.8
4142.237	-674.8
