Data from 2018-2-14_conc=0_n=1_RamanShift_05.txt Node
Date: Wed Feb 14 10:27:56 IST 2018
User: aro
Spectrometer: QEPB0276
Trigger mode: 0
Integration Time (sec): 3.000000E1
Scans to average: 1
Electric dark correction enabled: true
Nonlinearity correction enabled: false
Boxcar width: 0
XAxis mode: Raman Shifts
Number of Pixels in Spectrum: 1044
>>>>>Begin Spectral Data<<<<<
160.701	-160.4
166.742	42.6
172.777	590.6
178.805	2337.6
184.826	6381.6
190.841	13315.6
196.849	21107.6
202.85	26576.6
208.845	28350.6
214.833	28002.6
220.815	27547.6
226.789	27306.6
232.758	27238.6
238.719	26969.6
244.674	26582.6
250.623	26176.6
256.565	25562.6
262.5	25043.6
268.429	24585.6
274.351	24248.6
280.267	23877.6
286.176	23665.6
292.079	23356.6
297.975	23144.6
303.865	22892.6
309.748	22765.6
315.625	22611.6
321.495	22543.6
327.359	22448.6
333.217	22344.6
339.068	22329.6
344.912	22300.6
350.751	22280.6
356.583	22238.6
362.408	22254.6
368.227	22197.6
374.04	22231.6
379.847	22390.6
385.647	22454.6
391.44	22458.6
397.228	22601.6
403.009	22636.6
408.784	22763.6
414.553	22813.6
420.315	22877.6
426.071	22776.6
431.821	22863.6
437.565	22832.6
443.302	22769.6
449.033	22802.6
454.758	22712.6
460.477	22679.6
466.189	22614.6
471.896	22540.6
477.596	22533.6
483.29	22508.6
488.978	22459.6
494.66	22363.6
500.335	22200.6
506.005	22036.6
511.668	21673.6
517.325	21481.6
522.977	21261.6
528.622	21139.6
534.261	20999.6
539.894	20822.6
545.521	20710.6
551.141	20703.6
556.756	20663.6
562.365	20554.6
567.968	20429.6
573.565	20390.6
579.155	20288.6
584.74	20242.6
590.319	20190.6
595.892	20082.6
601.459	19981.6
607.02	19867.6
612.575	19807.6
618.124	19667.6
623.667	19511.6
629.204	19473.6
634.735	19371.6
640.261	19259.6
645.781	19263.6
651.294	19159.6
656.802	19158.6
662.304	19162.6
667.8	19106.6
673.29	19078.6
678.775	19081.6
684.254	18978.6
689.726	18905.6
695.193	18866.6
700.655	18769.6
706.11	18677.6
711.56	18596.6
717.004	18439.6
722.442	18417.6
727.874	18443.6
733.301	18274.6
738.722	18248.6
744.137	18138.6
749.547	18217.6
754.951	18182.6
760.349	18159.6
765.741	18153.6
771.128	18129.6
776.509	18177.6
781.885	18261.6
787.254	18140.6
792.618	18109.6
797.977	17975.6
803.33	17847.6
808.677	17763.6
814.019	17663.6
819.355	17540.6
824.686	17505.6
830.011	17492.6
835.33	17460.6
840.644	17446.6
845.952	17492.6
851.255	17500.6
856.552	17557.6
861.844	17537.6
867.13	17457.6
872.41	17401.6
877.686	17325.6
882.955	17136.6
888.219	16971.6
893.478	16866.6
898.731	16692.6
903.979	16430.6
909.221	16302.6
914.458	16244.6
919.69	16267.6
924.916	16332.6
930.136	16340.6
935.351	16383.6
940.561	16413.6
945.766	16386.6
950.965	16281.6
956.158	16178.6
961.347	16035.6
966.529	15763.6
971.707	15634.6
976.879	15416.6
982.046	15275.6
987.208	15249.6
992.364	15235.6
997.515	15351.6
1002.66	15416.6
1007.801	15671.6
1012.936	15740.6
1018.066	15772.6
1023.19	15794.6
1028.309	15724.6
1033.423	15694.6
1038.532	15629.6
1043.636	15506.6
1048.734	15317.6
1053.827	15111.6
1058.915	14948.6
1063.998	14802.6
1069.075	14785.6
1074.147	14808.6
1079.214	14913.6
1084.276	14968.6
1089.333	15091.6
1094.385	15120.6
1099.431	15177.6
1104.472	15179.6
1109.509	15134.6
1114.54	14891.6
1119.565	14690.6
1124.586	14533.6
1129.602	14384.6
1134.613	14266.6
1139.618	14183.6
1144.619	14171.6
1149.614	14156.6
1154.604	14189.6
1159.589	14238.6
1164.57	14221.6
1169.545	14323.6
1174.515	14287.6
1179.48	14167.6
1184.44	14085.6
1189.395	13974.6
1194.345	13890.6
1199.29	13814.6
1204.23	13832.6
1209.165	13906.6
1214.095	13960.6
1219.021	14015.6
1223.941	14111.6
1228.856	14184.6
1233.766	14196.6
1238.672	14210.6
1243.572	14169.6
1248.467	14116.6
1253.358	13942.6
1258.244	13782.6
1263.124	13546.6
1268	13355.6
1272.871	13168.6
1277.737	13088.6
1282.599	13009.6
1287.455	13021.6
1292.306	13061.6
1297.153	13074.6
1301.995	13161.6
1306.832	13195.6
1311.664	13171.6
1316.491	13170.6
1321.314	13015.6
1326.132	12881.6
1330.945	12535.6
1335.753	12261.6
1340.556	11955.6
1345.354	11734.6
1350.148	11526.6
1354.937	11497.6
1359.722	11474.6
1364.501	11516.6
1369.276	11647.6
1374.046	11875.6
1378.811	12008.6
1383.572	12152.6
1388.327	12150.6
1393.079	12084.6
1397.825	11917.6
1402.567	11733.6
1407.304	11596.6
1412.036	11532.6
1416.764	11369.6
1421.487	11321.6
1426.205	11261.6
1430.919	11196.6
1435.628	11249.6
1440.333	11239.6
1445.032	11252.6
1449.727	11329.6
1454.418	11277.6
1459.104	11180.6
1463.785	10974.6
1468.462	10735.6
1473.134	10516.6
1477.802	10330.6
1482.465	10180.6
1487.123	10080.6
1491.777	10025.6
1496.426	10133.6
1501.071	10215.6
1505.711	10377.6
1510.347	10539.6
1514.978	10700.6
1519.604	10896.6
1524.226	10981.6
1528.844	11031.6
1533.457	10952.6
1538.065	10932.6
1542.669	10873.6
1547.269	10738.6
1551.864	10651.6
1556.454	10627.6
1561.041	10599.6
1565.622	10649.6
1570.199	10636.6
1574.772	10697.6
1579.34	10736.6
1583.904	10806.6
1588.464	10848.6
1593.019	10830.6
1597.569	10763.6
1602.115	10745.6
1606.657	10653.6
1611.195	10614.6
1615.728	10428.6
1620.256	10460.6
1624.78	10452.6
1629.3	10432.6
1633.816	10552.6
1638.327	10553.6
1642.834	10627.6
1647.336	10642.6
1651.834	10674.6
1656.328	10650.6
1660.817	10626.6
1665.302	10536.6
1669.783	10318.6
1674.259	10125.6
1678.732	9831.6
1683.199	9486.6
1687.663	9218.6
1692.122	8952.6
1696.577	8800.6
1701.028	8749.6
1705.474	8848.6
1709.917	8909.6
1714.355	8989.6
1718.788	8913.6
1723.218	8739.6
1727.643	8593.6
1732.064	8441.6
1736.481	8227.6
1740.893	8075.6
1745.301	7844.6
1749.705	7614.6
1754.105	7384.6
1758.501	7198.6
1762.893	6989.6
1767.28	6821.6
1771.663	6664.6
1776.042	6578.6
1780.417	6514.6
1784.787	6520.6
1789.154	6661.6
1793.516	6738.6
1797.874	6874.6
1802.228	6968.6
1806.578	7031.6
1810.924	7050.6
1815.266	6977.6
1819.603	6858.6
1823.937	6729.6
1828.266	6626.6
1832.591	6522.6
1836.913	6433.6
1841.23	6412.6
1845.543	6303.6
1849.852	6321.6
1854.156	6296.6
1858.457	6260.6
1862.754	6262.6
1867.047	6266.6
1871.335	6271.6
1875.62	6271.6
1879.9	6239.6
1884.177	6160.6
1888.449	6144.6
1892.718	6056.6
1896.982	6001.6
1901.243	5976.6
1905.499	5905.6
1909.752	5882.6
1914	5900.6
1918.245	5924.6
1922.485	5971.6
1926.722	6041.6
1930.954	6087.6
1935.183	6205.6
1939.408	6198.6
1943.628	6240.6
1947.845	6299.6
1952.058	6253.6
1956.267	6215.6
1960.472	6135.6
1964.673	6043.6
1968.87	5963.6
1973.063	5844.6
1977.252	5725.6
1981.438	5705.6
1985.619	5608.6
1989.797	5567.6
1993.971	5544.6
1998.14	5553.6
2002.306	5487.6
2006.469	5466.6
2010.627	5455.6
2014.781	5429.6
2018.932	5395.6
2023.078	5336.6
2027.221	5251.6
2031.36	5184.6
2035.495	5111.6
2039.627	5002.6
2043.754	4966.6
2047.878	4889.6
2051.998	4880.6
2056.114	4852.6
2060.226	4849.6
2064.334	4878.6
2068.439	4887.6
2072.54	4948.6
2076.637	4957.6
2080.73	4989.6
2084.82	4997.6
2088.906	5044.6
2092.988	5032.6
2097.066	5026.6
2101.14	5001.6
2105.211	4967.6
2109.278	4945.6
2113.342	4932.6
2117.401	4862.6
2121.457	4845.6
2125.509	4817.6
2129.558	4781.6
2133.602	4758.6
2137.643	4725.6
2141.681	4717.6
2145.714	4666.6
2149.744	4683.6
2153.77	4612.6
2157.793	4543.6
2161.812	4514.6
2165.827	4438.6
2169.838	4388.6
2173.846	4321.6
2177.851	4227.6
2181.851	4161.6
2185.848	4101.6
2189.841	4072.6
2193.831	4042.6
2197.817	3980.6
2201.799	3964.6
2205.778	3943.6
2209.753	3949.6
2213.725	3940.6
2217.693	3956.6
2221.657	4301.6
2225.618	4113.6
2229.575	3897.6
2233.529	3836.6
2237.479	3800.6
2241.425	3770.6
2245.368	3716.6
2249.307	3636.6
2253.243	3628.6
2257.175	3559.6
2261.104	3514.6
2265.029	3479.6
2268.95	3440.6
2272.868	3399.6
2276.783	3366.6
2280.694	3329.6
2284.601	3256.6
2288.505	3293.6
2292.405	3233.6
2296.302	3209.6
2300.195	3183.6
2304.085	3109.6
2307.971	3086.6
2311.854	3003.6
2315.734	2955.6
2319.609	2946.6
2323.482	2910.6
2327.351	2889.6
2331.216	2857.6
2335.078	2864.6
2338.937	2820.6
2342.792	2786.6
2346.643	2925.6
2350.492	2873.6
2354.336	2816.6
2358.178	2799.6
2362.015	2786.6
2365.85	2820.6
2369.681	2819.6
2373.508	2819.6
2377.333	2819.6
2381.153	2781.6
2384.971	2768.6
2388.785	2770.6
2392.595	2734.6
2396.402	2704.6
2400.206	2685.6
2404.007	2654.6
2407.804	2642.6
2411.597	2649.6
2415.388	2613.6
2419.174	2607.6
2422.958	2583.6
2426.738	2564.6
2430.515	2563.6
2434.289	2521.6
2438.059	2525.6
2441.825	2497.6
2445.589	2447.6
2449.349	2428.6
2453.106	2409.6
2456.859	2389.6
2460.61	2347.6
2464.356	2318.6
2468.1	2279.6
2471.84	2278.6
2475.577	2245.6
2479.311	2222.6
2483.041	2214.6
2486.768	2205.6
2490.492	2212.6
2494.213	2200.6
2497.93	2176.6
2501.644	2176.6
2505.355	2158.6
2509.062	2160.6
2512.766	2129.6
2516.467	2132.6
2520.165	2134.6
2523.859	2121.6
2527.551	2092.6
2531.239	2078.6
2534.923	2079.6
2538.605	2060.6
2542.283	2083.6
2545.958	2047.6
2549.63	2072.6
2553.299	2031.6
2556.964	2051.6
2560.626	2029.6
2564.285	2021.6
2567.941	2043.6
2571.594	2002.6
2575.243	1999.6
2578.89	1982.6
2582.533	1976.6
2586.173	1952.6
2589.809	1939.6
2593.443	1917.6
2597.073	1895.6
2600.701	1869.6
2604.325	1864.6
2607.946	1847.6
2611.564	1844.6
2615.178	1835.6
2618.79	1814.6
2622.398	1813.6
2626.004	1809.6
2629.606	1747.6
2633.205	1734.6
2636.801	1723.6
2640.394	1686.6
2643.983	1666.6
2647.57	1641.6
2651.153	1617.6
2654.734	1567.6
2658.311	1563.6
2661.885	1532.6
2665.456	1509.6
2669.025	1508.6
2672.589	1451.6
2676.151	1470.6
2679.71	1446.6
2683.266	1427.6
2686.819	1391.6
2690.368	1368.6
2693.915	1348.6
2697.458	1302.6
2700.999	1271.6
2704.536	1257.6
2708.071	1221.6
2711.602	1204.6
2715.13	1168.6
2718.656	1146.6
2722.178	1144.6
2725.697	1111.6
2729.214	1120.6
2732.727	1099.6
2736.237	1101.6
2739.744	1102.6
2743.249	1098.6
2746.75	1123.6
2750.248	1122.6
2753.743	1126.6
2757.236	1133.6
2760.725	1144.6
2764.211	1153.6
2767.695	1149.6
2771.175	1138.6
2774.652	1151.6
2778.127	1135.6
2781.598	1138.6
2785.067	1134.6
2788.532	1122.6
2791.995	1115.6
2795.455	1127.6
2798.911	1128.6
2802.365	1124.6
2805.816	1112.6
2809.264	1113.6
2812.709	1133.6
2816.151	1120.6
2819.59	1124.6
2823.026	1121.6
2826.46	1130.6
2829.89	1138.6
2833.318	1118.6
2836.742	1124.6
2840.164	1134.6
2843.583	1150.6
2846.999	1159.6
2850.412	1149.6
2853.822	1159.6
2857.229	1189.6
2860.634	1213.6
2864.035	1222.6
2867.434	1256.6
2870.83	1262.6
2874.223	1276.6
2877.613	1298.6
2881	1325.6
2884.385	1332.6
2887.766	1335.6
2891.145	1323.6
2894.521	1318.6
2897.894	1317.6
2901.264	1314.6
2904.631	1328.6
2907.996	1329.6
2911.358	1318.6
2914.717	1327.6
2918.073	1340.6
2921.426	1361.6
2924.777	1392.6
2928.124	1392.6
2931.469	1417.6
2934.811	1440.6
2938.15	1439.6
2941.487	1473.6
2944.821	1484.6
2948.152	1456.6
2951.48	1475.6
2954.805	1455.6
2958.128	1420.6
2961.447	1439.6
2964.765	1424.6
2968.079	1418.6
2971.39	1436.6
2974.699	1439.6
2978.005	1480.6
2981.308	1521.6
2984.609	1514.6
2987.907	1561.6
2991.202	1568.6
2994.494	1613.6
2997.784	1650.6
3001.07	1676.6
3004.355	1702.6
3007.636	1738.6
3010.915	1730.6
3014.191	1754.6
3017.464	1754.6
3020.734	1794.6
3024.002	1789.6
3027.267	1799.6
3030.53	1794.6
3033.789	1840.6
3037.046	1853.6
3040.301	1873.6
3043.552	1930.6
3046.801	1972.6
3050.048	1996.6
3053.291	2064.6
3056.532	2112.6
3059.771	2162.6
3063.006	2239.6
3066.239	2310.6
3069.469	2364.6
3072.697	2417.6
3075.922	2492.6
3079.144	2508.6
3082.364	2580.6
3085.581	2656.6
3088.795	2702.6
3092.007	2756.6
3095.216	2848.6
3098.423	2876.6
3101.627	2955.6
3104.828	3021.6
3108.026	3071.6
3111.222	3156.6
3114.416	3236.6
3117.607	3292.6
3120.795	3368.6
3123.98	3454.6
3127.163	3548.6
3130.344	3624.6
3133.521	3695.6
3136.696	3760.6
3139.869	3827.6
3143.039	3922.6
3146.206	3970.6
3149.371	4023.6
3152.533	4045.6
3155.693	4079.6
3158.85	4109.6
3162.005	4125.6
3165.157	4137.6
3168.306	4142.6
3171.453	4146.6
3174.597	4138.6
3177.739	4180.6
3180.878	4159.6
3184.014	4170.6
3187.149	4159.6
3190.28	4152.6
3193.409	4179.6
3196.536	4194.6
3199.659	4192.6
3202.781	4180.6
3205.9	4196.6
3209.016	4175.6
3212.13	4153.6
3215.241	4129.6
3218.35	4111.6
3221.456	4058.6
3224.56	4016.6
3227.661	3952.6
3230.76	3923.6
3233.856	3877.6
3236.95	3842.6
3240.041	3800.6
3243.13	3772.6
3246.216	3755.6
3249.3	3753.6
3252.382	3733.6
3255.46	3717.6
3258.537	3675.6
3261.611	3697.6
3264.682	3723.6
3267.751	3708.6
3270.818	3694.6
3273.882	3681.6
3276.943	3651.6
3280.002	3634.6
3283.059	3575.6
3286.113	3558.6
3289.165	3496.6
3292.214	3432.6
3295.261	3385.6
3298.306	3328.6
3301.348	3293.6
3304.387	3229.6
3307.425	3160.6
3310.459	3149.6
3313.492	3074.6
3316.521	3052.6
3319.549	3015.6
3322.574	3002.6
3325.597	2944.6
3328.617	2937.6
3331.635	2918.6
3334.65	2879.6
3337.663	2878.6
3340.674	2863.6
3343.682	2855.6
3346.688	2840.6
3349.691	2819.6
3352.692	2810.6
3355.691	2765.6
3358.687	2768.6
3361.681	2741.6
3364.673	2672.6
3367.662	2652.6
3370.649	2628.6
3373.633	2557.6
3376.615	2526.6
3379.595	2513.6
3382.572	2469.6
3385.547	2431.6
3388.52	2399.6
3391.49	2359.6
3394.458	2324.6
3397.424	2290.6
3400.387	2261.6
3403.348	2224.6
3406.307	2195.6
3409.263	2189.6
3412.217	2154.6
3415.168	2146.6
3418.118	2120.6
3421.065	2081.6
3424.009	2074.6
3426.951	2019.6
3429.891	1969.6
3432.829	1939.6
3435.764	1884.6
3438.697	1829.6
3441.628	1787.6
3444.557	1737.6
3447.483	1682.6
3450.407	1630.6
3453.328	1581.6
3456.247	1535.6
3459.164	1468.6
3462.079	1424.6
3464.991	1375.6
3467.902	1316.6
3470.809	1258.6
3473.715	1199.6
3476.618	1169.6
3479.519	1136.6
3482.418	1087.6
3485.315	1052.6
3488.209	1015.6
3491.101	974.6
3493.99	948.6
3496.878	907.6
3499.763	870.6
3502.646	846.6
3505.527	784.6
3508.405	752.6
3511.281	727.6
3514.155	667.6
3517.027	637.6
3519.897	599.6
3522.764	555.6
3525.629	514.6
3528.492	464.6
3531.352	429.6
3534.211	387.6
3537.067	355.6
3539.921	311.6
3542.773	269.6
3545.622	245.6
3548.469	221.6
3551.315	188.6
3554.157	167.6
3556.998	122.6
3559.837	104.6
3562.673	73.6
3565.507	44.6
3568.339	33.6
3571.169	6.6
3573.996	-13.4
3576.822	-23.4
3579.645	-49.4
3582.466	-77.4
3585.285	-84.4
3588.101	-122.4
3590.916	-127.4
3593.728	-162.4
3596.538	-168.4
3599.346	-194.4
3602.152	-207.4
3604.956	-224.4
3607.757	-239.4
3610.556	-262.4
3613.354	-279.4
3616.149	-287.4
3618.942	-293.4
3621.732	-319.4
3624.521	-331.4
3627.307	-330.4
3630.092	-336.4
3632.874	-356.4
3635.654	-368.4
3638.432	-361.4
3641.208	-382.4
3643.982	-395.4
3646.753	-402.4
3649.523	-407.4
3652.29	-426.4
3655.055	-429.4
3657.818	-442.4
3660.579	-449.4
3663.338	-463.4
3666.095	-466.4
3668.849	-474.4
3671.602	-480.4
3674.352	-498.4
3677.101	-502.4
3679.847	-511.4
3682.591	-521.4
3685.333	-528.4
3688.073	-525.4
3690.811	-542.4
3693.547	-545.4
3696.281	-545.4
3699.013	-547.4
3701.742	-554.4
3704.47	-553.4
3707.195	-565.4
3709.919	-567.4
3712.64	-569.4
3715.359	-573.4
3718.076	-579.4
3720.792	-579.4
3723.505	-583.4
3726.216	-598.4
3728.925	-593.4
3731.632	-598.4
3734.336	-593.4
3737.039	-600.4
3739.74	-597.4
3742.439	-605.4
3745.136	-604.4
3747.83	-611.4
3750.523	-609.4
3753.213	-613.4
3755.902	-614.4
3758.589	-625.4
3761.273	-622.4
3763.956	-626.4
3766.636	-624.4
3769.315	-629.4
3771.991	-625.4
3774.665	-628.4
3777.338	-631.4
3780.008	-632.4
3782.677	-638.4
3785.343	-633.4
3788.007	-637.4
3790.67	-637.4
3793.33	-640.4
3795.989	-640.4
3798.645	-635.4
3801.299	-638.4
3803.952	-648.4
3806.602	-651.4
3809.251	-652.4
3811.897	-651.4
3814.542	-645.4
3817.184	-646.4
3819.825	-649.4
3822.463	-643.4
3825.1	-654.4
3827.735	-650.4
3830.367	-651.4
3832.998	-650.4
3835.627	-656.4
3838.253	-657.4
3840.878	-664.4
3843.501	-659.4
3846.122	-653.4
3848.741	-650.4
3851.358	-660.4
3853.973	-657.4
3856.586	-661.4
3859.197	-667.4
3861.806	-668.4
3864.414	-660.4
3867.019	-659.4
3869.622	-657.4
3872.224	-658.4
3874.823	-643.4
3877.421	-622.4
3880.016	-618.4
3882.61	-600.4
3885.202	-591.4
3887.792	-609.4
3890.38	-632.4
3892.966	-654.4
3895.55	-663.4
3898.132	-672.4
3900.713	-676.4
3903.291	-672.4
3905.868	-674.4
3908.442	-675.4
3911.015	-671.4
3913.586	-669.4
3916.155	-670.4
3918.722	-680.4
3921.287	-671.4
3923.85	-681.4
3926.411	-679.4
3928.971	-686.4
3931.528	-677.4
3934.084	-676.4
3936.638	-672.4
3939.19	-676.4
3941.74	-679.4
3944.288	-679.4
3946.834	-674.4
3949.378	-675.4
3951.921	-676.4
3954.462	-689.4
3957	-676.4
3959.537	-679.4
3962.072	-676.4
3964.606	-677.4
3967.137	-675.4
3969.667	-678.4
3972.194	-672.4
3974.72	-675.4
3977.244	-664.4
3979.766	-668.4
3982.286	-665.4
3984.805	-661.4
3987.321	-665.4
3989.836	-665.4
3992.349	-660.4
3994.86	-666.4
3997.369	-665.4
3999.877	-664.4
4002.382	-662.4
4004.886	-661.4
4007.388	-663.4
4009.888	-663.4
4012.386	-662.4
4014.883	-666.4
4017.377	-663.4
4019.87	-662.4
4022.361	-660.4
4024.85	-667.4
4027.338	-667.4
4029.823	-670.4
4032.307	-664.4
4034.789	-664.4
4037.269	-659.4
4039.747	-668.4
4042.224	-665.4
4044.699	-664.4
4047.172	-662.4
4049.643	-664.4
4052.112	-677.4
4054.58	-667.4
4057.046	-674.4
4059.51	-675.4
4061.972	-670.4
4064.432	-667.4
4066.891	-664.4
4069.348	-666.4
4071.803	-662.4
4074.256	-662.4
4076.708	-664.4
4079.158	-665.4
4081.606	-660.4
4084.052	-673.4
4086.497	-675.4
4088.939	-664.4
4091.38	-670.4
4093.819	-665.4
4096.257	-701.4
4098.693	-698.4
4101.127	-700.4
4103.559	-700.4
4105.989	-408.4
4108.418	-381.4
4110.845	-363.4
4113.27	-333.4
4115.694	-297.4
4118.115	-252.4
4120.535	-664.4
4122.954	-664.4
4125.37	-659.4
4127.785	-666.4
4130.198	-669.4
4132.609	-668.4
4135.019	-700.4
4137.427	-701.4
4139.833	-706.4
4142.237	-702.4
