Data from 2018-2-14_conc=5_n=3_RamanShift_01.txt Node
Date: Wed Feb 14 14:10:55 IST 2018
User: aro
Spectrometer: QEPB0276
Trigger mode: 0
Integration Time (sec): 3.000000E1
Scans to average: 1
Electric dark correction enabled: true
Nonlinearity correction enabled: false
Boxcar width: 0
XAxis mode: Raman Shifts
Number of Pixels in Spectrum: 1044
>>>>>Begin Spectral Data<<<<<
160.701	-141.9
166.742	46.1
172.777	599.1
178.805	2251.1
184.826	6247.1
190.841	13139.1
196.849	21058.1
202.85	26638.1
208.845	28381.1
214.833	28104.1
220.815	27543.1
226.789	27334.1
232.758	27212.1
238.719	26951.1
244.674	26555.1
250.623	26045.1
256.565	25510.1
262.5	24892.1
268.429	24402.1
274.351	24070.1
280.267	23677.1
286.176	23422.1
292.079	23236.1
297.975	22938.1
303.865	22704.1
309.748	22508.1
315.625	22356.1
321.495	22350.1
327.359	22200.1
333.217	22144.1
339.068	22124.1
344.912	22110.1
350.751	22047.1
356.583	22027.1
362.408	22015.1
368.227	22019.1
374.04	22022.1
379.847	22080.1
385.647	22127.1
391.44	22275.1
397.228	22336.1
403.009	22465.1
408.784	22552.1
414.553	22617.1
420.315	22751.1
426.071	22650.1
431.821	22618.1
437.565	22656.1
443.302	22526.1
449.033	22580.1
454.758	22593.1
460.477	22475.1
466.189	22375.1
471.896	22325.1
477.596	22315.1
483.29	22217.1
488.978	22192.1
494.66	22130.1
500.335	21917.1
506.005	21754.1
511.668	21494.1
517.325	21224.1
522.977	20956.1
528.622	20796.1
534.261	20660.1
539.894	20532.1
545.521	20488.1
551.141	20401.1
556.756	20388.1
562.365	20245.1
567.968	20195.1
573.565	20090.1
579.155	20009.1
584.74	19889.1
590.319	19884.1
595.892	19723.1
601.459	19699.1
607.02	19535.1
612.575	19433.1
618.124	19319.1
623.667	19192.1
629.204	19042.1
634.735	19031.1
640.261	18942.1
645.781	18897.1
651.294	18881.1
656.802	18764.1
662.304	18772.1
667.8	18739.1
673.29	18662.1
678.775	18657.1
684.254	18572.1
689.726	18535.1
695.193	18522.1
700.655	18428.1
706.11	18274.1
711.56	18228.1
717.004	18129.1
722.442	18106.1
727.874	17993.1
733.301	17925.1
738.722	17808.1
744.137	17742.1
749.547	17797.1
754.951	17747.1
760.349	17801.1
765.741	17760.1
771.128	17807.1
776.509	17809.1
781.885	17841.1
787.254	17751.1
792.618	17649.1
797.977	17535.1
803.33	17452.1
808.677	17369.1
814.019	17291.1
819.355	17190.1
824.686	17066.1
830.011	17017.1
835.33	17059.1
840.644	17062.1
845.952	17024.1
851.255	17119.1
856.552	17068.1
861.844	17120.1
867.13	17069.1
872.41	16946.1
877.686	16850.1
882.955	16715.1
888.219	16611.1
893.478	16406.1
898.731	16203.1
903.979	15994.1
909.221	15890.1
914.458	15840.1
919.69	15815.1
924.916	15887.1
930.136	15904.1
935.351	15963.1
940.561	15931.1
945.766	15912.1
950.965	15857.1
956.158	15714.1
961.347	15540.1
966.529	15346.1
971.707	15214.1
976.879	14967.1
982.046	14867.1
987.208	14807.1
992.364	14793.1
997.515	14845.1
1002.66	15079.1
1007.801	15168.1
1012.936	15311.1
1018.066	15315.1
1023.19	15289.1
1028.309	15283.1
1033.423	15232.1
1038.532	15194.1
1043.636	15013.1
1048.734	14889.1
1053.827	14676.1
1058.915	14480.1
1063.998	14426.1
1069.075	14397.1
1074.147	14379.1
1079.214	14427.1
1084.276	14524.1
1089.333	14589.1
1094.385	14683.1
1099.431	14707.1
1104.472	14720.1
1109.509	14661.1
1114.54	14460.1
1119.565	14205.1
1124.586	14067.1
1129.602	13935.1
1134.613	13838.1
1139.618	13732.1
1144.619	13756.1
1149.614	13735.1
1154.604	13745.1
1159.589	13745.1
1164.57	13777.1
1169.545	13836.1
1174.515	13841.1
1179.48	13762.1
1184.44	13620.1
1189.395	13541.1
1194.345	13463.1
1199.29	13382.1
1204.23	13374.1
1209.165	13453.1
1214.095	13480.1
1219.021	13590.1
1223.941	13647.1
1228.856	13707.1
1233.766	13721.1
1238.672	13797.1
1243.572	13767.1
1248.467	13684.1
1253.358	13527.1
1258.244	13306.1
1263.124	13107.1
1268	12945.1
1272.871	12810.1
1277.737	12620.1
1282.599	12589.1
1287.455	12584.1
1292.306	12604.1
1297.153	12648.1
1301.995	12758.1
1306.832	12723.1
1311.664	12758.1
1316.491	12737.1
1321.314	12605.1
1326.132	12447.1
1330.945	12149.1
1335.753	11876.1
1340.556	11597.1
1345.354	11290.1
1350.148	11118.1
1354.937	11115.1
1359.722	11052.1
1364.501	11101.1
1369.276	11181.1
1374.046	11355.1
1378.811	11549.1
1383.572	11670.1
1388.327	11683.1
1393.079	11670.1
1397.825	11509.1
1402.567	11320.1
1407.304	11186.1
1412.036	11082.1
1416.764	11010.1
1421.487	10974.1
1426.205	10869.1
1430.919	10848.1
1435.628	10847.1
1440.333	10848.1
1445.032	10884.1
1449.727	10959.1
1454.418	10893.1
1459.104	10725.1
1463.785	10566.1
1468.462	10343.1
1473.134	10132.1
1477.802	9915.1
1482.465	9708.1
1487.123	9622.1
1491.777	9653.1
1496.426	9682.1
1501.071	9768.1
1505.711	9910.1
1510.347	10079.1
1514.978	10245.1
1519.604	10351.1
1524.226	10548.1
1528.844	10573.1
1533.457	10491.1
1538.065	10465.1
1542.669	10382.1
1547.269	10341.1
1551.864	10262.1
1556.454	10241.1
1561.041	10239.1
1565.622	10177.1
1570.199	10236.1
1574.772	10273.1
1579.34	10329.1
1583.904	10400.1
1588.464	10448.1
1593.019	10412.1
1597.569	10382.1
1602.115	10377.1
1606.657	10256.1
1611.195	10230.1
1615.728	10196.1
1620.256	10125.1
1624.78	10134.1
1629.3	10180.1
1633.816	10192.1
1638.327	10227.1
1642.834	10296.1
1647.336	10313.1
1651.834	10334.1
1656.328	10271.1
1660.817	10260.1
1665.302	10163.1
1669.783	9969.1
1674.259	9785.1
1678.732	9462.1
1683.199	9132.1
1687.663	8852.1
1692.122	8535.1
1696.577	8401.1
1701.028	8408.1
1705.474	8431.1
1709.917	8488.1
1714.355	8551.1
1718.788	8491.1
1723.218	8370.1
1727.643	8224.1
1732.064	8044.1
1736.481	7848.1
1740.893	7648.1
1745.301	7449.1
1749.705	7270.1
1754.105	7080.1
1758.501	6819.1
1762.893	6621.1
1767.28	6478.1
1771.663	6336.1
1776.042	6229.1
1780.417	6155.1
1784.787	6167.1
1789.154	6239.1
1793.516	6317.1
1797.874	6436.1
1802.228	6580.1
1806.578	6619.1
1810.924	6614.1
1815.266	6555.1
1819.603	6465.1
1823.937	6357.1
1828.266	6231.1
1832.591	6181.1
1836.913	6097.1
1841.23	6015.1
1845.543	5980.1
1849.852	5970.1
1854.156	5906.1
1858.457	5925.1
1862.754	5868.1
1867.047	5911.1
1871.335	5885.1
1875.62	5880.1
1879.9	5880.1
1884.177	5786.1
1888.449	5768.1
1892.718	5690.1
1896.982	5618.1
1901.243	5592.1
1905.499	5536.1
1909.752	5518.1
1914	5545.1
1918.245	5551.1
1922.485	5583.1
1926.722	5651.1
1930.954	5708.1
1935.183	5791.1
1939.408	5846.1
1943.628	5897.1
1947.845	5913.1
1952.058	5901.1
1956.267	5804.1
1960.472	5739.1
1964.673	5656.1
1968.87	5574.1
1973.063	5464.1
1977.252	5395.1
1981.438	5353.1
1985.619	5275.1
1989.797	5267.1
1993.971	5197.1
1998.14	5202.1
2002.306	5196.1
2006.469	5168.1
2010.627	5147.1
2014.781	5118.1
2018.932	5077.1
2023.078	4996.1
2027.221	4931.1
2031.36	4881.1
2035.495	4792.1
2039.627	4736.1
2043.754	4672.1
2047.878	4623.1
2051.998	4576.1
2056.114	4587.1
2060.226	4601.1
2064.334	4569.1
2068.439	4591.1
2072.54	4628.1
2076.637	4645.1
2080.73	4697.1
2084.82	4736.1
2088.906	4727.1
2092.988	4728.1
2097.066	4687.1
2101.14	4688.1
2105.211	4651.1
2109.278	4610.1
2113.342	4595.1
2117.401	4560.1
2121.457	4539.1
2125.509	4526.1
2129.558	4517.1
2133.602	4430.1
2137.643	4460.1
2141.681	4451.1
2145.714	4384.1
2149.744	4345.1
2153.77	4296.1
2157.793	4278.1
2161.812	4247.1
2165.827	4177.1
2169.838	4081.1
2173.846	4008.1
2177.851	3949.1
2181.851	3909.1
2185.848	3859.1
2189.841	3812.1
2193.831	3781.1
2197.817	3729.1
2201.799	3721.1
2205.778	3689.1
2209.753	3709.1
2213.725	3691.1
2217.693	3682.1
2221.657	3661.1
2225.618	3675.1
2229.575	3630.1
2233.529	3611.1
2237.479	3571.1
2241.425	3518.1
2245.368	3478.1
2249.307	3416.1
2253.243	3359.1
2257.175	3321.1
2261.104	3271.1
2265.029	3217.1
2268.95	3206.1
2272.868	3165.1
2276.783	3128.1
2280.694	3083.1
2284.601	3075.1
2288.505	3035.1
2292.405	3000.1
2296.302	2981.1
2300.195	2970.1
2304.085	2890.1
2307.971	2881.1
2311.854	2829.1
2315.734	2771.1
2319.609	2750.1
2323.482	2677.1
2327.351	2648.1
2331.216	2639.1
2335.078	2645.1
2338.937	2598.1
2342.792	2607.1
2346.643	2598.1
2350.492	2584.1
2354.336	2594.1
2358.178	2616.1
2362.015	2604.1
2365.85	2600.1
2369.681	2605.1
2373.508	2617.1
2377.333	2625.1
2381.153	2587.1
2384.971	2565.1
2388.785	2543.1
2392.595	2515.1
2396.402	2518.1
2400.206	2481.1
2404.007	2454.1
2407.804	2450.1
2411.597	2442.1
2415.388	2428.1
2419.174	2400.1
2422.958	2384.1
2426.738	2377.1
2430.515	2344.1
2434.289	2343.1
2438.059	2314.1
2441.825	2291.1
2445.589	2266.1
2449.349	2239.1
2453.106	2218.1
2456.859	2190.1
2460.61	2155.1
2464.356	2131.1
2468.1	2110.1
2471.84	2088.1
2475.577	2058.1
2479.311	2073.1
2483.041	2029.1
2486.768	2049.1
2490.492	2030.1
2494.213	2021.1
2497.93	2013.1
2501.644	1987.1
2505.355	1998.1
2509.062	1979.1
2512.766	1970.1
2516.467	1982.1
2520.165	1932.1
2523.859	1932.1
2527.551	1909.1
2531.239	1900.1
2534.923	1891.1
2538.605	1894.1
2542.283	1872.1
2545.958	1869.1
2549.63	1878.1
2553.299	1863.1
2556.964	1895.1
2560.626	1848.1
2564.285	1865.1
2567.941	1861.1
2571.594	1824.1
2575.243	1807.1
2578.89	1805.1
2582.533	1782.1
2586.173	1779.1
2589.809	1748.1
2593.443	1746.1
2597.073	1729.1
2600.701	1703.1
2604.325	1707.1
2607.946	1677.1
2611.564	1684.1
2615.178	1678.1
2618.79	1650.1
2622.398	1632.1
2626.004	1619.1
2629.606	1571.1
2633.205	1583.1
2636.801	1560.1
2640.394	1521.1
2643.983	1511.1
2647.57	1483.1
2651.153	1455.1
2654.734	1423.1
2658.311	1409.1
2661.885	1386.1
2665.456	1357.1
2669.025	1340.1
2672.589	1332.1
2676.151	1337.1
2679.71	1307.1
2683.266	1274.1
2686.819	1267.1
2690.368	1236.1
2693.915	1230.1
2697.458	1185.1
2700.999	1151.1
2704.536	1122.1
2708.071	1111.1
2711.602	1104.1
2715.13	1052.1
2718.656	1039.1
2722.178	1015.1
2725.697	1001.1
2729.214	998.1
2732.727	984.1
2736.237	988.1
2739.744	973.1
2743.249	971.1
2746.75	1010.1
2750.248	985.1
2753.743	1004.1
2757.236	1024.1
2760.725	1027.1
2764.211	1035.1
2767.695	1030.1
2771.175	1032.1
2774.652	1027.1
2778.127	1040.1
2781.598	1025.1
2785.067	1013.1
2788.532	1019.1
2791.995	1017.1
2795.455	1025.1
2798.911	1000.1
2802.365	1010.1
2805.816	1011.1
2809.264	1014.1
2812.709	1018.1
2816.151	1006.1
2819.59	1026.1
2823.026	1025.1
2826.46	1015.1
2829.89	1006.1
2833.318	1019.1
2836.742	1039.1
2840.164	1036.1
2843.583	1052.1
2846.999	1045.1
2850.412	1051.1
2853.822	1065.1
2857.229	1113.1
2860.634	1107.1
2864.035	1134.1
2867.434	1147.1
2870.83	1170.1
2874.223	1200.1
2877.613	1229.1
2881	1230.1
2884.385	1242.1
2887.766	1249.1
2891.145	1248.1
2894.521	1237.1
2897.894	1242.1
2901.264	1237.1
2904.631	1255.1
2907.996	1237.1
2911.358	1246.1
2914.717	1255.1
2918.073	1271.1
2921.426	1276.1
2924.777	1299.1
2928.124	1308.1
2931.469	1359.1
2934.811	1384.1
2938.15	1397.1
2941.487	1405.1
2944.821	1415.1
2948.152	1396.1
2951.48	1403.1
2954.805	1386.1
2958.128	1379.1
2961.447	1376.1
2964.765	1368.1
2968.079	1378.1
2971.39	1368.1
2974.699	1403.1
2978.005	1444.1
2981.308	1474.1
2984.609	1476.1
2987.907	1505.1
2991.202	1532.1
2994.494	1591.1
2997.784	1598.1
3001.07	1641.1
3004.355	1667.1
3007.636	1695.1
3010.915	1702.1
3014.191	1715.1
3017.464	1733.1
3020.734	1755.1
3024.002	1782.1
3027.267	1781.1
3030.53	1785.1
3033.789	1822.1
3037.046	1850.1
3040.301	1872.1
3043.552	1878.1
3046.801	1930.1
3050.048	1989.1
3053.291	2047.1
3056.532	2098.1
3059.771	2150.1
3063.006	2226.1
3066.239	2285.1
3069.469	2342.1
3072.697	2406.1
3075.922	2486.1
3079.144	2549.1
3082.364	2594.1
3085.581	2659.1
3088.795	2719.1
3092.007	2769.1
3095.216	2847.1
3098.423	2888.1
3101.627	2963.1
3104.828	3010.1
3108.026	3071.1
3111.222	3169.1
3114.416	3248.1
3117.607	3291.1
3120.795	3406.1
3123.98	3473.1
3127.163	3574.1
3130.344	3665.1
3133.521	3724.1
3136.696	3808.1
3139.869	3896.1
3143.039	3965.1
3146.206	4026.1
3149.371	4052.1
3152.533	4122.1
3155.693	4136.1
3158.85	4178.1
3162.005	4166.1
3165.157	4199.1
3168.306	4189.1
3171.453	4219.1
3174.597	4232.1
3177.739	4226.1
3180.878	4236.1
3184.014	4257.1
3187.149	4228.1
3190.28	4221.1
3193.409	4223.1
3196.536	4265.1
3199.659	4292.1
3202.781	4261.1
3205.9	4276.1
3209.016	4235.1
3212.13	4240.1
3215.241	4208.1
3218.35	4176.1
3221.456	4121.1
3224.56	4076.1
3227.661	4031.1
3230.76	3985.1
3233.856	3955.1
3236.95	3908.1
3240.041	3908.1
3243.13	3853.1
3246.216	3846.1
3249.3	3806.1
3252.382	3786.1
3255.46	3785.1
3258.537	3776.1
3261.611	3769.1
3264.682	3773.1
3267.751	3763.1
3270.818	3743.1
3273.882	3766.1
3276.943	3738.1
3280.002	3713.1
3283.059	3686.1
3286.113	3631.1
3289.165	3582.1
3292.214	3522.1
3295.261	3441.1
3298.306	3406.1
3301.348	3341.1
3304.387	3319.1
3307.425	3251.1
3310.459	3239.1
3313.492	3167.1
3316.521	3137.1
3319.549	3105.1
3322.574	3053.1
3325.597	3010.1
3328.617	3031.1
3331.635	2983.1
3334.65	2954.1
3337.663	2939.1
3340.674	2942.1
3343.682	2918.1
3346.688	2914.1
3349.691	2922.1
3352.692	2881.1
3355.691	2835.1
3358.687	2857.1
3361.681	2820.1
3364.673	2757.1
3367.662	2727.1
3370.649	2696.1
3373.633	2659.1
3376.615	2635.1
3379.595	2574.1
3382.572	2550.1
3385.547	2510.1
3388.52	2455.1
3391.49	2430.1
3394.458	2393.1
3397.424	2364.1
3400.387	2336.1
3403.348	2289.1
3406.307	2258.1
3409.263	2248.1
3412.217	2244.1
3415.168	2208.1
3418.118	2163.1
3421.065	2158.1
3424.009	2115.1
3426.951	2084.1
3429.891	2049.1
3432.829	1996.1
3435.764	1951.1
3438.697	1902.1
3441.628	1850.1
3444.557	1811.1
3447.483	1737.1
3450.407	1681.1
3453.328	1640.1
3456.247	1598.1
3459.164	1527.1
3462.079	1461.1
3464.991	1424.1
3467.902	1376.1
3470.809	1312.1
3473.715	1268.1
3476.618	1226.1
3479.519	1184.1
3482.418	1156.1
3485.315	1094.1
3488.209	1056.1
3491.101	1025.1
3493.99	1001.1
3496.878	954.1
3499.763	929.1
3502.646	884.1
3505.527	833.1
3508.405	806.1
3511.281	751.1
3514.155	713.1
3517.027	656.1
3519.897	636.1
3522.764	585.1
3525.629	557.1
3528.492	493.1
3531.352	456.1
3534.211	436.1
3537.067	384.1
3539.921	347.1
3542.773	311.1
3545.622	276.1
3548.469	240.1
3551.315	211.1
3554.157	196.1
3556.998	153.1
3559.837	130.1
3562.673	114.1
3565.507	73.1
3568.339	61.1
3571.169	45.1
3573.996	24.1
3576.822	3.1
3579.645	-26.9
3582.466	-49.9
3585.285	-75.9
3588.101	-99.9
3590.916	-111.9
3593.728	-142.9
3596.538	-141.9
3599.346	-164.9
3602.152	-192.9
3604.956	-197.9
3607.757	-224.9
3610.556	-240.9
3613.354	-249.9
3616.149	-263.9
3618.942	-273.9
3621.732	-294.9
3624.521	-300.9
3627.307	-311.9
3630.092	-317.9
3632.874	-335.9
3635.654	-349.9
3638.432	-352.9
3641.208	-357.9
3643.982	-370.9
3646.753	-383.9
3649.523	-397.9
3652.29	-406.9
3655.055	-407.9
3657.818	-418.9
3660.579	-436.9
3663.338	-448.9
3666.095	-454.9
3668.849	-464.9
3671.602	-473.9
3674.352	-478.9
3677.101	-485.9
3679.847	-499.9
3682.591	-502.9
3685.333	-508.9
3688.073	-509.9
3690.811	-519.9
3693.547	-516.9
3696.281	-525.9
3699.013	-532.9
3701.742	-537.9
3704.47	-539.9
3707.195	-554.9
3709.919	-551.9
3712.64	-560.9
3715.359	-557.9
3718.076	-562.9
3720.792	-564.9
3723.505	-568.9
3726.216	-580.9
3728.925	-577.9
3731.632	-586.9
3734.336	-582.9
3737.039	-589.9
3739.74	-584.9
3742.439	-593.9
3745.136	-595.9
3747.83	-602.9
3750.523	-599.9
3753.213	-598.9
3755.902	-607.9
3758.589	-605.9
3761.273	-607.9
3763.956	-609.9
3766.636	-611.9
3769.315	-613.9
3771.991	-614.9
3774.665	-619.9
3777.338	-618.9
3780.008	-622.9
3782.677	-619.9
3785.343	-621.9
3788.007	-623.9
3790.67	-623.9
3793.33	-623.9
3795.989	-618.9
3798.645	-625.9
3801.299	-627.9
3803.952	-638.9
3806.602	-640.9
3809.251	-635.9
3811.897	-635.9
3814.542	-635.9
3817.184	-634.9
3819.825	-633.9
3822.463	-633.9
3825.1	-641.9
3827.735	-627.9
3830.367	-634.9
3832.998	-645.9
3835.627	-648.9
3838.253	-640.9
3840.878	-648.9
3843.501	-645.9
3846.122	-638.9
3848.741	-640.9
3851.358	-649.9
3853.973	-644.9
3856.586	-647.9
3859.197	-648.9
3861.806	-655.9
3864.414	-648.9
3867.019	-648.9
3869.622	-644.9
3872.224	-637.9
3874.823	-626.9
3877.421	-613.9
3880.016	-589.9
3882.61	-576.9
3885.202	-568.9
3887.792	-582.9
3890.38	-615.9
3892.966	-634.9
3895.55	-653.9
3898.132	-660.9
3900.713	-666.9
3903.291	-653.9
3905.868	-660.9
3908.442	-662.9
3911.015	-664.9
3913.586	-658.9
3916.155	-657.9
3918.722	-666.9
3921.287	-660.9
3923.85	-668.9
3926.411	-659.9
3928.971	-671.9
3931.528	-664.9
3934.084	-664.9
3936.638	-660.9
3939.19	-664.9
3941.74	-665.9
3944.288	-664.9
3946.834	-658.9
3949.378	-658.9
3951.921	-658.9
3954.462	-663.9
3957	-663.9
3959.537	-662.9
3962.072	-658.9
3964.606	-661.9
3967.137	-660.9
3969.667	-665.9
3972.194	-657.9
3974.72	-666.9
3977.244	-657.9
3979.766	-648.9
3982.286	-654.9
3984.805	-650.9
3987.321	-655.9
3989.836	-655.9
3992.349	-642.9
3994.86	-650.9
3997.369	-656.9
3999.877	-647.9
4002.382	-647.9
4004.886	-640.9
4007.388	-647.9
4009.888	-646.9
4012.386	-651.9
4014.883	-650.9
4017.377	-641.9
4019.87	-644.9
4022.361	-648.9
4024.85	-651.9
4027.338	-647.9
4029.823	-654.9
4032.307	-651.9
4034.789	-653.9
4037.269	-645.9
4039.747	-649.9
4042.224	-649.9
4044.699	-654.9
4047.172	-653.9
4049.643	-650.9
4052.112	-658.9
4054.58	-658.9
4057.046	-655.9
4059.51	-656.9
4061.972	-654.9
4064.432	-651.9
4066.891	-649.9
4069.348	-650.9
4071.803	-649.9
4074.256	-650.9
4076.708	-645.9
4079.158	-652.9
4081.606	-652.9
4084.052	-656.9
4086.497	-652.9
4088.939	-650.9
4091.38	-652.9
4093.819	-645.9
4096.257	-682.9
4098.693	-684.9
4101.127	-690.9
4103.559	-685.9
4105.989	-391.9
4108.418	-373.9
4110.845	-351.9
4113.27	-322.9
4115.694	-290.9
4118.115	-240.9
4120.535	-648.9
4122.954	-653.9
4125.37	-645.9
4127.785	-652.9
4130.198	-650.9
4132.609	-653.9
4135.019	-685.9
4137.427	-694.9
4139.833	-688.9
4142.237	-684.9
