Data from 2018-2-14_conc=0_n=10_RamanShift_02.txt Node
Date: Wed Feb 14 10:56:26 IST 2018
User: aro
Spectrometer: QEPB0276
Trigger mode: 0
Integration Time (sec): 3.000000E1
Scans to average: 1
Electric dark correction enabled: true
Nonlinearity correction enabled: false
Boxcar width: 0
XAxis mode: Raman Shifts
Number of Pixels in Spectrum: 1044
>>>>>Begin Spectral Data<<<<<
160.701	-136.8
166.742	43.2
172.777	604.2
178.805	2285.2
184.826	6342.2
190.841	13302.2
196.849	21342.2
202.85	27253.2
208.845	29174.2
214.833	28904.2
220.815	28410.2
226.789	28209.2
232.758	27975.2
238.719	27920.2
244.674	27538.2
250.623	27082.2
256.565	26542.2
262.5	26003.2
268.429	25557.2
274.351	25207.2
280.267	24833.2
286.176	24609.2
292.079	24389.2
297.975	24143.2
303.865	23923.2
309.748	23759.2
315.625	23656.2
321.495	23473.2
327.359	23460.2
333.217	23356.2
339.068	23384.2
344.912	23370.2
350.751	23326.2
356.583	23338.2
362.408	23244.2
368.227	23305.2
374.04	23290.2
379.847	23429.2
385.647	23473.2
391.44	23614.2
397.228	23585.2
403.009	23708.2
408.784	23813.2
414.553	23825.2
420.315	23936.2
426.071	23910.2
431.821	23892.2
437.565	23875.2
443.302	23829.2
449.033	23793.2
454.758	23823.2
460.477	23714.2
466.189	23621.2
471.896	23591.2
477.596	23544.2
483.29	23426.2
488.978	23498.2
494.66	23422.2
500.335	23200.2
506.005	23071.2
511.668	22705.2
517.325	22501.2
522.977	22289.2
528.622	22140.2
534.261	21953.2
539.894	21878.2
545.521	21723.2
551.141	21733.2
556.756	21656.2
562.365	21551.2
567.968	21488.2
573.565	21363.2
579.155	21327.2
584.74	21210.2
590.319	21148.2
595.892	21103.2
601.459	21000.2
607.02	20919.2
612.575	20781.2
618.124	20602.2
623.667	20509.2
629.204	20451.2
634.735	20282.2
640.261	20258.2
645.781	20187.2
651.294	20132.2
656.802	20116.2
662.304	20035.2
667.8	19970.2
673.29	20019.2
678.775	19945.2
684.254	19865.2
689.726	19870.2
695.193	19801.2
700.655	19659.2
706.11	19620.2
711.56	19529.2
717.004	19408.2
722.442	19323.2
727.874	19202.2
733.301	19096.2
738.722	19048.2
744.137	19076.2
749.547	19144.2
754.951	19039.2
760.349	19088.2
765.741	19043.2
771.128	19001.2
776.509	19086.2
781.885	19078.2
787.254	19092.2
792.618	18922.2
797.977	18797.2
803.33	18675.2
808.677	18623.2
814.019	18470.2
819.355	18395.2
824.686	18332.2
830.011	18282.2
835.33	18233.2
840.644	18311.2
845.952	18305.2
851.255	18334.2
856.552	18374.2
861.844	18373.2
867.13	18288.2
872.41	18243.2
877.686	18138.2
882.955	17965.2
888.219	17809.2
893.478	17650.2
898.731	17444.2
903.979	17268.2
909.221	17135.2
914.458	17056.2
919.69	17027.2
924.916	17080.2
930.136	17137.2
935.351	17165.2
940.561	17206.2
945.766	17143.2
950.965	17014.2
956.158	16900.2
961.347	16705.2
966.529	16534.2
971.707	16312.2
976.879	16182.2
982.046	16131.2
987.208	15969.2
992.364	15971.2
997.515	16065.2
1002.66	16217.2
1007.801	16382.2
1012.936	16500.2
1018.066	16471.2
1023.19	16464.2
1028.309	16459.2
1033.423	16440.2
1038.532	16336.2
1043.636	16203.2
1048.734	16062.2
1053.827	15812.2
1058.915	15670.2
1063.998	15563.2
1069.075	15517.2
1074.147	15433.2
1079.214	15602.2
1084.276	15672.2
1089.333	15729.2
1094.385	15811.2
1099.431	15847.2
1104.472	15875.2
1109.509	15799.2
1114.54	15613.2
1119.565	15355.2
1124.586	15187.2
1129.602	15082.2
1134.613	14919.2
1139.618	14862.2
1144.619	14817.2
1149.614	14801.2
1154.604	14833.2
1159.589	14911.2
1164.57	14895.2
1169.545	14918.2
1174.515	14944.2
1179.48	14828.2
1184.44	14729.2
1189.395	14606.2
1194.345	14546.2
1199.29	14448.2
1204.23	14455.2
1209.165	14499.2
1214.095	14559.2
1219.021	14603.2
1223.941	14716.2
1228.856	14793.2
1233.766	14819.2
1238.672	14913.2
1243.572	14843.2
1248.467	14708.2
1253.358	14533.2
1258.244	14382.2
1263.124	14132.2
1268	13968.2
1272.871	13779.2
1277.737	13661.2
1282.599	13570.2
1287.455	13605.2
1292.306	13622.2
1297.153	13651.2
1301.995	13737.2
1306.832	13778.2
1311.664	13820.2
1316.491	13759.2
1321.314	13643.2
1326.132	13409.2
1330.945	13118.2
1335.753	12800.2
1340.556	12504.2
1345.354	12212.2
1350.148	12090.2
1354.937	11901.2
1359.722	11854.2
1364.501	11975.2
1369.276	12069.2
1374.046	12238.2
1378.811	12396.2
1383.572	12609.2
1388.327	12640.2
1393.079	12623.2
1397.825	12425.2
1402.567	12246.2
1407.304	12096.2
1412.036	11948.2
1416.764	11907.2
1421.487	11776.2
1426.205	11716.2
1430.919	11691.2
1435.628	11724.2
1440.333	11732.2
1445.032	11707.2
1449.727	11779.2
1454.418	11751.2
1459.104	11612.2
1463.785	11397.2
1468.462	11174.2
1473.134	10936.2
1477.802	10690.2
1482.465	10495.2
1487.123	10374.2
1491.777	10332.2
1496.426	10369.2
1501.071	10470.2
1505.711	10659.2
1510.347	10850.2
1514.978	11005.2
1519.604	11216.2
1524.226	11282.2
1528.844	11330.2
1533.457	11306.2
1538.065	11282.2
1542.669	11145.2
1547.269	11078.2
1551.864	11026.2
1556.454	11015.2
1561.041	11039.2
1565.622	10996.2
1570.199	11001.2
1574.772	11096.2
1579.34	11160.2
1583.904	11206.2
1588.464	11244.2
1593.019	11223.2
1597.569	11220.2
1602.115	11064.2
1606.657	11039.2
1611.195	10955.2
1615.728	10899.2
1620.256	10809.2
1624.78	10840.2
1629.3	10814.2
1633.816	10871.2
1638.327	10887.2
1642.834	10936.2
1647.336	11032.2
1651.834	11041.2
1656.328	10991.2
1660.817	10908.2
1665.302	10856.2
1669.783	10633.2
1674.259	10360.2
1678.732	10087.2
1683.199	9760.2
1687.663	9372.2
1692.122	9112.2
1696.577	8963.2
1701.028	8927.2
1705.474	8972.2
1709.917	9079.2
1714.355	9170.2
1718.788	9115.2
1723.218	8966.2
1727.643	8835.2
1732.064	8645.2
1736.481	8472.2
1740.893	8272.2
1745.301	8020.2
1749.705	7823.2
1754.105	7651.2
1758.501	7394.2
1762.893	7180.2
1767.28	6988.2
1771.663	6865.2
1776.042	6717.2
1780.417	6629.2
1784.787	6629.2
1789.154	6795.2
1793.516	6843.2
1797.874	7038.2
1802.228	7349.2
1806.578	7214.2
1810.924	7227.2
1815.266	7179.2
1819.603	7007.2
1823.937	6873.2
1828.266	6812.2
1832.591	6695.2
1836.913	6580.2
1841.23	6508.2
1845.543	6464.2
1849.852	6476.2
1854.156	6405.2
1858.457	6386.2
1862.754	6433.2
1867.047	6368.2
1871.335	6398.2
1875.62	6349.2
1879.9	6319.2
1884.177	6295.2
1888.449	6237.2
1892.718	6146.2
1896.982	6085.2
1901.243	6039.2
1905.499	5983.2
1909.752	5925.2
1914	5942.2
1918.245	5935.2
1922.485	6009.2
1926.722	6054.2
1930.954	6128.2
1935.183	6192.2
1939.408	6256.2
1943.628	6286.2
1947.845	6315.2
1952.058	6332.2
1956.267	6261.2
1960.472	6199.2
1964.673	6097.2
1968.87	5991.2
1973.063	5929.2
1977.252	5850.2
1981.438	5789.2
1985.619	5759.2
1989.797	5692.2
1993.971	5659.2
1998.14	5638.2
2002.306	5607.2
2006.469	5551.2
2010.627	5579.2
2014.781	5531.2
2018.932	5486.2
2023.078	5420.2
2027.221	5323.2
2031.36	5278.2
2035.495	5179.2
2039.627	5092.2
2043.754	5044.2
2047.878	5009.2
2051.998	4974.2
2056.114	4954.2
2060.226	4914.2
2064.334	4930.2
2068.439	4921.2
2072.54	4953.2
2076.637	5003.2
2080.73	5011.2
2084.82	5008.2
2088.906	5075.2
2092.988	5054.2
2097.066	5055.2
2101.14	5000.2
2105.211	4977.2
2109.278	4972.2
2113.342	4917.2
2117.401	4874.2
2121.457	4874.2
2125.509	4863.2
2129.558	4826.2
2133.602	4811.2
2137.643	4809.2
2141.681	4773.2
2145.714	4752.2
2149.744	4734.2
2153.77	4690.2
2157.793	4619.2
2161.812	4567.2
2165.827	4497.2
2169.838	4412.2
2173.846	4357.2
2177.851	4318.2
2181.851	4226.2
2185.848	4171.2
2189.841	4119.2
2193.831	4079.2
2197.817	4063.2
2201.799	4056.2
2205.778	3994.2
2209.753	4013.2
2213.725	3992.2
2217.693	3991.2
2221.657	3995.2
2225.618	3962.2
2229.575	3928.2
2233.529	3893.2
2237.479	3881.2
2241.425	3831.2
2245.368	3769.2
2249.307	3709.2
2253.243	3666.2
2257.175	3628.2
2261.104	3583.2
2265.029	3545.2
2268.95	3489.2
2272.868	3462.2
2276.783	3437.2
2280.694	3391.2
2284.601	3334.2
2288.505	3331.2
2292.405	3290.2
2296.302	3250.2
2300.195	3214.2
2304.085	3196.2
2307.971	3132.2
2311.854	3116.2
2315.734	3059.2
2319.609	3008.2
2323.482	2983.2
2327.351	2931.2
2331.216	2919.2
2335.078	2911.2
2338.937	2892.2
2342.792	2889.2
2346.643	2838.2
2350.492	2835.2
2354.336	2866.2
2358.178	2865.2
2362.015	2887.2
2365.85	2903.2
2369.681	2890.2
2373.508	2894.2
2377.333	2879.2
2381.153	2901.2
2384.971	2861.2
2388.785	2871.2
2392.595	2805.2
2396.402	2801.2
2400.206	2778.2
2404.007	2730.2
2407.804	2737.2
2411.597	2714.2
2415.388	2701.2
2419.174	2678.2
2422.958	2658.2
2426.738	2614.2
2430.515	2625.2
2434.289	2603.2
2438.059	2562.2
2441.825	2539.2
2445.589	2535.2
2449.349	2502.2
2453.106	2476.2
2456.859	2411.2
2460.61	2409.2
2464.356	2378.2
2468.1	2341.2
2471.84	2333.2
2475.577	2293.2
2479.311	2273.2
2483.041	2280.2
2486.768	2279.2
2490.492	2258.2
2494.213	2265.2
2497.93	2236.2
2501.644	2233.2
2505.355	2231.2
2509.062	2201.2
2512.766	2220.2
2516.467	2183.2
2520.165	2156.2
2523.859	2162.2
2527.551	2138.2
2531.239	2123.2
2534.923	2102.2
2538.605	2094.2
2542.283	2110.2
2545.958	2088.2
2549.63	2095.2
2553.299	2085.2
2556.964	2078.2
2560.626	2050.2
2564.285	2050.2
2567.941	2072.2
2571.594	2050.2
2575.243	2031.2
2578.89	2019.2
2582.533	2005.2
2586.173	1996.2
2589.809	1982.2
2593.443	1961.2
2597.073	1912.2
2600.701	1909.2
2604.325	1898.2
2607.946	1904.2
2611.564	1882.2
2615.178	1857.2
2618.79	1857.2
2622.398	1829.2
2626.004	1825.2
2629.606	1793.2
2633.205	1773.2
2636.801	1750.2
2640.394	1734.2
2643.983	1696.2
2647.57	1672.2
2651.153	1641.2
2654.734	1617.2
2658.311	1591.2
2661.885	1568.2
2665.456	1571.2
2669.025	1537.2
2672.589	1521.2
2676.151	1490.2
2679.71	1502.2
2683.266	1458.2
2686.819	1424.2
2690.368	1404.2
2693.915	1373.2
2697.458	1355.2
2700.999	1307.2
2704.536	1280.2
2708.071	1257.2
2711.602	1237.2
2715.13	1196.2
2718.656	1184.2
2722.178	1158.2
2725.697	1145.2
2729.214	1115.2
2732.727	1129.2
2736.237	1099.2
2739.744	1105.2
2743.249	1095.2
2746.75	1133.2
2750.248	1119.2
2753.743	1139.2
2757.236	1155.2
2760.725	1164.2
2764.211	1188.2
2767.695	1153.2
2771.175	1152.2
2774.652	1160.2
2778.127	1146.2
2781.598	1144.2
2785.067	1139.2
2788.532	1118.2
2791.995	1131.2
2795.455	1113.2
2798.911	1130.2
2802.365	1137.2
2805.816	1120.2
2809.264	1136.2
2812.709	1129.2
2816.151	1136.2
2819.59	1140.2
2823.026	1131.2
2826.46	1132.2
2829.89	1125.2
2833.318	1148.2
2836.742	1148.2
2840.164	1130.2
2843.583	1146.2
2846.999	1161.2
2850.412	1168.2
2853.822	1179.2
2857.229	1199.2
2860.634	1221.2
2864.035	1242.2
2867.434	1274.2
2870.83	1270.2
2874.223	1304.2
2877.613	1331.2
2881	1350.2
2884.385	1350.2
2887.766	1336.2
2891.145	1364.2
2894.521	1350.2
2897.894	1350.2
2901.264	1335.2
2904.631	1346.2
2907.996	1336.2
2911.358	1360.2
2914.717	1370.2
2918.073	1369.2
2921.426	1376.2
2924.777	1408.2
2928.124	1431.2
2931.469	1432.2
2934.811	1469.2
2938.15	1488.2
2941.487	1496.2
2944.821	1478.2
2948.152	1493.2
2951.48	1518.2
2954.805	1495.2
2958.128	1445.2
2961.447	1437.2
2964.765	1431.2
2968.079	1429.2
2971.39	1475.2
2974.699	1458.2
2978.005	1479.2
2981.308	1525.2
2984.609	1540.2
2987.907	1555.2
2991.202	1596.2
2994.494	1653.2
2997.784	1667.2
3001.07	1682.2
3004.355	1708.2
3007.636	1763.2
3010.915	1772.2
3014.191	1771.2
3017.464	1791.2
3020.734	1807.2
3024.002	1830.2
3027.267	1838.2
3030.53	1850.2
3033.789	1870.2
3037.046	1879.2
3040.301	1903.2
3043.552	1955.2
3046.801	1979.2
3050.048	2032.2
3053.291	2093.2
3056.532	2129.2
3059.771	2213.2
3063.006	2244.2
3066.239	2351.2
3069.469	2389.2
3072.697	2458.2
3075.922	2510.2
3079.144	2590.2
3082.364	2638.2
3085.581	2686.2
3088.795	2742.2
3092.007	2801.2
3095.216	2847.2
3098.423	2932.2
3101.627	2997.2
3104.828	3061.2
3108.026	3117.2
3111.222	3197.2
3114.416	3275.2
3117.607	3312.2
3120.795	3404.2
3123.98	3497.2
3127.163	3567.2
3130.344	3663.2
3133.521	3732.2
3136.696	3805.2
3139.869	3868.2
3143.039	3941.2
3146.206	3982.2
3149.371	4095.2
3152.533	4087.2
3155.693	4119.2
3158.85	4158.2
3162.005	4165.2
3165.157	4208.2
3168.306	4184.2
3171.453	4215.2
3174.597	4235.2
3177.739	4229.2
3180.878	4209.2
3184.014	4209.2
3187.149	4269.2
3190.28	4257.2
3193.409	4217.2
3196.536	4231.2
3199.659	4252.2
3202.781	4255.2
3205.9	4245.2
3209.016	4275.2
3212.13	4214.2
3215.241	4213.2
3218.35	4184.2
3221.456	4115.2
3224.56	4108.2
3227.661	4008.2
3230.76	3985.2
3233.856	3948.2
3236.95	3898.2
3240.041	3896.2
3243.13	3861.2
3246.216	3824.2
3249.3	3801.2
3252.382	3786.2
3255.46	3746.2
3258.537	3749.2
3261.611	3773.2
3264.682	3754.2
3267.751	3756.2
3270.818	3766.2
3273.882	3732.2
3276.943	3699.2
3280.002	3703.2
3283.059	3660.2
3286.113	3632.2
3289.165	3553.2
3292.214	3524.2
3295.261	3487.2
3298.306	3396.2
3301.348	3362.2
3304.387	3305.2
3307.425	3250.2
3310.459	3197.2
3313.492	3163.2
3316.521	3115.2
3319.549	3073.2
3322.574	3067.2
3325.597	3037.2
3328.617	2998.2
3331.635	2971.2
3334.65	2981.2
3337.663	2938.2
3340.674	2922.2
3343.682	2923.2
3346.688	2921.2
3349.691	2920.2
3352.692	2885.2
3355.691	2862.2
3358.687	2862.2
3361.681	2831.2
3364.673	2759.2
3367.662	2728.2
3370.649	2674.2
3373.633	2641.2
3376.615	2661.2
3379.595	2578.2
3382.572	2536.2
3385.547	2510.2
3388.52	2477.2
3391.49	2404.2
3394.458	2387.2
3397.424	2383.2
3400.387	2328.2
3403.348	2305.2
3406.307	2277.2
3409.263	2238.2
3412.217	2216.2
3415.168	2203.2
3418.118	2173.2
3421.065	2114.2
3424.009	2103.2
3426.951	2071.2
3429.891	2035.2
3432.829	1996.2
3435.764	1939.2
3438.697	1891.2
3441.628	1867.2
3444.557	1809.2
3447.483	1718.2
3450.407	1685.2
3453.328	1644.2
3456.247	1576.2
3459.164	1493.2
3462.079	1479.2
3464.991	1407.2
3467.902	1366.2
3470.809	1306.2
3473.715	1262.2
3476.618	1217.2
3479.519	1171.2
3482.418	1129.2
3485.315	1111.2
3488.209	1061.2
3491.101	1031.2
3493.99	986.2
3496.878	947.2
3499.763	931.2
3502.646	869.2
3505.527	833.2
3508.405	814.2
3511.281	761.2
3514.155	698.2
3517.027	677.2
3519.897	627.2
3522.764	588.2
3525.629	533.2
3528.492	498.2
3531.352	448.2
3534.211	413.2
3537.067	370.2
3539.921	351.2
3542.773	295.2
3545.622	260.2
3548.469	234.2
3551.315	213.2
3554.157	173.2
3556.998	147.2
3559.837	124.2
3562.673	88.2
3565.507	76.2
3568.339	40.2
3571.169	22.2
3573.996	1.2
3576.822	-8.8
3579.645	-27.8
3582.466	-56.8
3585.285	-80.8
3588.101	-92.8
3590.916	-109.8
3593.728	-144.8
3596.538	-147.8
3599.346	-170.8
3602.152	-189.8
3604.956	-204.8
3607.757	-219.8
3610.556	-248.8
3613.354	-253.8
3616.149	-264.8
3618.942	-285.8
3621.732	-298.8
3624.521	-307.8
3627.307	-315.8
3630.092	-338.8
3632.874	-333.8
3635.654	-345.8
3638.432	-351.8
3641.208	-367.8
3643.982	-391.8
3646.753	-382.8
3649.523	-400.8
3652.29	-406.8
3655.055	-415.8
3657.818	-434.8
3660.579	-445.8
3663.338	-453.8
3666.095	-451.8
3668.849	-464.8
3671.602	-472.8
3674.352	-484.8
3677.101	-493.8
3679.847	-503.8
3682.591	-509.8
3685.333	-516.8
3688.073	-516.8
3690.811	-522.8
3693.547	-527.8
3696.281	-533.8
3699.013	-540.8
3701.742	-544.8
3704.47	-552.8
3707.195	-558.8
3709.919	-556.8
3712.64	-564.8
3715.359	-563.8
3718.076	-569.8
3720.792	-571.8
3723.505	-575.8
3726.216	-589.8
3728.925	-584.8
3731.632	-593.8
3734.336	-592.8
3737.039	-599.8
3739.74	-594.8
3742.439	-593.8
3745.136	-600.8
3747.83	-612.8
3750.523	-604.8
3753.213	-593.8
3755.902	-610.8
3758.589	-611.8
3761.273	-612.8
3763.956	-620.8
3766.636	-619.8
3769.315	-619.8
3771.991	-618.8
3774.665	-625.8
3777.338	-618.8
3780.008	-622.8
3782.677	-628.8
3785.343	-631.8
3788.007	-632.8
3790.67	-634.8
3793.33	-635.8
3795.989	-632.8
3798.645	-634.8
3801.299	-631.8
3803.952	-646.8
3806.602	-648.8
3809.251	-647.8
3811.897	-635.8
3814.542	-645.8
3817.184	-644.8
3819.825	-644.8
3822.463	-641.8
3825.1	-653.8
3827.735	-644.8
3830.367	-648.8
3832.998	-657.8
3835.627	-657.8
3838.253	-651.8
3840.878	-654.8
3843.501	-651.8
3846.122	-651.8
3848.741	-647.8
3851.358	-651.8
3853.973	-654.8
3856.586	-658.8
3859.197	-656.8
3861.806	-659.8
3864.414	-653.8
3867.019	-657.8
3869.622	-656.8
3872.224	-649.8
3874.823	-644.8
3877.421	-619.8
3880.016	-603.8
3882.61	-574.8
3885.202	-566.8
3887.792	-582.8
3890.38	-612.8
3892.966	-639.8
3895.55	-654.8
3898.132	-669.8
3900.713	-667.8
3903.291	-668.8
3905.868	-670.8
3908.442	-663.8
3911.015	-670.8
3913.586	-662.8
3916.155	-670.8
3918.722	-671.8
3921.287	-670.8
3923.85	-681.8
3926.411	-672.8
3928.971	-680.8
3931.528	-672.8
3934.084	-675.8
3936.638	-671.8
3939.19	-671.8
3941.74	-670.8
3944.288	-671.8
3946.834	-669.8
3949.378	-675.8
3951.921	-669.8
3954.462	-676.8
3957	-675.8
3959.537	-673.8
3962.072	-671.8
3964.606	-676.8
3967.137	-672.8
3969.667	-677.8
3972.194	-668.8
3974.72	-670.8
3977.244	-660.8
3979.766	-658.8
3982.286	-659.8
3984.805	-660.8
3987.321	-657.8
3989.836	-662.8
3992.349	-648.8
3994.86	-655.8
3997.369	-662.8
3999.877	-653.8
4002.382	-661.8
4004.886	-650.8
4007.388	-655.8
4009.888	-654.8
4012.386	-664.8
4014.883	-657.8
4017.377	-654.8
4019.87	-652.8
4022.361	-655.8
4024.85	-652.8
4027.338	-658.8
4029.823	-659.8
4032.307	-663.8
4034.789	-656.8
4037.269	-658.8
4039.747	-660.8
4042.224	-664.8
4044.699	-663.8
4047.172	-664.8
4049.643	-661.8
4052.112	-666.8
4054.58	-668.8
4057.046	-663.8
4059.51	-659.8
4061.972	-666.8
4064.432	-663.8
4066.891	-658.8
4069.348	-657.8
4071.803	-654.8
4074.256	-667.8
4076.708	-661.8
4079.158	-660.8
4081.606	-667.8
4084.052	-670.8
4086.497	-666.8
4088.939	-656.8
4091.38	-663.8
4093.819	-660.8
4096.257	-695.8
4098.693	-697.8
4101.127	-702.8
4103.559	-697.8
4105.989	-391.8
4108.418	-368.8
4110.845	-350.8
4113.27	-325.8
4115.694	-281.8
4118.115	-237.8
4120.535	-656.8
4122.954	-657.8
4125.37	-653.8
4127.785	-663.8
4130.198	-663.8
4132.609	-656.8
4135.019	-699.8
4137.427	-698.8
4139.833	-698.8
4142.237	-698.8
