Data from 2018-2-14_conc=3_n=6_RamanShift_01.txt Node
Date: Wed Feb 14 11:58:56 IST 2018
User: aro
Spectrometer: QEPB0276
Trigger mode: 0
Integration Time (sec): 3.000000E1
Scans to average: 1
Electric dark correction enabled: true
Nonlinearity correction enabled: false
Boxcar width: 0
XAxis mode: Raman Shifts
Number of Pixels in Spectrum: 1044
>>>>>Begin Spectral Data<<<<<
160.701	-136.9
166.742	47.1
172.777	584.1
178.805	2200.1
184.826	6136.1
190.841	12907.1
196.849	20771.1
202.85	26287.1
208.845	28232.1
214.833	27821.1
220.815	27293.1
226.789	27060.1
232.758	26917.1
238.719	26661.1
244.674	26345.1
250.623	25783.1
256.565	25137.1
262.5	24662.1
268.429	24137.1
274.351	23753.1
280.267	23431.1
286.176	23049.1
292.079	22844.1
297.975	22582.1
303.865	22361.1
309.748	22284.1
315.625	21994.1
321.495	21900.1
327.359	21784.1
333.217	21768.1
339.068	21685.1
344.912	21658.1
350.751	21659.1
356.583	21623.1
362.408	21586.1
368.227	21633.1
374.04	21601.1
379.847	21662.1
385.647	21771.1
391.44	21818.1
397.228	21953.1
403.009	22021.1
408.784	22050.1
414.553	22155.1
420.315	22208.1
426.071	22237.1
431.821	22165.1
437.565	22228.1
443.302	22132.1
449.033	22076.1
454.758	22036.1
460.477	22055.1
466.189	21994.1
471.896	21892.1
477.596	21853.1
483.29	21713.1
488.978	21747.1
494.66	21641.1
500.335	21571.1
506.005	21340.1
511.668	21041.1
517.325	20821.1
522.977	20608.1
528.622	20450.1
534.261	20288.1
539.894	20217.1
545.521	20149.1
551.141	20019.1
556.756	20020.1
562.365	19933.1
567.968	19805.1
573.565	19773.1
579.155	19698.1
584.74	19639.1
590.319	19534.1
595.892	19473.1
601.459	19339.1
607.02	19268.1
612.575	19229.1
618.124	19051.1
623.667	18968.1
629.204	18829.1
634.735	18749.1
640.261	18635.1
645.781	18667.1
651.294	18596.1
656.802	18591.1
662.304	18534.1
667.8	18488.1
673.29	18454.1
678.775	18409.1
684.254	18394.1
689.726	18279.1
695.193	18214.1
700.655	18143.1
706.11	18073.1
711.56	17967.1
717.004	17850.1
722.442	17783.1
727.874	17756.1
733.301	17673.1
738.722	17628.1
744.137	17548.1
749.547	17526.1
754.951	17566.1
760.349	17573.1
765.741	17561.1
771.128	17608.1
776.509	17613.1
781.885	17606.1
787.254	17587.1
792.618	17449.1
797.977	17367.1
803.33	17262.1
808.677	17124.1
814.019	17046.1
819.355	16967.1
824.686	16891.1
830.011	16851.1
835.33	16826.1
840.644	16869.1
845.952	16916.1
851.255	16907.1
856.552	16955.1
861.844	16882.1
867.13	16884.1
872.41	16803.1
877.686	16667.1
882.955	16558.1
888.219	16483.1
893.478	16227.1
898.731	16028.1
903.979	15922.1
909.221	15811.1
914.458	15730.1
919.69	15726.1
924.916	15729.1
930.136	15750.1
935.351	15823.1
940.561	15790.1
945.766	15751.1
950.965	15683.1
956.158	15578.1
961.347	15442.1
966.529	15270.1
971.707	15051.1
976.879	14860.1
982.046	14754.1
987.208	14659.1
992.364	14659.1
997.515	14779.1
1002.66	14915.1
1007.801	15114.1
1012.936	15176.1
1018.066	15225.1
1023.19	15156.1
1028.309	15141.1
1033.423	15179.1
1038.532	15114.1
1043.636	15006.1
1048.734	14782.1
1053.827	14581.1
1058.915	14435.1
1063.998	14327.1
1069.075	14286.1
1074.147	14272.1
1079.214	14357.1
1084.276	14442.1
1089.333	14524.1
1094.385	14607.1
1099.431	14629.1
1104.472	14600.1
1109.509	14591.1
1114.54	14431.1
1119.565	14166.1
1124.586	14020.1
1129.602	13856.1
1134.613	13796.1
1139.618	13684.1
1144.619	13631.1
1149.614	13672.1
1154.604	13686.1
1159.589	13737.1
1164.57	13730.1
1169.545	13812.1
1174.515	13795.1
1179.48	13713.1
1184.44	13606.1
1189.395	13503.1
1194.345	13451.1
1199.29	13331.1
1204.23	13315.1
1209.165	13438.1
1214.095	13491.1
1219.021	13553.1
1223.941	13574.1
1228.856	13696.1
1233.766	13701.1
1238.672	13774.1
1243.572	13751.1
1248.467	13652.1
1253.358	13454.1
1258.244	13310.1
1263.124	13063.1
1268	12913.1
1272.871	12798.1
1277.737	12664.1
1282.599	12585.1
1287.455	12615.1
1292.306	12611.1
1297.153	12650.1
1301.995	12776.1
1306.832	12749.1
1311.664	12819.1
1316.491	12774.1
1321.314	12695.1
1326.132	12466.1
1330.945	12218.1
1335.753	11920.1
1340.556	11597.1
1345.354	11315.1
1350.148	11117.1
1354.937	11001.1
1359.722	10988.1
1364.501	11026.1
1369.276	11168.1
1374.046	11326.1
1378.811	11549.1
1383.572	11702.1
1388.327	11752.1
1393.079	11715.1
1397.825	11584.1
1402.567	11374.1
1407.304	11225.1
1412.036	11111.1
1416.764	10999.1
1421.487	10990.1
1426.205	10894.1
1430.919	10820.1
1435.628	10873.1
1440.333	10841.1
1445.032	10912.1
1449.727	10938.1
1454.418	10913.1
1459.104	10772.1
1463.785	10579.1
1468.462	10362.1
1473.134	10172.1
1477.802	9891.1
1482.465	9739.1
1487.123	9611.1
1491.777	9613.1
1496.426	9612.1
1501.071	9736.1
1505.711	9856.1
1510.347	10103.1
1514.978	10311.1
1519.604	10454.1
1524.226	10572.1
1528.844	10594.1
1533.457	10589.1
1538.065	10524.1
1542.669	10453.1
1547.269	10391.1
1551.864	10308.1
1556.454	10258.1
1561.041	10266.1
1565.622	10266.1
1570.199	10303.1
1574.772	10330.1
1579.34	10409.1
1583.904	10501.1
1588.464	10504.1
1593.019	10517.1
1597.569	10490.1
1602.115	10445.1
1606.657	10351.1
1611.195	10316.1
1615.728	10280.1
1620.256	10224.1
1624.78	10222.1
1629.3	10247.1
1633.816	10248.1
1638.327	10225.1
1642.834	10332.1
1647.336	10363.1
1651.834	10417.1
1656.328	10334.1
1660.817	10315.1
1665.302	10269.1
1669.783	10137.1
1674.259	9920.1
1678.732	9582.1
1683.199	9227.1
1687.663	8882.1
1692.122	8570.1
1696.577	8461.1
1701.028	8411.1
1705.474	8497.1
1709.917	8608.1
1714.355	8664.1
1718.788	8554.1
1723.218	8448.1
1727.643	8308.1
1732.064	8151.1
1736.481	7941.1
1740.893	7777.1
1745.301	7567.1
1749.705	7357.1
1754.105	7107.1
1758.501	6961.1
1762.893	6751.1
1767.28	6569.1
1771.663	6429.1
1776.042	6276.1
1780.417	6245.1
1784.787	6214.1
1789.154	6266.1
1793.516	6407.1
1797.874	6563.1
1802.228	6628.1
1806.578	6718.1
1810.924	6758.1
1815.266	6755.1
1819.603	6608.1
1823.937	6456.1
1828.266	6365.1
1832.591	6294.1
1836.913	6177.1
1841.23	6113.1
1845.543	6110.1
1849.852	6046.1
1854.156	6020.1
1858.457	5991.1
1862.754	6003.1
1867.047	5978.1
1871.335	5947.1
1875.62	5980.1
1879.9	5958.1
1884.177	5897.1
1888.449	5870.1
1892.718	5789.1
1896.982	5729.1
1901.243	5688.1
1905.499	5643.1
1909.752	5613.1
1914	5635.1
1918.245	5616.1
1922.485	5702.1
1926.722	5716.1
1930.954	5803.1
1935.183	5904.1
1939.408	5947.1
1943.628	6043.1
1947.845	5991.1
1952.058	6009.1
1956.267	5957.1
1960.472	5913.1
1964.673	5823.1
1968.87	5717.1
1973.063	5623.1
1977.252	5566.1
1981.438	5518.1
1985.619	5441.1
1989.797	5361.1
1993.971	5375.1
1998.14	5341.1
2002.306	5327.1
2006.469	5293.1
2010.627	5262.1
2014.781	5265.1
2018.932	5216.1
2023.078	5144.1
2027.221	5101.1
2031.36	5022.1
2035.495	4919.1
2039.627	4868.1
2043.754	4796.1
2047.878	4751.1
2051.998	4742.1
2056.114	4697.1
2060.226	4717.1
2064.334	4712.1
2068.439	4727.1
2072.54	4742.1
2076.637	4808.1
2080.73	4813.1
2084.82	4850.1
2088.906	4877.1
2092.988	4868.1
2097.066	4851.1
2101.14	4804.1
2105.211	4781.1
2109.278	4759.1
2113.342	4767.1
2117.401	4694.1
2121.457	4718.1
2125.509	4657.1
2129.558	4696.1
2133.602	4601.1
2137.643	4599.1
2141.681	4602.1
2145.714	4589.1
2149.744	4537.1
2153.77	4507.1
2157.793	4447.1
2161.812	4390.1
2165.827	4335.1
2169.838	4283.1
2173.846	4224.1
2177.851	4144.1
2181.851	4085.1
2185.848	4022.1
2189.841	3976.1
2193.831	3972.1
2197.817	3891.1
2201.799	3882.1
2205.778	3849.1
2209.753	3866.1
2213.725	3839.1
2217.693	3840.1
2221.657	3809.1
2225.618	3812.1
2229.575	3814.1
2233.529	3782.1
2237.479	3738.1
2241.425	3683.1
2245.368	3623.1
2249.307	3573.1
2253.243	3546.1
2257.175	3493.1
2261.104	3438.1
2265.029	3388.1
2268.95	3385.1
2272.868	3305.1
2276.783	3333.1
2280.694	3240.1
2284.601	3239.1
2288.505	3220.1
2292.405	3179.1
2296.302	3144.1
2300.195	3105.1
2304.085	3078.1
2307.971	3034.1
2311.854	2994.1
2315.734	2942.1
2319.609	2910.1
2323.482	2853.1
2327.351	2865.1
2331.216	2836.1
2335.078	2815.1
2338.937	2810.1
2342.792	2766.1
2346.643	2742.1
2350.492	2757.1
2354.336	2754.1
2358.178	2771.1
2362.015	2780.1
2365.85	2789.1
2369.681	2762.1
2373.508	2784.1
2377.333	2790.1
2381.153	2760.1
2384.971	2771.1
2388.785	2732.1
2392.595	2689.1
2396.402	2686.1
2400.206	2660.1
2404.007	2679.1
2407.804	2640.1
2411.597	2624.1
2415.388	2596.1
2419.174	2606.1
2422.958	2576.1
2426.738	2553.1
2430.515	2543.1
2434.289	2511.1
2438.059	2484.1
2441.825	2466.1
2445.589	2433.1
2449.349	2410.1
2453.106	2391.1
2456.859	2362.1
2460.61	2310.1
2464.356	2292.1
2468.1	2275.1
2471.84	2247.1
2475.577	2213.1
2479.311	2229.1
2483.041	2211.1
2486.768	2214.1
2490.492	2180.1
2494.213	2174.1
2497.93	2194.1
2501.644	2157.1
2505.355	2132.1
2509.062	2141.1
2512.766	2120.1
2516.467	2099.1
2520.165	2098.1
2523.859	2072.1
2527.551	2079.1
2531.239	2051.1
2534.923	2044.1
2538.605	2021.1
2542.283	2018.1
2545.958	2020.1
2549.63	2023.1
2553.299	2039.1
2556.964	2028.1
2560.626	2030.1
2564.285	2005.1
2567.941	2011.1
2571.594	1985.1
2575.243	1973.1
2578.89	1961.1
2582.533	1931.1
2586.173	1951.1
2589.809	1919.1
2593.443	1915.1
2597.073	1872.1
2600.701	1845.1
2604.325	1856.1
2607.946	1841.1
2611.564	1837.1
2615.178	1820.1
2618.79	1814.1
2622.398	1793.1
2626.004	1783.1
2629.606	1757.1
2633.205	1745.1
2636.801	1723.1
2640.394	1697.1
2643.983	1650.1
2647.57	1642.1
2651.153	1618.1
2654.734	1591.1
2658.311	1563.1
2661.885	1543.1
2665.456	1524.1
2669.025	1498.1
2672.589	1494.1
2676.151	1485.1
2679.71	1463.1
2683.266	1433.1
2686.819	1425.1
2690.368	1399.1
2693.915	1358.1
2697.458	1325.1
2700.999	1301.1
2704.536	1282.1
2708.071	1248.1
2711.602	1214.1
2715.13	1177.1
2718.656	1185.1
2722.178	1128.1
2725.697	1122.1
2729.214	1124.1
2732.727	1116.1
2736.237	1099.1
2739.744	1086.1
2743.249	1095.1
2746.75	1097.1
2750.248	1124.1
2753.743	1138.1
2757.236	1147.1
2760.725	1159.1
2764.211	1179.1
2767.695	1178.1
2771.175	1161.1
2774.652	1155.1
2778.127	1153.1
2781.598	1154.1
2785.067	1141.1
2788.532	1151.1
2791.995	1126.1
2795.455	1131.1
2798.911	1142.1
2802.365	1146.1
2805.816	1122.1
2809.264	1134.1
2812.709	1156.1
2816.151	1154.1
2819.59	1151.1
2823.026	1132.1
2826.46	1147.1
2829.89	1147.1
2833.318	1169.1
2836.742	1179.1
2840.164	1169.1
2843.583	1170.1
2846.999	1174.1
2850.412	1181.1
2853.822	1207.1
2857.229	1224.1
2860.634	1236.1
2864.035	1260.1
2867.434	1271.1
2870.83	1300.1
2874.223	1326.1
2877.613	1361.1
2881	1349.1
2884.385	1368.1
2887.766	1385.1
2891.145	1352.1
2894.521	1371.1
2897.894	1369.1
2901.264	1349.1
2904.631	1368.1
2907.996	1392.1
2911.358	1386.1
2914.717	1386.1
2918.073	1397.1
2921.426	1421.1
2924.777	1437.1
2928.124	1443.1
2931.469	1462.1
2934.811	1503.1
2938.15	1512.1
2941.487	1534.1
2944.821	1520.1
2948.152	1548.1
2951.48	1510.1
2954.805	1510.1
2958.128	1497.1
2961.447	1483.1
2964.765	1489.1
2968.079	1503.1
2971.39	1509.1
2974.699	1506.1
2978.005	1549.1
2981.308	1573.1
2984.609	1613.1
2987.907	1619.1
2991.202	1649.1
2994.494	1705.1
2997.784	1724.1
3001.07	1771.1
3004.355	1789.1
3007.636	1809.1
3010.915	1843.1
3014.191	1846.1
3017.464	1856.1
3020.734	1865.1
3024.002	1884.1
3027.267	1896.1
3030.53	1903.1
3033.789	1934.1
3037.046	1938.1
3040.301	1965.1
3043.552	2023.1
3046.801	2051.1
3050.048	2093.1
3053.291	2166.1
3056.532	2207.1
3059.771	2286.1
3063.006	2336.1
3066.239	2386.1
3069.469	2472.1
3072.697	2545.1
3075.922	2569.1
3079.144	2651.1
3082.364	2702.1
3085.581	2769.1
3088.795	2853.1
3092.007	2900.1
3095.216	2956.1
3098.423	3033.1
3101.627	3095.1
3104.828	3126.1
3108.026	3211.1
3111.222	3271.1
3114.416	3346.1
3117.607	3460.1
3120.795	3521.1
3123.98	3602.1
3127.163	3670.1
3130.344	3782.1
3133.521	3872.1
3136.696	3927.1
3139.869	4022.1
3143.039	4065.1
3146.206	4120.1
3149.371	4174.1
3152.533	4236.1
3155.693	4238.1
3158.85	4284.1
3162.005	4291.1
3165.157	4315.1
3168.306	4351.1
3171.453	4344.1
3174.597	4329.1
3177.739	4347.1
3180.878	4360.1
3184.014	4387.1
3187.149	4349.1
3190.28	4389.1
3193.409	4367.1
3196.536	4364.1
3199.659	4414.1
3202.781	4408.1
3205.9	4394.1
3209.016	4411.1
3212.13	4363.1
3215.241	4359.1
3218.35	4325.1
3221.456	4265.1
3224.56	4213.1
3227.661	4169.1
3230.76	4122.1
3233.856	4076.1
3236.95	4043.1
3240.041	4026.1
3243.13	4005.1
3246.216	3977.1
3249.3	3951.1
3252.382	3932.1
3255.46	3909.1
3258.537	3920.1
3261.611	3915.1
3264.682	3893.1
3267.751	3921.1
3270.818	3888.1
3273.882	3881.1
3276.943	3843.1
3280.002	3845.1
3283.059	3806.1
3286.113	3756.1
3289.165	3660.1
3292.214	3633.1
3295.261	3557.1
3298.306	3507.1
3301.348	3448.1
3304.387	3410.1
3307.425	3377.1
3310.459	3332.1
3313.492	3247.1
3316.521	3249.1
3319.549	3206.1
3322.574	3133.1
3325.597	3120.1
3328.617	3114.1
3331.635	3095.1
3334.65	3045.1
3337.663	3024.1
3340.674	3039.1
3343.682	2994.1
3346.688	2989.1
3349.691	2983.1
3352.692	2962.1
3355.691	2946.1
3358.687	2927.1
3361.681	2901.1
3364.673	2857.1
3367.662	2813.1
3370.649	2776.1
3373.633	2745.1
3376.615	2701.1
3379.595	2640.1
3382.572	2624.1
3385.547	2587.1
3388.52	2546.1
3391.49	2489.1
3394.458	2463.1
3397.424	2439.1
3400.387	2430.1
3403.348	2376.1
3406.307	2362.1
3409.263	2330.1
3412.217	2305.1
3415.168	2258.1
3418.118	2234.1
3421.065	2207.1
3424.009	2171.1
3426.951	2164.1
3429.891	2128.1
3432.829	2056.1
3435.764	2035.1
3438.697	1956.1
3441.628	1913.1
3444.557	1865.1
3447.483	1808.1
3450.407	1764.1
3453.328	1710.1
3456.247	1649.1
3459.164	1596.1
3462.079	1538.1
3464.991	1489.1
3467.902	1440.1
3470.809	1373.1
3473.715	1317.1
3476.618	1254.1
3479.519	1238.1
3482.418	1202.1
3485.315	1163.1
3488.209	1110.1
3491.101	1084.1
3493.99	1047.1
3496.878	1007.1
3499.763	960.1
3502.646	950.1
3505.527	884.1
3508.405	860.1
3511.281	806.1
3514.155	757.1
3517.027	719.1
3519.897	694.1
3522.764	632.1
3525.629	588.1
3528.492	542.1
3531.352	507.1
3534.211	464.1
3537.067	421.1
3539.921	378.1
3542.773	335.1
3545.622	300.1
3548.469	261.1
3551.315	242.1
3554.157	217.1
3556.998	186.1
3559.837	162.1
3562.673	145.1
3565.507	113.1
3568.339	87.1
3571.169	67.1
3573.996	46.1
3576.822	31.1
3579.645	15.1
3582.466	-16.9
3585.285	-37.9
3588.101	-54.9
3590.916	-84.9
3593.728	-106.9
3596.538	-123.9
3599.346	-134.9
3602.152	-166.9
3604.956	-177.9
3607.757	-196.9
3610.556	-210.9
3613.354	-237.9
3616.149	-243.9
3618.942	-256.9
3621.732	-264.9
3624.521	-281.9
3627.307	-282.9
3630.092	-305.9
3632.874	-315.9
3635.654	-317.9
3638.432	-325.9
3641.208	-337.9
3643.982	-350.9
3646.753	-353.9
3649.523	-356.9
3652.29	-379.9
3655.055	-384.9
3657.818	-398.9
3660.579	-410.9
3663.338	-431.9
3666.095	-425.9
3668.849	-443.9
3671.602	-453.9
3674.352	-457.9
3677.101	-457.9
3679.847	-477.9
3682.591	-484.9
3685.333	-492.9
3688.073	-488.9
3690.811	-500.9
3693.547	-501.9
3696.281	-512.9
3699.013	-512.9
3701.742	-511.9
3704.47	-522.9
3707.195	-535.9
3709.919	-535.9
3712.64	-537.9
3715.359	-538.9
3718.076	-550.9
3720.792	-546.9
3723.505	-546.9
3726.216	-557.9
3728.925	-560.9
3731.632	-567.9
3734.336	-561.9
3737.039	-569.9
3739.74	-568.9
3742.439	-568.9
3745.136	-573.9
3747.83	-580.9
3750.523	-576.9
3753.213	-559.9
3755.902	-584.9
3758.589	-588.9
3761.273	-588.9
3763.956	-591.9
3766.636	-597.9
3769.315	-591.9
3771.991	-597.9
3774.665	-602.9
3777.338	-601.9
3780.008	-610.9
3782.677	-607.9
3785.343	-596.9
3788.007	-602.9
3790.67	-609.9
3793.33	-607.9
3795.989	-607.9
3798.645	-609.9
3801.299	-601.9
3803.952	-616.9
3806.602	-617.9
3809.251	-626.9
3811.897	-615.9
3814.542	-617.9
3817.184	-618.9
3819.825	-611.9
3822.463	-617.9
3825.1	-623.9
3827.735	-614.9
3830.367	-624.9
3832.998	-631.9
3835.627	-622.9
3838.253	-629.9
3840.878	-634.9
3843.501	-632.9
3846.122	-621.9
3848.741	-631.9
3851.358	-628.9
3853.973	-628.9
3856.586	-633.9
3859.197	-630.9
3861.806	-633.9
3864.414	-623.9
3867.019	-631.9
3869.622	-629.9
3872.224	-623.9
3874.823	-611.9
3877.421	-595.9
3880.016	-583.9
3882.61	-569.9
3885.202	-561.9
3887.792	-575.9
3890.38	-603.9
3892.966	-624.9
3895.55	-633.9
3898.132	-651.9
3900.713	-643.9
3903.291	-645.9
3905.868	-644.9
3908.442	-642.9
3911.015	-651.9
3913.586	-640.9
3916.155	-641.9
3918.722	-647.9
3921.287	-642.9
3923.85	-650.9
3926.411	-649.9
3928.971	-655.9
3931.528	-651.9
3934.084	-648.9
3936.638	-644.9
3939.19	-647.9
3941.74	-644.9
3944.288	-651.9
3946.834	-645.9
3949.378	-650.9
3951.921	-653.9
3954.462	-656.9
3957	-649.9
3959.537	-653.9
3962.072	-647.9
3964.606	-650.9
3967.137	-647.9
3969.667	-646.9
3972.194	-643.9
3974.72	-645.9
3977.244	-637.9
3979.766	-635.9
3982.286	-636.9
3984.805	-636.9
3987.321	-635.9
3989.836	-638.9
3992.349	-629.9
3994.86	-631.9
3997.369	-638.9
3999.877	-636.9
4002.382	-635.9
4004.886	-637.9
4007.388	-632.9
4009.888	-630.9
4012.386	-638.9
4014.883	-636.9
4017.377	-636.9
4019.87	-630.9
4022.361	-630.9
4024.85	-631.9
4027.338	-632.9
4029.823	-635.9
4032.307	-637.9
4034.789	-631.9
4037.269	-631.9
4039.747	-638.9
4042.224	-640.9
4044.699	-641.9
4047.172	-639.9
4049.643	-638.9
4052.112	-641.9
4054.58	-639.9
4057.046	-639.9
4059.51	-641.9
4061.972	-646.9
4064.432	-646.9
4066.891	-641.9
4069.348	-636.9
4071.803	-633.9
4074.256	-636.9
4076.708	-627.9
4079.158	-637.9
4081.606	-634.9
4084.052	-639.9
4086.497	-634.9
4088.939	-641.9
4091.38	-635.9
4093.819	-634.9
4096.257	-671.9
4098.693	-674.9
4101.127	-672.9
4103.559	-667.9
4105.989	-379.9
4108.418	-357.9
4110.845	-340.9
4113.27	-317.9
4115.694	-271.9
4118.115	-232.9
4120.535	-636.9
4122.954	-644.9
4125.37	-632.9
4127.785	-642.9
4130.198	-639.9
4132.609	-642.9
4135.019	-673.9
4137.427	-676.9
4139.833	-673.9
4142.237	-669.9
