Data from 2018-2-14_conc=4_n=2_RamanShift_02.txt Node
Date: Wed Feb 14 13:28:55 IST 2018
User: aro
Spectrometer: QEPB0276
Trigger mode: 0
Integration Time (sec): 3.000000E1
Scans to average: 1
Electric dark correction enabled: true
Nonlinearity correction enabled: false
Boxcar width: 0
XAxis mode: Raman Shifts
Number of Pixels in Spectrum: 1044
>>>>>Begin Spectral Data<<<<<
160.701	-158.1
166.742	37.9
172.777	589.9
178.805	2352.9
184.826	6467.9
190.841	13482.9
196.849	21534.9
202.85	27142.9
208.845	28876.9
214.833	28598.9
220.815	28124.9
226.789	27926.9
232.758	27737.9
238.719	27592.9
244.674	27053.9
250.623	26643.9
256.565	26106.9
262.5	25526.9
268.429	25054.9
274.351	24579.9
280.267	24257.9
286.176	24037.9
292.079	23728.9
297.975	23537.9
303.865	23317.9
309.748	23166.9
315.625	22966.9
321.495	22843.9
327.359	22810.9
333.217	22711.9
339.068	22625.9
344.912	22649.9
350.751	22587.9
356.583	22524.9
362.408	22539.9
368.227	22609.9
374.04	22588.9
379.847	22619.9
385.647	22748.9
391.44	22752.9
397.228	22932.9
403.009	22935.9
408.784	23018.9
414.553	23133.9
420.315	23150.9
426.071	23219.9
431.821	23202.9
437.565	23160.9
443.302	23116.9
449.033	23114.9
454.758	23059.9
460.477	23009.9
466.189	22972.9
471.896	22902.9
477.596	22835.9
483.29	22774.9
488.978	22706.9
494.66	22695.9
500.335	22576.9
506.005	22247.9
511.668	22059.9
517.325	21748.9
522.977	21630.9
528.622	21367.9
534.261	21292.9
539.894	21143.9
545.521	21079.9
551.141	21100.9
556.756	20952.9
562.365	20919.9
567.968	20767.9
573.565	20780.9
579.155	20628.9
584.74	20551.9
590.319	20488.9
595.892	20412.9
601.459	20355.9
607.02	20188.9
612.575	20129.9
618.124	20028.9
623.667	19863.9
629.204	19789.9
634.735	19648.9
640.261	19592.9
645.781	19559.9
651.294	19560.9
656.802	19512.9
662.304	19422.9
667.8	19333.9
673.29	19365.9
678.775	19298.9
684.254	19270.9
689.726	19197.9
695.193	19138.9
700.655	19005.9
706.11	18943.9
711.56	18853.9
717.004	18751.9
722.442	18708.9
727.874	18542.9
733.301	18563.9
738.722	18525.9
744.137	18477.9
749.547	18452.9
754.951	18394.9
760.349	18452.9
765.741	18477.9
771.128	18468.9
776.509	18507.9
781.885	18483.9
787.254	18408.9
792.618	18316.9
797.977	18171.9
803.33	18076.9
808.677	18041.9
814.019	17869.9
819.355	17811.9
824.686	17754.9
830.011	17688.9
835.33	17643.9
840.644	17687.9
845.952	17677.9
851.255	17763.9
856.552	17760.9
861.844	17804.9
867.13	17685.9
872.41	17633.9
877.686	17543.9
882.955	17397.9
888.219	17284.9
893.478	17076.9
898.731	16792.9
903.979	16692.9
909.221	16553.9
914.458	16484.9
919.69	16454.9
924.916	16538.9
930.136	16588.9
935.351	16567.9
940.561	16612.9
945.766	16578.9
950.965	16455.9
956.158	16378.9
961.347	16159.9
966.529	16040.9
971.707	15802.9
976.879	15607.9
982.046	15488.9
987.208	15447.9
992.364	15457.9
997.515	15511.9
1002.66	15656.9
1007.801	15817.9
1012.936	15956.9
1018.066	15965.9
1023.19	15912.9
1028.309	15960.9
1033.423	15937.9
1038.532	15835.9
1043.636	15671.9
1048.734	15508.9
1053.827	15250.9
1058.915	15110.9
1063.998	15011.9
1069.075	14947.9
1074.147	15036.9
1079.214	15044.9
1084.276	15177.9
1089.333	15221.9
1094.385	15285.9
1099.431	15331.9
1104.472	15333.9
1109.509	15267.9
1114.54	15087.9
1119.565	14872.9
1124.586	14715.9
1129.602	14514.9
1134.613	14406.9
1139.618	14321.9
1144.619	14297.9
1149.614	14289.9
1154.604	14389.9
1159.589	14406.9
1164.57	14392.9
1169.545	14425.9
1174.515	14430.9
1179.48	14351.9
1184.44	14259.9
1189.395	14190.9
1194.345	14056.9
1199.29	13978.9
1204.23	13948.9
1209.165	14026.9
1214.095	14052.9
1219.021	14149.9
1223.941	14259.9
1228.856	14321.9
1233.766	14330.9
1238.672	14415.9
1243.572	14368.9
1248.467	14244.9
1253.358	14075.9
1258.244	13914.9
1263.124	13704.9
1268	13489.9
1272.871	13323.9
1277.737	13252.9
1282.599	13150.9
1287.455	13173.9
1292.306	13191.9
1297.153	13247.9
1301.995	13296.9
1306.832	13343.9
1311.664	13389.9
1316.491	13345.9
1321.314	13271.9
1326.132	13025.9
1330.945	12760.9
1335.753	12440.9
1340.556	12126.9
1345.354	11862.9
1350.148	11665.9
1354.937	11534.9
1359.722	11527.9
1364.501	11593.9
1369.276	11735.9
1374.046	11892.9
1378.811	12101.9
1383.572	12244.9
1388.327	12353.9
1393.079	12222.9
1397.825	12132.9
1402.567	11907.9
1407.304	11741.9
1412.036	11668.9
1416.764	11584.9
1421.487	11448.9
1426.205	11400.9
1430.919	11345.9
1435.628	11339.9
1440.333	11412.9
1445.032	11435.9
1449.727	11465.9
1454.418	11413.9
1459.104	11277.9
1463.785	11118.9
1468.462	10853.9
1473.134	10634.9
1477.802	10405.9
1482.465	10269.9
1487.123	10128.9
1491.777	10058.9
1496.426	10110.9
1501.071	10207.9
1505.711	10418.9
1510.347	10586.9
1514.978	10810.9
1519.604	10980.9
1524.226	11102.9
1528.844	11093.9
1533.457	11077.9
1538.065	11034.9
1542.669	10986.9
1547.269	10841.9
1551.864	10789.9
1556.454	10733.9
1561.041	10746.9
1565.622	10750.9
1570.199	10723.9
1574.772	10820.9
1579.34	10903.9
1583.904	10936.9
1588.464	10950.9
1593.019	10940.9
1597.569	10913.9
1602.115	10838.9
1606.657	10795.9
1611.195	10713.9
1615.728	10666.9
1620.256	10572.9
1624.78	10647.9
1629.3	10624.9
1633.816	10697.9
1638.327	10750.9
1642.834	10804.9
1647.336	10822.9
1651.834	10822.9
1656.328	10807.9
1660.817	10776.9
1665.302	10666.9
1669.783	10481.9
1674.259	10231.9
1678.732	9949.9
1683.199	9613.9
1687.663	9223.9
1692.122	8978.9
1696.577	8811.9
1701.028	8803.9
1705.474	8889.9
1709.917	9001.9
1714.355	9031.9
1718.788	8990.9
1723.218	8846.9
1727.643	8631.9
1732.064	8511.9
1736.481	8300.9
1740.893	8115.9
1745.301	7903.9
1749.705	7691.9
1754.105	7447.9
1758.501	7258.9
1762.893	7055.9
1767.28	6878.9
1771.663	6748.9
1776.042	6615.9
1780.417	6515.9
1784.787	6495.9
1789.154	6595.9
1793.516	6706.9
1797.874	6843.9
1802.228	6986.9
1806.578	7003.9
1810.924	7032.9
1815.266	6962.9
1819.603	6906.9
1823.937	6749.9
1828.266	6686.9
1832.591	6575.9
1836.913	6463.9
1841.23	6408.9
1845.543	6359.9
1849.852	6324.9
1854.156	6278.9
1858.457	6298.9
1862.754	6284.9
1867.047	6290.9
1871.335	6270.9
1875.62	6294.9
1879.9	6247.9
1884.177	6175.9
1888.449	6137.9
1892.718	6065.9
1896.982	6005.9
1901.243	5970.9
1905.499	5893.9
1909.752	5850.9
1914	5891.9
1918.245	5897.9
1922.485	5961.9
1926.722	6029.9
1930.954	6083.9
1935.183	6159.9
1939.408	6229.9
1943.628	6301.9
1947.845	6270.9
1952.058	6251.9
1956.267	6216.9
1960.472	6150.9
1964.673	6034.9
1968.87	5968.9
1973.063	5859.9
1977.252	5792.9
1981.438	5725.9
1985.619	5657.9
1989.797	5598.9
1993.971	5556.9
1998.14	5560.9
2002.306	5553.9
2006.469	5557.9
2010.627	5479.9
2014.781	5460.9
2018.932	5401.9
2023.078	5325.9
2027.221	5278.9
2031.36	5190.9
2035.495	5101.9
2039.627	5024.9
2043.754	4987.9
2047.878	4956.9
2051.998	4855.9
2056.114	4863.9
2060.226	4862.9
2064.334	4866.9
2068.439	4876.9
2072.54	4925.9
2076.637	4955.9
2080.73	4965.9
2084.82	4996.9
2088.906	5029.9
2092.988	5040.9
2097.066	5017.9
2101.14	4987.9
2105.211	4960.9
2109.278	4930.9
2113.342	4926.9
2117.401	4855.9
2121.457	4864.9
2125.509	4822.9
2129.558	4807.9
2133.602	4755.9
2137.643	4751.9
2141.681	4744.9
2145.714	4721.9
2149.744	4690.9
2153.77	4646.9
2157.793	4591.9
2161.812	4538.9
2165.827	4464.9
2169.838	4378.9
2173.846	4346.9
2177.851	4232.9
2181.851	4195.9
2185.848	4142.9
2189.841	4112.9
2193.831	4055.9
2197.817	4019.9
2201.799	3959.9
2205.778	3967.9
2209.753	3961.9
2213.725	3927.9
2217.693	3929.9
2221.657	3923.9
2225.618	3932.9
2229.575	3906.9
2233.529	3865.9
2237.479	3832.9
2241.425	3772.9
2245.368	3729.9
2249.307	3658.9
2253.243	3598.9
2257.175	3584.9
2261.104	3496.9
2265.029	3508.9
2268.95	3444.9
2272.868	3446.9
2276.783	3383.9
2280.694	3362.9
2284.601	3310.9
2288.505	3267.9
2292.405	3246.9
2296.302	3217.9
2300.195	3168.9
2304.085	3141.9
2307.971	3094.9
2311.854	3035.9
2315.734	3008.9
2319.609	2952.9
2323.482	2902.9
2327.351	2883.9
2331.216	2895.9
2335.078	2863.9
2338.937	2826.9
2342.792	2827.9
2346.643	2812.9
2350.492	2820.9
2354.336	2801.9
2358.178	2811.9
2362.015	2824.9
2365.85	2829.9
2369.681	2815.9
2373.508	2831.9
2377.333	2817.9
2381.153	2833.9
2384.971	2808.9
2388.785	2782.9
2392.595	2765.9
2396.402	2733.9
2400.206	2698.9
2404.007	2719.9
2407.804	2673.9
2411.597	2642.9
2415.388	2637.9
2419.174	2625.9
2422.958	2617.9
2426.738	2556.9
2430.515	2572.9
2434.289	2540.9
2438.059	2527.9
2441.825	2496.9
2445.589	2481.9
2449.349	2451.9
2453.106	2424.9
2456.859	2378.9
2460.61	2370.9
2464.356	2321.9
2468.1	2308.9
2471.84	2276.9
2475.577	2237.9
2479.311	2246.9
2483.041	2235.9
2486.768	2215.9
2490.492	2220.9
2494.213	2215.9
2497.93	2199.9
2501.644	2192.9
2505.355	2188.9
2509.062	2172.9
2512.766	2157.9
2516.467	2154.9
2520.165	2129.9
2523.859	2131.9
2527.551	2114.9
2531.239	2098.9
2534.923	2094.9
2538.605	2048.9
2542.283	2036.9
2545.958	2052.9
2549.63	2067.9
2553.299	2059.9
2556.964	2061.9
2560.626	2026.9
2564.285	2030.9
2567.941	2021.9
2571.594	1993.9
2575.243	2018.9
2578.89	1973.9
2582.533	1972.9
2586.173	1945.9
2589.809	1943.9
2593.443	1919.9
2597.073	1886.9
2600.701	1900.9
2604.325	1865.9
2607.946	1861.9
2611.564	1869.9
2615.178	1829.9
2618.79	1820.9
2622.398	1819.9
2626.004	1790.9
2629.606	1765.9
2633.205	1749.9
2636.801	1710.9
2640.394	1705.9
2643.983	1664.9
2647.57	1650.9
2651.153	1604.9
2654.734	1569.9
2658.311	1558.9
2661.885	1527.9
2665.456	1522.9
2669.025	1490.9
2672.589	1484.9
2676.151	1466.9
2679.71	1474.9
2683.266	1422.9
2686.819	1415.9
2690.368	1387.9
2693.915	1355.9
2697.458	1330.9
2700.999	1263.9
2704.536	1261.9
2708.071	1224.9
2711.602	1208.9
2715.13	1188.9
2718.656	1157.9
2722.178	1138.9
2725.697	1127.9
2729.214	1101.9
2732.727	1088.9
2736.237	1095.9
2739.744	1072.9
2743.249	1087.9
2746.75	1093.9
2750.248	1092.9
2753.743	1135.9
2757.236	1138.9
2760.725	1144.9
2764.211	1155.9
2767.695	1146.9
2771.175	1150.9
2774.652	1142.9
2778.127	1138.9
2781.598	1139.9
2785.067	1139.9
2788.532	1118.9
2791.995	1125.9
2795.455	1121.9
2798.911	1131.9
2802.365	1129.9
2805.816	1130.9
2809.264	1127.9
2812.709	1117.9
2816.151	1129.9
2819.59	1121.9
2823.026	1119.9
2826.46	1131.9
2829.89	1130.9
2833.318	1143.9
2836.742	1132.9
2840.164	1162.9
2843.583	1155.9
2846.999	1147.9
2850.412	1182.9
2853.822	1201.9
2857.229	1195.9
2860.634	1215.9
2864.035	1243.9
2867.434	1242.9
2870.83	1296.9
2874.223	1294.9
2877.613	1325.9
2881	1358.9
2884.385	1371.9
2887.766	1353.9
2891.145	1352.9
2894.521	1344.9
2897.894	1343.9
2901.264	1364.9
2904.631	1352.9
2907.996	1331.9
2911.358	1357.9
2914.717	1358.9
2918.073	1388.9
2921.426	1392.9
2924.777	1403.9
2928.124	1412.9
2931.469	1448.9
2934.811	1478.9
2938.15	1486.9
2941.487	1491.9
2944.821	1530.9
2948.152	1509.9
2951.48	1509.9
2954.805	1501.9
2958.128	1470.9
2961.447	1471.9
2964.765	1458.9
2968.079	1473.9
2971.39	1481.9
2974.699	1498.9
2978.005	1527.9
2981.308	1549.9
2984.609	1570.9
2987.907	1595.9
2991.202	1623.9
2994.494	1661.9
2997.784	1701.9
3001.07	1730.9
3004.355	1767.9
3007.636	1800.9
3010.915	1813.9
3014.191	1834.9
3017.464	1827.9
3020.734	1861.9
3024.002	1868.9
3027.267	1874.9
3030.53	1873.9
3033.789	1915.9
3037.046	1938.9
3040.301	1955.9
3043.552	1995.9
3046.801	2039.9
3050.048	2089.9
3053.291	2131.9
3056.532	2196.9
3059.771	2247.9
3063.006	2332.9
3066.239	2402.9
3069.469	2459.9
3072.697	2528.9
3075.922	2562.9
3079.144	2633.9
3082.364	2714.9
3085.581	2779.9
3088.795	2806.9
3092.007	2886.9
3095.216	2927.9
3098.423	2988.9
3101.627	3079.9
3104.828	3153.9
3108.026	3228.9
3111.222	3287.9
3114.416	3361.9
3117.607	3404.9
3120.795	3487.9
3123.98	3582.9
3127.163	3691.9
3130.344	3782.9
3133.521	3845.9
3136.696	3930.9
3139.869	4014.9
3143.039	4080.9
3146.206	4137.9
3149.371	4179.9
3152.533	4237.9
3155.693	4253.9
3158.85	4269.9
3162.005	4320.9
3165.157	4330.9
3168.306	4325.9
3171.453	4347.9
3174.597	4344.9
3177.739	4387.9
3180.878	4326.9
3184.014	4366.9
3187.149	4367.9
3190.28	4368.9
3193.409	4366.9
3196.536	4374.9
3199.659	4378.9
3202.781	4403.9
3205.9	4401.9
3209.016	4371.9
3212.13	4373.9
3215.241	4330.9
3218.35	4284.9
3221.456	4243.9
3224.56	4185.9
3227.661	4166.9
3230.76	4113.9
3233.856	4071.9
3236.95	4014.9
3240.041	3997.9
3243.13	3971.9
3246.216	3968.9
3249.3	3940.9
3252.382	3912.9
3255.46	3892.9
3258.537	3882.9
3261.611	3860.9
3264.682	3905.9
3267.751	3883.9
3270.818	3894.9
3273.882	3882.9
3276.943	3848.9
3280.002	3810.9
3283.059	3770.9
3286.113	3763.9
3289.165	3685.9
3292.214	3637.9
3295.261	3561.9
3298.306	3524.9
3301.348	3460.9
3304.387	3411.9
3307.425	3351.9
3310.459	3311.9
3313.492	3268.9
3316.521	3188.9
3319.549	3160.9
3322.574	3155.9
3325.597	3121.9
3328.617	3095.9
3331.635	3068.9
3334.65	3044.9
3337.663	3029.9
3340.674	2999.9
3343.682	2977.9
3346.688	2992.9
3349.691	3000.9
3352.692	2947.9
3355.691	2933.9
3358.687	2912.9
3361.681	2870.9
3364.673	2865.9
3367.662	2789.9
3370.649	2757.9
3373.633	2742.9
3376.615	2695.9
3379.595	2638.9
3382.572	2621.9
3385.547	2566.9
3388.52	2521.9
3391.49	2497.9
3394.458	2440.9
3397.424	2427.9
3400.387	2389.9
3403.348	2347.9
3406.307	2351.9
3409.263	2287.9
3412.217	2287.9
3415.168	2250.9
3418.118	2254.9
3421.065	2200.9
3424.009	2180.9
3426.951	2123.9
3429.891	2088.9
3432.829	2062.9
3435.764	2013.9
3438.697	1933.9
3441.628	1896.9
3444.557	1830.9
3447.483	1784.9
3450.407	1743.9
3453.328	1695.9
3456.247	1635.9
3459.164	1572.9
3462.079	1515.9
3464.991	1472.9
3467.902	1393.9
3470.809	1333.9
3473.715	1297.9
3476.618	1267.9
3479.519	1208.9
3482.418	1184.9
3485.315	1140.9
3488.209	1104.9
3491.101	1056.9
3493.99	1023.9
3496.878	967.9
3499.763	937.9
3502.646	892.9
3505.527	877.9
3508.405	835.9
3511.281	783.9
3514.155	743.9
3517.027	688.9
3519.897	661.9
3522.764	603.9
3525.629	563.9
3528.492	515.9
3531.352	473.9
3534.211	426.9
3537.067	402.9
3539.921	356.9
3542.773	328.9
3545.622	275.9
3548.469	240.9
3551.315	219.9
3554.157	207.9
3556.998	157.9
3559.837	141.9
3562.673	105.9
3565.507	89.9
3568.339	62.9
3571.169	46.9
3573.996	26.9
3576.822	10.9
3579.645	-27.1
3582.466	-50.1
3585.285	-60.1
3588.101	-83.1
3590.916	-125.1
3593.728	-139.1
3596.538	-144.1
3599.346	-170.1
3602.152	-195.1
3604.956	-201.1
3607.757	-226.1
3610.556	-248.1
3613.354	-260.1
3616.149	-275.1
3618.942	-281.1
3621.732	-295.1
3624.521	-306.1
3627.307	-321.1
3630.092	-323.1
3632.874	-348.1
3635.654	-356.1
3638.432	-362.1
3641.208	-366.1
3643.982	-387.1
3646.753	-388.1
3649.523	-396.1
3652.29	-407.1
3655.055	-415.1
3657.818	-428.1
3660.579	-446.1
3663.338	-467.1
3666.095	-468.1
3668.849	-475.1
3671.602	-481.1
3674.352	-483.1
3677.101	-491.1
3679.847	-509.1
3682.591	-517.1
3685.333	-523.1
3688.073	-522.1
3690.811	-528.1
3693.547	-534.1
3696.281	-543.1
3699.013	-544.1
3701.742	-552.1
3704.47	-554.1
3707.195	-566.1
3709.919	-566.1
3712.64	-571.1
3715.359	-566.1
3718.076	-581.1
3720.792	-584.1
3723.505	-581.1
3726.216	-589.1
3728.925	-589.1
3731.632	-606.1
3734.336	-598.1
3737.039	-604.1
3739.74	-604.1
3742.439	-602.1
3745.136	-604.1
3747.83	-613.1
3750.523	-605.1
3753.213	-607.1
3755.902	-619.1
3758.589	-615.1
3761.273	-624.1
3763.956	-626.1
3766.636	-631.1
3769.315	-632.1
3771.991	-627.1
3774.665	-633.1
3777.338	-629.1
3780.008	-631.1
3782.677	-638.1
3785.343	-637.1
3788.007	-640.1
3790.67	-641.1
3793.33	-644.1
3795.989	-643.1
3798.645	-640.1
3801.299	-641.1
3803.952	-649.1
3806.602	-656.1
3809.251	-649.1
3811.897	-647.1
3814.542	-654.1
3817.184	-646.1
3819.825	-647.1
3822.463	-643.1
3825.1	-649.1
3827.735	-648.1
3830.367	-652.1
3832.998	-660.1
3835.627	-664.1
3838.253	-664.1
3840.878	-670.1
3843.501	-663.1
3846.122	-659.1
3848.741	-657.1
3851.358	-660.1
3853.973	-664.1
3856.586	-660.1
3859.197	-667.1
3861.806	-667.1
3864.414	-663.1
3867.019	-664.1
3869.622	-663.1
3872.224	-661.1
3874.823	-642.1
3877.421	-633.1
3880.016	-623.1
3882.61	-603.1
3885.202	-604.1
3887.792	-613.1
3890.38	-639.1
3892.966	-658.1
3895.55	-667.1
3898.132	-683.1
3900.713	-683.1
3903.291	-676.1
3905.868	-677.1
3908.442	-679.1
3911.015	-674.1
3913.586	-672.1
3916.155	-668.1
3918.722	-678.1
3921.287	-674.1
3923.85	-681.1
3926.411	-681.1
3928.971	-690.1
3931.528	-685.1
3934.084	-684.1
3936.638	-677.1
3939.19	-683.1
3941.74	-681.1
3944.288	-682.1
3946.834	-676.1
3949.378	-682.1
3951.921	-684.1
3954.462	-688.1
3957	-677.1
3959.537	-684.1
3962.072	-677.1
3964.606	-679.1
3967.137	-680.1
3969.667	-680.1
3972.194	-675.1
3974.72	-678.1
3977.244	-668.1
3979.766	-669.1
3982.286	-673.1
3984.805	-671.1
3987.321	-672.1
3989.836	-669.1
3992.349	-663.1
3994.86	-663.1
3997.369	-673.1
3999.877	-665.1
4002.382	-663.1
4004.886	-663.1
4007.388	-660.1
4009.888	-659.1
4012.386	-666.1
4014.883	-661.1
4017.377	-666.1
4019.87	-660.1
4022.361	-661.1
4024.85	-665.1
4027.338	-668.1
4029.823	-669.1
4032.307	-671.1
4034.789	-672.1
4037.269	-669.1
4039.747	-670.1
4042.224	-669.1
4044.699	-669.1
4047.172	-674.1
4049.643	-665.1
4052.112	-670.1
4054.58	-671.1
4057.046	-670.1
4059.51	-675.1
4061.972	-671.1
4064.432	-673.1
4066.891	-665.1
4069.348	-665.1
4071.803	-668.1
4074.256	-668.1
4076.708	-668.1
4079.158	-671.1
4081.606	-668.1
4084.052	-674.1
4086.497	-675.1
4088.939	-665.1
4091.38	-665.1
4093.819	-666.1
4096.257	-701.1
4098.693	-704.1
4101.127	-705.1
4103.559	-703.1
4105.989	-417.1
4108.418	-380.1
4110.845	-374.1
4113.27	-336.1
4115.694	-292.1
4118.115	-247.1
4120.535	-663.1
4122.954	-669.1
4125.37	-657.1
4127.785	-669.1
4130.198	-663.1
4132.609	-675.1
4135.019	-707.1
4137.427	-706.1
4139.833	-707.1
4142.237	-702.1
