Data from 2018-2-14_conc=6_n=6_RamanShift_03.txt Node
Date: Wed Feb 14 15:02:55 IST 2018
User: aro
Spectrometer: QEPB0276
Trigger mode: 0
Integration Time (sec): 3.000000E1
Scans to average: 1
Electric dark correction enabled: true
Nonlinearity correction enabled: false
Boxcar width: 0
XAxis mode: Raman Shifts
Number of Pixels in Spectrum: 1044
>>>>>Begin Spectral Data<<<<<
160.701	-142.2
166.742	52.8
172.777	578.8
178.805	2264.8
184.826	6251.8
190.841	13178.8
196.849	21271.8
202.85	26998.8
208.845	28928.8
214.833	28677.8
220.815	28113.8
226.789	27918.8
232.758	27724.8
238.719	27486.8
244.674	27151.8
250.623	26635.8
256.565	26128.8
262.5	25496.8
268.429	25101.8
274.351	24574.8
280.267	24280.8
286.176	23967.8
292.079	23707.8
297.975	23497.8
303.865	23336.8
309.748	23164.8
315.625	22991.8
321.495	22849.8
327.359	22756.8
333.217	22690.8
339.068	22664.8
344.912	22718.8
350.751	22655.8
356.583	22628.8
362.408	22582.8
368.227	22633.8
374.04	22613.8
379.847	22670.8
385.647	22716.8
391.44	22881.8
397.228	22897.8
403.009	22979.8
408.784	23038.8
414.553	23162.8
420.315	23151.8
426.071	23186.8
431.821	23188.8
437.565	23188.8
443.302	23156.8
449.033	23053.8
454.758	23085.8
460.477	23013.8
466.189	22892.8
471.896	22858.8
477.596	22816.8
483.29	22784.8
488.978	22741.8
494.66	22655.8
500.335	22411.8
506.005	22198.8
511.668	21987.8
517.325	21750.8
522.977	21561.8
528.622	21340.8
534.261	21261.8
539.894	21144.8
545.521	21027.8
551.141	20977.8
556.756	20861.8
562.365	20854.8
567.968	20722.8
573.565	20666.8
579.155	20540.8
584.74	20485.8
590.319	20388.8
595.892	20269.8
601.459	20227.8
607.02	20079.8
612.575	19971.8
618.124	19817.8
623.667	19782.8
629.204	19714.8
634.735	19573.8
640.261	19481.8
645.781	19411.8
651.294	19397.8
656.802	19340.8
662.304	19365.8
667.8	19311.8
673.29	19252.8
678.775	19185.8
684.254	19166.8
689.726	19007.8
695.193	18970.8
700.655	18900.8
706.11	18837.8
711.56	18726.8
717.004	18697.8
722.442	18550.8
727.874	18515.8
733.301	18394.8
738.722	18369.8
744.137	18315.8
749.547	18315.8
754.951	18265.8
760.349	18339.8
765.741	18313.8
771.128	18322.8
776.509	18334.8
781.885	18337.8
787.254	18238.8
792.618	18169.8
797.977	18049.8
803.33	17942.8
808.677	17865.8
814.019	17744.8
819.355	17664.8
824.686	17562.8
830.011	17584.8
835.33	17530.8
840.644	17523.8
845.952	17558.8
851.255	17597.8
856.552	17588.8
861.844	17579.8
867.13	17563.8
872.41	17433.8
877.686	17355.8
882.955	17194.8
888.219	17064.8
893.478	16861.8
898.731	16691.8
903.979	16511.8
909.221	16382.8
914.458	16302.8
919.69	16309.8
924.916	16393.8
930.136	16432.8
935.351	16420.8
940.561	16372.8
945.766	16392.8
950.965	16284.8
956.158	16189.8
961.347	16018.8
966.529	15793.8
971.707	15633.8
976.879	15422.8
982.046	15248.8
987.208	15199.8
992.364	15220.8
997.515	15298.8
1002.66	15452.8
1007.801	15633.8
1012.936	15733.8
1018.066	15773.8
1023.19	15747.8
1028.309	15763.8
1033.423	15672.8
1038.532	15582.8
1043.636	15463.8
1048.734	15325.8
1053.827	15109.8
1058.915	14891.8
1063.998	14833.8
1069.075	14797.8
1074.147	14807.8
1079.214	14874.8
1084.276	14965.8
1089.333	15050.8
1094.385	15099.8
1099.431	15117.8
1104.472	15142.8
1109.509	14997.8
1114.54	14855.8
1119.565	14625.8
1124.586	14442.8
1129.602	14347.8
1134.613	14247.8
1139.618	14080.8
1144.619	14134.8
1149.614	14117.8
1154.604	14108.8
1159.589	14171.8
1164.57	14160.8
1169.545	14224.8
1174.515	14174.8
1179.48	14094.8
1184.44	14036.8
1189.395	13888.8
1194.345	13779.8
1199.29	13723.8
1204.23	13769.8
1209.165	13809.8
1214.095	13862.8
1219.021	13930.8
1223.941	13990.8
1228.856	14072.8
1233.766	14137.8
1238.672	14131.8
1243.572	14144.8
1248.467	14012.8
1253.358	13876.8
1258.244	13659.8
1263.124	13421.8
1268	13275.8
1272.871	13139.8
1277.737	12982.8
1282.599	12950.8
1287.455	12950.8
1292.306	12963.8
1297.153	12974.8
1301.995	13070.8
1306.832	13085.8
1311.664	13157.8
1316.491	13079.8
1321.314	12990.8
1326.132	12716.8
1330.945	12502.8
1335.753	12170.8
1340.556	11899.8
1345.354	11619.8
1350.148	11445.8
1354.937	11371.8
1359.722	11320.8
1364.501	11386.8
1369.276	11496.8
1374.046	11666.8
1378.811	11820.8
1383.572	11966.8
1388.327	11960.8
1393.079	11945.8
1397.825	11853.8
1402.567	11666.8
1407.304	11518.8
1412.036	11330.8
1416.764	11283.8
1421.487	11225.8
1426.205	11133.8
1430.919	11125.8
1435.628	11105.8
1440.333	11130.8
1445.032	11155.8
1449.727	11193.8
1454.418	11183.8
1459.104	11037.8
1463.785	10807.8
1468.462	10634.8
1473.134	10383.8
1477.802	10167.8
1482.465	10001.8
1487.123	9856.8
1491.777	9843.8
1496.426	9888.8
1501.071	9997.8
1505.711	10152.8
1510.347	10308.8
1514.978	10516.8
1519.604	10677.8
1524.226	10807.8
1528.844	10774.8
1533.457	10776.8
1538.065	10711.8
1542.669	10630.8
1547.269	10557.8
1551.864	10518.8
1556.454	10491.8
1561.041	10429.8
1565.622	10410.8
1570.199	10483.8
1574.772	10540.8
1579.34	10597.8
1583.904	10643.8
1588.464	10668.8
1593.019	10699.8
1597.569	10638.8
1602.115	10632.8
1606.657	10531.8
1611.195	10456.8
1615.728	10422.8
1620.256	10414.8
1624.78	10416.8
1629.3	10430.8
1633.816	10423.8
1638.327	10478.8
1642.834	10514.8
1647.336	10558.8
1651.834	10614.8
1656.328	10589.8
1660.817	10535.8
1665.302	10400.8
1669.783	10217.8
1674.259	10039.8
1678.732	9741.8
1683.199	9335.8
1687.663	9064.8
1692.122	8792.8
1696.577	8643.8
1701.028	8621.8
1705.474	8651.8
1709.917	8697.8
1714.355	8809.8
1718.788	8713.8
1723.218	8550.8
1727.643	8394.8
1732.064	8260.8
1736.481	8024.8
1740.893	7843.8
1745.301	7651.8
1749.705	7464.8
1754.105	7180.8
1758.501	7047.8
1762.893	6800.8
1767.28	6710.8
1771.663	6529.8
1776.042	6405.8
1780.417	6351.8
1784.787	6352.8
1789.154	6404.8
1793.516	6533.8
1797.874	6622.8
1802.228	6785.8
1806.578	6887.8
1810.924	6823.8
1815.266	6756.8
1819.603	6671.8
1823.937	6579.8
1828.266	6457.8
1832.591	6372.8
1836.913	6252.8
1841.23	6205.8
1845.543	6136.8
1849.852	6125.8
1854.156	6117.8
1858.457	6085.8
1862.754	6070.8
1867.047	6070.8
1871.335	6039.8
1875.62	6047.8
1879.9	6045.8
1884.177	5959.8
1888.449	5930.8
1892.718	5857.8
1896.982	5832.8
1901.243	5819.8
1905.499	5701.8
1909.752	5704.8
1914	5686.8
1918.245	5755.8
1922.485	5777.8
1926.722	5835.8
1930.954	5876.8
1935.183	6000.8
1939.408	6055.8
1943.628	6070.8
1947.845	6098.8
1952.058	6050.8
1956.267	6033.8
1960.472	5940.8
1964.673	5855.8
1968.87	5773.8
1973.063	5692.8
1977.252	5573.8
1981.438	5542.8
1985.619	5467.8
1989.797	5457.8
1993.971	5427.8
1998.14	5368.8
2002.306	5392.8
2006.469	5322.8
2010.627	5281.8
2014.781	5257.8
2018.932	5238.8
2023.078	5177.8
2027.221	5123.8
2031.36	5020.8
2035.495	4967.8
2039.627	4902.8
2043.754	4801.8
2047.878	4773.8
2051.998	4760.8
2056.114	4765.8
2060.226	4730.8
2064.334	4748.8
2068.439	4763.8
2072.54	4763.8
2076.637	4833.8
2080.73	4859.8
2084.82	4884.8
2088.906	4895.8
2092.988	4869.8
2097.066	4866.8
2101.14	4852.8
2105.211	4807.8
2109.278	4810.8
2113.342	4761.8
2117.401	4730.8
2121.457	4686.8
2125.509	4679.8
2129.558	4646.8
2133.602	4610.8
2137.643	4576.8
2141.681	4555.8
2145.714	4554.8
2149.744	4494.8
2153.77	4473.8
2157.793	4424.8
2161.812	4408.8
2165.827	4356.8
2169.838	4234.8
2173.846	4162.8
2177.851	4110.8
2181.851	4043.8
2185.848	3988.8
2189.841	3959.8
2193.831	3890.8
2197.817	3878.8
2201.799	3841.8
2205.778	3826.8
2209.753	3842.8
2213.725	3807.8
2217.693	3802.8
2221.657	3799.8
2225.618	3780.8
2229.575	3758.8
2233.529	3689.8
2237.479	3698.8
2241.425	3621.8
2245.368	3577.8
2249.307	3527.8
2253.243	3482.8
2257.175	3428.8
2261.104	3379.8
2265.029	3345.8
2268.95	3310.8
2272.868	3313.8
2276.783	3245.8
2280.694	3213.8
2284.601	3206.8
2288.505	3163.8
2292.405	3137.8
2296.302	3090.8
2300.195	3046.8
2304.085	3006.8
2307.971	2964.8
2311.854	2940.8
2315.734	2888.8
2319.609	2825.8
2323.482	2789.8
2327.351	2775.8
2331.216	2769.8
2335.078	2750.8
2338.937	2710.8
2342.792	2685.8
2346.643	2704.8
2350.492	2696.8
2354.336	2677.8
2358.178	2712.8
2362.015	2718.8
2365.85	2716.8
2369.681	2709.8
2373.508	2701.8
2377.333	2702.8
2381.153	2686.8
2384.971	2679.8
2388.785	2666.8
2392.595	2635.8
2396.402	2616.8
2400.206	2600.8
2404.007	2584.8
2407.804	2541.8
2411.597	2533.8
2415.388	2507.8
2419.174	2485.8
2422.958	2456.8
2426.738	2454.8
2430.515	2441.8
2434.289	2443.8
2438.059	2416.8
2441.825	2375.8
2445.589	2360.8
2449.349	2335.8
2453.106	2301.8
2456.859	2263.8
2460.61	2270.8
2464.356	2229.8
2468.1	2184.8
2471.84	2174.8
2475.577	2140.8
2479.311	2128.8
2483.041	2142.8
2486.768	2134.8
2490.492	2119.8
2494.213	2105.8
2497.93	2104.8
2501.644	2096.8
2505.355	2070.8
2509.062	2074.8
2512.766	2055.8
2516.467	2033.8
2520.165	2046.8
2523.859	2033.8
2527.551	1992.8
2531.239	1998.8
2534.923	1972.8
2538.605	1959.8
2542.283	1973.8
2545.958	1949.8
2549.63	1954.8
2553.299	1947.8
2556.964	1943.8
2560.626	1933.8
2564.285	1921.8
2567.941	1919.8
2571.594	1906.8
2575.243	1889.8
2578.89	1865.8
2582.533	1866.8
2586.173	1836.8
2589.809	1837.8
2593.443	1835.8
2597.073	1790.8
2600.701	1771.8
2604.325	1777.8
2607.946	1774.8
2611.564	1747.8
2615.178	1759.8
2618.79	1736.8
2622.398	1705.8
2626.004	1711.8
2629.606	1671.8
2633.205	1639.8
2636.801	1633.8
2640.394	1611.8
2643.983	1571.8
2647.57	1543.8
2651.153	1541.8
2654.734	1503.8
2658.311	1472.8
2661.885	1466.8
2665.456	1419.8
2669.025	1442.8
2672.589	1400.8
2676.151	1395.8
2679.71	1376.8
2683.266	1378.8
2686.819	1334.8
2690.368	1302.8
2693.915	1279.8
2697.458	1277.8
2700.999	1218.8
2704.536	1195.8
2708.071	1173.8
2711.602	1148.8
2715.13	1106.8
2718.656	1092.8
2722.178	1066.8
2725.697	1067.8
2729.214	1061.8
2732.727	1052.8
2736.237	1028.8
2739.744	1033.8
2743.249	1039.8
2746.75	1047.8
2750.248	1064.8
2753.743	1072.8
2757.236	1099.8
2760.725	1090.8
2764.211	1107.8
2767.695	1119.8
2771.175	1103.8
2774.652	1093.8
2778.127	1096.8
2781.598	1102.8
2785.067	1082.8
2788.532	1063.8
2791.995	1073.8
2795.455	1074.8
2798.911	1066.8
2802.365	1070.8
2805.816	1074.8
2809.264	1063.8
2812.709	1080.8
2816.151	1057.8
2819.59	1077.8
2823.026	1066.8
2826.46	1050.8
2829.89	1079.8
2833.318	1079.8
2836.742	1077.8
2840.164	1087.8
2843.583	1098.8
2846.999	1100.8
2850.412	1107.8
2853.822	1154.8
2857.229	1151.8
2860.634	1178.8
2864.035	1182.8
2867.434	1220.8
2870.83	1229.8
2874.223	1255.8
2877.613	1276.8
2881	1280.8
2884.385	1308.8
2887.766	1284.8
2891.145	1295.8
2894.521	1297.8
2897.894	1292.8
2901.264	1305.8
2904.631	1295.8
2907.996	1295.8
2911.358	1297.8
2914.717	1334.8
2918.073	1333.8
2921.426	1361.8
2924.777	1357.8
2928.124	1386.8
2931.469	1420.8
2934.811	1445.8
2938.15	1461.8
2941.487	1465.8
2944.821	1475.8
2948.152	1494.8
2951.48	1479.8
2954.805	1450.8
2958.128	1438.8
2961.447	1440.8
2964.765	1429.8
2968.079	1440.8
2971.39	1448.8
2974.699	1484.8
2978.005	1464.8
2981.308	1518.8
2984.609	1553.8
2987.907	1579.8
2991.202	1611.8
2994.494	1654.8
2997.784	1673.8
3001.07	1713.8
3004.355	1727.8
3007.636	1748.8
3010.915	1799.8
3014.191	1798.8
3017.464	1791.8
3020.734	1831.8
3024.002	1824.8
3027.267	1855.8
3030.53	1857.8
3033.789	1867.8
3037.046	1886.8
3040.301	1920.8
3043.552	1978.8
3046.801	1995.8
3050.048	2024.8
3053.291	2092.8
3056.532	2137.8
3059.771	2219.8
3063.006	2280.8
3066.239	2352.8
3069.469	2429.8
3072.697	2455.8
3075.922	2521.8
3079.144	2628.8
3082.364	2662.8
3085.581	2726.8
3088.795	2778.8
3092.007	2816.8
3095.216	2893.8
3098.423	2975.8
3101.627	3045.8
3104.828	3083.8
3108.026	3167.8
3111.222	3236.8
3114.416	3303.8
3117.607	3393.8
3120.795	3461.8
3123.98	3519.8
3127.163	3628.8
3130.344	3718.8
3133.521	3796.8
3136.696	3881.8
3139.869	3939.8
3143.039	4043.8
3146.206	4091.8
3149.371	4136.8
3152.533	4155.8
3155.693	4193.8
3158.85	4223.8
3162.005	4252.8
3165.157	4257.8
3168.306	4293.8
3171.453	4280.8
3174.597	4271.8
3177.739	4326.8
3180.878	4324.8
3184.014	4342.8
3187.149	4303.8
3190.28	4348.8
3193.409	4341.8
3196.536	4347.8
3199.659	4346.8
3202.781	4370.8
3205.9	4360.8
3209.016	4366.8
3212.13	4336.8
3215.241	4312.8
3218.35	4268.8
3221.456	4220.8
3224.56	4192.8
3227.661	4164.8
3230.76	4104.8
3233.856	4066.8
3236.95	4011.8
3240.041	3993.8
3243.13	3941.8
3246.216	3949.8
3249.3	3920.8
3252.382	3921.8
3255.46	3895.8
3258.537	3863.8
3261.611	3874.8
3264.682	3882.8
3267.751	3871.8
3270.818	3864.8
3273.882	3854.8
3276.943	3822.8
3280.002	3815.8
3283.059	3806.8
3286.113	3733.8
3289.165	3696.8
3292.214	3602.8
3295.261	3560.8
3298.306	3520.8
3301.348	3474.8
3304.387	3421.8
3307.425	3345.8
3310.459	3297.8
3313.492	3258.8
3316.521	3191.8
3319.549	3171.8
3322.574	3131.8
3325.597	3129.8
3328.617	3070.8
3331.635	3100.8
3334.65	3053.8
3337.663	3038.8
3340.674	3018.8
3343.682	2989.8
3346.688	2974.8
3349.691	2995.8
3352.692	2978.8
3355.691	2957.8
3358.687	2913.8
3361.681	2906.8
3364.673	2836.8
3367.662	2789.8
3370.649	2751.8
3373.633	2722.8
3376.615	2685.8
3379.595	2622.8
3382.572	2622.8
3385.547	2577.8
3388.52	2535.8
3391.49	2500.8
3394.458	2468.8
3397.424	2442.8
3400.387	2396.8
3403.348	2373.8
3406.307	2332.8
3409.263	2298.8
3412.217	2273.8
3415.168	2274.8
3418.118	2235.8
3421.065	2209.8
3424.009	2181.8
3426.951	2143.8
3429.891	2111.8
3432.829	2060.8
3435.764	2017.8
3438.697	1978.8
3441.628	1914.8
3444.557	1884.8
3447.483	1792.8
3450.407	1739.8
3453.328	1698.8
3456.247	1629.8
3459.164	1572.8
3462.079	1523.8
3464.991	1464.8
3467.902	1430.8
3470.809	1377.8
3473.715	1298.8
3476.618	1276.8
3479.519	1211.8
3482.418	1180.8
3485.315	1156.8
3488.209	1105.8
3491.101	1061.8
3493.99	1029.8
3496.878	1003.8
3499.763	964.8
3502.646	926.8
3505.527	886.8
3508.405	839.8
3511.281	788.8
3514.155	763.8
3517.027	713.8
3519.897	678.8
3522.764	626.8
3525.629	586.8
3528.492	532.8
3531.352	495.8
3534.211	451.8
3537.067	413.8
3539.921	377.8
3542.773	327.8
3545.622	295.8
3548.469	264.8
3551.315	245.8
3554.157	217.8
3556.998	176.8
3559.837	154.8
3562.673	115.8
3565.507	99.8
3568.339	69.8
3571.169	53.8
3573.996	33.8
3576.822	12.8
3579.645	-4.2
3582.466	-32.2
3585.285	-57.2
3588.101	-82.2
3590.916	-86.2
3593.728	-127.2
3596.538	-144.2
3599.346	-143.2
3602.152	-181.2
3604.956	-193.2
3607.757	-210.2
3610.556	-240.2
3613.354	-229.2
3616.149	-269.2
3618.942	-273.2
3621.732	-284.2
3624.521	-294.2
3627.307	-305.2
3630.092	-310.2
3632.874	-320.2
3635.654	-337.2
3638.432	-352.2
3641.208	-353.2
3643.982	-369.2
3646.753	-379.2
3649.523	-382.2
3652.29	-394.2
3655.055	-401.2
3657.818	-416.2
3660.579	-428.2
3663.338	-442.2
3666.095	-437.2
3668.849	-466.2
3671.602	-464.2
3674.352	-476.2
3677.101	-489.2
3679.847	-491.2
3682.591	-504.2
3685.333	-512.2
3688.073	-504.2
3690.811	-523.2
3693.547	-518.2
3696.281	-527.2
3699.013	-531.2
3701.742	-537.2
3704.47	-536.2
3707.195	-547.2
3709.919	-553.2
3712.64	-547.2
3715.359	-559.2
3718.076	-566.2
3720.792	-561.2
3723.505	-564.2
3726.216	-572.2
3728.925	-571.2
3731.632	-580.2
3734.336	-579.2
3737.039	-581.2
3739.74	-584.2
3742.439	-591.2
3745.136	-597.2
3747.83	-594.2
3750.523	-597.2
3753.213	-602.2
3755.902	-602.2
3758.589	-601.2
3761.273	-606.2
3763.956	-616.2
3766.636	-615.2
3769.315	-617.2
3771.991	-616.2
3774.665	-616.2
3777.338	-618.2
3780.008	-621.2
3782.677	-626.2
3785.343	-615.2
3788.007	-620.2
3790.67	-621.2
3793.33	-629.2
3795.989	-623.2
3798.645	-624.2
3801.299	-624.2
3803.952	-633.2
3806.602	-636.2
3809.251	-639.2
3811.897	-637.2
3814.542	-638.2
3817.184	-635.2
3819.825	-637.2
3822.463	-634.2
3825.1	-643.2
3827.735	-637.2
3830.367	-634.2
3832.998	-642.2
3835.627	-649.2
3838.253	-646.2
3840.878	-651.2
3843.501	-645.2
3846.122	-641.2
3848.741	-645.2
3851.358	-642.2
3853.973	-647.2
3856.586	-650.2
3859.197	-647.2
3861.806	-649.2
3864.414	-643.2
3867.019	-646.2
3869.622	-648.2
3872.224	-642.2
3874.823	-626.2
3877.421	-614.2
3880.016	-599.2
3882.61	-577.2
3885.202	-571.2
3887.792	-589.2
3890.38	-618.2
3892.966	-636.2
3895.55	-653.2
3898.132	-663.2
3900.713	-660.2
3903.291	-658.2
3905.868	-663.2
3908.442	-659.2
3911.015	-664.2
3913.586	-660.2
3916.155	-654.2
3918.722	-662.2
3921.287	-661.2
3923.85	-663.2
3926.411	-662.2
3928.971	-670.2
3931.528	-664.2
3934.084	-662.2
3936.638	-664.2
3939.19	-664.2
3941.74	-667.2
3944.288	-667.2
3946.834	-661.2
3949.378	-671.2
3951.921	-670.2
3954.462	-671.2
3957	-661.2
3959.537	-667.2
3962.072	-661.2
3964.606	-665.2
3967.137	-666.2
3969.667	-666.2
3972.194	-658.2
3974.72	-659.2
3977.244	-655.2
3979.766	-649.2
3982.286	-652.2
3984.805	-649.2
3987.321	-649.2
3989.836	-657.2
3992.349	-643.2
3994.86	-644.2
3997.369	-656.2
3999.877	-649.2
4002.382	-648.2
4004.886	-648.2
4007.388	-645.2
4009.888	-649.2
4012.386	-650.2
4014.883	-650.2
4017.377	-652.2
4019.87	-654.2
4022.361	-648.2
4024.85	-650.2
4027.338	-649.2
4029.823	-650.2
4032.307	-655.2
4034.789	-648.2
4037.269	-646.2
4039.747	-653.2
4042.224	-650.2
4044.699	-652.2
4047.172	-653.2
4049.643	-653.2
4052.112	-654.2
4054.58	-656.2
4057.046	-658.2
4059.51	-656.2
4061.972	-659.2
4064.432	-658.2
4066.891	-656.2
4069.348	-654.2
4071.803	-653.2
4074.256	-654.2
4076.708	-649.2
4079.158	-652.2
4081.606	-659.2
4084.052	-661.2
4086.497	-654.2
4088.939	-647.2
4091.38	-653.2
4093.819	-645.2
4096.257	-685.2
4098.693	-686.2
4101.127	-690.2
4103.559	-688.2
4105.989	-396.2
4108.418	-368.2
4110.845	-345.2
4113.27	-327.2
4115.694	-282.2
4118.115	-241.2
4120.535	-647.2
4122.954	-652.2
4125.37	-643.2
4127.785	-652.2
4130.198	-653.2
4132.609	-656.2
4135.019	-687.2
4137.427	-689.2
4139.833	-691.2
4142.237	-686.2
