Data from 2018-2-14_conc=6_n=4_RamanShift_01.txt Node
Date: Wed Feb 14 14:52:55 IST 2018
User: aro
Spectrometer: QEPB0276
Trigger mode: 0
Integration Time (sec): 3.000000E1
Scans to average: 1
Electric dark correction enabled: true
Nonlinearity correction enabled: false
Boxcar width: 0
XAxis mode: Raman Shifts
Number of Pixels in Spectrum: 1044
>>>>>Begin Spectral Data<<<<<
160.701	-136.8
166.742	51.2
172.777	603.2
178.805	2278.2
184.826	6399.2
190.841	13413.2
196.849	21639.2
202.85	27473.2
208.845	29551.2
214.833	29214.2
220.815	28679.2
226.789	28525.2
232.758	28287.2
238.719	28097.2
244.674	27780.2
250.623	27275.2
256.565	26670.2
262.5	26170.2
268.429	25661.2
274.351	25231.2
280.267	24952.2
286.176	24663.2
292.079	24359.2
297.975	24203.2
303.865	23932.2
309.748	23746.2
315.625	23602.2
321.495	23435.2
327.359	23399.2
333.217	23334.2
339.068	23290.2
344.912	23267.2
350.751	23239.2
356.583	23248.2
362.408	23235.2
368.227	23239.2
374.04	23239.2
379.847	23294.2
385.647	23378.2
391.44	23478.2
397.228	23506.2
403.009	23653.2
408.784	23743.2
414.553	23761.2
420.315	23874.2
426.071	23900.2
431.821	23923.2
437.565	23860.2
443.302	23811.2
449.033	23755.2
454.758	23708.2
460.477	23646.2
466.189	23638.2
471.896	23604.2
477.596	23536.2
483.29	23466.2
488.978	23379.2
494.66	23374.2
500.335	23149.2
506.005	22902.2
511.668	22618.2
517.325	22375.2
522.977	22186.2
528.622	21971.2
534.261	21848.2
539.894	21759.2
545.521	21680.2
551.141	21555.2
556.756	21561.2
562.365	21386.2
567.968	21343.2
573.565	21211.2
579.155	21207.2
584.74	21128.2
590.319	21021.2
595.892	20905.2
601.459	20862.2
607.02	20719.2
612.575	20643.2
618.124	20485.2
623.667	20436.2
629.204	20331.2
634.735	20229.2
640.261	20136.2
645.781	20051.2
651.294	20030.2
656.802	20030.2
662.304	19989.2
667.8	19924.2
673.29	19873.2
678.775	19840.2
684.254	19781.2
689.726	19684.2
695.193	19603.2
700.655	19528.2
706.11	19440.2
711.56	19381.2
717.004	19271.2
722.442	19134.2
727.874	19076.2
733.301	19054.2
738.722	18924.2
744.137	18969.2
749.547	18890.2
754.951	18953.2
760.349	18962.2
765.741	18955.2
771.128	18949.2
776.509	18923.2
781.885	18953.2
787.254	18899.2
792.618	18797.2
797.977	18702.2
803.33	18580.2
808.677	18538.2
814.019	18414.2
819.355	18309.2
824.686	18236.2
830.011	18192.2
835.33	18155.2
840.644	18184.2
845.952	18217.2
851.255	18278.2
856.552	18226.2
861.844	18209.2
867.13	18203.2
872.41	18119.2
877.686	18002.2
882.955	17897.2
888.219	17742.2
893.478	17610.2
898.731	17330.2
903.979	17165.2
909.221	17010.2
914.458	16973.2
919.69	16960.2
924.916	17005.2
930.136	17036.2
935.351	17085.2
940.561	17051.2
945.766	17056.2
950.965	16976.2
956.158	16836.2
961.347	16611.2
966.529	16471.2
971.707	16269.2
976.879	16060.2
982.046	15898.2
987.208	15829.2
992.364	15823.2
997.515	15975.2
1002.66	16131.2
1007.801	16264.2
1012.936	16418.2
1018.066	16442.2
1023.19	16405.2
1028.309	16382.2
1033.423	16354.2
1038.532	16256.2
1043.636	16080.2
1048.734	15943.2
1053.827	15688.2
1058.915	15587.2
1063.998	15449.2
1069.075	15424.2
1074.147	15461.2
1079.214	15475.2
1084.276	15551.2
1089.333	15716.2
1094.385	15749.2
1099.431	15778.2
1104.472	15788.2
1109.509	15701.2
1114.54	15467.2
1119.565	15358.2
1124.586	15131.2
1129.602	15007.2
1134.613	14889.2
1139.618	14793.2
1144.619	14731.2
1149.614	14773.2
1154.604	14746.2
1159.589	14776.2
1164.57	14838.2
1169.545	14866.2
1174.515	14848.2
1179.48	14801.2
1184.44	14683.2
1189.395	14545.2
1194.345	14416.2
1199.29	14379.2
1204.23	14424.2
1209.165	14467.2
1214.095	14478.2
1219.021	14589.2
1223.941	14623.2
1228.856	14789.2
1233.766	14810.2
1238.672	14824.2
1243.572	14786.2
1248.467	14682.2
1253.358	14555.2
1258.244	14349.2
1263.124	14146.2
1268	13902.2
1272.871	13753.2
1277.737	13639.2
1282.599	13605.2
1287.455	13559.2
1292.306	13629.2
1297.153	13590.2
1301.995	13704.2
1306.832	13767.2
1311.664	13774.2
1316.491	13710.2
1321.314	13633.2
1326.132	13433.2
1330.945	13162.2
1335.753	12827.2
1340.556	12466.2
1345.354	12224.2
1350.148	12017.2
1354.937	11873.2
1359.722	11934.2
1364.501	11828.2
1369.276	12065.2
1374.046	12205.2
1378.811	12410.2
1383.572	12564.2
1388.327	12671.2
1393.079	12611.2
1397.825	12402.2
1402.567	12291.2
1407.304	12125.2
1412.036	11989.2
1416.764	11911.2
1421.487	11811.2
1426.205	11723.2
1430.919	11692.2
1435.628	11737.2
1440.333	11715.2
1445.032	11746.2
1449.727	11774.2
1454.418	11795.2
1459.104	11643.2
1463.785	11446.2
1468.462	11213.2
1473.134	10965.2
1477.802	10709.2
1482.465	10513.2
1487.123	10399.2
1491.777	10360.2
1496.426	10361.2
1501.071	10559.2
1505.711	10677.2
1510.347	10855.2
1514.978	11071.2
1519.604	11209.2
1524.226	11354.2
1528.844	11340.2
1533.457	11355.2
1538.065	11318.2
1542.669	11242.2
1547.269	11176.2
1551.864	11103.2
1556.454	11024.2
1561.041	11043.2
1565.622	11082.2
1570.199	11064.2
1574.772	11110.2
1579.34	11187.2
1583.904	11214.2
1588.464	11262.2
1593.019	11291.2
1597.569	11265.2
1602.115	11187.2
1606.657	11162.2
1611.195	11039.2
1615.728	10941.2
1620.256	10916.2
1624.78	10924.2
1629.3	10976.2
1633.816	10962.2
1638.327	10970.2
1642.834	11030.2
1647.336	11098.2
1651.834	11130.2
1656.328	11140.2
1660.817	11040.2
1665.302	10945.2
1669.783	10775.2
1674.259	10528.2
1678.732	10201.2
1683.199	9864.2
1687.663	9561.2
1692.122	9241.2
1696.577	9032.2
1701.028	8999.2
1705.474	9073.2
1709.917	9192.2
1714.355	9236.2
1718.788	9176.2
1723.218	9106.2
1727.643	8914.2
1732.064	8720.2
1736.481	8552.2
1740.893	8336.2
1745.301	8118.2
1749.705	7911.2
1754.105	7683.2
1758.501	7456.2
1762.893	7250.2
1767.28	7093.2
1771.663	6904.2
1776.042	6809.2
1780.417	6717.2
1784.787	6691.2
1789.154	6721.2
1793.516	6844.2
1797.874	7005.2
1802.228	7143.2
1806.578	7210.2
1810.924	7217.2
1815.266	7145.2
1819.603	7104.2
1823.937	6984.2
1828.266	6860.2
1832.591	6732.2
1836.913	6668.2
1841.23	6578.2
1845.543	6560.2
1849.852	6500.2
1854.156	6495.2
1858.457	6464.2
1862.754	6479.2
1867.047	6458.2
1871.335	6434.2
1875.62	6415.2
1879.9	6405.2
1884.177	6401.2
1888.449	6323.2
1892.718	6232.2
1896.982	6172.2
1901.243	6123.2
1905.499	6068.2
1909.752	6040.2
1914	6028.2
1918.245	6065.2
1922.485	6081.2
1926.722	6137.2
1930.954	6252.2
1935.183	6297.2
1939.408	6374.2
1943.628	6459.2
1947.845	6418.2
1952.058	6409.2
1956.267	6345.2
1960.472	6269.2
1964.673	6189.2
1968.87	6094.2
1973.063	6010.2
1977.252	5946.2
1981.438	5871.2
1985.619	5843.2
1989.797	5785.2
1993.971	5739.2
1998.14	5708.2
2002.306	5682.2
2006.469	5661.2
2010.627	5626.2
2014.781	5598.2
2018.932	5563.2
2023.078	5498.2
2027.221	5423.2
2031.36	5359.2
2035.495	5273.2
2039.627	5208.2
2043.754	5154.2
2047.878	5113.2
2051.998	5067.2
2056.114	5022.2
2060.226	5042.2
2064.334	4999.2
2068.439	5056.2
2072.54	5061.2
2076.637	5109.2
2080.73	5113.2
2084.82	5144.2
2088.906	5181.2
2092.988	5182.2
2097.066	5189.2
2101.14	5130.2
2105.211	5111.2
2109.278	5104.2
2113.342	5051.2
2117.401	5004.2
2121.457	4994.2
2125.509	4971.2
2129.558	4957.2
2133.602	4945.2
2137.643	4887.2
2141.681	4897.2
2145.714	4863.2
2149.744	4827.2
2153.77	4777.2
2157.793	4730.2
2161.812	4661.2
2165.827	4607.2
2169.838	4542.2
2173.846	4475.2
2177.851	4378.2
2181.851	4346.2
2185.848	4290.2
2189.841	4261.2
2193.831	4171.2
2197.817	4149.2
2201.799	4127.2
2205.778	4137.2
2209.753	4102.2
2213.725	4103.2
2217.693	4113.2
2221.657	4081.2
2225.618	4067.2
2229.575	4038.2
2233.529	4015.2
2237.479	3972.2
2241.425	3884.2
2245.368	3863.2
2249.307	3798.2
2253.243	3767.2
2257.175	3720.2
2261.104	3647.2
2265.029	3642.2
2268.95	3571.2
2272.868	3550.2
2276.783	3492.2
2280.694	3456.2
2284.601	3415.2
2288.505	3392.2
2292.405	3374.2
2296.302	3342.2
2300.195	3308.2
2304.085	3278.2
2307.971	3216.2
2311.854	3157.2
2315.734	3145.2
2319.609	3090.2
2323.482	3051.2
2327.351	3019.2
2331.216	2998.2
2335.078	2977.2
2338.937	2974.2
2342.792	2934.2
2346.643	2943.2
2350.492	2935.2
2354.336	2937.2
2358.178	2958.2
2362.015	2957.2
2365.85	2965.2
2369.681	2949.2
2373.508	2946.2
2377.333	2963.2
2381.153	2932.2
2384.971	2907.2
2388.785	2939.2
2392.595	2864.2
2396.402	2852.2
2400.206	2836.2
2404.007	2800.2
2407.804	2767.2
2411.597	2782.2
2415.388	2757.2
2419.174	2765.2
2422.958	2701.2
2426.738	2703.2
2430.515	2683.2
2434.289	2654.2
2438.059	2654.2
2441.825	2641.2
2445.589	2564.2
2449.349	2551.2
2453.106	2527.2
2456.859	2512.2
2460.61	2474.2
2464.356	2445.2
2468.1	2400.2
2471.84	2390.2
2475.577	2349.2
2479.311	2359.2
2483.041	2336.2
2486.768	2337.2
2490.492	2328.2
2494.213	2317.2
2497.93	2293.2
2501.644	2279.2
2505.355	2275.2
2509.062	2279.2
2512.766	2257.2
2516.467	2247.2
2520.165	2222.2
2523.859	2227.2
2527.551	2187.2
2531.239	2180.2
2534.923	2162.2
2538.605	2142.2
2542.283	2160.2
2545.958	2180.2
2549.63	2153.2
2553.299	2141.2
2556.964	2146.2
2560.626	2134.2
2564.285	2145.2
2567.941	2109.2
2571.594	2106.2
2575.243	2073.2
2578.89	2081.2
2582.533	2054.2
2586.173	2047.2
2589.809	2043.2
2593.443	2022.2
2597.073	2021.2
2600.701	1972.2
2604.325	1949.2
2607.946	1976.2
2611.564	1933.2
2615.178	1949.2
2618.79	1911.2
2622.398	1898.2
2626.004	1891.2
2629.606	1868.2
2633.205	1815.2
2636.801	1809.2
2640.394	1796.2
2643.983	1753.2
2647.57	1738.2
2651.153	1697.2
2654.734	1671.2
2658.311	1646.2
2661.885	1600.2
2665.456	1613.2
2669.025	1586.2
2672.589	1580.2
2676.151	1554.2
2679.71	1540.2
2683.266	1511.2
2686.819	1489.2
2690.368	1478.2
2693.915	1442.2
2697.458	1386.2
2700.999	1385.2
2704.536	1342.2
2708.071	1314.2
2711.602	1284.2
2715.13	1247.2
2718.656	1237.2
2722.178	1208.2
2725.697	1187.2
2729.214	1187.2
2732.727	1151.2
2736.237	1158.2
2739.744	1133.2
2743.249	1145.2
2746.75	1166.2
2750.248	1161.2
2753.743	1186.2
2757.236	1194.2
2760.725	1210.2
2764.211	1219.2
2767.695	1215.2
2771.175	1216.2
2774.652	1217.2
2778.127	1205.2
2781.598	1218.2
2785.067	1209.2
2788.532	1202.2
2791.995	1186.2
2795.455	1192.2
2798.911	1176.2
2802.365	1203.2
2805.816	1190.2
2809.264	1183.2
2812.709	1191.2
2816.151	1202.2
2819.59	1193.2
2823.026	1187.2
2826.46	1186.2
2829.89	1204.2
2833.318	1195.2
2836.742	1195.2
2840.164	1217.2
2843.583	1218.2
2846.999	1219.2
2850.412	1242.2
2853.822	1273.2
2857.229	1259.2
2860.634	1292.2
2864.035	1304.2
2867.434	1334.2
2870.83	1357.2
2874.223	1374.2
2877.613	1404.2
2881	1416.2
2884.385	1419.2
2887.766	1439.2
2891.145	1413.2
2894.521	1412.2
2897.894	1407.2
2901.264	1417.2
2904.631	1436.2
2907.996	1413.2
2911.358	1409.2
2914.717	1423.2
2918.073	1440.2
2921.426	1456.2
2924.777	1483.2
2928.124	1497.2
2931.469	1495.2
2934.811	1546.2
2938.15	1563.2
2941.487	1592.2
2944.821	1579.2
2948.152	1591.2
2951.48	1563.2
2954.805	1547.2
2958.128	1564.2
2961.447	1520.2
2964.765	1496.2
2968.079	1530.2
2971.39	1531.2
2974.699	1556.2
2978.005	1605.2
2981.308	1637.2
2984.609	1628.2
2987.907	1670.2
2991.202	1693.2
2994.494	1731.2
2997.784	1761.2
3001.07	1813.2
3004.355	1833.2
3007.636	1855.2
3010.915	1887.2
3014.191	1880.2
3017.464	1879.2
3020.734	1923.2
3024.002	1918.2
3027.267	1942.2
3030.53	1944.2
3033.789	1978.2
3037.046	1995.2
3040.301	2012.2
3043.552	2056.2
3046.801	2089.2
3050.048	2166.2
3053.291	2197.2
3056.532	2270.2
3059.771	2344.2
3063.006	2392.2
3066.239	2445.2
3069.469	2543.2
3072.697	2599.2
3075.922	2642.2
3079.144	2696.2
3082.364	2797.2
3085.581	2834.2
3088.795	2896.2
3092.007	2971.2
3095.216	3030.2
3098.423	3066.2
3101.627	3157.2
3104.828	3220.2
3108.026	3292.2
3111.222	3348.2
3114.416	3429.2
3117.607	3504.2
3120.795	3602.2
3123.98	3665.2
3127.163	3759.2
3130.344	3842.2
3133.521	3942.2
3136.696	4043.2
3139.869	4122.2
3143.039	4178.2
3146.206	4236.2
3149.371	4277.2
3152.533	4353.2
3155.693	4356.2
3158.85	4380.2
3162.005	4390.2
3165.157	4414.2
3168.306	4414.2
3171.453	4419.2
3174.597	4413.2
3177.739	4471.2
3180.878	4473.2
3184.014	4687.2
3187.149	4524.2
3190.28	4461.2
3193.409	4486.2
3196.536	4491.2
3199.659	4511.2
3202.781	4498.2
3205.9	4497.2
3209.016	4511.2
3212.13	4456.2
3215.241	4458.2
3218.35	4388.2
3221.456	4379.2
3224.56	4323.2
3227.661	4272.2
3230.76	4225.2
3233.856	4186.2
3236.95	4125.2
3240.041	4097.2
3243.13	4093.2
3246.216	4058.2
3249.3	4029.2
3252.382	3995.2
3255.46	4034.2
3258.537	3987.2
3261.611	4005.2
3264.682	4014.2
3267.751	4013.2
3270.818	3984.2
3273.882	3953.2
3276.943	3943.2
3280.002	3932.2
3283.059	3882.2
3286.113	3845.2
3289.165	3778.2
3292.214	3745.2
3295.261	3661.2
3298.306	3604.2
3301.348	3542.2
3304.387	3485.2
3307.425	3422.2
3310.459	3385.2
3313.492	3344.2
3316.521	3296.2
3319.549	3258.2
3322.574	3248.2
3325.597	3210.2
3328.617	3161.2
3331.635	3147.2
3334.65	3140.2
3337.663	3117.2
3340.674	3090.2
3343.682	3113.2
3346.688	3074.2
3349.691	3075.2
3352.692	3043.2
3355.691	3008.2
3358.687	2987.2
3361.681	2964.2
3364.673	2927.2
3367.662	2896.2
3370.649	2833.2
3373.633	2812.2
3376.615	2763.2
3379.595	2725.2
3382.572	2707.2
3385.547	2653.2
3388.52	2608.2
3391.49	2571.2
3394.458	2556.2
3397.424	2502.2
3400.387	2459.2
3403.348	2453.2
3406.307	2410.2
3409.263	2382.2
3412.217	2382.2
3415.168	2333.2
3418.118	2276.2
3421.065	2241.2
3424.009	2224.2
3426.951	2220.2
3429.891	2176.2
3432.829	2104.2
3435.764	2083.2
3438.697	2044.2
3441.628	1966.2
3444.557	1878.2
3447.483	1848.2
3450.407	1804.2
3453.328	1726.2
3456.247	1681.2
3459.164	1613.2
3462.079	1561.2
3464.991	1515.2
3467.902	1452.2
3470.809	1401.2
3473.715	1365.2
3476.618	1317.2
3479.519	1253.2
3482.418	1216.2
3485.315	1173.2
3488.209	1159.2
3491.101	1114.2
3493.99	1060.2
3496.878	1024.2
3499.763	991.2
3502.646	961.2
3505.527	924.2
3508.405	877.2
3511.281	847.2
3514.155	776.2
3517.027	736.2
3519.897	690.2
3522.764	649.2
3525.629	601.2
3528.492	542.2
3531.352	509.2
3534.211	473.2
3537.067	429.2
3539.921	403.2
3542.773	348.2
3545.622	310.2
3548.469	288.2
3551.315	244.2
3554.157	230.2
3556.998	195.2
3559.837	165.2
3562.673	128.2
3565.507	104.2
3568.339	92.2
3571.169	61.2
3573.996	47.2
3576.822	25.2
3579.645	6.2
3582.466	-14.8
3585.285	-37.8
3588.101	-67.8
3590.916	-80.8
3593.728	-110.8
3596.538	-127.8
3599.346	-157.8
3602.152	-173.8
3604.956	-179.8
3607.757	-212.8
3610.556	-224.8
3613.354	-242.8
3616.149	-251.8
3618.942	-270.8
3621.732	-282.8
3624.521	-295.8
3627.307	-302.8
3630.092	-314.8
3632.874	-323.8
3635.654	-333.8
3638.432	-339.8
3641.208	-358.8
3643.982	-367.8
3646.753	-372.8
3649.523	-392.8
3652.29	-393.8
3655.055	-396.8
3657.818	-413.8
3660.579	-426.8
3663.338	-445.8
3666.095	-451.8
3668.849	-465.8
3671.602	-465.8
3674.352	-479.8
3677.101	-482.8
3679.847	-499.8
3682.591	-507.8
3685.333	-505.8
3688.073	-520.8
3690.811	-523.8
3693.547	-529.8
3696.281	-530.8
3699.013	-529.8
3701.742	-543.8
3704.47	-540.8
3707.195	-558.8
3709.919	-549.8
3712.64	-559.8
3715.359	-560.8
3718.076	-565.8
3720.792	-570.8
3723.505	-567.8
3726.216	-574.8
3728.925	-583.8
3731.632	-584.8
3734.336	-586.8
3737.039	-592.8
3739.74	-590.8
3742.439	-599.8
3745.136	-595.8
3747.83	-603.8
3750.523	-609.8
3753.213	-608.8
3755.902	-609.8
3758.589	-609.8
3761.273	-610.8
3763.956	-618.8
3766.636	-615.8
3769.315	-612.8
3771.991	-621.8
3774.665	-620.8
3777.338	-623.8
3780.008	-625.8
3782.677	-626.8
3785.343	-626.8
3788.007	-631.8
3790.67	-631.8
3793.33	-640.8
3795.989	-636.8
3798.645	-626.8
3801.299	-636.8
3803.952	-638.8
3806.602	-646.8
3809.251	-646.8
3811.897	-642.8
3814.542	-651.8
3817.184	-640.8
3819.825	-638.8
3822.463	-647.8
3825.1	-650.8
3827.735	-642.8
3830.367	-647.8
3832.998	-650.8
3835.627	-648.8
3838.253	-648.8
3840.878	-655.8
3843.501	-650.8
3846.122	-649.8
3848.741	-648.8
3851.358	-644.8
3853.973	-654.8
3856.586	-657.8
3859.197	-654.8
3861.806	-657.8
3864.414	-648.8
3867.019	-652.8
3869.622	-651.8
3872.224	-650.8
3874.823	-640.8
3877.421	-618.8
3880.016	-605.8
3882.61	-572.8
3885.202	-566.8
3887.792	-585.8
3890.38	-624.8
3892.966	-642.8
3895.55	-654.8
3898.132	-665.8
3900.713	-669.8
3903.291	-666.8
3905.868	-670.8
3908.442	-670.8
3911.015	-675.8
3913.586	-666.8
3916.155	-664.8
3918.722	-676.8
3921.287	-670.8
3923.85	-674.8
3926.411	-670.8
3928.971	-678.8
3931.528	-669.8
3934.084	-671.8
3936.638	-670.8
3939.19	-674.8
3941.74	-667.8
3944.288	-677.8
3946.834	-667.8
3949.378	-672.8
3951.921	-675.8
3954.462	-676.8
3957	-672.8
3959.537	-677.8
3962.072	-669.8
3964.606	-673.8
3967.137	-673.8
3969.667	-674.8
3972.194	-672.8
3974.72	-674.8
3977.244	-659.8
3979.766	-663.8
3982.286	-664.8
3984.805	-658.8
3987.321	-661.8
3989.836	-661.8
3992.349	-653.8
3994.86	-656.8
3997.369	-671.8
3999.877	-650.8
4002.382	-658.8
4004.886	-654.8
4007.388	-652.8
4009.888	-655.8
4012.386	-662.8
4014.883	-657.8
4017.377	-655.8
4019.87	-658.8
4022.361	-657.8
4024.85	-662.8
4027.338	-660.8
4029.823	-658.8
4032.307	-664.8
4034.789	-658.8
4037.269	-657.8
4039.747	-660.8
4042.224	-664.8
4044.699	-661.8
4047.172	-659.8
4049.643	-655.8
4052.112	-664.8
4054.58	-664.8
4057.046	-667.8
4059.51	-666.8
4061.972	-662.8
4064.432	-665.8
4066.891	-657.8
4069.348	-659.8
4071.803	-655.8
4074.256	-659.8
4076.708	-657.8
4079.158	-660.8
4081.606	-660.8
4084.052	-664.8
4086.497	-661.8
4088.939	-657.8
4091.38	-658.8
4093.819	-658.8
4096.257	-697.8
4098.693	-698.8
4101.127	-703.8
4103.559	-694.8
4105.989	-394.8
4108.418	-376.8
4110.845	-350.8
4113.27	-316.8
4115.694	-279.8
4118.115	-243.8
4120.535	-657.8
4122.954	-664.8
4125.37	-653.8
4127.785	-664.8
4130.198	-659.8
4132.609	-666.8
4135.019	-700.8
4137.427	-700.8
4139.833	-699.8
4142.237	-694.8
