Data from 2018-2-14_conc=4_n=3_RamanShift_03.txt Node
Date: Wed Feb 14 13:33:25 IST 2018
User: aro
Spectrometer: QEPB0276
Trigger mode: 0
Integration Time (sec): 3.000000E1
Scans to average: 1
Electric dark correction enabled: true
Nonlinearity correction enabled: false
Boxcar width: 0
XAxis mode: Raman Shifts
Number of Pixels in Spectrum: 1044
>>>>>Begin Spectral Data<<<<<
160.701	-172.2
166.742	41.8
172.777	661.8
178.805	2487.8
184.826	6923.8
190.841	14435.8
196.849	23145.8
202.85	29200.8
208.845	31277.8
214.833	30908.8
220.815	30449.8
226.789	30231.8
232.758	30044.8
238.719	29817.8
244.674	29370.8
250.623	28935.8
256.565	28308.8
262.5	27770.8
268.429	27255.8
274.351	26813.8
280.267	26535.8
286.176	26260.8
292.079	25878.8
297.975	25688.8
303.865	25473.8
309.748	25278.8
315.625	25121.8
321.495	25018.8
327.359	24907.8
333.217	24798.8
339.068	24808.8
344.912	24797.8
350.751	24695.8
356.583	24745.8
362.408	24652.8
368.227	24725.8
374.04	24720.8
379.847	24811.8
385.647	24877.8
391.44	24926.8
397.228	25113.8
403.009	25156.8
408.784	25228.8
414.553	25356.8
420.315	25392.8
426.071	25346.8
431.821	25454.8
437.565	25358.8
443.302	25296.8
449.033	25313.8
454.758	25185.8
460.477	25140.8
466.189	25107.8
471.896	25066.8
477.596	24957.8
483.29	24997.8
488.978	24891.8
494.66	24776.8
500.335	24667.8
506.005	24435.8
511.668	24130.8
517.325	23807.8
522.977	23556.8
528.622	23462.8
534.261	23315.8
539.894	23177.8
545.521	23100.8
551.141	23002.8
556.756	22886.8
562.365	22758.8
567.968	22708.8
573.565	22666.8
579.155	22545.8
584.74	22431.8
590.319	22419.8
595.892	22296.8
601.459	22210.8
607.02	22083.8
612.575	21918.8
618.124	21846.8
623.667	21721.8
629.204	21556.8
634.735	21454.8
640.261	21408.8
645.781	21368.8
651.294	21348.8
656.802	21297.8
662.304	21215.8
667.8	21208.8
673.29	21165.8
678.775	21201.8
684.254	21058.8
689.726	20972.8
695.193	20816.8
700.655	20825.8
706.11	20710.8
711.56	20657.8
717.004	20530.8
722.442	20425.8
727.874	20300.8
733.301	20250.8
738.722	20218.8
744.137	20105.8
749.547	20176.8
754.951	20167.8
760.349	20170.8
765.741	20159.8
771.128	20243.8
776.509	20113.8
781.885	20191.8
787.254	20100.8
792.618	20136.8
797.977	19905.8
803.33	19774.8
808.677	19689.8
814.019	19571.8
819.355	19543.8
824.686	19420.8
830.011	19378.8
835.33	19376.8
840.644	19394.8
845.952	19343.8
851.255	19411.8
856.552	19449.8
861.844	19395.8
867.13	19319.8
872.41	19323.8
877.686	19128.8
882.955	19027.8
888.219	18870.8
893.478	18695.8
898.731	18466.8
903.979	18243.8
909.221	18078.8
914.458	18030.8
919.69	18041.8
924.916	18104.8
930.136	18138.8
935.351	18160.8
940.561	18166.8
945.766	18081.8
950.965	18019.8
956.158	17863.8
961.347	17745.8
966.529	17516.8
971.707	17264.8
976.879	17061.8
982.046	16941.8
987.208	16868.8
992.364	16872.8
997.515	16997.8
1002.66	17153.8
1007.801	17377.8
1012.936	17477.8
1018.066	17472.8
1023.19	17445.8
1028.309	17414.8
1033.423	17373.8
1038.532	17337.8
1043.636	17102.8
1048.734	16930.8
1053.827	16735.8
1058.915	16542.8
1063.998	16412.8
1069.075	16384.8
1074.147	16397.8
1079.214	16457.8
1084.276	16541.8
1089.333	16606.8
1094.385	16750.8
1099.431	16788.8
1104.472	16827.8
1109.509	16689.8
1114.54	16475.8
1119.565	16317.8
1124.586	16039.8
1129.602	15872.8
1134.613	15777.8
1139.618	15702.8
1144.619	15721.8
1149.614	15678.8
1154.604	15659.8
1159.589	15756.8
1164.57	15772.8
1169.545	15788.8
1174.515	15833.8
1179.48	15685.8
1184.44	15565.8
1189.395	15483.8
1194.345	15364.8
1199.29	15282.8
1204.23	15275.8
1209.165	15342.8
1214.095	15386.8
1219.021	15509.8
1223.941	15561.8
1228.856	15685.8
1233.766	15744.8
1238.672	15727.8
1243.572	15671.8
1248.467	15606.8
1253.358	15429.8
1258.244	15247.8
1263.124	15009.8
1268	14793.8
1272.871	14558.8
1277.737	14510.8
1282.599	14373.8
1287.455	14376.8
1292.306	14381.8
1297.153	14413.8
1301.995	14554.8
1306.832	14642.8
1311.664	14580.8
1316.491	14589.8
1321.314	14463.8
1326.132	14200.8
1330.945	13929.8
1335.753	13530.8
1340.556	13202.8
1345.354	12900.8
1350.148	12694.8
1354.937	12627.8
1359.722	12635.8
1364.501	12762.8
1369.276	12884.8
1374.046	13075.8
1378.811	13283.8
1383.572	13383.8
1388.327	13474.8
1393.079	13384.8
1397.825	13213.8
1402.567	12998.8
1407.304	12839.8
1412.036	12704.8
1416.764	12581.8
1421.487	12503.8
1426.205	12417.8
1430.919	12423.8
1435.628	12469.8
1440.333	12424.8
1445.032	12423.8
1449.727	12481.8
1454.418	12438.8
1459.104	12338.8
1463.785	12068.8
1468.462	11832.8
1473.134	11604.8
1477.802	11359.8
1482.465	11149.8
1487.123	11048.8
1491.777	11061.8
1496.426	11147.8
1501.071	11254.8
1505.711	11379.8
1510.347	11584.8
1514.978	11884.8
1519.604	12022.8
1524.226	12095.8
1528.844	12181.8
1533.457	12107.8
1538.065	12023.8
1542.669	11952.8
1547.269	11877.8
1551.864	11786.8
1556.454	11746.8
1561.041	11729.8
1565.622	11725.8
1570.199	11762.8
1574.772	11772.8
1579.34	11858.8
1583.904	11904.8
1588.464	11960.8
1593.019	11905.8
1597.569	11860.8
1602.115	11832.8
1606.657	11801.8
1611.195	11695.8
1615.728	11638.8
1620.256	11548.8
1624.78	11536.8
1629.3	11626.8
1633.816	11597.8
1638.327	11668.8
1642.834	11739.8
1647.336	11767.8
1651.834	11800.8
1656.328	11782.8
1660.817	11733.8
1665.302	11561.8
1669.783	11399.8
1674.259	11165.8
1678.732	10813.8
1683.199	10448.8
1687.663	10138.8
1692.122	9835.8
1696.577	9730.8
1701.028	9680.8
1705.474	9775.8
1709.917	9868.8
1714.355	9908.8
1718.788	9836.8
1723.218	9628.8
1727.643	9465.8
1732.064	9294.8
1736.481	9109.8
1740.893	8872.8
1745.301	8622.8
1749.705	8433.8
1754.105	8194.8
1758.501	7945.8
1762.893	7728.8
1767.28	7549.8
1771.663	7393.8
1776.042	7235.8
1780.417	7179.8
1784.787	7210.8
1789.154	7318.8
1793.516	7415.8
1797.874	7605.8
1802.228	7704.8
1806.578	7802.8
1810.924	7758.8
1815.266	7683.8
1819.603	7570.8
1823.937	7448.8
1828.266	7351.8
1832.591	7228.8
1836.913	7103.8
1841.23	7024.8
1845.543	7005.8
1849.852	6969.8
1854.156	6922.8
1858.457	6926.8
1862.754	6929.8
1867.047	6865.8
1871.335	6879.8
1875.62	6855.8
1879.9	6825.8
1884.177	6810.8
1888.449	6774.8
1892.718	6684.8
1896.982	6627.8
1901.243	6575.8
1905.499	6517.8
1909.752	6492.8
1914	6515.8
1918.245	6521.8
1922.485	6590.8
1926.722	6661.8
1930.954	6750.8
1935.183	6812.8
1939.408	6894.8
1943.628	6945.8
1947.845	6907.8
1952.058	6896.8
1956.267	6874.8
1960.472	6746.8
1964.673	6659.8
1968.87	6571.8
1973.063	6452.8
1977.252	6366.8
1981.438	6304.8
1985.619	6254.8
1989.797	6164.8
1993.971	6136.8
1998.14	6122.8
2002.306	6089.8
2006.469	6061.8
2010.627	6036.8
2014.781	5973.8
2018.932	5998.8
2023.078	5901.8
2027.221	5790.8
2031.36	5712.8
2035.495	5610.8
2039.627	5534.8
2043.754	5500.8
2047.878	5416.8
2051.998	5437.8
2056.114	5365.8
2060.226	5376.8
2064.334	5375.8
2068.439	5391.8
2072.54	5402.8
2076.637	5452.8
2080.73	5508.8
2084.82	5532.8
2088.906	5563.8
2092.988	5569.8
2097.066	5533.8
2101.14	5507.8
2105.211	5485.8
2109.278	5426.8
2113.342	5378.8
2117.401	5351.8
2121.457	5331.8
2125.509	5297.8
2129.558	5295.8
2133.602	5264.8
2137.643	5217.8
2141.681	5184.8
2145.714	5153.8
2149.744	5137.8
2153.77	5100.8
2157.793	5016.8
2161.812	4961.8
2165.827	4895.8
2169.838	4837.8
2173.846	4731.8
2177.851	4638.8
2181.851	4574.8
2185.848	4544.8
2189.841	4500.8
2193.831	4408.8
2197.817	4392.8
2201.799	4376.8
2205.778	4359.8
2209.753	4335.8
2213.725	4337.8
2217.693	4284.8
2221.657	4317.8
2225.618	4317.8
2229.575	4287.8
2233.529	4229.8
2237.479	4188.8
2241.425	4145.8
2245.368	4097.8
2249.307	4063.8
2253.243	3966.8
2257.175	3935.8
2261.104	3869.8
2265.029	3831.8
2268.95	3821.8
2272.868	3746.8
2276.783	3710.8
2280.694	3649.8
2284.601	3644.8
2288.505	3607.8
2292.405	3569.8
2296.302	3557.8
2300.195	3490.8
2304.085	3455.8
2307.971	3408.8
2311.854	3358.8
2315.734	3308.8
2319.609	3240.8
2323.482	3190.8
2327.351	3166.8
2331.216	3159.8
2335.078	3133.8
2338.937	3127.8
2342.792	3093.8
2346.643	3074.8
2350.492	3077.8
2354.336	3091.8
2358.178	3089.8
2362.015	3111.8
2365.85	3112.8
2369.681	3098.8
2373.508	3093.8
2377.333	3106.8
2381.153	3076.8
2384.971	3044.8
2388.785	3034.8
2392.595	3014.8
2396.402	2985.8
2400.206	2962.8
2404.007	2928.8
2407.804	2921.8
2411.597	2899.8
2415.388	2866.8
2419.174	2869.8
2422.958	2844.8
2426.738	2826.8
2430.515	2782.8
2434.289	2791.8
2438.059	2734.8
2441.825	2714.8
2445.589	2678.8
2449.349	2662.8
2453.106	2627.8
2456.859	2618.8
2460.61	2551.8
2464.356	2524.8
2468.1	2502.8
2471.84	2472.8
2475.577	2459.8
2479.311	2453.8
2483.041	2432.8
2486.768	2441.8
2490.492	2399.8
2494.213	2420.8
2497.93	2417.8
2501.644	2383.8
2505.355	2355.8
2509.062	2354.8
2512.766	2345.8
2516.467	2332.8
2520.165	2316.8
2523.859	2317.8
2527.551	2282.8
2531.239	2295.8
2534.923	2262.8
2538.605	2235.8
2542.283	2261.8
2545.958	2231.8
2549.63	2241.8
2553.299	2248.8
2556.964	2228.8
2560.626	2193.8
2564.285	2211.8
2567.941	2230.8
2571.594	2221.8
2575.243	2186.8
2578.89	2180.8
2582.533	2128.8
2586.173	2145.8
2589.809	2131.8
2593.443	2110.8
2597.073	2074.8
2600.701	2063.8
2604.325	2044.8
2607.946	2020.8
2611.564	2012.8
2615.178	2027.8
2618.79	1998.8
2622.398	1987.8
2626.004	1935.8
2629.606	1931.8
2633.205	1889.8
2636.801	1867.8
2640.394	1868.8
2643.983	1813.8
2647.57	1797.8
2651.153	1743.8
2654.734	1750.8
2658.311	1694.8
2661.885	1669.8
2665.456	1656.8
2669.025	1631.8
2672.589	1628.8
2676.151	1602.8
2679.71	1583.8
2683.266	1573.8
2686.819	1548.8
2690.368	1525.8
2693.915	1479.8
2697.458	1428.8
2700.999	1380.8
2704.536	1390.8
2708.071	1359.8
2711.602	1317.8
2715.13	1288.8
2718.656	1256.8
2722.178	1259.8
2725.697	1212.8
2729.214	1220.8
2732.727	1211.8
2736.237	1208.8
2739.744	1186.8
2743.249	1211.8
2746.75	1223.8
2750.248	1222.8
2753.743	1245.8
2757.236	1265.8
2760.725	1273.8
2764.211	1277.8
2767.695	1267.8
2771.175	1275.8
2774.652	1270.8
2778.127	1257.8
2781.598	1245.8
2785.067	1257.8
2788.532	1235.8
2791.995	1220.8
2795.455	1225.8
2798.911	1214.8
2802.365	1235.8
2805.816	1223.8
2809.264	1226.8
2812.709	1237.8
2816.151	1231.8
2819.59	1230.8
2823.026	1216.8
2826.46	1232.8
2829.89	1246.8
2833.318	1236.8
2836.742	1253.8
2840.164	1263.8
2843.583	1247.8
2846.999	1281.8
2850.412	1268.8
2853.822	1271.8
2857.229	1299.8
2860.634	1327.8
2864.035	1350.8
2867.434	1349.8
2870.83	1397.8
2874.223	1405.8
2877.613	1441.8
2881	1450.8
2884.385	1450.8
2887.766	1476.8
2891.145	1453.8
2894.521	1440.8
2897.894	1430.8
2901.264	1450.8
2904.631	1452.8
2907.996	1461.8
2911.358	1457.8
2914.717	1474.8
2918.073	1474.8
2921.426	1512.8
2924.777	1500.8
2928.124	1535.8
2931.469	1552.8
2934.811	1588.8
2938.15	1618.8
2941.487	1608.8
2944.821	1622.8
2948.152	1636.8
2951.48	1619.8
2954.805	1598.8
2958.128	1589.8
2961.447	1552.8
2964.765	1556.8
2968.079	1562.8
2971.39	1575.8
2974.699	1609.8
2978.005	1615.8
2981.308	1671.8
2984.609	1647.8
2987.907	1703.8
2991.202	1743.8
2994.494	1770.8
2997.784	1815.8
3001.07	1851.8
3004.355	1876.8
3007.636	1902.8
3010.915	1921.8
3014.191	1937.8
3017.464	1929.8
3020.734	1961.8
3024.002	1979.8
3027.267	1997.8
3030.53	2001.8
3033.789	2027.8
3037.046	2048.8
3040.301	2091.8
3043.552	2112.8
3046.801	2155.8
3050.048	2214.8
3053.291	2248.8
3056.532	2307.8
3059.771	2369.8
3063.006	2442.8
3066.239	2504.8
3069.469	2590.8
3072.697	2649.8
3075.922	2705.8
3079.144	2792.8
3082.364	2843.8
3085.581	2915.8
3088.795	2981.8
3092.007	3040.8
3095.216	3098.8
3098.423	3147.8
3101.627	3230.8
3104.828	3317.8
3108.026	3379.8
3111.222	3436.8
3114.416	3486.8
3117.607	3597.8
3120.795	3681.8
3123.98	3758.8
3127.163	3844.8
3130.344	3962.8
3133.521	4036.8
3136.696	4097.8
3139.869	4196.8
3143.039	4288.8
3146.206	4341.8
3149.371	4401.8
3152.533	4442.8
3155.693	4485.8
3158.85	4494.8
3162.005	4486.8
3165.157	4506.8
3168.306	4523.8
3171.453	4531.8
3174.597	4564.8
3177.739	4569.8
3180.878	4579.8
3184.014	4566.8
3187.149	4588.8
3190.28	4590.8
3193.409	4614.8
3196.536	4600.8
3199.659	4590.8
3202.781	4625.8
3205.9	4616.8
3209.016	4606.8
3212.13	4581.8
3215.241	4568.8
3218.35	4513.8
3221.456	4458.8
3224.56	4430.8
3227.661	4327.8
3230.76	4329.8
3233.856	4286.8
3236.95	4218.8
3240.041	4182.8
3243.13	4161.8
3246.216	4159.8
3249.3	4104.8
3252.382	4086.8
3255.46	4092.8
3258.537	4041.8
3261.611	4121.8
3264.682	4072.8
3267.751	4058.8
3270.818	4060.8
3273.882	4049.8
3276.943	4026.8
3280.002	4013.8
3283.059	3981.8
3286.113	3926.8
3289.165	3837.8
3292.214	3788.8
3295.261	3765.8
3298.306	3653.8
3301.348	3632.8
3304.387	3574.8
3307.425	3521.8
3310.459	3467.8
3313.492	3410.8
3316.521	3368.8
3319.549	3300.8
3322.574	3291.8
3325.597	3262.8
3328.617	3248.8
3331.635	3195.8
3334.65	3194.8
3337.663	3191.8
3340.674	3161.8
3343.682	3147.8
3346.688	3130.8
3349.691	3132.8
3352.692	3122.8
3355.691	3096.8
3358.687	3070.8
3361.681	3040.8
3364.673	2991.8
3367.662	2936.8
3370.649	2900.8
3373.633	2855.8
3376.615	2811.8
3379.595	2777.8
3382.572	2739.8
3385.547	2700.8
3388.52	2672.8
3391.49	2609.8
3394.458	2557.8
3397.424	2525.8
3400.387	2491.8
3403.348	2472.8
3406.307	2441.8
3409.263	2431.8
3412.217	2399.8
3415.168	2375.8
3418.118	2338.8
3421.065	2299.8
3424.009	2252.8
3426.951	2230.8
3429.891	2210.8
3432.829	2167.8
3435.764	2113.8
3438.697	2048.8
3441.628	1988.8
3444.557	1940.8
3447.483	1850.8
3450.407	1826.8
3453.328	1781.8
3456.247	1700.8
3459.164	1638.8
3462.079	1578.8
3464.991	1528.8
3467.902	1465.8
3470.809	1416.8
3473.715	1332.8
3476.618	1311.8
3479.519	1250.8
3482.418	1227.8
3485.315	1164.8
3488.209	1125.8
3491.101	1082.8
3493.99	1061.8
3496.878	1023.8
3499.763	987.8
3502.646	938.8
3505.527	899.8
3508.405	869.8
3511.281	814.8
3514.155	755.8
3517.027	707.8
3519.897	687.8
3522.764	620.8
3525.629	575.8
3528.492	519.8
3531.352	487.8
3534.211	454.8
3537.067	397.8
3539.921	369.8
3542.773	305.8
3545.622	284.8
3548.469	247.8
3551.315	244.8
3554.157	186.8
3556.998	158.8
3559.837	120.8
3562.673	101.8
3565.507	74.8
3568.339	55.8
3571.169	40.8
3573.996	4.8
3576.822	-7.2
3579.645	-43.2
3582.466	-66.2
3585.285	-90.2
3588.101	-104.2
3590.916	-140.2
3593.728	-163.2
3596.538	-169.2
3599.346	-194.2
3602.152	-220.2
3604.956	-228.2
3607.757	-247.2
3610.556	-267.2
3613.354	-285.2
3616.149	-302.2
3618.942	-306.2
3621.732	-329.2
3624.521	-335.2
3627.307	-339.2
3630.092	-361.2
3632.874	-372.2
3635.654	-384.2
3638.432	-398.2
3641.208	-391.2
3643.982	-416.2
3646.753	-418.2
3649.523	-439.2
3652.29	-445.2
3655.055	-455.2
3657.818	-462.2
3660.579	-472.2
3663.338	-491.2
3666.095	-500.2
3668.849	-511.2
3671.602	-516.2
3674.352	-523.2
3677.101	-534.2
3679.847	-552.2
3682.591	-557.2
3685.333	-559.2
3688.073	-556.2
3690.811	-569.2
3693.547	-571.2
3696.281	-587.2
3699.013	-584.2
3701.742	-601.2
3704.47	-598.2
3707.195	-608.2
3709.919	-611.2
3712.64	-610.2
3715.359	-613.2
3718.076	-619.2
3720.792	-619.2
3723.505	-623.2
3726.216	-634.2
3728.925	-626.2
3731.632	-638.2
3734.336	-638.2
3737.039	-644.2
3739.74	-646.2
3742.439	-651.2
3745.136	-655.2
3747.83	-659.2
3750.523	-651.2
3753.213	-640.2
3755.902	-665.2
3758.589	-663.2
3761.273	-665.2
3763.956	-668.2
3766.636	-676.2
3769.315	-676.2
3771.991	-670.2
3774.665	-683.2
3777.338	-679.2
3780.008	-685.2
3782.677	-684.2
3785.343	-682.2
3788.007	-683.2
3790.67	-686.2
3793.33	-684.2
3795.989	-693.2
3798.645	-686.2
3801.299	-688.2
3803.952	-697.2
3806.602	-700.2
3809.251	-704.2
3811.897	-697.2
3814.542	-695.2
3817.184	-695.2
3819.825	-697.2
3822.463	-692.2
3825.1	-698.2
3827.735	-697.2
3830.367	-697.2
3832.998	-709.2
3835.627	-705.2
3838.253	-708.2
3840.878	-710.2
3843.501	-708.2
3846.122	-708.2
3848.741	-705.2
3851.358	-705.2
3853.973	-708.2
3856.586	-709.2
3859.197	-718.2
3861.806	-712.2
3864.414	-711.2
3867.019	-712.2
3869.622	-711.2
3872.224	-707.2
3874.823	-697.2
3877.421	-679.2
3880.016	-666.2
3882.61	-646.2
3885.202	-648.2
3887.792	-656.2
3890.38	-690.2
3892.966	-705.2
3895.55	-715.2
3898.132	-727.2
3900.713	-727.2
3903.291	-729.2
3905.868	-732.2
3908.442	-731.2
3911.015	-728.2
3913.586	-722.2
3916.155	-730.2
3918.722	-725.2
3921.287	-727.2
3923.85	-727.2
3926.411	-721.2
3928.971	-738.2
3931.528	-727.2
3934.084	-728.2
3936.638	-721.2
3939.19	-729.2
3941.74	-727.2
3944.288	-734.2
3946.834	-726.2
3949.378	-730.2
3951.921	-735.2
3954.462	-733.2
3957	-730.2
3959.537	-734.2
3962.072	-722.2
3964.606	-729.2
3967.137	-731.2
3969.667	-728.2
3972.194	-720.2
3974.72	-726.2
3977.244	-714.2
3979.766	-715.2
3982.286	-719.2
3984.805	-723.2
3987.321	-715.2
3989.836	-721.2
3992.349	-711.2
3994.86	-714.2
3997.369	-723.2
3999.877	-715.2
4002.382	-709.2
4004.886	-711.2
4007.388	-710.2
4009.888	-709.2
4012.386	-715.2
4014.883	-710.2
4017.377	-707.2
4019.87	-707.2
4022.361	-703.2
4024.85	-711.2
4027.338	-716.2
4029.823	-712.2
4032.307	-713.2
4034.789	-713.2
4037.269	-709.2
4039.747	-720.2
4042.224	-714.2
4044.699	-718.2
4047.172	-714.2
4049.643	-714.2
4052.112	-720.2
4054.58	-719.2
4057.046	-719.2
4059.51	-719.2
4061.972	-722.2
4064.432	-720.2
4066.891	-716.2
4069.348	-716.2
4071.803	-706.2
4074.256	-713.2
4076.708	-715.2
4079.158	-714.2
4081.606	-725.2
4084.052	-727.2
4086.497	-716.2
4088.939	-714.2
4091.38	-712.2
4093.819	-713.2
4096.257	-755.2
4098.693	-753.2
4101.127	-758.2
4103.559	-756.2
4105.989	-445.2
4108.418	-421.2
4110.845	-387.2
4113.27	-362.2
4115.694	-321.2
4118.115	-264.2
4120.535	-717.2
4122.954	-718.2
4125.37	-711.2
4127.785	-717.2
4130.198	-715.2
4132.609	-720.2
4135.019	-753.2
4137.427	-755.2
4139.833	-755.2
4142.237	-755.2
