Data from 2018-2-14_conc=5_n=9_RamanShift_04.txt Node
Date: Wed Feb 14 14:32:55 IST 2018
User: aro
Spectrometer: QEPB0276
Trigger mode: 0
Integration Time (sec): 3.000000E1
Scans to average: 1
Electric dark correction enabled: true
Nonlinearity correction enabled: false
Boxcar width: 0
XAxis mode: Raman Shifts
Number of Pixels in Spectrum: 1044
>>>>>Begin Spectral Data<<<<<
160.701	-102.9
166.742	54.1
172.777	448.1
178.805	1678.1
184.826	4584.1
190.841	9625.1
196.849	15404.1
202.85	19597.1
208.845	20986.1
214.833	20849.1
220.815	20527.1
226.789	20564.1
232.758	20383.1
238.719	20259.1
244.674	20038.1
250.623	19701.1
256.565	19365.1
262.5	19051.1
268.429	18757.1
274.351	18478.1
280.267	18317.1
286.176	18086.1
292.079	18010.1
297.975	17867.1
303.865	17749.1
309.748	17757.1
315.625	17636.1
321.495	17444.1
327.359	17447.1
333.217	17415.1
339.068	17411.1
344.912	17388.1
350.751	17410.1
356.583	17351.1
362.408	17354.1
368.227	17383.1
374.04	17457.1
379.847	17391.1
385.647	17508.1
391.44	17592.1
397.228	17713.1
403.009	17719.1
408.784	17791.1
414.553	17816.1
420.315	17888.1
426.071	17886.1
431.821	17831.1
437.565	17857.1
443.302	17818.1
449.033	17804.1
454.758	17818.1
460.477	17677.1
466.189	17649.1
471.896	17696.1
477.596	17597.1
483.29	17444.1
488.978	17539.1
494.66	17436.1
500.335	17305.1
506.005	17060.1
511.668	16798.1
517.325	16579.1
522.977	16399.1
528.622	16211.1
534.261	16136.1
539.894	15975.1
545.521	15950.1
551.141	15837.1
556.756	15819.1
562.365	15700.1
567.968	15670.1
573.565	15576.1
579.155	15564.1
584.74	15505.1
590.319	15413.1
595.892	15406.1
601.459	15376.1
607.02	15254.1
612.575	15193.1
618.124	15035.1
623.667	15010.1
629.204	14847.1
634.735	14789.1
640.261	14747.1
645.781	14668.1
651.294	14646.1
656.802	14645.1
662.304	14615.1
667.8	14598.1
673.29	14598.1
678.775	14553.1
684.254	14496.1
689.726	14474.1
695.193	14406.1
700.655	14314.1
706.11	14254.1
711.56	14159.1
717.004	14117.1
722.442	14091.1
727.874	13992.1
733.301	13987.1
738.722	13911.1
744.137	13858.1
749.547	13884.1
754.951	13864.1
760.349	13877.1
765.741	13875.1
771.128	13909.1
776.509	13977.1
781.885	13917.1
787.254	13994.1
792.618	13859.1
797.977	13789.1
803.33	13723.1
808.677	13620.1
814.019	13561.1
819.355	13477.1
824.686	13409.1
830.011	13353.1
835.33	13368.1
840.644	13365.1
845.952	13354.1
851.255	13439.1
856.552	13404.1
861.844	13349.1
867.13	13344.1
872.41	13297.1
877.686	13223.1
882.955	13072.1
888.219	13008.1
893.478	12845.1
898.731	12725.1
903.979	12545.1
909.221	12492.1
914.458	12471.1
919.69	12446.1
924.916	12492.1
930.136	12514.1
935.351	12528.1
940.561	12512.1
945.766	12508.1
950.965	12467.1
956.158	12394.1
961.347	12256.1
966.529	12100.1
971.707	11964.1
976.879	11741.1
982.046	11727.1
987.208	11692.1
992.364	11688.1
997.515	11731.1
1002.66	11886.1
1007.801	12000.1
1012.936	12066.1
1018.066	12078.1
1023.19	12044.1
1028.309	12031.1
1033.423	12008.1
1038.532	11950.1
1043.636	11863.1
1048.734	11771.1
1053.827	11615.1
1058.915	11463.1
1063.998	11413.1
1069.075	11351.1
1074.147	11346.1
1079.214	11393.1
1084.276	11440.1
1089.333	11534.1
1094.385	11557.1
1099.431	11620.1
1104.472	11561.1
1109.509	11546.1
1114.54	11403.1
1119.565	11210.1
1124.586	11079.1
1129.602	10969.1
1134.613	10868.1
1139.618	10855.1
1144.619	10834.1
1149.614	10785.1
1154.604	10831.1
1159.589	10899.1
1164.57	10906.1
1169.545	10893.1
1174.515	10860.1
1179.48	10844.1
1184.44	10751.1
1189.395	10645.1
1194.345	10600.1
1199.29	10576.1
1204.23	10538.1
1209.165	10617.1
1214.095	10661.1
1219.021	10658.1
1223.941	10763.1
1228.856	10876.1
1233.766	10852.1
1238.672	10859.1
1243.572	10839.1
1248.467	10749.1
1253.358	10640.1
1258.244	10490.1
1263.124	10311.1
1268	10207.1
1272.871	10058.1
1277.737	9991.1
1282.599	9917.1
1287.455	9953.1
1292.306	9975.1
1297.153	9932.1
1301.995	9983.1
1306.832	10038.1
1311.664	10000.1
1316.491	10009.1
1321.314	9926.1
1326.132	9713.1
1330.945	9614.1
1335.753	9355.1
1340.556	9176.1
1345.354	8946.1
1350.148	8826.1
1354.937	8745.1
1359.722	8722.1
1364.501	8744.1
1369.276	8822.1
1374.046	8879.1
1378.811	8958.1
1383.572	9078.1
1388.327	9101.1
1393.079	9044.1
1397.825	8997.1
1402.567	8896.1
1407.304	8743.1
1412.036	8715.1
1416.764	8627.1
1421.487	8580.1
1426.205	8544.1
1430.919	8516.1
1435.628	8537.1
1440.333	8575.1
1445.032	8528.1
1449.727	8584.1
1454.418	8540.1
1459.104	8453.1
1463.785	8324.1
1468.462	8116.1
1473.134	7982.1
1477.802	7810.1
1482.465	7685.1
1487.123	7588.1
1491.777	7542.1
1496.426	7577.1
1501.071	7616.1
1505.711	7749.1
1510.347	7859.1
1514.978	7989.1
1519.604	8070.1
1524.226	8146.1
1528.844	8169.1
1533.457	8165.1
1538.065	8166.1
1542.669	8108.1
1547.269	8047.1
1551.864	8042.1
1556.454	7983.1
1561.041	7956.1
1565.622	7966.1
1570.199	7965.1
1574.772	8006.1
1579.34	8044.1
1583.904	8092.1
1588.464	8134.1
1593.019	8093.1
1597.569	8099.1
1602.115	8054.1
1606.657	7956.1
1611.195	7876.1
1615.728	7842.1
1620.256	7843.1
1624.78	7828.1
1629.3	7808.1
1633.816	7836.1
1638.327	7845.1
1642.834	7896.1
1647.336	7965.1
1651.834	7951.1
1656.328	7914.1
1660.817	7885.1
1665.302	7813.1
1669.783	7653.1
1674.259	7540.1
1678.732	7311.1
1683.199	7048.1
1687.663	6846.1
1692.122	6589.1
1696.577	6516.1
1701.028	6470.1
1705.474	6475.1
1709.917	6543.1
1714.355	6563.1
1718.788	6562.1
1723.218	6485.1
1727.643	6373.1
1732.064	6277.1
1736.481	6172.1
1740.893	5999.1
1745.301	5857.1
1749.705	5707.1
1754.105	5507.1
1758.501	5354.1
1762.893	5213.1
1767.28	5093.1
1771.663	4966.1
1776.042	4867.1
1780.417	4848.1
1784.787	4843.1
1789.154	4818.1
1793.516	4933.1
1797.874	4976.1
1802.228	5056.1
1806.578	5133.1
1810.924	5121.1
1815.266	5091.1
1819.603	5050.1
1823.937	4968.1
1828.266	4927.1
1832.591	4848.1
1836.913	4792.1
1841.23	4729.1
1845.543	4710.1
1849.852	4663.1
1854.156	4664.1
1858.457	4667.1
1862.754	4665.1
1867.047	4639.1
1871.335	4657.1
1875.62	4627.1
1879.9	4597.1
1884.177	4556.1
1888.449	4532.1
1892.718	4504.1
1896.982	4433.1
1901.243	4369.1
1905.499	4350.1
1909.752	4347.1
1914	4324.1
1918.245	4317.1
1922.485	4368.1
1926.722	4402.1
1930.954	4437.1
1935.183	4502.1
1939.408	4544.1
1943.628	4595.1
1947.845	4568.1
1952.058	4585.1
1956.267	4549.1
1960.472	4480.1
1964.673	4466.1
1968.87	4369.1
1973.063	4280.1
1977.252	4224.1
1981.438	4189.1
1985.619	4120.1
1989.797	4121.1
1993.971	4079.1
1998.14	4066.1
2002.306	4054.1
2006.469	4030.1
2010.627	3985.1
2014.781	3990.1
2018.932	3938.1
2023.078	3923.1
2027.221	3832.1
2031.36	3804.1
2035.495	3741.1
2039.627	3663.1
2043.754	3645.1
2047.878	3589.1
2051.998	3596.1
2056.114	3564.1
2060.226	3553.1
2064.334	3560.1
2068.439	3554.1
2072.54	3602.1
2076.637	3590.1
2080.73	3643.1
2084.82	3658.1
2088.906	3657.1
2092.988	3673.1
2097.066	3651.1
2101.14	3640.1
2105.211	3604.1
2109.278	3611.1
2113.342	3576.1
2117.401	3572.1
2121.457	3532.1
2125.509	3541.1
2129.558	3533.1
2133.602	3441.1
2137.643	3466.1
2141.681	3457.1
2145.714	3435.1
2149.744	3399.1
2153.77	3380.1
2157.793	3341.1
2161.812	3315.1
2165.827	3248.1
2169.838	3209.1
2173.846	3150.1
2177.851	3113.1
2181.851	3047.1
2185.848	3021.1
2189.841	2981.1
2193.831	2965.1
2197.817	2961.1
2201.799	2929.1
2205.778	2932.1
2209.753	2904.1
2213.725	2900.1
2217.693	2904.1
2221.657	2891.1
2225.618	2905.1
2229.575	2869.1
2233.529	2852.1
2237.479	2826.1
2241.425	2804.1
2245.368	2763.1
2249.307	2723.1
2253.243	2674.1
2257.175	2647.1
2261.104	2588.1
2265.029	2573.1
2268.95	2558.1
2272.868	2535.1
2276.783	2482.1
2280.694	2500.1
2284.601	2469.1
2288.505	2447.1
2292.405	2416.1
2296.302	2383.1
2300.195	2364.1
2304.085	2353.1
2307.971	2325.1
2311.854	2281.1
2315.734	2245.1
2319.609	2236.1
2323.482	2199.1
2327.351	2179.1
2331.216	2164.1
2335.078	2161.1
2338.937	2137.1
2342.792	2112.1
2346.643	2118.1
2350.492	2134.1
2354.336	2134.1
2358.178	2133.1
2362.015	2142.1
2365.85	2164.1
2369.681	2140.1
2373.508	2153.1
2377.333	2176.1
2381.153	2163.1
2384.971	2135.1
2388.785	2112.1
2392.595	2087.1
2396.402	2088.1
2400.206	2052.1
2404.007	2058.1
2407.804	2054.1
2411.597	2051.1
2415.388	2016.1
2419.174	1990.1
2422.958	1996.1
2426.738	1966.1
2430.515	1958.1
2434.289	1925.1
2438.059	1928.1
2441.825	1913.1
2445.589	1889.1
2449.349	1885.1
2453.106	1849.1
2456.859	1825.1
2460.61	1804.1
2464.356	1787.1
2468.1	1769.1
2471.84	1742.1
2475.577	1739.1
2479.311	1719.1
2483.041	1713.1
2486.768	1701.1
2490.492	1699.1
2494.213	1698.1
2497.93	1673.1
2501.644	1677.1
2505.355	1661.1
2509.062	1663.1
2512.766	1645.1
2516.467	1640.1
2520.165	1615.1
2523.859	1616.1
2527.551	1608.1
2531.239	1609.1
2534.923	1584.1
2538.605	1567.1
2542.283	1591.1
2545.958	1564.1
2549.63	1560.1
2553.299	1553.1
2556.964	1571.1
2560.626	1536.1
2564.285	1546.1
2567.941	1548.1
2571.594	1534.1
2575.243	1535.1
2578.89	1500.1
2582.533	1485.1
2586.173	1474.1
2589.809	1475.1
2593.443	1449.1
2597.073	1442.1
2600.701	1420.1
2604.325	1417.1
2607.946	1417.1
2611.564	1400.1
2615.178	1403.1
2618.79	1389.1
2622.398	1375.1
2626.004	1360.1
2629.606	1352.1
2633.205	1331.1
2636.801	1310.1
2640.394	1281.1
2643.983	1271.1
2647.57	1262.1
2651.153	1234.1
2654.734	1202.1
2658.311	1187.1
2661.885	1174.1
2665.456	1153.1
2669.025	1148.1
2672.589	1109.1
2676.151	1118.1
2679.71	1100.1
2683.266	1089.1
2686.819	1071.1
2690.368	1045.1
2693.915	1027.1
2697.458	993.1
2700.999	980.1
2704.536	964.1
2708.071	934.1
2711.602	920.1
2715.13	900.1
2718.656	880.1
2722.178	865.1
2725.697	848.1
2729.214	841.1
2732.727	842.1
2736.237	816.1
2739.744	828.1
2743.249	813.1
2746.75	808.1
2750.248	813.1
2753.743	818.1
2757.236	832.1
2760.725	840.1
2764.211	849.1
2767.695	843.1
2771.175	856.1
2774.652	852.1
2778.127	832.1
2781.598	839.1
2785.067	834.1
2788.532	823.1
2791.995	824.1
2795.455	816.1
2798.911	830.1
2802.365	845.1
2805.816	811.1
2809.264	835.1
2812.709	833.1
2816.151	835.1
2819.59	826.1
2823.026	828.1
2826.46	821.1
2829.89	824.1
2833.318	836.1
2836.742	818.1
2840.164	856.1
2843.583	852.1
2846.999	849.1
2850.412	847.1
2853.822	863.1
2857.229	875.1
2860.634	878.1
2864.035	901.1
2867.434	915.1
2870.83	939.1
2874.223	937.1
2877.613	941.1
2881	956.1
2884.385	970.1
2887.766	979.1
2891.145	960.1
2894.521	971.1
2897.894	959.1
2901.264	947.1
2904.631	956.1
2907.996	952.1
2911.358	945.1
2914.717	965.1
2918.073	965.1
2921.426	971.1
2924.777	968.1
2928.124	981.1
2931.469	1016.1
2934.811	1023.1
2938.15	1029.1
2941.487	1039.1
2944.821	1046.1
2948.152	1041.1
2951.48	1025.1
2954.805	1044.1
2958.128	991.1
2961.447	998.1
2964.765	1001.1
2968.079	1006.1
2971.39	1027.1
2974.699	1020.1
2978.005	1047.1
2981.308	1054.1
2984.609	1072.1
2987.907	1082.1
2991.202	1098.1
2994.494	1115.1
2997.784	1148.1
3001.07	1168.1
3004.355	1177.1
3007.636	1211.1
3010.915	1211.1
3014.191	1228.1
3017.464	1235.1
3020.734	1255.1
3024.002	1229.1
3027.267	1234.1
3030.53	1263.1
3033.789	1287.1
3037.046	1305.1
3040.301	1297.1
3043.552	1341.1
3046.801	1352.1
3050.048	1389.1
3053.291	1435.1
3056.532	1457.1
3059.771	1488.1
3063.006	1536.1
3066.239	1580.1
3069.469	1639.1
3072.697	1666.1
3075.922	1699.1
3079.144	1759.1
3082.364	1787.1
3085.581	1825.1
3088.795	1874.1
3092.007	1908.1
3095.216	1930.1
3098.423	1989.1
3101.627	2038.1
3104.828	2088.1
3108.026	2124.1
3111.222	2156.1
3114.416	2228.1
3117.607	2280.1
3120.795	2311.1
3123.98	2379.1
3127.163	2435.1
3130.344	2456.1
3133.521	2529.1
3136.696	2617.1
3139.869	2662.1
3143.039	2709.1
3146.206	2728.1
3149.371	2752.1
3152.533	2781.1
3155.693	2809.1
3158.85	2807.1
3162.005	2811.1
3165.157	2826.1
3168.306	2848.1
3171.453	2863.1
3174.597	2842.1
3177.739	2873.1
3180.878	2842.1
3184.014	2851.1
3187.149	2856.1
3190.28	2863.1
3193.409	2859.1
3196.536	2864.1
3199.659	2875.1
3202.781	2896.1
3205.9	2863.1
3209.016	2889.1
3212.13	2860.1
3215.241	2830.1
3218.35	2815.1
3221.456	2782.1
3224.56	2762.1
3227.661	2706.1
3230.76	2679.1
3233.856	2688.1
3236.95	2637.1
3240.041	2618.1
3243.13	2591.1
3246.216	2593.1
3249.3	2568.1
3252.382	2558.1
3255.46	2540.1
3258.537	2505.1
3261.611	2539.1
3264.682	2531.1
3267.751	2542.1
3270.818	2517.1
3273.882	2538.1
3276.943	2498.1
3280.002	2516.1
3283.059	2476.1
3286.113	2430.1
3289.165	2393.1
3292.214	2384.1
3295.261	2350.1
3298.306	2294.1
3301.348	2252.1
3304.387	2226.1
3307.425	2191.1
3310.459	2149.1
3313.492	2119.1
3316.521	2081.1
3319.549	2055.1
3322.574	2053.1
3325.597	2020.1
3328.617	2019.1
3331.635	1968.1
3334.65	1992.1
3337.663	1982.1
3340.674	1951.1
3343.682	1951.1
3346.688	1934.1
3349.691	1953.1
3352.692	1918.1
3355.691	1916.1
3358.687	1898.1
3361.681	1874.1
3364.673	1828.1
3367.662	1816.1
3370.649	1796.1
3373.633	1748.1
3376.615	1727.1
3379.595	1724.1
3382.572	1704.1
3385.547	1661.1
3388.52	1636.1
3391.49	1636.1
3394.458	1598.1
3397.424	1574.1
3400.387	1544.1
3403.348	1527.1
3406.307	1519.1
3409.263	1487.1
3412.217	1472.1
3415.168	1456.1
3418.118	1456.1
3421.065	1424.1
3424.009	1419.1
3426.951	1371.1
3429.891	1344.1
3432.829	1331.1
3435.764	1283.1
3438.697	1250.1
3441.628	1207.1
3444.557	1182.1
3447.483	1135.1
3450.407	1109.1
3453.328	1084.1
3456.247	1046.1
3459.164	995.1
3462.079	974.1
3464.991	920.1
3467.902	885.1
3470.809	851.1
3473.715	845.1
3476.618	792.1
3479.519	765.1
3482.418	750.1
3485.315	710.1
3488.209	693.1
3491.101	668.1
3493.99	643.1
3496.878	605.1
3499.763	598.1
3502.646	552.1
3505.527	529.1
3508.405	512.1
3511.281	468.1
3514.155	457.1
3517.027	423.1
3519.897	402.1
3522.764	359.1
3525.629	336.1
3528.492	290.1
3531.352	283.1
3534.211	252.1
3537.067	217.1
3539.921	203.1
3542.773	160.1
3545.622	139.1
3548.469	125.1
3551.315	98.1
3554.157	94.1
3556.998	62.1
3559.837	45.1
3562.673	38.1
3565.507	15.1
3568.339	-10.9
3571.169	-12.9
3573.996	-33.9
3576.822	-48.9
3579.645	-61.9
3582.466	-78.9
3585.285	-85.9
3588.101	-105.9
3590.916	-124.9
3593.728	-133.9
3596.538	-141.9
3599.346	-162.9
3602.152	-178.9
3604.956	-173.9
3607.757	-192.9
3610.556	-207.9
3613.354	-207.9
3616.149	-226.9
3618.942	-230.9
3621.732	-234.9
3624.521	-250.9
3627.307	-264.9
3630.092	-265.9
3632.874	-276.9
3635.654	-282.9
3638.432	-283.9
3641.208	-290.9
3643.982	-298.9
3646.753	-307.9
3649.523	-312.9
3652.29	-319.9
3655.055	-317.9
3657.818	-337.9
3660.579	-334.9
3663.338	-350.9
3666.095	-355.9
3668.849	-370.9
3671.602	-370.9
3674.352	-378.9
3677.101	-379.9
3679.847	-392.9
3682.591	-389.9
3685.333	-392.9
3688.073	-389.9
3690.811	-404.9
3693.547	-408.9
3696.281	-405.9
3699.013	-403.9
3701.742	-416.9
3704.47	-410.9
3707.195	-418.9
3709.919	-418.9
3712.64	-422.9
3715.359	-425.9
3718.076	-434.9
3720.792	-426.9
3723.505	-432.9
3726.216	-439.9
3728.925	-440.9
3731.632	-446.9
3734.336	-444.9
3737.039	-443.9
3739.74	-448.9
3742.439	-450.9
3745.136	-449.9
3747.83	-463.9
3750.523	-450.9
3753.213	-462.9
3755.902	-454.9
3758.589	-457.9
3761.273	-461.9
3763.956	-458.9
3766.636	-464.9
3769.315	-470.9
3771.991	-460.9
3774.665	-466.9
3777.338	-465.9
3780.008	-471.9
3782.677	-471.9
3785.343	-467.9
3788.007	-472.9
3790.67	-469.9
3793.33	-475.9
3795.989	-473.9
3798.645	-476.9
3801.299	-476.9
3803.952	-481.9
3806.602	-487.9
3809.251	-488.9
3811.897	-480.9
3814.542	-483.9
3817.184	-480.9
3819.825	-482.9
3822.463	-477.9
3825.1	-480.9
3827.735	-475.9
3830.367	-479.9
3832.998	-486.9
3835.627	-495.9
3838.253	-487.9
3840.878	-489.9
3843.501	-485.9
3846.122	-481.9
3848.741	-482.9
3851.358	-486.9
3853.973	-488.9
3856.586	-486.9
3859.197	-491.9
3861.806	-499.9
3864.414	-488.9
3867.019	-489.9
3869.622	-488.9
3872.224	-481.9
3874.823	-466.9
3877.421	-450.9
3880.016	-428.9
3882.61	-409.9
3885.202	-409.9
3887.792	-419.9
3890.38	-451.9
3892.966	-473.9
3895.55	-484.9
3898.132	-501.9
3900.713	-500.9
3903.291	-497.9
3905.868	-497.9
3908.442	-496.9
3911.015	-497.9
3913.586	-495.9
3916.155	-495.9
3918.722	-498.9
3921.287	-496.9
3923.85	-504.9
3926.411	-505.9
3928.971	-505.9
3931.528	-504.9
3934.084	-502.9
3936.638	-502.9
3939.19	-497.9
3941.74	-498.9
3944.288	-501.9
3946.834	-493.9
3949.378	-500.9
3951.921	-501.9
3954.462	-504.9
3957	-495.9
3959.537	-496.9
3962.072	-497.9
3964.606	-498.9
3967.137	-501.9
3969.667	-502.9
3972.194	-496.9
3974.72	-499.9
3977.244	-495.9
3979.766	-486.9
3982.286	-492.9
3984.805	-495.9
3987.321	-490.9
3989.836	-499.9
3992.349	-490.9
3994.86	-488.9
3997.369	-497.9
3999.877	-490.9
4002.382	-492.9
4004.886	-484.9
4007.388	-485.9
4009.888	-485.9
4012.386	-494.9
4014.883	-489.9
4017.377	-489.9
4019.87	-487.9
4022.361	-487.9
4024.85	-482.9
4027.338	-489.9
4029.823	-491.9
4032.307	-494.9
4034.789	-486.9
4037.269	-487.9
4039.747	-491.9
4042.224	-491.9
4044.699	-494.9
4047.172	-494.9
4049.643	-491.9
4052.112	-496.9
4054.58	-496.9
4057.046	-495.9
4059.51	-496.9
4061.972	-490.9
4064.432	-498.9
4066.891	-489.9
4069.348	-487.9
4071.803	-480.9
4074.256	-490.9
4076.708	-489.9
4079.158	-494.9
4081.606	-496.9
4084.052	-498.9
4086.497	-488.9
4088.939	-486.9
4091.38	-493.9
4093.819	-482.9
4096.257	-516.9
4098.693	-516.9
4101.127	-518.9
4103.559	-515.9
4105.989	-267.9
4108.418	-258.9
4110.845	-246.9
4113.27	-230.9
4115.694	-198.9
4118.115	-157.9
4120.535	-492.9
4122.954	-491.9
4125.37	-484.9
4127.785	-491.9
4130.198	-492.9
4132.609	-498.9
4135.019	-518.9
4137.427	-520.9
4139.833	-520.9
4142.237	-516.9
