Data from 2018-2-14_conc=6_n=10_RamanShift_02.txt Node
Date: Wed Feb 14 15:16:55 IST 2018
User: aro
Spectrometer: QEPB0276
Trigger mode: 0
Integration Time (sec): 3.000000E1
Scans to average: 1
Electric dark correction enabled: true
Nonlinearity correction enabled: false
Boxcar width: 0
XAxis mode: Raman Shifts
Number of Pixels in Spectrum: 1044
>>>>>Begin Spectral Data<<<<<
160.701	-150.6
166.742	41.4
172.777	592.4
178.805	2246.4
184.826	6248.4
190.841	13095.4
196.849	21027.4
202.85	26664.4
208.845	28464.4
214.833	28221.4
220.815	27674.4
226.789	27502.4
232.758	27380.4
238.719	27176.4
244.674	26789.4
250.623	26249.4
256.565	25772.4
262.5	25176.4
268.429	24732.4
274.351	24332.4
280.267	24049.4
286.176	23751.4
292.079	23518.4
297.975	23309.4
303.865	23111.4
309.748	22909.4
315.625	22772.4
321.495	22686.4
327.359	22596.4
333.217	22525.4
339.068	22524.4
344.912	22486.4
350.751	22488.4
356.583	22431.4
362.408	22470.4
368.227	22426.4
374.04	22474.4
379.847	22530.4
385.647	22588.4
391.44	22691.4
397.228	22721.4
403.009	22861.4
408.784	22878.4
414.553	22985.4
420.315	23030.4
426.071	23126.4
431.821	23026.4
437.565	22995.4
443.302	23056.4
449.033	22977.4
454.758	22895.4
460.477	22837.4
466.189	22817.4
471.896	22764.4
477.596	22662.4
483.29	22710.4
488.978	22582.4
494.66	22576.4
500.335	22390.4
506.005	22169.4
511.668	21891.4
517.325	21629.4
522.977	21403.4
528.622	21269.4
534.261	21085.4
539.894	21076.4
545.521	20975.4
551.141	20886.4
556.756	20775.4
562.365	20610.4
567.968	20604.4
573.565	20489.4
579.155	20500.4
584.74	20396.4
590.319	20349.4
595.892	20191.4
601.459	20140.4
607.02	20028.4
612.575	19980.4
618.124	19844.4
623.667	19688.4
629.204	19654.4
634.735	19573.4
640.261	19467.4
645.781	19415.4
651.294	19378.4
656.802	19333.4
662.304	19248.4
667.8	19295.4
673.29	19234.4
678.775	19134.4
684.254	19104.4
689.726	19080.4
695.193	19008.4
700.655	18936.4
706.11	18871.4
711.56	18749.4
717.004	18652.4
722.442	18510.4
727.874	18484.4
733.301	18465.4
738.722	18364.4
744.137	18270.4
749.547	18341.4
754.951	18339.4
760.349	18369.4
765.741	18347.4
771.128	18326.4
776.509	18392.4
781.885	18370.4
787.254	18301.4
792.618	18253.4
797.977	18115.4
803.33	17985.4
808.677	17906.4
814.019	17819.4
819.355	17757.4
824.686	17699.4
830.011	17606.4
835.33	17624.4
840.644	17626.4
845.952	17627.4
851.255	17635.4
856.552	17721.4
861.844	17713.4
867.13	17628.4
872.41	17526.4
877.686	17455.4
882.955	17276.4
888.219	17211.4
893.478	17013.4
898.731	16806.4
903.979	16616.4
909.221	16497.4
914.458	16515.4
919.69	16481.4
924.916	16459.4
930.136	16545.4
935.351	16549.4
940.561	16581.4
945.766	16525.4
950.965	16421.4
956.158	16312.4
961.347	16209.4
966.529	15981.4
971.707	15782.4
976.879	15574.4
982.046	15468.4
987.208	15415.4
992.364	15426.4
997.515	15533.4
1002.66	15595.4
1007.801	15841.4
1012.936	15935.4
1018.066	15929.4
1023.19	15916.4
1028.309	15939.4
1033.423	15863.4
1038.532	15801.4
1043.636	15676.4
1048.734	15436.4
1053.827	15278.4
1058.915	15098.4
1063.998	15031.4
1069.075	14979.4
1074.147	15000.4
1079.214	15022.4
1084.276	15141.4
1089.333	15199.4
1094.385	15308.4
1099.431	15392.4
1104.472	15381.4
1109.509	15307.4
1114.54	15082.4
1119.565	14911.4
1124.586	14676.4
1129.602	14581.4
1134.613	14515.4
1139.618	14377.4
1144.619	14317.4
1149.614	14365.4
1154.604	14391.4
1159.589	14421.4
1164.57	14453.4
1169.545	14462.4
1174.515	14472.4
1179.48	14394.4
1184.44	14255.4
1189.395	14212.4
1194.345	14043.4
1199.29	14021.4
1204.23	14016.4
1209.165	14048.4
1214.095	14159.4
1219.021	14192.4
1223.941	14275.4
1228.856	14376.4
1233.766	14417.4
1238.672	14430.4
1243.572	14419.4
1248.467	14330.4
1253.358	14113.4
1258.244	14001.4
1263.124	13807.4
1268	13537.4
1272.871	13399.4
1277.737	13309.4
1282.599	13211.4
1287.455	13232.4
1292.306	13227.4
1297.153	13263.4
1301.995	13341.4
1306.832	13426.4
1311.664	13404.4
1316.491	13375.4
1321.314	13284.4
1326.132	13065.4
1330.945	12828.4
1335.753	12528.4
1340.556	12162.4
1345.354	11969.4
1350.148	11727.4
1354.937	11634.4
1359.722	11645.4
1364.501	11725.4
1369.276	11755.4
1374.046	11970.4
1378.811	12145.4
1383.572	12276.4
1388.327	12313.4
1393.079	12293.4
1397.825	12143.4
1402.567	11978.4
1407.304	11813.4
1412.036	11685.4
1416.764	11600.4
1421.487	11520.4
1426.205	11443.4
1430.919	11405.4
1435.628	11432.4
1440.333	11443.4
1445.032	11447.4
1449.727	11481.4
1454.418	11479.4
1459.104	11329.4
1463.785	11179.4
1468.462	10927.4
1473.134	10754.4
1477.802	10477.4
1482.465	10335.4
1487.123	10154.4
1491.777	10187.4
1496.426	10221.4
1501.071	10339.4
1505.711	10490.4
1510.347	10690.4
1514.978	10830.4
1519.604	11039.4
1524.226	11097.4
1528.844	11131.4
1533.457	11136.4
1538.065	11066.4
1542.669	10978.4
1547.269	10925.4
1551.864	10879.4
1556.454	10823.4
1561.041	10806.4
1565.622	10766.4
1570.199	10816.4
1574.772	10845.4
1579.34	10979.4
1583.904	11028.4
1588.464	11044.4
1593.019	11043.4
1597.569	11007.4
1602.115	10909.4
1606.657	10846.4
1611.195	10848.4
1615.728	10670.4
1620.256	10663.4
1624.78	10616.4
1629.3	10654.4
1633.816	10673.4
1638.327	10758.4
1642.834	10818.4
1647.336	10845.4
1651.834	10890.4
1656.328	10857.4
1660.817	10787.4
1665.302	10664.4
1669.783	10482.4
1674.259	10251.4
1678.732	9982.4
1683.199	9658.4
1687.663	9347.4
1692.122	9051.4
1696.577	8939.4
1701.028	8873.4
1705.474	8940.4
1709.917	9019.4
1714.355	9069.4
1718.788	8994.4
1723.218	8888.4
1727.643	8716.4
1732.064	8581.4
1736.481	8390.4
1740.893	8196.4
1745.301	7949.4
1749.705	7705.4
1754.105	7510.4
1758.501	7366.4
1762.893	7129.4
1767.28	6963.4
1771.663	6798.4
1776.042	6705.4
1780.417	6648.4
1784.787	6639.4
1789.154	6692.4
1793.516	6791.4
1797.874	6950.4
1802.228	7045.4
1806.578	7145.4
1810.924	7141.4
1815.266	7069.4
1819.603	6959.4
1823.937	6888.4
1828.266	6741.4
1832.591	6685.4
1836.913	6567.4
1841.23	6535.4
1845.543	6468.4
1849.852	6422.4
1854.156	6416.4
1858.457	6383.4
1862.754	6377.4
1867.047	6373.4
1871.335	6385.4
1875.62	6322.4
1879.9	6357.4
1884.177	6284.4
1888.449	6255.4
1892.718	6162.4
1896.982	6138.4
1901.243	6065.4
1905.499	6023.4
1909.752	5998.4
1914	6007.4
1918.245	6048.4
1922.485	6068.4
1926.722	6082.4
1930.954	6176.4
1935.183	6239.4
1939.408	6307.4
1943.628	6341.4
1947.845	6345.4
1952.058	6334.4
1956.267	6264.4
1960.472	6223.4
1964.673	6152.4
1968.87	6047.4
1973.063	5927.4
1977.252	5840.4
1981.438	5817.4
1985.619	5726.4
1989.797	5711.4
1993.971	5654.4
1998.14	5681.4
2002.306	5597.4
2006.469	5597.4
2010.627	5546.4
2014.781	5570.4
2018.932	5484.4
2023.078	5419.4
2027.221	5350.4
2031.36	5292.4
2035.495	5147.4
2039.627	5135.4
2043.754	5034.4
2047.878	5012.4
2051.998	5005.4
2056.114	4977.4
2060.226	4943.4
2064.334	4975.4
2068.439	4976.4
2072.54	4996.4
2076.637	5043.4
2080.73	5073.4
2084.82	5096.4
2088.906	5118.4
2092.988	5097.4
2097.066	5101.4
2101.14	5081.4
2105.211	5036.4
2109.278	5006.4
2113.342	4965.4
2117.401	4936.4
2121.457	4923.4
2125.509	4916.4
2129.558	4899.4
2133.602	4843.4
2137.643	4823.4
2141.681	4763.4
2145.714	4793.4
2149.744	4753.4
2153.77	4703.4
2157.793	4648.4
2161.812	4633.4
2165.827	4562.4
2169.838	4489.4
2173.846	4394.4
2177.851	4340.4
2181.851	4277.4
2185.848	4185.4
2189.841	4172.4
2193.831	4118.4
2197.817	4107.4
2201.799	4071.4
2205.778	4035.4
2209.753	4033.4
2213.725	4006.4
2217.693	4037.4
2221.657	4012.4
2225.618	3975.4
2229.575	3993.4
2233.529	3909.4
2237.479	3886.4
2241.425	3851.4
2245.368	3777.4
2249.307	3760.4
2253.243	3706.4
2257.175	3661.4
2261.104	3593.4
2265.029	3572.4
2268.95	3520.4
2272.868	3486.4
2276.783	3464.4
2280.694	3392.4
2284.601	3397.4
2288.505	3345.4
2292.405	3306.4
2296.302	3254.4
2300.195	3247.4
2304.085	3201.4
2307.971	3154.4
2311.854	3129.4
2315.734	3054.4
2319.609	3020.4
2323.482	2978.4
2327.351	2950.4
2331.216	2936.4
2335.078	2931.4
2338.937	2891.4
2342.792	2877.4
2346.643	2893.4
2350.492	2856.4
2354.336	2873.4
2358.178	2872.4
2362.015	2917.4
2365.85	2915.4
2369.681	2903.4
2373.508	2899.4
2377.333	2902.4
2381.153	2877.4
2384.971	2867.4
2388.785	2850.4
2392.595	2814.4
2396.402	2812.4
2400.206	2784.4
2404.007	2737.4
2407.804	2732.4
2411.597	2718.4
2415.388	2711.4
2419.174	2679.4
2422.958	2665.4
2426.738	2645.4
2430.515	2617.4
2434.289	2603.4
2438.059	2582.4
2441.825	2553.4
2445.589	2539.4
2449.349	2502.4
2453.106	2481.4
2456.859	2458.4
2460.61	2455.4
2464.356	2408.4
2468.1	2359.4
2471.84	2352.4
2475.577	2296.4
2479.311	2304.4
2483.041	2282.4
2486.768	2295.4
2490.492	2279.4
2494.213	2247.4
2497.93	2255.4
2501.644	2273.4
2505.355	2256.4
2509.062	2217.4
2512.766	2239.4
2516.467	2200.4
2520.165	2181.4
2523.859	2185.4
2527.551	2156.4
2531.239	2159.4
2534.923	2148.4
2538.605	2124.4
2542.283	2132.4
2545.958	2127.4
2549.63	2139.4
2553.299	2098.4
2556.964	2118.4
2560.626	2105.4
2564.285	2074.4
2567.941	2073.4
2571.594	2062.4
2575.243	2050.4
2578.89	2041.4
2582.533	2024.4
2586.173	2012.4
2589.809	1998.4
2593.443	1966.4
2597.073	1929.4
2600.701	1938.4
2604.325	1927.4
2607.946	1908.4
2611.564	1904.4
2615.178	1893.4
2618.79	1867.4
2622.398	1887.4
2626.004	1830.4
2629.606	1821.4
2633.205	1789.4
2636.801	1759.4
2640.394	1748.4
2643.983	1713.4
2647.57	1696.4
2651.153	1672.4
2654.734	1633.4
2658.311	1623.4
2661.885	1596.4
2665.456	1561.4
2669.025	1566.4
2672.589	1542.4
2676.151	1543.4
2679.71	1501.4
2683.266	1476.4
2686.819	1441.4
2690.368	1433.4
2693.915	1407.4
2697.458	1352.4
2700.999	1336.4
2704.536	1305.4
2708.071	1280.4
2711.602	1256.4
2715.13	1211.4
2718.656	1206.4
2722.178	1203.4
2725.697	1161.4
2729.214	1161.4
2732.727	1163.4
2736.237	1135.4
2739.744	1125.4
2743.249	1141.4
2746.75	1140.4
2750.248	1176.4
2753.743	1160.4
2757.236	1181.4
2760.725	1180.4
2764.211	1199.4
2767.695	1216.4
2771.175	1206.4
2774.652	1205.4
2778.127	1194.4
2781.598	1186.4
2785.067	1178.4
2788.532	1170.4
2791.995	1145.4
2795.455	1148.4
2798.911	1163.4
2802.365	1190.4
2805.816	1167.4
2809.264	1172.4
2812.709	1165.4
2816.151	1162.4
2819.59	1178.4
2823.026	1160.4
2826.46	1169.4
2829.89	1169.4
2833.318	1168.4
2836.742	1168.4
2840.164	1169.4
2843.583	1189.4
2846.999	1214.4
2850.412	1204.4
2853.822	1217.4
2857.229	1249.4
2860.634	1235.4
2864.035	1281.4
2867.434	1305.4
2870.83	1302.4
2874.223	1332.4
2877.613	1347.4
2881	1372.4
2884.385	1392.4
2887.766	1368.4
2891.145	1359.4
2894.521	1343.4
2897.894	1371.4
2901.264	1352.4
2904.631	1368.4
2907.996	1331.4
2911.358	1362.4
2914.717	1382.4
2918.073	1395.4
2921.426	1404.4
2924.777	1404.4
2928.124	1405.4
2931.469	1449.4
2934.811	1477.4
2938.15	1487.4
2941.487	1514.4
2944.821	1506.4
2948.152	1510.4
2951.48	1496.4
2954.805	1468.4
2958.128	1471.4
2961.447	1469.4
2964.765	1444.4
2968.079	1457.4
2971.39	1447.4
2974.699	1490.4
2978.005	1529.4
2981.308	1520.4
2984.609	1542.4
2987.907	1576.4
2991.202	1607.4
2994.494	1643.4
2997.784	1668.4
3001.07	1687.4
3004.355	1714.4
3007.636	1741.4
3010.915	1747.4
3014.191	1794.4
3017.464	1799.4
3020.734	1811.4
3024.002	1836.4
3027.267	1828.4
3030.53	1841.4
3033.789	1854.4
3037.046	1880.4
3040.301	1900.4
3043.552	1946.4
3046.801	1972.4
3050.048	2022.4
3053.291	2073.4
3056.532	2111.4
3059.771	2174.4
3063.006	2244.4
3066.239	2309.4
3069.469	2368.4
3072.697	2425.4
3075.922	2485.4
3079.144	2556.4
3082.364	2618.4
3085.581	2647.4
3088.795	2728.4
3092.007	2772.4
3095.216	2849.4
3098.423	2890.4
3101.627	2958.4
3104.828	3006.4
3108.026	3061.4
3111.222	3154.4
3114.416	3214.4
3117.607	3287.4
3120.795	3389.4
3123.98	3417.4
3127.163	3518.4
3130.344	3617.4
3133.521	3706.4
3136.696	3742.4
3139.869	3853.4
3143.039	3903.4
3146.206	3939.4
3149.371	4022.4
3152.533	4054.4
3155.693	4063.4
3158.85	4122.4
3162.005	4105.4
3165.157	4144.4
3168.306	4124.4
3171.453	4141.4
3174.597	4169.4
3177.739	4155.4
3180.878	4150.4
3184.014	4152.4
3187.149	4176.4
3190.28	4180.4
3193.409	4183.4
3196.536	4194.4
3199.659	4194.4
3202.781	4184.4
3205.9	4185.4
3209.016	4171.4
3212.13	4169.4
3215.241	4159.4
3218.35	4113.4
3221.456	4049.4
3224.56	4036.4
3227.661	3986.4
3230.76	3926.4
3233.856	3879.4
3236.95	3816.4
3240.041	3808.4
3243.13	3767.4
3246.216	3783.4
3249.3	3763.4
3252.382	3749.4
3255.46	3716.4
3258.537	3667.4
3261.611	3706.4
3264.682	3717.4
3267.751	3705.4
3270.818	3687.4
3273.882	3667.4
3276.943	3652.4
3280.002	3627.4
3283.059	3595.4
3286.113	3567.4
3289.165	3516.4
3292.214	3475.4
3295.261	3391.4
3298.306	3359.4
3301.348	3300.4
3304.387	3253.4
3307.425	3205.4
3310.459	3186.4
3313.492	3119.4
3316.521	3065.4
3319.549	3031.4
3322.574	3025.4
3325.597	2963.4
3328.617	2965.4
3331.635	2930.4
3334.65	2923.4
3337.663	2917.4
3340.674	2900.4
3343.682	2876.4
3346.688	2860.4
3349.691	2853.4
3352.692	2838.4
3355.691	2825.4
3358.687	2812.4
3361.681	2748.4
3364.673	2719.4
3367.662	2691.4
3370.649	2661.4
3373.633	2609.4
3376.615	2590.4
3379.595	2548.4
3382.572	2501.4
3385.547	2483.4
3388.52	2453.4
3391.49	2396.4
3394.458	2368.4
3397.424	2333.4
3400.387	2296.4
3403.348	2255.4
3406.307	2228.4
3409.263	2207.4
3412.217	2205.4
3415.168	2163.4
3418.118	2156.4
3421.065	2116.4
3424.009	2090.4
3426.951	2050.4
3429.891	2042.4
3432.829	1958.4
3435.764	1909.4
3438.697	1877.4
3441.628	1842.4
3444.557	1766.4
3447.483	1706.4
3450.407	1666.4
3453.328	1609.4
3456.247	1551.4
3459.164	1488.4
3462.079	1439.4
3464.991	1399.4
3467.902	1341.4
3470.809	1285.4
3473.715	1254.4
3476.618	1206.4
3479.519	1160.4
3482.418	1112.4
3485.315	1081.4
3488.209	1050.4
3491.101	995.4
3493.99	984.4
3496.878	935.4
3499.763	892.4
3502.646	872.4
3505.527	814.4
3508.405	785.4
3511.281	740.4
3514.155	704.4
3517.027	666.4
3519.897	620.4
3522.764	571.4
3525.629	542.4
3528.492	496.4
3531.352	447.4
3534.211	410.4
3537.067	374.4
3539.921	343.4
3542.773	286.4
3545.622	266.4
3548.469	231.4
3551.315	209.4
3554.157	176.4
3556.998	139.4
3559.837	129.4
3562.673	104.4
3565.507	68.4
3568.339	48.4
3571.169	46.4
3573.996	16.4
3576.822	-4.6
3579.645	-31.6
3582.466	-56.6
3585.285	-78.6
3588.101	-95.6
3590.916	-116.6
3593.728	-138.6
3596.538	-154.6
3599.346	-163.6
3602.152	-185.6
3604.956	-215.6
3607.757	-222.6
3610.556	-233.6
3613.354	-251.6
3616.149	-263.6
3618.942	-285.6
3621.732	-284.6
3624.521	-299.6
3627.307	-319.6
3630.092	-321.6
3632.874	-334.6
3635.654	-345.6
3638.432	-345.6
3641.208	-360.6
3643.982	-366.6
3646.753	-374.6
3649.523	-389.6
3652.29	-392.6
3655.055	-399.6
3657.818	-419.6
3660.579	-422.6
3663.338	-441.6
3666.095	-450.6
3668.849	-466.6
3671.602	-468.6
3674.352	-469.6
3677.101	-477.6
3679.847	-489.6
3682.591	-496.6
3685.333	-494.6
3688.073	-505.6
3690.811	-514.6
3693.547	-512.6
3696.281	-519.6
3699.013	-521.6
3701.742	-535.6
3704.47	-537.6
3707.195	-552.6
3709.919	-549.6
3712.64	-552.6
3715.359	-550.6
3718.076	-555.6
3720.792	-556.6
3723.505	-557.6
3726.216	-570.6
3728.925	-566.6
3731.632	-578.6
3734.336	-566.6
3737.039	-577.6
3739.74	-575.6
3742.439	-585.6
3745.136	-587.6
3747.83	-589.6
3750.523	-591.6
3753.213	-594.6
3755.902	-598.6
3758.589	-596.6
3761.273	-603.6
3763.956	-600.6
3766.636	-605.6
3769.315	-604.6
3771.991	-603.6
3774.665	-609.6
3777.338	-609.6
3780.008	-611.6
3782.677	-617.6
3785.343	-607.6
3788.007	-611.6
3790.67	-614.6
3793.33	-623.6
3795.989	-624.6
3798.645	-622.6
3801.299	-617.6
3803.952	-626.6
3806.602	-626.6
3809.251	-638.6
3811.897	-632.6
3814.542	-628.6
3817.184	-623.6
3819.825	-624.6
3822.463	-627.6
3825.1	-628.6
3827.735	-626.6
3830.367	-626.6
3832.998	-633.6
3835.627	-637.6
3838.253	-633.6
3840.878	-636.6
3843.501	-638.6
3846.122	-635.6
3848.741	-634.6
3851.358	-640.6
3853.973	-642.6
3856.586	-640.6
3859.197	-645.6
3861.806	-643.6
3864.414	-638.6
3867.019	-634.6
3869.622	-636.6
3872.224	-635.6
3874.823	-620.6
3877.421	-608.6
3880.016	-582.6
3882.61	-563.6
3885.202	-557.6
3887.792	-579.6
3890.38	-611.6
3892.966	-626.6
3895.55	-649.6
3898.132	-656.6
3900.713	-656.6
3903.291	-660.6
3905.868	-655.6
3908.442	-652.6
3911.015	-658.6
3913.586	-646.6
3916.155	-651.6
3918.722	-655.6
3921.287	-654.6
3923.85	-661.6
3926.411	-655.6
3928.971	-666.6
3931.528	-656.6
3934.084	-656.6
3936.638	-654.6
3939.19	-655.6
3941.74	-659.6
3944.288	-663.6
3946.834	-657.6
3949.378	-658.6
3951.921	-660.6
3954.462	-666.6
3957	-654.6
3959.537	-655.6
3962.072	-657.6
3964.606	-653.6
3967.137	-655.6
3969.667	-657.6
3972.194	-651.6
3974.72	-656.6
3977.244	-641.6
3979.766	-641.6
3982.286	-648.6
3984.805	-646.6
3987.321	-646.6
3989.836	-651.6
3992.349	-641.6
3994.86	-642.6
3997.369	-648.6
3999.877	-638.6
4002.382	-638.6
4004.886	-637.6
4007.388	-638.6
4009.888	-637.6
4012.386	-644.6
4014.883	-637.6
4017.377	-637.6
4019.87	-639.6
4022.361	-644.6
4024.85	-642.6
4027.338	-646.6
4029.823	-643.6
4032.307	-652.6
4034.789	-642.6
4037.269	-638.6
4039.747	-643.6
4042.224	-647.6
4044.699	-649.6
4047.172	-640.6
4049.643	-639.6
4052.112	-649.6
4054.58	-648.6
4057.046	-642.6
4059.51	-650.6
4061.972	-643.6
4064.432	-649.6
4066.891	-647.6
4069.348	-641.6
4071.803	-643.6
4074.256	-643.6
4076.708	-638.6
4079.158	-646.6
4081.606	-648.6
4084.052	-654.6
4086.497	-648.6
4088.939	-647.6
4091.38	-644.6
4093.819	-643.6
4096.257	-677.6
4098.693	-680.6
4101.127	-684.6
4103.559	-681.6
4105.989	-394.6
4108.418	-368.6
4110.845	-353.6
4113.27	-316.6
4115.694	-281.6
4118.115	-231.6
4120.535	-646.6
4122.954	-644.6
4125.37	-637.6
4127.785	-644.6
4130.198	-643.6
4132.609	-649.6
4135.019	-682.6
4137.427	-683.6
4139.833	-686.6
4142.237	-676.6
