Data from 2018-2-14_conc=4_n=7_RamanShift_03.txt Node
Date: Wed Feb 14 13:49:55 IST 2018
User: aro
Spectrometer: QEPB0276
Trigger mode: 0
Integration Time (sec): 3.000000E1
Scans to average: 1
Electric dark correction enabled: true
Nonlinearity correction enabled: false
Boxcar width: 0
XAxis mode: Raman Shifts
Number of Pixels in Spectrum: 1044
>>>>>Begin Spectral Data<<<<<
160.701	-137.1
166.742	38.9
172.777	544.9
178.805	2039.9
184.826	5589.9
190.841	11723.9
196.849	18755.9
202.85	23765.9
208.845	25469.9
214.833	25167.9
220.815	24754.9
226.789	24578.9
232.758	24415.9
238.719	24194.9
244.674	23902.9
250.623	23483.9
256.565	22990.9
262.5	22477.9
268.429	21985.9
274.351	21737.9
280.267	21397.9
286.176	21189.9
292.079	20991.9
297.975	20727.9
303.865	20562.9
309.748	20501.9
315.625	20297.9
321.495	20218.9
327.359	20159.9
333.217	20139.9
339.068	20100.9
344.912	20005.9
350.751	19987.9
356.583	20006.9
362.408	19956.9
368.227	19971.9
374.04	19978.9
379.847	20082.9
385.647	20187.9
391.44	20225.9
397.228	20277.9
403.009	20372.9
408.784	20379.9
414.553	20517.9
420.315	20547.9
426.071	20536.9
431.821	20555.9
437.565	20521.9
443.302	20495.9
449.033	20506.9
454.758	20449.9
460.477	20358.9
466.189	20276.9
471.896	20294.9
477.596	20152.9
483.29	20142.9
488.978	20191.9
494.66	20030.9
500.335	19933.9
506.005	19633.9
511.668	19432.9
517.325	19220.9
522.977	18942.9
528.622	18799.9
534.261	18619.9
539.894	18553.9
545.521	18474.9
551.141	18400.9
556.756	18348.9
562.365	18226.9
567.968	18149.9
573.565	18119.9
579.155	18054.9
584.74	17899.9
590.319	17882.9
595.892	17792.9
601.459	17747.9
607.02	17690.9
612.575	17517.9
618.124	17494.9
623.667	17313.9
629.204	17242.9
634.735	17144.9
640.261	17071.9
645.781	17014.9
651.294	16974.9
656.802	16972.9
662.304	16956.9
667.8	16895.9
673.29	16896.9
678.775	16851.9
684.254	16840.9
689.726	16717.9
695.193	16716.9
700.655	16578.9
706.11	16522.9
711.56	16436.9
717.004	16362.9
722.442	16207.9
727.874	16218.9
733.301	16090.9
738.722	16132.9
744.137	16058.9
749.547	16073.9
754.951	16071.9
760.349	16010.9
765.741	16077.9
771.128	16105.9
776.509	16102.9
781.885	16096.9
787.254	16036.9
792.618	16022.9
797.977	15884.9
803.33	15782.9
808.677	15702.9
814.019	15609.9
819.355	15563.9
824.686	15440.9
830.011	15353.9
835.33	15422.9
840.644	15434.9
845.952	15433.9
851.255	15495.9
856.552	15466.9
861.844	15438.9
867.13	15405.9
872.41	15345.9
877.686	15238.9
882.955	15141.9
888.219	14930.9
893.478	14851.9
898.731	14636.9
903.979	14489.9
909.221	14401.9
914.458	14345.9
919.69	14333.9
924.916	14373.9
930.136	14421.9
935.351	14433.9
940.561	14463.9
945.766	14424.9
950.965	14319.9
956.158	14198.9
961.347	14099.9
966.529	13883.9
971.707	13734.9
976.879	13568.9
982.046	13430.9
987.208	13413.9
992.364	13417.9
997.515	13490.9
1002.66	13603.9
1007.801	13735.9
1012.936	13865.9
1018.066	13871.9
1023.19	13855.9
1028.309	13899.9
1033.423	13850.9
1038.532	13729.9
1043.636	13617.9
1048.734	13461.9
1053.827	13323.9
1058.915	13140.9
1063.998	13008.9
1069.075	13008.9
1074.147	13017.9
1079.214	13064.9
1084.276	13190.9
1089.333	13277.9
1094.385	13281.9
1099.431	13302.9
1104.472	13313.9
1109.509	13265.9
1114.54	13106.9
1119.565	12943.9
1124.586	12771.9
1129.602	12606.9
1134.613	12495.9
1139.618	12480.9
1144.619	12422.9
1149.614	12433.9
1154.604	12415.9
1159.589	12503.9
1164.57	12516.9
1169.545	12524.9
1174.515	12517.9
1179.48	12482.9
1184.44	12379.9
1189.395	12258.9
1194.345	12172.9
1199.29	12156.9
1204.23	12146.9
1209.165	12210.9
1214.095	12230.9
1219.021	12335.9
1223.941	12381.9
1228.856	12453.9
1233.766	12519.9
1238.672	12480.9
1243.572	12503.9
1248.467	12393.9
1253.358	12257.9
1258.244	12054.9
1263.124	11913.9
1268	11716.9
1272.871	11549.9
1277.737	11446.9
1282.599	11425.9
1287.455	11417.9
1292.306	11452.9
1297.153	11462.9
1301.995	11506.9
1306.832	11558.9
1311.664	11503.9
1316.491	11498.9
1321.314	11386.9
1326.132	11222.9
1330.945	11001.9
1335.753	10726.9
1340.556	10462.9
1345.354	10247.9
1350.148	10101.9
1354.937	9993.9
1359.722	9996.9
1364.501	10002.9
1369.276	10117.9
1374.046	10210.9
1378.811	10285.9
1383.572	10420.9
1388.327	10456.9
1393.079	10394.9
1397.825	10328.9
1402.567	10182.9
1407.304	10065.9
1412.036	10007.9
1416.764	9922.9
1421.487	9853.9
1426.205	9820.9
1430.919	9747.9
1435.628	9775.9
1440.333	9791.9
1445.032	9775.9
1449.727	9841.9
1454.418	9792.9
1459.104	9663.9
1463.785	9503.9
1468.462	9287.9
1473.134	9116.9
1477.802	8891.9
1482.465	8730.9
1487.123	8643.9
1491.777	8601.9
1496.426	8600.9
1501.071	8677.9
1505.711	8822.9
1510.347	8942.9
1514.978	9119.9
1519.604	9236.9
1524.226	9289.9
1528.844	9325.9
1533.457	9326.9
1538.065	9292.9
1542.669	9240.9
1547.269	9151.9
1551.864	9127.9
1556.454	9072.9
1561.041	9083.9
1565.622	9100.9
1570.199	9116.9
1574.772	9165.9
1579.34	9251.9
1583.904	9289.9
1588.464	9334.9
1593.019	9336.9
1597.569	9329.9
1602.115	9267.9
1606.657	9198.9
1611.195	9131.9
1615.728	9091.9
1620.256	9057.9
1624.78	9058.9
1629.3	9046.9
1633.816	9058.9
1638.327	9087.9
1642.834	9160.9
1647.336	9206.9
1651.834	9187.9
1656.328	9163.9
1660.817	9092.9
1665.302	8974.9
1669.783	8801.9
1674.259	8603.9
1678.732	8337.9
1683.199	8061.9
1687.663	7775.9
1692.122	7567.9
1696.577	7411.9
1701.028	7378.9
1705.474	7349.9
1709.917	7401.9
1714.355	7447.9
1718.788	7430.9
1723.218	7317.9
1727.643	7228.9
1732.064	7095.9
1736.481	6887.9
1740.893	6735.9
1745.301	6580.9
1749.705	6390.9
1754.105	6225.9
1758.501	6035.9
1762.893	5829.9
1767.28	5704.9
1771.663	5566.9
1776.042	5453.9
1780.417	5403.9
1784.787	5388.9
1789.154	5429.9
1793.516	5475.9
1797.874	5596.9
1802.228	5695.9
1806.578	5749.9
1810.924	5787.9
1815.266	5678.9
1819.603	5639.9
1823.937	5526.9
1828.266	5507.9
1832.591	5387.9
1836.913	5317.9
1841.23	5288.9
1845.543	5247.9
1849.852	5226.9
1854.156	5182.9
1858.457	5192.9
1862.754	5177.9
1867.047	5165.9
1871.335	5163.9
1875.62	5166.9
1879.9	5143.9
1884.177	5076.9
1888.449	5022.9
1892.718	5008.9
1896.982	4906.9
1901.243	4897.9
1905.499	4842.9
1909.752	4766.9
1914	4830.9
1918.245	4801.9
1922.485	4805.9
1926.722	4887.9
1930.954	4933.9
1935.183	5012.9
1939.408	5053.9
1943.628	5076.9
1947.845	5097.9
1952.058	5056.9
1956.267	5040.9
1960.472	4983.9
1964.673	4911.9
1968.87	4862.9
1973.063	4770.9
1977.252	4674.9
1981.438	4672.9
1985.619	4628.9
1989.797	4576.9
1993.971	4567.9
1998.14	4529.9
2002.306	4496.9
2006.469	4509.9
2010.627	4499.9
2014.781	4447.9
2018.932	4373.9
2023.078	4372.9
2027.221	4327.9
2031.36	4226.9
2035.495	4159.9
2039.627	4101.9
2043.754	4068.9
2047.878	4018.9
2051.998	3979.9
2056.114	3950.9
2060.226	3966.9
2064.334	3952.9
2068.439	3947.9
2072.54	3976.9
2076.637	3992.9
2080.73	4026.9
2084.82	4050.9
2088.906	4044.9
2092.988	4073.9
2097.066	4026.9
2101.14	4059.9
2105.211	3980.9
2109.278	3971.9
2113.342	3960.9
2117.401	3953.9
2121.457	3935.9
2125.509	3903.9
2129.558	3868.9
2133.602	3847.9
2137.643	3877.9
2141.681	3840.9
2145.714	3801.9
2149.744	3777.9
2153.77	3751.9
2157.793	3717.9
2161.812	3676.9
2165.827	3620.9
2169.838	3571.9
2173.846	3508.9
2177.851	3471.9
2181.851	3413.9
2185.848	3396.9
2189.841	3341.9
2193.831	3307.9
2197.817	3272.9
2201.799	3261.9
2205.778	3238.9
2209.753	3205.9
2213.725	3215.9
2217.693	3219.9
2221.657	3195.9
2225.618	3198.9
2229.575	3157.9
2233.529	3146.9
2237.479	3119.9
2241.425	3080.9
2245.368	3034.9
2249.307	3010.9
2253.243	2952.9
2257.175	2911.9
2261.104	2835.9
2265.029	2830.9
2268.95	2800.9
2272.868	2779.9
2276.783	2745.9
2280.694	2721.9
2284.601	2681.9
2288.505	2656.9
2292.405	2642.9
2296.302	2610.9
2300.195	2597.9
2304.085	2542.9
2307.971	2502.9
2311.854	2496.9
2315.734	2429.9
2319.609	2425.9
2323.482	2379.9
2327.351	2377.9
2331.216	2336.9
2335.078	2361.9
2338.937	2325.9
2342.792	2328.9
2346.643	2308.9
2350.492	2312.9
2354.336	2313.9
2358.178	2310.9
2362.015	2326.9
2365.85	2344.9
2369.681	2351.9
2373.508	2339.9
2377.333	2348.9
2381.153	2324.9
2384.971	2316.9
2388.785	2306.9
2392.595	2296.9
2396.402	2280.9
2400.206	2231.9
2404.007	2228.9
2407.804	2231.9
2411.597	2195.9
2415.388	2183.9
2419.174	2181.9
2422.958	2164.9
2426.738	2117.9
2430.515	2116.9
2434.289	2099.9
2438.059	2090.9
2441.825	2043.9
2445.589	2039.9
2449.349	2028.9
2453.106	1984.9
2456.859	1950.9
2460.61	1937.9
2464.356	1931.9
2468.1	1893.9
2471.84	1889.9
2475.577	1849.9
2479.311	1859.9
2483.041	1832.9
2486.768	1827.9
2490.492	1814.9
2494.213	1812.9
2497.93	1806.9
2501.644	1783.9
2505.355	1791.9
2509.062	1792.9
2512.766	1745.9
2516.467	1734.9
2520.165	1731.9
2523.859	1728.9
2527.551	1708.9
2531.239	1692.9
2534.923	1698.9
2538.605	1679.9
2542.283	1672.9
2545.958	1674.9
2549.63	1682.9
2553.299	1647.9
2556.964	1664.9
2560.626	1630.9
2564.285	1641.9
2567.941	1648.9
2571.594	1638.9
2575.243	1626.9
2578.89	1620.9
2582.533	1599.9
2586.173	1581.9
2589.809	1575.9
2593.443	1555.9
2597.073	1549.9
2600.701	1535.9
2604.325	1507.9
2607.946	1500.9
2611.564	1509.9
2615.178	1504.9
2618.79	1468.9
2622.398	1465.9
2626.004	1448.9
2629.606	1451.9
2633.205	1413.9
2636.801	1390.9
2640.394	1382.9
2643.983	1355.9
2647.57	1330.9
2651.153	1313.9
2654.734	1296.9
2658.311	1244.9
2661.885	1244.9
2665.456	1232.9
2669.025	1210.9
2672.589	1199.9
2676.151	1198.9
2679.71	1194.9
2683.266	1163.9
2686.819	1145.9
2690.368	1133.9
2693.915	1076.9
2697.458	1061.9
2700.999	1045.9
2704.536	1012.9
2708.071	991.9
2711.602	965.9
2715.13	941.9
2718.656	912.9
2722.178	917.9
2725.697	886.9
2729.214	882.9
2732.727	860.9
2736.237	864.9
2739.744	844.9
2743.249	846.9
2746.75	869.9
2750.248	860.9
2753.743	882.9
2757.236	890.9
2760.725	888.9
2764.211	902.9
2767.695	896.9
2771.175	896.9
2774.652	892.9
2778.127	895.9
2781.598	879.9
2785.067	880.9
2788.532	887.9
2791.995	855.9
2795.455	877.9
2798.911	881.9
2802.365	887.9
2805.816	867.9
2809.264	882.9
2812.709	893.9
2816.151	888.9
2819.59	896.9
2823.026	887.9
2826.46	890.9
2829.89	901.9
2833.318	890.9
2836.742	900.9
2840.164	916.9
2843.583	921.9
2846.999	920.9
2850.412	954.9
2853.822	953.9
2857.229	977.9
2860.634	984.9
2864.035	1003.9
2867.434	1018.9
2870.83	1049.9
2874.223	1046.9
2877.613	1068.9
2881	1065.9
2884.385	1093.9
2887.766	1099.9
2891.145	1099.9
2894.521	1074.9
2897.894	1089.9
2901.264	1081.9
2904.631	1088.9
2907.996	1070.9
2911.358	1092.9
2914.717	1112.9
2918.073	1123.9
2921.426	1130.9
2924.777	1137.9
2928.124	1149.9
2931.469	1206.9
2934.811	1206.9
2938.15	1221.9
2941.487	1218.9
2944.821	1227.9
2948.152	1234.9
2951.48	1227.9
2954.805	1204.9
2958.128	1204.9
2961.447	1190.9
2964.765	1198.9
2968.079	1186.9
2971.39	1198.9
2974.699	1198.9
2978.005	1229.9
2981.308	1244.9
2984.609	1267.9
2987.907	1289.9
2991.202	1291.9
2994.494	1357.9
2997.784	1382.9
3001.07	1393.9
3004.355	1418.9
3007.636	1438.9
3010.915	1445.9
3014.191	1450.9
3017.464	1483.9
3020.734	1495.9
3024.002	1507.9
3027.267	1505.9
3030.53	1526.9
3033.789	1522.9
3037.046	1567.9
3040.301	1585.9
3043.552	1622.9
3046.801	1664.9
3050.048	1704.9
3053.291	1771.9
3056.532	1801.9
3059.771	1843.9
3063.006	1903.9
3066.239	1956.9
3069.469	2021.9
3072.697	2073.9
3075.922	2114.9
3079.144	2184.9
3082.364	2239.9
3085.581	2285.9
3088.795	2326.9
3092.007	2378.9
3095.216	2425.9
3098.423	2489.9
3101.627	2552.9
3104.828	2587.9
3108.026	2621.9
3111.222	2712.9
3114.416	2769.9
3117.607	2815.9
3120.795	2879.9
3123.98	2953.9
3127.163	3029.9
3130.344	3115.9
3133.521	3163.9
3136.696	3245.9
3139.869	3311.9
3143.039	3382.9
3146.206	3426.9
3149.371	3467.9
3152.533	3460.9
3155.693	3507.9
3158.85	3555.9
3162.005	3556.9
3165.157	3578.9
3168.306	3572.9
3171.453	3591.9
3174.597	3606.9
3177.739	3603.9
3180.878	3604.9
3184.014	3652.9
3187.149	3616.9
3190.28	3615.9
3193.409	3605.9
3196.536	3609.9
3199.659	3638.9
3202.781	3632.9
3205.9	3633.9
3209.016	3625.9
3212.13	3596.9
3215.241	3583.9
3218.35	3558.9
3221.456	3498.9
3224.56	3488.9
3227.661	3436.9
3230.76	3400.9
3233.856	3352.9
3236.95	3317.9
3240.041	3293.9
3243.13	3269.9
3246.216	3224.9
3249.3	3242.9
3252.382	3213.9
3255.46	3179.9
3258.537	3183.9
3261.611	3199.9
3264.682	3201.9
3267.751	3186.9
3270.818	3188.9
3273.882	3174.9
3276.943	3165.9
3280.002	3159.9
3283.059	3096.9
3286.113	3071.9
3289.165	3018.9
3292.214	2990.9
3295.261	2920.9
3298.306	2891.9
3301.348	2847.9
3304.387	2779.9
3307.425	2761.9
3310.459	2731.9
3313.492	2664.9
3316.521	2626.9
3319.549	2605.9
3322.574	2598.9
3325.597	2563.9
3328.617	2554.9
3331.635	2541.9
3334.65	2525.9
3337.663	2499.9
3340.674	2509.9
3343.682	2490.9
3346.688	2484.9
3349.691	2473.9
3352.692	2453.9
3355.691	2423.9
3358.687	2416.9
3361.681	2385.9
3364.673	2356.9
3367.662	2321.9
3370.649	2270.9
3373.633	2255.9
3376.615	2219.9
3379.595	2195.9
3382.572	2172.9
3385.547	2135.9
3388.52	2114.9
3391.49	2063.9
3394.458	2039.9
3397.424	2004.9
3400.387	1990.9
3403.348	1955.9
3406.307	1930.9
3409.263	1915.9
3412.217	1865.9
3415.168	1862.9
3418.118	1847.9
3421.065	1818.9
3424.009	1773.9
3426.951	1779.9
3429.891	1730.9
3432.829	1699.9
3435.764	1651.9
3438.697	1599.9
3441.628	1557.9
3444.557	1528.9
3447.483	1462.9
3450.407	1429.9
3453.328	1389.9
3456.247	1321.9
3459.164	1292.9
3462.079	1239.9
3464.991	1185.9
3467.902	1148.9
3470.809	1101.9
3473.715	1064.9
3476.618	1001.9
3479.519	966.9
3482.418	943.9
3485.315	918.9
3488.209	867.9
3491.101	849.9
3493.99	816.9
3496.878	787.9
3499.763	756.9
3502.646	729.9
3505.527	693.9
3508.405	664.9
3511.281	620.9
3514.155	588.9
3517.027	544.9
3519.897	513.9
3522.764	468.9
3525.629	435.9
3528.492	394.9
3531.352	351.9
3534.211	330.9
3537.067	295.9
3539.921	256.9
3542.773	224.9
3545.622	195.9
3548.469	174.9
3551.315	155.9
3554.157	127.9
3556.998	88.9
3559.837	81.9
3562.673	58.9
3565.507	30.9
3568.339	11.9
3571.169	2.9
3573.996	-20.1
3576.822	-24.1
3579.645	-60.1
3582.466	-65.1
3585.285	-85.1
3588.101	-110.1
3590.916	-133.1
3593.728	-149.1
3596.538	-166.1
3599.346	-175.1
3602.152	-196.1
3604.956	-208.1
3607.757	-224.1
3610.556	-238.1
3613.354	-248.1
3616.149	-258.1
3618.942	-270.1
3621.732	-285.1
3624.521	-301.1
3627.307	-295.1
3630.092	-299.1
3632.874	-320.1
3635.654	-326.1
3638.432	-324.1
3641.208	-336.1
3643.982	-351.1
3646.753	-352.1
3649.523	-366.1
3652.29	-370.1
3655.055	-374.1
3657.818	-389.1
3660.579	-399.1
3663.338	-417.1
3666.095	-421.1
3668.849	-428.1
3671.602	-431.1
3674.352	-442.1
3677.101	-443.1
3679.847	-464.1
3682.591	-466.1
3685.333	-468.1
3688.073	-469.1
3690.811	-476.1
3693.547	-480.1
3696.281	-488.1
3699.013	-489.1
3701.742	-490.1
3704.47	-496.1
3707.195	-490.1
3709.919	-498.1
3712.64	-511.1
3715.359	-505.1
3718.076	-512.1
3720.792	-509.1
3723.505	-518.1
3726.216	-525.1
3728.925	-515.1
3731.632	-527.1
3734.336	-533.1
3737.039	-532.1
3739.74	-532.1
3742.439	-537.1
3745.136	-537.1
3747.83	-542.1
3750.523	-541.1
3753.213	-547.1
3755.902	-550.1
3758.589	-549.1
3761.273	-552.1
3763.956	-560.1
3766.636	-553.1
3769.315	-561.1
3771.991	-558.1
3774.665	-562.1
3777.338	-557.1
3780.008	-563.1
3782.677	-561.1
3785.343	-558.1
3788.007	-561.1
3790.67	-562.1
3793.33	-566.1
3795.989	-567.1
3798.645	-566.1
3801.299	-569.1
3803.952	-573.1
3806.602	-580.1
3809.251	-580.1
3811.897	-574.1
3814.542	-576.1
3817.184	-576.1
3819.825	-574.1
3822.463	-575.1
3825.1	-583.1
3827.735	-578.1
3830.367	-576.1
3832.998	-584.1
3835.627	-583.1
3838.253	-582.1
3840.878	-590.1
3843.501	-585.1
3846.122	-579.1
3848.741	-581.1
3851.358	-582.1
3853.973	-583.1
3856.586	-585.1
3859.197	-589.1
3861.806	-589.1
3864.414	-587.1
3867.019	-585.1
3869.622	-589.1
3872.224	-575.1
3874.823	-563.1
3877.421	-559.1
3880.016	-546.1
3882.61	-528.1
3885.202	-530.1
3887.792	-533.1
3890.38	-563.1
3892.966	-576.1
3895.55	-588.1
3898.132	-604.1
3900.713	-598.1
3903.291	-588.1
3905.868	-595.1
3908.442	-596.1
3911.015	-602.1
3913.586	-593.1
3916.155	-594.1
3918.722	-596.1
3921.287	-592.1
3923.85	-598.1
3926.411	-598.1
3928.971	-610.1
3931.528	-603.1
3934.084	-597.1
3936.638	-601.1
3939.19	-602.1
3941.74	-603.1
3944.288	-602.1
3946.834	-597.1
3949.378	-604.1
3951.921	-601.1
3954.462	-607.1
3957	-601.1
3959.537	-601.1
3962.072	-605.1
3964.606	-599.1
3967.137	-600.1
3969.667	-605.1
3972.194	-595.1
3974.72	-597.1
3977.244	-591.1
3979.766	-582.1
3982.286	-590.1
3984.805	-591.1
3987.321	-585.1
3989.836	-589.1
3992.349	-589.1
3994.86	-584.1
3997.369	-594.1
3999.877	-586.1
4002.382	-585.1
4004.886	-587.1
4007.388	-581.1
4009.888	-588.1
4012.386	-592.1
4014.883	-589.1
4017.377	-589.1
4019.87	-587.1
4022.361	-587.1
4024.85	-590.1
4027.338	-589.1
4029.823	-592.1
4032.307	-585.1
4034.789	-585.1
4037.269	-580.1
4039.747	-583.1
4042.224	-591.1
4044.699	-590.1
4047.172	-590.1
4049.643	-586.1
4052.112	-597.1
4054.58	-593.1
4057.046	-595.1
4059.51	-594.1
4061.972	-593.1
4064.432	-593.1
4066.891	-593.1
4069.348	-587.1
4071.803	-587.1
4074.256	-590.1
4076.708	-595.1
4079.158	-592.1
4081.606	-596.1
4084.052	-595.1
4086.497	-588.1
4088.939	-589.1
4091.38	-589.1
4093.819	-588.1
4096.257	-622.1
4098.693	-616.1
4101.127	-620.1
4103.559	-621.1
4105.989	-347.1
4108.418	-333.1
4110.845	-312.1
4113.27	-281.1
4115.694	-257.1
4118.115	-197.1
4120.535	-583.1
4122.954	-584.1
4125.37	-579.1
4127.785	-587.1
4130.198	-587.1
4132.609	-590.1
4135.019	-619.1
4137.427	-626.1
4139.833	-624.1
4142.237	-617.1
