Data from 2018-2-14_conc=4_n=3_RamanShift_01.txt Node
Date: Wed Feb 14 13:31:55 IST 2018
User: aro
Spectrometer: QEPB0276
Trigger mode: 0
Integration Time (sec): 3.000000E1
Scans to average: 1
Electric dark correction enabled: true
Nonlinearity correction enabled: false
Boxcar width: 0
XAxis mode: Raman Shifts
Number of Pixels in Spectrum: 1044
>>>>>Begin Spectral Data<<<<<
160.701	-158
166.742	49
172.777	617
178.805	2416
184.826	6605
190.841	13870
196.849	22127
202.85	27959
208.845	29757
214.833	29498
220.815	29006
226.789	28860
232.758	28774
238.719	28563
244.674	28133
250.623	27736
256.565	27141
262.5	26593
268.429	26185
274.351	25763
280.267	25462
286.176	25173
292.079	24931
297.975	24704
303.865	24523
309.748	24410
315.625	24164
321.495	24121
327.359	24031
333.217	24008
339.068	23921
344.912	23957
350.751	23928
356.583	23826
362.408	23876
368.227	23906
374.04	23936
379.847	23998
385.647	24034
391.44	24090
397.228	24206
403.009	24334
408.784	24378
414.553	24490
420.315	24566
426.071	24560
431.821	24543
437.565	24486
443.302	24533
449.033	24425
454.758	24437
460.477	24325
466.189	24272
471.896	24207
477.596	24155
483.29	24197
488.978	24145
494.66	24012
500.335	23865
506.005	23627
511.668	23351
517.325	23109
522.977	22883
528.622	22690
534.261	22663
539.894	22513
545.521	22412
551.141	22371
556.756	22238
562.365	22236
567.968	22142
573.565	22016
579.155	21924
584.74	21865
590.319	21770
595.892	21719
601.459	21611
607.02	21513
612.575	21394
618.124	21264
623.667	21125
629.204	21062
634.735	20967
640.261	20869
645.781	20796
651.294	20745
656.802	20746
662.304	20700
667.8	20657
673.29	20665
678.775	20596
684.254	20500
689.726	20472
695.193	20383
700.655	20257
706.11	20223
711.56	20077
717.004	19932
722.442	19895
727.874	19840
733.301	19764
738.722	19691
744.137	19692
749.547	19679
754.951	19701
760.349	19686
765.741	19619
771.128	19692
776.509	19719
781.885	19695
787.254	19652
792.618	19571
797.977	19395
803.33	19327
808.677	19137
814.019	19041
819.355	18975
824.686	18890
830.011	18890
835.33	18871
840.644	18831
845.952	18961
851.255	19008
856.552	18970
861.844	18944
867.13	18941
872.41	18840
877.686	18697
882.955	18644
888.219	18470
893.478	18298
898.731	17999
903.979	17833
909.221	17776
914.458	17655
919.69	17673
924.916	17755
930.136	17750
935.351	17810
940.561	17779
945.766	17746
950.965	17610
956.158	17567
961.347	17377
966.529	17093
971.707	16931
976.879	16778
982.046	16615
987.208	16579
992.364	16564
997.515	16656
1002.66	16751
1007.801	16968
1012.936	17090
1018.066	17045
1023.19	17112
1028.309	17128
1033.423	17087
1038.532	16970
1043.636	16837
1048.734	16609
1053.827	16388
1058.915	16293
1063.998	16114
1069.075	16103
1074.147	16072
1079.214	16108
1084.276	16234
1089.333	16344
1094.385	16413
1099.431	16500
1104.472	16453
1109.509	16354
1114.54	16206
1119.565	15985
1124.586	15784
1129.602	15604
1134.613	15522
1139.618	15389
1144.619	15394
1149.614	15367
1154.604	15374
1159.589	15517
1164.57	15510
1169.545	15547
1174.515	15524
1179.48	15434
1184.44	15321
1189.395	15188
1194.345	15090
1199.29	14981
1204.23	15059
1209.165	15055
1214.095	15155
1219.021	15229
1223.941	15309
1228.856	15359
1233.766	15406
1238.672	15428
1243.572	15466
1248.467	15349
1253.358	15174
1258.244	14963
1263.124	14689
1268	14521
1272.871	14335
1277.737	14191
1282.599	14161
1287.455	14139
1292.306	14190
1297.153	14224
1301.995	14297
1306.832	14363
1311.664	14399
1316.491	14338
1321.314	14190
1326.132	14020
1330.945	13708
1335.753	13350
1340.556	12936
1345.354	12706
1350.148	12491
1354.937	12357
1359.722	12271
1364.501	12331
1369.276	12439
1374.046	12695
1378.811	12917
1383.572	13125
1388.327	13154
1393.079	13080
1397.825	12979
1402.567	12737
1407.304	12617
1412.036	12484
1416.764	12349
1421.487	12266
1426.205	12204
1430.919	12148
1435.628	12196
1440.333	12242
1445.032	12276
1449.727	12306
1454.418	12246
1459.104	12068
1463.785	11881
1468.462	11633
1473.134	11350
1477.802	11088
1482.465	10900
1487.123	10691
1491.777	10690
1496.426	10726
1501.071	10852
1505.711	11028
1510.347	11247
1514.978	11421
1519.604	11602
1524.226	11758
1528.844	11811
1533.457	11755
1538.065	11718
1542.669	11653
1547.269	11561
1551.864	11525
1556.454	11458
1561.041	11423
1565.622	11415
1570.199	11450
1574.772	11529
1579.34	11549
1583.904	11621
1588.464	11643
1593.019	11663
1597.569	11582
1602.115	11543
1606.657	11451
1611.195	11364
1615.728	11340
1620.256	11203
1624.78	11227
1629.3	11235
1633.816	11230
1638.327	11301
1642.834	11365
1647.336	11338
1651.834	11379
1656.328	11331
1660.817	11306
1665.302	11208
1669.783	10965
1674.259	10788
1678.732	10494
1683.199	10125
1687.663	9751
1692.122	9393
1696.577	9213
1701.028	9227
1705.474	9274
1709.917	9395
1714.355	9518
1718.788	9428
1723.218	9335
1727.643	9175
1732.064	9021
1736.481	8808
1740.893	8596
1745.301	8417
1749.705	8195
1754.105	7969
1758.501	7741
1762.893	7496
1767.28	7336
1771.663	7126
1776.042	6980
1780.417	6954
1784.787	6921
1789.154	6961
1793.516	7059
1797.874	7226
1802.228	7336
1806.578	7434
1810.924	7435
1815.266	7375
1819.603	7309
1823.937	7186
1828.266	7024
1832.591	6945
1836.913	6891
1841.23	6795
1845.543	6765
1849.852	6726
1854.156	6676
1858.457	6672
1862.754	6689
1867.047	6662
1871.335	6635
1875.62	6674
1879.9	6635
1884.177	6566
1888.449	6484
1892.718	6391
1896.982	6346
1901.243	6278
1905.499	6207
1909.752	6161
1914	6208
1918.245	6181
1922.485	6245
1926.722	6325
1930.954	6356
1935.183	6462
1939.408	6498
1943.628	6588
1947.845	6577
1952.058	6587
1956.267	6523
1960.472	6468
1964.673	6346
1968.87	6263
1973.063	6171
1977.252	6085
1981.438	6037
1985.619	5959
1989.797	5960
1993.971	5871
1998.14	5869
2002.306	5808
2006.469	5807
2010.627	5793
2014.781	5755
2018.932	5685
2023.078	5656
2027.221	5584
2031.36	5489
2035.495	5401
2039.627	5288
2043.754	5262
2047.878	5204
2051.998	5192
2056.114	5131
2060.226	5123
2064.334	5135
2068.439	5125
2072.54	5131
2076.637	5182
2080.73	5230
2084.82	5254
2088.906	5246
2092.988	5241
2097.066	5247
2101.14	5194
2105.211	5213
2109.278	5174
2113.342	5125
2117.401	5098
2121.457	5084
2125.509	5050
2129.558	5036
2133.602	5000
2137.643	4967
2141.681	4981
2145.714	4927
2149.744	4912
2153.77	4889
2157.793	4791
2161.812	4752
2165.827	4676
2169.838	4634
2173.846	4545
2177.851	4446
2181.851	4402
2185.848	4353
2189.841	4306
2193.831	4263
2197.817	4226
2201.799	4225
2205.778	4189
2209.753	4202
2213.725	4171
2217.693	4177
2221.657	4096
2225.618	4132
2229.575	4100
2233.529	4075
2237.479	4042
2241.425	3981
2245.368	3944
2249.307	3898
2253.243	3813
2257.175	3757
2261.104	3715
2265.029	3679
2268.95	3651
2272.868	3595
2276.783	3601
2280.694	3522
2284.601	3509
2288.505	3462
2292.405	3405
2296.302	3383
2300.195	3356
2304.085	3332
2307.971	3269
2311.854	3240
2315.734	3189
2319.609	3162
2323.482	3109
2327.351	3071
2331.216	3056
2335.078	3040
2338.937	3033
2342.792	2998
2346.643	2963
2350.492	2967
2354.336	2988
2358.178	2982
2362.015	3043
2365.85	3023
2369.681	3002
2373.508	3019
2377.333	2991
2381.153	3018
2384.971	3001
2388.785	2964
2392.595	2933
2396.402	2904
2400.206	2899
2404.007	2888
2407.804	2848
2411.597	2857
2415.388	2819
2419.174	2809
2422.958	2803
2426.738	2773
2430.515	2728
2434.289	2684
2438.059	2714
2441.825	2677
2445.589	2647
2449.349	2613
2453.106	2579
2456.859	2541
2460.61	2516
2464.356	2485
2468.1	2430
2471.84	2455
2475.577	2393
2479.311	2398
2483.041	2365
2486.768	2379
2490.492	2355
2494.213	2367
2497.93	2327
2501.644	2318
2505.355	2289
2509.062	2287
2512.766	2294
2516.467	2281
2520.165	2259
2523.859	2241
2527.551	2221
2531.239	2196
2534.923	2184
2538.605	2171
2542.283	2182
2545.958	2150
2549.63	2183
2553.299	2165
2556.964	2150
2560.626	2140
2564.285	2155
2567.941	2117
2571.594	2112
2575.243	2109
2578.89	2071
2582.533	2064
2586.173	2054
2589.809	2039
2593.443	2003
2597.073	2037
2600.701	2006
2604.325	1992
2607.946	1966
2611.564	1939
2615.178	1944
2618.79	1924
2622.398	1910
2626.004	1903
2629.606	1878
2633.205	1852
2636.801	1806
2640.394	1792
2643.983	1774
2647.57	1737
2651.153	1716
2654.734	1680
2658.311	1662
2661.885	1638
2665.456	1632
2669.025	1583
2672.589	1590
2676.151	1574
2679.71	1553
2683.266	1516
2686.819	1493
2690.368	1471
2693.915	1443
2697.458	1409
2700.999	1365
2704.536	1350
2708.071	1296
2711.602	1283
2715.13	1242
2718.656	1221
2722.178	1204
2725.697	1182
2729.214	1167
2732.727	1167
2736.237	1135
2739.744	1129
2743.249	1131
2746.75	1140
2750.248	1143
2753.743	1171
2757.236	1175
2760.725	1191
2764.211	1198
2767.695	1205
2771.175	1205
2774.652	1202
2778.127	1193
2781.598	1167
2785.067	1184
2788.532	1184
2791.995	1150
2795.455	1174
2798.911	1171
2802.365	1162
2805.816	1176
2809.264	1160
2812.709	1148
2816.151	1153
2819.59	1159
2823.026	1152
2826.46	1168
2829.89	1175
2833.318	1167
2836.742	1171
2840.164	1172
2843.583	1192
2846.999	1208
2850.412	1205
2853.822	1216
2857.229	1227
2860.634	1247
2864.035	1285
2867.434	1293
2870.83	1315
2874.223	1316
2877.613	1349
2881	1377
2884.385	1365
2887.766	1368
2891.145	1377
2894.521	1378
2897.894	1379
2901.264	1359
2904.631	1389
2907.996	1367
2911.358	1381
2914.717	1384
2918.073	1393
2921.426	1411
2924.777	1411
2928.124	1451
2931.469	1466
2934.811	1491
2938.15	1512
2941.487	1510
2944.821	1529
2948.152	1505
2951.48	1517
2954.805	1495
2958.128	1460
2961.447	1458
2964.765	1453
2968.079	1467
2971.39	1461
2974.699	1472
2978.005	1520
2981.308	1532
2984.609	1568
2987.907	1604
2991.202	1620
2994.494	1657
2997.784	1688
3001.07	1715
3004.355	1748
3007.636	1761
3010.915	1765
3014.191	1813
3017.464	1825
3020.734	1827
3024.002	1855
3027.267	1839
3030.53	1887
3033.789	1895
3037.046	1917
3040.301	1945
3043.552	1969
3046.801	2017
3050.048	2048
3053.291	2093
3056.532	2169
3059.771	2216
3063.006	2291
3066.239	2345
3069.469	2403
3072.697	2479
3075.922	2520
3079.144	2611
3082.364	2624
3085.581	2680
3088.795	2757
3092.007	2816
3095.216	2866
3098.423	2914
3101.627	3011
3104.828	3067
3108.026	3140
3111.222	3220
3114.416	3285
3117.607	3353
3120.795	3411
3123.98	3493
3127.163	3591
3130.344	3676
3133.521	3775
3136.696	3829
3139.869	3913
3143.039	3984
3146.206	4070
3149.371	4092
3152.533	4141
3155.693	4167
3158.85	4198
3162.005	4185
3165.157	4207
3168.306	4213
3171.453	4229
3174.597	4242
3177.739	4258
3180.878	4223
3184.014	4259
3187.149	4259
3190.28	4262
3193.409	4269
3196.536	4279
3199.659	4296
3202.781	4302
3205.9	4279
3209.016	4267
3212.13	4246
3215.241	4227
3218.35	4180
3221.456	4165
3224.56	4105
3227.661	4047
3230.76	4007
3233.856	3985
3236.95	3943
3240.041	3883
3243.13	3895
3246.216	3848
3249.3	3826
3252.382	3838
3255.46	3840
3258.537	3778
3261.611	3789
3264.682	3802
3267.751	3817
3270.818	3785
3273.882	3774
3276.943	3746
3280.002	3707
3283.059	3714
3286.113	3641
3289.165	3600
3292.214	3567
3295.261	3486
3298.306	3414
3301.348	3364
3304.387	3318
3307.425	3273
3310.459	3199
3313.492	3167
3316.521	3121
3319.549	3086
3322.574	3058
3325.597	3041
3328.617	3009
3331.635	2989
3334.65	2958
3337.663	2944
3340.674	2943
3343.682	2920
3346.688	2921
3349.691	2894
3352.692	2859
3355.691	2856
3358.687	2845
3361.681	2808
3364.673	2735
3367.662	2716
3370.649	2677
3373.633	2652
3376.615	2584
3379.595	2566
3382.572	2531
3385.547	2460
3388.52	2439
3391.49	2409
3394.458	2365
3397.424	2354
3400.387	2300
3403.348	2270
3406.307	2248
3409.263	2226
3412.217	2187
3415.168	2194
3418.118	2163
3421.065	2120
3424.009	2092
3426.951	2052
3429.891	2003
3432.829	1977
3435.764	1943
3438.697	1889
3441.628	1806
3444.557	1779
3447.483	1724
3450.407	1667
3453.328	1605
3456.247	1558
3459.164	1486
3462.079	1442
3464.991	1390
3467.902	1330
3470.809	1283
3473.715	1242
3476.618	1199
3479.519	1155
3482.418	1112
3485.315	1082
3488.209	1034
3491.101	1005
3493.99	979
3496.878	923
3499.763	897
3502.646	849
3505.527	808
3508.405	766
3511.281	720
3514.155	687
3517.027	652
3519.897	610
3522.764	554
3525.629	520
3528.492	475
3531.352	421
3534.211	388
3537.067	356
3539.921	307
3542.773	280
3545.622	257
3548.469	210
3551.315	181
3554.157	157
3556.998	121
3559.837	117
3562.673	80
3565.507	45
3568.339	12
3571.169	-2
3573.996	-15
3576.822	-51
3579.645	-63
3582.466	-81
3585.285	-116
3588.101	-130
3590.916	-147
3593.728	-172
3596.538	-181
3599.346	-203
3602.152	-230
3604.956	-236
3607.757	-261
3610.556	-272
3613.354	-288
3616.149	-298
3618.942	-318
3621.732	-315
3624.521	-342
3627.307	-355
3630.092	-366
3632.874	-375
3635.654	-388
3638.432	-386
3641.208	-395
3643.982	-413
3646.753	-412
3649.523	-433
3652.29	-433
3655.055	-444
3657.818	-464
3660.579	-466
3663.338	-477
3666.095	-480
3668.849	-496
3671.602	-512
3674.352	-515
3677.101	-525
3679.847	-534
3682.591	-543
3685.333	-545
3688.073	-541
3690.811	-562
3693.547	-561
3696.281	-564
3699.013	-567
3701.742	-569
3704.47	-575
3707.195	-586
3709.919	-591
3712.64	-600
3715.359	-593
3718.076	-606
3720.792	-605
3723.505	-602
3726.216	-614
3728.925	-618
3731.632	-621
3734.336	-626
3737.039	-627
3739.74	-637
3742.439	-618
3745.136	-634
3747.83	-641
3750.523	-634
3753.213	-611
3755.902	-644
3758.589	-641
3761.273	-640
3763.956	-647
3766.636	-647
3769.315	-654
3771.991	-649
3774.665	-657
3777.338	-656
3780.008	-665
3782.677	-662
3785.343	-659
3788.007	-665
3790.67	-664
3793.33	-665
3795.989	-665
3798.645	-661
3801.299	-666
3803.952	-675
3806.602	-675
3809.251	-677
3811.897	-674
3814.542	-679
3817.184	-671
3819.825	-679
3822.463	-667
3825.1	-681
3827.735	-673
3830.367	-677
3832.998	-682
3835.627	-687
3838.253	-687
3840.878	-690
3843.501	-688
3846.122	-677
3848.741	-684
3851.358	-682
3853.973	-680
3856.586	-685
3859.197	-688
3861.806	-689
3864.414	-685
3867.019	-694
3869.622	-684
3872.224	-684
3874.823	-663
3877.421	-659
3880.016	-641
3882.61	-631
3885.202	-625
3887.792	-627
3890.38	-666
3892.966	-680
3895.55	-694
3898.132	-705
3900.713	-707
3903.291	-699
3905.868	-700
3908.442	-704
3911.015	-703
3913.586	-697
3916.155	-694
3918.722	-703
3921.287	-701
3923.85	-705
3926.411	-707
3928.971	-710
3931.528	-710
3934.084	-707
3936.638	-704
3939.19	-706
3941.74	-707
3944.288	-706
3946.834	-703
3949.378	-703
3951.921	-712
3954.462	-710
3957	-706
3959.537	-706
3962.072	-703
3964.606	-702
3967.137	-704
3969.667	-704
3972.194	-697
3974.72	-704
3977.244	-691
3979.766	-698
3982.286	-690
3984.805	-694
3987.321	-692
3989.836	-691
3992.349	-686
3994.86	-688
3997.369	-698
3999.877	-688
4002.382	-693
4004.886	-689
4007.388	-688
4009.888	-692
4012.386	-694
4014.883	-689
4017.377	-690
4019.87	-687
4022.361	-690
4024.85	-691
4027.338	-688
4029.823	-695
4032.307	-692
4034.789	-688
4037.269	-682
4039.747	-688
4042.224	-689
4044.699	-692
4047.172	-688
4049.643	-692
4052.112	-703
4054.58	-702
4057.046	-697
4059.51	-697
4061.972	-697
4064.432	-699
4066.891	-694
4069.348	-687
4071.803	-685
4074.256	-692
4076.708	-693
4079.158	-688
4081.606	-700
4084.052	-699
4086.497	-690
4088.939	-688
4091.38	-687
4093.819	-690
4096.257	-726
4098.693	-727
4101.127	-731
4103.559	-729
4105.989	-424
4108.418	-397
4110.845	-373
4113.27	-353
4115.694	-300
4118.115	-252
4120.535	-690
4122.954	-691
4125.37	-687
4127.785	-694
4130.198	-695
4132.609	-696
4135.019	-732
4137.427	-733
4139.833	-732
4142.237	-727
