Data from 2018-2-14_conc=5_n=6_RamanShift_03.txt Node
Date: Wed Feb 14 14:22:25 IST 2018
User: aro
Spectrometer: QEPB0276
Trigger mode: 0
Integration Time (sec): 3.000000E1
Scans to average: 1
Electric dark correction enabled: true
Nonlinearity correction enabled: false
Boxcar width: 0
XAxis mode: Raman Shifts
Number of Pixels in Spectrum: 1044
>>>>>Begin Spectral Data<<<<<
160.701	-140.1
166.742	41.9
172.777	571.9
178.805	2215.9
184.826	6146.9
190.841	12893.9
196.849	20684.9
202.85	26195.9
208.845	27995.9
214.833	27575.9
220.815	27117.9
226.789	26918.9
232.758	26758.9
238.719	26508.9
244.674	26135.9
250.623	25691.9
256.565	25056.9
262.5	24550.9
268.429	24045.9
274.351	23627.9
280.267	23381.9
286.176	23043.9
292.079	22786.9
297.975	22587.9
303.865	22323.9
309.748	22219.9
315.625	22024.9
321.495	21935.9
327.359	21888.9
333.217	21779.9
339.068	21691.9
344.912	21741.9
350.751	21681.9
356.583	21619.9
362.408	21633.9
368.227	21644.9
374.04	21652.9
379.847	21699.9
385.647	21786.9
391.44	21890.9
397.228	21901.9
403.009	22059.9
408.784	22063.9
414.553	22170.9
420.315	22210.9
426.071	22279.9
431.821	22220.9
437.565	22184.9
443.302	22208.9
449.033	22143.9
454.758	22089.9
460.477	21983.9
466.189	21997.9
471.896	21896.9
477.596	21884.9
483.29	21798.9
488.978	21777.9
494.66	21733.9
500.335	21518.9
506.005	21357.9
511.668	21130.9
517.325	20877.9
522.977	20706.9
528.622	20552.9
534.261	20411.9
539.894	20279.9
545.521	20163.9
551.141	20143.9
556.756	20072.9
562.365	20029.9
567.968	19914.9
573.565	19796.9
579.155	19767.9
584.74	19687.9
590.319	19603.9
595.892	19517.9
601.459	19451.9
607.02	19413.9
612.575	19193.9
618.124	19168.9
623.667	19023.9
629.204	18930.9
634.735	18808.9
640.261	18797.9
645.781	18705.9
651.294	18666.9
656.802	18616.9
662.304	18624.9
667.8	18493.9
673.29	18581.9
678.775	18533.9
684.254	18410.9
689.726	18359.9
695.193	18324.9
700.655	18177.9
706.11	18108.9
711.56	18092.9
717.004	17909.9
722.442	17911.9
727.874	17751.9
733.301	17698.9
738.722	17676.9
744.137	17640.9
749.547	17669.9
754.951	17671.9
760.349	17655.9
765.741	17668.9
771.128	17660.9
776.509	17648.9
781.885	17681.9
787.254	17599.9
792.618	17533.9
797.977	17416.9
803.33	17327.9
808.677	17226.9
814.019	17086.9
819.355	17049.9
824.686	16931.9
830.011	16904.9
835.33	16870.9
840.644	16864.9
845.952	16935.9
851.255	16967.9
856.552	16973.9
861.844	16949.9
867.13	16897.9
872.41	16856.9
877.686	16706.9
882.955	16636.9
888.219	16445.9
893.478	16333.9
898.731	16122.9
903.979	15889.9
909.221	15816.9
914.458	15797.9
919.69	15751.9
924.916	15756.9
930.136	15876.9
935.351	15888.9
940.561	15852.9
945.766	15843.9
950.965	15738.9
956.158	15597.9
961.347	15456.9
966.529	15305.9
971.707	15038.9
976.879	14918.9
982.046	14763.9
987.208	14786.9
992.364	14682.9
997.515	14826.9
1002.66	14976.9
1007.801	15096.9
1012.936	15190.9
1018.066	15255.9
1023.19	15186.9
1028.309	15205.9
1033.423	15212.9
1038.532	15098.9
1043.636	14980.9
1048.734	14778.9
1053.827	14592.9
1058.915	14435.9
1063.998	14378.9
1069.075	14293.9
1074.147	14281.9
1079.214	14356.9
1084.276	14449.9
1089.333	14513.9
1094.385	14548.9
1099.431	14598.9
1104.472	14648.9
1109.509	14531.9
1114.54	14369.9
1119.565	14192.9
1124.586	14023.9
1129.602	13894.9
1134.613	13758.9
1139.618	13713.9
1144.619	13669.9
1149.614	13666.9
1154.604	13752.9
1159.589	13740.9
1164.57	13756.9
1169.545	13759.9
1174.515	13749.9
1179.48	13674.9
1184.44	13610.9
1189.395	13493.9
1194.345	13416.9
1199.29	13362.9
1204.23	13369.9
1209.165	13381.9
1214.095	13479.9
1219.021	13512.9
1223.941	13560.9
1228.856	13609.9
1233.766	13698.9
1238.672	13781.9
1243.572	13716.9
1248.467	13561.9
1253.358	13422.9
1258.244	13294.9
1263.124	13080.9
1268	12882.9
1272.871	12738.9
1277.737	12635.9
1282.599	12568.9
1287.455	12576.9
1292.306	12589.9
1297.153	12605.9
1301.995	12688.9
1306.832	12684.9
1311.664	12709.9
1316.491	12698.9
1321.314	12628.9
1326.132	12435.9
1330.945	12118.9
1335.753	11857.9
1340.556	11591.9
1345.354	11339.9
1350.148	11144.9
1354.937	11043.9
1359.722	11056.9
1364.501	11156.9
1369.276	11297.9
1374.046	11439.9
1378.811	11639.9
1383.572	11800.9
1388.327	11841.9
1393.079	11734.9
1397.825	11598.9
1402.567	11458.9
1407.304	11208.9
1412.036	11149.9
1416.764	11048.9
1421.487	10981.9
1426.205	10913.9
1430.919	10840.9
1435.628	10832.9
1440.333	10886.9
1445.032	10894.9
1449.727	10907.9
1454.418	10917.9
1459.104	10760.9
1463.785	10630.9
1468.462	10438.9
1473.134	10205.9
1477.802	10049.9
1482.465	9892.9
1487.123	9776.9
1491.777	9757.9
1496.426	9813.9
1501.071	9954.9
1505.711	10106.9
1510.347	10286.9
1514.978	10478.9
1519.604	10644.9
1524.226	10727.9
1528.844	10774.9
1533.457	10708.9
1538.065	10655.9
1542.669	10587.9
1547.269	10533.9
1551.864	10434.9
1556.454	10385.9
1561.041	10356.9
1565.622	10314.9
1570.199	10318.9
1574.772	10413.9
1579.34	10478.9
1583.904	10520.9
1588.464	10594.9
1593.019	10543.9
1597.569	10528.9
1602.115	10442.9
1606.657	10375.9
1611.195	10317.9
1615.728	10272.9
1620.256	10283.9
1624.78	10269.9
1629.3	10204.9
1633.816	10293.9
1638.327	10375.9
1642.834	10400.9
1647.336	10505.9
1651.834	10499.9
1656.328	10492.9
1660.817	10425.9
1665.302	10364.9
1669.783	10166.9
1674.259	9996.9
1678.732	9716.9
1683.199	9394.9
1687.663	9083.9
1692.122	8769.9
1696.577	8615.9
1701.028	8659.9
1705.474	8735.9
1709.917	8823.9
1714.355	8908.9
1718.788	8750.9
1723.218	8656.9
1727.643	8452.9
1732.064	8263.9
1736.481	8074.9
1740.893	7882.9
1745.301	7691.9
1749.705	7498.9
1754.105	7273.9
1758.501	7082.9
1762.893	6855.9
1767.28	6712.9
1771.663	6554.9
1776.042	6432.9
1780.417	6396.9
1784.787	6404.9
1789.154	6466.9
1793.516	6599.9
1797.874	6758.9
1802.228	6866.9
1806.578	6949.9
1810.924	6918.9
1815.266	6850.9
1819.603	6762.9
1823.937	6640.9
1828.266	6486.9
1832.591	6438.9
1836.913	6300.9
1841.23	6245.9
1845.543	6219.9
1849.852	6181.9
1854.156	6149.9
1858.457	6118.9
1862.754	6143.9
1867.047	6109.9
1871.335	6118.9
1875.62	6106.9
1879.9	6099.9
1884.177	6071.9
1888.449	6011.9
1892.718	5988.9
1896.982	5904.9
1901.243	5868.9
1905.499	5785.9
1909.752	5787.9
1914	5832.9
1918.245	5818.9
1922.485	5905.9
1926.722	5941.9
1930.954	6021.9
1935.183	6126.9
1939.408	6182.9
1943.628	6215.9
1947.845	6241.9
1952.058	6228.9
1956.267	6154.9
1960.472	6078.9
1964.673	5991.9
1968.87	5887.9
1973.063	5766.9
1977.252	5692.9
1981.438	5614.9
1985.619	5564.9
1989.797	5497.9
1993.971	5466.9
1998.14	5438.9
2002.306	5422.9
2006.469	5405.9
2010.627	5398.9
2014.781	5350.9
2018.932	5289.9
2023.078	5220.9
2027.221	5174.9
2031.36	5107.9
2035.495	5030.9
2039.627	4942.9
2043.754	4910.9
2047.878	4848.9
2051.998	4811.9
2056.114	4817.9
2060.226	4809.9
2064.334	4839.9
2068.439	4841.9
2072.54	4861.9
2076.637	4910.9
2080.73	4929.9
2084.82	4989.9
2088.906	4987.9
2092.988	4983.9
2097.066	4971.9
2101.14	4962.9
2105.211	4911.9
2109.278	4900.9
2113.342	4853.9
2117.401	4832.9
2121.457	4791.9
2125.509	4769.9
2129.558	4767.9
2133.602	4699.9
2137.643	4694.9
2141.681	4675.9
2145.714	4681.9
2149.744	4597.9
2153.77	4576.9
2157.793	4534.9
2161.812	4443.9
2165.827	4398.9
2169.838	4308.9
2173.846	4228.9
2177.851	4173.9
2181.851	4101.9
2185.848	4068.9
2189.841	4018.9
2193.831	3975.9
2197.817	3885.9
2201.799	3927.9
2205.778	3885.9
2209.753	3894.9
2213.725	3870.9
2217.693	3855.9
2221.657	3834.9
2225.618	3848.9
2229.575	3826.9
2233.529	3796.9
2237.479	3759.9
2241.425	3689.9
2245.368	3686.9
2249.307	3596.9
2253.243	3547.9
2257.175	3539.9
2261.104	3463.9
2265.029	3408.9
2268.95	3381.9
2272.868	3327.9
2276.783	3317.9
2280.694	3276.9
2284.601	3242.9
2288.505	3185.9
2292.405	3181.9
2296.302	3144.9
2300.195	3085.9
2304.085	3065.9
2307.971	3002.9
2311.854	2977.9
2315.734	2924.9
2319.609	2878.9
2323.482	2858.9
2327.351	2811.9
2331.216	2771.9
2335.078	2768.9
2338.937	2747.9
2342.792	2720.9
2346.643	2730.9
2350.492	2715.9
2354.336	2731.9
2358.178	2725.9
2362.015	2756.9
2365.85	2734.9
2369.681	2737.9
2373.508	2748.9
2377.333	2742.9
2381.153	2706.9
2384.971	2682.9
2388.785	2706.9
2392.595	2655.9
2396.402	2641.9
2400.206	2634.9
2404.007	2598.9
2407.804	2586.9
2411.597	2541.9
2415.388	2532.9
2419.174	2510.9
2422.958	2509.9
2426.738	2483.9
2430.515	2481.9
2434.289	2458.9
2438.059	2432.9
2441.825	2398.9
2445.589	2389.9
2449.349	2374.9
2453.106	2345.9
2456.859	2296.9
2460.61	2266.9
2464.356	2252.9
2468.1	2219.9
2471.84	2212.9
2475.577	2175.9
2479.311	2171.9
2483.041	2167.9
2486.768	2149.9
2490.492	2163.9
2494.213	2156.9
2497.93	2150.9
2501.644	2139.9
2505.355	2105.9
2509.062	2106.9
2512.766	2110.9
2516.467	2086.9
2520.165	2074.9
2523.859	2045.9
2527.551	2062.9
2531.239	2048.9
2534.923	2027.9
2538.605	2019.9
2542.283	2001.9
2545.958	1988.9
2549.63	2014.9
2553.299	2021.9
2556.964	2003.9
2560.626	1982.9
2564.285	1970.9
2567.941	1974.9
2571.594	1970.9
2575.243	1952.9
2578.89	1928.9
2582.533	1893.9
2586.173	1901.9
2589.809	1891.9
2593.443	1861.9
2597.073	1845.9
2600.701	1848.9
2604.325	1849.9
2607.946	1810.9
2611.564	1803.9
2615.178	1812.9
2618.79	1778.9
2622.398	1757.9
2626.004	1751.9
2629.606	1711.9
2633.205	1698.9
2636.801	1669.9
2640.394	1648.9
2643.983	1620.9
2647.57	1596.9
2651.153	1582.9
2654.734	1548.9
2658.311	1522.9
2661.885	1496.9
2665.456	1497.9
2669.025	1455.9
2672.589	1454.9
2676.151	1412.9
2679.71	1416.9
2683.266	1396.9
2686.819	1365.9
2690.368	1346.9
2693.915	1314.9
2697.458	1294.9
2700.999	1254.9
2704.536	1217.9
2708.071	1198.9
2711.602	1196.9
2715.13	1150.9
2718.656	1132.9
2722.178	1108.9
2725.697	1103.9
2729.214	1085.9
2732.727	1075.9
2736.237	1068.9
2739.744	1069.9
2743.249	1073.9
2746.75	1079.9
2750.248	1101.9
2753.743	1117.9
2757.236	1129.9
2760.725	1146.9
2764.211	1133.9
2767.695	1155.9
2771.175	1162.9
2774.652	1163.9
2778.127	1150.9
2781.598	1124.9
2785.067	1123.9
2788.532	1112.9
2791.995	1113.9
2795.455	1100.9
2798.911	1099.9
2802.365	1123.9
2805.816	1132.9
2809.264	1101.9
2812.709	1113.9
2816.151	1098.9
2819.59	1106.9
2823.026	1112.9
2826.46	1108.9
2829.89	1118.9
2833.318	1126.9
2836.742	1138.9
2840.164	1137.9
2843.583	1148.9
2846.999	1154.9
2850.412	1146.9
2853.822	1170.9
2857.229	1177.9
2860.634	1204.9
2864.035	1220.9
2867.434	1253.9
2870.83	1274.9
2874.223	1284.9
2877.613	1327.9
2881	1339.9
2884.385	1348.9
2887.766	1336.9
2891.145	1324.9
2894.521	1332.9
2897.894	1342.9
2901.264	1317.9
2904.631	1348.9
2907.996	1341.9
2911.358	1348.9
2914.717	1352.9
2918.073	1360.9
2921.426	1382.9
2924.777	1395.9
2928.124	1411.9
2931.469	1451.9
2934.811	1471.9
2938.15	1470.9
2941.487	1511.9
2944.821	1508.9
2948.152	1499.9
2951.48	1501.9
2954.805	1481.9
2958.128	1455.9
2961.447	1472.9
2964.765	1461.9
2968.079	1473.9
2971.39	1488.9
2974.699	1487.9
2978.005	1530.9
2981.308	1544.9
2984.609	1578.9
2987.907	1602.9
2991.202	1626.9
2994.494	1665.9
2997.784	1700.9
3001.07	1745.9
3004.355	1764.9
3007.636	1785.9
3010.915	1809.9
3014.191	1822.9
3017.464	1838.9
3020.734	1860.9
3024.002	1865.9
3027.267	1874.9
3030.53	1890.9
3033.789	1913.9
3037.046	1924.9
3040.301	1938.9
3043.552	2003.9
3046.801	2012.9
3050.048	2070.9
3053.291	2129.9
3056.532	2174.9
3059.771	2214.9
3063.006	2300.9
3066.239	2353.9
3069.469	2429.9
3072.697	2500.9
3075.922	2576.9
3079.144	2618.9
3082.364	2677.9
3085.581	2736.9
3088.795	2798.9
3092.007	2849.9
3095.216	2945.9
3098.423	2984.9
3101.627	3069.9
3104.828	3131.9
3108.026	3191.9
3111.222	3288.9
3114.416	3333.9
3117.607	3430.9
3120.795	3476.9
3123.98	3594.9
3127.163	3659.9
3130.344	3730.9
3133.521	3863.9
3136.696	3924.9
3139.869	4025.9
3143.039	4050.9
3146.206	4139.9
3149.371	4186.9
3152.533	4214.9
3155.693	4238.9
3158.85	4264.9
3162.005	4309.9
3165.157	4291.9
3168.306	4294.9
3171.453	4341.9
3174.597	4379.9
3177.739	4333.9
3180.878	4388.9
3184.014	4363.9
3187.149	4368.9
3190.28	4367.9
3193.409	4397.9
3196.536	4387.9
3199.659	4383.9
3202.781	4422.9
3205.9	4381.9
3209.016	4393.9
3212.13	4394.9
3215.241	4319.9
3218.35	4284.9
3221.456	4254.9
3224.56	4258.9
3227.661	4177.9
3230.76	4141.9
3233.856	4106.9
3236.95	4083.9
3240.041	4043.9
3243.13	4025.9
3246.216	3996.9
3249.3	3967.9
3252.382	3975.9
3255.46	3927.9
3258.537	3935.9
3261.611	3946.9
3264.682	3950.9
3267.751	3921.9
3270.818	3916.9
3273.882	3887.9
3276.943	3891.9
3280.002	3842.9
3283.059	3850.9
3286.113	3781.9
3289.165	3711.9
3292.214	3656.9
3295.261	3612.9
3298.306	3528.9
3301.348	3489.9
3304.387	3437.9
3307.425	3362.9
3310.459	3331.9
3313.492	3257.9
3316.521	3211.9
3319.549	3194.9
3322.574	3161.9
3325.597	3137.9
3328.617	3110.9
3331.635	3090.9
3334.65	3057.9
3337.663	3051.9
3340.674	3022.9
3343.682	3018.9
3346.688	3007.9
3349.691	2989.9
3352.692	2996.9
3355.691	2939.9
3358.687	2954.9
3361.681	2908.9
3364.673	2859.9
3367.662	2822.9
3370.649	2774.9
3373.633	2750.9
3376.615	2684.9
3379.595	2673.9
3382.572	2651.9
3385.547	2596.9
3388.52	2567.9
3391.49	2534.9
3394.458	2469.9
3397.424	2462.9
3400.387	2410.9
3403.348	2400.9
3406.307	2365.9
3409.263	2334.9
3412.217	2320.9
3415.168	2277.9
3418.118	2254.9
3421.065	2222.9
3424.009	2207.9
3426.951	2181.9
3429.891	2144.9
3432.829	2106.9
3435.764	2046.9
3438.697	1998.9
3441.628	1952.9
3444.557	1899.9
3447.483	1839.9
3450.407	1785.9
3453.328	1714.9
3456.247	1667.9
3459.164	1620.9
3462.079	1548.9
3464.991	1500.9
3467.902	1443.9
3470.809	1404.9
3473.715	1353.9
3476.618	1296.9
3479.519	1241.9
3482.418	1222.9
3485.315	1181.9
3488.209	1141.9
3491.101	1093.9
3493.99	1060.9
3496.878	1011.9
3499.763	977.9
3502.646	947.9
3505.527	925.9
3508.405	872.9
3511.281	830.9
3514.155	782.9
3517.027	746.9
3519.897	683.9
3522.764	658.9
3525.629	608.9
3528.492	553.9
3531.352	520.9
3534.211	472.9
3537.067	430.9
3539.921	397.9
3542.773	345.9
3545.622	330.9
3548.469	289.9
3551.315	259.9
3554.157	245.9
3556.998	196.9
3559.837	183.9
3562.673	146.9
3565.507	125.9
3568.339	84.9
3571.169	76.9
3573.996	57.9
3576.822	36.9
3579.645	13.9
3582.466	-4.1
3585.285	-36.1
3588.101	-58.1
3590.916	-71.1
3593.728	-117.1
3596.538	-120.1
3599.346	-151.1
3602.152	-159.1
3604.956	-163.1
3607.757	-199.1
3610.556	-215.1
3613.354	-222.1
3616.149	-235.1
3618.942	-248.1
3621.732	-258.1
3624.521	-286.1
3627.307	-285.1
3630.092	-291.1
3632.874	-306.1
3635.654	-319.1
3638.432	-325.1
3641.208	-331.1
3643.982	-352.1
3646.753	-354.1
3649.523	-371.1
3652.29	-380.1
3655.055	-385.1
3657.818	-410.1
3660.579	-410.1
3663.338	-420.1
3666.095	-435.1
3668.849	-444.1
3671.602	-454.1
3674.352	-459.1
3677.101	-471.1
3679.847	-479.1
3682.591	-483.1
3685.333	-490.1
3688.073	-492.1
3690.811	-506.1
3693.547	-507.1
3696.281	-510.1
3699.013	-507.1
3701.742	-518.1
3704.47	-525.1
3707.195	-533.1
3709.919	-535.1
3712.64	-535.1
3715.359	-537.1
3718.076	-546.1
3720.792	-551.1
3723.505	-543.1
3726.216	-558.1
3728.925	-554.1
3731.632	-570.1
3734.336	-570.1
3737.039	-573.1
3739.74	-574.1
3742.439	-577.1
3745.136	-575.1
3747.83	-580.1
3750.523	-580.1
3753.213	-583.1
3755.902	-580.1
3758.589	-586.1
3761.273	-585.1
3763.956	-590.1
3766.636	-591.1
3769.315	-592.1
3771.991	-595.1
3774.665	-602.1
3777.338	-600.1
3780.008	-607.1
3782.677	-607.1
3785.343	-606.1
3788.007	-603.1
3790.67	-608.1
3793.33	-612.1
3795.989	-612.1
3798.645	-607.1
3801.299	-607.1
3803.952	-617.1
3806.602	-626.1
3809.251	-618.1
3811.897	-625.1
3814.542	-616.1
3817.184	-615.1
3819.825	-619.1
3822.463	-609.1
3825.1	-624.1
3827.735	-617.1
3830.367	-619.1
3832.998	-624.1
3835.627	-634.1
3838.253	-629.1
3840.878	-632.1
3843.501	-626.1
3846.122	-625.1
3848.741	-621.1
3851.358	-619.1
3853.973	-625.1
3856.586	-634.1
3859.197	-632.1
3861.806	-637.1
3864.414	-630.1
3867.019	-633.1
3869.622	-635.1
3872.224	-628.1
3874.823	-612.1
3877.421	-600.1
3880.016	-581.1
3882.61	-562.1
3885.202	-560.1
3887.792	-573.1
3890.38	-607.1
3892.966	-622.1
3895.55	-626.1
3898.132	-640.1
3900.713	-646.1
3903.291	-641.1
3905.868	-641.1
3908.442	-645.1
3911.015	-648.1
3913.586	-636.1
3916.155	-639.1
3918.722	-645.1
3921.287	-642.1
3923.85	-648.1
3926.411	-649.1
3928.971	-658.1
3931.528	-653.1
3934.084	-652.1
3936.638	-646.1
3939.19	-649.1
3941.74	-652.1
3944.288	-652.1
3946.834	-639.1
3949.378	-646.1
3951.921	-648.1
3954.462	-653.1
3957	-643.1
3959.537	-649.1
3962.072	-645.1
3964.606	-651.1
3967.137	-647.1
3969.667	-651.1
3972.194	-644.1
3974.72	-643.1
3977.244	-633.1
3979.766	-636.1
3982.286	-640.1
3984.805	-639.1
3987.321	-636.1
3989.836	-639.1
3992.349	-629.1
3994.86	-634.1
3997.369	-644.1
3999.877	-630.1
4002.382	-633.1
4004.886	-631.1
4007.388	-629.1
4009.888	-626.1
4012.386	-634.1
4014.883	-630.1
4017.377	-635.1
4019.87	-629.1
4022.361	-636.1
4024.85	-633.1
4027.338	-636.1
4029.823	-637.1
4032.307	-641.1
4034.789	-638.1
4037.269	-631.1
4039.747	-637.1
4042.224	-636.1
4044.699	-643.1
4047.172	-639.1
4049.643	-629.1
4052.112	-647.1
4054.58	-642.1
4057.046	-640.1
4059.51	-642.1
4061.972	-641.1
4064.432	-639.1
4066.891	-635.1
4069.348	-639.1
4071.803	-631.1
4074.256	-635.1
4076.708	-637.1
4079.158	-637.1
4081.606	-638.1
4084.052	-640.1
4086.497	-644.1
4088.939	-631.1
4091.38	-634.1
4093.819	-634.1
4096.257	-670.1
4098.693	-671.1
4101.127	-675.1
4103.559	-673.1
4105.989	-391.1
4108.418	-364.1
4110.845	-347.1
4113.27	-311.1
4115.694	-283.1
4118.115	-228.1
4120.535	-633.1
4122.954	-634.1
4125.37	-630.1
4127.785	-634.1
4130.198	-639.1
4132.609	-639.1
4135.019	-674.1
4137.427	-671.1
4139.833	-673.1
4142.237	-671.1
