Data from 2018-2-14_conc=5_n=6_RamanShift_02.txt Node
Date: Wed Feb 14 14:21:55 IST 2018
User: aro
Spectrometer: QEPB0276
Trigger mode: 0
Integration Time (sec): 3.000000E1
Scans to average: 1
Electric dark correction enabled: true
Nonlinearity correction enabled: false
Boxcar width: 0
XAxis mode: Raman Shifts
Number of Pixels in Spectrum: 1044
>>>>>Begin Spectral Data<<<<<
160.701	-135
166.742	43
172.777	539
178.805	2089
184.826	5812
190.841	12197
196.849	19578
202.85	24842
208.845	26536
214.833	26212
220.815	25759
226.789	25640
232.758	25415
238.719	25209
244.674	24866
250.623	24438
256.565	23833
262.5	23375
268.429	22944
274.351	22581
280.267	22253
286.176	22014
292.079	21802
297.975	21575
303.865	21387
309.748	21183
315.625	21010
321.495	20915
327.359	20882
333.217	20803
339.068	20827
344.912	20746
350.751	20706
356.583	20758
362.408	20696
368.227	20690
374.04	20710
379.847	20776
385.647	20869
391.44	20943
397.228	21031
403.009	21100
408.784	21121
414.553	21179
420.315	21276
426.071	21298
431.821	21287
437.565	21204
443.302	21226
449.033	21201
454.758	21052
460.477	21107
466.189	20973
471.896	20947
477.596	20893
483.29	20877
488.978	20831
494.66	20785
500.335	20664
506.005	20405
511.668	20158
517.325	19953
522.977	19799
528.622	19629
534.261	19535
539.894	19379
545.521	19360
551.141	19306
556.756	19197
562.365	19166
567.968	19062
573.565	18937
579.155	18895
584.74	18833
590.319	18748
595.892	18703
601.459	18563
607.02	18505
612.575	18400
618.124	18308
623.667	18192
629.204	18132
634.735	17967
640.261	17958
645.781	17915
651.294	17810
656.802	17772
662.304	17808
667.8	17745
673.29	17771
678.775	17713
684.254	17670
689.726	17546
695.193	17542
700.655	17460
706.11	17354
711.56	17271
717.004	17159
722.442	17090
727.874	17026
733.301	16970
738.722	16868
744.137	16850
749.547	16839
754.951	16889
760.349	16861
765.741	16888
771.128	16887
776.509	16898
781.885	16854
787.254	16837
792.618	16787
797.977	16709
803.33	16557
808.677	16419
814.019	16388
819.355	16279
824.686	16188
830.011	16176
835.33	16144
840.644	16179
845.952	16150
851.255	16240
856.552	16234
861.844	16199
867.13	16190
872.41	16080
877.686	15983
882.955	15885
888.219	15775
893.478	15590
898.731	15395
903.979	15235
909.221	15131
914.458	14998
919.69	15050
924.916	15074
930.136	15161
935.351	15149
940.561	15170
945.766	15160
950.965	15060
956.158	14947
961.347	14802
966.529	14670
971.707	14494
976.879	14263
982.046	14156
987.208	14133
992.364	14092
997.515	14194
1002.66	14313
1007.801	14503
1012.936	14593
1018.066	14587
1023.19	14540
1028.309	14527
1033.423	14504
1038.532	14434
1043.636	14302
1048.734	14131
1053.827	13952
1058.915	13779
1063.998	13748
1069.075	13652
1074.147	13701
1079.214	13746
1084.276	13767
1089.333	13884
1094.385	13933
1099.431	13948
1104.472	13986
1109.509	13931
1114.54	13724
1119.565	13539
1124.586	13353
1129.602	13235
1134.613	13104
1139.618	13095
1144.619	13059
1149.614	13085
1154.604	13034
1159.589	13134
1164.57	13136
1169.545	13163
1174.515	13159
1179.48	13092
1184.44	13009
1189.395	12915
1194.345	12783
1199.29	12739
1204.23	12746
1209.165	12776
1214.095	12877
1219.021	12929
1223.941	12993
1228.856	13031
1233.766	13087
1238.672	13081
1243.572	13094
1248.467	13040
1253.358	12843
1258.244	12637
1263.124	12447
1268	12251
1272.871	12158
1277.737	12063
1282.599	12003
1287.455	11977
1292.306	11976
1297.153	12036
1301.995	12089
1306.832	12191
1311.664	12182
1316.491	12140
1321.314	12041
1326.132	11843
1330.945	11603
1335.753	11354
1340.556	11068
1345.354	10806
1350.148	10684
1354.937	10626
1359.722	10598
1364.501	10652
1369.276	10719
1374.046	10895
1378.811	11106
1383.572	11217
1388.327	11219
1393.079	11165
1397.825	11004
1402.567	10844
1407.304	10662
1412.036	10572
1416.764	10534
1421.487	10429
1426.205	10397
1430.919	10356
1435.628	10354
1440.333	10345
1445.032	10365
1449.727	10467
1454.418	10408
1459.104	10343
1463.785	10080
1468.462	9904
1473.134	9763
1477.802	9563
1482.465	9348
1487.123	9269
1491.777	9284
1496.426	9302
1501.071	9450
1505.711	9593
1510.347	9774
1514.978	9997
1519.604	10032
1524.226	10135
1528.844	10128
1533.457	10132
1538.065	10118
1542.669	10011
1547.269	9908
1551.864	9883
1556.454	9843
1561.041	9850
1565.622	9870
1570.199	9805
1574.772	9861
1579.34	9937
1583.904	9974
1588.464	10000
1593.019	10017
1597.569	10040
1602.115	9956
1606.657	9914
1611.195	9819
1615.728	9761
1620.256	9759
1624.78	9729
1629.3	9767
1633.816	9779
1638.327	9831
1642.834	9813
1647.336	9891
1651.834	9931
1656.328	9883
1660.817	9907
1665.302	9779
1669.783	9607
1674.259	9389
1678.732	9169
1683.199	8861
1687.663	8580
1692.122	8309
1696.577	8166
1701.028	8159
1705.474	8203
1709.917	8278
1714.355	8325
1718.788	8267
1723.218	8086
1727.643	7940
1732.064	7802
1736.481	7631
1740.893	7455
1745.301	7235
1749.705	7051
1754.105	6885
1758.501	6695
1762.893	6476
1767.28	6328
1771.663	6167
1776.042	6129
1780.417	6055
1784.787	6053
1789.154	6113
1793.516	6268
1797.874	6376
1802.228	6473
1806.578	6544
1810.924	6555
1815.266	6443
1819.603	6338
1823.937	6264
1828.266	6166
1832.591	6061
1836.913	5991
1841.23	5945
1845.543	5855
1849.852	5833
1854.156	5815
1858.457	5798
1862.754	5766
1867.047	5762
1871.335	5774
1875.62	5791
1879.9	5755
1884.177	5735
1888.449	5679
1892.718	5615
1896.982	5588
1901.243	5516
1905.499	5514
1909.752	5492
1914	5493
1918.245	5522
1922.485	5519
1926.722	5614
1930.954	5714
1935.183	5735
1939.408	5764
1943.628	5813
1947.845	5829
1952.058	5824
1956.267	5754
1960.472	5688
1964.673	5628
1968.87	5509
1973.063	5447
1977.252	5321
1981.438	5316
1985.619	5239
1989.797	5213
1993.971	5157
1998.14	5150
2002.306	5120
2006.469	5108
2010.627	5082
2014.781	5010
2018.932	4995
2023.078	4930
2027.221	4892
2031.36	4820
2035.495	4766
2039.627	4675
2043.754	4618
2047.878	4580
2051.998	4559
2056.114	4530
2060.226	4547
2064.334	4540
2068.439	4559
2072.54	4588
2076.637	4622
2080.73	4660
2084.82	4693
2088.906	4695
2092.988	4686
2097.066	4677
2101.14	4658
2105.211	4613
2109.278	4636
2113.342	4569
2117.401	4520
2121.457	4533
2125.509	4512
2129.558	4459
2133.602	4443
2137.643	4419
2141.681	4391
2145.714	4368
2149.744	4343
2153.77	4291
2157.793	4247
2161.812	4198
2165.827	4151
2169.838	4068
2173.846	3990
2177.851	3903
2181.851	3880
2185.848	3850
2189.841	3779
2193.831	3731
2197.817	3720
2201.799	3687
2205.778	3692
2209.753	3676
2213.725	3646
2217.693	3638
2221.657	3651
2225.618	3646
2229.575	3597
2233.529	3567
2237.479	3554
2241.425	3483
2245.368	3401
2249.307	3402
2253.243	3362
2257.175	3312
2261.104	3256
2265.029	3231
2268.95	3201
2272.868	3148
2276.783	3134
2280.694	3080
2284.601	3071
2288.505	3029
2292.405	3002
2296.302	2953
2300.195	2936
2304.085	2902
2307.971	2874
2311.854	2803
2315.734	2778
2319.609	2715
2323.482	2672
2327.351	2677
2331.216	2648
2335.078	2631
2338.937	2613
2342.792	2596
2346.643	2578
2350.492	2582
2354.336	2573
2358.178	2587
2362.015	2614
2365.85	2615
2369.681	2589
2373.508	2616
2377.333	2589
2381.153	2569
2384.971	2546
2388.785	2542
2392.595	2516
2396.402	2499
2400.206	2493
2404.007	2458
2407.804	2455
2411.597	2434
2415.388	2414
2419.174	2369
2422.958	2384
2426.738	2357
2430.515	2349
2434.289	2326
2438.059	2333
2441.825	2291
2445.589	2258
2449.349	2223
2453.106	2199
2456.859	2174
2460.61	2150
2464.356	2135
2468.1	2102
2471.84	2106
2475.577	2082
2479.311	2048
2483.041	2035
2486.768	2039
2490.492	2039
2494.213	2027
2497.93	2038
2501.644	1992
2505.355	2002
2509.062	1995
2512.766	1995
2516.467	1983
2520.165	1950
2523.859	1951
2527.551	1938
2531.239	1923
2534.923	1897
2538.605	1879
2542.283	1910
2545.958	1891
2549.63	1885
2553.299	1900
2556.964	1901
2560.626	1859
2564.285	1872
2567.941	1857
2571.594	1855
2575.243	1839
2578.89	1838
2582.533	1788
2586.173	1781
2589.809	1787
2593.443	1762
2597.073	1750
2600.701	1714
2604.325	1711
2607.946	1716
2611.564	1674
2615.178	1688
2618.79	1669
2622.398	1658
2626.004	1650
2629.606	1588
2633.205	1603
2636.801	1563
2640.394	1564
2643.983	1526
2647.57	1519
2651.153	1499
2654.734	1450
2658.311	1437
2661.885	1416
2665.456	1378
2669.025	1369
2672.589	1355
2676.151	1354
2679.71	1347
2683.266	1320
2686.819	1267
2690.368	1256
2693.915	1226
2697.458	1211
2700.999	1185
2704.536	1167
2708.071	1120
2711.602	1112
2715.13	1083
2718.656	1069
2722.178	1050
2725.697	1040
2729.214	1023
2732.727	1023
2736.237	1036
2739.744	1013
2743.249	1037
2746.75	1031
2750.248	1025
2753.743	1058
2757.236	1066
2760.725	1074
2764.211	1091
2767.695	1089
2771.175	1087
2774.652	1100
2778.127	1082
2781.598	1052
2785.067	1058
2788.532	1048
2791.995	1036
2795.455	1045
2798.911	1048
2802.365	1060
2805.816	1048
2809.264	1056
2812.709	1058
2816.151	1027
2819.59	1046
2823.026	1022
2826.46	1045
2829.89	1044
2833.318	1052
2836.742	1043
2840.164	1067
2843.583	1067
2846.999	1077
2850.412	1107
2853.822	1113
2857.229	1123
2860.634	1139
2864.035	1157
2867.434	1166
2870.83	1200
2874.223	1218
2877.613	1224
2881	1238
2884.385	1241
2887.766	1255
2891.145	1263
2894.521	1245
2897.894	1243
2901.264	1253
2904.631	1240
2907.996	1243
2911.358	1256
2914.717	1254
2918.073	1270
2921.426	1296
2924.777	1303
2928.124	1313
2931.469	1348
2934.811	1377
2938.15	1377
2941.487	1403
2944.821	1424
2948.152	1404
2951.48	1409
2954.805	1381
2958.128	1368
2961.447	1370
2964.765	1354
2968.079	1345
2971.39	1378
2974.699	1388
2978.005	1418
2981.308	1438
2984.609	1460
2987.907	1491
2991.202	1512
2994.494	1543
2997.784	1566
3001.07	1626
3004.355	1615
3007.636	1669
3010.915	1680
3014.191	1681
3017.464	1691
3020.734	1718
3024.002	1707
3027.267	1727
3030.53	1749
3033.789	1768
3037.046	1785
3040.301	1804
3043.552	1829
3046.801	1883
3050.048	1905
3053.291	1974
3056.532	2024
3059.771	2065
3063.006	2141
3066.239	2197
3069.469	2264
3072.697	2338
3075.922	2363
3079.144	2442
3082.364	2497
3085.581	2537
3088.795	2577
3092.007	2654
3095.216	2688
3098.423	2747
3101.627	2816
3104.828	2888
3108.026	2957
3111.222	3016
3114.416	3088
3117.607	3158
3120.795	3206
3123.98	3289
3127.163	3347
3130.344	3460
3133.521	3551
3136.696	3609
3139.869	3673
3143.039	3744
3146.206	3793
3149.371	3838
3152.533	3872
3155.693	3852
3158.85	3910
3162.005	3927
3165.157	3954
3168.306	3985
3171.453	3954
3174.597	3988
3177.739	3992
3180.878	3995
3184.014	4020
3187.149	3987
3190.28	3995
3193.409	4042
3196.536	4022
3199.659	4015
3202.781	4025
3205.9	4039
3209.016	4019
3212.13	4006
3215.241	4005
3218.35	3945
3221.456	3898
3224.56	3870
3227.661	3838
3230.76	3792
3233.856	3766
3236.95	3729
3240.041	3680
3243.13	3705
3246.216	3658
3249.3	3632
3252.382	3624
3255.46	3618
3258.537	3588
3261.611	3617
3264.682	3591
3267.751	3569
3270.818	3562
3273.882	3573
3276.943	3516
3280.002	3518
3283.059	3499
3286.113	3467
3289.165	3398
3292.214	3332
3295.261	3302
3298.306	3251
3301.348	3201
3304.387	3160
3307.425	3093
3310.459	3063
3313.492	2999
3316.521	2955
3319.549	2945
3322.574	2901
3325.597	2877
3328.617	2844
3331.635	2861
3334.65	2812
3337.663	2826
3340.674	2779
3343.682	2762
3346.688	2759
3349.691	2784
3352.692	2759
3355.691	2707
3358.687	2695
3361.681	2666
3364.673	2627
3367.662	2582
3370.649	2548
3373.633	2533
3376.615	2516
3379.595	2447
3382.572	2427
3385.547	2407
3388.52	2346
3391.49	2334
3394.458	2292
3397.424	2248
3400.387	2226
3403.348	2195
3406.307	2151
3409.263	2140
3412.217	2131
3415.168	2083
3418.118	2057
3421.065	2054
3424.009	2037
3426.951	1981
3429.891	1955
3432.829	1917
3435.764	1854
3438.697	1840
3441.628	1775
3444.557	1718
3447.483	1669
3450.407	1618
3453.328	1566
3456.247	1527
3459.164	1468
3462.079	1427
3464.991	1381
3467.902	1312
3470.809	1255
3473.715	1230
3476.618	1186
3479.519	1125
3482.418	1122
3485.315	1059
3488.209	1025
3491.101	999
3493.99	960
3496.878	916
3499.763	889
3502.646	858
3505.527	815
3508.405	774
3511.281	730
3514.155	692
3517.027	658
3519.897	637
3522.764	565
3525.629	543
3528.492	501
3531.352	461
3534.211	418
3537.067	389
3539.921	353
3542.773	327
3545.622	279
3548.469	251
3551.315	233
3554.157	201
3556.998	172
3559.837	143
3562.673	126
3565.507	108
3568.339	78
3571.169	60
3573.996	45
3576.822	35
3579.645	-8
3582.466	-22
3585.285	-47
3588.101	-63
3590.916	-78
3593.728	-106
3596.538	-115
3599.346	-130
3602.152	-154
3604.956	-169
3607.757	-192
3610.556	-210
3613.354	-221
3616.149	-237
3618.942	-246
3621.732	-255
3624.521	-275
3627.307	-286
3630.092	-290
3632.874	-296
3635.654	-308
3638.432	-312
3641.208	-321
3643.982	-338
3646.753	-338
3649.523	-356
3652.29	-359
3655.055	-362
3657.818	-384
3660.579	-390
3663.338	-405
3666.095	-411
3668.849	-420
3671.602	-424
3674.352	-433
3677.101	-446
3679.847	-450
3682.591	-455
3685.333	-462
3688.073	-463
3690.811	-476
3693.547	-476
3696.281	-480
3699.013	-486
3701.742	-489
3704.47	-493
3707.195	-507
3709.919	-500
3712.64	-508
3715.359	-506
3718.076	-515
3720.792	-516
3723.505	-517
3726.216	-524
3728.925	-523
3731.632	-531
3734.336	-533
3737.039	-535
3739.74	-540
3742.439	-540
3745.136	-539
3747.83	-551
3750.523	-543
3753.213	-536
3755.902	-554
3758.589	-554
3761.273	-553
3763.956	-557
3766.636	-567
3769.315	-567
3771.991	-557
3774.665	-564
3777.338	-562
3780.008	-571
3782.677	-567
3785.343	-565
3788.007	-565
3790.67	-567
3793.33	-572
3795.989	-576
3798.645	-572
3801.299	-571
3803.952	-581
3806.602	-587
3809.251	-580
3811.897	-582
3814.542	-586
3817.184	-575
3819.825	-586
3822.463	-581
3825.1	-583
3827.735	-581
3830.367	-584
3832.998	-591
3835.627	-594
3838.253	-590
3840.878	-594
3843.501	-592
3846.122	-589
3848.741	-581
3851.358	-593
3853.973	-590
3856.586	-587
3859.197	-593
3861.806	-598
3864.414	-591
3867.019	-592
3869.622	-594
3872.224	-593
3874.823	-572
3877.421	-565
3880.016	-543
3882.61	-526
3885.202	-519
3887.792	-538
3890.38	-569
3892.966	-586
3895.55	-600
3898.132	-614
3900.713	-610
3903.291	-608
3905.868	-610
3908.442	-601
3911.015	-608
3913.586	-600
3916.155	-602
3918.722	-610
3921.287	-604
3923.85	-613
3926.411	-607
3928.971	-613
3931.528	-608
3934.084	-610
3936.638	-609
3939.19	-607
3941.74	-609
3944.288	-612
3946.834	-605
3949.378	-610
3951.921	-611
3954.462	-620
3957	-610
3959.537	-610
3962.072	-610
3964.606	-609
3967.137	-610
3969.667	-613
3972.194	-605
3974.72	-605
3977.244	-600
3979.766	-596
3982.286	-601
3984.805	-598
3987.321	-598
3989.836	-593
3992.349	-586
3994.86	-597
3997.369	-607
3999.877	-593
4002.382	-590
4004.886	-590
4007.388	-589
4009.888	-592
4012.386	-598
4014.883	-597
4017.377	-597
4019.87	-592
4022.361	-595
4024.85	-602
4027.338	-599
4029.823	-602
4032.307	-603
4034.789	-596
4037.269	-598
4039.747	-595
4042.224	-598
4044.699	-605
4047.172	-597
4049.643	-595
4052.112	-601
4054.58	-602
4057.046	-600
4059.51	-602
4061.972	-603
4064.432	-600
4066.891	-600
4069.348	-598
4071.803	-601
4074.256	-597
4076.708	-594
4079.158	-603
4081.606	-604
4084.052	-607
4086.497	-600
4088.939	-596
4091.38	-595
4093.819	-594
4096.257	-630
4098.693	-628
4101.127	-629
4103.559	-629
4105.989	-350
4108.418	-344
4110.845	-322
4113.27	-295
4115.694	-261
4118.115	-218
4120.535	-598
4122.954	-600
4125.37	-591
4127.785	-600
4130.198	-602
4132.609	-598
4135.019	-636
4137.427	-634
4139.833	-636
4142.237	-630
