Data from 2018-2-14_conc=5_n=7_RamanShift_02.txt Node
Date: Wed Feb 14 14:24:55 IST 2018
User: aro
Spectrometer: QEPB0276
Trigger mode: 0
Integration Time (sec): 3.000000E1
Scans to average: 1
Electric dark correction enabled: true
Nonlinearity correction enabled: false
Boxcar width: 0
XAxis mode: Raman Shifts
Number of Pixels in Spectrum: 1044
>>>>>Begin Spectral Data<<<<<
160.701	-155.6
166.742	58.4
172.777	598.4
178.805	2312.4
184.826	6428.4
190.841	13457.4
196.849	21689.4
202.85	27460.4
208.845	29423.4
214.833	29143.4
220.815	28619.4
226.789	28422.4
232.758	28268.4
238.719	28042.4
244.674	27648.4
250.623	27154.4
256.565	26608.4
262.5	26053.4
268.429	25579.4
274.351	25091.4
280.267	24898.4
286.176	24573.4
292.079	24303.4
297.975	24029.4
303.865	23874.4
309.748	23678.4
315.625	23572.4
321.495	23389.4
327.359	23364.4
333.217	23279.4
339.068	23263.4
344.912	23209.4
350.751	23174.4
356.583	23168.4
362.408	23050.4
368.227	23142.4
374.04	23155.4
379.847	23243.4
385.647	23286.4
391.44	23358.4
397.228	23509.4
403.009	23582.4
408.784	23634.4
414.553	23664.4
420.315	23857.4
426.071	23726.4
431.821	23738.4
437.565	23718.4
443.302	23717.4
449.033	23677.4
454.758	23681.4
460.477	23529.4
466.189	23496.4
471.896	23462.4
477.596	23406.4
483.29	23353.4
488.978	23308.4
494.66	23158.4
500.335	23097.4
506.005	22853.4
511.668	22594.4
517.325	22306.4
522.977	22183.4
528.622	21944.4
534.261	21902.4
539.894	21789.4
545.521	21629.4
551.141	21540.4
556.756	21505.4
562.365	21394.4
567.968	21352.4
573.565	21209.4
579.155	21163.4
584.74	21092.4
590.319	21025.4
595.892	20884.4
601.459	20804.4
607.02	20788.4
612.575	20606.4
618.124	20491.4
623.667	20366.4
629.204	20290.4
634.735	20216.4
640.261	20126.4
645.781	20062.4
651.294	19954.4
656.802	19960.4
662.304	19913.4
667.8	19855.4
673.29	19821.4
678.775	19886.4
684.254	19831.4
689.726	19706.4
695.193	19636.4
700.655	19522.4
706.11	19414.4
711.56	19331.4
717.004	19225.4
722.442	19154.4
727.874	19091.4
733.301	19030.4
738.722	18975.4
744.137	18953.4
749.547	18944.4
754.951	18939.4
760.349	18925.4
765.741	18941.4
771.128	18938.4
776.509	19030.4
781.885	18935.4
787.254	18893.4
792.618	18819.4
797.977	18661.4
803.33	18619.4
808.677	18525.4
814.019	18411.4
819.355	18243.4
824.686	18213.4
830.011	18205.4
835.33	18110.4
840.644	18157.4
845.952	18227.4
851.255	18220.4
856.552	18284.4
861.844	18244.4
867.13	18187.4
872.41	18116.4
877.686	17963.4
882.955	17864.4
888.219	17719.4
893.478	17545.4
898.731	17386.4
903.979	17158.4
909.221	17042.4
914.458	16958.4
919.69	16948.4
924.916	17017.4
930.136	17036.4
935.351	17105.4
940.561	17023.4
945.766	17004.4
950.965	16947.4
956.158	16811.4
961.347	16701.4
966.529	16430.4
971.707	16262.4
976.879	16049.4
982.046	15885.4
987.208	15785.4
992.364	15836.4
997.515	15939.4
1002.66	16089.4
1007.801	16295.4
1012.936	16481.4
1018.066	16393.4
1023.19	16375.4
1028.309	16421.4
1033.423	16334.4
1038.532	16305.4
1043.636	16129.4
1048.734	15914.4
1053.827	15762.4
1058.915	15557.4
1063.998	15477.4
1069.075	15417.4
1074.147	15393.4
1079.214	15537.4
1084.276	15621.4
1089.333	15713.4
1094.385	15773.4
1099.431	15758.4
1104.472	15798.4
1109.509	15653.4
1114.54	15503.4
1119.565	15280.4
1124.586	15119.4
1129.602	14985.4
1134.613	14888.4
1139.618	14808.4
1144.619	14692.4
1149.614	14758.4
1154.604	14782.4
1159.589	14800.4
1164.57	14816.4
1169.545	14879.4
1174.515	14841.4
1179.48	14735.4
1184.44	14696.4
1189.395	14591.4
1194.345	14494.4
1199.29	14411.4
1204.23	14359.4
1209.165	14463.4
1214.095	14537.4
1219.021	14596.4
1223.941	14631.4
1228.856	14759.4
1233.766	14799.4
1238.672	14799.4
1243.572	14783.4
1248.467	14682.4
1253.358	14516.4
1258.244	14335.4
1263.124	14065.4
1268	13912.4
1272.871	13681.4
1277.737	13614.4
1282.599	13608.4
1287.455	13563.4
1292.306	13560.4
1297.153	13590.4
1301.995	13705.4
1306.832	13741.4
1311.664	13777.4
1316.491	13723.4
1321.314	13587.4
1326.132	13411.4
1330.945	13088.4
1335.753	12783.4
1340.556	12461.4
1345.354	12165.4
1350.148	11993.4
1354.937	11863.4
1359.722	11908.4
1364.501	11984.4
1369.276	12140.4
1374.046	12386.4
1378.811	12513.4
1383.572	12723.4
1388.327	12770.4
1393.079	12693.4
1397.825	12472.4
1402.567	12313.4
1407.304	12117.4
1412.036	11991.4
1416.764	11912.4
1421.487	11828.4
1426.205	11744.4
1430.919	11707.4
1435.628	11716.4
1440.333	11690.4
1445.032	11793.4
1449.727	11829.4
1454.418	11752.4
1459.104	11664.4
1463.785	11433.4
1468.462	11215.4
1473.134	10963.4
1477.802	10752.4
1482.465	10518.4
1487.123	10437.4
1491.777	10400.4
1496.426	10496.4
1501.071	10639.4
1505.711	10826.4
1510.347	11006.4
1514.978	11249.4
1519.604	11418.4
1524.226	11517.4
1528.844	11526.4
1533.457	11516.4
1538.065	11409.4
1542.669	11384.4
1547.269	11255.4
1551.864	11195.4
1556.454	11159.4
1561.041	11126.4
1565.622	11073.4
1570.199	11146.4
1574.772	11180.4
1579.34	11265.4
1583.904	11288.4
1588.464	11332.4
1593.019	11339.4
1597.569	11302.4
1602.115	11247.4
1606.657	11152.4
1611.195	11089.4
1615.728	11019.4
1620.256	10976.4
1624.78	10988.4
1629.3	11000.4
1633.816	11009.4
1638.327	11119.4
1642.834	11142.4
1647.336	11172.4
1651.834	11214.4
1656.328	11223.4
1660.817	11124.4
1665.302	11059.4
1669.783	10888.4
1674.259	10618.4
1678.732	10369.4
1683.199	9960.4
1687.663	9674.4
1692.122	9320.4
1696.577	9182.4
1701.028	9256.4
1705.474	9354.4
1709.917	9427.4
1714.355	9417.4
1718.788	9417.4
1723.218	9238.4
1727.643	9076.4
1732.064	8943.4
1736.481	8688.4
1740.893	8483.4
1745.301	8214.4
1749.705	8013.4
1754.105	7795.4
1758.501	7569.4
1762.893	7356.4
1767.28	7208.4
1771.663	7056.4
1776.042	6883.4
1780.417	6845.4
1784.787	6854.4
1789.154	6914.4
1793.516	7082.4
1797.874	7230.4
1802.228	7352.4
1806.578	7446.4
1810.924	7439.4
1815.266	7341.4
1819.603	7238.4
1823.937	7136.4
1828.266	6984.4
1832.591	6868.4
1836.913	6804.4
1841.23	6719.4
1845.543	6656.4
1849.852	6626.4
1854.156	6579.4
1858.457	6570.4
1862.754	6599.4
1867.047	6616.4
1871.335	6555.4
1875.62	6550.4
1879.9	6543.4
1884.177	6488.4
1888.449	6444.4
1892.718	6358.4
1896.982	6331.4
1901.243	6291.4
1905.499	6216.4
1909.752	6208.4
1914	6235.4
1918.245	6245.4
1922.485	6296.4
1926.722	6381.4
1930.954	6426.4
1935.183	6586.4
1939.408	6613.4
1943.628	6608.4
1947.845	6670.4
1952.058	6610.4
1956.267	6625.4
1960.472	6485.4
1964.673	6391.4
1968.87	6296.4
1973.063	6216.4
1977.252	6118.4
1981.438	6050.4
1985.619	6000.4
1989.797	5946.4
1993.971	5917.4
1998.14	5870.4
2002.306	5858.4
2006.469	5779.4
2010.627	5783.4
2014.781	5767.4
2018.932	5718.4
2023.078	5649.4
2027.221	5556.4
2031.36	5494.4
2035.495	5399.4
2039.627	5328.4
2043.754	5269.4
2047.878	5209.4
2051.998	5199.4
2056.114	5202.4
2060.226	5200.4
2064.334	5176.4
2068.439	5184.4
2072.54	5232.4
2076.637	5242.4
2080.73	5323.4
2084.82	5344.4
2088.906	5330.4
2092.988	5376.4
2097.066	5358.4
2101.14	5333.4
2105.211	5299.4
2109.278	5254.4
2113.342	5216.4
2117.401	5195.4
2121.457	5142.4
2125.509	5109.4
2129.558	5126.4
2133.602	5061.4
2137.643	5019.4
2141.681	5034.4
2145.714	5001.4
2149.744	4939.4
2153.77	4916.4
2157.793	4853.4
2161.812	4797.4
2165.827	4738.4
2169.838	4656.4
2173.846	4578.4
2177.851	4526.4
2181.851	4447.4
2185.848	4360.4
2189.841	4364.4
2193.831	4285.4
2197.817	4265.4
2201.799	4251.4
2205.778	4202.4
2209.753	4207.4
2213.725	4153.4
2217.693	4186.4
2221.657	4161.4
2225.618	4155.4
2229.575	4141.4
2233.529	4089.4
2237.479	4074.4
2241.425	4013.4
2245.368	3931.4
2249.307	3898.4
2253.243	3844.4
2257.175	3789.4
2261.104	3763.4
2265.029	3712.4
2268.95	3669.4
2272.868	3626.4
2276.783	3576.4
2280.694	3541.4
2284.601	3538.4
2288.505	3504.4
2292.405	3454.4
2296.302	3414.4
2300.195	3377.4
2304.085	3308.4
2307.971	3278.4
2311.854	3241.4
2315.734	3174.4
2319.609	3148.4
2323.482	3108.4
2327.351	3068.4
2331.216	3053.4
2335.078	3033.4
2338.937	3006.4
2342.792	2980.4
2346.643	2973.4
2350.492	2975.4
2354.336	2966.4
2358.178	3008.4
2362.015	2979.4
2365.85	2972.4
2369.681	2993.4
2373.508	2971.4
2377.333	2988.4
2381.153	2942.4
2384.971	2953.4
2388.785	2940.4
2392.595	2911.4
2396.402	2866.4
2400.206	2844.4
2404.007	2828.4
2407.804	2814.4
2411.597	2788.4
2415.388	2807.4
2419.174	2728.4
2422.958	2761.4
2426.738	2711.4
2430.515	2697.4
2434.289	2692.4
2438.059	2650.4
2441.825	2654.4
2445.589	2606.4
2449.349	2593.4
2453.106	2563.4
2456.859	2523.4
2460.61	2515.4
2464.356	2457.4
2468.1	2435.4
2471.84	2404.4
2475.577	2383.4
2479.311	2384.4
2483.041	2354.4
2486.768	2357.4
2490.492	2349.4
2494.213	2324.4
2497.93	2346.4
2501.644	2324.4
2505.355	2297.4
2509.062	2291.4
2512.766	2276.4
2516.467	2292.4
2520.165	2290.4
2523.859	2235.4
2527.551	2215.4
2531.239	2226.4
2534.923	2199.4
2538.605	2170.4
2542.283	2218.4
2545.958	2186.4
2549.63	2201.4
2553.299	2174.4
2556.964	2179.4
2560.626	2156.4
2564.285	2170.4
2567.941	2144.4
2571.594	2121.4
2575.243	2145.4
2578.89	2110.4
2582.533	2116.4
2586.173	2074.4
2589.809	2084.4
2593.443	2065.4
2597.073	2045.4
2600.701	2004.4
2604.325	1984.4
2607.946	1995.4
2611.564	1978.4
2615.178	1952.4
2618.79	1958.4
2622.398	1931.4
2626.004	1902.4
2629.606	1882.4
2633.205	1854.4
2636.801	1833.4
2640.394	1814.4
2643.983	1791.4
2647.57	1775.4
2651.153	1735.4
2654.734	1709.4
2658.311	1671.4
2661.885	1637.4
2665.456	1627.4
2669.025	1614.4
2672.589	1602.4
2676.151	1584.4
2679.71	1562.4
2683.266	1542.4
2686.819	1512.4
2690.368	1480.4
2693.915	1455.4
2697.458	1408.4
2700.999	1367.4
2704.536	1341.4
2708.071	1323.4
2711.602	1304.4
2715.13	1268.4
2718.656	1253.4
2722.178	1228.4
2725.697	1211.4
2729.214	1201.4
2732.727	1197.4
2736.237	1174.4
2739.744	1171.4
2743.249	1194.4
2746.75	1209.4
2750.248	1213.4
2753.743	1227.4
2757.236	1261.4
2760.725	1270.4
2764.211	1260.4
2767.695	1267.4
2771.175	1253.4
2774.652	1255.4
2778.127	1242.4
2781.598	1240.4
2785.067	1233.4
2788.532	1248.4
2791.995	1226.4
2795.455	1217.4
2798.911	1206.4
2802.365	1227.4
2805.816	1232.4
2809.264	1215.4
2812.709	1225.4
2816.151	1234.4
2819.59	1222.4
2823.026	1215.4
2826.46	1211.4
2829.89	1224.4
2833.318	1233.4
2836.742	1248.4
2840.164	1228.4
2843.583	1255.4
2846.999	1260.4
2850.412	1259.4
2853.822	1279.4
2857.229	1298.4
2860.634	1334.4
2864.035	1321.4
2867.434	1341.4
2870.83	1371.4
2874.223	1389.4
2877.613	1388.4
2881	1445.4
2884.385	1451.4
2887.766	1441.4
2891.145	1457.4
2894.521	1430.4
2897.894	1435.4
2901.264	1413.4
2904.631	1437.4
2907.996	1433.4
2911.358	1443.4
2914.717	1441.4
2918.073	1456.4
2921.426	1480.4
2924.777	1490.4
2928.124	1511.4
2931.469	1541.4
2934.811	1563.4
2938.15	1567.4
2941.487	1590.4
2944.821	1593.4
2948.152	1583.4
2951.48	1574.4
2954.805	1563.4
2958.128	1542.4
2961.447	1544.4
2964.765	1536.4
2968.079	1558.4
2971.39	1555.4
2974.699	1581.4
2978.005	1601.4
2981.308	1624.4
2984.609	1679.4
2987.907	1680.4
2991.202	1721.4
2994.494	1767.4
2997.784	1783.4
3001.07	1827.4
3004.355	1848.4
3007.636	1869.4
3010.915	1890.4
3014.191	1902.4
3017.464	1920.4
3020.734	1911.4
3024.002	1940.4
3027.267	1959.4
3030.53	1960.4
3033.789	1988.4
3037.046	2015.4
3040.301	2031.4
3043.552	2082.4
3046.801	2113.4
3050.048	2151.4
3053.291	2202.4
3056.532	2264.4
3059.771	2311.4
3063.006	2391.4
3066.239	2480.4
3069.469	2521.4
3072.697	2594.4
3075.922	2647.4
3079.144	2716.4
3082.364	2779.4
3085.581	2863.4
3088.795	2890.4
3092.007	2954.4
3095.216	2992.4
3098.423	3073.4
3101.627	3145.4
3104.828	3237.4
3108.026	3271.4
3111.222	3384.4
3114.416	3442.4
3117.607	3482.4
3120.795	3598.4
3123.98	3666.4
3127.163	3784.4
3130.344	3884.4
3133.521	3936.4
3136.696	4052.4
3139.869	4116.4
3143.039	4184.4
3146.206	4221.4
3149.371	4296.4
3152.533	4315.4
3155.693	4330.4
3158.85	4381.4
3162.005	4407.4
3165.157	4415.4
3168.306	4419.4
3171.453	4454.4
3174.597	4444.4
3177.739	4459.4
3180.878	4465.4
3184.014	4457.4
3187.149	4476.4
3190.28	4472.4
3193.409	4461.4
3196.536	4469.4
3199.659	4509.4
3202.781	4492.4
3205.9	4503.4
3209.016	4494.4
3212.13	4481.4
3215.241	4431.4
3218.35	4407.4
3221.456	4368.4
3224.56	4345.4
3227.661	4300.4
3230.76	4252.4
3233.856	4193.4
3236.95	4169.4
3240.041	4120.4
3243.13	4130.4
3246.216	4113.4
3249.3	4100.4
3252.382	4054.4
3255.46	4053.4
3258.537	4000.4
3261.611	4014.4
3264.682	4034.4
3267.751	4018.4
3270.818	4003.4
3273.882	3992.4
3276.943	3984.4
3280.002	3943.4
3283.059	3897.4
3286.113	3825.4
3289.165	3808.4
3292.214	3745.4
3295.261	3686.4
3298.306	3610.4
3301.348	3552.4
3304.387	3532.4
3307.425	3464.4
3310.459	3397.4
3313.492	3342.4
3316.521	3300.4
3319.549	3295.4
3322.574	3233.4
3325.597	3216.4
3328.617	3180.4
3331.635	3145.4
3334.65	3112.4
3337.663	3127.4
3340.674	3109.4
3343.682	3079.4
3346.688	3092.4
3349.691	3080.4
3352.692	3055.4
3355.691	2993.4
3358.687	3012.4
3361.681	2974.4
3364.673	2935.4
3367.662	2869.4
3370.649	2836.4
3373.633	2819.4
3376.615	2785.4
3379.595	2720.4
3382.572	2712.4
3385.547	2670.4
3388.52	2628.4
3391.49	2565.4
3394.458	2567.4
3397.424	2505.4
3400.387	2463.4
3403.348	2455.4
3406.307	2419.4
3409.263	2407.4
3412.217	2349.4
3415.168	2329.4
3418.118	2307.4
3421.065	2296.4
3424.009	2243.4
3426.951	2223.4
3429.891	2188.4
3432.829	2126.4
3435.764	2093.4
3438.697	2047.4
3441.628	1982.4
3444.557	1927.4
3447.483	1863.4
3450.407	1810.4
3453.328	1756.4
3456.247	1687.4
3459.164	1632.4
3462.079	1598.4
3464.991	1545.4
3467.902	1484.4
3470.809	1426.4
3473.715	1368.4
3476.618	1328.4
3479.519	1263.4
3482.418	1245.4
3485.315	1191.4
3488.209	1156.4
3491.101	1127.4
3493.99	1078.4
3496.878	1034.4
3499.763	1013.4
3502.646	967.4
3505.527	911.4
3508.405	889.4
3511.281	826.4
3514.155	793.4
3517.027	745.4
3519.897	713.4
3522.764	655.4
3525.629	613.4
3528.492	561.4
3531.352	524.4
3534.211	481.4
3537.067	432.4
3539.921	392.4
3542.773	359.4
3545.622	320.4
3548.469	293.4
3551.315	259.4
3554.157	234.4
3556.998	195.4
3559.837	165.4
3562.673	150.4
3565.507	111.4
3568.339	85.4
3571.169	69.4
3573.996	40.4
3576.822	30.4
3579.645	-4.6
3582.466	-25.6
3585.285	-43.6
3588.101	-68.6
3590.916	-93.6
3593.728	-118.6
3596.538	-118.6
3599.346	-156.6
3602.152	-170.6
3604.956	-178.6
3607.757	-207.6
3610.556	-227.6
3613.354	-239.6
3616.149	-252.6
3618.942	-267.6
3621.732	-282.6
3624.521	-294.6
3627.307	-306.6
3630.092	-322.6
3632.874	-328.6
3635.654	-341.6
3638.432	-350.6
3641.208	-353.6
3643.982	-371.6
3646.753	-371.6
3649.523	-391.6
3652.29	-397.6
3655.055	-403.6
3657.818	-419.6
3660.579	-430.6
3663.338	-452.6
3666.095	-453.6
3668.849	-463.6
3671.602	-469.6
3674.352	-478.6
3677.101	-485.6
3679.847	-498.6
3682.591	-509.6
3685.333	-508.6
3688.073	-513.6
3690.811	-520.6
3693.547	-527.6
3696.281	-530.6
3699.013	-537.6
3701.742	-540.6
3704.47	-545.6
3707.195	-548.6
3709.919	-553.6
3712.64	-558.6
3715.359	-567.6
3718.076	-568.6
3720.792	-568.6
3723.505	-571.6
3726.216	-586.6
3728.925	-578.6
3731.632	-592.6
3734.336	-593.6
3737.039	-594.6
3739.74	-591.6
3742.439	-598.6
3745.136	-604.6
3747.83	-611.6
3750.523	-607.6
3753.213	-619.6
3755.902	-608.6
3758.589	-614.6
3761.273	-610.6
3763.956	-615.6
3766.636	-621.6
3769.315	-619.6
3771.991	-624.6
3774.665	-630.6
3777.338	-627.6
3780.008	-630.6
3782.677	-634.6
3785.343	-624.6
3788.007	-627.6
3790.67	-633.6
3793.33	-634.6
3795.989	-639.6
3798.645	-637.6
3801.299	-635.6
3803.952	-636.6
3806.602	-649.6
3809.251	-650.6
3811.897	-650.6
3814.542	-645.6
3817.184	-651.6
3819.825	-645.6
3822.463	-644.6
3825.1	-648.6
3827.735	-646.6
3830.367	-647.6
3832.998	-651.6
3835.627	-658.6
3838.253	-654.6
3840.878	-657.6
3843.501	-655.6
3846.122	-651.6
3848.741	-655.6
3851.358	-653.6
3853.973	-654.6
3856.586	-656.6
3859.197	-665.6
3861.806	-669.6
3864.414	-657.6
3867.019	-661.6
3869.622	-658.6
3872.224	-659.6
3874.823	-642.6
3877.421	-625.6
3880.016	-610.6
3882.61	-578.6
3885.202	-576.6
3887.792	-595.6
3890.38	-626.6
3892.966	-649.6
3895.55	-658.6
3898.132	-669.6
3900.713	-675.6
3903.291	-670.6
3905.868	-672.6
3908.442	-674.6
3911.015	-677.6
3913.586	-671.6
3916.155	-669.6
3918.722	-672.6
3921.287	-675.6
3923.85	-680.6
3926.411	-676.6
3928.971	-683.6
3931.528	-677.6
3934.084	-679.6
3936.638	-680.6
3939.19	-679.6
3941.74	-679.6
3944.288	-681.6
3946.834	-674.6
3949.378	-678.6
3951.921	-677.6
3954.462	-678.6
3957	-675.6
3959.537	-675.6
3962.072	-670.6
3964.606	-671.6
3967.137	-672.6
3969.667	-675.6
3972.194	-666.6
3974.72	-675.6
3977.244	-666.6
3979.766	-664.6
3982.286	-667.6
3984.805	-666.6
3987.321	-660.6
3989.836	-670.6
3992.349	-662.6
3994.86	-663.6
3997.369	-676.6
3999.877	-661.6
4002.382	-665.6
4004.886	-662.6
4007.388	-659.6
4009.888	-657.6
4012.386	-665.6
4014.883	-658.6
4017.377	-654.6
4019.87	-654.6
4022.361	-662.6
4024.85	-660.6
4027.338	-666.6
4029.823	-661.6
4032.307	-662.6
4034.789	-662.6
4037.269	-661.6
4039.747	-664.6
4042.224	-664.6
4044.699	-665.6
4047.172	-664.6
4049.643	-665.6
4052.112	-677.6
4054.58	-671.6
4057.046	-667.6
4059.51	-665.6
4061.972	-673.6
4064.432	-675.6
4066.891	-663.6
4069.348	-663.6
4071.803	-657.6
4074.256	-664.6
4076.708	-668.6
4079.158	-658.6
4081.606	-666.6
4084.052	-667.6
4086.497	-660.6
4088.939	-656.6
4091.38	-664.6
4093.819	-659.6
4096.257	-702.6
4098.693	-698.6
4101.127	-701.6
4103.559	-701.6
4105.989	-401.6
4108.418	-377.6
4110.845	-360.6
4113.27	-330.6
4115.694	-303.6
4118.115	-240.6
4120.535	-658.6
4122.954	-663.6
4125.37	-659.6
4127.785	-666.6
4130.198	-670.6
4132.609	-675.6
4135.019	-702.6
4137.427	-705.6
4139.833	-703.6
4142.237	-701.6
