Data from 2018-2-14_conc=2_n=10_RamanShift_02.txt Node
Date: Wed Feb 14 11:33:26 IST 2018
User: aro
Spectrometer: QEPB0276
Trigger mode: 0
Integration Time (sec): 3.000000E1
Scans to average: 1
Electric dark correction enabled: true
Nonlinearity correction enabled: false
Boxcar width: 0
XAxis mode: Raman Shifts
Number of Pixels in Spectrum: 1044
>>>>>Begin Spectral Data<<<<<
160.701	-143.9
166.742	42.1
172.777	567.1
178.805	2201.1
184.826	6004.1
190.841	12613.1
196.849	20214.1
202.85	25589.1
208.845	27278.1
214.833	27049.1
220.815	26542.1
226.789	26373.1
232.758	26232.1
238.719	26081.1
244.674	25674.1
250.623	25203.1
256.565	24732.1
262.5	24174.1
268.429	23702.1
274.351	23345.1
280.267	23001.1
286.176	22772.1
292.079	22560.1
297.975	22283.1
303.865	22114.1
309.748	21932.1
315.625	21887.1
321.495	21774.1
327.359	21581.1
333.217	21615.1
339.068	21610.1
344.912	21533.1
350.751	21536.1
356.583	21525.1
362.408	21475.1
368.227	21448.1
374.04	21486.1
379.847	21536.1
385.647	21626.1
391.44	21735.1
397.228	21802.1
403.009	21887.1
408.784	21940.1
414.553	21987.1
420.315	22040.1
426.071	22068.1
431.821	22048.1
437.565	21963.1
443.302	22025.1
449.033	21914.1
454.758	21908.1
460.477	21862.1
466.189	21796.1
471.896	21755.1
477.596	21702.1
483.29	21691.1
488.978	21598.1
494.66	21551.1
500.335	21401.1
506.005	21182.1
511.668	20981.1
517.325	20689.1
522.977	20518.1
528.622	20305.1
534.261	20231.1
539.894	20159.1
545.521	20072.1
551.141	19964.1
556.756	19911.1
562.365	19844.1
567.968	19747.1
573.565	19701.1
579.155	19596.1
584.74	19447.1
590.319	19366.1
595.892	19372.1
601.459	19277.1
607.02	19164.1
612.575	19047.1
618.124	18926.1
623.667	18817.1
629.204	18768.1
634.735	18735.1
640.261	18652.1
645.781	18571.1
651.294	18447.1
656.802	18436.1
662.304	18455.1
667.8	18371.1
673.29	18368.1
678.775	18288.1
684.254	18244.1
689.726	18232.1
695.193	18149.1
700.655	18022.1
706.11	17952.1
711.56	17855.1
717.004	17744.1
722.442	17730.1
727.874	17551.1
733.301	17562.1
738.722	17533.1
744.137	17478.1
749.547	17511.1
754.951	17474.1
760.349	17497.1
765.741	17439.1
771.128	17500.1
776.509	17499.1
781.885	17516.1
787.254	17411.1
792.618	17282.1
797.977	17232.1
803.33	17124.1
808.677	17027.1
814.019	16956.1
819.355	16819.1
824.686	16734.1
830.011	16686.1
835.33	16706.1
840.644	16747.1
845.952	16791.1
851.255	16780.1
856.552	16807.1
861.844	16765.1
867.13	16701.1
872.41	16661.1
877.686	16520.1
882.955	16379.1
888.219	16307.1
893.478	16153.1
898.731	15950.1
903.979	15791.1
909.221	15611.1
914.458	15555.1
919.69	15595.1
924.916	15631.1
930.136	15668.1
935.351	15678.1
940.561	15659.1
945.766	15627.1
950.965	15551.1
956.158	15373.1
961.347	15267.1
966.529	15073.1
971.707	14894.1
976.879	14682.1
982.046	14559.1
987.208	14590.1
992.364	14557.1
997.515	14654.1
1002.66	14768.1
1007.801	14967.1
1012.936	15099.1
1018.066	15028.1
1023.19	15018.1
1028.309	15023.1
1033.423	14944.1
1038.532	14862.1
1043.636	14775.1
1048.734	14590.1
1053.827	14388.1
1058.915	14234.1
1063.998	14202.1
1069.075	14088.1
1074.147	14097.1
1079.214	14128.1
1084.276	14245.1
1089.333	14289.1
1094.385	14348.1
1099.431	14377.1
1104.472	14357.1
1109.509	14333.1
1114.54	14149.1
1119.565	13938.1
1124.586	13800.1
1129.602	13688.1
1134.613	13564.1
1139.618	13500.1
1144.619	13415.1
1149.614	13467.1
1154.604	13453.1
1159.589	13475.1
1164.57	13534.1
1169.545	13566.1
1174.515	13507.1
1179.48	13433.1
1184.44	13350.1
1189.395	13318.1
1194.345	13213.1
1199.29	13127.1
1204.23	13127.1
1209.165	13117.1
1214.095	13196.1
1219.021	13279.1
1223.941	13313.1
1228.856	13444.1
1233.766	13441.1
1238.672	13495.1
1243.572	13457.1
1248.467	13388.1
1253.358	13200.1
1258.244	13038.1
1263.124	12806.1
1268	12642.1
1272.871	12469.1
1277.737	12384.1
1282.599	12302.1
1287.455	12310.1
1292.306	12341.1
1297.153	12356.1
1301.995	12452.1
1306.832	12466.1
1311.664	12475.1
1316.491	12453.1
1321.314	12363.1
1326.132	12197.1
1330.945	11896.1
1335.753	11623.1
1340.556	11378.1
1345.354	11120.1
1350.148	10944.1
1354.937	10818.1
1359.722	10798.1
1364.501	10848.1
1369.276	10998.1
1374.046	11121.1
1378.811	11307.1
1383.572	11446.1
1388.327	11475.1
1393.079	11411.1
1397.825	11276.1
1402.567	11136.1
1407.304	10966.1
1412.036	10820.1
1416.764	10802.1
1421.487	10649.1
1426.205	10656.1
1430.919	10577.1
1435.628	10594.1
1440.333	10582.1
1445.032	10673.1
1449.727	10661.1
1454.418	10654.1
1459.104	10552.1
1463.785	10336.1
1468.462	10189.1
1473.134	9952.1
1477.802	9731.1
1482.465	9558.1
1487.123	9449.1
1491.777	9428.1
1496.426	9485.1
1501.071	9542.1
1505.711	9708.1
1510.347	9923.1
1514.978	10085.1
1519.604	10230.1
1524.226	10352.1
1528.844	10314.1
1533.457	10297.1
1538.065	10266.1
1542.669	10198.1
1547.269	10126.1
1551.864	10107.1
1556.454	10006.1
1561.041	9977.1
1565.622	9972.1
1570.199	9946.1
1574.772	10052.1
1579.34	10109.1
1583.904	10129.1
1588.464	10197.1
1593.019	10195.1
1597.569	10126.1
1602.115	10107.1
1606.657	10023.1
1611.195	9963.1
1615.728	9953.1
1620.256	9890.1
1624.78	9901.1
1629.3	9893.1
1633.816	9942.1
1638.327	9937.1
1642.834	10020.1
1647.336	10060.1
1651.834	10064.1
1656.328	10097.1
1660.817	10034.1
1665.302	9921.1
1669.783	9743.1
1674.259	9570.1
1678.732	9279.1
1683.199	8964.1
1687.663	8622.1
1692.122	8423.1
1696.577	8268.1
1701.028	8202.1
1705.474	8261.1
1709.917	8386.1
1714.355	8378.1
1718.788	8365.1
1723.218	8242.1
1727.643	8054.1
1732.064	7886.1
1736.481	7728.1
1740.893	7523.1
1745.301	7311.1
1749.705	7137.1
1754.105	6945.1
1758.501	6736.1
1762.893	6501.1
1767.28	6354.1
1771.663	6232.1
1776.042	6119.1
1780.417	6041.1
1784.787	6008.1
1789.154	6055.1
1793.516	6191.1
1797.874	6289.1
1802.228	6461.1
1806.578	6520.1
1810.924	6540.1
1815.266	6501.1
1819.603	6373.1
1823.937	6259.1
1828.266	6174.1
1832.591	6048.1
1836.913	5988.1
1841.23	5892.1
1845.543	5863.1
1849.852	5849.1
1854.156	5817.1
1858.457	5788.1
1862.754	5791.1
1867.047	5789.1
1871.335	5785.1
1875.62	5741.1
1879.9	5756.1
1884.177	5696.1
1888.449	5656.1
1892.718	5632.1
1896.982	5534.1
1901.243	5445.1
1905.499	5441.1
1909.752	5436.1
1914	5383.1
1918.245	5443.1
1922.485	5440.1
1926.722	5530.1
1930.954	5621.1
1935.183	5654.1
1939.408	5710.1
1943.628	5823.1
1947.845	5770.1
1952.058	5766.1
1956.267	5718.1
1960.472	5663.1
1964.673	5559.1
1968.87	5488.1
1973.063	5394.1
1977.252	5348.1
1981.438	5251.1
1985.619	5210.1
1989.797	5153.1
1993.971	5128.1
1998.14	5098.1
2002.306	5041.1
2006.469	5026.1
2010.627	5012.1
2014.781	4993.1
2018.932	4940.1
2023.078	4873.1
2027.221	4843.1
2031.36	4773.1
2035.495	4646.1
2039.627	4590.1
2043.754	4560.1
2047.878	4521.1
2051.998	4454.1
2056.114	4466.1
2060.226	4462.1
2064.334	4445.1
2068.439	4454.1
2072.54	4501.1
2076.637	4524.1
2080.73	4556.1
2084.82	4601.1
2088.906	4605.1
2092.988	4614.1
2097.066	4607.1
2101.14	4564.1
2105.211	4551.1
2109.278	4494.1
2113.342	4509.1
2117.401	4490.1
2121.457	4455.1
2125.509	4445.1
2129.558	4433.1
2133.602	4366.1
2137.643	4327.1
2141.681	4303.1
2145.714	4265.1
2149.744	4217.1
2153.77	4229.1
2157.793	4171.1
2161.812	4124.1
2165.827	4058.1
2169.838	4014.1
2173.846	3895.1
2177.851	3864.1
2181.851	3823.1
2185.848	3750.1
2189.841	3718.1
2193.831	3669.1
2197.817	3646.1
2201.799	3614.1
2205.778	3594.1
2209.753	3596.1
2213.725	3600.1
2217.693	3562.1
2221.657	3566.1
2225.618	3557.1
2229.575	3537.1
2233.529	3488.1
2237.479	3457.1
2241.425	3401.1
2245.368	3351.1
2249.307	3319.1
2253.243	3285.1
2257.175	3234.1
2261.104	3170.1
2265.029	3170.1
2268.95	3090.1
2272.868	3062.1
2276.783	3053.1
2280.694	2992.1
2284.601	2984.1
2288.505	2938.1
2292.405	2905.1
2296.302	2890.1
2300.195	2861.1
2304.085	2808.1
2307.971	2783.1
2311.854	2741.1
2315.734	2723.1
2319.609	2667.1
2323.482	2607.1
2327.351	2604.1
2331.216	2557.1
2335.078	2559.1
2338.937	2543.1
2342.792	2537.1
2346.643	2498.1
2350.492	2529.1
2354.336	2514.1
2358.178	2523.1
2362.015	2557.1
2365.85	2548.1
2369.681	2538.1
2373.508	2537.1
2377.333	2523.1
2381.153	2504.1
2384.971	2516.1
2388.785	2502.1
2392.595	2476.1
2396.402	2465.1
2400.206	2430.1
2404.007	2400.1
2407.804	2396.1
2411.597	2395.1
2415.388	2365.1
2419.174	2359.1
2422.958	2353.1
2426.738	2329.1
2430.515	2280.1
2434.289	2268.1
2438.059	2259.1
2441.825	2247.1
2445.589	2206.1
2449.349	2202.1
2453.106	2160.1
2456.859	2154.1
2460.61	2128.1
2464.356	2093.1
2468.1	2076.1
2471.84	2048.1
2475.577	2023.1
2479.311	2019.1
2483.041	1996.1
2486.768	1966.1
2490.492	1983.1
2494.213	1991.1
2497.93	1961.1
2501.644	1957.1
2505.355	1955.1
2509.062	1951.1
2512.766	1925.1
2516.467	1919.1
2520.165	1896.1
2523.859	1891.1
2527.551	1876.1
2531.239	1868.1
2534.923	1859.1
2538.605	1847.1
2542.283	1838.1
2545.958	1824.1
2549.63	1819.1
2553.299	1847.1
2556.964	1819.1
2560.626	1807.1
2564.285	1794.1
2567.941	1803.1
2571.594	1798.1
2575.243	1780.1
2578.89	1750.1
2582.533	1737.1
2586.173	1734.1
2589.809	1721.1
2593.443	1702.1
2597.073	1688.1
2600.701	1665.1
2604.325	1659.1
2607.946	1643.1
2611.564	1643.1
2615.178	1622.1
2618.79	1615.1
2622.398	1590.1
2626.004	1569.1
2629.606	1572.1
2633.205	1534.1
2636.801	1525.1
2640.394	1489.1
2643.983	1481.1
2647.57	1443.1
2651.153	1418.1
2654.734	1392.1
2658.311	1385.1
2661.885	1364.1
2665.456	1347.1
2669.025	1336.1
2672.589	1305.1
2676.151	1307.1
2679.71	1293.1
2683.266	1247.1
2686.819	1236.1
2690.368	1209.1
2693.915	1181.1
2697.458	1149.1
2700.999	1117.1
2704.536	1097.1
2708.071	1080.1
2711.602	1057.1
2715.13	1040.1
2718.656	995.1
2722.178	983.1
2725.697	970.1
2729.214	969.1
2732.727	971.1
2736.237	945.1
2739.744	926.1
2743.249	958.1
2746.75	972.1
2750.248	950.1
2753.743	969.1
2757.236	978.1
2760.725	990.1
2764.211	1009.1
2767.695	1018.1
2771.175	1011.1
2774.652	1007.1
2778.127	994.1
2781.598	998.1
2785.067	986.1
2788.532	981.1
2791.995	977.1
2795.455	993.1
2798.911	977.1
2802.365	973.1
2805.816	964.1
2809.264	985.1
2812.709	967.1
2816.151	981.1
2819.59	976.1
2823.026	966.1
2826.46	983.1
2829.89	973.1
2833.318	1009.1
2836.742	997.1
2840.164	1024.1
2843.583	1023.1
2846.999	1023.1
2850.412	1014.1
2853.822	1041.1
2857.229	1063.1
2860.634	1071.1
2864.035	1100.1
2867.434	1122.1
2870.83	1138.1
2874.223	1146.1
2877.613	1180.1
2881	1192.1
2884.385	1201.1
2887.766	1213.1
2891.145	1186.1
2894.521	1190.1
2897.894	1203.1
2901.264	1197.1
2904.631	1191.1
2907.996	1221.1
2911.358	1221.1
2914.717	1233.1
2918.073	1227.1
2921.426	1241.1
2924.777	1272.1
2928.124	1268.1
2931.469	1301.1
2934.811	1321.1
2938.15	1333.1
2941.487	1338.1
2944.821	1372.1
2948.152	1361.1
2951.48	1366.1
2954.805	1325.1
2958.128	1331.1
2961.447	1329.1
2964.765	1323.1
2968.079	1321.1
2971.39	1336.1
2974.699	1362.1
2978.005	1377.1
2981.308	1382.1
2984.609	1415.1
2987.907	1447.1
2991.202	1485.1
2994.494	1519.1
2997.784	1551.1
3001.07	1596.1
3004.355	1603.1
3007.636	1636.1
3010.915	1652.1
3014.191	1667.1
3017.464	1652.1
3020.734	1690.1
3024.002	1697.1
3027.267	1732.1
3030.53	1715.1
3033.789	1741.1
3037.046	1765.1
3040.301	1796.1
3043.552	1810.1
3046.801	1854.1
3050.048	1905.1
3053.291	1961.1
3056.532	2021.1
3059.771	2053.1
3063.006	2113.1
3066.239	2204.1
3069.469	2252.1
3072.697	2322.1
3075.922	2386.1
3079.144	2424.1
3082.364	2486.1
3085.581	2570.1
3088.795	2612.1
3092.007	2667.1
3095.216	2759.1
3098.423	2778.1
3101.627	2854.1
3104.828	2917.1
3108.026	2977.1
3111.222	3055.1
3114.416	3126.1
3117.607	3183.1
3120.795	3267.1
3123.98	3339.1
3127.163	3433.1
3130.344	3532.1
3133.521	3593.1
3136.696	3671.1
3139.869	3765.1
3143.039	3846.1
3146.206	3832.1
3149.371	3904.1
3152.533	3965.1
3155.693	3956.1
3158.85	4007.1
3162.005	4011.1
3165.157	4051.1
3168.306	4039.1
3171.453	4029.1
3174.597	4049.1
3177.739	4098.1
3180.878	4079.1
3184.014	4074.1
3187.149	4082.1
3190.28	4097.1
3193.409	4085.1
3196.536	4095.1
3199.659	4119.1
3202.781	4104.1
3205.9	4119.1
3209.016	4107.1
3212.13	4093.1
3215.241	4054.1
3218.35	4027.1
3221.456	3983.1
3224.56	3937.1
3227.661	3889.1
3230.76	3861.1
3233.856	3834.1
3236.95	3761.1
3240.041	3747.1
3243.13	3748.1
3246.216	3698.1
3249.3	3686.1
3252.382	3680.1
3255.46	3684.1
3258.537	3655.1
3261.611	3686.1
3264.682	3686.1
3267.751	3657.1
3270.818	3635.1
3273.882	3638.1
3276.943	3604.1
3280.002	3589.1
3283.059	3558.1
3286.113	3522.1
3289.165	3447.1
3292.214	3428.1
3295.261	3343.1
3298.306	3297.1
3301.348	3235.1
3304.387	3194.1
3307.425	3158.1
3310.459	3084.1
3313.492	3014.1
3316.521	2999.1
3319.549	2967.1
3322.574	2949.1
3325.597	2934.1
3328.617	2900.1
3331.635	2887.1
3334.65	2864.1
3337.663	2857.1
3340.674	2837.1
3343.682	2809.1
3346.688	2789.1
3349.691	2802.1
3352.692	2780.1
3355.691	2745.1
3358.687	2730.1
3361.681	2692.1
3364.673	2661.1
3367.662	2646.1
3370.649	2591.1
3373.633	2569.1
3376.615	2543.1
3379.595	2460.1
3382.572	2469.1
3385.547	2420.1
3388.52	2395.1
3391.49	2350.1
3394.458	2307.1
3397.424	2284.1
3400.387	2239.1
3403.348	2202.1
3406.307	2203.1
3409.263	2188.1
3412.217	2140.1
3415.168	2135.1
3418.118	2099.1
3421.065	2054.1
3424.009	2056.1
3426.951	1995.1
3429.891	1995.1
3432.829	1949.1
3435.764	1887.1
3438.697	1843.1
3441.628	1806.1
3444.557	1747.1
3447.483	1692.1
3450.407	1661.1
3453.328	1566.1
3456.247	1505.1
3459.164	1476.1
3462.079	1433.1
3464.991	1407.1
3467.902	1322.1
3470.809	1284.1
3473.715	1240.1
3476.618	1194.1
3479.519	1148.1
3482.418	1117.1
3485.315	1069.1
3488.209	1064.1
3491.101	1011.1
3493.99	969.1
3496.878	913.1
3499.763	889.1
3502.646	850.1
3505.527	824.1
3508.405	791.1
3511.281	732.1
3514.155	694.1
3517.027	648.1
3519.897	620.1
3522.764	575.1
3525.629	540.1
3528.492	490.1
3531.352	452.1
3534.211	422.1
3537.067	370.1
3539.921	336.1
3542.773	296.1
3545.622	266.1
3548.469	234.1
3551.315	212.1
3554.157	188.1
3556.998	160.1
3559.837	119.1
3562.673	112.1
3565.507	75.1
3568.339	56.1
3571.169	35.1
3573.996	14.1
3576.822	3.1
3579.645	-13.9
3582.466	-46.9
3585.285	-75.9
3588.101	-88.9
3590.916	-100.9
3593.728	-137.9
3596.538	-141.9
3599.346	-162.9
3602.152	-186.9
3604.956	-190.9
3607.757	-216.9
3610.556	-229.9
3613.354	-257.9
3616.149	-257.9
3618.942	-266.9
3621.732	-285.9
3624.521	-299.9
3627.307	-301.9
3630.092	-314.9
3632.874	-325.9
3635.654	-336.9
3638.432	-341.9
3641.208	-344.9
3643.982	-362.9
3646.753	-362.9
3649.523	-383.9
3652.29	-386.9
3655.055	-398.9
3657.818	-406.9
3660.579	-417.9
3663.338	-426.9
3666.095	-439.9
3668.849	-451.9
3671.602	-461.9
3674.352	-476.9
3677.101	-473.9
3679.847	-484.9
3682.591	-493.9
3685.333	-494.9
3688.073	-493.9
3690.811	-507.9
3693.547	-511.9
3696.281	-509.9
3699.013	-523.9
3701.742	-517.9
3704.47	-523.9
3707.195	-529.9
3709.919	-532.9
3712.64	-545.9
3715.359	-535.9
3718.076	-539.9
3720.792	-547.9
3723.505	-552.9
3726.216	-557.9
3728.925	-553.9
3731.632	-568.9
3734.336	-568.9
3737.039	-570.9
3739.74	-573.9
3742.439	-574.9
3745.136	-577.9
3747.83	-576.9
3750.523	-574.9
3753.213	-557.9
3755.902	-582.9
3758.589	-584.9
3761.273	-583.9
3763.956	-589.9
3766.636	-592.9
3769.315	-601.9
3771.991	-593.9
3774.665	-596.9
3777.338	-603.9
3780.008	-597.9
3782.677	-600.9
3785.343	-600.9
3788.007	-596.9
3790.67	-605.9
3793.33	-607.9
3795.989	-604.9
3798.645	-602.9
3801.299	-602.9
3803.952	-608.9
3806.602	-617.9
3809.251	-622.9
3811.897	-618.9
3814.542	-618.9
3817.184	-611.9
3819.825	-611.9
3822.463	-611.9
3825.1	-619.9
3827.735	-615.9
3830.367	-615.9
3832.998	-623.9
3835.627	-622.9
3838.253	-622.9
3840.878	-624.9
3843.501	-622.9
3846.122	-619.9
3848.741	-619.9
3851.358	-624.9
3853.973	-625.9
3856.586	-623.9
3859.197	-632.9
3861.806	-630.9
3864.414	-622.9
3867.019	-629.9
3869.622	-625.9
3872.224	-622.9
3874.823	-612.9
3877.421	-595.9
3880.016	-588.9
3882.61	-557.9
3885.202	-550.9
3887.792	-567.9
3890.38	-591.9
3892.966	-613.9
3895.55	-622.9
3898.132	-639.9
3900.713	-633.9
3903.291	-639.9
3905.868	-636.9
3908.442	-638.9
3911.015	-647.9
3913.586	-637.9
3916.155	-633.9
3918.722	-643.9
3921.287	-645.9
3923.85	-646.9
3926.411	-647.9
3928.971	-649.9
3931.528	-648.9
3934.084	-643.9
3936.638	-643.9
3939.19	-641.9
3941.74	-638.9
3944.288	-645.9
3946.834	-640.9
3949.378	-646.9
3951.921	-645.9
3954.462	-653.9
3957	-643.9
3959.537	-647.9
3962.072	-643.9
3964.606	-643.9
3967.137	-645.9
3969.667	-646.9
3972.194	-637.9
3974.72	-638.9
3977.244	-630.9
3979.766	-630.9
3982.286	-632.9
3984.805	-629.9
3987.321	-628.9
3989.836	-631.9
3992.349	-624.9
3994.86	-625.9
3997.369	-632.9
3999.877	-626.9
4002.382	-625.9
4004.886	-632.9
4007.388	-622.9
4009.888	-625.9
4012.386	-635.9
4014.883	-625.9
4017.377	-633.9
4019.87	-624.9
4022.361	-623.9
4024.85	-628.9
4027.338	-631.9
4029.823	-623.9
4032.307	-627.9
4034.789	-623.9
4037.269	-627.9
4039.747	-635.9
4042.224	-632.9
4044.699	-633.9
4047.172	-631.9
4049.643	-629.9
4052.112	-631.9
4054.58	-636.9
4057.046	-631.9
4059.51	-636.9
4061.972	-634.9
4064.432	-634.9
4066.891	-629.9
4069.348	-631.9
4071.803	-631.9
4074.256	-633.9
4076.708	-633.9
4079.158	-635.9
4081.606	-640.9
4084.052	-636.9
4086.497	-639.9
4088.939	-624.9
4091.38	-637.9
4093.819	-629.9
4096.257	-664.9
4098.693	-661.9
4101.127	-666.9
4103.559	-665.9
4105.989	-394.9
4108.418	-361.9
4110.845	-337.9
4113.27	-308.9
4115.694	-267.9
4118.115	-230.9
4120.535	-628.9
4122.954	-628.9
4125.37	-625.9
4127.785	-633.9
4130.198	-630.9
4132.609	-634.9
4135.019	-664.9
4137.427	-667.9
4139.833	-668.9
4142.237	-664.9
