Data from 2018-2-14_conc=6_n=9_RamanShift_04.txt Node
Date: Wed Feb 14 15:12:55 IST 2018
User: aro
Spectrometer: QEPB0276
Trigger mode: 0
Integration Time (sec): 3.000000E1
Scans to average: 1
Electric dark correction enabled: true
Nonlinearity correction enabled: false
Boxcar width: 0
XAxis mode: Raman Shifts
Number of Pixels in Spectrum: 1044
>>>>>Begin Spectral Data<<<<<
160.701	-142.1
166.742	43.9
172.777	579.9
178.805	2265.9
184.826	6207.9
190.841	12949.9
196.849	20790.9
202.85	26340.9
208.845	28224.9
214.833	27961.9
220.815	27489.9
226.789	27316.9
232.758	27230.9
238.719	27024.9
244.674	26627.9
250.623	26221.9
256.565	25708.9
262.5	25152.9
268.429	24685.9
274.351	24371.9
280.267	24039.9
286.176	23770.9
292.079	23529.9
297.975	23363.9
303.865	23104.9
309.748	23019.9
315.625	22858.9
321.495	22733.9
327.359	22682.9
333.217	22644.9
339.068	22656.9
344.912	22601.9
350.751	22583.9
356.583	22656.9
362.408	22571.9
368.227	22503.9
374.04	22579.9
379.847	22622.9
385.647	22774.9
391.44	22839.9
397.228	22883.9
403.009	22991.9
408.784	23042.9
414.553	23057.9
420.315	23204.9
426.071	23283.9
431.821	23190.9
437.565	23183.9
443.302	23094.9
449.033	23063.9
454.758	23086.9
460.477	22924.9
466.189	22999.9
471.896	22905.9
477.596	22772.9
483.29	22787.9
488.978	22752.9
494.66	22683.9
500.335	22464.9
506.005	22265.9
511.668	21952.9
517.325	21697.9
522.977	21490.9
528.622	21267.9
534.261	21135.9
539.894	21057.9
545.521	20901.9
551.141	20889.9
556.756	20836.9
562.365	20641.9
567.968	20655.9
573.565	20495.9
579.155	20453.9
584.74	20365.9
590.319	20283.9
595.892	20233.9
601.459	20178.9
607.02	20093.9
612.575	19975.9
618.124	19836.9
623.667	19716.9
629.204	19601.9
634.735	19497.9
640.261	19404.9
645.781	19384.9
651.294	19292.9
656.802	19292.9
662.304	19275.9
667.8	19219.9
673.29	19172.9
678.775	19104.9
684.254	19082.9
689.726	18966.9
695.193	18935.9
700.655	18811.9
706.11	18772.9
711.56	18640.9
717.004	18536.9
722.442	18464.9
727.874	18401.9
733.301	18401.9
738.722	18296.9
744.137	18266.9
749.547	18204.9
754.951	18259.9
760.349	18174.9
765.741	18235.9
771.128	18236.9
776.509	18305.9
781.885	18308.9
787.254	18265.9
792.618	18127.9
797.977	18066.9
803.33	17991.9
808.677	17847.9
814.019	17706.9
819.355	17651.9
824.686	17536.9
830.011	17484.9
835.33	17486.9
840.644	17527.9
845.952	17520.9
851.255	17608.9
856.552	17561.9
861.844	17532.9
867.13	17462.9
872.41	17446.9
877.686	17317.9
882.955	17127.9
888.219	17032.9
893.478	16859.9
898.731	16673.9
903.979	16479.9
909.221	16334.9
914.458	16291.9
919.69	16269.9
924.916	16349.9
930.136	16457.9
935.351	16360.9
940.561	16395.9
945.766	16322.9
950.965	16310.9
956.158	16130.9
961.347	15960.9
966.529	15778.9
971.707	15569.9
976.879	15340.9
982.046	15269.9
987.208	15200.9
992.364	15256.9
997.515	15323.9
1002.66	15432.9
1007.801	15588.9
1012.936	15760.9
1018.066	15797.9
1023.19	15670.9
1028.309	15749.9
1033.423	15647.9
1038.532	15619.9
1043.636	15432.9
1048.734	15261.9
1053.827	15113.9
1058.915	14976.9
1063.998	14823.9
1069.075	14776.9
1074.147	14824.9
1079.214	14836.9
1084.276	14949.9
1089.333	15101.9
1094.385	15122.9
1099.431	15146.9
1104.472	15177.9
1109.509	15017.9
1114.54	14865.9
1119.565	14653.9
1124.586	14467.9
1129.602	14319.9
1134.613	14247.9
1139.618	14099.9
1144.619	14141.9
1149.614	14052.9
1154.604	14112.9
1159.589	14233.9
1164.57	14172.9
1169.545	14238.9
1174.515	14181.9
1179.48	14085.9
1184.44	14027.9
1189.395	13904.9
1194.345	13823.9
1199.29	13768.9
1204.23	13735.9
1209.165	13824.9
1214.095	13882.9
1219.021	13955.9
1223.941	14029.9
1228.856	14116.9
1233.766	14168.9
1238.672	14150.9
1243.572	14109.9
1248.467	14032.9
1253.358	13940.9
1258.244	13691.9
1263.124	13474.9
1268	13207.9
1272.871	13093.9
1277.737	13003.9
1282.599	12908.9
1287.455	13016.9
1292.306	12922.9
1297.153	13016.9
1301.995	13054.9
1306.832	13083.9
1311.664	13119.9
1316.491	13072.9
1321.314	12893.9
1326.132	12745.9
1330.945	12446.9
1335.753	12206.9
1340.556	11866.9
1345.354	11639.9
1350.148	11447.9
1354.937	11369.9
1359.722	11289.9
1364.501	11340.9
1369.276	11505.9
1374.046	11607.9
1378.811	11713.9
1383.572	11820.9
1388.327	11900.9
1393.079	11859.9
1397.825	11722.9
1402.567	11521.9
1407.304	11443.9
1412.036	11360.9
1416.764	11258.9
1421.487	11179.9
1426.205	11085.9
1430.919	11062.9
1435.628	11095.9
1440.333	11116.9
1445.032	11136.9
1449.727	11165.9
1454.418	11144.9
1459.104	11030.9
1463.785	10771.9
1468.462	10592.9
1473.134	10338.9
1477.802	10123.9
1482.465	9967.9
1487.123	9797.9
1491.777	9770.9
1496.426	9822.9
1501.071	9900.9
1505.711	10011.9
1510.347	10193.9
1514.978	10381.9
1519.604	10524.9
1524.226	10629.9
1528.844	10684.9
1533.457	10693.9
1538.065	10554.9
1542.669	10540.9
1547.269	10441.9
1551.864	10393.9
1556.454	10399.9
1561.041	10395.9
1565.622	10413.9
1570.199	10382.9
1574.772	10474.9
1579.34	10521.9
1583.904	10586.9
1588.464	10581.9
1593.019	10600.9
1597.569	10575.9
1602.115	10507.9
1606.657	10433.9
1611.195	10356.9
1615.728	10317.9
1620.256	10279.9
1624.78	10218.9
1629.3	10265.9
1633.816	10287.9
1638.327	10322.9
1642.834	10355.9
1647.336	10413.9
1651.834	10454.9
1656.328	10322.9
1660.817	10312.9
1665.302	10157.9
1669.783	10044.9
1674.259	9786.9
1678.732	9527.9
1683.199	9252.9
1687.663	8858.9
1692.122	8591.9
1696.577	8447.9
1701.028	8410.9
1705.474	8428.9
1709.917	8492.9
1714.355	8559.9
1718.788	8464.9
1723.218	8383.9
1727.643	8244.9
1732.064	8098.9
1736.481	7919.9
1740.893	7716.9
1745.301	7530.9
1749.705	7318.9
1754.105	7108.9
1758.501	6914.9
1762.893	6726.9
1767.28	6536.9
1771.663	6390.9
1776.042	6303.9
1780.417	6193.9
1784.787	6192.9
1789.154	6213.9
1793.516	6350.9
1797.874	6477.9
1802.228	6575.9
1806.578	6653.9
1810.924	6668.9
1815.266	6577.9
1819.603	6507.9
1823.937	6383.9
1828.266	6267.9
1832.591	6242.9
1836.913	6127.9
1841.23	6061.9
1845.543	6022.9
1849.852	6023.9
1854.156	5957.9
1858.457	5967.9
1862.754	5931.9
1867.047	5938.9
1871.335	5908.9
1875.62	5895.9
1879.9	5907.9
1884.177	5838.9
1888.449	5783.9
1892.718	5732.9
1896.982	5650.9
1901.243	5606.9
1905.499	5532.9
1909.752	5555.9
1914	5543.9
1918.245	5534.9
1922.485	5550.9
1926.722	5625.9
1930.954	5737.9
1935.183	5749.9
1939.408	5855.9
1943.628	5859.9
1947.845	5870.9
1952.058	5842.9
1956.267	5798.9
1960.472	5733.9
1964.673	5680.9
1968.87	5589.9
1973.063	5495.9
1977.252	5421.9
1981.438	5350.9
1985.619	5298.9
1989.797	5258.9
1993.971	5237.9
1998.14	5220.9
2002.306	5181.9
2006.469	5180.9
2010.627	5168.9
2014.781	5109.9
2018.932	5037.9
2023.078	5007.9
2027.221	4965.9
2031.36	4844.9
2035.495	4780.9
2039.627	4704.9
2043.754	4657.9
2047.878	4601.9
2051.998	4590.9
2056.114	4562.9
2060.226	4559.9
2064.334	4540.9
2068.439	4558.9
2072.54	4590.9
2076.637	4614.9
2080.73	4658.9
2084.82	4646.9
2088.906	4690.9
2092.988	4683.9
2097.066	4641.9
2101.14	4643.9
2105.211	4596.9
2109.278	4564.9
2113.342	4581.9
2117.401	4519.9
2121.457	4490.9
2125.509	4473.9
2129.558	4446.9
2133.602	4421.9
2137.643	4410.9
2141.681	4383.9
2145.714	4363.9
2149.744	4322.9
2153.77	4290.9
2157.793	4258.9
2161.812	4197.9
2165.827	4155.9
2169.838	4100.9
2173.846	3974.9
2177.851	3931.9
2181.851	3905.9
2185.848	3867.9
2189.841	3794.9
2193.831	3776.9
2197.817	3722.9
2201.799	3705.9
2205.778	3694.9
2209.753	3687.9
2213.725	3662.9
2217.693	3647.9
2221.657	3632.9
2225.618	3643.9
2229.575	3618.9
2233.529	3584.9
2237.479	3528.9
2241.425	3510.9
2245.368	3454.9
2249.307	3373.9
2253.243	3358.9
2257.175	3301.9
2261.104	3261.9
2265.029	3241.9
2268.95	3209.9
2272.868	3144.9
2276.783	3111.9
2280.694	3074.9
2284.601	3048.9
2288.505	3025.9
2292.405	3018.9
2296.302	2979.9
2300.195	2918.9
2304.085	2909.9
2307.971	2858.9
2311.854	2820.9
2315.734	2776.9
2319.609	2744.9
2323.482	2688.9
2327.351	2690.9
2331.216	2664.9
2335.078	2655.9
2338.937	2611.9
2342.792	2614.9
2346.643	2602.9
2350.492	2625.9
2354.336	2618.9
2358.178	2635.9
2362.015	2603.9
2365.85	2632.9
2369.681	2623.9
2373.508	2629.9
2377.333	2633.9
2381.153	2618.9
2384.971	2592.9
2388.785	2576.9
2392.595	2538.9
2396.402	2542.9
2400.206	2535.9
2404.007	2509.9
2407.804	2491.9
2411.597	2479.9
2415.388	2451.9
2419.174	2444.9
2422.958	2393.9
2426.738	2379.9
2430.515	2366.9
2434.289	2383.9
2438.059	2332.9
2441.825	2314.9
2445.589	2291.9
2449.349	2262.9
2453.106	2227.9
2456.859	2194.9
2460.61	2181.9
2464.356	2161.9
2468.1	2144.9
2471.84	2111.9
2475.577	2093.9
2479.311	2067.9
2483.041	2067.9
2486.768	2062.9
2490.492	2052.9
2494.213	2046.9
2497.93	2018.9
2501.644	2031.9
2505.355	1974.9
2509.062	1989.9
2512.766	1982.9
2516.467	1981.9
2520.165	1955.9
2523.859	1933.9
2527.551	1922.9
2531.239	1900.9
2534.923	1885.9
2538.605	1888.9
2542.283	1886.9
2545.958	1892.9
2549.63	1879.9
2553.299	1873.9
2556.964	1866.9
2560.626	1865.9
2564.285	1838.9
2567.941	1855.9
2571.594	1810.9
2575.243	1831.9
2578.89	1801.9
2582.533	1798.9
2586.173	1773.9
2589.809	1760.9
2593.443	1736.9
2597.073	1742.9
2600.701	1711.9
2604.325	1683.9
2607.946	1703.9
2611.564	1676.9
2615.178	1671.9
2618.79	1651.9
2622.398	1629.9
2626.004	1645.9
2629.606	1595.9
2633.205	1566.9
2636.801	1577.9
2640.394	1543.9
2643.983	1501.9
2647.57	1489.9
2651.153	1462.9
2654.734	1445.9
2658.311	1400.9
2661.885	1393.9
2665.456	1391.9
2669.025	1349.9
2672.589	1334.9
2676.151	1336.9
2679.71	1305.9
2683.266	1286.9
2686.819	1263.9
2690.368	1239.9
2693.915	1226.9
2697.458	1187.9
2700.999	1158.9
2704.536	1140.9
2708.071	1123.9
2711.602	1084.9
2715.13	1041.9
2718.656	1037.9
2722.178	1013.9
2725.697	1003.9
2729.214	974.9
2732.727	987.9
2736.237	980.9
2739.744	972.9
2743.249	988.9
2746.75	966.9
2750.248	986.9
2753.743	986.9
2757.236	1007.9
2760.725	1024.9
2764.211	1025.9
2767.695	1021.9
2771.175	1015.9
2774.652	1024.9
2778.127	995.9
2781.598	997.9
2785.067	987.9
2788.532	981.9
2791.995	987.9
2795.455	990.9
2798.911	975.9
2802.365	999.9
2805.816	982.9
2809.264	976.9
2812.709	1007.9
2816.151	998.9
2819.59	985.9
2823.026	992.9
2826.46	1006.9
2829.89	1010.9
2833.318	997.9
2836.742	1002.9
2840.164	1004.9
2843.583	1032.9
2846.999	1040.9
2850.412	1031.9
2853.822	1044.9
2857.229	1072.9
2860.634	1086.9
2864.035	1106.9
2867.434	1136.9
2870.83	1163.9
2874.223	1168.9
2877.613	1189.9
2881	1207.9
2884.385	1222.9
2887.766	1215.9
2891.145	1208.9
2894.521	1205.9
2897.894	1197.9
2901.264	1200.9
2904.631	1235.9
2907.996	1206.9
2911.358	1224.9
2914.717	1233.9
2918.073	1237.9
2921.426	1247.9
2924.777	1265.9
2928.124	1277.9
2931.469	1293.9
2934.811	1345.9
2938.15	1354.9
2941.487	1361.9
2944.821	1379.9
2948.152	1352.9
2951.48	1356.9
2954.805	1345.9
2958.128	1337.9
2961.447	1324.9
2964.765	1316.9
2968.079	1334.9
2971.39	1331.9
2974.699	1342.9
2978.005	1375.9
2981.308	1403.9
2984.609	1424.9
2987.907	1447.9
2991.202	1474.9
2994.494	1495.9
2997.784	1535.9
3001.07	1530.9
3004.355	1565.9
3007.636	1598.9
3010.915	1635.9
3014.191	1619.9
3017.464	1658.9
3020.734	1668.9
3024.002	1668.9
3027.267	1689.9
3030.53	1691.9
3033.789	1724.9
3037.046	1792.9
3040.301	1757.9
3043.552	1822.9
3046.801	1832.9
3050.048	1885.9
3053.291	1946.9
3056.532	1991.9
3059.771	2037.9
3063.006	2117.9
3066.239	2174.9
3069.469	2248.9
3072.697	2299.9
3075.922	2350.9
3079.144	2443.9
3082.364	2469.9
3085.581	2532.9
3088.795	2565.9
3092.007	2615.9
3095.216	2680.9
3098.423	2704.9
3101.627	2818.9
3104.828	2869.9
3108.026	2927.9
3111.222	2978.9
3114.416	3070.9
3117.607	3127.9
3120.795	3170.9
3123.98	3289.9
3127.163	3354.9
3130.344	3449.9
3133.521	3522.9
3136.696	3570.9
3139.869	3684.9
3143.039	3733.9
3146.206	3803.9
3149.371	3826.9
3152.533	3879.9
3155.693	3898.9
3158.85	3929.9
3162.005	3932.9
3165.157	3950.9
3168.306	3980.9
3171.453	3975.9
3174.597	3972.9
3177.739	3988.9
3180.878	3992.9
3184.014	3999.9
3187.149	3985.9
3190.28	4005.9
3193.409	4031.9
3196.536	4026.9
3199.659	4035.9
3202.781	4034.9
3205.9	4022.9
3209.016	4009.9
3212.13	4002.9
3215.241	3978.9
3218.35	3941.9
3221.456	3878.9
3224.56	3868.9
3227.661	3812.9
3230.76	3779.9
3233.856	3732.9
3236.95	3679.9
3240.041	3654.9
3243.13	3631.9
3246.216	3623.9
3249.3	3611.9
3252.382	3584.9
3255.46	3579.9
3258.537	3547.9
3261.611	3559.9
3264.682	3559.9
3267.751	3561.9
3270.818	3575.9
3273.882	3554.9
3276.943	3543.9
3280.002	3488.9
3283.059	3473.9
3286.113	3451.9
3289.165	3366.9
3292.214	3354.9
3295.261	3285.9
3298.306	3249.9
3301.348	3172.9
3304.387	3120.9
3307.425	3089.9
3310.459	3032.9
3313.492	3005.9
3316.521	2945.9
3319.549	2911.9
3322.574	2922.9
3325.597	2854.9
3328.617	2831.9
3331.635	2841.9
3334.65	2797.9
3337.663	2813.9
3340.674	2776.9
3343.682	2732.9
3346.688	2764.9
3349.691	2747.9
3352.692	2733.9
3355.691	2712.9
3358.687	2707.9
3361.681	2679.9
3364.673	2609.9
3367.662	2588.9
3370.649	2560.9
3373.633	2507.9
3376.615	2462.9
3379.595	2415.9
3382.572	2398.9
3385.547	2363.9
3388.52	2324.9
3391.49	2283.9
3394.458	2275.9
3397.424	2243.9
3400.387	2204.9
3403.348	2181.9
3406.307	2145.9
3409.263	2114.9
3412.217	2107.9
3415.168	2053.9
3418.118	2067.9
3421.065	2026.9
3424.009	1985.9
3426.951	1968.9
3429.891	1939.9
3432.829	1878.9
3435.764	1832.9
3438.697	1789.9
3441.628	1734.9
3444.557	1683.9
3447.483	1642.9
3450.407	1597.9
3453.328	1542.9
3456.247	1495.9
3459.164	1431.9
3462.079	1378.9
3464.991	1332.9
3467.902	1277.9
3470.809	1216.9
3473.715	1172.9
3476.618	1133.9
3479.519	1091.9
3482.418	1072.9
3485.315	1038.9
3488.209	987.9
3491.101	952.9
3493.99	939.9
3496.878	874.9
3499.763	841.9
3502.646	822.9
3505.527	777.9
3508.405	748.9
3511.281	695.9
3514.155	659.9
3517.027	634.9
3519.897	591.9
3522.764	553.9
3525.629	484.9
3528.492	453.9
3531.352	414.9
3534.211	376.9
3537.067	335.9
3539.921	310.9
3542.773	267.9
3545.622	239.9
3548.469	203.9
3551.315	163.9
3554.157	148.9
3556.998	124.9
3559.837	97.9
3562.673	83.9
3565.507	48.9
3568.339	20.9
3571.169	5.9
3573.996	-8.1
3576.822	-34.1
3579.645	-48.1
3582.466	-65.1
3585.285	-93.1
3588.101	-110.1
3590.916	-139.1
3593.728	-162.1
3596.538	-164.1
3599.346	-189.1
3602.152	-217.1
3604.956	-223.1
3607.757	-234.1
3610.556	-250.1
3613.354	-266.1
3616.149	-283.1
3618.942	-294.1
3621.732	-300.1
3624.521	-313.1
3627.307	-318.1
3630.092	-330.1
3632.874	-347.1
3635.654	-356.1
3638.432	-366.1
3641.208	-371.1
3643.982	-390.1
3646.753	-390.1
3649.523	-395.1
3652.29	-407.1
3655.055	-412.1
3657.818	-426.1
3660.579	-439.1
3663.338	-451.1
3666.095	-460.1
3668.849	-474.1
3671.602	-475.1
3674.352	-482.1
3677.101	-492.1
3679.847	-504.1
3682.591	-510.1
3685.333	-513.1
3688.073	-515.1
3690.811	-522.1
3693.547	-531.1
3696.281	-530.1
3699.013	-533.1
3701.742	-539.1
3704.47	-551.1
3707.195	-552.1
3709.919	-552.1
3712.64	-558.1
3715.359	-558.1
3718.076	-567.1
3720.792	-569.1
3723.505	-568.1
3726.216	-584.1
3728.925	-581.1
3731.632	-587.1
3734.336	-589.1
3737.039	-590.1
3739.74	-592.1
3742.439	-597.1
3745.136	-593.1
3747.83	-601.1
3750.523	-598.1
3753.213	-609.1
3755.902	-603.1
3758.589	-601.1
3761.273	-606.1
3763.956	-608.1
3766.636	-611.1
3769.315	-615.1
3771.991	-617.1
3774.665	-615.1
3777.338	-618.1
3780.008	-626.1
3782.677	-620.1
3785.343	-614.1
3788.007	-624.1
3790.67	-623.1
3793.33	-626.1
3795.989	-624.1
3798.645	-632.1
3801.299	-620.1
3803.952	-634.1
3806.602	-637.1
3809.251	-638.1
3811.897	-630.1
3814.542	-632.1
3817.184	-637.1
3819.825	-636.1
3822.463	-631.1
3825.1	-639.1
3827.735	-634.1
3830.367	-638.1
3832.998	-643.1
3835.627	-646.1
3838.253	-641.1
3840.878	-652.1
3843.501	-644.1
3846.122	-640.1
3848.741	-642.1
3851.358	-646.1
3853.973	-642.1
3856.586	-642.1
3859.197	-652.1
3861.806	-651.1
3864.414	-643.1
3867.019	-643.1
3869.622	-645.1
3872.224	-644.1
3874.823	-620.1
3877.421	-613.1
3880.016	-589.1
3882.61	-560.1
3885.202	-556.1
3887.792	-574.1
3890.38	-610.1
3892.966	-633.1
3895.55	-648.1
3898.132	-665.1
3900.713	-660.1
3903.291	-656.1
3905.868	-661.1
3908.442	-663.1
3911.015	-663.1
3913.586	-656.1
3916.155	-653.1
3918.722	-663.1
3921.287	-657.1
3923.85	-663.1
3926.411	-659.1
3928.971	-666.1
3931.528	-666.1
3934.084	-663.1
3936.638	-662.1
3939.19	-663.1
3941.74	-660.1
3944.288	-671.1
3946.834	-659.1
3949.378	-667.1
3951.921	-664.1
3954.462	-667.1
3957	-661.1
3959.537	-662.1
3962.072	-663.1
3964.606	-668.1
3967.137	-661.1
3969.667	-665.1
3972.194	-657.1
3974.72	-661.1
3977.244	-653.1
3979.766	-656.1
3982.286	-657.1
3984.805	-646.1
3987.321	-649.1
3989.836	-651.1
3992.349	-644.1
3994.86	-645.1
3997.369	-659.1
3999.877	-643.1
4002.382	-646.1
4004.886	-648.1
4007.388	-644.1
4009.888	-645.1
4012.386	-649.1
4014.883	-648.1
4017.377	-646.1
4019.87	-648.1
4022.361	-648.1
4024.85	-651.1
4027.338	-651.1
4029.823	-649.1
4032.307	-649.1
4034.789	-644.1
4037.269	-642.1
4039.747	-652.1
4042.224	-651.1
4044.699	-647.1
4047.172	-649.1
4049.643	-644.1
4052.112	-658.1
4054.58	-656.1
4057.046	-657.1
4059.51	-658.1
4061.972	-651.1
4064.432	-655.1
4066.891	-651.1
4069.348	-653.1
4071.803	-647.1
4074.256	-648.1
4076.708	-646.1
4079.158	-649.1
4081.606	-652.1
4084.052	-652.1
4086.497	-647.1
4088.939	-645.1
4091.38	-650.1
4093.819	-647.1
4096.257	-683.1
4098.693	-681.1
4101.127	-687.1
4103.559	-682.1
4105.989	-388.1
4108.418	-372.1
4110.845	-354.1
4113.27	-318.1
4115.694	-277.1
4118.115	-231.1
4120.535	-648.1
4122.954	-649.1
4125.37	-636.1
4127.785	-648.1
4130.198	-654.1
4132.609	-656.1
4135.019	-689.1
4137.427	-684.1
4139.833	-689.1
4142.237	-685.1
