Data from 2018-2-14_conc=0_n=4_RamanShift_02.txt Node
Date: Wed Feb 14 10:36:26 IST 2018
User: aro
Spectrometer: QEPB0276
Trigger mode: 0
Integration Time (sec): 3.000000E1
Scans to average: 1
Electric dark correction enabled: true
Nonlinearity correction enabled: false
Boxcar width: 0
XAxis mode: Raman Shifts
Number of Pixels in Spectrum: 1044
>>>>>Begin Spectral Data<<<<<
160.701	-154.6
166.742	36.4
172.777	581.4
178.805	2237.4
184.826	6182.4
190.841	12887.4
196.849	20587.4
202.85	25959.4
208.845	27725.4
214.833	27371.4
220.815	26939.4
226.789	26756.4
232.758	26656.4
238.719	26499.4
244.674	26101.4
250.623	25629.4
256.565	25127.4
262.5	24577.4
268.429	24125.4
274.351	23816.4
280.267	23435.4
286.176	23244.4
292.079	23010.4
297.975	22743.4
303.865	22541.4
309.748	22411.4
315.625	22263.4
321.495	22152.4
327.359	22070.4
333.217	22023.4
339.068	21987.4
344.912	22027.4
350.751	21920.4
356.583	21893.4
362.408	21863.4
368.227	21886.4
374.04	21889.4
379.847	21930.4
385.647	21999.4
391.44	22164.4
397.228	22264.4
403.009	22283.4
408.784	22388.4
414.553	22441.4
420.315	22469.4
426.071	22484.4
431.821	22456.4
437.565	22478.4
443.302	22425.4
449.033	22396.4
454.758	22328.4
460.477	22254.4
466.189	22279.4
471.896	22217.4
477.596	22166.4
483.29	22116.4
488.978	22034.4
494.66	22012.4
500.335	21858.4
506.005	21642.4
511.668	21455.4
517.325	21249.4
522.977	21025.4
528.622	20835.4
534.261	20742.4
539.894	20683.4
545.521	20622.4
551.141	20506.4
556.756	20468.4
562.365	20442.4
567.968	20343.4
573.565	20250.4
579.155	20143.4
584.74	20010.4
590.319	20010.4
595.892	19939.4
601.459	19889.4
607.02	19778.4
612.575	19694.4
618.124	19568.4
623.667	19408.4
629.204	19321.4
634.735	19237.4
640.261	19149.4
645.781	19166.4
651.294	19117.4
656.802	19045.4
662.304	18922.4
667.8	19042.4
673.29	19029.4
678.775	18945.4
684.254	18889.4
689.726	18810.4
695.193	18763.4
700.655	18690.4
706.11	18591.4
711.56	18461.4
717.004	18344.4
722.442	18252.4
727.874	18262.4
733.301	18138.4
738.722	18167.4
744.137	18092.4
749.547	18112.4
754.951	18153.4
760.349	18137.4
765.741	18113.4
771.128	18129.4
776.509	18126.4
781.885	18131.4
787.254	18067.4
792.618	17941.4
797.977	17895.4
803.33	17810.4
808.677	17676.4
814.019	17599.4
819.355	17431.4
824.686	17418.4
830.011	17372.4
835.33	17376.4
840.644	17363.4
845.952	17435.4
851.255	17443.4
856.552	17486.4
861.844	17432.4
867.13	17435.4
872.41	17306.4
877.686	17275.4
882.955	17118.4
888.219	16995.4
893.478	16792.4
898.731	16611.4
903.979	16431.4
909.221	16301.4
914.458	16246.4
919.69	16267.4
924.916	16306.4
930.136	16354.4
935.351	16358.4
940.561	16398.4
945.766	16350.4
950.965	16283.4
956.158	16134.4
961.347	16000.4
966.529	15740.4
971.707	15564.4
976.879	15421.4
982.046	15310.4
987.208	15232.4
992.364	15203.4
997.515	15315.4
1002.66	15421.4
1007.801	15624.4
1012.936	15732.4
1018.066	15791.4
1023.19	15740.4
1028.309	15708.4
1033.423	15734.4
1038.532	15587.4
1043.636	15481.4
1048.734	15344.4
1053.827	15092.4
1058.915	14929.4
1063.998	14843.4
1069.075	14825.4
1074.147	14825.4
1079.214	14898.4
1084.276	15011.4
1089.333	15057.4
1094.385	15122.4
1099.431	15159.4
1104.472	15171.4
1109.509	15115.4
1114.54	14892.4
1119.565	14703.4
1124.586	14538.4
1129.602	14460.4
1134.613	14287.4
1139.618	14204.4
1144.619	14192.4
1149.614	14194.4
1154.604	14236.4
1159.589	14275.4
1164.57	14289.4
1169.545	14287.4
1174.515	14277.4
1179.48	14207.4
1184.44	14144.4
1189.395	14008.4
1194.345	13889.4
1199.29	13846.4
1204.23	13865.4
1209.165	13899.4
1214.095	13972.4
1219.021	13988.4
1223.941	14082.4
1228.856	14169.4
1233.766	14249.4
1238.672	14268.4
1243.572	14248.4
1248.467	14135.4
1253.358	13965.4
1258.244	13760.4
1263.124	13589.4
1268	13395.4
1272.871	13222.4
1277.737	13159.4
1282.599	13088.4
1287.455	13094.4
1292.306	13121.4
1297.153	13126.4
1301.995	13236.4
1306.832	13255.4
1311.664	13254.4
1316.491	13215.4
1321.314	13096.4
1326.132	12887.4
1330.945	12576.4
1335.753	12291.4
1340.556	11991.4
1345.354	11765.4
1350.148	11535.4
1354.937	11504.4
1359.722	11441.4
1364.501	11567.4
1369.276	11739.4
1374.046	11922.4
1378.811	12123.4
1383.572	12242.4
1388.327	12273.4
1393.079	12237.4
1397.825	12034.4
1402.567	11830.4
1407.304	11662.4
1412.036	11578.4
1416.764	11487.4
1421.487	11354.4
1426.205	11329.4
1430.919	11283.4
1435.628	11279.4
1440.333	11353.4
1445.032	11374.4
1449.727	11373.4
1454.418	11337.4
1459.104	11222.4
1463.785	10985.4
1468.462	10770.4
1473.134	10581.4
1477.802	10375.4
1482.465	10218.4
1487.123	10079.4
1491.777	10112.4
1496.426	10182.4
1501.071	10311.4
1505.711	10482.4
1510.347	10676.4
1514.978	10836.4
1519.604	11000.4
1524.226	11144.4
1528.844	11158.4
1533.457	11123.4
1538.065	11093.4
1542.669	10938.4
1547.269	10909.4
1551.864	10778.4
1556.454	10758.4
1561.041	10735.4
1565.622	10715.4
1570.199	10731.4
1574.772	10783.4
1579.34	10788.4
1583.904	10849.4
1588.464	10905.4
1593.019	10896.4
1597.569	10853.4
1602.115	10753.4
1606.657	10744.4
1611.195	10623.4
1615.728	10575.4
1620.256	10530.4
1624.78	10540.4
1629.3	10527.4
1633.816	10575.4
1638.327	10568.4
1642.834	10664.4
1647.336	10747.4
1651.834	10721.4
1656.328	10706.4
1660.817	10660.4
1665.302	10587.4
1669.783	10399.4
1674.259	10214.4
1678.732	9887.4
1683.199	9560.4
1687.663	9241.4
1692.122	8973.4
1696.577	8863.4
1701.028	8860.4
1705.474	8993.4
1709.917	9088.4
1714.355	9170.4
1718.788	9116.4
1723.218	8943.4
1727.643	8763.4
1732.064	8583.4
1736.481	8409.4
1740.893	8196.4
1745.301	7981.4
1749.705	7769.4
1754.105	7563.4
1758.501	7331.4
1762.893	7120.4
1767.28	6915.4
1771.663	6747.4
1776.042	6620.4
1780.417	6599.4
1784.787	6615.4
1789.154	6679.4
1793.516	6806.4
1797.874	7016.4
1802.228	7140.4
1806.578	7192.4
1810.924	7222.4
1815.266	7129.4
1819.603	7029.4
1823.937	6915.4
1828.266	6775.4
1832.591	6656.4
1836.913	6600.4
1841.23	6496.4
1845.543	6503.4
1849.852	6445.4
1854.156	6413.4
1858.457	6371.4
1862.754	6386.4
1867.047	6388.4
1871.335	6344.4
1875.62	6310.4
1879.9	6346.4
1884.177	6314.4
1888.449	6269.4
1892.718	6185.4
1896.982	6118.4
1901.243	6107.4
1905.499	6019.4
1909.752	5982.4
1914	5975.4
1918.245	6043.4
1922.485	6096.4
1926.722	6195.4
1930.954	6265.4
1935.183	6327.4
1939.408	6392.4
1943.628	6448.4
1947.845	6446.4
1952.058	6489.4
1956.267	6358.4
1960.472	6293.4
1964.673	6233.4
1968.87	6071.4
1973.063	5980.4
1977.252	5880.4
1981.438	5835.4
1985.619	5775.4
1989.797	5703.4
1993.971	5677.4
1998.14	5652.4
2002.306	5626.4
2006.469	5620.4
2010.627	5572.4
2014.781	5541.4
2018.932	5501.4
2023.078	5434.4
2027.221	5358.4
2031.36	5275.4
2035.495	5196.4
2039.627	5097.4
2043.754	5073.4
2047.878	5000.4
2051.998	4991.4
2056.114	4983.4
2060.226	4983.4
2064.334	4986.4
2068.439	4986.4
2072.54	4997.4
2076.637	5047.4
2080.73	5114.4
2084.82	5120.4
2088.906	5157.4
2092.988	5142.4
2097.066	5169.4
2101.14	5105.4
2105.211	5083.4
2109.278	5045.4
2113.342	5046.4
2117.401	5002.4
2121.457	4977.4
2125.509	4944.4
2129.558	4908.4
2133.602	4899.4
2137.643	4856.4
2141.681	4815.4
2145.714	4789.4
2149.744	4753.4
2153.77	4741.4
2157.793	4670.4
2161.812	4634.4
2165.827	4551.4
2169.838	4514.4
2173.846	4381.4
2177.851	4323.4
2181.851	4258.4
2185.848	4227.4
2189.841	4176.4
2193.831	4116.4
2197.817	4107.4
2201.799	4094.4
2205.778	4024.4
2209.753	4044.4
2213.725	4031.4
2217.693	4018.4
2221.657	3997.4
2225.618	4038.4
2229.575	3967.4
2233.529	3929.4
2237.479	3929.4
2241.425	3864.4
2245.368	3790.4
2249.307	3739.4
2253.243	3694.4
2257.175	3632.4
2261.104	3594.4
2265.029	3577.4
2268.95	3525.4
2272.868	3492.4
2276.783	3456.4
2280.694	3409.4
2284.601	3395.4
2288.505	3366.4
2292.405	3307.4
2296.302	3294.4
2300.195	3236.4
2304.085	3242.4
2307.971	3149.4
2311.854	3120.4
2315.734	3080.4
2319.609	3022.4
2323.482	2973.4
2327.351	2941.4
2331.216	2941.4
2335.078	2944.4
2338.937	2875.4
2342.792	2890.4
2346.643	2855.4
2350.492	2856.4
2354.336	2862.4
2358.178	2893.4
2362.015	2908.4
2365.85	2920.4
2369.681	2863.4
2373.508	2913.4
2377.333	2889.4
2381.153	2868.4
2384.971	2858.4
2388.785	2857.4
2392.595	2804.4
2396.402	2785.4
2400.206	2767.4
2404.007	2760.4
2407.804	2748.4
2411.597	2733.4
2415.388	2710.4
2419.174	2671.4
2422.958	2660.4
2426.738	2643.4
2430.515	2626.4
2434.289	2602.4
2438.059	2567.4
2441.825	2558.4
2445.589	2542.4
2449.349	2516.4
2453.106	2471.4
2456.859	2446.4
2460.61	2410.4
2464.356	2403.4
2468.1	2363.4
2471.84	2341.4
2475.577	2339.4
2479.311	2327.4
2483.041	2315.4
2486.768	2286.4
2490.492	2272.4
2494.213	2253.4
2497.93	2275.4
2501.644	2252.4
2505.355	2250.4
2509.062	2252.4
2512.766	2230.4
2516.467	2231.4
2520.165	2205.4
2523.859	2177.4
2527.551	2179.4
2531.239	2166.4
2534.923	2134.4
2538.605	2135.4
2542.283	2135.4
2545.958	2131.4
2549.63	2136.4
2553.299	2133.4
2556.964	2117.4
2560.626	2119.4
2564.285	2109.4
2567.941	2114.4
2571.594	2099.4
2575.243	2069.4
2578.89	2070.4
2582.533	2045.4
2586.173	2034.4
2589.809	2009.4
2593.443	1994.4
2597.073	1963.4
2600.701	1962.4
2604.325	1946.4
2607.946	1955.4
2611.564	1912.4
2615.178	1903.4
2618.79	1859.4
2622.398	1863.4
2626.004	1852.4
2629.606	1836.4
2633.205	1805.4
2636.801	1800.4
2640.394	1759.4
2643.983	1736.4
2647.57	1725.4
2651.153	1675.4
2654.734	1632.4
2658.311	1620.4
2661.885	1586.4
2665.456	1594.4
2669.025	1529.4
2672.589	1545.4
2676.151	1513.4
2679.71	1512.4
2683.266	1477.4
2686.819	1451.4
2690.368	1436.4
2693.915	1415.4
2697.458	1379.4
2700.999	1337.4
2704.536	1318.4
2708.071	1287.4
2711.602	1256.4
2715.13	1202.4
2718.656	1197.4
2722.178	1199.4
2725.697	1155.4
2729.214	1150.4
2732.727	1136.4
2736.237	1130.4
2739.744	1122.4
2743.249	1146.4
2746.75	1156.4
2750.248	1162.4
2753.743	1170.4
2757.236	1206.4
2760.725	1198.4
2764.211	1216.4
2767.695	1218.4
2771.175	1216.4
2774.652	1218.4
2778.127	1206.4
2781.598	1203.4
2785.067	1193.4
2788.532	1183.4
2791.995	1167.4
2795.455	1172.4
2798.911	1170.4
2802.365	1190.4
2805.816	1169.4
2809.264	1183.4
2812.709	1173.4
2816.151	1170.4
2819.59	1184.4
2823.026	1170.4
2826.46	1172.4
2829.89	1162.4
2833.318	1176.4
2836.742	1174.4
2840.164	1172.4
2843.583	1195.4
2846.999	1228.4
2850.412	1206.4
2853.822	1224.4
2857.229	1232.4
2860.634	1244.4
2864.035	1282.4
2867.434	1275.4
2870.83	1310.4
2874.223	1341.4
2877.613	1351.4
2881	1365.4
2884.385	1379.4
2887.766	1357.4
2891.145	1342.4
2894.521	1347.4
2897.894	1364.4
2901.264	1349.4
2904.631	1347.4
2907.996	1357.4
2911.358	1353.4
2914.717	1366.4
2918.073	1379.4
2921.426	1378.4
2924.777	1392.4
2928.124	1405.4
2931.469	1458.4
2934.811	1455.4
2938.15	1490.4
2941.487	1484.4
2944.821	1478.4
2948.152	1510.4
2951.48	1480.4
2954.805	1448.4
2958.128	1458.4
2961.447	1433.4
2964.765	1435.4
2968.079	1449.4
2971.39	1444.4
2974.699	1461.4
2978.005	1481.4
2981.308	1506.4
2984.609	1536.4
2987.907	1559.4
2991.202	1599.4
2994.494	1650.4
2997.784	1674.4
3001.07	1678.4
3004.355	1717.4
3007.636	1759.4
3010.915	1763.4
3014.191	1747.4
3017.464	1789.4
3020.734	1798.4
3024.002	1788.4
3027.267	1814.4
3030.53	1810.4
3033.789	1843.4
3037.046	1862.4
3040.301	1882.4
3043.552	1927.4
3046.801	1964.4
3050.048	2002.4
3053.291	2056.4
3056.532	2102.4
3059.771	2139.4
3063.006	2222.4
3066.239	2289.4
3069.469	2362.4
3072.697	2390.4
3075.922	2463.4
3079.144	2513.4
3082.364	2588.4
3085.581	2647.4
3088.795	2704.4
3092.007	2755.4
3095.216	2813.4
3098.423	2866.4
3101.627	2928.4
3104.828	2982.4
3108.026	3070.4
3111.222	3130.4
3114.416	3193.4
3117.607	3289.4
3120.795	3355.4
3123.98	3424.4
3127.163	3501.4
3130.344	3590.4
3133.521	3671.4
3136.696	3767.4
3139.869	3827.4
3143.039	3881.4
3146.206	3928.4
3149.371	3966.4
3152.533	4008.4
3155.693	4025.4
3158.85	4068.4
3162.005	4065.4
3165.157	4099.4
3168.306	4104.4
3171.453	4118.4
3174.597	4125.4
3177.739	4131.4
3180.878	4125.4
3184.014	4129.4
3187.149	4134.4
3190.28	4154.4
3193.409	4147.4
3196.536	4138.4
3199.659	4133.4
3202.781	4158.4
3205.9	4111.4
3209.016	4124.4
3212.13	4101.4
3215.241	4096.4
3218.35	4039.4
3221.456	4017.4
3224.56	3975.4
3227.661	3953.4
3230.76	3883.4
3233.856	3848.4
3236.95	3818.4
3240.041	3751.4
3243.13	3742.4
3246.216	3732.4
3249.3	3723.4
3252.382	3693.4
3255.46	3692.4
3258.537	3678.4
3261.611	3674.4
3264.682	3672.4
3267.751	3643.4
3270.818	3668.4
3273.882	3633.4
3276.943	3627.4
3280.002	3605.4
3283.059	3579.4
3286.113	3518.4
3289.165	3490.4
3292.214	3403.4
3295.261	3346.4
3298.306	3298.4
3301.348	3266.4
3304.387	3205.4
3307.425	3161.4
3310.459	3082.4
3313.492	3051.4
3316.521	3010.4
3319.549	2993.4
3322.574	2934.4
3325.597	2933.4
3328.617	2920.4
3331.635	2868.4
3334.65	2864.4
3337.663	2847.4
3340.674	2813.4
3343.682	2826.4
3346.688	2833.4
3349.691	2796.4
3352.692	2798.4
3355.691	2764.4
3358.687	2746.4
3361.681	2701.4
3364.673	2680.4
3367.662	2632.4
3370.649	2607.4
3373.633	2559.4
3376.615	2520.4
3379.595	2480.4
3382.572	2446.4
3385.547	2429.4
3388.52	2382.4
3391.49	2345.4
3394.458	2301.4
3397.424	2293.4
3400.387	2256.4
3403.348	2241.4
3406.307	2198.4
3409.263	2164.4
3412.217	2140.4
3415.168	2119.4
3418.118	2093.4
3421.065	2072.4
3424.009	2030.4
3426.951	1994.4
3429.891	1994.4
3432.829	1933.4
3435.764	1885.4
3438.697	1819.4
3441.628	1783.4
3444.557	1733.4
3447.483	1701.4
3450.407	1634.4
3453.328	1582.4
3456.247	1528.4
3459.164	1464.4
3462.079	1412.4
3464.991	1360.4
3467.902	1302.4
3470.809	1263.4
3473.715	1217.4
3476.618	1189.4
3479.519	1139.4
3482.418	1091.4
3485.315	1074.4
3488.209	1028.4
3491.101	996.4
3493.99	965.4
3496.878	914.4
3499.763	892.4
3502.646	855.4
3505.527	807.4
3508.405	766.4
3511.281	724.4
3514.155	688.4
3517.027	644.4
3519.897	605.4
3522.764	564.4
3525.629	527.4
3528.492	490.4
3531.352	446.4
3534.211	397.4
3537.067	368.4
3539.921	324.4
3542.773	275.4
3545.622	261.4
3548.469	228.4
3551.315	201.4
3554.157	173.4
3556.998	150.4
3559.837	130.4
3562.673	89.4
3565.507	69.4
3568.339	48.4
3571.169	22.4
3573.996	-0.6
3576.822	0.4
3579.645	-33.6
3582.466	-59.6
3585.285	-70.6
3588.101	-105.6
3590.916	-108.6
3593.728	-136.6
3596.538	-150.6
3599.346	-173.6
3602.152	-196.6
3604.956	-202.6
3607.757	-218.6
3610.556	-233.6
3613.354	-248.6
3616.149	-270.6
3618.942	-274.6
3621.732	-288.6
3624.521	-305.6
3627.307	-312.6
3630.092	-323.6
3632.874	-331.6
3635.654	-339.6
3638.432	-349.6
3641.208	-354.6
3643.982	-374.6
3646.753	-370.6
3649.523	-392.6
3652.29	-391.6
3655.055	-399.6
3657.818	-409.6
3660.579	-425.6
3663.338	-445.6
3666.095	-448.6
3668.849	-454.6
3671.602	-464.6
3674.352	-473.6
3677.101	-473.6
3679.847	-483.6
3682.591	-490.6
3685.333	-500.6
3688.073	-501.6
3690.811	-505.6
3693.547	-511.6
3696.281	-520.6
3699.013	-517.6
3701.742	-525.6
3704.47	-531.6
3707.195	-538.6
3709.919	-539.6
3712.64	-544.6
3715.359	-547.6
3718.076	-557.6
3720.792	-559.6
3723.505	-557.6
3726.216	-567.6
3728.925	-563.6
3731.632	-573.6
3734.336	-569.6
3737.039	-573.6
3739.74	-576.6
3742.439	-578.6
3745.136	-577.6
3747.83	-582.6
3750.523	-582.6
3753.213	-572.6
3755.902	-589.6
3758.589	-593.6
3761.273	-593.6
3763.956	-599.6
3766.636	-601.6
3769.315	-604.6
3771.991	-605.6
3774.665	-609.6
3777.338	-607.6
3780.008	-608.6
3782.677	-606.6
3785.343	-602.6
3788.007	-604.6
3790.67	-605.6
3793.33	-614.6
3795.989	-616.6
3798.645	-610.6
3801.299	-612.6
3803.952	-628.6
3806.602	-628.6
3809.251	-630.6
3811.897	-623.6
3814.542	-625.6
3817.184	-616.6
3819.825	-622.6
3822.463	-615.6
3825.1	-627.6
3827.735	-621.6
3830.367	-623.6
3832.998	-629.6
3835.627	-635.6
3838.253	-629.6
3840.878	-640.6
3843.501	-634.6
3846.122	-628.6
3848.741	-633.6
3851.358	-632.6
3853.973	-630.6
3856.586	-631.6
3859.197	-633.6
3861.806	-634.6
3864.414	-635.6
3867.019	-632.6
3869.622	-633.6
3872.224	-631.6
3874.823	-618.6
3877.421	-599.6
3880.016	-593.6
3882.61	-574.6
3885.202	-567.6
3887.792	-585.6
3890.38	-611.6
3892.966	-623.6
3895.55	-633.6
3898.132	-646.6
3900.713	-645.6
3903.291	-643.6
3905.868	-647.6
3908.442	-643.6
3911.015	-645.6
3913.586	-640.6
3916.155	-647.6
3918.722	-653.6
3921.287	-650.6
3923.85	-652.6
3926.411	-653.6
3928.971	-656.6
3931.528	-655.6
3934.084	-646.6
3936.638	-649.6
3939.19	-648.6
3941.74	-648.6
3944.288	-649.6
3946.834	-649.6
3949.378	-652.6
3951.921	-654.6
3954.462	-657.6
3957	-650.6
3959.537	-651.6
3962.072	-647.6
3964.606	-656.6
3967.137	-651.6
3969.667	-654.6
3972.194	-645.6
3974.72	-648.6
3977.244	-638.6
3979.766	-641.6
3982.286	-642.6
3984.805	-639.6
3987.321	-639.6
3989.836	-645.6
3992.349	-633.6
3994.86	-640.6
3997.369	-646.6
3999.877	-638.6
4002.382	-635.6
4004.886	-636.6
4007.388	-632.6
4009.888	-630.6
4012.386	-643.6
4014.883	-635.6
4017.377	-635.6
4019.87	-636.6
4022.361	-636.6
4024.85	-640.6
4027.338	-643.6
4029.823	-641.6
4032.307	-645.6
4034.789	-636.6
4037.269	-635.6
4039.747	-640.6
4042.224	-639.6
4044.699	-635.6
4047.172	-637.6
4049.643	-640.6
4052.112	-648.6
4054.58	-647.6
4057.046	-643.6
4059.51	-646.6
4061.972	-645.6
4064.432	-643.6
4066.891	-642.6
4069.348	-640.6
4071.803	-639.6
4074.256	-639.6
4076.708	-640.6
4079.158	-638.6
4081.606	-636.6
4084.052	-648.6
4086.497	-636.6
4088.939	-636.6
4091.38	-637.6
4093.819	-640.6
4096.257	-675.6
4098.693	-677.6
4101.127	-674.6
4103.559	-674.6
4105.989	-387.6
4108.418	-369.6
4110.845	-338.6
4113.27	-322.6
4115.694	-284.6
4118.115	-238.6
4120.535	-640.6
4122.954	-639.6
4125.37	-637.6
4127.785	-641.6
4130.198	-646.6
4132.609	-647.6
4135.019	-674.6
4137.427	-677.6
4139.833	-675.6
4142.237	-672.6
