Data from 2018-2-14_conc=3_n=4_RamanShift_01.txt Node
Date: Wed Feb 14 11:51:56 IST 2018
User: aro
Spectrometer: QEPB0276
Trigger mode: 0
Integration Time (sec): 3.000000E1
Scans to average: 1
Electric dark correction enabled: true
Nonlinearity correction enabled: false
Boxcar width: 0
XAxis mode: Raman Shifts
Number of Pixels in Spectrum: 1044
>>>>>Begin Spectral Data<<<<<
160.701	-138.6
166.742	53.4
172.777	583.4
178.805	2276.4
184.826	6302.4
190.841	13291.4
196.849	21320.4
202.85	27089.4
208.845	28995.4
214.833	28670.4
220.815	28120.4
226.789	27860.4
232.758	27723.4
238.719	27593.4
244.674	27155.4
250.623	26693.4
256.565	25999.4
262.5	25477.4
268.429	24996.4
274.351	24564.4
280.267	24235.4
286.176	23967.4
292.079	23670.4
297.975	23454.4
303.865	23226.4
309.748	23138.4
315.625	22878.4
321.495	22771.4
327.359	22698.4
333.217	22603.4
339.068	22607.4
344.912	22562.4
350.751	22572.4
356.583	22494.4
362.408	22500.4
368.227	22454.4
374.04	22489.4
379.847	22628.4
385.647	22663.4
391.44	22733.4
397.228	22855.4
403.009	22869.4
408.784	22943.4
414.553	23045.4
420.315	23116.4
426.071	23157.4
431.821	23160.4
437.565	23122.4
443.302	23104.4
449.033	23020.4
454.758	22958.4
460.477	22989.4
466.189	22890.4
471.896	22787.4
477.596	22727.4
483.29	22701.4
488.978	22643.4
494.66	22581.4
500.335	22412.4
506.005	22230.4
511.668	21911.4
517.325	21679.4
522.977	21469.4
528.622	21259.4
534.261	21215.4
539.894	21029.4
545.521	20991.4
551.141	20947.4
556.756	20809.4
562.365	20754.4
567.968	20640.4
573.565	20640.4
579.155	20501.4
584.74	20400.4
590.319	20333.4
595.892	20211.4
601.459	20241.4
607.02	20050.4
612.575	19973.4
618.124	19905.4
623.667	19800.4
629.204	19640.4
634.735	19564.4
640.261	19453.4
645.781	19428.4
651.294	19363.4
656.802	19353.4
662.304	19305.4
667.8	19281.4
673.29	19178.4
678.775	19210.4
684.254	19128.4
689.726	19094.4
695.193	18972.4
700.655	18847.4
706.11	18823.4
711.56	18710.4
717.004	18647.4
722.442	18526.4
727.874	18488.4
733.301	18382.4
738.722	18404.4
744.137	18325.4
749.547	18356.4
754.951	18294.4
760.349	18296.4
765.741	18322.4
771.128	18379.4
776.509	18314.4
781.885	18305.4
787.254	18276.4
792.618	18200.4
797.977	18098.4
803.33	17995.4
808.677	17885.4
814.019	17793.4
819.355	17661.4
824.686	17602.4
830.011	17565.4
835.33	17550.4
840.644	17576.4
845.952	17635.4
851.255	17657.4
856.552	17669.4
861.844	17607.4
867.13	17570.4
872.41	17529.4
877.686	17403.4
882.955	17295.4
888.219	17132.4
893.478	16949.4
898.731	16748.4
903.979	16485.4
909.221	16431.4
914.458	16328.4
919.69	16368.4
924.916	16394.4
930.136	16470.4
935.351	16457.4
940.561	16515.4
945.766	16467.4
950.965	16340.4
956.158	16222.4
961.347	16121.4
966.529	15903.4
971.707	15745.4
976.879	15526.4
982.046	15376.4
987.208	15372.4
992.364	15332.4
997.515	15412.4
1002.66	15555.4
1007.801	15727.4
1012.936	15823.4
1018.066	15861.4
1023.19	15825.4
1028.309	15838.4
1033.423	15786.4
1038.532	15708.4
1043.636	15532.4
1048.734	15480.4
1053.827	15254.4
1058.915	15063.4
1063.998	14935.4
1069.075	14864.4
1074.147	14935.4
1079.214	14925.4
1084.276	15065.4
1089.333	15139.4
1094.385	15166.4
1099.431	15304.4
1104.472	15240.4
1109.509	15143.4
1114.54	14967.4
1119.565	14780.4
1124.586	14578.4
1129.602	14459.4
1134.613	14382.4
1139.618	14252.4
1144.619	14250.4
1149.614	14230.4
1154.604	14271.4
1159.589	14284.4
1164.57	14311.4
1169.545	14344.4
1174.515	14363.4
1179.48	14268.4
1184.44	14226.4
1189.395	14034.4
1194.345	13989.4
1199.29	13899.4
1204.23	13910.4
1209.165	13932.4
1214.095	14038.4
1219.021	14080.4
1223.941	14167.4
1228.856	14228.4
1233.766	14242.4
1238.672	14293.4
1243.572	14265.4
1248.467	14191.4
1253.358	13989.4
1258.244	13823.4
1263.124	13643.4
1268	13386.4
1272.871	13272.4
1277.737	13188.4
1282.599	13109.4
1287.455	13096.4
1292.306	13142.4
1297.153	13109.4
1301.995	13273.4
1306.832	13273.4
1311.664	13334.4
1316.491	13267.4
1321.314	13160.4
1326.132	12996.4
1330.945	12651.4
1335.753	12360.4
1340.556	12019.4
1345.354	11724.4
1350.148	11532.4
1354.937	11403.4
1359.722	11394.4
1364.501	11465.4
1369.276	11604.4
1374.046	11773.4
1378.811	11993.4
1383.572	12190.4
1388.327	12238.4
1393.079	12133.4
1397.825	12041.4
1402.567	11829.4
1407.304	11647.4
1412.036	11584.4
1416.764	11431.4
1421.487	11395.4
1426.205	11357.4
1430.919	11281.4
1435.628	11267.4
1440.333	11341.4
1445.032	11344.4
1449.727	11344.4
1454.418	11314.4
1459.104	11211.4
1463.785	10989.4
1468.462	10737.4
1473.134	10485.4
1477.802	10302.4
1482.465	10104.4
1487.123	10012.4
1491.777	9921.4
1496.426	9990.4
1501.071	10098.4
1505.711	10249.4
1510.347	10455.4
1514.978	10659.4
1519.604	10857.4
1524.226	10941.4
1528.844	10995.4
1533.457	10974.4
1538.065	10906.4
1542.669	10842.4
1547.269	10745.4
1551.864	10735.4
1556.454	10648.4
1561.041	10701.4
1565.622	10679.4
1570.199	10686.4
1574.772	10717.4
1579.34	10798.4
1583.904	10854.4
1588.464	10887.4
1593.019	10849.4
1597.569	10826.4
1602.115	10763.4
1606.657	10693.4
1611.195	10677.4
1615.728	10565.4
1620.256	10580.4
1624.78	10546.4
1629.3	10566.4
1633.816	10582.4
1638.327	10680.4
1642.834	10673.4
1647.336	10717.4
1651.834	10780.4
1656.328	10707.4
1660.817	10664.4
1665.302	10583.4
1669.783	10383.4
1674.259	10141.4
1678.732	9909.4
1683.199	9525.4
1687.663	9182.4
1692.122	8883.4
1696.577	8718.4
1701.028	8733.4
1705.474	8798.4
1709.917	8887.4
1714.355	8983.4
1718.788	8919.4
1723.218	8743.4
1727.643	8614.4
1732.064	8417.4
1736.481	8268.4
1740.893	8060.4
1745.301	7811.4
1749.705	7628.4
1754.105	7401.4
1758.501	7160.4
1762.893	7010.4
1767.28	6809.4
1771.663	6665.4
1776.042	6575.4
1780.417	6472.4
1784.787	6438.4
1789.154	6517.4
1793.516	6619.4
1797.874	6784.4
1802.228	6893.4
1806.578	6971.4
1810.924	6985.4
1815.266	6935.4
1819.603	6819.4
1823.937	6744.4
1828.266	6621.4
1832.591	6504.4
1836.913	6441.4
1841.23	6306.4
1845.543	6260.4
1849.852	6270.4
1854.156	6218.4
1858.457	6202.4
1862.754	6216.4
1867.047	6218.4
1871.335	6175.4
1875.62	6180.4
1879.9	6181.4
1884.177	6126.4
1888.449	6083.4
1892.718	6019.4
1896.982	5957.4
1901.243	5904.4
1905.499	5815.4
1909.752	5817.4
1914	5831.4
1918.245	5833.4
1922.485	5887.4
1926.722	5929.4
1930.954	6013.4
1935.183	6101.4
1939.408	6170.4
1943.628	6215.4
1947.845	6219.4
1952.058	6188.4
1956.267	6148.4
1960.472	6082.4
1964.673	6015.4
1968.87	5877.4
1973.063	5832.4
1977.252	5781.4
1981.438	5677.4
1985.619	5637.4
1989.797	5576.4
1993.971	5529.4
1998.14	5514.4
2002.306	5485.4
2006.469	5494.4
2010.627	5443.4
2014.781	5443.4
2018.932	5388.4
2023.078	5324.4
2027.221	5251.4
2031.36	5159.4
2035.495	5085.4
2039.627	5039.4
2043.754	4952.4
2047.878	4958.4
2051.998	4873.4
2056.114	4901.4
2060.226	4864.4
2064.334	4841.4
2068.439	4890.4
2072.54	4928.4
2076.637	4916.4
2080.73	4937.4
2084.82	5013.4
2088.906	5011.4
2092.988	5000.4
2097.066	5017.4
2101.14	4988.4
2105.211	4946.4
2109.278	4910.4
2113.342	4869.4
2117.401	4839.4
2121.457	4814.4
2125.509	4816.4
2129.558	4822.4
2133.602	4766.4
2137.643	4732.4
2141.681	4703.4
2145.714	4717.4
2149.744	4665.4
2153.77	4629.4
2157.793	4583.4
2161.812	4483.4
2165.827	4440.4
2169.838	4379.4
2173.846	4324.4
2177.851	4252.4
2181.851	4187.4
2185.848	4129.4
2189.841	4108.4
2193.831	4050.4
2197.817	4017.4
2201.799	3997.4
2205.778	4007.4
2209.753	3963.4
2213.725	3941.4
2217.693	3964.4
2221.657	3932.4
2225.618	3954.4
2229.575	3935.4
2233.529	3868.4
2237.479	3837.4
2241.425	3801.4
2245.368	3753.4
2249.307	3700.4
2253.243	3632.4
2257.175	3600.4
2261.104	3540.4
2265.029	3494.4
2268.95	3482.4
2272.868	3444.4
2276.783	3405.4
2280.694	3362.4
2284.601	3331.4
2288.505	3283.4
2292.405	3245.4
2296.302	3230.4
2300.195	3206.4
2304.085	3182.4
2307.971	3131.4
2311.854	3076.4
2315.734	3044.4
2319.609	3005.4
2323.482	2958.4
2327.351	2923.4
2331.216	2913.4
2335.078	2897.4
2338.937	2873.4
2342.792	2825.4
2346.643	2838.4
2350.492	2852.4
2354.336	2840.4
2358.178	2842.4
2362.015	2875.4
2365.85	2867.4
2369.681	2860.4
2373.508	2861.4
2377.333	2861.4
2381.153	2837.4
2384.971	2835.4
2388.785	2825.4
2392.595	2783.4
2396.402	2774.4
2400.206	2751.4
2404.007	2724.4
2407.804	2685.4
2411.597	2684.4
2415.388	2660.4
2419.174	2657.4
2422.958	2620.4
2426.738	2604.4
2430.515	2577.4
2434.289	2578.4
2438.059	2534.4
2441.825	2534.4
2445.589	2495.4
2449.349	2457.4
2453.106	2467.4
2456.859	2382.4
2460.61	2354.4
2464.356	2339.4
2468.1	2338.4
2471.84	2284.4
2475.577	2279.4
2479.311	2258.4
2483.041	2268.4
2486.768	2252.4
2490.492	2268.4
2494.213	2250.4
2497.93	2214.4
2501.644	2232.4
2505.355	2205.4
2509.062	2188.4
2512.766	2180.4
2516.467	2157.4
2520.165	2152.4
2523.859	2124.4
2527.551	2112.4
2531.239	2117.4
2534.923	2098.4
2538.605	2081.4
2542.283	2095.4
2545.958	2057.4
2549.63	2065.4
2553.299	2072.4
2556.964	2046.4
2560.626	2047.4
2564.285	2018.4
2567.941	2024.4
2571.594	2024.4
2575.243	2019.4
2578.89	2021.4
2582.533	1973.4
2586.173	1966.4
2589.809	1981.4
2593.443	1942.4
2597.073	1923.4
2600.701	1914.4
2604.325	1901.4
2607.946	1872.4
2611.564	1871.4
2615.178	1865.4
2618.79	1866.4
2622.398	1816.4
2626.004	1803.4
2629.606	1793.4
2633.205	1759.4
2636.801	1732.4
2640.394	1729.4
2643.983	1681.4
2647.57	1686.4
2651.153	1655.4
2654.734	1616.4
2658.311	1599.4
2661.885	1562.4
2665.456	1563.4
2669.025	1533.4
2672.589	1522.4
2676.151	1514.4
2679.71	1494.4
2683.266	1451.4
2686.819	1436.4
2690.368	1414.4
2693.915	1378.4
2697.458	1353.4
2700.999	1315.4
2704.536	1303.4
2708.071	1273.4
2711.602	1238.4
2715.13	1207.4
2718.656	1201.4
2722.178	1162.4
2725.697	1161.4
2729.214	1135.4
2732.727	1124.4
2736.237	1115.4
2739.744	1090.4
2743.249	1141.4
2746.75	1122.4
2750.248	1125.4
2753.743	1157.4
2757.236	1174.4
2760.725	1169.4
2764.211	1194.4
2767.695	1182.4
2771.175	1184.4
2774.652	1174.4
2778.127	1161.4
2781.598	1177.4
2785.067	1152.4
2788.532	1145.4
2791.995	1131.4
2795.455	1147.4
2798.911	1148.4
2802.365	1157.4
2805.816	1149.4
2809.264	1159.4
2812.709	1147.4
2816.151	1150.4
2819.59	1159.4
2823.026	1139.4
2826.46	1137.4
2829.89	1151.4
2833.318	1162.4
2836.742	1162.4
2840.164	1165.4
2843.583	1198.4
2846.999	1191.4
2850.412	1184.4
2853.822	1208.4
2857.229	1230.4
2860.634	1259.4
2864.035	1259.4
2867.434	1301.4
2870.83	1314.4
2874.223	1341.4
2877.613	1374.4
2881	1383.4
2884.385	1389.4
2887.766	1408.4
2891.145	1389.4
2894.521	1390.4
2897.894	1391.4
2901.264	1386.4
2904.631	1389.4
2907.996	1382.4
2911.358	1395.4
2914.717	1408.4
2918.073	1398.4
2921.426	1436.4
2924.777	1440.4
2928.124	1446.4
2931.469	1488.4
2934.811	1538.4
2938.15	1507.4
2941.487	1533.4
2944.821	1558.4
2948.152	1553.4
2951.48	1568.4
2954.805	1527.4
2958.128	1530.4
2961.447	1487.4
2964.765	1494.4
2968.079	1503.4
2971.39	1525.4
2974.699	1549.4
2978.005	1556.4
2981.308	1593.4
2984.609	1626.4
2987.907	1642.4
2991.202	1651.4
2994.494	1690.4
2997.784	1770.4
3001.07	1769.4
3004.355	1789.4
3007.636	1842.4
3010.915	1860.4
3014.191	1861.4
3017.464	1872.4
3020.734	1886.4
3024.002	1904.4
3027.267	1909.4
3030.53	1927.4
3033.789	1971.4
3037.046	1963.4
3040.301	2013.4
3043.552	2039.4
3046.801	2088.4
3050.048	2133.4
3053.291	2186.4
3056.532	2255.4
3059.771	2275.4
3063.006	2381.4
3066.239	2432.4
3069.469	2532.4
3072.697	2570.4
3075.922	2629.4
3079.144	2681.4
3082.364	2783.4
3085.581	2804.4
3088.795	2872.4
3092.007	2936.4
3095.216	2985.4
3098.423	3054.4
3101.627	3159.4
3104.828	3178.4
3108.026	3247.4
3111.222	3338.4
3114.416	3417.4
3117.607	3478.4
3120.795	3580.4
3123.98	3630.4
3127.163	3753.4
3130.344	3830.4
3133.521	3912.4
3136.696	4012.4
3139.869	4075.4
3143.039	4154.4
3146.206	4208.4
3149.371	4251.4
3152.533	4277.4
3155.693	4341.4
3158.85	4366.4
3162.005	4360.4
3165.157	4389.4
3168.306	4381.4
3171.453	4394.4
3174.597	4414.4
3177.739	4415.4
3180.878	4438.4
3184.014	4439.4
3187.149	4449.4
3190.28	4450.4
3193.409	4425.4
3196.536	4433.4
3199.659	4475.4
3202.781	4478.4
3205.9	4478.4
3209.016	4445.4
3212.13	4434.4
3215.241	4419.4
3218.35	4383.4
3221.456	4344.4
3224.56	4307.4
3227.661	4230.4
3230.76	4197.4
3233.856	4154.4
3236.95	4128.4
3240.041	4104.4
3243.13	4091.4
3246.216	4033.4
3249.3	4014.4
3252.382	3995.4
3255.46	3980.4
3258.537	3952.4
3261.611	3966.4
3264.682	3986.4
3267.751	3967.4
3270.818	3944.4
3273.882	3940.4
3276.943	3920.4
3280.002	3873.4
3283.059	3855.4
3286.113	3804.4
3289.165	3751.4
3292.214	3696.4
3295.261	3664.4
3298.306	3582.4
3301.348	3544.4
3304.387	3451.4
3307.425	3436.4
3310.459	3348.4
3313.492	3308.4
3316.521	3255.4
3319.549	3238.4
3322.574	3177.4
3325.597	3167.4
3328.617	3147.4
3331.635	3103.4
3334.65	3117.4
3337.663	3096.4
3340.674	3057.4
3343.682	3035.4
3346.688	3034.4
3349.691	3025.4
3352.692	3011.4
3355.691	3016.4
3358.687	2947.4
3361.681	2941.4
3364.673	2889.4
3367.662	2847.4
3370.649	2817.4
3373.633	2770.4
3376.615	2716.4
3379.595	2680.4
3382.572	2655.4
3385.547	2584.4
3388.52	2568.4
3391.49	2535.4
3394.458	2525.4
3397.424	2456.4
3400.387	2431.4
3403.348	2409.4
3406.307	2370.4
3409.263	2359.4
3412.217	2329.4
3415.168	2294.4
3418.118	2272.4
3421.065	2234.4
3424.009	2217.4
3426.951	2167.4
3429.891	2128.4
3432.829	2087.4
3435.764	2050.4
3438.697	1978.4
3441.628	1916.4
3444.557	1875.4
3447.483	1822.4
3450.407	1766.4
3453.328	1697.4
3456.247	1670.4
3459.164	1586.4
3462.079	1553.4
3464.991	1506.4
3467.902	1455.4
3470.809	1379.4
3473.715	1332.4
3476.618	1300.4
3479.519	1255.4
3482.418	1219.4
3485.315	1181.4
3488.209	1130.4
3491.101	1085.4
3493.99	1042.4
3496.878	994.4
3499.763	969.4
3502.646	914.4
3505.527	881.4
3508.405	848.4
3511.281	802.4
3514.155	759.4
3517.027	736.4
3519.897	684.4
3522.764	639.4
3525.629	592.4
3528.492	526.4
3531.352	507.4
3534.211	458.4
3537.067	417.4
3539.921	387.4
3542.773	333.4
3545.622	296.4
3548.469	281.4
3551.315	247.4
3554.157	213.4
3556.998	176.4
3559.837	158.4
3562.673	131.4
3565.507	102.4
3568.339	69.4
3571.169	57.4
3573.996	44.4
3576.822	15.4
3579.645	-15.6
3582.466	-26.6
3585.285	-54.6
3588.101	-73.6
3590.916	-101.6
3593.728	-124.6
3596.538	-129.6
3599.346	-155.6
3602.152	-171.6
3604.956	-190.6
3607.757	-199.6
3610.556	-223.6
3613.354	-242.6
3616.149	-255.6
3618.942	-272.6
3621.732	-277.6
3624.521	-304.6
3627.307	-314.6
3630.092	-319.6
3632.874	-333.6
3635.654	-334.6
3638.432	-343.6
3641.208	-355.6
3643.982	-377.6
3646.753	-374.6
3649.523	-381.6
3652.29	-397.6
3655.055	-400.6
3657.818	-418.6
3660.579	-429.6
3663.338	-450.6
3666.095	-443.6
3668.849	-453.6
3671.602	-463.6
3674.352	-478.6
3677.101	-489.6
3679.847	-499.6
3682.591	-501.6
3685.333	-507.6
3688.073	-509.6
3690.811	-522.6
3693.547	-518.6
3696.281	-526.6
3699.013	-534.6
3701.742	-537.6
3704.47	-538.6
3707.195	-556.6
3709.919	-552.6
3712.64	-560.6
3715.359	-562.6
3718.076	-562.6
3720.792	-567.6
3723.505	-567.6
3726.216	-579.6
3728.925	-570.6
3731.632	-581.6
3734.336	-587.6
3737.039	-590.6
3739.74	-593.6
3742.439	-592.6
3745.136	-599.6
3747.83	-598.6
3750.523	-601.6
3753.213	-592.6
3755.902	-606.6
3758.589	-604.6
3761.273	-608.6
3763.956	-613.6
3766.636	-608.6
3769.315	-616.6
3771.991	-614.6
3774.665	-618.6
3777.338	-616.6
3780.008	-618.6
3782.677	-624.6
3785.343	-618.6
3788.007	-624.6
3790.67	-621.6
3793.33	-628.6
3795.989	-628.6
3798.645	-623.6
3801.299	-625.6
3803.952	-637.6
3806.602	-640.6
3809.251	-643.6
3811.897	-640.6
3814.542	-642.6
3817.184	-636.6
3819.825	-633.6
3822.463	-636.6
3825.1	-638.6
3827.735	-635.6
3830.367	-636.6
3832.998	-642.6
3835.627	-648.6
3838.253	-649.6
3840.878	-653.6
3843.501	-649.6
3846.122	-640.6
3848.741	-647.6
3851.358	-648.6
3853.973	-651.6
3856.586	-655.6
3859.197	-652.6
3861.806	-656.6
3864.414	-647.6
3867.019	-642.6
3869.622	-648.6
3872.224	-644.6
3874.823	-630.6
3877.421	-613.6
3880.016	-593.6
3882.61	-581.6
3885.202	-585.6
3887.792	-589.6
3890.38	-619.6
3892.966	-642.6
3895.55	-651.6
3898.132	-663.6
3900.713	-661.6
3903.291	-661.6
3905.868	-666.6
3908.442	-663.6
3911.015	-664.6
3913.586	-659.6
3916.155	-660.6
3918.722	-664.6
3921.287	-664.6
3923.85	-665.6
3926.411	-666.6
3928.971	-675.6
3931.528	-667.6
3934.084	-671.6
3936.638	-667.6
3939.19	-670.6
3941.74	-670.6
3944.288	-669.6
3946.834	-663.6
3949.378	-667.6
3951.921	-669.6
3954.462	-676.6
3957	-664.6
3959.537	-668.6
3962.072	-663.6
3964.606	-665.6
3967.137	-666.6
3969.667	-669.6
3972.194	-663.6
3974.72	-664.6
3977.244	-661.6
3979.766	-650.6
3982.286	-662.6
3984.805	-653.6
3987.321	-656.6
3989.836	-657.6
3992.349	-649.6
3994.86	-650.6
3997.369	-658.6
3999.877	-650.6
4002.382	-651.6
4004.886	-654.6
4007.388	-647.6
4009.888	-650.6
4012.386	-653.6
4014.883	-653.6
4017.377	-654.6
4019.87	-649.6
4022.361	-656.6
4024.85	-658.6
4027.338	-659.6
4029.823	-654.6
4032.307	-659.6
4034.789	-649.6
4037.269	-654.6
4039.747	-658.6
4042.224	-654.6
4044.699	-659.6
4047.172	-654.6
4049.643	-649.6
4052.112	-660.6
4054.58	-657.6
4057.046	-656.6
4059.51	-658.6
4061.972	-658.6
4064.432	-664.6
4066.891	-657.6
4069.348	-653.6
4071.803	-652.6
4074.256	-659.6
4076.708	-653.6
4079.158	-659.6
4081.606	-657.6
4084.052	-663.6
4086.497	-657.6
4088.939	-651.6
4091.38	-659.6
4093.819	-653.6
4096.257	-692.6
4098.693	-689.6
4101.127	-692.6
4103.559	-685.6
4105.989	-392.6
4108.418	-374.6
4110.845	-355.6
4113.27	-315.6
4115.694	-283.6
4118.115	-228.6
4120.535	-652.6
4122.954	-649.6
4125.37	-648.6
4127.785	-654.6
4130.198	-652.6
4132.609	-660.6
4135.019	-691.6
4137.427	-694.6
4139.833	-695.6
4142.237	-692.6
