Data from 2018-2-14_conc=5_n=10_RamanShift_03.txt Node
Date: Wed Feb 14 14:35:55 IST 2018
User: aro
Spectrometer: QEPB0276
Trigger mode: 0
Integration Time (sec): 3.000000E1
Scans to average: 1
Electric dark correction enabled: true
Nonlinearity correction enabled: false
Boxcar width: 0
XAxis mode: Raman Shifts
Number of Pixels in Spectrum: 1044
>>>>>Begin Spectral Data<<<<<
160.701	-129.6
166.742	47.4
172.777	548.4
178.805	2061.4
184.826	5640.4
190.841	11904.4
196.849	19119.4
202.85	24202.4
208.845	26052.4
214.833	25737.4
220.815	25313.4
226.789	25193.4
232.758	25010.4
238.719	24795.4
244.674	24531.4
250.623	24115.4
256.565	23622.4
262.5	23126.4
268.429	22683.4
274.351	22391.4
280.267	22088.4
286.176	21917.4
292.079	21634.4
297.975	21473.4
303.865	21310.4
309.748	21136.4
315.625	21077.4
321.495	20868.4
327.359	20787.4
333.217	20776.4
339.068	20765.4
344.912	20827.4
350.751	20735.4
356.583	20692.4
362.408	20694.4
368.227	20748.4
374.04	20768.4
379.847	20823.4
385.647	20811.4
391.44	20890.4
397.228	21046.4
403.009	21181.4
408.784	21265.4
414.553	21244.4
420.315	21298.4
426.071	21317.4
431.821	21324.4
437.565	21286.4
443.302	21284.4
449.033	21244.4
454.758	21156.4
460.477	21123.4
466.189	21007.4
471.896	20908.4
477.596	21020.4
483.29	20904.4
488.978	20872.4
494.66	20781.4
500.335	20673.4
506.005	20416.4
511.668	20146.4
517.325	19875.4
522.977	19670.4
528.622	19461.4
534.261	19399.4
539.894	19253.4
545.521	19175.4
551.141	19153.4
556.756	19097.4
562.365	18976.4
567.968	18899.4
573.565	18843.4
579.155	18742.4
584.74	18642.4
590.319	18566.4
595.892	18480.4
601.459	18440.4
607.02	18405.4
612.575	18249.4
618.124	18131.4
623.667	17999.4
629.204	17970.4
634.735	17810.4
640.261	17694.4
645.781	17713.4
651.294	17663.4
656.802	17641.4
662.304	17592.4
667.8	17571.4
673.29	17489.4
678.775	17486.4
684.254	17474.4
689.726	17400.4
695.193	17340.4
700.655	17248.4
706.11	17161.4
711.56	17041.4
717.004	16994.4
722.442	16873.4
727.874	16888.4
733.301	16759.4
738.722	16710.4
744.137	16733.4
749.547	16673.4
754.951	16667.4
760.349	16737.4
765.741	16712.4
771.128	16720.4
776.509	16743.4
781.885	16768.4
787.254	16685.4
792.618	16642.4
797.977	16451.4
803.33	16432.4
808.677	16333.4
814.019	16275.4
819.355	16169.4
824.686	16054.4
830.011	15998.4
835.33	16019.4
840.644	16041.4
845.952	16015.4
851.255	16091.4
856.552	16042.4
861.844	16033.4
867.13	15946.4
872.41	15963.4
877.686	15877.4
882.955	15767.4
888.219	15548.4
893.478	15449.4
898.731	15242.4
903.979	15042.4
909.221	14976.4
914.458	14916.4
919.69	14896.4
924.916	14944.4
930.136	15007.4
935.351	14997.4
940.561	15008.4
945.766	15004.4
950.965	14876.4
956.158	14818.4
961.347	14652.4
966.529	14460.4
971.707	14224.4
976.879	14077.4
982.046	13999.4
987.208	13944.4
992.364	13948.4
997.515	14012.4
1002.66	14117.4
1007.801	14334.4
1012.936	14433.4
1018.066	14442.4
1023.19	14387.4
1028.309	14392.4
1033.423	14362.4
1038.532	14312.4
1043.636	14154.4
1048.734	13977.4
1053.827	13776.4
1058.915	13697.4
1063.998	13583.4
1069.075	13569.4
1074.147	13563.4
1079.214	13602.4
1084.276	13681.4
1089.333	13757.4
1094.385	13799.4
1099.431	13837.4
1104.472	13836.4
1109.509	13806.4
1114.54	13587.4
1119.565	13414.4
1124.586	13223.4
1129.602	13074.4
1134.613	13101.4
1139.618	12959.4
1144.619	12955.4
1149.614	12884.4
1154.604	12975.4
1159.589	12989.4
1164.57	12927.4
1169.545	12969.4
1174.515	13050.4
1179.48	12919.4
1184.44	12833.4
1189.395	12741.4
1194.345	12664.4
1199.29	12600.4
1204.23	12579.4
1209.165	12690.4
1214.095	12690.4
1219.021	12772.4
1223.941	12802.4
1228.856	12864.4
1233.766	12927.4
1238.672	12975.4
1243.572	12957.4
1248.467	12858.4
1253.358	12690.4
1258.244	12482.4
1263.124	12307.4
1268	12126.4
1272.871	11966.4
1277.737	11878.4
1282.599	11793.4
1287.455	11859.4
1292.306	11853.4
1297.153	11853.4
1301.995	11966.4
1306.832	11985.4
1311.664	12000.4
1316.491	11962.4
1321.314	11861.4
1326.132	11695.4
1330.945	11460.4
1335.753	11207.4
1340.556	10922.4
1345.354	10743.4
1350.148	10545.4
1354.937	10426.4
1359.722	10397.4
1364.501	10460.4
1369.276	10508.4
1374.046	10664.4
1378.811	10774.4
1383.572	10915.4
1388.327	10884.4
1393.079	10883.4
1397.825	10760.4
1402.567	10568.4
1407.304	10464.4
1412.036	10368.4
1416.764	10331.4
1421.487	10245.4
1426.205	10205.4
1430.919	10165.4
1435.628	10190.4
1440.333	10187.4
1445.032	10232.4
1449.727	10255.4
1454.418	10238.4
1459.104	10141.4
1463.785	9894.4
1468.462	9770.4
1473.134	9601.4
1477.802	9415.4
1482.465	9199.4
1487.123	9095.4
1491.777	9068.4
1496.426	9085.4
1501.071	9195.4
1505.711	9330.4
1510.347	9471.4
1514.978	9623.4
1519.604	9725.4
1524.226	9796.4
1528.844	9834.4
1533.457	9810.4
1538.065	9790.4
1542.669	9685.4
1547.269	9626.4
1551.864	9556.4
1556.454	9566.4
1561.041	9542.4
1565.622	9593.4
1570.199	9543.4
1574.772	9598.4
1579.34	9722.4
1583.904	9728.4
1588.464	9748.4
1593.019	9723.4
1597.569	9756.4
1602.115	9696.4
1606.657	9632.4
1611.195	9557.4
1615.728	9502.4
1620.256	9448.4
1624.78	9431.4
1629.3	9466.4
1633.816	9533.4
1638.327	9537.4
1642.834	9617.4
1647.336	9657.4
1651.834	9663.4
1656.328	9589.4
1660.817	9635.4
1665.302	9512.4
1669.783	9343.4
1674.259	9110.4
1678.732	8874.4
1683.199	8584.4
1687.663	8314.4
1692.122	8083.4
1696.577	7886.4
1701.028	7911.4
1705.474	7884.4
1709.917	7944.4
1714.355	7945.4
1718.788	7934.4
1723.218	7800.4
1727.643	7640.4
1732.064	7541.4
1736.481	7370.4
1740.893	7178.4
1745.301	7009.4
1749.705	6835.4
1754.105	6657.4
1758.501	6429.4
1762.893	6261.4
1767.28	6137.4
1771.663	5972.4
1776.042	5880.4
1780.417	5835.4
1784.787	5849.4
1789.154	5864.4
1793.516	5971.4
1797.874	6053.4
1802.228	6183.4
1806.578	6237.4
1810.924	6192.4
1815.266	6166.4
1819.603	6116.4
1823.937	5962.4
1828.266	5890.4
1832.591	5814.4
1836.913	5706.4
1841.23	5654.4
1845.543	5625.4
1849.852	5607.4
1854.156	5590.4
1858.457	5581.4
1862.754	5552.4
1867.047	5551.4
1871.335	5587.4
1875.62	5550.4
1879.9	5577.4
1884.177	5484.4
1888.449	5413.4
1892.718	5427.4
1896.982	5337.4
1901.243	5293.4
1905.499	5236.4
1909.752	5212.4
1914	5236.4
1918.245	5276.4
1922.485	5321.4
1926.722	5361.4
1930.954	5447.4
1935.183	5469.4
1939.408	5485.4
1943.628	5540.4
1947.845	5558.4
1952.058	5538.4
1956.267	5489.4
1960.472	5419.4
1964.673	5341.4
1968.87	5276.4
1973.063	5160.4
1977.252	5104.4
1981.438	5032.4
1985.619	4992.4
1989.797	4968.4
1993.971	4910.4
1998.14	4890.4
2002.306	4867.4
2006.469	4847.4
2010.627	4824.4
2014.781	4811.4
2018.932	4771.4
2023.078	4721.4
2027.221	4639.4
2031.36	4576.4
2035.495	4516.4
2039.627	4447.4
2043.754	4397.4
2047.878	4359.4
2051.998	4326.4
2056.114	4310.4
2060.226	4313.4
2064.334	4317.4
2068.439	4316.4
2072.54	4380.4
2076.637	4374.4
2080.73	4420.4
2084.82	4431.4
2088.906	4449.4
2092.988	4457.4
2097.066	4421.4
2101.14	4399.4
2105.211	4369.4
2109.278	4342.4
2113.342	4337.4
2117.401	4301.4
2121.457	4308.4
2125.509	4266.4
2129.558	4206.4
2133.602	4203.4
2137.643	4189.4
2141.681	4130.4
2145.714	4151.4
2149.744	4101.4
2153.77	4052.4
2157.793	4034.4
2161.812	3991.4
2165.827	3911.4
2169.838	3846.4
2173.846	3794.4
2177.851	3739.4
2181.851	3679.4
2185.848	3625.4
2189.841	3592.4
2193.831	3563.4
2197.817	3528.4
2201.799	3519.4
2205.778	3478.4
2209.753	3445.4
2213.725	3475.4
2217.693	3478.4
2221.657	3431.4
2225.618	3435.4
2229.575	3430.4
2233.529	3390.4
2237.479	3350.4
2241.425	3342.4
2245.368	3267.4
2249.307	3204.4
2253.243	3158.4
2257.175	3151.4
2261.104	3080.4
2265.029	3032.4
2268.95	3031.4
2272.868	2963.4
2276.783	2960.4
2280.694	2925.4
2284.601	2893.4
2288.505	2861.4
2292.405	2836.4
2296.302	2803.4
2300.195	2778.4
2304.085	2731.4
2307.971	2715.4
2311.854	2662.4
2315.734	2627.4
2319.609	2589.4
2323.482	2567.4
2327.351	2527.4
2331.216	2521.4
2335.078	2522.4
2338.937	2459.4
2342.792	2464.4
2346.643	2426.4
2350.492	2446.4
2354.336	2451.4
2358.178	2464.4
2362.015	2458.4
2365.85	2487.4
2369.681	2473.4
2373.508	2471.4
2377.333	2459.4
2381.153	2441.4
2384.971	2461.4
2388.785	2419.4
2392.595	2430.4
2396.402	2402.4
2400.206	2361.4
2404.007	2327.4
2407.804	2340.4
2411.597	2316.4
2415.388	2299.4
2419.174	2264.4
2422.958	2280.4
2426.738	2269.4
2430.515	2234.4
2434.289	2196.4
2438.059	2208.4
2441.825	2211.4
2445.589	2151.4
2449.349	2136.4
2453.106	2113.4
2456.859	2087.4
2460.61	2038.4
2464.356	2023.4
2468.1	1984.4
2471.84	1987.4
2475.577	1960.4
2479.311	1956.4
2483.041	1945.4
2486.768	1943.4
2490.492	1927.4
2494.213	1944.4
2497.93	1908.4
2501.644	1910.4
2505.355	1897.4
2509.062	1890.4
2512.766	1894.4
2516.467	1863.4
2520.165	1859.4
2523.859	1847.4
2527.551	1827.4
2531.239	1828.4
2534.923	1799.4
2538.605	1809.4
2542.283	1791.4
2545.958	1787.4
2549.63	1800.4
2553.299	1792.4
2556.964	1798.4
2560.626	1750.4
2564.285	1780.4
2567.941	1766.4
2571.594	1736.4
2575.243	1739.4
2578.89	1720.4
2582.533	1699.4
2586.173	1689.4
2589.809	1686.4
2593.443	1662.4
2597.073	1662.4
2600.701	1627.4
2604.325	1609.4
2607.946	1588.4
2611.564	1605.4
2615.178	1576.4
2618.79	1579.4
2622.398	1556.4
2626.004	1548.4
2629.606	1520.4
2633.205	1501.4
2636.801	1479.4
2640.394	1465.4
2643.983	1430.4
2647.57	1434.4
2651.153	1400.4
2654.734	1360.4
2658.311	1346.4
2661.885	1307.4
2665.456	1300.4
2669.025	1304.4
2672.589	1294.4
2676.151	1262.4
2679.71	1262.4
2683.266	1234.4
2686.819	1215.4
2690.368	1184.4
2693.915	1165.4
2697.458	1123.4
2700.999	1108.4
2704.536	1084.4
2708.071	1068.4
2711.602	1046.4
2715.13	1020.4
2718.656	1009.4
2722.178	988.4
2725.697	979.4
2729.214	961.4
2732.727	957.4
2736.237	944.4
2739.744	942.4
2743.249	961.4
2746.75	962.4
2750.248	954.4
2753.743	965.4
2757.236	1001.4
2760.725	984.4
2764.211	983.4
2767.695	1000.4
2771.175	992.4
2774.652	970.4
2778.127	978.4
2781.598	978.4
2785.067	961.4
2788.532	985.4
2791.995	953.4
2795.455	944.4
2798.911	976.4
2802.365	985.4
2805.816	987.4
2809.264	957.4
2812.709	973.4
2816.151	960.4
2819.59	981.4
2823.026	970.4
2826.46	963.4
2829.89	980.4
2833.318	974.4
2836.742	985.4
2840.164	979.4
2843.583	972.4
2846.999	1013.4
2850.412	1004.4
2853.822	1013.4
2857.229	1045.4
2860.634	1047.4
2864.035	1079.4
2867.434	1077.4
2870.83	1103.4
2874.223	1112.4
2877.613	1125.4
2881	1158.4
2884.385	1164.4
2887.766	1178.4
2891.145	1162.4
2894.521	1149.4
2897.894	1169.4
2901.264	1153.4
2904.631	1166.4
2907.996	1163.4
2911.358	1172.4
2914.717	1181.4
2918.073	1185.4
2921.426	1183.4
2924.777	1201.4
2928.124	1229.4
2931.469	1259.4
2934.811	1278.4
2938.15	1284.4
2941.487	1294.4
2944.821	1337.4
2948.152	1320.4
2951.48	1303.4
2954.805	1294.4
2958.128	1275.4
2961.447	1271.4
2964.765	1273.4
2968.079	1275.4
2971.39	1305.4
2974.699	1303.4
2978.005	1328.4
2981.308	1357.4
2984.609	1389.4
2987.907	1385.4
2991.202	1409.4
2994.494	1443.4
2997.784	1481.4
3001.07	1509.4
3004.355	1531.4
3007.636	1536.4
3010.915	1551.4
3014.191	1565.4
3017.464	1573.4
3020.734	1593.4
3024.002	1594.4
3027.267	1607.4
3030.53	1643.4
3033.789	1644.4
3037.046	1683.4
3040.301	1690.4
3043.552	1714.4
3046.801	1756.4
3050.048	1830.4
3053.291	1846.4
3056.532	1887.4
3059.771	1946.4
3063.006	1999.4
3066.239	2043.4
3069.469	2134.4
3072.697	2171.4
3075.922	2211.4
3079.144	2273.4
3082.364	2352.4
3085.581	2400.4
3088.795	2454.4
3092.007	2495.4
3095.216	2533.4
3098.423	2598.4
3101.627	2680.4
3104.828	2748.4
3108.026	2790.4
3111.222	2821.4
3114.416	2893.4
3117.607	2969.4
3120.795	3022.4
3123.98	3118.4
3127.163	3163.4
3130.344	3234.4
3133.521	3317.4
3136.696	3423.4
3139.869	3482.4
3143.039	3552.4
3146.206	3589.4
3149.371	3640.4
3152.533	3654.4
3155.693	3675.4
3158.85	3703.4
3162.005	3741.4
3165.157	3733.4
3168.306	3766.4
3171.453	3755.4
3174.597	3756.4
3177.739	3791.4
3180.878	3767.4
3184.014	3787.4
3187.149	3795.4
3190.28	3799.4
3193.409	3790.4
3196.536	3825.4
3199.659	3808.4
3202.781	3827.4
3205.9	3853.4
3209.016	3856.4
3212.13	3826.4
3215.241	3789.4
3218.35	3732.4
3221.456	3696.4
3224.56	3674.4
3227.661	3604.4
3230.76	3633.4
3233.856	3562.4
3236.95	3543.4
3240.041	3508.4
3243.13	3492.4
3246.216	3436.4
3249.3	3430.4
3252.382	3425.4
3255.46	3443.4
3258.537	3392.4
3261.611	3419.4
3264.682	3379.4
3267.751	3396.4
3270.818	3391.4
3273.882	3378.4
3276.943	3354.4
3280.002	3341.4
3283.059	3308.4
3286.113	3281.4
3289.165	3238.4
3292.214	3188.4
3295.261	3121.4
3298.306	3050.4
3301.348	3022.4
3304.387	2969.4
3307.425	2932.4
3310.459	2884.4
3313.492	2845.4
3316.521	2792.4
3319.549	2772.4
3322.574	2771.4
3325.597	2715.4
3328.617	2719.4
3331.635	2665.4
3334.65	2648.4
3337.663	2637.4
3340.674	2639.4
3343.682	2654.4
3346.688	2626.4
3349.691	2608.4
3352.692	2589.4
3355.691	2569.4
3358.687	2548.4
3361.681	2518.4
3364.673	2490.4
3367.662	2451.4
3370.649	2416.4
3373.633	2379.4
3376.615	2333.4
3379.595	2298.4
3382.572	2293.4
3385.547	2246.4
3388.52	2227.4
3391.49	2184.4
3394.458	2152.4
3397.424	2112.4
3400.387	2100.4
3403.348	2067.4
3406.307	2050.4
3409.263	2021.4
3412.217	1998.4
3415.168	1981.4
3418.118	1957.4
3421.065	1931.4
3424.009	1909.4
3426.951	1874.4
3429.891	1853.4
3432.829	1783.4
3435.764	1750.4
3438.697	1723.4
3441.628	1659.4
3444.557	1606.4
3447.483	1571.4
3450.407	1509.4
3453.328	1463.4
3456.247	1423.4
3459.164	1375.4
3462.079	1326.4
3464.991	1263.4
3467.902	1233.4
3470.809	1186.4
3473.715	1147.4
3476.618	1087.4
3479.519	1046.4
3482.418	1044.4
3485.315	1003.4
3488.209	958.4
3491.101	927.4
3493.99	883.4
3496.878	846.4
3499.763	823.4
3502.646	805.4
3505.527	763.4
3508.405	728.4
3511.281	683.4
3514.155	639.4
3517.027	624.4
3519.897	560.4
3522.764	534.4
3525.629	495.4
3528.492	448.4
3531.352	412.4
3534.211	381.4
3537.067	339.4
3539.921	312.4
3542.773	278.4
3545.622	231.4
3548.469	198.4
3551.315	190.4
3554.157	162.4
3556.998	140.4
3559.837	120.4
3562.673	100.4
3565.507	52.4
3568.339	46.4
3571.169	25.4
3573.996	15.4
3576.822	-8.6
3579.645	-29.6
3582.466	-54.6
3585.285	-54.6
3588.101	-88.6
3590.916	-111.6
3593.728	-135.6
3596.538	-135.6
3599.346	-163.6
3602.152	-177.6
3604.956	-184.6
3607.757	-203.6
3610.556	-220.6
3613.354	-229.6
3616.149	-239.6
3618.942	-263.6
3621.732	-275.6
3624.521	-280.6
3627.307	-284.6
3630.092	-304.6
3632.874	-313.6
3635.654	-317.6
3638.432	-322.6
3641.208	-339.6
3643.982	-346.6
3646.753	-346.6
3649.523	-357.6
3652.29	-374.6
3655.055	-377.6
3657.818	-388.6
3660.579	-398.6
3663.338	-412.6
3666.095	-424.6
3668.849	-432.6
3671.602	-440.6
3674.352	-446.6
3677.101	-448.6
3679.847	-459.6
3682.591	-459.6
3685.333	-470.6
3688.073	-461.6
3690.811	-481.6
3693.547	-483.6
3696.281	-487.6
3699.013	-493.6
3701.742	-497.6
3704.47	-498.6
3707.195	-505.6
3709.919	-505.6
3712.64	-507.6
3715.359	-506.6
3718.076	-517.6
3720.792	-522.6
3723.505	-524.6
3726.216	-526.6
3728.925	-532.6
3731.632	-541.6
3734.336	-536.6
3737.039	-540.6
3739.74	-541.6
3742.439	-546.6
3745.136	-543.6
3747.83	-548.6
3750.523	-544.6
3753.213	-555.6
3755.902	-557.6
3758.589	-556.6
3761.273	-559.6
3763.956	-561.6
3766.636	-566.6
3769.315	-570.6
3771.991	-564.6
3774.665	-575.6
3777.338	-566.6
3780.008	-576.6
3782.677	-572.6
3785.343	-566.6
3788.007	-570.6
3790.67	-569.6
3793.33	-578.6
3795.989	-576.6
3798.645	-573.6
3801.299	-576.6
3803.952	-582.6
3806.602	-585.6
3809.251	-589.6
3811.897	-579.6
3814.542	-585.6
3817.184	-584.6
3819.825	-579.6
3822.463	-583.6
3825.1	-591.6
3827.735	-585.6
3830.367	-586.6
3832.998	-593.6
3835.627	-600.6
3838.253	-593.6
3840.878	-593.6
3843.501	-593.6
3846.122	-589.6
3848.741	-583.6
3851.358	-587.6
3853.973	-588.6
3856.586	-595.6
3859.197	-594.6
3861.806	-596.6
3864.414	-593.6
3867.019	-592.6
3869.622	-593.6
3872.224	-591.6
3874.823	-571.6
3877.421	-558.6
3880.016	-534.6
3882.61	-513.6
3885.202	-507.6
3887.792	-525.6
3890.38	-562.6
3892.966	-577.6
3895.55	-594.6
3898.132	-609.6
3900.713	-611.6
3903.291	-605.6
3905.868	-605.6
3908.442	-611.6
3911.015	-603.6
3913.586	-603.6
3916.155	-603.6
3918.722	-612.6
3921.287	-603.6
3923.85	-609.6
3926.411	-603.6
3928.971	-616.6
3931.528	-610.6
3934.084	-610.6
3936.638	-603.6
3939.19	-606.6
3941.74	-607.6
3944.288	-613.6
3946.834	-609.6
3949.378	-608.6
3951.921	-616.6
3954.462	-618.6
3957	-607.6
3959.537	-612.6
3962.072	-607.6
3964.606	-609.6
3967.137	-607.6
3969.667	-611.6
3972.194	-611.6
3974.72	-610.6
3977.244	-602.6
3979.766	-596.6
3982.286	-604.6
3984.805	-603.6
3987.321	-601.6
3989.836	-598.6
3992.349	-587.6
3994.86	-591.6
3997.369	-603.6
3999.877	-592.6
4002.382	-591.6
4004.886	-597.6
4007.388	-589.6
4009.888	-590.6
4012.386	-600.6
4014.883	-593.6
4017.377	-599.6
4019.87	-593.6
4022.361	-596.6
4024.85	-594.6
4027.338	-596.6
4029.823	-597.6
4032.307	-598.6
4034.789	-593.6
4037.269	-596.6
4039.747	-596.6
4042.224	-599.6
4044.699	-597.6
4047.172	-595.6
4049.643	-593.6
4052.112	-600.6
4054.58	-606.6
4057.046	-604.6
4059.51	-595.6
4061.972	-600.6
4064.432	-599.6
4066.891	-598.6
4069.348	-597.6
4071.803	-594.6
4074.256	-592.6
4076.708	-594.6
4079.158	-595.6
4081.606	-599.6
4084.052	-600.6
4086.497	-602.6
4088.939	-594.6
4091.38	-599.6
4093.819	-602.6
4096.257	-627.6
4098.693	-630.6
4101.127	-631.6
4103.559	-631.6
4105.989	-364.6
4108.418	-337.6
4110.845	-321.6
4113.27	-297.6
4115.694	-254.6
4118.115	-212.6
4120.535	-594.6
4122.954	-599.6
4125.37	-596.6
4127.785	-594.6
4130.198	-600.6
4132.609	-598.6
4135.019	-631.6
4137.427	-632.6
4139.833	-633.6
4142.237	-629.6
