Data from 2018-2-14_conc=0_n=1_RamanShift_07.txt Node
Date: Wed Feb 14 10:29:56 IST 2018
User: aro
Spectrometer: QEPB0276
Trigger mode: 0
Integration Time (sec): 3.000000E1
Scans to average: 1
Electric dark correction enabled: true
Nonlinearity correction enabled: false
Boxcar width: 0
XAxis mode: Raman Shifts
Number of Pixels in Spectrum: 1044
>>>>>Begin Spectral Data<<<<<
160.701	-146.9
166.742	32.1
172.777	602.1
178.805	2320.1
184.826	6423.1
190.841	13288.1
196.849	21217.1
202.85	26763.1
208.845	28518.1
214.833	28129.1
220.815	27648.1
226.789	27390.1
232.758	27278.1
238.719	26964.1
244.674	26684.1
250.623	26159.1
256.565	25557.1
262.5	24987.1
268.429	24485.1
274.351	24115.1
280.267	23804.1
286.176	23468.1
292.079	23282.1
297.975	22994.1
303.865	22754.1
309.748	22617.1
315.625	22450.1
321.495	22306.1
327.359	22248.1
333.217	22187.1
339.068	22177.1
344.912	22141.1
350.751	22019.1
356.583	22105.1
362.408	22026.1
368.227	22054.1
374.04	22058.1
379.847	22058.1
385.647	22177.1
391.44	22298.1
397.228	22350.1
403.009	22465.1
408.784	22535.1
414.553	22554.1
420.315	22666.1
426.071	22660.1
431.821	22673.1
437.565	22669.1
443.302	22621.1
449.033	22563.1
454.758	22521.1
460.477	22494.1
466.189	22451.1
471.896	22327.1
477.596	22297.1
483.29	22219.1
488.978	22218.1
494.66	22173.1
500.335	21984.1
506.005	21798.1
511.668	21496.1
517.325	21262.1
522.977	21088.1
528.622	20897.1
534.261	20778.1
539.894	20688.1
545.521	20525.1
551.141	20499.1
556.756	20420.1
562.365	20350.1
567.968	20273.1
573.565	20176.1
579.155	20081.1
584.74	20000.1
590.319	19973.1
595.892	19832.1
601.459	19813.1
607.02	19688.1
612.575	19603.1
618.124	19445.1
623.667	19290.1
629.204	19255.1
634.735	19139.1
640.261	19051.1
645.781	19051.1
651.294	18994.1
656.802	18935.1
662.304	18892.1
667.8	18830.1
673.29	18839.1
678.775	18810.1
684.254	18724.1
689.726	18647.1
695.193	18604.1
700.655	18491.1
706.11	18450.1
711.56	18311.1
717.004	18237.1
722.442	18156.1
727.874	18063.1
733.301	18069.1
738.722	17946.1
744.137	17934.1
749.547	17896.1
754.951	17909.1
760.349	17943.1
765.741	17945.1
771.128	17906.1
776.509	17960.1
781.885	17951.1
787.254	17871.1
792.618	17856.1
797.977	17691.1
803.33	17586.1
808.677	17490.1
814.019	17429.1
819.355	17276.1
824.686	17208.1
830.011	17155.1
835.33	17177.1
840.644	17181.1
845.952	17150.1
851.255	17236.1
856.552	17271.1
861.844	17174.1
867.13	17170.1
872.41	17081.1
877.686	16981.1
882.955	16905.1
888.219	16713.1
893.478	16543.1
898.731	16323.1
903.979	16201.1
909.221	16035.1
914.458	15961.1
919.69	16001.1
924.916	16036.1
930.136	16120.1
935.351	16091.1
940.561	16062.1
945.766	16055.1
950.965	15975.1
956.158	15875.1
961.347	15712.1
966.529	15505.1
971.707	15285.1
976.879	15073.1
982.046	14956.1
987.208	14909.1
992.364	14945.1
997.515	14991.1
1002.66	15131.1
1007.801	15326.1
1012.936	15393.1
1018.066	15435.1
1023.19	15403.1
1028.309	15398.1
1033.423	15366.1
1038.532	15260.1
1043.636	15145.1
1048.734	15020.1
1053.827	14781.1
1058.915	14621.1
1063.998	14537.1
1069.075	14444.1
1074.147	14477.1
1079.214	14539.1
1084.276	14652.1
1089.333	14655.1
1094.385	14762.1
1099.431	14836.1
1104.472	14805.1
1109.509	14745.1
1114.54	14582.1
1119.565	14382.1
1124.586	14139.1
1129.602	14062.1
1134.613	13963.1
1139.618	13874.1
1144.619	13782.1
1149.614	13793.1
1154.604	13841.1
1159.589	13894.1
1164.57	13885.1
1169.545	13914.1
1174.515	13874.1
1179.48	13864.1
1184.44	13764.1
1189.395	13647.1
1194.345	13552.1
1199.29	13494.1
1204.23	13449.1
1209.165	13516.1
1214.095	13606.1
1219.021	13628.1
1223.941	13686.1
1228.856	13755.1
1233.766	13823.1
1238.672	13867.1
1243.572	13837.1
1248.467	13744.1
1253.358	13579.1
1258.244	13439.1
1263.124	13204.1
1268	13020.1
1272.871	12813.1
1277.737	12735.1
1282.599	12657.1
1287.455	12682.1
1292.306	12679.1
1297.153	12713.1
1301.995	12852.1
1306.832	12832.1
1311.664	12839.1
1316.491	12800.1
1321.314	12701.1
1326.132	12546.1
1330.945	12307.1
1335.753	11994.1
1340.556	11653.1
1345.354	11430.1
1350.148	11254.1
1354.937	11133.1
1359.722	11154.1
1364.501	11189.1
1369.276	11288.1
1374.046	11403.1
1378.811	11577.1
1383.572	11751.1
1388.327	11762.1
1393.079	11732.1
1397.825	11548.1
1402.567	11406.1
1407.304	11252.1
1412.036	11225.1
1416.764	11139.1
1421.487	11000.1
1426.205	10960.1
1430.919	10892.1
1435.628	10908.1
1440.333	10919.1
1445.032	10943.1
1449.727	10993.1
1454.418	10980.1
1459.104	10893.1
1463.785	10661.1
1468.462	10441.1
1473.134	10238.1
1477.802	9998.1
1482.465	9861.1
1487.123	9758.1
1491.777	9731.1
1496.426	9740.1
1501.071	9895.1
1505.711	10044.1
1510.347	10231.1
1514.978	10378.1
1519.604	10548.1
1524.226	10623.1
1528.844	10610.1
1533.457	10572.1
1538.065	10555.1
1542.669	10450.1
1547.269	10412.1
1551.864	10349.1
1556.454	10318.1
1561.041	10284.1
1565.622	10249.1
1570.199	10275.1
1574.772	10344.1
1579.34	10416.1
1583.904	10488.1
1588.464	10510.1
1593.019	10520.1
1597.569	10474.1
1602.115	10453.1
1606.657	10359.1
1611.195	10336.1
1615.728	10272.1
1620.256	10197.1
1624.78	10223.1
1629.3	10194.1
1633.816	10274.1
1638.327	10290.1
1642.834	10379.1
1647.336	10401.1
1651.834	10449.1
1656.328	10416.1
1660.817	10375.1
1665.302	10286.1
1669.783	10066.1
1674.259	9867.1
1678.732	9639.1
1683.199	9267.1
1687.663	8962.1
1692.122	8685.1
1696.577	8540.1
1701.028	8509.1
1705.474	8548.1
1709.917	8648.1
1714.355	8645.1
1718.788	8598.1
1723.218	8471.1
1727.643	8269.1
1732.064	8125.1
1736.481	7917.1
1740.893	7738.1
1745.301	7519.1
1749.705	7323.1
1754.105	7093.1
1758.501	6918.1
1762.893	6758.1
1767.28	6580.1
1771.663	6423.1
1776.042	6303.1
1780.417	6227.1
1784.787	6266.1
1789.154	6314.1
1793.516	6411.1
1797.874	6566.1
1802.228	6654.1
1806.578	6700.1
1810.924	6699.1
1815.266	6656.1
1819.603	6595.1
1823.937	6447.1
1828.266	6319.1
1832.591	6285.1
1836.913	6158.1
1841.23	6103.1
1845.543	6050.1
1849.852	6010.1
1854.156	6039.1
1858.457	5969.1
1862.754	5970.1
1867.047	6005.1
1871.335	5975.1
1875.62	6001.1
1879.9	5947.1
1884.177	5899.1
1888.449	5862.1
1892.718	5804.1
1896.982	5718.1
1901.243	5720.1
1905.499	5673.1
1909.752	5632.1
1914	5628.1
1918.245	5651.1
1922.485	5678.1
1926.722	5755.1
1930.954	5863.1
1935.183	5883.1
1939.408	5931.1
1943.628	6002.1
1947.845	6007.1
1952.058	6009.1
1956.267	5893.1
1960.472	5877.1
1964.673	5762.1
1968.87	5703.1
1973.063	5557.1
1977.252	5483.1
1981.438	5432.1
1985.619	5356.1
1989.797	5336.1
1993.971	5298.1
1998.14	5275.1
2002.306	5233.1
2006.469	5218.1
2010.627	5183.1
2014.781	5178.1
2018.932	5146.1
2023.078	5071.1
2027.221	5001.1
2031.36	4938.1
2035.495	4877.1
2039.627	4774.1
2043.754	4768.1
2047.878	4726.1
2051.998	4671.1
2056.114	4687.1
2060.226	4667.1
2064.334	4646.1
2068.439	4672.1
2072.54	4717.1
2076.637	4713.1
2080.73	4767.1
2084.82	4811.1
2088.906	4817.1
2092.988	4819.1
2097.066	4807.1
2101.14	4764.1
2105.211	4730.1
2109.278	4712.1
2113.342	4661.1
2117.401	4633.1
2121.457	4609.1
2125.509	4600.1
2129.558	4591.1
2133.602	4540.1
2137.643	4510.1
2141.681	4499.1
2145.714	4478.1
2149.744	4437.1
2153.77	4420.1
2157.793	4367.1
2161.812	4308.1
2165.827	4233.1
2169.838	4181.1
2173.846	4113.1
2177.851	4043.1
2181.851	3969.1
2185.848	3902.1
2189.841	3890.1
2193.831	3806.1
2197.817	3788.1
2201.799	3803.1
2205.778	3727.1
2209.753	3755.1
2213.725	3739.1
2217.693	3701.1
2221.657	3727.1
2225.618	3710.1
2229.575	3708.1
2233.529	3643.1
2237.479	3616.1
2241.425	3574.1
2245.368	3525.1
2249.307	3476.1
2253.243	3424.1
2257.175	3374.1
2261.104	3321.1
2265.029	3317.1
2268.95	3257.1
2272.868	3213.1
2276.783	3195.1
2280.694	3148.1
2284.601	3136.1
2288.505	3064.1
2292.405	3025.1
2296.302	3015.1
2300.195	3017.1
2304.085	2949.1
2307.971	2902.1
2311.854	2875.1
2315.734	2835.1
2319.609	2794.1
2323.482	2759.1
2327.351	2710.1
2331.216	2691.1
2335.078	2687.1
2338.937	2669.1
2342.792	2652.1
2346.643	2609.1
2350.492	2630.1
2354.336	2617.1
2358.178	2655.1
2362.015	2632.1
2365.85	2647.1
2369.681	2624.1
2373.508	2650.1
2377.333	2649.1
2381.153	2635.1
2384.971	2623.1
2388.785	2600.1
2392.595	2564.1
2396.402	2537.1
2400.206	2540.1
2404.007	2512.1
2407.804	2488.1
2411.597	2482.1
2415.388	2462.1
2419.174	2421.1
2422.958	2438.1
2426.738	2402.1
2430.515	2402.1
2434.289	2351.1
2438.059	2353.1
2441.825	2340.1
2445.589	2315.1
2449.349	2290.1
2453.106	2238.1
2456.859	2222.1
2460.61	2188.1
2464.356	2181.1
2468.1	2157.1
2471.84	2133.1
2475.577	2083.1
2479.311	2087.1
2483.041	2071.1
2486.768	2080.1
2490.492	2040.1
2494.213	2061.1
2497.93	2040.1
2501.644	2031.1
2505.355	2039.1
2509.062	2016.1
2512.766	2001.1
2516.467	2001.1
2520.165	1994.1
2523.859	1975.1
2527.551	1946.1
2531.239	1945.1
2534.923	1923.1
2538.605	1902.1
2542.283	1925.1
2545.958	1910.1
2549.63	1903.1
2553.299	1902.1
2556.964	1914.1
2560.626	1875.1
2564.285	1869.1
2567.941	1877.1
2571.594	1856.1
2575.243	1858.1
2578.89	1840.1
2582.533	1815.1
2586.173	1799.1
2589.809	1789.1
2593.443	1768.1
2597.073	1755.1
2600.701	1738.1
2604.325	1732.1
2607.946	1711.1
2611.564	1714.1
2615.178	1700.1
2618.79	1677.1
2622.398	1648.1
2626.004	1644.1
2629.606	1606.1
2633.205	1577.1
2636.801	1586.1
2640.394	1557.1
2643.983	1515.1
2647.57	1513.1
2651.153	1494.1
2654.734	1448.1
2658.311	1440.1
2661.885	1415.1
2665.456	1399.1
2669.025	1385.1
2672.589	1361.1
2676.151	1346.1
2679.71	1312.1
2683.266	1338.1
2686.819	1301.1
2690.368	1244.1
2693.915	1230.1
2697.458	1205.1
2700.999	1168.1
2704.536	1156.1
2708.071	1108.1
2711.602	1115.1
2715.13	1089.1
2718.656	1058.1
2722.178	1039.1
2725.697	1030.1
2729.214	1003.1
2732.727	1011.1
2736.237	997.1
2739.744	985.1
2743.249	1016.1
2746.75	1003.1
2750.248	1034.1
2753.743	1029.1
2757.236	1061.1
2760.725	1046.1
2764.211	1053.1
2767.695	1069.1
2771.175	1053.1
2774.652	1071.1
2778.127	1042.1
2781.598	1045.1
2785.067	1042.1
2788.532	1038.1
2791.995	1026.1
2795.455	1028.1
2798.911	1026.1
2802.365	1034.1
2805.816	1059.1
2809.264	1042.1
2812.709	1042.1
2816.151	1042.1
2819.59	1030.1
2823.026	1029.1
2826.46	1062.1
2829.89	1050.1
2833.318	1042.1
2836.742	1058.1
2840.164	1053.1
2843.583	1062.1
2846.999	1061.1
2850.412	1086.1
2853.822	1114.1
2857.229	1095.1
2860.634	1135.1
2864.035	1158.1
2867.434	1171.1
2870.83	1204.1
2874.223	1205.1
2877.613	1238.1
2881	1251.1
2884.385	1267.1
2887.766	1245.1
2891.145	1263.1
2894.521	1262.1
2897.894	1280.1
2901.264	1243.1
2904.631	1269.1
2907.996	1273.1
2911.358	1263.1
2914.717	1286.1
2918.073	1308.1
2921.426	1311.1
2924.777	1331.1
2928.124	1346.1
2931.469	1385.1
2934.811	1407.1
2938.15	1421.1
2941.487	1454.1
2944.821	1431.1
2948.152	1427.1
2951.48	1439.1
2954.805	1407.1
2958.128	1413.1
2961.447	1390.1
2964.765	1405.1
2968.079	1406.1
2971.39	1419.1
2974.699	1421.1
2978.005	1472.1
2981.308	1501.1
2984.609	1529.1
2987.907	1548.1
2991.202	1571.1
2994.494	1614.1
2997.784	1661.1
3001.07	1689.1
3004.355	1694.1
3007.636	1719.1
3010.915	1767.1
3014.191	1763.1
3017.464	1778.1
3020.734	1779.1
3024.002	1808.1
3027.267	1818.1
3030.53	1842.1
3033.789	1844.1
3037.046	1869.1
3040.301	1905.1
3043.552	1936.1
3046.801	1984.1
3050.048	2012.1
3053.291	2079.1
3056.532	2149.1
3059.771	2204.1
3063.006	2250.1
3066.239	2346.1
3069.469	2408.1
3072.697	2474.1
3075.922	2524.1
3079.144	2602.1
3082.364	2654.1
3085.581	2696.1
3088.795	2755.1
3092.007	2837.1
3095.216	2893.1
3098.423	2960.1
3101.627	3026.1
3104.828	3109.1
3108.026	3157.1
3111.222	3214.1
3114.416	3294.1
3117.607	3379.1
3120.795	3464.1
3123.98	3542.1
3127.163	3605.1
3130.344	3722.1
3133.521	3802.1
3136.696	3885.1
3139.869	3964.1
3143.039	4026.1
3146.206	4101.1
3149.371	4154.1
3152.533	4165.1
3155.693	4172.1
3158.85	4232.1
3162.005	4243.1
3165.157	4264.1
3168.306	4262.1
3171.453	4294.1
3174.597	4278.1
3177.739	4319.1
3180.878	4290.1
3184.014	4351.1
3187.149	4270.1
3190.28	4313.1
3193.409	4339.1
3196.536	4340.1
3199.659	4342.1
3202.781	4331.1
3205.9	4346.1
3209.016	4318.1
3212.13	4317.1
3215.241	4268.1
3218.35	4253.1
3221.456	4179.1
3224.56	4180.1
3227.661	4124.1
3230.76	4070.1
3233.856	4054.1
3236.95	4017.1
3240.041	3991.1
3243.13	3948.1
3246.216	3918.1
3249.3	3893.1
3252.382	3895.1
3255.46	3882.1
3258.537	3848.1
3261.611	3856.1
3264.682	3850.1
3267.751	3855.1
3270.818	3852.1
3273.882	3841.1
3276.943	3823.1
3280.002	3765.1
3283.059	3761.1
3286.113	3715.1
3289.165	3667.1
3292.214	3599.1
3295.261	3523.1
3298.306	3476.1
3301.348	3432.1
3304.387	3361.1
3307.425	3285.1
3310.459	3256.1
3313.492	3221.1
3316.521	3176.1
3319.549	3125.1
3322.574	3109.1
3325.597	3073.1
3328.617	3043.1
3331.635	3023.1
3334.65	3006.1
3337.663	3004.1
3340.674	2993.1
3343.682	2967.1
3346.688	2942.1
3349.691	2928.1
3352.692	2929.1
3355.691	2879.1
3358.687	2899.1
3361.681	2835.1
3364.673	2800.1
3367.662	2755.1
3370.649	2724.1
3373.633	2683.1
3376.615	2627.1
3379.595	2603.1
3382.572	2576.1
3385.547	2537.1
3388.52	2471.1
3391.49	2448.1
3394.458	2404.1
3397.424	2401.1
3400.387	2367.1
3403.348	2330.1
3406.307	2299.1
3409.263	2293.1
3412.217	2250.1
3415.168	2247.1
3418.118	2203.1
3421.065	2166.1
3424.009	2128.1
3426.951	2109.1
3429.891	2074.1
3432.829	2010.1
3435.764	1986.1
3438.697	1933.1
3441.628	1861.1
3444.557	1839.1
3447.483	1742.1
3450.407	1718.1
3453.328	1648.1
3456.247	1627.1
3459.164	1560.1
3462.079	1489.1
3464.991	1444.1
3467.902	1374.1
3470.809	1343.1
3473.715	1274.1
3476.618	1247.1
3479.519	1220.1
3482.418	1180.1
3485.315	1116.1
3488.209	1091.1
3491.101	1030.1
3493.99	1001.1
3496.878	949.1
3499.763	933.1
3502.646	902.1
3505.527	860.1
3508.405	818.1
3511.281	764.1
3514.155	717.1
3517.027	691.1
3519.897	645.1
3522.764	613.1
3525.629	565.1
3528.492	501.1
3531.352	482.1
3534.211	431.1
3537.067	384.1
3539.921	363.1
3542.773	309.1
3545.622	284.1
3548.469	251.1
3551.315	210.1
3554.157	191.1
3556.998	148.1
3559.837	132.1
3562.673	103.1
3565.507	78.1
3568.339	63.1
3571.169	28.1
3573.996	22.1
3576.822	-6.9
3579.645	-21.9
3582.466	-48.9
3585.285	-78.9
3588.101	-99.9
3590.916	-111.9
3593.728	-137.9
3596.538	-153.9
3599.346	-173.9
3602.152	-191.9
3604.956	-206.9
3607.757	-228.9
3610.556	-247.9
3613.354	-253.9
3616.149	-267.9
3618.942	-291.9
3621.732	-292.9
3624.521	-308.9
3627.307	-320.9
3630.092	-323.9
3632.874	-340.9
3635.654	-347.9
3638.432	-358.9
3641.208	-365.9
3643.982	-377.9
3646.753	-380.9
3649.523	-399.9
3652.29	-415.9
3655.055	-413.9
3657.818	-431.9
3660.579	-442.9
3663.338	-455.9
3666.095	-463.9
3668.849	-467.9
3671.602	-484.9
3674.352	-482.9
3677.101	-490.9
3679.847	-493.9
3682.591	-510.9
3685.333	-513.9
3688.073	-519.9
3690.811	-531.9
3693.547	-532.9
3696.281	-538.9
3699.013	-539.9
3701.742	-552.9
3704.47	-551.9
3707.195	-553.9
3709.919	-559.9
3712.64	-571.9
3715.359	-566.9
3718.076	-572.9
3720.792	-581.9
3723.505	-577.9
3726.216	-592.9
3728.925	-587.9
3731.632	-592.9
3734.336	-592.9
3737.039	-598.9
3739.74	-594.9
3742.439	-599.9
3745.136	-602.9
3747.83	-610.9
3750.523	-605.9
3753.213	-600.9
3755.902	-616.9
3758.589	-615.9
3761.273	-614.9
3763.956	-623.9
3766.636	-620.9
3769.315	-628.9
3771.991	-625.9
3774.665	-627.9
3777.338	-622.9
3780.008	-630.9
3782.677	-629.9
3785.343	-627.9
3788.007	-630.9
3790.67	-634.9
3793.33	-640.9
3795.989	-638.9
3798.645	-637.9
3801.299	-637.9
3803.952	-645.9
3806.602	-650.9
3809.251	-649.9
3811.897	-641.9
3814.542	-649.9
3817.184	-636.9
3819.825	-648.9
3822.463	-642.9
3825.1	-650.9
3827.735	-644.9
3830.367	-651.9
3832.998	-653.9
3835.627	-654.9
3838.253	-655.9
3840.878	-658.9
3843.501	-651.9
3846.122	-653.9
3848.741	-650.9
3851.358	-653.9
3853.973	-661.9
3856.586	-663.9
3859.197	-663.9
3861.806	-662.9
3864.414	-652.9
3867.019	-662.9
3869.622	-657.9
3872.224	-654.9
3874.823	-636.9
3877.421	-622.9
3880.016	-612.9
3882.61	-591.9
3885.202	-592.9
3887.792	-608.9
3890.38	-631.9
3892.966	-655.9
3895.55	-658.9
3898.132	-676.9
3900.713	-672.9
3903.291	-664.9
3905.868	-664.9
3908.442	-669.9
3911.015	-669.9
3913.586	-666.9
3916.155	-668.9
3918.722	-676.9
3921.287	-669.9
3923.85	-679.9
3926.411	-673.9
3928.971	-677.9
3931.528	-674.9
3934.084	-674.9
3936.638	-670.9
3939.19	-673.9
3941.74	-674.9
3944.288	-673.9
3946.834	-669.9
3949.378	-678.9
3951.921	-672.9
3954.462	-685.9
3957	-675.9
3959.537	-676.9
3962.072	-671.9
3964.606	-669.9
3967.137	-670.9
3969.667	-677.9
3972.194	-667.9
3974.72	-669.9
3977.244	-661.9
3979.766	-662.9
3982.286	-665.9
3984.805	-659.9
3987.321	-664.9
3989.836	-668.9
3992.349	-655.9
3994.86	-655.9
3997.369	-662.9
3999.877	-655.9
4002.382	-659.9
4004.886	-658.9
4007.388	-656.9
4009.888	-655.9
4012.386	-661.9
4014.883	-658.9
4017.377	-659.9
4019.87	-658.9
4022.361	-659.9
4024.85	-663.9
4027.338	-660.9
4029.823	-664.9
4032.307	-664.9
4034.789	-658.9
4037.269	-657.9
4039.747	-661.9
4042.224	-663.9
4044.699	-663.9
4047.172	-661.9
4049.643	-658.9
4052.112	-662.9
4054.58	-665.9
4057.046	-663.9
4059.51	-665.9
4061.972	-666.9
4064.432	-664.9
4066.891	-655.9
4069.348	-660.9
4071.803	-658.9
4074.256	-663.9
4076.708	-659.9
4079.158	-660.9
4081.606	-661.9
4084.052	-667.9
4086.497	-663.9
4088.939	-666.9
4091.38	-658.9
4093.819	-656.9
4096.257	-693.9
4098.693	-697.9
4101.127	-696.9
4103.559	-697.9
4105.989	-401.9
4108.418	-383.9
4110.845	-363.9
4113.27	-334.9
4115.694	-295.9
4118.115	-230.9
4120.535	-657.9
4122.954	-668.9
4125.37	-653.9
4127.785	-659.9
4130.198	-668.9
4132.609	-665.9
4135.019	-703.9
4137.427	-703.9
4139.833	-702.9
4142.237	-696.9
