Data from 2018-2-14_conc=4_n=5_RamanShift_05.txt Node
Date: Wed Feb 14 13:42:25 IST 2018
User: aro
Spectrometer: QEPB0276
Trigger mode: 0
Integration Time (sec): 3.000000E1
Scans to average: 1
Electric dark correction enabled: true
Nonlinearity correction enabled: false
Boxcar width: 0
XAxis mode: Raman Shifts
Number of Pixels in Spectrum: 1044
>>>>>Begin Spectral Data<<<<<
160.701	-144.8
166.742	42.2
172.777	646.2
178.805	2366.2
184.826	6634.2
190.841	13887.2
196.849	22304.2
202.85	28220.2
208.845	30134.2
214.833	29866.2
220.815	29454.2
226.789	29286.2
232.758	29180.2
238.719	29067.2
244.674	28731.2
250.623	28144.2
256.565	27763.2
262.5	27136.2
268.429	26700.2
274.351	26325.2
280.267	26051.2
286.176	25847.2
292.079	25623.2
297.975	25326.2
303.865	25146.2
309.748	25016.2
315.625	24869.2
321.495	24706.2
327.359	24725.2
333.217	24598.2
339.068	24557.2
344.912	24598.2
350.751	24593.2
356.583	24434.2
362.408	24570.2
368.227	24538.2
374.04	24564.2
379.847	24631.2
385.647	24744.2
391.44	24761.2
397.228	24905.2
403.009	24997.2
408.784	25081.2
414.553	25135.2
420.315	25246.2
426.071	25198.2
431.821	25135.2
437.565	25132.2
443.302	25081.2
449.033	25070.2
454.758	25087.2
460.477	24994.2
466.189	24944.2
471.896	24862.2
477.596	24869.2
483.29	24763.2
488.978	24797.2
494.66	24624.2
500.335	24483.2
506.005	24283.2
511.668	23997.2
517.325	23769.2
522.977	23575.2
528.622	23416.2
534.261	23225.2
539.894	23230.2
545.521	23080.2
551.141	22967.2
556.756	22923.2
562.365	22825.2
567.968	22762.2
573.565	22731.2
579.155	22608.2
584.74	22446.2
590.319	22488.2
595.892	22332.2
601.459	22310.2
607.02	22211.2
612.575	22029.2
618.124	21954.2
623.667	21867.2
629.204	21718.2
634.735	21611.2
640.261	21563.2
645.781	21505.2
651.294	21443.2
656.802	21391.2
662.304	21332.2
667.8	21321.2
673.29	21324.2
678.775	21259.2
684.254	21216.2
689.726	21119.2
695.193	21018.2
700.655	20906.2
706.11	20870.2
711.56	20766.2
717.004	20660.2
722.442	20523.2
727.874	20451.2
733.301	20432.2
738.722	20366.2
744.137	20359.2
749.547	20301.2
754.951	20327.2
760.349	20333.2
765.741	20349.2
771.128	20340.2
776.509	20337.2
781.885	20412.2
787.254	20285.2
792.618	20199.2
797.977	20065.2
803.33	20019.2
808.677	19898.2
814.019	19801.2
819.355	19615.2
824.686	19639.2
830.011	19534.2
835.33	19529.2
840.644	19547.2
845.952	19541.2
851.255	19663.2
856.552	19666.2
861.844	19605.2
867.13	19624.2
872.41	19501.2
877.686	19372.2
882.955	19250.2
888.219	19092.2
893.478	18850.2
898.731	18698.2
903.979	18488.2
909.221	18366.2
914.458	18372.2
919.69	18279.2
924.916	18355.2
930.136	18383.2
935.351	18419.2
940.561	18443.2
945.766	18400.2
950.965	18393.2
956.158	18211.2
961.347	18078.2
966.529	17813.2
971.707	17607.2
976.879	17415.2
982.046	17237.2
987.208	17169.2
992.364	17227.2
997.515	17335.2
1002.66	17418.2
1007.801	17628.2
1012.936	17764.2
1018.066	17784.2
1023.19	17730.2
1028.309	17780.2
1033.423	17713.2
1038.532	17656.2
1043.636	17463.2
1048.734	17304.2
1053.827	17118.2
1058.915	16931.2
1063.998	16806.2
1069.075	16720.2
1074.147	16765.2
1079.214	16845.2
1084.276	16941.2
1089.333	17012.2
1094.385	17038.2
1099.431	17114.2
1104.472	17169.2
1109.509	17065.2
1114.54	16898.2
1119.565	16698.2
1124.586	16446.2
1129.602	16325.2
1134.613	16193.2
1139.618	16132.2
1144.619	16104.2
1149.614	16046.2
1154.604	16131.2
1159.589	16130.2
1164.57	16128.2
1169.545	16191.2
1174.515	16181.2
1179.48	16099.2
1184.44	15958.2
1189.395	15847.2
1194.345	15821.2
1199.29	15644.2
1204.23	15718.2
1209.165	15714.2
1214.095	15884.2
1219.021	15886.2
1223.941	16018.2
1228.856	16113.2
1233.766	16112.2
1238.672	16117.2
1243.572	16142.2
1248.467	16051.2
1253.358	15867.2
1258.244	15642.2
1263.124	15359.2
1268	15195.2
1272.871	15000.2
1277.737	14872.2
1282.599	14833.2
1287.455	14795.2
1292.306	14854.2
1297.153	14898.2
1301.995	15008.2
1306.832	15027.2
1311.664	15012.2
1316.491	14946.2
1321.314	14830.2
1326.132	14600.2
1330.945	14308.2
1335.753	13891.2
1340.556	13559.2
1345.354	13252.2
1350.148	13010.2
1354.937	12965.2
1359.722	12980.2
1364.501	13124.2
1369.276	13406.2
1374.046	13653.2
1378.811	13902.2
1383.572	14071.2
1388.327	14038.2
1393.079	13997.2
1397.825	13779.2
1402.567	13515.2
1407.304	13313.2
1412.036	13187.2
1416.764	13055.2
1421.487	12999.2
1426.205	12889.2
1430.919	12861.2
1435.628	12811.2
1440.333	12888.2
1445.032	12842.2
1449.727	12925.2
1454.418	12900.2
1459.104	12712.2
1463.785	12510.2
1468.462	12238.2
1473.134	11996.2
1477.802	11752.2
1482.465	11623.2
1487.123	11499.2
1491.777	11470.2
1496.426	11558.2
1501.071	11721.2
1505.711	11920.2
1510.347	12233.2
1514.978	12420.2
1519.604	12613.2
1524.226	12722.2
1528.844	12763.2
1533.457	12731.2
1538.065	12648.2
1542.669	12564.2
1547.269	12429.2
1551.864	12339.2
1556.454	12304.2
1561.041	12237.2
1565.622	12215.2
1570.199	12260.2
1574.772	12290.2
1579.34	12388.2
1583.904	12445.2
1588.464	12380.2
1593.019	12404.2
1597.569	12311.2
1602.115	12307.2
1606.657	12204.2
1611.195	12080.2
1615.728	12020.2
1620.256	11920.2
1624.78	11887.2
1629.3	11897.2
1633.816	11931.2
1638.327	12006.2
1642.834	12049.2
1647.336	12144.2
1651.834	12108.2
1656.328	12101.2
1660.817	12090.2
1665.302	11968.2
1669.783	11754.2
1674.259	11527.2
1678.732	11234.2
1683.199	10766.2
1687.663	10418.2
1692.122	10121.2
1696.577	10008.2
1701.028	10103.2
1705.474	10301.2
1709.917	10506.2
1714.355	10516.2
1718.788	10420.2
1723.218	10239.2
1727.643	10036.2
1732.064	9837.2
1736.481	9618.2
1740.893	9412.2
1745.301	9148.2
1749.705	8917.2
1754.105	8648.2
1758.501	8388.2
1762.893	8146.2
1767.28	7955.2
1771.663	7742.2
1776.042	7623.2
1780.417	7564.2
1784.787	7576.2
1789.154	7717.2
1793.516	7906.2
1797.874	8191.2
1802.228	8298.2
1806.578	8411.2
1810.924	8405.2
1815.266	8297.2
1819.603	8173.2
1823.937	8040.2
1828.266	7875.2
1832.591	7729.2
1836.913	7623.2
1841.23	7558.2
1845.543	7487.2
1849.852	7479.2
1854.156	7406.2
1858.457	7387.2
1862.754	7376.2
1867.047	7378.2
1871.335	7359.2
1875.62	7325.2
1879.9	7331.2
1884.177	7277.2
1888.449	7214.2
1892.718	7147.2
1896.982	7079.2
1901.243	7000.2
1905.499	6926.2
1909.752	6942.2
1914	6951.2
1918.245	7021.2
1922.485	7033.2
1926.722	7157.2
1930.954	7219.2
1935.183	7350.2
1939.408	7410.2
1943.628	7475.2
1947.845	7504.2
1952.058	7467.2
1956.267	7424.2
1960.472	7296.2
1964.673	7188.2
1968.87	7058.2
1973.063	6999.2
1977.252	6841.2
1981.438	6797.2
1985.619	6721.2
1989.797	6671.2
1993.971	6594.2
1998.14	6555.2
2002.306	6505.2
2006.469	6503.2
2010.627	6459.2
2014.781	6399.2
2018.932	6394.2
2023.078	6288.2
2027.221	6149.2
2031.36	6072.2
2035.495	6050.2
2039.627	5924.2
2043.754	5842.2
2047.878	5781.2
2051.998	5787.2
2056.114	5758.2
2060.226	5754.2
2064.334	5753.2
2068.439	5788.2
2072.54	5829.2
2076.637	5868.2
2080.73	5934.2
2084.82	5963.2
2088.906	5970.2
2092.988	5968.2
2097.066	5980.2
2101.14	5973.2
2105.211	5897.2
2109.278	5887.2
2113.342	5825.2
2117.401	5811.2
2121.457	5754.2
2125.509	5694.2
2129.558	5702.2
2133.602	5655.2
2137.643	5643.2
2141.681	5559.2
2145.714	5589.2
2149.744	5494.2
2153.77	5465.2
2157.793	5418.2
2161.812	5333.2
2165.827	5299.2
2169.838	5168.2
2173.846	5107.2
2177.851	5015.2
2181.851	4943.2
2185.848	4907.2
2189.841	4827.2
2193.831	4761.2
2197.817	4713.2
2201.799	4690.2
2205.778	4684.2
2209.753	4668.2
2213.725	4690.2
2217.693	4606.2
2221.657	4649.2
2225.618	4621.2
2229.575	4593.2
2233.529	4531.2
2237.479	4515.2
2241.425	4480.2
2245.368	4421.2
2249.307	4355.2
2253.243	4312.2
2257.175	4246.2
2261.104	4156.2
2265.029	4120.2
2268.95	4103.2
2272.868	4065.2
2276.783	4021.2
2280.694	3951.2
2284.601	3963.2
2288.505	3919.2
2292.405	3877.2
2296.302	3833.2
2300.195	3779.2
2304.085	3713.2
2307.971	3678.2
2311.854	3627.2
2315.734	3589.2
2319.609	3530.2
2323.482	3474.2
2327.351	3422.2
2331.216	3415.2
2335.078	3435.2
2338.937	3384.2
2342.792	3358.2
2346.643	3362.2
2350.492	3333.2
2354.336	3347.2
2358.178	3364.2
2362.015	3369.2
2365.85	3376.2
2369.681	3355.2
2373.508	3385.2
2377.333	3371.2
2381.153	3343.2
2384.971	3339.2
2388.785	3291.2
2392.595	3265.2
2396.402	3243.2
2400.206	3196.2
2404.007	3190.2
2407.804	3158.2
2411.597	3154.2
2415.388	3129.2
2419.174	3113.2
2422.958	3090.2
2426.738	3056.2
2430.515	3046.2
2434.289	3029.2
2438.059	3002.2
2441.825	2960.2
2445.589	2950.2
2449.349	2882.2
2453.106	2886.2
2456.859	2844.2
2460.61	2821.2
2464.356	2786.2
2468.1	2721.2
2471.84	2710.2
2475.577	2689.2
2479.311	2690.2
2483.041	2685.2
2486.768	2643.2
2490.492	2648.2
2494.213	2634.2
2497.93	2641.2
2501.644	2624.2
2505.355	2574.2
2509.062	2590.2
2512.766	2579.2
2516.467	2550.2
2520.165	2566.2
2523.859	2534.2
2527.551	2545.2
2531.239	2500.2
2534.923	2493.2
2538.605	2473.2
2542.283	2473.2
2545.958	2469.2
2549.63	2477.2
2553.299	2471.2
2556.964	2470.2
2560.626	2445.2
2564.285	2454.2
2567.941	2443.2
2571.594	2418.2
2575.243	2404.2
2578.89	2390.2
2582.533	2377.2
2586.173	2341.2
2589.809	2344.2
2593.443	2336.2
2597.073	2294.2
2600.701	2268.2
2604.325	2278.2
2607.946	2264.2
2611.564	2253.2
2615.178	2220.2
2618.79	2220.2
2622.398	2197.2
2626.004	2182.2
2629.606	2118.2
2633.205	2119.2
2636.801	2068.2
2640.394	2062.2
2643.983	2032.2
2647.57	1995.2
2651.153	1952.2
2654.734	1945.2
2658.311	1917.2
2661.885	1857.2
2665.456	1834.2
2669.025	1841.2
2672.589	1802.2
2676.151	1775.2
2679.71	1765.2
2683.266	1747.2
2686.819	1699.2
2690.368	1690.2
2693.915	1656.2
2697.458	1606.2
2700.999	1562.2
2704.536	1541.2
2708.071	1523.2
2711.602	1475.2
2715.13	1462.2
2718.656	1421.2
2722.178	1387.2
2725.697	1357.2
2729.214	1348.2
2732.727	1352.2
2736.237	1337.2
2739.744	1331.2
2743.249	1344.2
2746.75	1375.2
2750.248	1380.2
2753.743	1388.2
2757.236	1437.2
2760.725	1439.2
2764.211	1457.2
2767.695	1444.2
2771.175	1442.2
2774.652	1432.2
2778.127	1451.2
2781.598	1417.2
2785.067	1398.2
2788.532	1404.2
2791.995	1372.2
2795.455	1376.2
2798.911	1393.2
2802.365	1389.2
2805.816	1380.2
2809.264	1371.2
2812.709	1367.2
2816.151	1356.2
2819.59	1370.2
2823.026	1359.2
2826.46	1371.2
2829.89	1349.2
2833.318	1357.2
2836.742	1371.2
2840.164	1379.2
2843.583	1407.2
2846.999	1400.2
2850.412	1402.2
2853.822	1404.2
2857.229	1431.2
2860.634	1463.2
2864.035	1454.2
2867.434	1472.2
2870.83	1510.2
2874.223	1551.2
2877.613	1546.2
2881	1553.2
2884.385	1563.2
2887.766	1544.2
2891.145	1543.2
2894.521	1530.2
2897.894	1531.2
2901.264	1517.2
2904.631	1529.2
2907.996	1535.2
2911.358	1528.2
2914.717	1522.2
2918.073	1556.2
2921.426	1548.2
2924.777	1570.2
2928.124	1578.2
2931.469	1590.2
2934.811	1633.2
2938.15	1665.2
2941.487	1661.2
2944.821	1644.2
2948.152	1632.2
2951.48	1637.2
2954.805	1619.2
2958.128	1603.2
2961.447	1594.2
2964.765	1576.2
2968.079	1602.2
2971.39	1624.2
2974.699	1641.2
2978.005	1626.2
2981.308	1665.2
2984.609	1698.2
2987.907	1729.2
2991.202	1769.2
2994.494	1827.2
2997.784	1836.2
3001.07	1855.2
3004.355	1894.2
3007.636	1902.2
3010.915	1934.2
3014.191	1927.2
3017.464	1951.2
3020.734	1963.2
3024.002	1977.2
3027.267	1968.2
3030.53	1977.2
3033.789	2014.2
3037.046	2035.2
3040.301	2047.2
3043.552	2096.2
3046.801	2128.2
3050.048	2177.2
3053.291	2196.2
3056.532	2264.2
3059.771	2344.2
3063.006	2387.2
3066.239	2460.2
3069.469	2510.2
3072.697	2561.2
3075.922	2643.2
3079.144	2686.2
3082.364	2751.2
3085.581	2797.2
3088.795	2849.2
3092.007	2918.2
3095.216	2967.2
3098.423	3015.2
3101.627	3092.2
3104.828	3179.2
3108.026	3228.2
3111.222	3307.2
3114.416	3349.2
3117.607	3416.2
3120.795	3497.2
3123.98	3578.2
3127.163	3688.2
3130.344	3772.2
3133.521	3839.2
3136.696	3931.2
3139.869	4003.2
3143.039	4071.2
3146.206	4116.2
3149.371	4163.2
3152.533	4197.2
3155.693	4225.2
3158.85	4270.2
3162.005	4294.2
3165.157	4282.2
3168.306	4284.2
3171.453	4290.2
3174.597	4293.2
3177.739	4338.2
3180.878	4317.2
3184.014	4316.2
3187.149	4314.2
3190.28	4354.2
3193.409	4350.2
3196.536	4359.2
3199.659	4364.2
3202.781	4367.2
3205.9	4347.2
3209.016	4376.2
3212.13	4358.2
3215.241	4331.2
3218.35	4288.2
3221.456	4226.2
3224.56	4174.2
3227.661	4134.2
3230.76	4109.2
3233.856	4056.2
3236.95	4033.2
3240.041	3993.2
3243.13	3949.2
3246.216	3929.2
3249.3	3914.2
3252.382	3915.2
3255.46	3879.2
3258.537	3829.2
3261.611	3899.2
3264.682	3853.2
3267.751	3858.2
3270.818	3838.2
3273.882	3857.2
3276.943	3832.2
3280.002	3815.2
3283.059	3772.2
3286.113	3740.2
3289.165	3655.2
3292.214	3625.2
3295.261	3527.2
3298.306	3500.2
3301.348	3459.2
3304.387	3388.2
3307.425	3318.2
3310.459	3273.2
3313.492	3242.2
3316.521	3164.2
3319.549	3145.2
3322.574	3124.2
3325.597	3070.2
3328.617	3065.2
3331.635	3050.2
3334.65	3029.2
3337.663	2992.2
3340.674	2991.2
3343.682	2982.2
3346.688	2964.2
3349.691	2956.2
3352.692	2906.2
3355.691	2905.2
3358.687	2930.2
3361.681	2858.2
3364.673	2793.2
3367.662	2749.2
3370.649	2731.2
3373.633	2688.2
3376.615	2653.2
3379.595	2617.2
3382.572	2571.2
3385.547	2554.2
3388.52	2514.2
3391.49	2455.2
3394.458	2442.2
3397.424	2394.2
3400.387	2381.2
3403.348	2328.2
3406.307	2330.2
3409.263	2280.2
3412.217	2257.2
3415.168	2239.2
3418.118	2202.2
3421.065	2183.2
3424.009	2136.2
3426.951	2132.2
3429.891	2074.2
3432.829	2025.2
3435.764	1993.2
3438.697	1944.2
3441.628	1882.2
3444.557	1836.2
3447.483	1778.2
3450.407	1725.2
3453.328	1665.2
3456.247	1614.2
3459.164	1546.2
3462.079	1499.2
3464.991	1431.2
3467.902	1367.2
3470.809	1334.2
3473.715	1276.2
3476.618	1237.2
3479.519	1195.2
3482.418	1149.2
3485.315	1113.2
3488.209	1092.2
3491.101	1057.2
3493.99	1000.2
3496.878	968.2
3499.763	934.2
3502.646	892.2
3505.527	850.2
3508.405	797.2
3511.281	769.2
3514.155	718.2
3517.027	676.2
3519.897	646.2
3522.764	608.2
3525.629	541.2
3528.492	511.2
3531.352	457.2
3534.211	421.2
3537.067	385.2
3539.921	348.2
3542.773	308.2
3545.622	272.2
3548.469	236.2
3551.315	214.2
3554.157	197.2
3556.998	139.2
3559.837	125.2
3562.673	90.2
3565.507	70.2
3568.339	41.2
3571.169	34.2
3573.996	6.2
3576.822	-6.8
3579.645	-41.8
3582.466	-58.8
3585.285	-80.8
3588.101	-98.8
3590.916	-126.8
3593.728	-147.8
3596.538	-167.8
3599.346	-186.8
3602.152	-206.8
3604.956	-224.8
3607.757	-247.8
3610.556	-256.8
3613.354	-271.8
3616.149	-299.8
3618.942	-289.8
3621.732	-310.8
3624.521	-323.8
3627.307	-326.8
3630.092	-343.8
3632.874	-351.8
3635.654	-362.8
3638.432	-370.8
3641.208	-383.8
3643.982	-396.8
3646.753	-402.8
3649.523	-406.8
3652.29	-423.8
3655.055	-424.8
3657.818	-445.8
3660.579	-454.8
3663.338	-478.8
3666.095	-482.8
3668.849	-482.8
3671.602	-499.8
3674.352	-504.8
3677.101	-510.8
3679.847	-529.8
3682.591	-527.8
3685.333	-541.8
3688.073	-544.8
3690.811	-552.8
3693.547	-546.8
3696.281	-552.8
3699.013	-564.8
3701.742	-566.8
3704.47	-567.8
3707.195	-584.8
3709.919	-581.8
3712.64	-584.8
3715.359	-587.8
3718.076	-591.8
3720.792	-594.8
3723.505	-595.8
3726.216	-609.8
3728.925	-601.8
3731.632	-611.8
3734.336	-609.8
3737.039	-618.8
3739.74	-612.8
3742.439	-617.8
3745.136	-623.8
3747.83	-630.8
3750.523	-631.8
3753.213	-620.8
3755.902	-639.8
3758.589	-635.8
3761.273	-640.8
3763.956	-644.8
3766.636	-642.8
3769.315	-647.8
3771.991	-649.8
3774.665	-648.8
3777.338	-649.8
3780.008	-656.8
3782.677	-647.8
3785.343	-652.8
3788.007	-643.8
3790.67	-657.8
3793.33	-659.8
3795.989	-660.8
3798.645	-655.8
3801.299	-661.8
3803.952	-667.8
3806.602	-673.8
3809.251	-671.8
3811.897	-669.8
3814.542	-663.8
3817.184	-662.8
3819.825	-661.8
3822.463	-670.8
3825.1	-674.8
3827.735	-670.8
3830.367	-671.8
3832.998	-680.8
3835.627	-682.8
3838.253	-678.8
3840.878	-678.8
3843.501	-680.8
3846.122	-675.8
3848.741	-675.8
3851.358	-671.8
3853.973	-678.8
3856.586	-682.8
3859.197	-683.8
3861.806	-684.8
3864.414	-679.8
3867.019	-680.8
3869.622	-684.8
3872.224	-684.8
3874.823	-658.8
3877.421	-648.8
3880.016	-638.8
3882.61	-615.8
3885.202	-614.8
3887.792	-629.8
3890.38	-655.8
3892.966	-676.8
3895.55	-687.8
3898.132	-702.8
3900.713	-700.8
3903.291	-691.8
3905.868	-698.8
3908.442	-695.8
3911.015	-700.8
3913.586	-690.8
3916.155	-695.8
3918.722	-695.8
3921.287	-695.8
3923.85	-697.8
3926.411	-699.8
3928.971	-708.8
3931.528	-699.8
3934.084	-703.8
3936.638	-696.8
3939.19	-700.8
3941.74	-702.8
3944.288	-701.8
3946.834	-698.8
3949.378	-706.8
3951.921	-704.8
3954.462	-706.8
3957	-699.8
3959.537	-706.8
3962.072	-696.8
3964.606	-703.8
3967.137	-701.8
3969.667	-707.8
3972.194	-696.8
3974.72	-699.8
3977.244	-688.8
3979.766	-686.8
3982.286	-687.8
3984.805	-686.8
3987.321	-688.8
3989.836	-688.8
3992.349	-685.8
3994.86	-684.8
3997.369	-689.8
3999.877	-684.8
4002.382	-686.8
4004.886	-680.8
4007.388	-682.8
4009.888	-682.8
4012.386	-683.8
4014.883	-680.8
4017.377	-683.8
4019.87	-687.8
4022.361	-685.8
4024.85	-683.8
4027.338	-685.8
4029.823	-692.8
4032.307	-694.8
4034.789	-690.8
4037.269	-686.8
4039.747	-688.8
4042.224	-693.8
4044.699	-695.8
4047.172	-687.8
4049.643	-682.8
4052.112	-691.8
4054.58	-690.8
4057.046	-688.8
4059.51	-687.8
4061.972	-689.8
4064.432	-694.8
4066.891	-688.8
4069.348	-682.8
4071.803	-684.8
4074.256	-689.8
4076.708	-685.8
4079.158	-693.8
4081.606	-693.8
4084.052	-692.8
4086.497	-690.8
4088.939	-686.8
4091.38	-691.8
4093.819	-683.8
4096.257	-721.8
4098.693	-722.8
4101.127	-730.8
4103.559	-723.8
4105.989	-418.8
4108.418	-389.8
4110.845	-374.8
4113.27	-337.8
4115.694	-291.8
4118.115	-245.8
4120.535	-685.8
4122.954	-686.8
4125.37	-679.8
4127.785	-688.8
4130.198	-690.8
4132.609	-690.8
4135.019	-729.8
4137.427	-726.8
4139.833	-728.8
4142.237	-724.8
