Data from 2018-2-14_conc=4_n=2_RamanShift_03.txt Node
Date: Wed Feb 14 13:29:25 IST 2018
User: aro
Spectrometer: QEPB0276
Trigger mode: 0
Integration Time (sec): 3.000000E1
Scans to average: 1
Electric dark correction enabled: true
Nonlinearity correction enabled: false
Boxcar width: 0
XAxis mode: Raman Shifts
Number of Pixels in Spectrum: 1044
>>>>>Begin Spectral Data<<<<<
160.701	-156.8
166.742	32.2
172.777	618.2
178.805	2328.2
184.826	6481.2
190.841	13502.2
196.849	21516.2
202.85	27142.2
208.845	28908.2
214.833	28578.2
220.815	28106.2
226.789	27953.2
232.758	27836.2
238.719	27623.2
244.674	27334.2
250.623	26899.2
256.565	26355.2
262.5	25739.2
268.429	25324.2
274.351	24879.2
280.267	24580.2
286.176	24347.2
292.079	24125.2
297.975	23890.2
303.865	23743.2
309.748	23555.2
315.625	23369.2
321.495	23258.2
327.359	23173.2
333.217	23131.2
339.068	23114.2
344.912	23072.2
350.751	23009.2
356.583	23074.2
362.408	23023.2
368.227	22971.2
374.04	22985.2
379.847	23102.2
385.647	23168.2
391.44	23257.2
397.228	23384.2
403.009	23516.2
408.784	23503.2
414.553	23612.2
420.315	23650.2
426.071	23692.2
431.821	23661.2
437.565	23638.2
443.302	23575.2
449.033	23549.2
454.758	23529.2
460.477	23435.2
466.189	23392.2
471.896	23362.2
477.596	23264.2
483.29	23249.2
488.978	23199.2
494.66	23176.2
500.335	23041.2
506.005	22784.2
511.668	22555.2
517.325	22306.2
522.977	22128.2
528.622	21960.2
534.261	21836.2
539.894	21697.2
545.521	21598.2
551.141	21575.2
556.756	21499.2
562.365	21450.2
567.968	21381.2
573.565	21252.2
579.155	21161.2
584.74	21140.2
590.319	21012.2
595.892	20959.2
601.459	20830.2
607.02	20763.2
612.575	20655.2
618.124	20528.2
623.667	20440.2
629.204	20354.2
634.735	20226.2
640.261	20145.2
645.781	20070.2
651.294	20068.2
656.802	20066.2
662.304	20003.2
667.8	20018.2
673.29	19952.2
678.775	19881.2
684.254	19868.2
689.726	19806.2
695.193	19697.2
700.655	19647.2
706.11	19510.2
711.56	19451.2
717.004	19295.2
722.442	19245.2
727.874	19175.2
733.301	19080.2
738.722	19052.2
744.137	19024.2
749.547	19059.2
754.951	19021.2
760.349	19039.2
765.741	18982.2
771.128	19023.2
776.509	19052.2
781.885	19052.2
787.254	19004.2
792.618	18933.2
797.977	18782.2
803.33	18707.2
808.677	18640.2
814.019	18469.2
819.355	18393.2
824.686	18271.2
830.011	18296.2
835.33	18224.2
840.644	18265.2
845.952	18309.2
851.255	18311.2
856.552	18359.2
861.844	18336.2
867.13	18318.2
872.41	18205.2
877.686	18136.2
882.955	18035.2
888.219	17858.2
893.478	17657.2
898.731	17421.2
903.979	17280.2
909.221	17116.2
914.458	17073.2
919.69	17077.2
924.916	17109.2
930.136	17116.2
935.351	17240.2
940.561	17196.2
945.766	17201.2
950.965	17071.2
956.158	16965.2
961.347	16806.2
966.529	16584.2
971.707	16396.2
976.879	16186.2
982.046	16050.2
987.208	16040.2
992.364	16015.2
997.515	16117.2
1002.66	16289.2
1007.801	16412.2
1012.936	16520.2
1018.066	16570.2
1023.19	16612.2
1028.309	16512.2
1033.423	16554.2
1038.532	16375.2
1043.636	16242.2
1048.734	16062.2
1053.827	15854.2
1058.915	15713.2
1063.998	15698.2
1069.075	15591.2
1074.147	15559.2
1079.214	15700.2
1084.276	15774.2
1089.333	15865.2
1094.385	15903.2
1099.431	15945.2
1104.472	15954.2
1109.509	15877.2
1114.54	15650.2
1119.565	15514.2
1124.586	15316.2
1129.602	15152.2
1134.613	14983.2
1139.618	14973.2
1144.619	14908.2
1149.614	14915.2
1154.604	14945.2
1159.589	14988.2
1164.57	15037.2
1169.545	15076.2
1174.515	15033.2
1179.48	14981.2
1184.44	14865.2
1189.395	14714.2
1194.345	14644.2
1199.29	14569.2
1204.23	14574.2
1209.165	14601.2
1214.095	14705.2
1219.021	14762.2
1223.941	14853.2
1228.856	14944.2
1233.766	14972.2
1238.672	15018.2
1243.572	14975.2
1248.467	14863.2
1253.358	14692.2
1258.244	14544.2
1263.124	14331.2
1268	14064.2
1272.871	13979.2
1277.737	13781.2
1282.599	13735.2
1287.455	13734.2
1292.306	13799.2
1297.153	13846.2
1301.995	13935.2
1306.832	13947.2
1311.664	13971.2
1316.491	13929.2
1321.314	13813.2
1326.132	13645.2
1330.945	13289.2
1335.753	12991.2
1340.556	12641.2
1345.354	12373.2
1350.148	12162.2
1354.937	12084.2
1359.722	12071.2
1364.501	12150.2
1369.276	12302.2
1374.046	12546.2
1378.811	12729.2
1383.572	12860.2
1388.327	12960.2
1393.079	12905.2
1397.825	12680.2
1402.567	12483.2
1407.304	12319.2
1412.036	12171.2
1416.764	12129.2
1421.487	11994.2
1426.205	11913.2
1430.919	11875.2
1435.628	11926.2
1440.333	11889.2
1445.032	11979.2
1449.727	11999.2
1454.418	11948.2
1459.104	11845.2
1463.785	11609.2
1468.462	11365.2
1473.134	11113.2
1477.802	10913.2
1482.465	10709.2
1487.123	10616.2
1491.777	10611.2
1496.426	10654.2
1501.071	10826.2
1505.711	10979.2
1510.347	11190.2
1514.978	11448.2
1519.604	11585.2
1524.226	11659.2
1528.844	11743.2
1533.457	11700.2
1538.065	11641.2
1542.669	11563.2
1547.269	11424.2
1551.864	11357.2
1556.454	11292.2
1561.041	11270.2
1565.622	11280.2
1570.199	11295.2
1574.772	11352.2
1579.34	11398.2
1583.904	11443.2
1588.464	11479.2
1593.019	11509.2
1597.569	11465.2
1602.115	11372.2
1606.657	11261.2
1611.195	11234.2
1615.728	11182.2
1620.256	11087.2
1624.78	11084.2
1629.3	11124.2
1633.816	11146.2
1638.327	11180.2
1642.834	11257.2
1647.336	11323.2
1651.834	11331.2
1656.328	11312.2
1660.817	11323.2
1665.302	11134.2
1669.783	11016.2
1674.259	10707.2
1678.732	10413.2
1683.199	10085.2
1687.663	9757.2
1692.122	9456.2
1696.577	9289.2
1701.028	9317.2
1705.474	9375.2
1709.917	9517.2
1714.355	9613.2
1718.788	9555.2
1723.218	9403.2
1727.643	9178.2
1732.064	9011.2
1736.481	8820.2
1740.893	8604.2
1745.301	8354.2
1749.705	8141.2
1754.105	7917.2
1758.501	7709.2
1762.893	7495.2
1767.28	7316.2
1771.663	7134.2
1776.042	7003.2
1780.417	6950.2
1784.787	6933.2
1789.154	6974.2
1793.516	7114.2
1797.874	7303.2
1802.228	7440.2
1806.578	7510.2
1810.924	7518.2
1815.266	7446.2
1819.603	7357.2
1823.937	7230.2
1828.266	7104.2
1832.591	6979.2
1836.913	6918.2
1841.23	6842.2
1845.543	6786.2
1849.852	6752.2
1854.156	6745.2
1858.457	6707.2
1862.754	6654.2
1867.047	6707.2
1871.335	6680.2
1875.62	6615.2
1879.9	6632.2
1884.177	6598.2
1888.449	6541.2
1892.718	6462.2
1896.982	6373.2
1901.243	6324.2
1905.499	6290.2
1909.752	6246.2
1914	6291.2
1918.245	6311.2
1922.485	6347.2
1926.722	6432.2
1930.954	6467.2
1935.183	6578.2
1939.408	6658.2
1943.628	6709.2
1947.845	6722.2
1952.058	6703.2
1956.267	6623.2
1960.472	6542.2
1964.673	6462.2
1968.87	6348.2
1973.063	6265.2
1977.252	6188.2
1981.438	6109.2
1985.619	6029.2
1989.797	5981.2
1993.971	5906.2
1998.14	5915.2
2002.306	5861.2
2006.469	5855.2
2010.627	5846.2
2014.781	5808.2
2018.932	5752.2
2023.078	5707.2
2027.221	5596.2
2031.36	5557.2
2035.495	5447.2
2039.627	5355.2
2043.754	5276.2
2047.878	5208.2
2051.998	5196.2
2056.114	5175.2
2060.226	5179.2
2064.334	5198.2
2068.439	5188.2
2072.54	5238.2
2076.637	5274.2
2080.73	5315.2
2084.82	5358.2
2088.906	5304.2
2092.988	5352.2
2097.066	5347.2
2101.14	5334.2
2105.211	5305.2
2109.278	5272.2
2113.342	5214.2
2117.401	5197.2
2121.457	5154.2
2125.509	5144.2
2129.558	5070.2
2133.602	5086.2
2137.643	5020.2
2141.681	5008.2
2145.714	5012.2
2149.744	4975.2
2153.77	4930.2
2157.793	4875.2
2161.812	4801.2
2165.827	4736.2
2169.838	4650.2
2173.846	4580.2
2177.851	4493.2
2181.851	4452.2
2185.848	4387.2
2189.841	4344.2
2193.831	4308.2
2197.817	4265.2
2201.799	4235.2
2205.778	4219.2
2209.753	4193.2
2213.725	4204.2
2217.693	4196.2
2221.657	4170.2
2225.618	4170.2
2229.575	4132.2
2233.529	4089.2
2237.479	4072.2
2241.425	4032.2
2245.368	3975.2
2249.307	3901.2
2253.243	3836.2
2257.175	3826.2
2261.104	3748.2
2265.029	3706.2
2268.95	3667.2
2272.868	3633.2
2276.783	3601.2
2280.694	3554.2
2284.601	3529.2
2288.505	3499.2
2292.405	3461.2
2296.302	3406.2
2300.195	3387.2
2304.085	3356.2
2307.971	3308.2
2311.854	3255.2
2315.734	3188.2
2319.609	3171.2
2323.482	3128.2
2327.351	3109.2
2331.216	3051.2
2335.078	3064.2
2338.937	3011.2
2342.792	3027.2
2346.643	2977.2
2350.492	2988.2
2354.336	2986.2
2358.178	3014.2
2362.015	3037.2
2365.85	3053.2
2369.681	2996.2
2373.508	3020.2
2377.333	3040.2
2381.153	2996.2
2384.971	2989.2
2388.785	2991.2
2392.595	2936.2
2396.402	2928.2
2400.206	2888.2
2404.007	2848.2
2407.804	2869.2
2411.597	2837.2
2415.388	2802.2
2419.174	2802.2
2422.958	2751.2
2426.738	2732.2
2430.515	2744.2
2434.289	2721.2
2438.059	2698.2
2441.825	2680.2
2445.589	2646.2
2449.349	2609.2
2453.106	2596.2
2456.859	2561.2
2460.61	2522.2
2464.356	2507.2
2468.1	2470.2
2471.84	2428.2
2475.577	2416.2
2479.311	2397.2
2483.041	2406.2
2486.768	2376.2
2490.492	2381.2
2494.213	2394.2
2497.93	2351.2
2501.644	2344.2
2505.355	2326.2
2509.062	2333.2
2512.766	2309.2
2516.467	2307.2
2520.165	2297.2
2523.859	2261.2
2527.551	2230.2
2531.239	2241.2
2534.923	2257.2
2538.605	2222.2
2542.283	2202.2
2545.958	2223.2
2549.63	2220.2
2553.299	2200.2
2556.964	2201.2
2560.626	2173.2
2564.285	2194.2
2567.941	2172.2
2571.594	2142.2
2575.243	2150.2
2578.89	2145.2
2582.533	2114.2
2586.173	2104.2
2589.809	2066.2
2593.443	2068.2
2597.073	2044.2
2600.701	2043.2
2604.325	2010.2
2607.946	2008.2
2611.564	2008.2
2615.178	1977.2
2618.79	1951.2
2622.398	1950.2
2626.004	1922.2
2629.606	1887.2
2633.205	1863.2
2636.801	1870.2
2640.394	1833.2
2643.983	1787.2
2647.57	1791.2
2651.153	1747.2
2654.734	1714.2
2658.311	1701.2
2661.885	1650.2
2665.456	1651.2
2669.025	1632.2
2672.589	1602.2
2676.151	1586.2
2679.71	1575.2
2683.266	1545.2
2686.819	1518.2
2690.368	1477.2
2693.915	1469.2
2697.458	1423.2
2700.999	1395.2
2704.536	1367.2
2708.071	1341.2
2711.602	1312.2
2715.13	1279.2
2718.656	1242.2
2722.178	1222.2
2725.697	1217.2
2729.214	1209.2
2732.727	1178.2
2736.237	1159.2
2739.744	1172.2
2743.249	1186.2
2746.75	1176.2
2750.248	1196.2
2753.743	1188.2
2757.236	1232.2
2760.725	1250.2
2764.211	1267.2
2767.695	1260.2
2771.175	1246.2
2774.652	1242.2
2778.127	1232.2
2781.598	1243.2
2785.067	1222.2
2788.532	1219.2
2791.995	1202.2
2795.455	1208.2
2798.911	1207.2
2802.365	1197.2
2805.816	1206.2
2809.264	1199.2
2812.709	1204.2
2816.151	1197.2
2819.59	1219.2
2823.026	1213.2
2826.46	1194.2
2829.89	1222.2
2833.318	1183.2
2836.742	1216.2
2840.164	1225.2
2843.583	1230.2
2846.999	1232.2
2850.412	1245.2
2853.822	1257.2
2857.229	1263.2
2860.634	1291.2
2864.035	1301.2
2867.434	1324.2
2870.83	1358.2
2874.223	1377.2
2877.613	1409.2
2881	1410.2
2884.385	1406.2
2887.766	1417.2
2891.145	1403.2
2894.521	1416.2
2897.894	1397.2
2901.264	1396.2
2904.631	1410.2
2907.996	1408.2
2911.358	1405.2
2914.717	1416.2
2918.073	1414.2
2921.426	1436.2
2924.777	1458.2
2928.124	1466.2
2931.469	1483.2
2934.811	1508.2
2938.15	1524.2
2941.487	1532.2
2944.821	1551.2
2948.152	1535.2
2951.48	1541.2
2954.805	1537.2
2958.128	1501.2
2961.447	1505.2
2964.765	1488.2
2968.079	1492.2
2971.39	1520.2
2974.699	1522.2
2978.005	1557.2
2981.308	1586.2
2984.609	1598.2
2987.907	1634.2
2991.202	1641.2
2994.494	1699.2
2997.784	1747.2
3001.07	1761.2
3004.355	1795.2
3007.636	1812.2
3010.915	1837.2
3014.191	1835.2
3017.464	1863.2
3020.734	1881.2
3024.002	1872.2
3027.267	1882.2
3030.53	1898.2
3033.789	1945.2
3037.046	1967.2
3040.301	1974.2
3043.552	2003.2
3046.801	2057.2
3050.048	2073.2
3053.291	2160.2
3056.532	2190.2
3059.771	2231.2
3063.006	2291.2
3066.239	2388.2
3069.469	2436.2
3072.697	2516.2
3075.922	2591.2
3079.144	2644.2
3082.364	2683.2
3085.581	2762.2
3088.795	2811.2
3092.007	2881.2
3095.216	2912.2
3098.423	2987.2
3101.627	3057.2
3104.828	3148.2
3108.026	3187.2
3111.222	3250.2
3114.416	3314.2
3117.607	3403.2
3120.795	3486.2
3123.98	3585.2
3127.163	3647.2
3130.344	3744.2
3133.521	3797.2
3136.696	3899.2
3139.869	3983.2
3143.039	4049.2
3146.206	4107.2
3149.371	4154.2
3152.533	4203.2
3155.693	4205.2
3158.85	4228.2
3162.005	4245.2
3165.157	4257.2
3168.306	4275.2
3171.453	4275.2
3174.597	4293.2
3177.739	4320.2
3180.878	4300.2
3184.014	4315.2
3187.149	4318.2
3190.28	4326.2
3193.409	4329.2
3196.536	4335.2
3199.659	4362.2
3202.781	4347.2
3205.9	4354.2
3209.016	4355.2
3212.13	4331.2
3215.241	4280.2
3218.35	4247.2
3221.456	4210.2
3224.56	4163.2
3227.661	4120.2
3230.76	4071.2
3233.856	4046.2
3236.95	3999.2
3240.041	3969.2
3243.13	3938.2
3246.216	3921.2
3249.3	3905.2
3252.382	3881.2
3255.46	3874.2
3258.537	3837.2
3261.611	3865.2
3264.682	3858.2
3267.751	3857.2
3270.818	3853.2
3273.882	3823.2
3276.943	3828.2
3280.002	3766.2
3283.059	3732.2
3286.113	3705.2
3289.165	3670.2
3292.214	3613.2
3295.261	3520.2
3298.306	3505.2
3301.348	3431.2
3304.387	3365.2
3307.425	3300.2
3310.459	3253.2
3313.492	3181.2
3316.521	3177.2
3319.549	3127.2
3322.574	3106.2
3325.597	3048.2
3328.617	3060.2
3331.635	3027.2
3334.65	3001.2
3337.663	2993.2
3340.674	2952.2
3343.682	2959.2
3346.688	2950.2
3349.691	2925.2
3352.692	2908.2
3355.691	2889.2
3358.687	2878.2
3361.681	2834.2
3364.673	2792.2
3367.662	2736.2
3370.649	2721.2
3373.633	2683.2
3376.615	2625.2
3379.595	2607.2
3382.572	2585.2
3385.547	2533.2
3388.52	2473.2
3391.49	2461.2
3394.458	2428.2
3397.424	2352.2
3400.387	2337.2
3403.348	2329.2
3406.307	2306.2
3409.263	2249.2
3412.217	2242.2
3415.168	2217.2
3418.118	2187.2
3421.065	2157.2
3424.009	2147.2
3426.951	2101.2
3429.891	2077.2
3432.829	2022.2
3435.764	1959.2
3438.697	1943.2
3441.628	1882.2
3444.557	1823.2
3447.483	1754.2
3450.407	1703.2
3453.328	1661.2
3456.247	1603.2
3459.164	1521.2
3462.079	1487.2
3464.991	1436.2
3467.902	1389.2
3470.809	1330.2
3473.715	1291.2
3476.618	1235.2
3479.519	1201.2
3482.418	1149.2
3485.315	1111.2
3488.209	1080.2
3491.101	1041.2
3493.99	1008.2
3496.878	981.2
3499.763	954.2
3502.646	887.2
3505.527	843.2
3508.405	815.2
3511.281	756.2
3514.155	720.2
3517.027	693.2
3519.897	645.2
3522.764	593.2
3525.629	544.2
3528.492	513.2
3531.352	458.2
3534.211	423.2
3537.067	391.2
3539.921	339.2
3542.773	305.2
3545.622	276.2
3548.469	235.2
3551.315	220.2
3554.157	184.2
3556.998	156.2
3559.837	140.2
3562.673	106.2
3565.507	83.2
3568.339	50.2
3571.169	33.2
3573.996	10.2
3576.822	-7.8
3579.645	-29.8
3582.466	-56.8
3585.285	-92.8
3588.101	-97.8
3590.916	-95.8
3593.728	-134.8
3596.538	-154.8
3599.346	-177.8
3602.152	-205.8
3604.956	-204.8
3607.757	-232.8
3610.556	-250.8
3613.354	-264.8
3616.149	-276.8
3618.942	-283.8
3621.732	-298.8
3624.521	-309.8
3627.307	-312.8
3630.092	-339.8
3632.874	-354.8
3635.654	-355.8
3638.432	-360.8
3641.208	-371.8
3643.982	-384.8
3646.753	-399.8
3649.523	-410.8
3652.29	-406.8
3655.055	-419.8
3657.818	-434.8
3660.579	-446.8
3663.338	-458.8
3666.095	-461.8
3668.849	-479.8
3671.602	-482.8
3674.352	-494.8
3677.101	-493.8
3679.847	-512.8
3682.591	-513.8
3685.333	-527.8
3688.073	-531.8
3690.811	-540.8
3693.547	-539.8
3696.281	-544.8
3699.013	-550.8
3701.742	-549.8
3704.47	-561.8
3707.195	-566.8
3709.919	-562.8
3712.64	-569.8
3715.359	-572.8
3718.076	-575.8
3720.792	-575.8
3723.505	-584.8
3726.216	-588.8
3728.925	-589.8
3731.632	-594.8
3734.336	-597.8
3737.039	-600.8
3739.74	-600.8
3742.439	-603.8
3745.136	-603.8
3747.83	-615.8
3750.523	-619.8
3753.213	-602.8
3755.902	-614.8
3758.589	-620.8
3761.273	-619.8
3763.956	-623.8
3766.636	-626.8
3769.315	-625.8
3771.991	-629.8
3774.665	-630.8
3777.338	-634.8
3780.008	-635.8
3782.677	-641.8
3785.343	-628.8
3788.007	-631.8
3790.67	-636.8
3793.33	-644.8
3795.989	-645.8
3798.645	-645.8
3801.299	-646.8
3803.952	-650.8
3806.602	-657.8
3809.251	-652.8
3811.897	-651.8
3814.542	-653.8
3817.184	-651.8
3819.825	-645.8
3822.463	-648.8
3825.1	-649.8
3827.735	-649.8
3830.367	-648.8
3832.998	-659.8
3835.627	-664.8
3838.253	-661.8
3840.878	-659.8
3843.501	-662.8
3846.122	-657.8
3848.741	-661.8
3851.358	-656.8
3853.973	-660.8
3856.586	-662.8
3859.197	-665.8
3861.806	-666.8
3864.414	-663.8
3867.019	-659.8
3869.622	-663.8
3872.224	-656.8
3874.823	-645.8
3877.421	-630.8
3880.016	-620.8
3882.61	-603.8
3885.202	-604.8
3887.792	-613.8
3890.38	-646.8
3892.966	-660.8
3895.55	-670.8
3898.132	-681.8
3900.713	-683.8
3903.291	-675.8
3905.868	-680.8
3908.442	-680.8
3911.015	-680.8
3913.586	-677.8
3916.155	-671.8
3918.722	-677.8
3921.287	-677.8
3923.85	-678.8
3926.411	-680.8
3928.971	-690.8
3931.528	-683.8
3934.084	-684.8
3936.638	-681.8
3939.19	-682.8
3941.74	-684.8
3944.288	-686.8
3946.834	-684.8
3949.378	-683.8
3951.921	-681.8
3954.462	-687.8
3957	-678.8
3959.537	-679.8
3962.072	-683.8
3964.606	-678.8
3967.137	-682.8
3969.667	-678.8
3972.194	-671.8
3974.72	-683.8
3977.244	-665.8
3979.766	-674.8
3982.286	-672.8
3984.805	-671.8
3987.321	-674.8
3989.836	-677.8
3992.349	-663.8
3994.86	-666.8
3997.369	-676.8
3999.877	-662.8
4002.382	-666.8
4004.886	-669.8
4007.388	-661.8
4009.888	-661.8
4012.386	-668.8
4014.883	-661.8
4017.377	-660.8
4019.87	-659.8
4022.361	-669.8
4024.85	-670.8
4027.338	-674.8
4029.823	-667.8
4032.307	-671.8
4034.789	-674.8
4037.269	-668.8
4039.747	-668.8
4042.224	-671.8
4044.699	-672.8
4047.172	-671.8
4049.643	-668.8
4052.112	-669.8
4054.58	-672.8
4057.046	-673.8
4059.51	-668.8
4061.972	-669.8
4064.432	-679.8
4066.891	-670.8
4069.348	-669.8
4071.803	-664.8
4074.256	-672.8
4076.708	-675.8
4079.158	-666.8
4081.606	-673.8
4084.052	-680.8
4086.497	-676.8
4088.939	-668.8
4091.38	-671.8
4093.819	-662.8
4096.257	-706.8
4098.693	-709.8
4101.127	-710.8
4103.559	-706.8
4105.989	-414.8
4108.418	-392.8
4110.845	-361.8
4113.27	-333.8
4115.694	-294.8
4118.115	-248.8
4120.535	-666.8
4122.954	-669.8
4125.37	-661.8
4127.785	-671.8
4130.198	-668.8
4132.609	-671.8
4135.019	-703.8
4137.427	-707.8
4139.833	-707.8
4142.237	-702.8
