Data from 2018-2-14_conc=6_n=8_RamanShift_02.txt Node
Date: Wed Feb 14 15:08:25 IST 2018
User: aro
Spectrometer: QEPB0276
Trigger mode: 0
Integration Time (sec): 3.000000E1
Scans to average: 1
Electric dark correction enabled: true
Nonlinearity correction enabled: false
Boxcar width: 0
XAxis mode: Raman Shifts
Number of Pixels in Spectrum: 1044
>>>>>Begin Spectral Data<<<<<
160.701	-152
166.742	44
172.777	628
178.805	2401
184.826	6652
190.841	13927
196.849	22416
202.85	28466
208.845	30488
214.833	30147
220.815	29639
226.789	29566
232.758	29352
238.719	29205
244.674	28882
250.623	28384
256.565	27808
262.5	27287
268.429	26793
274.351	26430
280.267	26063
286.176	25813
292.079	25591
297.975	25431
303.865	25190
309.748	25046
315.625	24828
321.495	24737
327.359	24727
333.217	24628
339.068	24633
344.912	24611
350.751	24565
356.583	24448
362.408	24558
368.227	24534
374.04	24483
379.847	24609
385.647	24712
391.44	24698
397.228	24875
403.009	24896
408.784	25026
414.553	25151
420.315	25189
426.071	25218
431.821	25171
437.565	25134
443.302	25108
449.033	25028
454.758	24992
460.477	24992
466.189	24922
471.896	24879
477.596	24750
483.29	24771
488.978	24757
494.66	24584
500.335	24445
506.005	24262
511.668	23912
517.325	23665
522.977	23500
528.622	23300
534.261	23198
539.894	23037
545.521	22939
551.141	22841
556.756	22763
562.365	22673
567.968	22605
573.565	22574
579.155	22387
584.74	22371
590.319	22251
595.892	22205
601.459	22081
607.02	21927
612.575	21869
618.124	21686
623.667	21578
629.204	21494
634.735	21387
640.261	21325
645.781	21244
651.294	21175
656.802	21143
662.304	21102
667.8	21124
673.29	21026
678.775	21004
684.254	20918
689.726	20843
695.193	20813
700.655	20687
706.11	20601
711.56	20531
717.004	20386
722.442	20292
727.874	20284
733.301	20175
738.722	20142
744.137	20127
749.547	20046
754.951	20080
760.349	20052
765.741	20042
771.128	20073
776.509	20082
781.885	20108
787.254	19959
792.618	19934
797.977	19876
803.33	19734
808.677	19610
814.019	19504
819.355	19395
824.686	19243
830.011	19219
835.33	19235
840.644	19257
845.952	19286
851.255	19269
856.552	19284
861.844	19328
867.13	19223
872.41	19197
877.686	19108
882.955	18990
888.219	18769
893.478	18637
898.731	18369
903.979	18128
909.221	17973
914.458	18003
919.69	17924
924.916	17984
930.136	18107
935.351	18090
940.561	18110
945.766	18029
950.965	17961
956.158	17812
961.347	17653
966.529	17460
971.707	17169
976.879	16979
982.046	16816
987.208	16812
992.364	16884
997.515	16923
1002.66	16999
1007.801	17227
1012.936	17381
1018.066	17380
1023.19	17410
1028.309	17404
1033.423	17299
1038.532	17225
1043.636	17062
1048.734	16885
1053.827	16639
1058.915	16510
1063.998	16409
1069.075	16323
1074.147	16341
1079.214	16440
1084.276	16471
1089.333	16604
1094.385	16616
1099.431	16727
1104.472	16685
1109.509	16618
1114.54	16422
1119.565	16162
1124.586	15993
1129.602	15802
1134.613	15720
1139.618	15618
1144.619	15601
1149.614	15596
1154.604	15624
1159.589	15672
1164.57	15711
1169.545	15765
1174.515	15713
1179.48	15631
1184.44	15520
1189.395	15382
1194.345	15258
1199.29	15178
1204.23	15209
1209.165	15289
1214.095	15335
1219.021	15422
1223.941	15516
1228.856	15560
1233.766	15614
1238.672	15623
1243.572	15573
1248.467	15508
1253.358	15316
1258.244	15119
1263.124	14934
1268	14660
1272.871	14538
1277.737	14375
1282.599	14289
1287.455	14305
1292.306	14328
1297.153	14338
1301.995	14452
1306.832	14507
1311.664	14549
1316.491	14509
1321.314	14335
1326.132	14184
1330.945	13801
1335.753	13468
1340.556	13097
1345.354	12768
1350.148	12580
1354.937	12489
1359.722	12497
1364.501	12501
1369.276	12600
1374.046	12808
1378.811	13042
1383.572	13217
1388.327	13238
1393.079	13211
1397.825	13043
1402.567	12886
1407.304	12690
1412.036	12575
1416.764	12440
1421.487	12367
1426.205	12324
1430.919	12279
1435.628	12326
1440.333	12317
1445.032	12362
1449.727	12366
1454.418	12321
1459.104	12165
1463.785	11975
1468.462	11703
1473.134	11427
1477.802	11209
1482.465	10929
1487.123	10854
1491.777	10771
1496.426	10788
1501.071	10905
1505.711	11084
1510.347	11269
1514.978	11507
1519.604	11687
1524.226	11763
1528.844	11862
1533.457	11816
1538.065	11777
1542.669	11693
1547.269	11585
1551.864	11581
1556.454	11507
1561.041	11497
1565.622	11520
1570.199	11511
1574.772	11547
1579.34	11599
1583.904	11701
1588.464	11752
1593.019	11712
1597.569	11682
1602.115	11624
1606.657	11530
1611.195	11524
1615.728	11349
1620.256	11315
1624.78	11330
1629.3	11273
1633.816	11329
1638.327	11373
1642.834	11419
1647.336	11448
1651.834	11475
1656.328	11383
1660.817	11391
1665.302	11197
1669.783	11055
1674.259	10808
1678.732	10530
1683.199	10110
1687.663	9738
1692.122	9412
1696.577	9278
1701.028	9226
1705.474	9243
1709.917	9400
1714.355	9508
1718.788	9435
1723.218	9364
1727.643	9184
1732.064	9029
1736.481	8794
1740.893	8582
1745.301	8358
1749.705	8160
1754.105	7919
1758.501	7729
1762.893	7478
1767.28	7308
1771.663	7136
1776.042	6971
1780.417	6876
1784.787	6820
1789.154	6888
1793.516	7024
1797.874	7168
1802.228	7293
1806.578	7388
1810.924	7422
1815.266	7352
1819.603	7288
1823.937	7150
1828.266	7054
1832.591	6972
1836.913	6843
1841.23	6746
1845.543	6729
1849.852	6707
1854.156	6662
1858.457	6648
1862.754	6615
1867.047	6659
1871.335	6591
1875.62	6590
1879.9	6574
1884.177	6506
1888.449	6446
1892.718	6360
1896.982	6282
1901.243	6241
1905.499	6166
1909.752	6126
1914	6115
1918.245	6121
1922.485	6175
1926.722	6225
1930.954	6318
1935.183	6408
1939.408	6448
1943.628	6499
1947.845	6495
1952.058	6507
1956.267	6480
1960.472	6415
1964.673	6305
1968.87	6204
1973.063	6118
1977.252	6019
1981.438	5976
1985.619	5905
1989.797	5882
1993.971	5866
1998.14	5819
2002.306	5789
2006.469	5746
2010.627	5743
2014.781	5707
2018.932	5643
2023.078	5579
2027.221	5529
2031.36	5450
2035.495	5334
2039.627	5225
2043.754	5210
2047.878	5119
2051.998	5088
2056.114	5031
2060.226	5079
2064.334	5077
2068.439	5052
2072.54	5056
2076.637	5106
2080.73	5125
2084.82	5167
2088.906	5162
2092.988	5182
2097.066	5155
2101.14	5142
2105.211	5152
2109.278	5119
2113.342	5064
2117.401	5034
2121.457	5016
2125.509	5015
2129.558	4990
2133.602	4933
2137.643	4930
2141.681	4896
2145.714	4897
2149.744	4814
2153.77	4829
2157.793	4733
2161.812	4671
2165.827	4614
2169.838	4553
2173.846	4455
2177.851	4418
2181.851	4351
2185.848	4300
2189.841	4246
2193.831	4204
2197.817	4160
2201.799	4132
2205.778	4121
2209.753	4131
2213.725	4124
2217.693	4074
2221.657	4080
2225.618	4081
2229.575	4038
2233.529	4000
2237.479	3975
2241.425	3935
2245.368	3857
2249.307	3808
2253.243	3781
2257.175	3721
2261.104	3653
2265.029	3610
2268.95	3585
2272.868	3555
2276.783	3525
2280.694	3468
2284.601	3442
2288.505	3400
2292.405	3361
2296.302	3344
2300.195	3321
2304.085	3257
2307.971	3233
2311.854	3171
2315.734	3123
2319.609	3108
2323.482	3052
2327.351	3035
2331.216	2999
2335.078	2986
2338.937	2971
2342.792	2964
2346.643	2962
2350.492	2941
2354.336	2964
2358.178	2985
2362.015	2970
2365.85	3010
2369.681	2978
2373.508	2998
2377.333	2992
2381.153	2980
2384.971	2971
2388.785	2920
2392.595	2908
2396.402	2893
2400.206	2853
2404.007	2847
2407.804	2829
2411.597	2821
2415.388	2792
2419.174	2752
2422.958	2738
2426.738	2740
2430.515	2724
2434.289	2681
2438.059	2685
2441.825	2630
2445.589	2617
2449.349	2577
2453.106	2554
2456.859	2511
2460.61	2504
2464.356	2454
2468.1	2437
2471.84	2403
2475.577	2387
2479.311	2368
2483.041	2339
2486.768	2318
2490.492	2334
2494.213	2337
2497.93	2306
2501.644	2293
2505.355	2289
2509.062	2280
2512.766	2266
2516.467	2254
2520.165	2219
2523.859	2215
2527.551	2166
2531.239	2184
2534.923	2153
2538.605	2140
2542.283	2152
2545.958	2133
2549.63	2124
2553.299	2139
2556.964	2117
2560.626	2103
2564.285	2131
2567.941	2112
2571.594	2110
2575.243	2075
2578.89	2055
2582.533	2055
2586.173	2004
2589.809	2009
2593.443	2005
2597.073	1979
2600.701	1958
2604.325	1935
2607.946	1945
2611.564	1910
2615.178	1917
2618.79	1913
2622.398	1897
2626.004	1871
2629.606	1834
2633.205	1806
2636.801	1805
2640.394	1798
2643.983	1753
2647.57	1719
2651.153	1714
2654.734	1663
2658.311	1634
2661.885	1611
2665.456	1595
2669.025	1580
2672.589	1539
2676.151	1531
2679.71	1535
2683.266	1497
2686.819	1485
2690.368	1449
2693.915	1399
2697.458	1375
2700.999	1345
2704.536	1310
2708.071	1297
2711.602	1250
2715.13	1233
2718.656	1211
2722.178	1182
2725.697	1172
2729.214	1154
2732.727	1144
2736.237	1136
2739.744	1099
2743.249	1105
2746.75	1117
2750.248	1110
2753.743	1158
2757.236	1147
2760.725	1169
2764.211	1177
2767.695	1186
2771.175	1158
2774.652	1176
2778.127	1170
2781.598	1158
2785.067	1157
2788.532	1160
2791.995	1148
2795.455	1146
2798.911	1153
2802.365	1135
2805.816	1145
2809.264	1138
2812.709	1143
2816.151	1134
2819.59	1157
2823.026	1150
2826.46	1145
2829.89	1129
2833.318	1155
2836.742	1153
2840.164	1164
2843.583	1173
2846.999	1202
2850.412	1195
2853.822	1216
2857.229	1223
2860.634	1255
2864.035	1270
2867.434	1278
2870.83	1289
2874.223	1345
2877.613	1345
2881	1361
2884.385	1358
2887.766	1376
2891.145	1373
2894.521	1367
2897.894	1355
2901.264	1352
2904.631	1356
2907.996	1369
2911.358	1361
2914.717	1384
2918.073	1399
2921.426	1403
2924.777	1419
2928.124	1445
2931.469	1476
2934.811	1489
2938.15	1508
2941.487	1523
2944.821	1512
2948.152	1508
2951.48	1508
2954.805	1492
2958.128	1470
2961.447	1445
2964.765	1452
2968.079	1454
2971.39	1448
2974.699	1486
2978.005	1490
2981.308	1520
2984.609	1557
2987.907	1557
2991.202	1594
2994.494	1656
2997.784	1669
3001.07	1706
3004.355	1765
3007.636	1763
3010.915	1781
3014.191	1788
3017.464	1814
3020.734	1815
3024.002	1836
3027.267	1862
3030.53	1850
3033.789	1875
3037.046	1899
3040.301	1932
3043.552	1963
3046.801	2004
3050.048	2050
3053.291	2116
3056.532	2148
3059.771	2205
3063.006	2275
3066.239	2331
3069.469	2397
3072.697	2482
3075.922	2526
3079.144	2580
3082.364	2659
3085.581	2724
3088.795	2767
3092.007	2822
3095.216	2888
3098.423	2941
3101.627	3035
3104.828	3088
3108.026	3148
3111.222	3210
3114.416	3287
3117.607	3371
3120.795	3433
3123.98	3485
3127.163	3603
3130.344	3689
3133.521	3779
3136.696	3856
3139.869	3934
3143.039	3990
3146.206	4059
3149.371	4109
3152.533	4124
3155.693	4160
3158.85	4200
3162.005	4244
3165.157	4231
3168.306	4247
3171.453	4266
3174.597	4251
3177.739	4279
3180.878	4276
3184.014	4291
3187.149	4277
3190.28	4272
3193.409	4269
3196.536	4277
3199.659	4272
3202.781	4283
3205.9	4312
3209.016	4290
3212.13	4281
3215.241	4218
3218.35	4238
3221.456	4179
3224.56	4123
3227.661	4079
3230.76	4032
3233.856	3959
3236.95	3942
3240.041	3922
3243.13	3854
3246.216	3850
3249.3	3806
3252.382	3824
3255.46	3825
3258.537	3796
3261.611	3801
3264.682	3806
3267.751	3800
3270.818	3785
3273.882	3768
3276.943	3761
3280.002	3764
3283.059	3716
3286.113	3647
3289.165	3614
3292.214	3561
3295.261	3486
3298.306	3438
3301.348	3381
3304.387	3327
3307.425	3316
3310.459	3196
3313.492	3174
3316.521	3141
3319.549	3110
3322.574	3085
3325.597	3032
3328.617	3037
3331.635	2992
3334.65	2981
3337.663	2946
3340.674	2963
3343.682	2980
3346.688	2910
3349.691	2939
3352.692	2913
3355.691	2881
3358.687	2856
3361.681	2825
3364.673	2798
3367.662	2752
3370.649	2729
3373.633	2646
3376.615	2619
3379.595	2585
3382.572	2565
3385.547	2513
3388.52	2499
3391.49	2457
3394.458	2408
3397.424	2388
3400.387	2349
3403.348	2305
3406.307	2272
3409.263	2275
3412.217	2238
3415.168	2202
3418.118	2188
3421.065	2138
3424.009	2133
3426.951	2095
3429.891	2050
3432.829	2023
3435.764	1957
3438.697	1910
3441.628	1857
3444.557	1801
3447.483	1748
3450.407	1683
3453.328	1646
3456.247	1576
3459.164	1520
3462.079	1465
3464.991	1425
3467.902	1369
3470.809	1313
3473.715	1251
3476.618	1227
3479.519	1174
3482.418	1144
3485.315	1094
3488.209	1050
3491.101	1014
3493.99	978
3496.878	936
3499.763	914
3502.646	865
3505.527	824
3508.405	780
3511.281	736
3514.155	702
3517.027	658
3519.897	612
3522.764	577
3525.629	537
3528.492	475
3531.352	441
3534.211	396
3537.067	367
3539.921	318
3542.773	282
3545.622	257
3548.469	229
3551.315	199
3554.157	158
3556.998	138
3559.837	106
3562.673	89
3565.507	41
3568.339	30
3571.169	12
3573.996	-21
3576.822	-29
3579.645	-55
3582.466	-71
3585.285	-107
3588.101	-127
3590.916	-139
3593.728	-165
3596.538	-183
3599.346	-198
3602.152	-219
3604.956	-230
3607.757	-254
3610.556	-263
3613.354	-287
3616.149	-288
3618.942	-305
3621.732	-321
3624.521	-347
3627.307	-343
3630.092	-356
3632.874	-370
3635.654	-377
3638.432	-388
3641.208	-390
3643.982	-410
3646.753	-419
3649.523	-426
3652.29	-427
3655.055	-437
3657.818	-459
3660.579	-461
3663.338	-482
3666.095	-485
3668.849	-500
3671.602	-509
3674.352	-511
3677.101	-524
3679.847	-533
3682.591	-536
3685.333	-543
3688.073	-544
3690.811	-551
3693.547	-560
3696.281	-566
3699.013	-569
3701.742	-578
3704.47	-576
3707.195	-583
3709.919	-586
3712.64	-595
3715.359	-595
3718.076	-608
3720.792	-603
3723.505	-603
3726.216	-616
3728.925	-611
3731.632	-622
3734.336	-621
3737.039	-623
3739.74	-622
3742.439	-632
3745.136	-625
3747.83	-633
3750.523	-634
3753.213	-632
3755.902	-645
3758.589	-642
3761.273	-643
3763.956	-646
3766.636	-647
3769.315	-651
3771.991	-651
3774.665	-658
3777.338	-656
3780.008	-663
3782.677	-659
3785.343	-659
3788.007	-666
3790.67	-662
3793.33	-663
3795.989	-662
3798.645	-666
3801.299	-667
3803.952	-674
3806.602	-677
3809.251	-674
3811.897	-677
3814.542	-673
3817.184	-671
3819.825	-670
3822.463	-673
3825.1	-679
3827.735	-672
3830.367	-671
3832.998	-684
3835.627	-684
3838.253	-688
3840.878	-688
3843.501	-684
3846.122	-684
3848.741	-684
3851.358	-684
3853.973	-688
3856.586	-690
3859.197	-690
3861.806	-695
3864.414	-685
3867.019	-691
3869.622	-688
3872.224	-683
3874.823	-670
3877.421	-649
3880.016	-631
3882.61	-606
3885.202	-602
3887.792	-621
3890.38	-658
3892.966	-675
3895.55	-686
3898.132	-700
3900.713	-705
3903.291	-694
3905.868	-703
3908.442	-698
3911.015	-701
3913.586	-693
3916.155	-703
3918.722	-698
3921.287	-700
3923.85	-707
3926.411	-701
3928.971	-713
3931.528	-714
3934.084	-707
3936.638	-707
3939.19	-704
3941.74	-703
3944.288	-705
3946.834	-699
3949.378	-704
3951.921	-704
3954.462	-704
3957	-703
3959.537	-702
3962.072	-702
3964.606	-705
3967.137	-702
3969.667	-703
3972.194	-697
3974.72	-707
3977.244	-693
3979.766	-689
3982.286	-694
3984.805	-695
3987.321	-690
3989.836	-697
3992.349	-686
3994.86	-682
3997.369	-700
3999.877	-689
4002.382	-683
4004.886	-685
4007.388	-687
4009.888	-686
4012.386	-683
4014.883	-684
4017.377	-684
4019.87	-682
4022.361	-689
4024.85	-687
4027.338	-692
4029.823	-690
4032.307	-690
4034.789	-689
4037.269	-685
4039.747	-697
4042.224	-695
4044.699	-699
4047.172	-686
4049.643	-690
4052.112	-702
4054.58	-693
4057.046	-697
4059.51	-697
4061.972	-695
4064.432	-697
4066.891	-698
4069.348	-690
4071.803	-691
4074.256	-688
4076.708	-691
4079.158	-694
4081.606	-694
4084.052	-692
4086.497	-690
4088.939	-686
4091.38	-686
4093.819	-687
4096.257	-725
4098.693	-729
4101.127	-730
4103.559	-728
4105.989	-420
4108.418	-400
4110.845	-377
4113.27	-338
4115.694	-295
4118.115	-252
4120.535	-684
4122.954	-691
4125.37	-681
4127.785	-694
4130.198	-691
4132.609	-696
4135.019	-730
4137.427	-733
4139.833	-730
4142.237	-728
