Data from 2018-2-14_conc=2_n=7_RamanShift_02.txt Node
Date: Wed Feb 14 11:21:26 IST 2018
User: aro
Spectrometer: QEPB0276
Trigger mode: 0
Integration Time (sec): 3.000000E1
Scans to average: 1
Electric dark correction enabled: true
Nonlinearity correction enabled: false
Boxcar width: 0
XAxis mode: Raman Shifts
Number of Pixels in Spectrum: 1044
>>>>>Begin Spectral Data<<<<<
160.701	-141.8
166.742	48.2
172.777	582.2
178.805	2230.2
184.826	6206.2
190.841	12944.2
196.849	20789.2
202.85	26267.2
208.845	28051.2
214.833	27713.2
220.815	27136.2
226.789	26853.2
232.758	26681.2
238.719	26395.2
244.674	25938.2
250.623	25342.2
256.565	24807.2
262.5	24238.2
268.429	23724.2
274.351	23307.2
280.267	22965.2
286.176	22557.2
292.079	22398.2
297.975	22045.2
303.865	21819.2
309.748	21677.2
315.625	21498.2
321.495	21333.2
327.359	21314.2
333.217	21224.2
339.068	21148.2
344.912	21136.2
350.751	21097.2
356.583	21112.2
362.408	21045.2
368.227	21042.2
374.04	21121.2
379.847	21100.2
385.647	21300.2
391.44	21354.2
397.228	21384.2
403.009	21500.2
408.784	21536.2
414.553	21645.2
420.315	21628.2
426.071	21693.2
431.821	21700.2
437.565	21639.2
443.302	21614.2
449.033	21617.2
454.758	21526.2
460.477	21477.2
466.189	21353.2
471.896	21315.2
477.596	21269.2
483.29	21174.2
488.978	21172.2
494.66	21118.2
500.335	20962.2
506.005	20749.2
511.668	20434.2
517.325	20190.2
522.977	20013.2
528.622	19795.2
534.261	19689.2
539.894	19529.2
545.521	19512.2
551.141	19455.2
556.756	19344.2
562.365	19199.2
567.968	19178.2
573.565	19042.2
579.155	19005.2
584.74	18883.2
590.319	18847.2
595.892	18700.2
601.459	18678.2
607.02	18581.2
612.575	18493.2
618.124	18370.2
623.667	18244.2
629.204	18146.2
634.735	18046.2
640.261	18040.2
645.781	17915.2
651.294	17933.2
656.802	17829.2
662.304	17818.2
667.8	17803.2
673.29	17724.2
678.775	17681.2
684.254	17620.2
689.726	17580.2
695.193	17517.2
700.655	17417.2
706.11	17334.2
711.56	17236.2
717.004	17157.2
722.442	17052.2
727.874	17009.2
733.301	16978.2
738.722	16907.2
744.137	16832.2
749.547	16793.2
754.951	16876.2
760.349	16878.2
765.741	16889.2
771.128	16858.2
776.509	16852.2
781.885	16856.2
787.254	16844.2
792.618	16761.2
797.977	16587.2
803.33	16534.2
808.677	16402.2
814.019	16310.2
819.355	16247.2
824.686	16137.2
830.011	16107.2
835.33	16095.2
840.644	16097.2
845.952	16218.2
851.255	16155.2
856.552	16200.2
861.844	16143.2
867.13	16096.2
872.41	16033.2
877.686	15946.2
882.955	15795.2
888.219	15712.2
893.478	15463.2
898.731	15255.2
903.979	15101.2
909.221	15047.2
914.458	14961.2
919.69	14901.2
924.916	14971.2
930.136	15004.2
935.351	15037.2
940.561	15032.2
945.766	15025.2
950.965	14951.2
956.158	14830.2
961.347	14677.2
966.529	14482.2
971.707	14325.2
976.879	14108.2
982.046	13988.2
987.208	13922.2
992.364	13925.2
997.515	14039.2
1002.66	14136.2
1007.801	14346.2
1012.936	14406.2
1018.066	14389.2
1023.19	14399.2
1028.309	14465.2
1033.423	14350.2
1038.532	14330.2
1043.636	14173.2
1048.734	13990.2
1053.827	13847.2
1058.915	13655.2
1063.998	13569.2
1069.075	13520.2
1074.147	13531.2
1079.214	13621.2
1084.276	13682.2
1089.333	13726.2
1094.385	13822.2
1099.431	13821.2
1104.472	13886.2
1109.509	13806.2
1114.54	13622.2
1119.565	13429.2
1124.586	13289.2
1129.602	13134.2
1134.613	13048.2
1139.618	12922.2
1144.619	12915.2
1149.614	12887.2
1154.604	12923.2
1159.589	12962.2
1164.57	12958.2
1169.545	13047.2
1174.515	12998.2
1179.48	12921.2
1184.44	12872.2
1189.395	12755.2
1194.345	12711.2
1199.29	12605.2
1204.23	12618.2
1209.165	12673.2
1214.095	12718.2
1219.021	12769.2
1223.941	12867.2
1228.856	12897.2
1233.766	12976.2
1238.672	12985.2
1243.572	12943.2
1248.467	12887.2
1253.358	12675.2
1258.244	12577.2
1263.124	12338.2
1268	12178.2
1272.871	12025.2
1277.737	11941.2
1282.599	11831.2
1287.455	11851.2
1292.306	11870.2
1297.153	11907.2
1301.995	12026.2
1306.832	12044.2
1311.664	12056.2
1316.491	12001.2
1321.314	11908.2
1326.132	11740.2
1330.945	11512.2
1335.753	11203.2
1340.556	10937.2
1345.354	10703.2
1350.148	10552.2
1354.937	10466.2
1359.722	10457.2
1364.501	10490.2
1369.276	10595.2
1374.046	10743.2
1378.811	10888.2
1383.572	10999.2
1388.327	10973.2
1393.079	10961.2
1397.825	10866.2
1402.567	10694.2
1407.304	10552.2
1412.036	10453.2
1416.764	10382.2
1421.487	10372.2
1426.205	10298.2
1430.919	10231.2
1435.628	10237.2
1440.333	10241.2
1445.032	10275.2
1449.727	10336.2
1454.418	10292.2
1459.104	10217.2
1463.785	10022.2
1468.462	9841.2
1473.134	9566.2
1477.802	9392.2
1482.465	9265.2
1487.123	9098.2
1491.777	9084.2
1496.426	9123.2
1501.071	9209.2
1505.711	9363.2
1510.347	9537.2
1514.978	9734.2
1519.604	9787.2
1524.226	9920.2
1528.844	9926.2
1533.457	9919.2
1538.065	9881.2
1542.669	9786.2
1547.269	9746.2
1551.864	9702.2
1556.454	9640.2
1561.041	9639.2
1565.622	9607.2
1570.199	9698.2
1574.772	9730.2
1579.34	9818.2
1583.904	9819.2
1588.464	9938.2
1593.019	9949.2
1597.569	9916.2
1602.115	9852.2
1606.657	9796.2
1611.195	9764.2
1615.728	9731.2
1620.256	9724.2
1624.78	9707.2
1629.3	9742.2
1633.816	9744.2
1638.327	9815.2
1642.834	9858.2
1647.336	9882.2
1651.834	9936.2
1656.328	9852.2
1660.817	9852.2
1665.302	9727.2
1669.783	9576.2
1674.259	9350.2
1678.732	9071.2
1683.199	8745.2
1687.663	8468.2
1692.122	8164.2
1696.577	8062.2
1701.028	7993.2
1705.474	7970.2
1709.917	8084.2
1714.355	8061.2
1718.788	8014.2
1723.218	7871.2
1727.643	7698.2
1732.064	7570.2
1736.481	7394.2
1740.893	7216.2
1745.301	7013.2
1749.705	6822.2
1754.105	6660.2
1758.501	6445.2
1762.893	6275.2
1767.28	6091.2
1771.663	5960.2
1776.042	5882.2
1780.417	5837.2
1784.787	5808.2
1789.154	5912.2
1793.516	5969.2
1797.874	6092.2
1802.228	6196.2
1806.578	6234.2
1810.924	6239.2
1815.266	6180.2
1819.603	6100.2
1823.937	5972.2
1828.266	5883.2
1832.591	5748.2
1836.913	5744.2
1841.23	5626.2
1845.543	5587.2
1849.852	5562.2
1854.156	5584.2
1858.457	5548.2
1862.754	5523.2
1867.047	5516.2
1871.335	5564.2
1875.62	5522.2
1879.9	5501.2
1884.177	5439.2
1888.449	5407.2
1892.718	5391.2
1896.982	5325.2
1901.243	5265.2
1905.499	5229.2
1909.752	5248.2
1914	5220.2
1918.245	5231.2
1922.485	5258.2
1926.722	5355.2
1930.954	5384.2
1935.183	5455.2
1939.408	5503.2
1943.628	5537.2
1947.845	5533.2
1952.058	5538.2
1956.267	5475.2
1960.472	5424.2
1964.673	5362.2
1968.87	5221.2
1973.063	5170.2
1977.252	5101.2
1981.438	5078.2
1985.619	5006.2
1989.797	4990.2
1993.971	4939.2
1998.14	4928.2
2002.306	4879.2
2006.469	4887.2
2010.627	4855.2
2014.781	4820.2
2018.932	4827.2
2023.078	4761.2
2027.221	4707.2
2031.36	4644.2
2035.495	4542.2
2039.627	4461.2
2043.754	4433.2
2047.878	4392.2
2051.998	4374.2
2056.114	4355.2
2060.226	4353.2
2064.334	4361.2
2068.439	4406.2
2072.54	4364.2
2076.637	4433.2
2080.73	4475.2
2084.82	4489.2
2088.906	4494.2
2092.988	4516.2
2097.066	4493.2
2101.14	4485.2
2105.211	4431.2
2109.278	4393.2
2113.342	4343.2
2117.401	4343.2
2121.457	4352.2
2125.509	4304.2
2129.558	4269.2
2133.602	4266.2
2137.643	4218.2
2141.681	4202.2
2145.714	4174.2
2149.744	4135.2
2153.77	4109.2
2157.793	4098.2
2161.812	4026.2
2165.827	3971.2
2169.838	3873.2
2173.846	3813.2
2177.851	3778.2
2181.851	3704.2
2185.848	3669.2
2189.841	3627.2
2193.831	3588.2
2197.817	3547.2
2201.799	3525.2
2205.778	3516.2
2209.753	3504.2
2213.725	3498.2
2217.693	3488.2
2221.657	3493.2
2225.618	3483.2
2229.575	3429.2
2233.529	3397.2
2237.479	3387.2
2241.425	3354.2
2245.368	3283.2
2249.307	3250.2
2253.243	3187.2
2257.175	3146.2
2261.104	3107.2
2265.029	3076.2
2268.95	3032.2
2272.868	3010.2
2276.783	2973.2
2280.694	2943.2
2284.601	2920.2
2288.505	2894.2
2292.405	2830.2
2296.302	2842.2
2300.195	2810.2
2304.085	2774.2
2307.971	2717.2
2311.854	2671.2
2315.734	2644.2
2319.609	2591.2
2323.482	2587.2
2327.351	2551.2
2331.216	2520.2
2335.078	2525.2
2338.937	2468.2
2342.792	2479.2
2346.643	2457.2
2350.492	2466.2
2354.336	2465.2
2358.178	2463.2
2362.015	2462.2
2365.85	2451.2
2369.681	2469.2
2373.508	2467.2
2377.333	2464.2
2381.153	2459.2
2384.971	2442.2
2388.785	2426.2
2392.595	2381.2
2396.402	2375.2
2400.206	2362.2
2404.007	2345.2
2407.804	2352.2
2411.597	2309.2
2415.388	2279.2
2419.174	2286.2
2422.958	2275.2
2426.738	2214.2
2430.515	2232.2
2434.289	2220.2
2438.059	2188.2
2441.825	2184.2
2445.589	2157.2
2449.349	2119.2
2453.106	2133.2
2456.859	2054.2
2460.61	2064.2
2464.356	2045.2
2468.1	1996.2
2471.84	1970.2
2475.577	1946.2
2479.311	1971.2
2483.041	1951.2
2486.768	1915.2
2490.492	1906.2
2494.213	1907.2
2497.93	1912.2
2501.644	1902.2
2505.355	1881.2
2509.062	1889.2
2512.766	1868.2
2516.467	1855.2
2520.165	1830.2
2523.859	1800.2
2527.551	1822.2
2531.239	1815.2
2534.923	1795.2
2538.605	1781.2
2542.283	1771.2
2545.958	1763.2
2549.63	1760.2
2553.299	1768.2
2556.964	1776.2
2560.626	1748.2
2564.285	1740.2
2567.941	1758.2
2571.594	1727.2
2575.243	1723.2
2578.89	1686.2
2582.533	1690.2
2586.173	1680.2
2589.809	1661.2
2593.443	1651.2
2597.073	1652.2
2600.701	1626.2
2604.325	1604.2
2607.946	1586.2
2611.564	1575.2
2615.178	1580.2
2618.79	1568.2
2622.398	1540.2
2626.004	1547.2
2629.606	1529.2
2633.205	1483.2
2636.801	1475.2
2640.394	1458.2
2643.983	1419.2
2647.57	1412.2
2651.153	1365.2
2654.734	1359.2
2658.311	1330.2
2661.885	1336.2
2665.456	1294.2
2669.025	1293.2
2672.589	1284.2
2676.151	1257.2
2679.71	1236.2
2683.266	1229.2
2686.819	1203.2
2690.368	1159.2
2693.915	1157.2
2697.458	1124.2
2700.999	1100.2
2704.536	1071.2
2708.071	1047.2
2711.602	1048.2
2715.13	1001.2
2718.656	996.2
2722.178	987.2
2725.697	943.2
2729.214	949.2
2732.727	958.2
2736.237	944.2
2739.744	930.2
2743.249	965.2
2746.75	959.2
2750.248	959.2
2753.743	969.2
2757.236	989.2
2760.725	984.2
2764.211	993.2
2767.695	993.2
2771.175	998.2
2774.652	988.2
2778.127	1000.2
2781.598	981.2
2785.067	976.2
2788.532	975.2
2791.995	956.2
2795.455	977.2
2798.911	969.2
2802.365	977.2
2805.816	967.2
2809.264	969.2
2812.709	971.2
2816.151	967.2
2819.59	985.2
2823.026	985.2
2826.46	991.2
2829.89	979.2
2833.318	991.2
2836.742	992.2
2840.164	993.2
2843.583	1001.2
2846.999	1021.2
2850.412	1034.2
2853.822	1052.2
2857.229	1073.2
2860.634	1091.2
2864.035	1108.2
2867.434	1131.2
2870.83	1150.2
2874.223	1176.2
2877.613	1196.2
2881	1239.2
2884.385	1214.2
2887.766	1229.2
2891.145	1230.2
2894.521	1237.2
2897.894	1231.2
2901.264	1236.2
2904.631	1247.2
2907.996	1237.2
2911.358	1259.2
2914.717	1260.2
2918.073	1281.2
2921.426	1307.2
2924.777	1307.2
2928.124	1343.2
2931.469	1380.2
2934.811	1401.2
2938.15	1429.2
2941.487	1430.2
2944.821	1443.2
2948.152	1436.2
2951.48	1448.2
2954.805	1421.2
2958.128	1401.2
2961.447	1414.2
2964.765	1420.2
2968.079	1406.2
2971.39	1415.2
2974.699	1461.2
2978.005	1473.2
2981.308	1502.2
2984.609	1523.2
2987.907	1550.2
2991.202	1594.2
2994.494	1606.2
2997.784	1636.2
3001.07	1676.2
3004.355	1713.2
3007.636	1731.2
3010.915	1758.2
3014.191	1774.2
3017.464	1776.2
3020.734	1810.2
3024.002	1820.2
3027.267	1834.2
3030.53	1842.2
3033.789	1860.2
3037.046	1890.2
3040.301	1945.2
3043.552	1956.2
3046.801	1985.2
3050.048	2055.2
3053.291	2088.2
3056.532	2172.2
3059.771	2222.2
3063.006	2310.2
3066.239	2347.2
3069.469	2416.2
3072.697	2504.2
3075.922	2567.2
3079.144	2622.2
3082.364	2682.2
3085.581	2750.2
3088.795	2800.2
3092.007	2894.2
3095.216	2923.2
3098.423	2998.2
3101.627	3076.2
3104.828	3114.2
3108.026	3192.2
3111.222	3269.2
3114.416	3343.2
3117.607	3436.2
3120.795	3500.2
3123.98	3599.2
3127.163	3671.2
3130.344	3775.2
3133.521	3843.2
3136.696	3953.2
3139.869	4031.2
3143.039	4106.2
3146.206	4155.2
3149.371	4195.2
3152.533	4250.2
3155.693	4270.2
3158.85	4308.2
3162.005	4302.2
3165.157	4339.2
3168.306	4339.2
3171.453	4363.2
3174.597	4391.2
3177.739	4422.2
3180.878	4428.2
3184.014	4419.2
3187.149	4392.2
3190.28	4419.2
3193.409	4420.2
3196.536	4443.2
3199.659	4467.2
3202.781	4428.2
3205.9	4442.2
3209.016	4422.2
3212.13	4425.2
3215.241	4404.2
3218.35	4368.2
3221.456	4325.2
3224.56	4269.2
3227.661	4226.2
3230.76	4161.2
3233.856	4151.2
3236.95	4082.2
3240.041	4106.2
3243.13	4048.2
3246.216	4033.2
3249.3	4000.2
3252.382	4000.2
3255.46	4003.2
3258.537	3998.2
3261.611	4004.2
3264.682	4006.2
3267.751	3960.2
3270.818	3958.2
3273.882	3958.2
3276.943	3915.2
3280.002	3905.2
3283.059	3866.2
3286.113	3835.2
3289.165	3743.2
3292.214	3712.2
3295.261	3651.2
3298.306	3597.2
3301.348	3519.2
3304.387	3519.2
3307.425	3428.2
3310.459	3373.2
3313.492	3311.2
3316.521	3289.2
3319.549	3259.2
3322.574	3191.2
3325.597	3175.2
3328.617	3146.2
3331.635	3128.2
3334.65	3139.2
3337.663	3098.2
3340.674	3075.2
3343.682	3051.2
3346.688	3080.2
3349.691	3054.2
3352.692	3045.2
3355.691	3009.2
3358.687	2990.2
3361.681	2961.2
3364.673	2902.2
3367.662	2885.2
3370.649	2819.2
3373.633	2794.2
3376.615	2756.2
3379.595	2705.2
3382.572	2721.2
3385.547	2638.2
3388.52	2590.2
3391.49	2559.2
3394.458	2534.2
3397.424	2484.2
3400.387	2439.2
3403.348	2431.2
3406.307	2401.2
3409.263	2387.2
3412.217	2359.2
3415.168	2328.2
3418.118	2305.2
3421.065	2240.2
3424.009	2227.2
3426.951	2220.2
3429.891	2147.2
3432.829	2105.2
3435.764	2079.2
3438.697	2008.2
3441.628	1982.2
3444.557	1923.2
3447.483	1852.2
3450.407	1797.2
3453.328	1751.2
3456.247	1681.2
3459.164	1616.2
3462.079	1567.2
3464.991	1506.2
3467.902	1455.2
3470.809	1416.2
3473.715	1369.2
3476.618	1314.2
3479.519	1278.2
3482.418	1236.2
3485.315	1198.2
3488.209	1137.2
3491.101	1110.2
3493.99	1077.2
3496.878	1036.2
3499.763	1001.2
3502.646	955.2
3505.527	919.2
3508.405	878.2
3511.281	824.2
3514.155	789.2
3517.027	756.2
3519.897	716.2
3522.764	636.2
3525.629	619.2
3528.492	554.2
3531.352	516.2
3534.211	468.2
3537.067	454.2
3539.921	401.2
3542.773	362.2
3545.622	319.2
3548.469	295.2
3551.315	260.2
3554.157	254.2
3556.998	201.2
3559.837	184.2
3562.673	150.2
3565.507	128.2
3568.339	92.2
3571.169	80.2
3573.996	57.2
3576.822	41.2
3579.645	14.2
3582.466	-18.8
3585.285	-43.8
3588.101	-54.8
3590.916	-79.8
3593.728	-103.8
3596.538	-119.8
3599.346	-130.8
3602.152	-155.8
3604.956	-174.8
3607.757	-205.8
3610.556	-212.8
3613.354	-226.8
3616.149	-242.8
3618.942	-258.8
3621.732	-271.8
3624.521	-284.8
3627.307	-289.8
3630.092	-300.8
3632.874	-315.8
3635.654	-328.8
3638.432	-331.8
3641.208	-347.8
3643.982	-355.8
3646.753	-358.8
3649.523	-372.8
3652.29	-370.8
3655.055	-382.8
3657.818	-404.8
3660.579	-412.8
3663.338	-430.8
3666.095	-434.8
3668.849	-443.8
3671.602	-456.8
3674.352	-465.8
3677.101	-472.8
3679.847	-479.8
3682.591	-486.8
3685.333	-495.8
3688.073	-501.8
3690.811	-503.8
3693.547	-514.8
3696.281	-515.8
3699.013	-526.8
3701.742	-530.8
3704.47	-535.8
3707.195	-539.8
3709.919	-534.8
3712.64	-549.8
3715.359	-549.8
3718.076	-553.8
3720.792	-557.8
3723.505	-553.8
3726.216	-570.8
3728.925	-560.8
3731.632	-572.8
3734.336	-570.8
3737.039	-577.8
3739.74	-576.8
3742.439	-577.8
3745.136	-585.8
3747.83	-589.8
3750.523	-588.8
3753.213	-578.8
3755.902	-586.8
3758.589	-601.8
3761.273	-598.8
3763.956	-601.8
3766.636	-601.8
3769.315	-604.8
3771.991	-601.8
3774.665	-607.8
3777.338	-610.8
3780.008	-608.8
3782.677	-611.8
3785.343	-603.8
3788.007	-615.8
3790.67	-618.8
3793.33	-616.8
3795.989	-618.8
3798.645	-615.8
3801.299	-615.8
3803.952	-627.8
3806.602	-628.8
3809.251	-628.8
3811.897	-628.8
3814.542	-631.8
3817.184	-630.8
3819.825	-623.8
3822.463	-620.8
3825.1	-627.8
3827.735	-629.8
3830.367	-626.8
3832.998	-637.8
3835.627	-636.8
3838.253	-635.8
3840.878	-640.8
3843.501	-640.8
3846.122	-635.8
3848.741	-639.8
3851.358	-636.8
3853.973	-637.8
3856.586	-639.8
3859.197	-644.8
3861.806	-640.8
3864.414	-637.8
3867.019	-632.8
3869.622	-639.8
3872.224	-634.8
3874.823	-618.8
3877.421	-603.8
3880.016	-587.8
3882.61	-566.8
3885.202	-568.8
3887.792	-573.8
3890.38	-601.8
3892.966	-625.8
3895.55	-635.8
3898.132	-652.8
3900.713	-654.8
3903.291	-647.8
3905.868	-657.8
3908.442	-651.8
3911.015	-652.8
3913.586	-651.8
3916.155	-648.8
3918.722	-656.8
3921.287	-654.8
3923.85	-658.8
3926.411	-653.8
3928.971	-663.8
3931.528	-658.8
3934.084	-656.8
3936.638	-654.8
3939.19	-652.8
3941.74	-656.8
3944.288	-662.8
3946.834	-652.8
3949.378	-658.8
3951.921	-655.8
3954.462	-661.8
3957	-654.8
3959.537	-656.8
3962.072	-653.8
3964.606	-652.8
3967.137	-659.8
3969.667	-661.8
3972.194	-651.8
3974.72	-655.8
3977.244	-644.8
3979.766	-638.8
3982.286	-646.8
3984.805	-644.8
3987.321	-642.8
3989.836	-641.8
3992.349	-640.8
3994.86	-635.8
3997.369	-645.8
3999.877	-636.8
4002.382	-643.8
4004.886	-641.8
4007.388	-641.8
4009.888	-640.8
4012.386	-647.8
4014.883	-640.8
4017.377	-639.8
4019.87	-635.8
4022.361	-642.8
4024.85	-641.8
4027.338	-647.8
4029.823	-644.8
4032.307	-647.8
4034.789	-638.8
4037.269	-639.8
4039.747	-645.8
4042.224	-652.8
4044.699	-651.8
4047.172	-648.8
4049.643	-641.8
4052.112	-647.8
4054.58	-653.8
4057.046	-653.8
4059.51	-646.8
4061.972	-648.8
4064.432	-646.8
4066.891	-645.8
4069.348	-650.8
4071.803	-643.8
4074.256	-641.8
4076.708	-644.8
4079.158	-648.8
4081.606	-647.8
4084.052	-650.8
4086.497	-650.8
4088.939	-640.8
4091.38	-645.8
4093.819	-647.8
4096.257	-680.8
4098.693	-677.8
4101.127	-683.8
4103.559	-680.8
4105.989	-388.8
4108.418	-363.8
4110.845	-348.8
4113.27	-304.8
4115.694	-275.8
4118.115	-236.8
4120.535	-642.8
4122.954	-647.8
4125.37	-638.8
4127.785	-642.8
4130.198	-644.8
4132.609	-649.8
4135.019	-679.8
4137.427	-680.8
4139.833	-682.8
4142.237	-675.8
