Data from 2018-2-14_conc=0_n=10_RamanShift_05.txt Node
Date: Wed Feb 14 10:57:56 IST 2018
User: aro
Spectrometer: QEPB0276
Trigger mode: 0
Integration Time (sec): 3.000000E1
Scans to average: 1
Electric dark correction enabled: true
Nonlinearity correction enabled: false
Boxcar width: 0
XAxis mode: Raman Shifts
Number of Pixels in Spectrum: 1044
>>>>>Begin Spectral Data<<<<<
160.701	-135.4
166.742	46.6
172.777	575.6
178.805	2144.6
184.826	5953.6
190.841	12504.6
196.849	20047.6
202.85	25520.6
208.845	27410.6
214.833	27079.6
220.815	26603.6
226.789	26471.6
232.758	26363.6
238.719	26200.6
244.674	25789.6
250.623	25439.6
256.565	24929.6
262.5	24305.6
268.429	23965.6
274.351	23513.6
280.267	23260.6
286.176	22999.6
292.079	22844.6
297.975	22610.6
303.865	22437.6
309.748	22304.6
315.625	22138.6
321.495	22053.6
327.359	21946.6
333.217	21914.6
339.068	21867.6
344.912	21854.6
350.751	21831.6
356.583	21804.6
362.408	21764.6
368.227	21835.6
374.04	21784.6
379.847	21862.6
385.647	21956.6
391.44	22101.6
397.228	22124.6
403.009	22251.6
408.784	22269.6
414.553	22291.6
420.315	22410.6
426.071	22358.6
431.821	22426.6
437.565	22400.6
443.302	22345.6
449.033	22325.6
454.758	22250.6
460.477	22279.6
466.189	22140.6
471.896	22064.6
477.596	22049.6
483.29	21979.6
488.978	21948.6
494.66	21917.6
500.335	21761.6
506.005	21576.6
511.668	21221.6
517.325	21048.6
522.977	20756.6
528.622	20622.6
534.261	20460.6
539.894	20384.6
545.521	20344.6
551.141	20194.6
556.756	20112.6
562.365	20052.6
567.968	19954.6
573.565	19920.6
579.155	19779.6
584.74	19724.6
590.319	19664.6
595.892	19551.6
601.459	19556.6
607.02	19425.6
612.575	19338.6
618.124	19129.6
623.667	19077.6
629.204	19017.6
634.735	18882.6
640.261	18870.6
645.781	18812.6
651.294	18713.6
656.802	18637.6
662.304	18653.6
667.8	18641.6
673.29	18607.6
678.775	18524.6
684.254	18493.6
689.726	18472.6
695.193	18374.6
700.655	18209.6
706.11	18217.6
711.56	18094.6
717.004	18002.6
722.442	17949.6
727.874	17899.6
733.301	17819.6
738.722	17746.6
744.137	17707.6
749.547	17673.6
754.951	17693.6
760.349	17751.6
765.741	17701.6
771.128	17684.6
776.509	17791.6
781.885	17746.6
787.254	17716.6
792.618	17655.6
797.977	17507.6
803.33	17391.6
808.677	17289.6
814.019	17236.6
819.355	17126.6
824.686	17071.6
830.011	17036.6
835.33	17000.6
840.644	17000.6
845.952	17024.6
851.255	17048.6
856.552	17076.6
861.844	17043.6
867.13	16968.6
872.41	16901.6
877.686	16810.6
882.955	16694.6
888.219	16609.6
893.478	16423.6
898.731	16172.6
903.979	16013.6
909.221	15912.6
914.458	15877.6
919.69	15821.6
924.916	15882.6
930.136	15896.6
935.351	15948.6
940.561	15979.6
945.766	15910.6
950.965	15775.6
956.158	15763.6
961.347	15556.6
966.529	15386.6
971.707	15159.6
976.879	15044.6
982.046	14895.6
987.208	14832.6
992.364	14823.6
997.515	14912.6
1002.66	15046.6
1007.801	15219.6
1012.936	15322.6
1018.066	15298.6
1023.19	15322.6
1028.309	15293.6
1033.423	15227.6
1038.532	15170.6
1043.636	15011.6
1048.734	14875.6
1053.827	14668.6
1058.915	14530.6
1063.998	14435.6
1069.075	14443.6
1074.147	14403.6
1079.214	14459.6
1084.276	14558.6
1089.333	14633.6
1094.385	14705.6
1099.431	14781.6
1104.472	14692.6
1109.509	14658.6
1114.54	14460.6
1119.565	14251.6
1124.586	14095.6
1129.602	13950.6
1134.613	13837.6
1139.618	13726.6
1144.619	13750.6
1149.614	13770.6
1154.604	13777.6
1159.589	13796.6
1164.57	13840.6
1169.545	13842.6
1174.515	13794.6
1179.48	13770.6
1184.44	13626.6
1189.395	13535.6
1194.345	13480.6
1199.29	13386.6
1204.23	13419.6
1209.165	13479.6
1214.095	13497.6
1219.021	13599.6
1223.941	13646.6
1228.856	13729.6
1233.766	13753.6
1238.672	13813.6
1243.572	13769.6
1248.467	13629.6
1253.358	13536.6
1258.244	13350.6
1263.124	13142.6
1268	12919.6
1272.871	12760.6
1277.737	12656.6
1282.599	12616.6
1287.455	12596.6
1292.306	12616.6
1297.153	12688.6
1301.995	12745.6
1306.832	12797.6
1311.664	12818.6
1316.491	12723.6
1321.314	12629.6
1326.132	12444.6
1330.945	12161.6
1335.753	11909.6
1340.556	11634.6
1345.354	11366.6
1350.148	11214.6
1354.937	11102.6
1359.722	11131.6
1364.501	11149.6
1369.276	11262.6
1374.046	11350.6
1378.811	11514.6
1383.572	11647.6
1388.327	11685.6
1393.079	11609.6
1397.825	11499.6
1402.567	11351.6
1407.304	11203.6
1412.036	11089.6
1416.764	11003.6
1421.487	10940.6
1426.205	10920.6
1430.919	10846.6
1435.628	10837.6
1440.333	10862.6
1445.032	10918.6
1449.727	10931.6
1454.418	10901.6
1459.104	10823.6
1463.785	10627.6
1468.462	10395.6
1473.134	10153.6
1477.802	9951.6
1482.465	9787.6
1487.123	9679.6
1491.777	9669.6
1496.426	9719.6
1501.071	9844.6
1505.711	9948.6
1510.347	10045.6
1514.978	10270.6
1519.604	10431.6
1524.226	10494.6
1528.844	10555.6
1533.457	10525.6
1538.065	10528.6
1542.669	10387.6
1547.269	10272.6
1551.864	10257.6
1556.454	10224.6
1561.041	10200.6
1565.622	10181.6
1570.199	10208.6
1574.772	10258.6
1579.34	10333.6
1583.904	10352.6
1588.464	10375.6
1593.019	10435.6
1597.569	10372.6
1602.115	10328.6
1606.657	10247.6
1611.195	10227.6
1615.728	10121.6
1620.256	10064.6
1624.78	10059.6
1629.3	10043.6
1633.816	10066.6
1638.327	10139.6
1642.834	10215.6
1647.336	10218.6
1651.834	10280.6
1656.328	10216.6
1660.817	10166.6
1665.302	10081.6
1669.783	9916.6
1674.259	9686.6
1678.732	9401.6
1683.199	9074.6
1687.663	8767.6
1692.122	8540.6
1696.577	8402.6
1701.028	8374.6
1705.474	8429.6
1709.917	8473.6
1714.355	8513.6
1718.788	8452.6
1723.218	8333.6
1727.643	8227.6
1732.064	8078.6
1736.481	7895.6
1740.893	7677.6
1745.301	7483.6
1749.705	7289.6
1754.105	7087.6
1758.501	6831.6
1762.893	6693.6
1767.28	6478.6
1771.663	6372.6
1776.042	6257.6
1780.417	6203.6
1784.787	6204.6
1789.154	6254.6
1793.516	6351.6
1797.874	6448.6
1802.228	6593.6
1806.578	6649.6
1810.924	6668.6
1815.266	6615.6
1819.603	6523.6
1823.937	6422.6
1828.266	6302.6
1832.591	6242.6
1836.913	6160.6
1841.23	6082.6
1845.543	6030.6
1849.852	6005.6
1854.156	5986.6
1858.457	5935.6
1862.754	5976.6
1867.047	5960.6
1871.335	5927.6
1875.62	5952.6
1879.9	5909.6
1884.177	5868.6
1888.449	5827.6
1892.718	5783.6
1896.982	5682.6
1901.243	5625.6
1905.499	5586.6
1909.752	5582.6
1914	5595.6
1918.245	5584.6
1922.485	5613.6
1926.722	5700.6
1930.954	5756.6
1935.183	5803.6
1939.408	5891.6
1943.628	5938.6
1947.845	5929.6
1952.058	5953.6
1956.267	5849.6
1960.472	5804.6
1964.673	5687.6
1968.87	5628.6
1973.063	5552.6
1977.252	5462.6
1981.438	5392.6
1985.619	5336.6
1989.797	5293.6
1993.971	5240.6
1998.14	5257.6
2002.306	5233.6
2006.469	5225.6
2010.627	5162.6
2014.781	5132.6
2018.932	5097.6
2023.078	5063.6
2027.221	4956.6
2031.36	4894.6
2035.495	4801.6
2039.627	4738.6
2043.754	4696.6
2047.878	4645.6
2051.998	4590.6
2056.114	4546.6
2060.226	4578.6
2064.334	4590.6
2068.439	4618.6
2072.54	4650.6
2076.637	4661.6
2080.73	4702.6
2084.82	4734.6
2088.906	4745.6
2092.988	4751.6
2097.066	4721.6
2101.14	4683.6
2105.211	4660.6
2109.278	4641.6
2113.342	4596.6
2117.401	4578.6
2121.457	4556.6
2125.509	4542.6
2129.558	4508.6
2133.602	4494.6
2137.643	4467.6
2141.681	4421.6
2145.714	4405.6
2149.744	4372.6
2153.77	4346.6
2157.793	4298.6
2161.812	4266.6
2165.827	4175.6
2169.838	4088.6
2173.846	4096.6
2177.851	3987.6
2181.851	3930.6
2185.848	3886.6
2189.841	3842.6
2193.831	3783.6
2197.817	3781.6
2201.799	3722.6
2205.778	3718.6
2209.753	3681.6
2213.725	3698.6
2217.693	3694.6
2221.657	3699.6
2225.618	3695.6
2229.575	3659.6
2233.529	3600.6
2237.479	3613.6
2241.425	3544.6
2245.368	3501.6
2249.307	3453.6
2253.243	3395.6
2257.175	3355.6
2261.104	3303.6
2265.029	3248.6
2268.95	3223.6
2272.868	3196.6
2276.783	3212.6
2280.694	3131.6
2284.601	3102.6
2288.505	3072.6
2292.405	3034.6
2296.302	3018.6
2300.195	2961.6
2304.085	2948.6
2307.971	2906.6
2311.854	2847.6
2315.734	2818.6
2319.609	2771.6
2323.482	2730.6
2327.351	2693.6
2331.216	2702.6
2335.078	2718.6
2338.937	2659.6
2342.792	2650.6
2346.643	2633.6
2350.492	2614.6
2354.336	2652.6
2358.178	2650.6
2362.015	2655.6
2365.85	2656.6
2369.681	2655.6
2373.508	2678.6
2377.333	2657.6
2381.153	2644.6
2384.971	2630.6
2388.785	2597.6
2392.595	2573.6
2396.402	2586.6
2400.206	2546.6
2404.007	2539.6
2407.804	2540.6
2411.597	2502.6
2415.388	2489.6
2419.174	2463.6
2422.958	2437.6
2426.738	2411.6
2430.515	2405.6
2434.289	2379.6
2438.059	2378.6
2441.825	2341.6
2445.589	2320.6
2449.349	2294.6
2453.106	2277.6
2456.859	2227.6
2460.61	2223.6
2464.356	2204.6
2468.1	2157.6
2471.84	2159.6
2475.577	2125.6
2479.311	2120.6
2483.041	2137.6
2486.768	2079.6
2490.492	2093.6
2494.213	2084.6
2497.93	2067.6
2501.644	2061.6
2505.355	2045.6
2509.062	2052.6
2512.766	2014.6
2516.467	2026.6
2520.165	2003.6
2523.859	1986.6
2527.551	1977.6
2531.239	1955.6
2534.923	1933.6
2538.605	1935.6
2542.283	1938.6
2545.958	1923.6
2549.63	1925.6
2553.299	1938.6
2556.964	1929.6
2560.626	1911.6
2564.285	1906.6
2567.941	1923.6
2571.594	1890.6
2575.243	1860.6
2578.89	1856.6
2582.533	1855.6
2586.173	1829.6
2589.809	1836.6
2593.443	1792.6
2597.073	1812.6
2600.701	1751.6
2604.325	1748.6
2607.946	1748.6
2611.564	1721.6
2615.178	1721.6
2618.79	1698.6
2622.398	1694.6
2626.004	1673.6
2629.606	1629.6
2633.205	1641.6
2636.801	1611.6
2640.394	1572.6
2643.983	1544.6
2647.57	1536.6
2651.153	1520.6
2654.734	1486.6
2658.311	1477.6
2661.885	1436.6
2665.456	1427.6
2669.025	1399.6
2672.589	1367.6
2676.151	1374.6
2679.71	1365.6
2683.266	1318.6
2686.819	1321.6
2690.368	1303.6
2693.915	1260.6
2697.458	1215.6
2700.999	1205.6
2704.536	1176.6
2708.071	1136.6
2711.602	1145.6
2715.13	1096.6
2718.656	1070.6
2722.178	1079.6
2725.697	1024.6
2729.214	1041.6
2732.727	1019.6
2736.237	1019.6
2739.744	996.6
2743.249	1035.6
2746.75	1039.6
2750.248	1040.6
2753.743	1051.6
2757.236	1055.6
2760.725	1066.6
2764.211	1087.6
2767.695	1072.6
2771.175	1080.6
2774.652	1069.6
2778.127	1073.6
2781.598	1058.6
2785.067	1045.6
2788.532	1050.6
2791.995	1038.6
2795.455	1040.6
2798.911	1050.6
2802.365	1069.6
2805.816	1045.6
2809.264	1035.6
2812.709	1058.6
2816.151	1037.6
2819.59	1052.6
2823.026	1046.6
2826.46	1034.6
2829.89	1045.6
2833.318	1069.6
2836.742	1060.6
2840.164	1051.6
2843.583	1062.6
2846.999	1092.6
2850.412	1101.6
2853.822	1096.6
2857.229	1105.6
2860.634	1144.6
2864.035	1148.6
2867.434	1172.6
2870.83	1190.6
2874.223	1206.6
2877.613	1245.6
2881	1223.6
2884.385	1255.6
2887.766	1238.6
2891.145	1248.6
2894.521	1236.6
2897.894	1250.6
2901.264	1230.6
2904.631	1239.6
2907.996	1232.6
2911.358	1248.6
2914.717	1256.6
2918.073	1263.6
2921.426	1301.6
2924.777	1295.6
2928.124	1307.6
2931.469	1330.6
2934.811	1353.6
2938.15	1364.6
2941.487	1398.6
2944.821	1392.6
2948.152	1386.6
2951.48	1380.6
2954.805	1358.6
2958.128	1357.6
2961.447	1330.6
2964.765	1334.6
2968.079	1329.6
2971.39	1347.6
2974.699	1361.6
2978.005	1385.6
2981.308	1427.6
2984.609	1429.6
2987.907	1459.6
2991.202	1482.6
2994.494	1515.6
2997.784	1557.6
3001.07	1573.6
3004.355	1595.6
3007.636	1619.6
3010.915	1651.6
3014.191	1654.6
3017.464	1655.6
3020.734	1680.6
3024.002	1698.6
3027.267	1683.6
3030.53	1725.6
3033.789	1718.6
3037.046	1749.6
3040.301	1774.6
3043.552	1804.6
3046.801	1846.6
3050.048	1895.6
3053.291	1928.6
3056.532	1985.6
3059.771	2047.6
3063.006	2089.6
3066.239	2160.6
3069.469	2231.6
3072.697	2285.6
3075.922	2335.6
3079.144	2383.6
3082.364	2461.6
3085.581	2500.6
3088.795	2549.6
3092.007	2608.6
3095.216	2660.6
3098.423	2727.6
3101.627	2788.6
3104.828	2847.6
3108.026	2898.6
3111.222	2970.6
3114.416	3030.6
3117.607	3091.6
3120.795	3168.6
3123.98	3242.6
3127.163	3318.6
3130.344	3406.6
3133.521	3489.6
3136.696	3523.6
3139.869	3626.6
3143.039	3696.6
3146.206	3714.6
3149.371	3777.6
3152.533	3832.6
3155.693	3858.6
3158.85	3865.6
3162.005	3873.6
3165.157	3901.6
3168.306	3907.6
3171.453	3905.6
3174.597	3913.6
3177.739	3935.6
3180.878	3934.6
3184.014	3931.6
3187.149	3936.6
3190.28	3938.6
3193.409	3950.6
3196.536	3952.6
3199.659	3965.6
3202.781	3961.6
3205.9	3952.6
3209.016	3954.6
3212.13	3931.6
3215.241	3916.6
3218.35	3890.6
3221.456	3842.6
3224.56	3804.6
3227.661	3711.6
3230.76	3692.6
3233.856	3690.6
3236.95	3635.6
3240.041	3603.6
3243.13	3590.6
3246.216	3549.6
3249.3	3508.6
3252.382	3523.6
3255.46	3505.6
3258.537	3482.6
3261.611	3501.6
3264.682	3512.6
3267.751	3479.6
3270.818	3475.6
3273.882	3485.6
3276.943	3425.6
3280.002	3470.6
3283.059	3408.6
3286.113	3363.6
3289.165	3306.6
3292.214	3264.6
3295.261	3205.6
3298.306	3170.6
3301.348	3111.6
3304.387	3067.6
3307.425	3017.6
3310.459	2968.6
3313.492	2958.6
3316.521	2914.6
3319.549	2859.6
3322.574	2821.6
3325.597	2834.6
3328.617	2791.6
3331.635	2775.6
3334.65	2750.6
3337.663	2721.6
3340.674	2723.6
3343.682	2723.6
3346.688	2732.6
3349.691	2721.6
3352.692	2668.6
3355.691	2659.6
3358.687	2657.6
3361.681	2622.6
3364.673	2576.6
3367.662	2544.6
3370.649	2503.6
3373.633	2502.6
3376.615	2413.6
3379.595	2401.6
3382.572	2364.6
3385.547	2342.6
3388.52	2292.6
3391.49	2279.6
3394.458	2214.6
3397.424	2217.6
3400.387	2150.6
3403.348	2143.6
3406.307	2093.6
3409.263	2095.6
3412.217	2045.6
3415.168	2059.6
3418.118	2017.6
3421.065	1994.6
3424.009	1978.6
3426.951	1924.6
3429.891	1906.6
3432.829	1842.6
3435.764	1808.6
3438.697	1774.6
3441.628	1692.6
3444.557	1650.6
3447.483	1610.6
3450.407	1559.6
3453.328	1519.6
3456.247	1472.6
3459.164	1418.6
3462.079	1355.6
3464.991	1301.6
3467.902	1256.6
3470.809	1225.6
3473.715	1167.6
3476.618	1121.6
3479.519	1076.6
3482.418	1037.6
3485.315	1020.6
3488.209	962.6
3491.101	936.6
3493.99	895.6
3496.878	864.6
3499.763	844.6
3502.646	819.6
3505.527	762.6
3508.405	730.6
3511.281	704.6
3514.155	648.6
3517.027	631.6
3519.897	582.6
3522.764	529.6
3525.629	504.6
3528.492	449.6
3531.352	419.6
3534.211	376.6
3537.067	330.6
3539.921	304.6
3542.773	284.6
3545.622	243.6
3548.469	208.6
3551.315	194.6
3554.157	156.6
3556.998	130.6
3559.837	106.6
3562.673	81.6
3565.507	57.6
3568.339	39.6
3571.169	17.6
3573.996	3.6
3576.822	-17.4
3579.645	-36.4
3582.466	-63.4
3585.285	-81.4
3588.101	-97.4
3590.916	-116.4
3593.728	-140.4
3596.538	-146.4
3599.346	-169.4
3602.152	-195.4
3604.956	-204.4
3607.757	-226.4
3610.556	-244.4
3613.354	-247.4
3616.149	-255.4
3618.942	-271.4
3621.732	-292.4
3624.521	-296.4
3627.307	-295.4
3630.092	-322.4
3632.874	-320.4
3635.654	-329.4
3638.432	-336.4
3641.208	-344.4
3643.982	-364.4
3646.753	-369.4
3649.523	-383.4
3652.29	-390.4
3655.055	-399.4
3657.818	-407.4
3660.579	-414.4
3663.338	-431.4
3666.095	-440.4
3668.849	-436.4
3671.602	-447.4
3674.352	-453.4
3677.101	-455.4
3679.847	-473.4
3682.591	-476.4
3685.333	-483.4
3688.073	-492.4
3690.811	-500.4
3693.547	-505.4
3696.281	-503.4
3699.013	-505.4
3701.742	-519.4
3704.47	-523.4
3707.195	-530.4
3709.919	-528.4
3712.64	-527.4
3715.359	-532.4
3718.076	-541.4
3720.792	-540.4
3723.505	-539.4
3726.216	-551.4
3728.925	-548.4
3731.632	-557.4
3734.336	-557.4
3737.039	-561.4
3739.74	-557.4
3742.439	-563.4
3745.136	-570.4
3747.83	-576.4
3750.523	-566.4
3753.213	-556.4
3755.902	-570.4
3758.589	-580.4
3761.273	-578.4
3763.956	-583.4
3766.636	-580.4
3769.315	-591.4
3771.991	-587.4
3774.665	-591.4
3777.338	-589.4
3780.008	-591.4
3782.677	-597.4
3785.343	-590.4
3788.007	-602.4
3790.67	-594.4
3793.33	-598.4
3795.989	-602.4
3798.645	-594.4
3801.299	-599.4
3803.952	-604.4
3806.602	-609.4
3809.251	-612.4
3811.897	-608.4
3814.542	-611.4
3817.184	-607.4
3819.825	-605.4
3822.463	-606.4
3825.1	-611.4
3827.735	-605.4
3830.367	-610.4
3832.998	-613.4
3835.627	-616.4
3838.253	-613.4
3840.878	-620.4
3843.501	-613.4
3846.122	-611.4
3848.741	-610.4
3851.358	-614.4
3853.973	-615.4
3856.586	-621.4
3859.197	-623.4
3861.806	-622.4
3864.414	-614.4
3867.019	-621.4
3869.622	-619.4
3872.224	-614.4
3874.823	-604.4
3877.421	-585.4
3880.016	-565.4
3882.61	-535.4
3885.202	-526.4
3887.792	-546.4
3890.38	-582.4
3892.966	-606.4
3895.55	-611.4
3898.132	-629.4
3900.713	-631.4
3903.291	-630.4
3905.868	-629.4
3908.442	-635.4
3911.015	-634.4
3913.586	-626.4
3916.155	-626.4
3918.722	-627.4
3921.287	-629.4
3923.85	-634.4
3926.411	-629.4
3928.971	-641.4
3931.528	-635.4
3934.084	-634.4
3936.638	-631.4
3939.19	-635.4
3941.74	-633.4
3944.288	-639.4
3946.834	-632.4
3949.378	-636.4
3951.921	-636.4
3954.462	-639.4
3957	-630.4
3959.537	-634.4
3962.072	-630.4
3964.606	-635.4
3967.137	-637.4
3969.667	-634.4
3972.194	-623.4
3974.72	-630.4
3977.244	-625.4
3979.766	-624.4
3982.286	-628.4
3984.805	-624.4
3987.321	-621.4
3989.836	-623.4
3992.349	-620.4
3994.86	-616.4
3997.369	-626.4
3999.877	-615.4
4002.382	-609.4
4004.886	-619.4
4007.388	-616.4
4009.888	-616.4
4012.386	-615.4
4014.883	-617.4
4017.377	-614.4
4019.87	-618.4
4022.361	-620.4
4024.85	-622.4
4027.338	-621.4
4029.823	-623.4
4032.307	-621.4
4034.789	-618.4
4037.269	-614.4
4039.747	-620.4
4042.224	-620.4
4044.699	-625.4
4047.172	-622.4
4049.643	-617.4
4052.112	-631.4
4054.58	-624.4
4057.046	-623.4
4059.51	-625.4
4061.972	-624.4
4064.432	-627.4
4066.891	-619.4
4069.348	-626.4
4071.803	-618.4
4074.256	-624.4
4076.708	-624.4
4079.158	-626.4
4081.606	-625.4
4084.052	-630.4
4086.497	-624.4
4088.939	-624.4
4091.38	-618.4
4093.819	-615.4
4096.257	-656.4
4098.693	-660.4
4101.127	-658.4
4103.559	-659.4
4105.989	-372.4
4108.418	-351.4
4110.845	-324.4
4113.27	-302.4
4115.694	-266.4
4118.115	-215.4
4120.535	-621.4
4122.954	-623.4
4125.37	-615.4
4127.785	-623.4
4130.198	-628.4
4132.609	-626.4
4135.019	-660.4
4137.427	-657.4
4139.833	-658.4
4142.237	-655.4
