Data from 2018-2-14_conc=5_n=7_RamanShift_04.txt Node
Date: Wed Feb 14 14:25:55 IST 2018
User: aro
Spectrometer: QEPB0276
Trigger mode: 0
Integration Time (sec): 3.000000E1
Scans to average: 1
Electric dark correction enabled: true
Nonlinearity correction enabled: false
Boxcar width: 0
XAxis mode: Raman Shifts
Number of Pixels in Spectrum: 1044
>>>>>Begin Spectral Data<<<<<
160.701	-151.9
166.742	43.1
172.777	610.1
178.805	2342.1
184.826	6507.1
190.841	13650.1
196.849	21952.1
202.85	27732.1
208.845	29644.1
214.833	29354.1
220.815	28903.1
226.789	28713.1
232.758	28478.1
238.719	28339.1
244.674	27940.1
250.623	27498.1
256.565	26849.1
262.5	26413.1
268.429	25822.1
274.351	25498.1
280.267	25079.1
286.176	24787.1
292.079	24661.1
297.975	24370.1
303.865	24126.1
309.748	23939.1
315.625	23839.1
321.495	23699.1
327.359	23586.1
333.217	23585.1
339.068	23614.1
344.912	23611.1
350.751	23488.1
356.583	23513.1
362.408	23446.1
368.227	23533.1
374.04	23486.1
379.847	23562.1
385.647	23707.1
391.44	23742.1
397.228	23807.1
403.009	23898.1
408.784	24029.1
414.553	24120.1
420.315	24137.1
426.071	24185.1
431.821	24103.1
437.565	24063.1
443.302	24101.1
449.033	24012.1
454.758	23981.1
460.477	23922.1
466.189	23861.1
471.896	23794.1
477.596	23739.1
483.29	23698.1
488.978	23614.1
494.66	23649.1
500.335	23400.1
506.005	23103.1
511.668	22868.1
517.325	22679.1
522.977	22443.1
528.622	22226.1
534.261	22206.1
539.894	22070.1
545.521	21886.1
551.141	21908.1
556.756	21771.1
562.365	21664.1
567.968	21637.1
573.565	21501.1
579.155	21448.1
584.74	21310.1
590.319	21261.1
595.892	21181.1
601.459	21135.1
607.02	20994.1
612.575	20892.1
618.124	20760.1
623.667	20641.1
629.204	20527.1
634.735	20433.1
640.261	20364.1
645.781	20324.1
651.294	20247.1
656.802	20251.1
662.304	20200.1
667.8	20185.1
673.29	20115.1
678.775	20005.1
684.254	19951.1
689.726	19941.1
695.193	19894.1
700.655	19739.1
706.11	19694.1
711.56	19598.1
717.004	19494.1
722.442	19390.1
727.874	19254.1
733.301	19248.1
738.722	19191.1
744.137	19170.1
749.547	19132.1
754.951	19143.1
760.349	19130.1
765.741	19138.1
771.128	19179.1
776.509	19142.1
781.885	19176.1
787.254	19102.1
792.618	18986.1
797.977	18908.1
803.33	18775.1
808.677	18686.1
814.019	18521.1
819.355	18495.1
824.686	18376.1
830.011	18345.1
835.33	18353.1
840.644	18349.1
845.952	18410.1
851.255	18402.1
856.552	18444.1
861.844	18377.1
867.13	18347.1
872.41	18274.1
877.686	18147.1
882.955	18055.1
888.219	17831.1
893.478	17653.1
898.731	17468.1
903.979	17183.1
909.221	17125.1
914.458	17087.1
919.69	17133.1
924.916	17055.1
930.136	17233.1
935.351	17221.1
940.561	17231.1
945.766	17141.1
950.965	17035.1
956.158	16942.1
961.347	16740.1
966.529	16572.1
971.707	16334.1
976.879	16136.1
982.046	15986.1
987.208	15985.1
992.364	15944.1
997.515	16070.1
1002.66	16200.1
1007.801	16380.1
1012.936	16475.1
1018.066	16534.1
1023.19	16437.1
1028.309	16504.1
1033.423	16467.1
1038.532	16360.1
1043.636	16201.1
1048.734	16012.1
1053.827	15814.1
1058.915	15665.1
1063.998	15584.1
1069.075	15443.1
1074.147	15486.1
1079.214	15516.1
1084.276	15584.1
1089.333	15737.1
1094.385	15772.1
1099.431	15844.1
1104.472	15913.1
1109.509	15765.1
1114.54	15612.1
1119.565	15352.1
1124.586	15132.1
1129.602	15019.1
1134.613	14934.1
1139.618	14842.1
1144.619	14799.1
1149.614	14776.1
1154.604	14857.1
1159.589	14833.1
1164.57	14882.1
1169.545	14903.1
1174.515	14867.1
1179.48	14829.1
1184.44	14735.1
1189.395	14605.1
1194.345	14505.1
1199.29	14480.1
1204.23	14400.1
1209.165	14442.1
1214.095	14527.1
1219.021	14613.1
1223.941	14709.1
1228.856	14755.1
1233.766	14834.1
1238.672	14811.1
1243.572	14855.1
1248.467	14699.1
1253.358	14559.1
1258.244	14325.1
1263.124	14107.1
1268	13946.1
1272.871	13755.1
1277.737	13676.1
1282.599	13606.1
1287.455	13566.1
1292.306	13598.1
1297.153	13657.1
1301.995	13699.1
1306.832	13795.1
1311.664	13738.1
1316.491	13713.1
1321.314	13601.1
1326.132	13364.1
1330.945	13113.1
1335.753	12768.1
1340.556	12469.1
1345.354	12201.1
1350.148	11973.1
1354.937	11877.1
1359.722	11930.1
1364.501	11971.1
1369.276	12117.1
1374.046	12294.1
1378.811	12465.1
1383.572	12656.1
1388.327	12675.1
1393.079	12640.1
1397.825	12500.1
1402.567	12264.1
1407.304	12044.1
1412.036	11999.1
1416.764	11857.1
1421.487	11793.1
1426.205	11717.1
1430.919	11651.1
1435.628	11676.1
1440.333	11674.1
1445.032	11734.1
1449.727	11734.1
1454.418	11756.1
1459.104	11626.1
1463.785	11411.1
1468.462	11168.1
1473.134	10935.1
1477.802	10721.1
1482.465	10553.1
1487.123	10384.1
1491.777	10391.1
1496.426	10447.1
1501.071	10643.1
1505.711	10762.1
1510.347	10895.1
1514.978	11136.1
1519.604	11326.1
1524.226	11411.1
1528.844	11433.1
1533.457	11374.1
1538.065	11358.1
1542.669	11269.1
1547.269	11159.1
1551.864	11113.1
1556.454	11013.1
1561.041	11043.1
1565.622	11019.1
1570.199	11016.1
1574.772	11113.1
1579.34	11165.1
1583.904	11232.1
1588.464	11249.1
1593.019	11233.1
1597.569	11226.1
1602.115	11138.1
1606.657	11072.1
1611.195	11028.1
1615.728	10942.1
1620.256	10885.1
1624.78	10855.1
1629.3	10900.1
1633.816	10895.1
1638.327	10966.1
1642.834	11046.1
1647.336	11049.1
1651.834	11095.1
1656.328	11032.1
1660.817	11001.1
1665.302	10933.1
1669.783	10770.1
1674.259	10519.1
1678.732	10216.1
1683.199	9846.1
1687.663	9552.1
1692.122	9261.1
1696.577	9118.1
1701.028	9144.1
1705.474	9182.1
1709.917	9250.1
1714.355	9277.1
1718.788	9240.1
1723.218	9082.1
1727.643	8871.1
1732.064	8741.1
1736.481	8502.1
1740.893	8318.1
1745.301	8143.1
1749.705	7910.1
1754.105	7681.1
1758.501	7450.1
1762.893	7269.1
1767.28	7103.1
1771.663	6926.1
1776.042	6829.1
1780.417	6760.1
1784.787	6778.1
1789.154	6869.1
1793.516	6996.1
1797.874	7104.1
1802.228	7217.1
1806.578	7284.1
1810.924	7284.1
1815.266	7207.1
1819.603	7140.1
1823.937	6993.1
1828.266	6859.1
1832.591	6752.1
1836.913	6654.1
1841.23	6629.1
1845.543	6541.1
1849.852	6507.1
1854.156	6481.1
1858.457	6485.1
1862.754	6465.1
1867.047	6452.1
1871.335	6464.1
1875.62	6459.1
1879.9	6421.1
1884.177	6343.1
1888.449	6340.1
1892.718	6245.1
1896.982	6206.1
1901.243	6151.1
1905.499	6091.1
1909.752	6104.1
1914	6122.1
1918.245	6116.1
1922.485	6187.1
1926.722	6241.1
1930.954	6297.1
1935.183	6371.1
1939.408	6429.1
1943.628	6472.1
1947.845	6450.1
1952.058	6447.1
1956.267	6385.1
1960.472	6328.1
1964.673	6217.1
1968.87	6103.1
1973.063	6020.1
1977.252	5941.1
1981.438	5906.1
1985.619	5842.1
1989.797	5742.1
1993.971	5730.1
1998.14	5701.1
2002.306	5687.1
2006.469	5659.1
2010.627	5661.1
2014.781	5599.1
2018.932	5564.1
2023.078	5476.1
2027.221	5386.1
2031.36	5338.1
2035.495	5280.1
2039.627	5183.1
2043.754	5117.1
2047.878	5085.1
2051.998	5036.1
2056.114	5009.1
2060.226	5017.1
2064.334	5010.1
2068.439	5040.1
2072.54	5058.1
2076.637	5111.1
2080.73	5156.1
2084.82	5165.1
2088.906	5190.1
2092.988	5198.1
2097.066	5172.1
2101.14	5123.1
2105.211	5065.1
2109.278	5047.1
2113.342	5044.1
2117.401	5007.1
2121.457	4972.1
2125.509	4958.1
2129.558	4931.1
2133.602	4898.1
2137.643	4858.1
2141.681	4857.1
2145.714	4841.1
2149.744	4789.1
2153.77	4719.1
2157.793	4668.1
2161.812	4623.1
2165.827	4517.1
2169.838	4483.1
2173.846	4438.1
2177.851	4313.1
2181.851	4261.1
2185.848	4243.1
2189.841	4178.1
2193.831	4130.1
2197.817	4086.1
2201.799	4099.1
2205.778	4054.1
2209.753	4019.1
2213.725	4012.1
2217.693	4035.1
2221.657	4019.1
2225.618	3997.1
2229.575	3982.1
2233.529	3931.1
2237.479	3903.1
2241.425	3861.1
2245.368	3796.1
2249.307	3739.1
2253.243	3698.1
2257.175	3635.1
2261.104	3586.1
2265.029	3535.1
2268.95	3518.1
2272.868	3491.1
2276.783	3431.1
2280.694	3403.1
2284.601	3372.1
2288.505	3333.1
2292.405	3284.1
2296.302	3261.1
2300.195	3220.1
2304.085	3198.1
2307.971	3129.1
2311.854	3081.1
2315.734	3051.1
2319.609	3011.1
2323.482	2970.1
2327.351	2943.1
2331.216	2917.1
2335.078	2909.1
2338.937	2865.1
2342.792	2863.1
2346.643	2820.1
2350.492	2837.1
2354.336	2833.1
2358.178	2848.1
2362.015	2874.1
2365.85	2867.1
2369.681	2861.1
2373.508	2858.1
2377.333	2827.1
2381.153	2833.1
2384.971	2820.1
2388.785	2788.1
2392.595	2759.1
2396.402	2724.1
2400.206	2706.1
2404.007	2696.1
2407.804	2672.1
2411.597	2666.1
2415.388	2650.1
2419.174	2632.1
2422.958	2600.1
2426.738	2579.1
2430.515	2571.1
2434.289	2556.1
2438.059	2518.1
2441.825	2493.1
2445.589	2485.1
2449.349	2424.1
2453.106	2413.1
2456.859	2363.1
2460.61	2350.1
2464.356	2328.1
2468.1	2296.1
2471.84	2270.1
2475.577	2269.1
2479.311	2225.1
2483.041	2242.1
2486.768	2217.1
2490.492	2205.1
2494.213	2210.1
2497.93	2215.1
2501.644	2174.1
2505.355	2183.1
2509.062	2174.1
2512.766	2138.1
2516.467	2156.1
2520.165	2107.1
2523.859	2098.1
2527.551	2092.1
2531.239	2083.1
2534.923	2068.1
2538.605	2073.1
2542.283	2084.1
2545.958	2067.1
2549.63	2068.1
2553.299	2064.1
2556.964	2049.1
2560.626	2023.1
2564.285	2024.1
2567.941	2010.1
2571.594	2000.1
2575.243	1977.1
2578.89	1986.1
2582.533	1945.1
2586.173	1911.1
2589.809	1935.1
2593.443	1900.1
2597.073	1860.1
2600.701	1884.1
2604.325	1849.1
2607.946	1842.1
2611.564	1828.1
2615.178	1811.1
2618.79	1800.1
2622.398	1794.1
2626.004	1759.1
2629.606	1751.1
2633.205	1733.1
2636.801	1701.1
2640.394	1672.1
2643.983	1650.1
2647.57	1640.1
2651.153	1606.1
2654.734	1556.1
2658.311	1542.1
2661.885	1520.1
2665.456	1516.1
2669.025	1484.1
2672.589	1470.1
2676.151	1466.1
2679.71	1438.1
2683.266	1410.1
2686.819	1400.1
2690.368	1351.1
2693.915	1326.1
2697.458	1289.1
2700.999	1261.1
2704.536	1237.1
2708.071	1206.1
2711.602	1196.1
2715.13	1162.1
2718.656	1157.1
2722.178	1114.1
2725.697	1113.1
2729.214	1102.1
2732.727	1098.1
2736.237	1091.1
2739.744	1094.1
2743.249	1098.1
2746.75	1110.1
2750.248	1093.1
2753.743	1121.1
2757.236	1148.1
2760.725	1149.1
2764.211	1163.1
2767.695	1142.1
2771.175	1143.1
2774.652	1129.1
2778.127	1139.1
2781.598	1115.1
2785.067	1090.1
2788.532	1122.1
2791.995	1122.1
2795.455	1127.1
2798.911	1093.1
2802.365	1110.1
2805.816	1100.1
2809.264	1109.1
2812.709	1103.1
2816.151	1104.1
2819.59	1105.1
2823.026	1108.1
2826.46	1115.1
2829.89	1113.1
2833.318	1117.1
2836.742	1119.1
2840.164	1109.1
2843.583	1135.1
2846.999	1138.1
2850.412	1155.1
2853.822	1185.1
2857.229	1181.1
2860.634	1209.1
2864.035	1226.1
2867.434	1231.1
2870.83	1250.1
2874.223	1280.1
2877.613	1295.1
2881	1322.1
2884.385	1320.1
2887.766	1342.1
2891.145	1299.1
2894.521	1334.1
2897.894	1328.1
2901.264	1311.1
2904.631	1326.1
2907.996	1329.1
2911.358	1329.1
2914.717	1339.1
2918.073	1357.1
2921.426	1363.1
2924.777	1375.1
2928.124	1387.1
2931.469	1433.1
2934.811	1440.1
2938.15	1485.1
2941.487	1505.1
2944.821	1480.1
2948.152	1501.1
2951.48	1473.1
2954.805	1467.1
2958.128	1451.1
2961.447	1448.1
2964.765	1428.1
2968.079	1446.1
2971.39	1455.1
2974.699	1462.1
2978.005	1495.1
2981.308	1532.1
2984.609	1545.1
2987.907	1564.1
2991.202	1595.1
2994.494	1656.1
2997.784	1680.1
3001.07	1707.1
3004.355	1734.1
3007.636	1753.1
3010.915	1790.1
3014.191	1785.1
3017.464	1799.1
3020.734	1821.1
3024.002	1826.1
3027.267	1854.1
3030.53	1852.1
3033.789	1876.1
3037.046	1899.1
3040.301	1912.1
3043.552	1957.1
3046.801	1994.1
3050.048	2035.1
3053.291	2102.1
3056.532	2154.1
3059.771	2199.1
3063.006	2299.1
3066.239	2316.1
3069.469	2400.1
3072.697	2451.1
3075.922	2523.1
3079.144	2573.1
3082.364	2654.1
3085.581	2685.1
3088.795	2740.1
3092.007	2818.1
3095.216	2876.1
3098.423	2926.1
3101.627	2991.1
3104.828	3095.1
3108.026	3130.1
3111.222	3230.1
3114.416	3274.1
3117.607	3347.1
3120.795	3441.1
3123.98	3506.1
3127.163	3613.1
3130.344	3687.1
3133.521	3774.1
3136.696	3835.1
3139.869	3924.1
3143.039	3987.1
3146.206	4056.1
3149.371	4102.1
3152.533	4160.1
3155.693	4157.1
3158.85	4187.1
3162.005	4214.1
3165.157	4239.1
3168.306	4261.1
3171.453	4254.1
3174.597	4272.1
3177.739	4276.1
3180.878	4276.1
3184.014	4301.1
3187.149	4268.1
3190.28	4281.1
3193.409	4304.1
3196.536	4308.1
3199.659	4311.1
3202.781	4324.1
3205.9	4308.1
3209.016	4300.1
3212.13	4295.1
3215.241	4241.1
3218.35	4236.1
3221.456	4222.1
3224.56	4137.1
3227.661	4103.1
3230.76	4050.1
3233.856	4011.1
3236.95	3999.1
3240.041	3971.1
3243.13	3925.1
3246.216	3910.1
3249.3	3885.1
3252.382	3889.1
3255.46	3847.1
3258.537	3848.1
3261.611	3852.1
3264.682	3835.1
3267.751	3850.1
3270.818	3842.1
3273.882	3854.1
3276.943	3804.1
3280.002	3777.1
3283.059	3755.1
3286.113	3730.1
3289.165	3632.1
3292.214	3589.1
3295.261	3533.1
3298.306	3465.1
3301.348	3422.1
3304.387	3356.1
3307.425	3301.1
3310.459	3246.1
3313.492	3226.1
3316.521	3176.1
3319.549	3129.1
3322.574	3113.1
3325.597	3081.1
3328.617	3054.1
3331.635	3022.1
3334.65	3008.1
3337.663	3010.1
3340.674	2996.1
3343.682	2949.1
3346.688	2977.1
3349.691	2943.1
3352.692	2941.1
3355.691	2900.1
3358.687	2875.1
3361.681	2829.1
3364.673	2796.1
3367.662	2752.1
3370.649	2720.1
3373.633	2697.1
3376.615	2647.1
3379.595	2621.1
3382.572	2582.1
3385.547	2550.1
3388.52	2507.1
3391.49	2483.1
3394.458	2405.1
3397.424	2392.1
3400.387	2361.1
3403.348	2337.1
3406.307	2319.1
3409.263	2275.1
3412.217	2255.1
3415.168	2237.1
3418.118	2196.1
3421.065	2148.1
3424.009	2132.1
3426.951	2110.1
3429.891	2072.1
3432.829	2028.1
3435.764	1989.1
3438.697	1942.1
3441.628	1881.1
3444.557	1818.1
3447.483	1752.1
3450.407	1706.1
3453.328	1664.1
3456.247	1615.1
3459.164	1538.1
3462.079	1499.1
3464.991	1441.1
3467.902	1394.1
3470.809	1322.1
3473.715	1280.1
3476.618	1226.1
3479.519	1183.1
3482.418	1151.1
3485.315	1118.1
3488.209	1073.1
3491.101	1040.1
3493.99	995.1
3496.878	964.1
3499.763	934.1
3502.646	869.1
3505.527	847.1
3508.405	801.1
3511.281	764.1
3514.155	729.1
3517.027	676.1
3519.897	641.1
3522.764	592.1
3525.629	552.1
3528.492	496.1
3531.352	453.1
3534.211	421.1
3537.067	393.1
3539.921	349.1
3542.773	310.1
3545.622	269.1
3548.469	245.1
3551.315	206.1
3554.157	185.1
3556.998	150.1
3559.837	111.1
3562.673	108.1
3565.507	66.1
3568.339	33.1
3571.169	32.1
3573.996	7.1
3576.822	-20.9
3579.645	-40.9
3582.466	-57.9
3585.285	-87.9
3588.101	-107.9
3590.916	-124.9
3593.728	-151.9
3596.538	-164.9
3599.346	-182.9
3602.152	-209.9
3604.956	-208.9
3607.757	-231.9
3610.556	-255.9
3613.354	-268.9
3616.149	-278.9
3618.942	-291.9
3621.732	-297.9
3624.521	-322.9
3627.307	-317.9
3630.092	-337.9
3632.874	-353.9
3635.654	-367.9
3638.432	-367.9
3641.208	-369.9
3643.982	-394.9
3646.753	-402.9
3649.523	-411.9
3652.29	-412.9
3655.055	-424.9
3657.818	-445.9
3660.579	-444.9
3663.338	-468.9
3666.095	-479.9
3668.849	-487.9
3671.602	-489.9
3674.352	-497.9
3677.101	-503.9
3679.847	-513.9
3682.591	-519.9
3685.333	-531.9
3688.073	-529.9
3690.811	-538.9
3693.547	-536.9
3696.281	-550.9
3699.013	-554.9
3701.742	-564.9
3704.47	-575.9
3707.195	-576.9
3709.919	-577.9
3712.64	-572.9
3715.359	-582.9
3718.076	-588.9
3720.792	-582.9
3723.505	-590.9
3726.216	-601.9
3728.925	-603.9
3731.632	-602.9
3734.336	-610.9
3737.039	-615.9
3739.74	-607.9
3742.439	-611.9
3745.136	-618.9
3747.83	-620.9
3750.523	-620.9
3753.213	-625.9
3755.902	-625.9
3758.589	-619.9
3761.273	-630.9
3763.956	-629.9
3766.636	-641.9
3769.315	-636.9
3771.991	-636.9
3774.665	-637.9
3777.338	-639.9
3780.008	-637.9
3782.677	-652.9
3785.343	-643.9
3788.007	-647.9
3790.67	-645.9
3793.33	-656.9
3795.989	-650.9
3798.645	-644.9
3801.299	-651.9
3803.952	-653.9
3806.602	-666.9
3809.251	-664.9
3811.897	-661.9
3814.542	-660.9
3817.184	-655.9
3819.825	-656.9
3822.463	-654.9
3825.1	-663.9
3827.735	-657.9
3830.367	-656.9
3832.998	-666.9
3835.627	-668.9
3838.253	-668.9
3840.878	-672.9
3843.501	-671.9
3846.122	-664.9
3848.741	-668.9
3851.358	-668.9
3853.973	-671.9
3856.586	-672.9
3859.197	-671.9
3861.806	-679.9
3864.414	-674.9
3867.019	-665.9
3869.622	-672.9
3872.224	-668.9
3874.823	-653.9
3877.421	-639.9
3880.016	-615.9
3882.61	-592.9
3885.202	-583.9
3887.792	-609.9
3890.38	-633.9
3892.966	-659.9
3895.55	-669.9
3898.132	-683.9
3900.713	-686.9
3903.291	-689.9
3905.868	-683.9
3908.442	-685.9
3911.015	-683.9
3913.586	-676.9
3916.155	-676.9
3918.722	-687.9
3921.287	-689.9
3923.85	-691.9
3926.411	-684.9
3928.971	-693.9
3931.528	-689.9
3934.084	-688.9
3936.638	-688.9
3939.19	-688.9
3941.74	-685.9
3944.288	-690.9
3946.834	-683.9
3949.378	-689.9
3951.921	-685.9
3954.462	-693.9
3957	-685.9
3959.537	-690.9
3962.072	-684.9
3964.606	-685.9
3967.137	-684.9
3969.667	-691.9
3972.194	-679.9
3974.72	-687.9
3977.244	-675.9
3979.766	-676.9
3982.286	-679.9
3984.805	-675.9
3987.321	-672.9
3989.836	-679.9
3992.349	-668.9
3994.86	-674.9
3997.369	-678.9
3999.877	-671.9
4002.382	-669.9
4004.886	-666.9
4007.388	-666.9
4009.888	-668.9
4012.386	-670.9
4014.883	-671.9
4017.377	-673.9
4019.87	-667.9
4022.361	-672.9
4024.85	-666.9
4027.338	-672.9
4029.823	-673.9
4032.307	-672.9
4034.789	-676.9
4037.269	-668.9
4039.747	-673.9
4042.224	-679.9
4044.699	-673.9
4047.172	-666.9
4049.643	-671.9
4052.112	-678.9
4054.58	-677.9
4057.046	-677.9
4059.51	-674.9
4061.972	-679.9
4064.432	-677.9
4066.891	-673.9
4069.348	-673.9
4071.803	-670.9
4074.256	-671.9
4076.708	-670.9
4079.158	-677.9
4081.606	-675.9
4084.052	-680.9
4086.497	-675.9
4088.939	-669.9
4091.38	-675.9
4093.819	-674.9
4096.257	-706.9
4098.693	-709.9
4101.127	-712.9
4103.559	-706.9
4105.989	-402.9
4108.418	-382.9
4110.845	-360.9
4113.27	-335.9
4115.694	-290.9
4118.115	-251.9
4120.535	-676.9
4122.954	-680.9
4125.37	-672.9
4127.785	-678.9
4130.198	-678.9
4132.609	-678.9
4135.019	-707.9
4137.427	-710.9
4139.833	-714.9
4142.237	-709.9
