Data from 2018-2-14_conc=3_n=9_RamanShift_03.txt Node
Date: Wed Feb 14 12:09:56 IST 2018
User: aro
Spectrometer: QEPB0276
Trigger mode: 0
Integration Time (sec): 3.000000E1
Scans to average: 1
Electric dark correction enabled: true
Nonlinearity correction enabled: false
Boxcar width: 0
XAxis mode: Raman Shifts
Number of Pixels in Spectrum: 1044
>>>>>Begin Spectral Data<<<<<
160.701	-132.1
166.742	41.9
172.777	523.9
178.805	2011.9
184.826	5634.9
190.841	11813.9
196.849	19025.9
202.85	24090.9
208.845	25773.9
214.833	25520.9
220.815	25059.9
226.789	24884.9
232.758	24711.9
238.719	24498.9
244.674	24125.9
250.623	23745.9
256.565	23200.9
262.5	22662.9
268.429	22295.9
274.351	21911.9
280.267	21573.9
286.176	21275.9
292.079	21158.9
297.975	20892.9
303.865	20632.9
309.748	20544.9
315.625	20386.9
321.495	20256.9
327.359	20194.9
333.217	20097.9
339.068	20133.9
344.912	20109.9
350.751	19989.9
356.583	19983.9
362.408	20013.9
368.227	20015.9
374.04	19947.9
379.847	20092.9
385.647	20111.9
391.44	20189.9
397.228	20324.9
403.009	20415.9
408.784	20427.9
414.553	20552.9
420.315	20528.9
426.071	20558.9
431.821	20567.9
437.565	20559.9
443.302	20534.9
449.033	20476.9
454.758	20484.9
460.477	20387.9
466.189	20385.9
471.896	20356.9
477.596	20313.9
483.29	20152.9
488.978	20163.9
494.66	20058.9
500.335	19988.9
506.005	19711.9
511.668	19580.9
517.325	19343.9
522.977	19165.9
528.622	19061.9
534.261	18898.9
539.894	18797.9
545.521	18749.9
551.141	18642.9
556.756	18629.9
562.365	18553.9
567.968	18425.9
573.565	18418.9
579.155	18309.9
584.74	18320.9
590.319	18117.9
595.892	18130.9
601.459	17988.9
607.02	17950.9
612.575	17832.9
618.124	17775.9
623.667	17651.9
629.204	17555.9
634.735	17436.9
640.261	17455.9
645.781	17347.9
651.294	17336.9
656.802	17303.9
662.304	17287.9
667.8	17269.9
673.29	17207.9
678.775	17187.9
684.254	17135.9
689.726	17090.9
695.193	16993.9
700.655	16973.9
706.11	16868.9
711.56	16760.9
717.004	16690.9
722.442	16579.9
727.874	16588.9
733.301	16489.9
738.722	16467.9
744.137	16410.9
749.547	16434.9
754.951	16418.9
760.349	16434.9
765.741	16452.9
771.128	16430.9
776.509	16481.9
781.885	16468.9
787.254	16401.9
792.618	16385.9
797.977	16232.9
803.33	16092.9
808.677	16023.9
814.019	15977.9
819.355	15876.9
824.686	15786.9
830.011	15737.9
835.33	15779.9
840.644	15773.9
845.952	15847.9
851.255	15832.9
856.552	15854.9
861.844	15843.9
867.13	15845.9
872.41	15738.9
877.686	15627.9
882.955	15561.9
888.219	15448.9
893.478	15249.9
898.731	15020.9
903.979	14884.9
909.221	14757.9
914.458	14696.9
919.69	14727.9
924.916	14774.9
930.136	14850.9
935.351	14850.9
940.561	14862.9
945.766	14823.9
950.965	14707.9
956.158	14620.9
961.347	14482.9
966.529	14318.9
971.707	14118.9
976.879	13963.9
982.046	13839.9
987.208	13794.9
992.364	13788.9
997.515	13902.9
1002.66	14041.9
1007.801	14182.9
1012.936	14315.9
1018.066	14262.9
1023.19	14279.9
1028.309	14255.9
1033.423	14217.9
1038.532	14163.9
1043.636	14018.9
1048.734	13878.9
1053.827	13702.9
1058.915	13550.9
1063.998	13495.9
1069.075	13457.9
1074.147	13436.9
1079.214	13511.9
1084.276	13565.9
1089.333	13664.9
1094.385	13707.9
1099.431	13780.9
1104.472	13778.9
1109.509	13737.9
1114.54	13521.9
1119.565	13359.9
1124.586	13227.9
1129.602	13068.9
1134.613	12993.9
1139.618	12893.9
1144.619	12870.9
1149.614	12875.9
1154.604	12878.9
1159.589	12962.9
1164.57	12937.9
1169.545	12999.9
1174.515	12965.9
1179.48	12913.9
1184.44	12814.9
1189.395	12746.9
1194.345	12650.9
1199.29	12531.9
1204.23	12564.9
1209.165	12605.9
1214.095	12680.9
1219.021	12734.9
1223.941	12807.9
1228.856	12891.9
1233.766	12936.9
1238.672	12979.9
1243.572	12950.9
1248.467	12862.9
1253.358	12727.9
1258.244	12579.9
1263.124	12343.9
1268	12149.9
1272.871	12056.9
1277.737	11940.9
1282.599	11878.9
1287.455	11901.9
1292.306	11921.9
1297.153	11922.9
1301.995	12031.9
1306.832	12031.9
1311.664	12082.9
1316.491	12078.9
1321.314	11920.9
1326.132	11772.9
1330.945	11503.9
1335.753	11187.9
1340.556	10919.9
1345.354	10724.9
1350.148	10532.9
1354.937	10442.9
1359.722	10466.9
1364.501	10553.9
1369.276	10679.9
1374.046	10847.9
1378.811	11006.9
1383.572	11150.9
1388.327	11148.9
1393.079	11133.9
1397.825	10950.9
1402.567	10815.9
1407.304	10671.9
1412.036	10573.9
1416.764	10473.9
1421.487	10396.9
1426.205	10362.9
1430.919	10301.9
1435.628	10282.9
1440.333	10289.9
1445.032	10310.9
1449.727	10395.9
1454.418	10369.9
1459.104	10249.9
1463.785	10049.9
1468.462	9813.9
1473.134	9630.9
1477.802	9425.9
1482.465	9289.9
1487.123	9180.9
1491.777	9144.9
1496.426	9218.9
1501.071	9314.9
1505.711	9536.9
1510.347	9666.9
1514.978	9901.9
1519.604	10022.9
1524.226	10095.9
1528.844	10113.9
1533.457	10130.9
1538.065	10083.9
1542.669	9980.9
1547.269	9938.9
1551.864	9866.9
1556.454	9826.9
1561.041	9802.9
1565.622	9782.9
1570.199	9791.9
1574.772	9835.9
1579.34	9925.9
1583.904	9961.9
1588.464	9968.9
1593.019	9990.9
1597.569	9938.9
1602.115	9896.9
1606.657	9807.9
1611.195	9784.9
1615.728	9710.9
1620.256	9657.9
1624.78	9671.9
1629.3	9652.9
1633.816	9696.9
1638.327	9732.9
1642.834	9873.9
1647.336	9851.9
1651.834	9880.9
1656.328	9848.9
1660.817	9777.9
1665.302	9745.9
1669.783	9560.9
1674.259	9308.9
1678.732	9066.9
1683.199	8791.9
1687.663	8510.9
1692.122	8217.9
1696.577	8119.9
1701.028	8080.9
1705.474	8203.9
1709.917	8274.9
1714.355	8344.9
1718.788	8253.9
1723.218	8120.9
1727.643	7985.9
1732.064	7799.9
1736.481	7621.9
1740.893	7450.9
1745.301	7268.9
1749.705	7084.9
1754.105	6870.9
1758.501	6655.9
1762.893	6481.9
1767.28	6359.9
1771.663	6195.9
1776.042	6049.9
1780.417	6011.9
1784.787	6021.9
1789.154	6072.9
1793.516	6189.9
1797.874	6341.9
1802.228	6499.9
1806.578	6533.9
1810.924	6527.9
1815.266	6515.9
1819.603	6386.9
1823.937	6306.9
1828.266	6155.9
1832.591	6101.9
1836.913	6017.9
1841.23	5928.9
1845.543	5873.9
1849.852	5863.9
1854.156	5822.9
1858.457	5814.9
1862.754	5804.9
1867.047	5802.9
1871.335	5810.9
1875.62	5813.9
1879.9	5785.9
1884.177	5744.9
1888.449	5659.9
1892.718	5616.9
1896.982	5572.9
1901.243	5537.9
1905.499	5479.9
1909.752	5472.9
1914	5490.9
1918.245	5509.9
1922.485	5507.9
1926.722	5621.9
1930.954	5674.9
1935.183	5789.9
1939.408	5827.9
1943.628	5847.9
1947.845	5867.9
1952.058	5851.9
1956.267	5844.9
1960.472	5712.9
1964.673	5647.9
1968.87	5556.9
1973.063	5472.9
1977.252	5398.9
1981.438	5333.9
1985.619	5290.9
1989.797	5248.9
1993.971	5195.9
1998.14	5158.9
2002.306	5175.9
2006.469	5131.9
2010.627	5108.9
2014.781	5059.9
2018.932	5034.9
2023.078	5006.9
2027.221	4930.9
2031.36	4869.9
2035.495	4773.9
2039.627	4705.9
2043.754	4662.9
2047.878	4601.9
2051.998	4560.9
2056.114	4598.9
2060.226	4563.9
2064.334	4556.9
2068.439	4562.9
2072.54	4611.9
2076.637	4636.9
2080.73	4650.9
2084.82	4706.9
2088.906	4708.9
2092.988	4755.9
2097.066	4703.9
2101.14	4687.9
2105.211	4678.9
2109.278	4637.9
2113.342	4600.9
2117.401	4581.9
2121.457	4564.9
2125.509	4535.9
2129.558	4484.9
2133.602	4465.9
2137.643	4450.9
2141.681	4425.9
2145.714	4412.9
2149.744	4380.9
2153.77	4369.9
2157.793	4329.9
2161.812	4271.9
2165.827	4189.9
2169.838	4148.9
2173.846	4049.9
2177.851	3988.9
2181.851	3969.9
2185.848	3881.9
2189.841	3861.9
2193.831	3768.9
2197.817	3793.9
2201.799	3764.9
2205.778	3741.9
2209.753	3697.9
2213.725	3698.9
2217.693	3718.9
2221.657	3693.9
2225.618	3684.9
2229.575	3668.9
2233.529	3627.9
2237.479	3623.9
2241.425	3554.9
2245.368	3524.9
2249.307	3489.9
2253.243	3456.9
2257.175	3336.9
2261.104	3329.9
2265.029	3293.9
2268.95	3263.9
2272.868	3224.9
2276.783	3201.9
2280.694	3147.9
2284.601	3126.9
2288.505	3104.9
2292.405	3062.9
2296.302	3056.9
2300.195	3006.9
2304.085	2959.9
2307.971	2915.9
2311.854	2889.9
2315.734	2872.9
2319.609	2808.9
2323.482	2763.9
2327.351	2738.9
2331.216	2716.9
2335.078	2690.9
2338.937	2681.9
2342.792	2676.9
2346.643	2654.9
2350.492	2660.9
2354.336	2659.9
2358.178	2671.9
2362.015	2684.9
2365.85	2688.9
2369.681	2644.9
2373.508	2673.9
2377.333	2684.9
2381.153	2656.9
2384.971	2642.9
2388.785	2634.9
2392.595	2591.9
2396.402	2581.9
2400.206	2562.9
2404.007	2541.9
2407.804	2531.9
2411.597	2524.9
2415.388	2508.9
2419.174	2497.9
2422.958	2485.9
2426.738	2457.9
2430.515	2420.9
2434.289	2410.9
2438.059	2405.9
2441.825	2377.9
2445.589	2351.9
2449.349	2329.9
2453.106	2301.9
2456.859	2267.9
2460.61	2237.9
2464.356	2217.9
2468.1	2179.9
2471.84	2154.9
2475.577	2127.9
2479.311	2149.9
2483.041	2123.9
2486.768	2117.9
2490.492	2115.9
2494.213	2125.9
2497.93	2105.9
2501.644	2107.9
2505.355	2089.9
2509.062	2071.9
2512.766	2056.9
2516.467	2043.9
2520.165	2048.9
2523.859	2040.9
2527.551	2018.9
2531.239	2012.9
2534.923	1980.9
2538.605	1976.9
2542.283	1992.9
2545.958	1976.9
2549.63	1998.9
2553.299	1977.9
2556.964	1970.9
2560.626	1966.9
2564.285	1968.9
2567.941	1955.9
2571.594	1937.9
2575.243	1895.9
2578.89	1908.9
2582.533	1904.9
2586.173	1877.9
2589.809	1893.9
2593.443	1856.9
2597.073	1842.9
2600.701	1812.9
2604.325	1816.9
2607.946	1805.9
2611.564	1793.9
2615.178	1783.9
2618.79	1768.9
2622.398	1748.9
2626.004	1711.9
2629.606	1722.9
2633.205	1692.9
2636.801	1656.9
2640.394	1656.9
2643.983	1604.9
2647.57	1593.9
2651.153	1547.9
2654.734	1540.9
2658.311	1507.9
2661.885	1500.9
2665.456	1482.9
2669.025	1470.9
2672.589	1441.9
2676.151	1430.9
2679.71	1412.9
2683.266	1398.9
2686.819	1366.9
2690.368	1344.9
2693.915	1314.9
2697.458	1276.9
2700.999	1277.9
2704.536	1225.9
2708.071	1216.9
2711.602	1175.9
2715.13	1150.9
2718.656	1134.9
2722.178	1112.9
2725.697	1099.9
2729.214	1093.9
2732.727	1075.9
2736.237	1066.9
2739.744	1064.9
2743.249	1082.9
2746.75	1082.9
2750.248	1078.9
2753.743	1091.9
2757.236	1123.9
2760.725	1134.9
2764.211	1146.9
2767.695	1148.9
2771.175	1133.9
2774.652	1142.9
2778.127	1129.9
2781.598	1133.9
2785.067	1108.9
2788.532	1104.9
2791.995	1113.9
2795.455	1111.9
2798.911	1112.9
2802.365	1114.9
2805.816	1115.9
2809.264	1123.9
2812.709	1122.9
2816.151	1097.9
2819.59	1105.9
2823.026	1113.9
2826.46	1101.9
2829.89	1112.9
2833.318	1121.9
2836.742	1114.9
2840.164	1137.9
2843.583	1125.9
2846.999	1148.9
2850.412	1159.9
2853.822	1156.9
2857.229	1177.9
2860.634	1205.9
2864.035	1204.9
2867.434	1215.9
2870.83	1248.9
2874.223	1273.9
2877.613	1275.9
2881	1285.9
2884.385	1304.9
2887.766	1300.9
2891.145	1306.9
2894.521	1284.9
2897.894	1302.9
2901.264	1294.9
2904.631	1288.9
2907.996	1289.9
2911.358	1306.9
2914.717	1300.9
2918.073	1320.9
2921.426	1323.9
2924.777	1342.9
2928.124	1346.9
2931.469	1377.9
2934.811	1392.9
2938.15	1418.9
2941.487	1435.9
2944.821	1435.9
2948.152	1425.9
2951.48	1433.9
2954.805	1413.9
2958.128	1392.9
2961.447	1390.9
2964.765	1385.9
2968.079	1389.9
2971.39	1406.9
2974.699	1410.9
2978.005	1429.9
2981.308	1461.9
2984.609	1482.9
2987.907	1521.9
2991.202	1542.9
2994.494	1568.9
2997.784	1608.9
3001.07	1637.9
3004.355	1662.9
3007.636	1684.9
3010.915	1685.9
3014.191	1732.9
3017.464	1717.9
3020.734	1715.9
3024.002	1727.9
3027.267	1760.9
3030.53	1746.9
3033.789	1780.9
3037.046	1810.9
3040.301	1810.9
3043.552	1854.9
3046.801	1877.9
3050.048	1927.9
3053.291	1988.9
3056.532	2031.9
3059.771	2088.9
3063.006	2131.9
3066.239	2214.9
3069.469	2269.9
3072.697	2332.9
3075.922	2364.9
3079.144	2427.9
3082.364	2463.9
3085.581	2529.9
3088.795	2591.9
3092.007	2650.9
3095.216	2686.9
3098.423	2771.9
3101.627	2818.9
3104.828	2867.9
3108.026	2922.9
3111.222	2970.9
3114.416	3052.9
3117.607	3122.9
3120.795	3203.9
3123.98	3271.9
3127.163	3365.9
3130.344	3443.9
3133.521	3494.9
3136.696	3608.9
3139.869	3684.9
3143.039	3718.9
3146.206	3765.9
3149.371	3794.9
3152.533	3873.9
3155.693	3854.9
3158.85	3896.9
3162.005	3895.9
3165.157	3907.9
3168.306	3929.9
3171.453	3924.9
3174.597	3921.9
3177.739	3968.9
3180.878	3947.9
3184.014	3931.9
3187.149	3960.9
3190.28	3973.9
3193.409	3999.9
3196.536	3992.9
3199.659	3979.9
3202.781	3975.9
3205.9	4015.9
3209.016	3984.9
3212.13	3950.9
3215.241	3964.9
3218.35	3936.9
3221.456	3870.9
3224.56	3831.9
3227.661	3791.9
3230.76	3702.9
3233.856	3681.9
3236.95	3668.9
3240.041	3635.9
3243.13	3614.9
3246.216	3609.9
3249.3	3567.9
3252.382	3562.9
3255.46	3541.9
3258.537	3530.9
3261.611	3541.9
3264.682	3562.9
3267.751	3518.9
3270.818	3507.9
3273.882	3490.9
3276.943	3489.9
3280.002	3468.9
3283.059	3440.9
3286.113	3392.9
3289.165	3367.9
3292.214	3314.9
3295.261	3243.9
3298.306	3183.9
3301.348	3164.9
3304.387	3103.9
3307.425	3058.9
3310.459	3014.9
3313.492	2979.9
3316.521	2914.9
3319.549	2880.9
3322.574	2868.9
3325.597	2831.9
3328.617	2813.9
3331.635	2788.9
3334.65	2764.9
3337.663	2753.9
3340.674	2744.9
3343.682	2747.9
3346.688	2748.9
3349.691	2721.9
3352.692	2698.9
3355.691	2656.9
3358.687	2635.9
3361.681	2609.9
3364.673	2574.9
3367.662	2536.9
3370.649	2518.9
3373.633	2468.9
3376.615	2417.9
3379.595	2407.9
3382.572	2393.9
3385.547	2342.9
3388.52	2304.9
3391.49	2277.9
3394.458	2246.9
3397.424	2194.9
3400.387	2171.9
3403.348	2159.9
3406.307	2137.9
3409.263	2107.9
3412.217	2087.9
3415.168	2053.9
3418.118	2034.9
3421.065	2014.9
3424.009	1980.9
3426.951	1933.9
3429.891	1907.9
3432.829	1872.9
3435.764	1804.9
3438.697	1777.9
3441.628	1731.9
3444.557	1690.9
3447.483	1628.9
3450.407	1598.9
3453.328	1561.9
3456.247	1484.9
3459.164	1443.9
3462.079	1390.9
3464.991	1339.9
3467.902	1297.9
3470.809	1252.9
3473.715	1216.9
3476.618	1149.9
3479.519	1118.9
3482.418	1095.9
3485.315	1050.9
3488.209	1022.9
3491.101	977.9
3493.99	940.9
3496.878	896.9
3499.763	882.9
3502.646	840.9
3505.527	801.9
3508.405	768.9
3511.281	709.9
3514.155	700.9
3517.027	653.9
3519.897	608.9
3522.764	571.9
3525.629	535.9
3528.492	490.9
3531.352	458.9
3534.211	412.9
3537.067	377.9
3539.921	357.9
3542.773	292.9
3545.622	278.9
3548.469	256.9
3551.315	218.9
3554.157	188.9
3556.998	156.9
3559.837	145.9
3562.673	124.9
3565.507	93.9
3568.339	77.9
3571.169	58.9
3573.996	46.9
3576.822	19.9
3579.645	-1.1
3582.466	-10.1
3585.285	-46.1
3588.101	-53.1
3590.916	-80.1
3593.728	-105.1
3596.538	-114.1
3599.346	-120.1
3602.152	-144.1
3604.956	-164.1
3607.757	-187.1
3610.556	-199.1
3613.354	-209.1
3616.149	-218.1
3618.942	-231.1
3621.732	-247.1
3624.521	-266.1
3627.307	-266.1
3630.092	-279.1
3632.874	-283.1
3635.654	-291.1
3638.432	-303.1
3641.208	-316.1
3643.982	-322.1
3646.753	-327.1
3649.523	-339.1
3652.29	-349.1
3655.055	-351.1
3657.818	-368.1
3660.579	-379.1
3663.338	-387.1
3666.095	-393.1
3668.849	-402.1
3671.602	-411.1
3674.352	-434.1
3677.101	-426.1
3679.847	-437.1
3682.591	-443.1
3685.333	-451.1
3688.073	-445.1
3690.811	-455.1
3693.547	-463.1
3696.281	-462.1
3699.013	-471.1
3701.742	-471.1
3704.47	-475.1
3707.195	-482.1
3709.919	-483.1
3712.64	-496.1
3715.359	-493.1
3718.076	-502.1
3720.792	-494.1
3723.505	-502.1
3726.216	-513.1
3728.925	-500.1
3731.632	-515.1
3734.336	-519.1
3737.039	-513.1
3739.74	-521.1
3742.439	-516.1
3745.136	-530.1
3747.83	-530.1
3750.523	-528.1
3753.213	-516.1
3755.902	-536.1
3758.589	-539.1
3761.273	-539.1
3763.956	-540.1
3766.636	-542.1
3769.315	-546.1
3771.991	-548.1
3774.665	-552.1
3777.338	-548.1
3780.008	-549.1
3782.677	-556.1
3785.343	-546.1
3788.007	-552.1
3790.67	-549.1
3793.33	-554.1
3795.989	-556.1
3798.645	-551.1
3801.299	-555.1
3803.952	-564.1
3806.602	-563.1
3809.251	-568.1
3811.897	-565.1
3814.542	-563.1
3817.184	-564.1
3819.825	-563.1
3822.463	-558.1
3825.1	-574.1
3827.735	-564.1
3830.367	-564.1
3832.998	-571.1
3835.627	-570.1
3838.253	-566.1
3840.878	-574.1
3843.501	-573.1
3846.122	-566.1
3848.741	-568.1
3851.358	-575.1
3853.973	-568.1
3856.586	-575.1
3859.197	-575.1
3861.806	-580.1
3864.414	-576.1
3867.019	-574.1
3869.622	-580.1
3872.224	-575.1
3874.823	-567.1
3877.421	-551.1
3880.016	-540.1
3882.61	-517.1
3885.202	-521.1
3887.792	-526.1
3890.38	-551.1
3892.966	-572.1
3895.55	-575.1
3898.132	-586.1
3900.713	-588.1
3903.291	-587.1
3905.868	-583.1
3908.442	-586.1
3911.015	-591.1
3913.586	-582.1
3916.155	-584.1
3918.722	-591.1
3921.287	-590.1
3923.85	-597.1
3926.411	-586.1
3928.971	-599.1
3931.528	-592.1
3934.084	-588.1
3936.638	-584.1
3939.19	-591.1
3941.74	-590.1
3944.288	-585.1
3946.834	-588.1
3949.378	-592.1
3951.921	-591.1
3954.462	-598.1
3957	-589.1
3959.537	-599.1
3962.072	-592.1
3964.606	-592.1
3967.137	-589.1
3969.667	-595.1
3972.194	-584.1
3974.72	-589.1
3977.244	-579.1
3979.766	-580.1
3982.286	-583.1
3984.805	-581.1
3987.321	-573.1
3989.836	-582.1
3992.349	-576.1
3994.86	-579.1
3997.369	-587.1
3999.877	-573.1
4002.382	-577.1
4004.886	-579.1
4007.388	-574.1
4009.888	-576.1
4012.386	-580.1
4014.883	-581.1
4017.377	-579.1
4019.87	-572.1
4022.361	-576.1
4024.85	-582.1
4027.338	-578.1
4029.823	-581.1
4032.307	-579.1
4034.789	-577.1
4037.269	-580.1
4039.747	-580.1
4042.224	-580.1
4044.699	-580.1
4047.172	-580.1
4049.643	-578.1
4052.112	-583.1
4054.58	-585.1
4057.046	-583.1
4059.51	-583.1
4061.972	-586.1
4064.432	-582.1
4066.891	-585.1
4069.348	-580.1
4071.803	-578.1
4074.256	-581.1
4076.708	-578.1
4079.158	-582.1
4081.606	-582.1
4084.052	-588.1
4086.497	-581.1
4088.939	-578.1
4091.38	-578.1
4093.819	-577.1
4096.257	-605.1
4098.693	-608.1
4101.127	-615.1
4103.559	-611.1
4105.989	-349.1
4108.418	-331.1
4110.845	-308.1
4113.27	-286.1
4115.694	-248.1
4118.115	-215.1
4120.535	-582.1
4122.954	-582.1
4125.37	-576.1
4127.785	-580.1
4130.198	-577.1
4132.609	-579.1
4135.019	-611.1
4137.427	-613.1
4139.833	-611.1
4142.237	-610.1
