Data from 2018-2-14_conc=3_n=6_RamanShift_04.txt Node
Date: Wed Feb 14 12:00:26 IST 2018
User: aro
Spectrometer: QEPB0276
Trigger mode: 0
Integration Time (sec): 3.000000E1
Scans to average: 1
Electric dark correction enabled: true
Nonlinearity correction enabled: false
Boxcar width: 0
XAxis mode: Raman Shifts
Number of Pixels in Spectrum: 1044
>>>>>Begin Spectral Data<<<<<
160.701	-155.9
166.742	47.1
172.777	606.1
178.805	2322.1
184.826	6420.1
190.841	13443.1
196.849	21653.1
202.85	27410.1
208.845	29326.1
214.833	29015.1
220.815	28465.1
226.789	28325.1
232.758	28218.1
238.719	27898.1
244.674	27647.1
250.623	27131.1
256.565	26542.1
262.5	25981.1
268.429	25531.1
274.351	25123.1
280.267	24778.1
286.176	24552.1
292.079	24315.1
297.975	24048.1
303.865	23881.1
309.748	23689.1
315.625	23530.1
321.495	23414.1
327.359	23289.1
333.217	23283.1
339.068	23331.1
344.912	23197.1
350.751	23212.1
356.583	23204.1
362.408	23114.1
368.227	23129.1
374.04	23137.1
379.847	23249.1
385.647	23314.1
391.44	23403.1
397.228	23571.1
403.009	23581.1
408.784	23665.1
414.553	23784.1
420.315	23802.1
426.071	23824.1
431.821	23794.1
437.565	23808.1
443.302	23797.1
449.033	23696.1
454.758	23614.1
460.477	23549.1
466.189	23535.1
471.896	23503.1
477.596	23476.1
483.29	23416.1
488.978	23372.1
494.66	23309.1
500.335	23113.1
506.005	22902.1
511.668	22616.1
517.325	22392.1
522.977	22122.1
528.622	22017.1
534.261	21903.1
539.894	21758.1
545.521	21695.1
551.141	21633.1
556.756	21545.1
562.365	21385.1
567.968	21349.1
573.565	21293.1
579.155	21237.1
584.74	21139.1
590.319	21018.1
595.892	21001.1
601.459	20797.1
607.02	20770.1
612.575	20632.1
618.124	20445.1
623.667	20440.1
629.204	20294.1
634.735	20174.1
640.261	20037.1
645.781	20156.1
651.294	20032.1
656.802	20040.1
662.304	19904.1
667.8	19913.1
673.29	19873.1
678.775	19782.1
684.254	19805.1
689.726	19705.1
695.193	19601.1
700.655	19497.1
706.11	19495.1
711.56	19319.1
717.004	19302.1
722.442	19149.1
727.874	19042.1
733.301	19002.1
738.722	18961.1
744.137	18932.1
749.547	18931.1
754.951	18881.1
760.349	18895.1
765.741	18873.1
771.128	18898.1
776.509	18907.1
781.885	18961.1
787.254	18853.1
792.618	18767.1
797.977	18712.1
803.33	18535.1
808.677	18454.1
814.019	18340.1
819.355	18217.1
824.686	18123.1
830.011	18109.1
835.33	18123.1
840.644	18135.1
845.952	18097.1
851.255	18159.1
856.552	18198.1
861.844	18162.1
867.13	18117.1
872.41	18042.1
877.686	18001.1
882.955	17863.1
888.219	17645.1
893.478	17494.1
898.731	17289.1
903.979	17039.1
909.221	16964.1
914.458	16862.1
919.69	16893.1
924.916	16868.1
930.136	16984.1
935.351	17014.1
940.561	16963.1
945.766	16975.1
950.965	16849.1
956.158	16675.1
961.347	16517.1
966.529	16339.1
971.707	16164.1
976.879	15897.1
982.046	15816.1
987.208	15755.1
992.364	15716.1
997.515	15811.1
1002.66	15990.1
1007.801	16186.1
1012.936	16314.1
1018.066	16282.1
1023.19	16243.1
1028.309	16294.1
1033.423	16241.1
1038.532	16113.1
1043.636	16030.1
1048.734	15795.1
1053.827	15656.1
1058.915	15457.1
1063.998	15318.1
1069.075	15317.1
1074.147	15276.1
1079.214	15342.1
1084.276	15425.1
1089.333	15498.1
1094.385	15614.1
1099.431	15622.1
1104.472	15650.1
1109.509	15554.1
1114.54	15316.1
1119.565	15131.1
1124.586	14989.1
1129.602	14869.1
1134.613	14694.1
1139.618	14613.1
1144.619	14623.1
1149.614	14595.1
1154.604	14584.1
1159.589	14663.1
1164.57	14641.1
1169.545	14706.1
1174.515	14693.1
1179.48	14619.1
1184.44	14506.1
1189.395	14414.1
1194.345	14296.1
1199.29	14274.1
1204.23	14271.1
1209.165	14256.1
1214.095	14354.1
1219.021	14432.1
1223.941	14493.1
1228.856	14557.1
1233.766	14590.1
1238.672	14621.1
1243.572	14606.1
1248.467	14531.1
1253.358	14350.1
1258.244	14140.1
1263.124	13924.1
1268	13709.1
1272.871	13545.1
1277.737	13497.1
1282.599	13373.1
1287.455	13406.1
1292.306	13402.1
1297.153	13433.1
1301.995	13477.1
1306.832	13543.1
1311.664	13594.1
1316.491	13519.1
1321.314	13402.1
1326.132	13197.1
1330.945	12904.1
1335.753	12585.1
1340.556	12246.1
1345.354	11981.1
1350.148	11776.1
1354.937	11741.1
1359.722	11753.1
1364.501	11839.1
1369.276	11960.1
1374.046	12168.1
1378.811	12316.1
1383.572	12455.1
1388.327	12444.1
1393.079	12421.1
1397.825	12285.1
1402.567	12044.1
1407.304	11916.1
1412.036	11789.1
1416.764	11660.1
1421.487	11623.1
1426.205	11554.1
1430.919	11480.1
1435.628	11505.1
1440.333	11559.1
1445.032	11597.1
1449.727	11580.1
1454.418	11572.1
1459.104	11410.1
1463.785	11202.1
1468.462	10991.1
1473.134	10783.1
1477.802	10570.1
1482.465	10412.1
1487.123	10277.1
1491.777	10254.1
1496.426	10306.1
1501.071	10445.1
1505.711	10620.1
1510.347	10842.1
1514.978	11001.1
1519.604	11123.1
1524.226	11198.1
1528.844	11259.1
1533.457	11262.1
1538.065	11222.1
1542.669	11128.1
1547.269	10997.1
1551.864	10923.1
1556.454	10876.1
1561.041	10862.1
1565.622	10861.1
1570.199	10882.1
1574.772	10914.1
1579.34	10960.1
1583.904	11027.1
1588.464	11037.1
1593.019	11070.1
1597.569	11030.1
1602.115	10936.1
1606.657	10884.1
1611.195	10848.1
1615.728	10743.1
1620.256	10702.1
1624.78	10732.1
1629.3	10691.1
1633.816	10738.1
1638.327	10821.1
1642.834	10861.1
1647.336	10886.1
1651.834	10937.1
1656.328	10894.1
1660.817	10849.1
1665.302	10750.1
1669.783	10552.1
1674.259	10321.1
1678.732	10048.1
1683.199	9738.1
1687.663	9422.1
1692.122	9134.1
1696.577	9047.1
1701.028	9004.1
1705.474	9092.1
1709.917	9133.1
1714.355	9187.1
1718.788	9098.1
1723.218	8955.1
1727.643	8769.1
1732.064	8639.1
1736.481	8434.1
1740.893	8211.1
1745.301	7978.1
1749.705	7816.1
1754.105	7590.1
1758.501	7338.1
1762.893	7194.1
1767.28	7007.1
1771.663	6859.1
1776.042	6774.1
1780.417	6719.1
1784.787	6742.1
1789.154	6802.1
1793.516	6943.1
1797.874	7049.1
1802.228	7179.1
1806.578	7227.1
1810.924	7205.1
1815.266	7188.1
1819.603	7023.1
1823.937	6910.1
1828.266	6781.1
1832.591	6694.1
1836.913	6584.1
1841.23	6528.1
1845.543	6506.1
1849.852	6438.1
1854.156	6459.1
1858.457	6406.1
1862.754	6358.1
1867.047	6424.1
1871.335	6392.1
1875.62	6384.1
1879.9	6355.1
1884.177	6342.1
1888.449	6288.1
1892.718	6203.1
1896.982	6180.1
1901.243	6079.1
1905.499	6040.1
1909.752	6053.1
1914	6055.1
1918.245	6092.1
1922.485	6120.1
1926.722	6214.1
1930.954	6283.1
1935.183	6343.1
1939.408	6417.1
1943.628	6434.1
1947.845	6418.1
1952.058	6419.1
1956.267	6359.1
1960.472	6285.1
1964.673	6191.1
1968.87	6094.1
1973.063	5981.1
1977.252	5866.1
1981.438	5812.1
1985.619	5782.1
1989.797	5707.1
1993.971	5681.1
1998.14	5641.1
2002.306	5619.1
2006.469	5590.1
2010.627	5606.1
2014.781	5537.1
2018.932	5478.1
2023.078	5450.1
2027.221	5365.1
2031.36	5326.1
2035.495	5223.1
2039.627	5147.1
2043.754	5050.1
2047.878	5028.1
2051.998	5012.1
2056.114	5005.1
2060.226	5021.1
2064.334	5002.1
2068.439	5060.1
2072.54	5069.1
2076.637	5063.1
2080.73	5150.1
2084.82	5149.1
2088.906	5137.1
2092.988	5174.1
2097.066	5124.1
2101.14	5092.1
2105.211	5071.1
2109.278	5051.1
2113.342	4998.1
2117.401	4943.1
2121.457	4953.1
2125.509	4935.1
2129.558	4865.1
2133.602	4857.1
2137.643	4806.1
2141.681	4791.1
2145.714	4772.1
2149.744	4736.1
2153.77	4687.1
2157.793	4666.1
2161.812	4572.1
2165.827	4524.1
2169.838	4465.1
2173.846	4364.1
2177.851	4298.1
2181.851	4220.1
2185.848	4173.1
2189.841	4165.1
2193.831	4107.1
2197.817	4075.1
2201.799	4045.1
2205.778	4014.1
2209.753	4006.1
2213.725	3981.1
2217.693	3979.1
2221.657	3973.1
2225.618	3944.1
2229.575	3943.1
2233.529	3902.1
2237.479	3853.1
2241.425	3807.1
2245.368	3747.1
2249.307	3682.1
2253.243	3683.1
2257.175	3600.1
2261.104	3530.1
2265.029	3531.1
2268.95	3462.1
2272.868	3447.1
2276.783	3413.1
2280.694	3367.1
2284.601	3329.1
2288.505	3302.1
2292.405	3260.1
2296.302	3236.1
2300.195	3199.1
2304.085	3170.1
2307.971	3107.1
2311.854	3062.1
2315.734	3017.1
2319.609	2979.1
2323.482	2945.1
2327.351	2903.1
2331.216	2878.1
2335.078	2858.1
2338.937	2831.1
2342.792	2802.1
2346.643	2804.1
2350.492	2791.1
2354.336	2780.1
2358.178	2808.1
2362.015	2811.1
2365.85	2816.1
2369.681	2804.1
2373.508	2828.1
2377.333	2802.1
2381.153	2762.1
2384.971	2777.1
2388.785	2748.1
2392.595	2746.1
2396.402	2691.1
2400.206	2663.1
2404.007	2640.1
2407.804	2647.1
2411.597	2602.1
2415.388	2614.1
2419.174	2575.1
2422.958	2594.1
2426.738	2541.1
2430.515	2519.1
2434.289	2513.1
2438.059	2456.1
2441.825	2482.1
2445.589	2435.1
2449.349	2389.1
2453.106	2370.1
2456.859	2357.1
2460.61	2311.1
2464.356	2301.1
2468.1	2257.1
2471.84	2229.1
2475.577	2217.1
2479.311	2201.1
2483.041	2208.1
2486.768	2185.1
2490.492	2173.1
2494.213	2179.1
2497.93	2138.1
2501.644	2153.1
2505.355	2163.1
2509.062	2143.1
2512.766	2132.1
2516.467	2133.1
2520.165	2091.1
2523.859	2092.1
2527.551	2070.1
2531.239	2049.1
2534.923	2045.1
2538.605	2047.1
2542.283	2034.1
2545.958	2049.1
2549.63	2047.1
2553.299	2015.1
2556.964	2006.1
2560.626	2011.1
2564.285	2011.1
2567.941	1986.1
2571.594	1966.1
2575.243	1960.1
2578.89	1936.1
2582.533	1948.1
2586.173	1908.1
2589.809	1898.1
2593.443	1889.1
2597.073	1860.1
2600.701	1844.1
2604.325	1822.1
2607.946	1804.1
2611.564	1804.1
2615.178	1783.1
2618.79	1774.1
2622.398	1756.1
2626.004	1748.1
2629.606	1710.1
2633.205	1702.1
2636.801	1681.1
2640.394	1669.1
2643.983	1621.1
2647.57	1613.1
2651.153	1559.1
2654.734	1540.1
2658.311	1525.1
2661.885	1510.1
2665.456	1485.1
2669.025	1464.1
2672.589	1432.1
2676.151	1435.1
2679.71	1421.1
2683.266	1366.1
2686.819	1363.1
2690.368	1329.1
2693.915	1308.1
2697.458	1268.1
2700.999	1235.1
2704.536	1210.1
2708.071	1187.1
2711.602	1174.1
2715.13	1128.1
2718.656	1132.1
2722.178	1119.1
2725.697	1093.1
2729.214	1092.1
2732.727	1083.1
2736.237	1092.1
2739.744	1072.1
2743.249	1094.1
2746.75	1118.1
2750.248	1110.1
2753.743	1118.1
2757.236	1151.1
2760.725	1133.1
2764.211	1127.1
2767.695	1129.1
2771.175	1146.1
2774.652	1131.1
2778.127	1130.1
2781.598	1104.1
2785.067	1105.1
2788.532	1107.1
2791.995	1105.1
2795.455	1089.1
2798.911	1098.1
2802.365	1099.1
2805.816	1109.1
2809.264	1103.1
2812.709	1095.1
2816.151	1094.1
2819.59	1121.1
2823.026	1090.1
2826.46	1073.1
2829.89	1090.1
2833.318	1093.1
2836.742	1091.1
2840.164	1109.1
2843.583	1093.1
2846.999	1107.1
2850.412	1133.1
2853.822	1148.1
2857.229	1168.1
2860.634	1188.1
2864.035	1204.1
2867.434	1215.1
2870.83	1250.1
2874.223	1273.1
2877.613	1281.1
2881	1290.1
2884.385	1306.1
2887.766	1311.1
2891.145	1311.1
2894.521	1307.1
2897.894	1293.1
2901.264	1285.1
2904.631	1285.1
2907.996	1303.1
2911.358	1329.1
2914.717	1313.1
2918.073	1325.1
2921.426	1338.1
2924.777	1343.1
2928.124	1375.1
2931.469	1403.1
2934.811	1413.1
2938.15	1438.1
2941.487	1462.1
2944.821	1456.1
2948.152	1456.1
2951.48	1449.1
2954.805	1454.1
2958.128	1439.1
2961.447	1402.1
2964.765	1405.1
2968.079	1427.1
2971.39	1442.1
2974.699	1444.1
2978.005	1465.1
2981.308	1512.1
2984.609	1544.1
2987.907	1543.1
2991.202	1573.1
2994.494	1618.1
2997.784	1646.1
3001.07	1675.1
3004.355	1717.1
3007.636	1729.1
3010.915	1749.1
3014.191	1762.1
3017.464	1783.1
3020.734	1801.1
3024.002	1806.1
3027.267	1811.1
3030.53	1821.1
3033.789	1843.1
3037.046	1855.1
3040.301	1868.1
3043.552	1903.1
3046.801	1948.1
3050.048	2006.1
3053.291	2068.1
3056.532	2105.1
3059.771	2164.1
3063.006	2231.1
3066.239	2313.1
3069.469	2362.1
3072.697	2414.1
3075.922	2486.1
3079.144	2556.1
3082.364	2607.1
3085.581	2673.1
3088.795	2700.1
3092.007	2768.1
3095.216	2838.1
3098.423	2886.1
3101.627	2959.1
3104.828	3030.1
3108.026	3078.1
3111.222	3169.1
3114.416	3225.1
3117.607	3287.1
3120.795	3395.1
3123.98	3454.1
3127.163	3552.1
3130.344	3602.1
3133.521	3696.1
3136.696	3809.1
3139.869	3892.1
3143.039	3917.1
3146.206	3987.1
3149.371	4042.1
3152.533	4056.1
3155.693	4097.1
3158.85	4141.1
3162.005	4122.1
3165.157	4157.1
3168.306	4171.1
3171.453	4177.1
3174.597	4149.1
3177.739	4199.1
3180.878	4187.1
3184.014	4203.1
3187.149	4230.1
3190.28	4233.1
3193.409	4232.1
3196.536	4208.1
3199.659	4247.1
3202.781	4219.1
3205.9	4231.1
3209.016	4234.1
3212.13	4194.1
3215.241	4163.1
3218.35	4143.1
3221.456	4123.1
3224.56	4071.1
3227.661	4035.1
3230.76	3961.1
3233.856	3937.1
3236.95	3875.1
3240.041	3874.1
3243.13	3844.1
3246.216	3817.1
3249.3	3782.1
3252.382	3817.1
3255.46	3767.1
3258.537	3767.1
3261.611	3764.1
3264.682	3736.1
3267.751	3767.1
3270.818	3765.1
3273.882	3744.1
3276.943	3736.1
3280.002	3699.1
3283.059	3679.1
3286.113	3643.1
3289.165	3572.1
3292.214	3508.1
3295.261	3436.1
3298.306	3373.1
3301.348	3334.1
3304.387	3271.1
3307.425	3235.1
3310.459	3196.1
3313.492	3150.1
3316.521	3063.1
3319.549	3042.1
3322.574	3025.1
3325.597	3001.1
3328.617	2963.1
3331.635	2953.1
3334.65	2938.1
3337.663	2926.1
3340.674	2895.1
3343.682	2901.1
3346.688	2879.1
3349.691	2857.1
3352.692	2819.1
3355.691	2839.1
3358.687	2809.1
3361.681	2776.1
3364.673	2734.1
3367.662	2686.1
3370.649	2658.1
3373.633	2626.1
3376.615	2598.1
3379.595	2540.1
3382.572	2518.1
3385.547	2478.1
3388.52	2448.1
3391.49	2402.1
3394.458	2368.1
3397.424	2335.1
3400.387	2296.1
3403.348	2257.1
3406.307	2242.1
3409.263	2217.1
3412.217	2208.1
3415.168	2149.1
3418.118	2148.1
3421.065	2101.1
3424.009	2082.1
3426.951	2055.1
3429.891	1988.1
3432.829	1974.1
3435.764	1921.1
3438.697	1884.1
3441.628	1825.1
3444.557	1755.1
3447.483	1718.1
3450.407	1649.1
3453.328	1607.1
3456.247	1561.1
3459.164	1489.1
3462.079	1428.1
3464.991	1384.1
3467.902	1334.1
3470.809	1263.1
3473.715	1248.1
3476.618	1177.1
3479.519	1141.1
3482.418	1107.1
3485.315	1081.1
3488.209	1033.1
3491.101	1008.1
3493.99	974.1
3496.878	918.1
3499.763	884.1
3502.646	858.1
3505.527	822.1
3508.405	773.1
3511.281	729.1
3514.155	694.1
3517.027	640.1
3519.897	605.1
3522.764	562.1
3525.629	533.1
3528.492	471.1
3531.352	436.1
3534.211	400.1
3537.067	345.1
3539.921	324.1
3542.773	283.1
3545.622	244.1
3548.469	221.1
3551.315	192.1
3554.157	166.1
3556.998	142.1
3559.837	110.1
3562.673	83.1
3565.507	58.1
3568.339	29.1
3571.169	20.1
3573.996	-0.9
3576.822	-22.9
3579.645	-49.9
3582.466	-69.9
3585.285	-104.9
3588.101	-113.9
3590.916	-134.9
3593.728	-149.9
3596.538	-165.9
3599.346	-193.9
3602.152	-203.9
3604.956	-217.9
3607.757	-248.9
3610.556	-255.9
3613.354	-261.9
3616.149	-286.9
3618.942	-297.9
3621.732	-308.9
3624.521	-322.9
3627.307	-334.9
3630.092	-342.9
3632.874	-350.9
3635.654	-354.9
3638.432	-366.9
3641.208	-376.9
3643.982	-388.9
3646.753	-395.9
3649.523	-409.9
3652.29	-425.9
3655.055	-422.9
3657.818	-445.9
3660.579	-446.9
3663.338	-467.9
3666.095	-471.9
3668.849	-484.9
3671.602	-492.9
3674.352	-494.9
3677.101	-502.9
3679.847	-518.9
3682.591	-525.9
3685.333	-527.9
3688.073	-525.9
3690.811	-536.9
3693.547	-546.9
3696.281	-556.9
3699.013	-547.9
3701.742	-556.9
3704.47	-564.9
3707.195	-572.9
3709.919	-563.9
3712.64	-577.9
3715.359	-574.9
3718.076	-585.9
3720.792	-583.9
3723.505	-586.9
3726.216	-592.9
3728.925	-593.9
3731.632	-604.9
3734.336	-595.9
3737.039	-604.9
3739.74	-606.9
3742.439	-608.9
3745.136	-604.9
3747.83	-615.9
3750.523	-616.9
3753.213	-610.9
3755.902	-618.9
3758.589	-623.9
3761.273	-627.9
3763.956	-626.9
3766.636	-629.9
3769.315	-626.9
3771.991	-627.9
3774.665	-637.9
3777.338	-636.9
3780.008	-632.9
3782.677	-636.9
3785.343	-635.9
3788.007	-641.9
3790.67	-637.9
3793.33	-641.9
3795.989	-645.9
3798.645	-638.9
3801.299	-643.9
3803.952	-648.9
3806.602	-653.9
3809.251	-655.9
3811.897	-652.9
3814.542	-652.9
3817.184	-648.9
3819.825	-645.9
3822.463	-649.9
3825.1	-659.9
3827.735	-655.9
3830.367	-655.9
3832.998	-662.9
3835.627	-664.9
3838.253	-662.9
3840.878	-666.9
3843.501	-665.9
3846.122	-654.9
3848.741	-655.9
3851.358	-661.9
3853.973	-656.9
3856.586	-660.9
3859.197	-664.9
3861.806	-665.9
3864.414	-662.9
3867.019	-659.9
3869.622	-659.9
3872.224	-664.9
3874.823	-651.9
3877.421	-628.9
3880.016	-619.9
3882.61	-607.9
3885.202	-597.9
3887.792	-609.9
3890.38	-638.9
3892.966	-656.9
3895.55	-665.9
3898.132	-679.9
3900.713	-679.9
3903.291	-676.9
3905.868	-679.9
3908.442	-677.9
3911.015	-680.9
3913.586	-672.9
3916.155	-668.9
3918.722	-678.9
3921.287	-677.9
3923.85	-676.9
3926.411	-676.9
3928.971	-687.9
3931.528	-685.9
3934.084	-679.9
3936.638	-679.9
3939.19	-681.9
3941.74	-682.9
3944.288	-684.9
3946.834	-677.9
3949.378	-684.9
3951.921	-682.9
3954.462	-687.9
3957	-677.9
3959.537	-680.9
3962.072	-679.9
3964.606	-675.9
3967.137	-674.9
3969.667	-681.9
3972.194	-676.9
3974.72	-675.9
3977.244	-663.9
3979.766	-665.9
3982.286	-669.9
3984.805	-671.9
3987.321	-670.9
3989.836	-675.9
3992.349	-663.9
3994.86	-664.9
3997.369	-666.9
3999.877	-664.9
4002.382	-669.9
4004.886	-663.9
4007.388	-661.9
4009.888	-661.9
4012.386	-667.9
4014.883	-661.9
4017.377	-662.9
4019.87	-662.9
4022.361	-659.9
4024.85	-664.9
4027.338	-669.9
4029.823	-666.9
4032.307	-668.9
4034.789	-656.9
4037.269	-665.9
4039.747	-668.9
4042.224	-675.9
4044.699	-670.9
4047.172	-669.9
4049.643	-665.9
4052.112	-678.9
4054.58	-668.9
4057.046	-670.9
4059.51	-667.9
4061.972	-669.9
4064.432	-672.9
4066.891	-669.9
4069.348	-665.9
4071.803	-661.9
4074.256	-668.9
4076.708	-665.9
4079.158	-665.9
4081.606	-669.9
4084.052	-672.9
4086.497	-673.9
4088.939	-662.9
4091.38	-669.9
4093.819	-660.9
4096.257	-702.9
4098.693	-702.9
4101.127	-705.9
4103.559	-699.9
4105.989	-405.9
4108.418	-372.9
4110.845	-363.9
4113.27	-332.9
4115.694	-298.9
4118.115	-246.9
4120.535	-664.9
4122.954	-669.9
4125.37	-659.9
4127.785	-670.9
4130.198	-668.9
4132.609	-669.9
4135.019	-705.9
4137.427	-705.9
4139.833	-703.9
4142.237	-703.9
