Data from 2018-2-14_conc=4_n=8_RamanShift_01.txt Node
Date: Wed Feb 14 13:52:55 IST 2018
User: aro
Spectrometer: QEPB0276
Trigger mode: 0
Integration Time (sec): 3.000000E1
Scans to average: 1
Electric dark correction enabled: true
Nonlinearity correction enabled: false
Boxcar width: 0
XAxis mode: Raman Shifts
Number of Pixels in Spectrum: 1044
>>>>>Begin Spectral Data<<<<<
160.701	-131.9
166.742	30.1
172.777	551.1
178.805	2057.1
184.826	5610.1
190.841	11741.1
196.849	18835.1
202.85	23863.1
208.845	25498.1
214.833	25220.1
220.815	24735.1
226.789	24665.1
232.758	24527.1
238.719	24277.1
244.674	24031.1
250.623	23529.1
256.565	23072.1
262.5	22601.1
268.429	22201.1
274.351	21849.1
280.267	21567.1
286.176	21328.1
292.079	21176.1
297.975	20920.1
303.865	20700.1
309.748	20608.1
315.625	20472.1
321.495	20358.1
327.359	20330.1
333.217	20226.1
339.068	20269.1
344.912	20270.1
350.751	20170.1
356.583	20138.1
362.408	20119.1
368.227	20132.1
374.04	20135.1
379.847	20278.1
385.647	20260.1
391.44	20387.1
397.228	20445.1
403.009	20508.1
408.784	20615.1
414.553	20659.1
420.315	20707.1
426.071	20738.1
431.821	20738.1
437.565	20672.1
443.302	20692.1
449.033	20604.1
454.758	20595.1
460.477	20520.1
466.189	20457.1
471.896	20436.1
477.596	20336.1
483.29	20382.1
488.978	20332.1
494.66	20197.1
500.335	20096.1
506.005	19890.1
511.668	19529.1
517.325	19342.1
522.977	19093.1
528.622	18967.1
534.261	18794.1
539.894	18685.1
545.521	18614.1
551.141	18506.1
556.756	18540.1
562.365	18406.1
567.968	18394.1
573.565	18268.1
579.155	18198.1
584.74	18116.1
590.319	18027.1
595.892	17961.1
601.459	17909.1
607.02	17762.1
612.575	17736.1
618.124	17605.1
623.667	17484.1
629.204	17382.1
634.735	17316.1
640.261	17241.1
645.781	17231.1
651.294	17133.1
656.802	17133.1
662.304	17094.1
667.8	17056.1
673.29	17006.1
678.775	17026.1
684.254	16969.1
689.726	16855.1
695.193	16829.1
700.655	16728.1
706.11	16680.1
711.56	16566.1
717.004	16500.1
722.442	16398.1
727.874	16339.1
733.301	16322.1
738.722	16225.1
744.137	16239.1
749.547	16198.1
754.951	16202.1
760.349	16249.1
765.741	16186.1
771.128	16255.1
776.509	16257.1
781.885	16239.1
787.254	16189.1
792.618	16133.1
797.977	16037.1
803.33	15928.1
808.677	15803.1
814.019	15720.1
819.355	15673.1
824.686	15621.1
830.011	15547.1
835.33	15557.1
840.644	15519.1
845.952	15546.1
851.255	15624.1
856.552	15639.1
861.844	15603.1
867.13	15527.1
872.41	15425.1
877.686	15315.1
882.955	15210.1
888.219	15152.1
893.478	14952.1
898.731	14762.1
903.979	14583.1
909.221	14461.1
914.458	14467.1
919.69	14427.1
924.916	14491.1
930.136	14550.1
935.351	14517.1
940.561	14495.1
945.766	14514.1
950.965	14417.1
956.158	14338.1
961.347	14176.1
966.529	13992.1
971.707	13781.1
976.879	13635.1
982.046	13539.1
987.208	13468.1
992.364	13485.1
997.515	13576.1
1002.66	13727.1
1007.801	13865.1
1012.936	13947.1
1018.066	13965.1
1023.19	13956.1
1028.309	14013.1
1033.423	13911.1
1038.532	13816.1
1043.636	13708.1
1048.734	13525.1
1053.827	13343.1
1058.915	13219.1
1063.998	13175.1
1069.075	13077.1
1074.147	13105.1
1079.214	13185.1
1084.276	13229.1
1089.333	13289.1
1094.385	13368.1
1099.431	13403.1
1104.472	13377.1
1109.509	13317.1
1114.54	13167.1
1119.565	12980.1
1124.586	12807.1
1129.602	12672.1
1134.613	12614.1
1139.618	12491.1
1144.619	12530.1
1149.614	12504.1
1154.604	12506.1
1159.589	12580.1
1164.57	12549.1
1169.545	12591.1
1174.515	12566.1
1179.48	12552.1
1184.44	12389.1
1189.395	12365.1
1194.345	12261.1
1199.29	12168.1
1204.23	12200.1
1209.165	12267.1
1214.095	12261.1
1219.021	12311.1
1223.941	12410.1
1228.856	12485.1
1233.766	12470.1
1238.672	12501.1
1243.572	12535.1
1248.467	12469.1
1253.358	12297.1
1258.244	12128.1
1263.124	11864.1
1268	11797.1
1272.871	11588.1
1277.737	11514.1
1282.599	11405.1
1287.455	11442.1
1292.306	11447.1
1297.153	11519.1
1301.995	11531.1
1306.832	11605.1
1311.664	11550.1
1316.491	11545.1
1321.314	11448.1
1326.132	11274.1
1330.945	11024.1
1335.753	10782.1
1340.556	10460.1
1345.354	10287.1
1350.148	10138.1
1354.937	10059.1
1359.722	10032.1
1364.501	10017.1
1369.276	10114.1
1374.046	10201.1
1378.811	10345.1
1383.572	10400.1
1388.327	10435.1
1393.079	10397.1
1397.825	10325.1
1402.567	10219.1
1407.304	10093.1
1412.036	9999.1
1416.764	9958.1
1421.487	9859.1
1426.205	9800.1
1430.919	9777.1
1435.628	9745.1
1440.333	9835.1
1445.032	9799.1
1449.727	9841.1
1454.418	9809.1
1459.104	9704.1
1463.785	9523.1
1468.462	9308.1
1473.134	9088.1
1477.802	8894.1
1482.465	8743.1
1487.123	8619.1
1491.777	8590.1
1496.426	8597.1
1501.071	8695.1
1505.711	8790.1
1510.347	8953.1
1514.978	9063.1
1519.604	9239.1
1524.226	9262.1
1528.844	9343.1
1533.457	9309.1
1538.065	9279.1
1542.669	9192.1
1547.269	9152.1
1551.864	9118.1
1556.454	9081.1
1561.041	9122.1
1565.622	9083.1
1570.199	9098.1
1574.772	9191.1
1579.34	9224.1
1583.904	9301.1
1588.464	9297.1
1593.019	9301.1
1597.569	9291.1
1602.115	9268.1
1606.657	9168.1
1611.195	9106.1
1615.728	9053.1
1620.256	9078.1
1624.78	9026.1
1629.3	9042.1
1633.816	9012.1
1638.327	9080.1
1642.834	9143.1
1647.336	9144.1
1651.834	9186.1
1656.328	9110.1
1660.817	9050.1
1665.302	8967.1
1669.783	8802.1
1674.259	8570.1
1678.732	8314.1
1683.199	8043.1
1687.663	7749.1
1692.122	7552.1
1696.577	7355.1
1701.028	7315.1
1705.474	7371.1
1709.917	7378.1
1714.355	7434.1
1718.788	7373.1
1723.218	7324.1
1727.643	7210.1
1732.064	7041.1
1736.481	6883.1
1740.893	6728.1
1745.301	6533.1
1749.705	6383.1
1754.105	6211.1
1758.501	5990.1
1762.893	5829.1
1767.28	5704.1
1771.663	5552.1
1776.042	5428.1
1780.417	5400.1
1784.787	5369.1
1789.154	5406.1
1793.516	5501.1
1797.874	5550.1
1802.228	5652.1
1806.578	5728.1
1810.924	5742.1
1815.266	5685.1
1819.603	5607.1
1823.937	5535.1
1828.266	5443.1
1832.591	5370.1
1836.913	5291.1
1841.23	5259.1
1845.543	5213.1
1849.852	5211.1
1854.156	5212.1
1858.457	5196.1
1862.754	5203.1
1867.047	5169.1
1871.335	5169.1
1875.62	5130.1
1879.9	5097.1
1884.177	5094.1
1888.449	5011.1
1892.718	4961.1
1896.982	4909.1
1901.243	4828.1
1905.499	4802.1
1909.752	4782.1
1914	4782.1
1918.245	4773.1
1922.485	4798.1
1926.722	4857.1
1930.954	4919.1
1935.183	4962.1
1939.408	5029.1
1943.628	5051.1
1947.845	5050.1
1952.058	5045.1
1956.267	5000.1
1960.472	4948.1
1964.673	4902.1
1968.87	4819.1
1973.063	4751.1
1977.252	4660.1
1981.438	4599.1
1985.619	4605.1
1989.797	4544.1
1993.971	4511.1
1998.14	4497.1
2002.306	4504.1
2006.469	4472.1
2010.627	4467.1
2014.781	4429.1
2018.932	4386.1
2023.078	4331.1
2027.221	4312.1
2031.36	4201.1
2035.495	4157.1
2039.627	4073.1
2043.754	4039.1
2047.878	3975.1
2051.998	3962.1
2056.114	3934.1
2060.226	3927.1
2064.334	3920.1
2068.439	3964.1
2072.54	3948.1
2076.637	3997.1
2080.73	3999.1
2084.82	4019.1
2088.906	4040.1
2092.988	4077.1
2097.066	4019.1
2101.14	4002.1
2105.211	3971.1
2109.278	3971.1
2113.342	3942.1
2117.401	3901.1
2121.457	3914.1
2125.509	3883.1
2129.558	3890.1
2133.602	3840.1
2137.643	3853.1
2141.681	3815.1
2145.714	3802.1
2149.744	3776.1
2153.77	3734.1
2157.793	3689.1
2161.812	3640.1
2165.827	3600.1
2169.838	3561.1
2173.846	3460.1
2177.851	3446.1
2181.851	3383.1
2185.848	3349.1
2189.841	3302.1
2193.831	3285.1
2197.817	3230.1
2201.799	3260.1
2205.778	3207.1
2209.753	3217.1
2213.725	3194.1
2217.693	3177.1
2221.657	3184.1
2225.618	3155.1
2229.575	3171.1
2233.529	3138.1
2237.479	3103.1
2241.425	3058.1
2245.368	3015.1
2249.307	2975.1
2253.243	2926.1
2257.175	2885.1
2261.104	2844.1
2265.029	2814.1
2268.95	2767.1
2272.868	2752.1
2276.783	2721.1
2280.694	2688.1
2284.601	2692.1
2288.505	2649.1
2292.405	2639.1
2296.302	2621.1
2300.195	2584.1
2304.085	2541.1
2307.971	2512.1
2311.854	2488.1
2315.734	2430.1
2319.609	2403.1
2323.482	2361.1
2327.351	2354.1
2331.216	2337.1
2335.078	2328.1
2338.937	2330.1
2342.792	2268.1
2346.643	2292.1
2350.492	2325.1
2354.336	2297.1
2358.178	2308.1
2362.015	2302.1
2365.85	2308.1
2369.681	2337.1
2373.508	2340.1
2377.333	2325.1
2381.153	2308.1
2384.971	2307.1
2388.785	2276.1
2392.595	2269.1
2396.402	2263.1
2400.206	2240.1
2404.007	2211.1
2407.804	2207.1
2411.597	2195.1
2415.388	2188.1
2419.174	2176.1
2422.958	2166.1
2426.738	2135.1
2430.515	2104.1
2434.289	2100.1
2438.059	2086.1
2441.825	2058.1
2445.589	2023.1
2449.349	2009.1
2453.106	2002.1
2456.859	1963.1
2460.61	1938.1
2464.356	1904.1
2468.1	1906.1
2471.84	1875.1
2475.577	1844.1
2479.311	1841.1
2483.041	1818.1
2486.768	1829.1
2490.492	1813.1
2494.213	1788.1
2497.93	1786.1
2501.644	1784.1
2505.355	1765.1
2509.062	1751.1
2512.766	1738.1
2516.467	1746.1
2520.165	1722.1
2523.859	1720.1
2527.551	1675.1
2531.239	1682.1
2534.923	1659.1
2538.605	1662.1
2542.283	1652.1
2545.958	1655.1
2549.63	1677.1
2553.299	1659.1
2556.964	1637.1
2560.626	1627.1
2564.285	1644.1
2567.941	1603.1
2571.594	1628.1
2575.243	1609.1
2578.89	1587.1
2582.533	1585.1
2586.173	1554.1
2589.809	1548.1
2593.443	1523.1
2597.073	1531.1
2600.701	1509.1
2604.325	1517.1
2607.946	1502.1
2611.564	1487.1
2615.178	1479.1
2618.79	1470.1
2622.398	1456.1
2626.004	1436.1
2629.606	1405.1
2633.205	1389.1
2636.801	1364.1
2640.394	1369.1
2643.983	1322.1
2647.57	1335.1
2651.153	1290.1
2654.734	1286.1
2658.311	1252.1
2661.885	1230.1
2665.456	1213.1
2669.025	1199.1
2672.589	1182.1
2676.151	1188.1
2679.71	1157.1
2683.266	1149.1
2686.819	1119.1
2690.368	1092.1
2693.915	1069.1
2697.458	1053.1
2700.999	1022.1
2704.536	1007.1
2708.071	988.1
2711.602	963.1
2715.13	923.1
2718.656	905.1
2722.178	901.1
2725.697	879.1
2729.214	867.1
2732.727	874.1
2736.237	847.1
2739.744	829.1
2743.249	863.1
2746.75	850.1
2750.248	840.1
2753.743	866.1
2757.236	872.1
2760.725	876.1
2764.211	894.1
2767.695	897.1
2771.175	884.1
2774.652	889.1
2778.127	880.1
2781.598	872.1
2785.067	864.1
2788.532	868.1
2791.995	861.1
2795.455	866.1
2798.911	855.1
2802.365	873.1
2805.816	872.1
2809.264	855.1
2812.709	879.1
2816.151	878.1
2819.59	888.1
2823.026	875.1
2826.46	867.1
2829.89	862.1
2833.318	879.1
2836.742	889.1
2840.164	883.1
2843.583	899.1
2846.999	895.1
2850.412	931.1
2853.822	929.1
2857.229	957.1
2860.634	978.1
2864.035	978.1
2867.434	1000.1
2870.83	1021.1
2874.223	1038.1
2877.613	1066.1
2881	1075.1
2884.385	1075.1
2887.766	1072.1
2891.145	1076.1
2894.521	1071.1
2897.894	1080.1
2901.264	1077.1
2904.631	1067.1
2907.996	1084.1
2911.358	1083.1
2914.717	1096.1
2918.073	1093.1
2921.426	1129.1
2924.777	1134.1
2928.124	1143.1
2931.469	1157.1
2934.811	1187.1
2938.15	1199.1
2941.487	1228.1
2944.821	1219.1
2948.152	1230.1
2951.48	1200.1
2954.805	1197.1
2958.128	1182.1
2961.447	1158.1
2964.765	1167.1
2968.079	1178.1
2971.39	1187.1
2974.699	1180.1
2978.005	1205.1
2981.308	1240.1
2984.609	1240.1
2987.907	1264.1
2991.202	1300.1
2994.494	1327.1
2997.784	1380.1
3001.07	1385.1
3004.355	1390.1
3007.636	1416.1
3010.915	1454.1
3014.191	1479.1
3017.464	1461.1
3020.734	1479.1
3024.002	1494.1
3027.267	1497.1
3030.53	1507.1
3033.789	1538.1
3037.046	1570.1
3040.301	1586.1
3043.552	1628.1
3046.801	1644.1
3050.048	1689.1
3053.291	1744.1
3056.532	1796.1
3059.771	1831.1
3063.006	1878.1
3066.239	1929.1
3069.469	1996.1
3072.697	2047.1
3075.922	2127.1
3079.144	2183.1
3082.364	2196.1
3085.581	2236.1
3088.795	2305.1
3092.007	2341.1
3095.216	2404.1
3098.423	2429.1
3101.627	2528.1
3104.828	2559.1
3108.026	2640.1
3111.222	2675.1
3114.416	2728.1
3117.607	2800.1
3120.795	2872.1
3123.98	2952.1
3127.163	3009.1
3130.344	3087.1
3133.521	3142.1
3136.696	3211.1
3139.869	3311.1
3143.039	3337.1
3146.206	3392.1
3149.371	3445.1
3152.533	3480.1
3155.693	3513.1
3158.85	3526.1
3162.005	3546.1
3165.157	3528.1
3168.306	3537.1
3171.453	3556.1
3174.597	3557.1
3177.739	3562.1
3180.878	3564.1
3184.014	3577.1
3187.149	3572.1
3190.28	3606.1
3193.409	3599.1
3196.536	3582.1
3199.659	3598.1
3202.781	3601.1
3205.9	3594.1
3209.016	3613.1
3212.13	3586.1
3215.241	3546.1
3218.35	3530.1
3221.456	3482.1
3224.56	3453.1
3227.661	3410.1
3230.76	3388.1
3233.856	3343.1
3236.95	3284.1
3240.041	3275.1
3243.13	3254.1
3246.216	3226.1
3249.3	3203.1
3252.382	3196.1
3255.46	3201.1
3258.537	3162.1
3261.611	3159.1
3264.682	3172.1
3267.751	3142.1
3270.818	3149.1
3273.882	3138.1
3276.943	3132.1
3280.002	3114.1
3283.059	3061.1
3286.113	3050.1
3289.165	2982.1
3292.214	2953.1
3295.261	2907.1
3298.306	2867.1
3301.348	2820.1
3304.387	2788.1
3307.425	2747.1
3310.459	2698.1
3313.492	2666.1
3316.521	2623.1
3319.549	2600.1
3322.574	2545.1
3325.597	2553.1
3328.617	2529.1
3331.635	2501.1
3334.65	2494.1
3337.663	2470.1
3340.674	2484.1
3343.682	2474.1
3346.688	2458.1
3349.691	2441.1
3352.692	2432.1
3355.691	2421.1
3358.687	2396.1
3361.681	2374.1
3364.673	2337.1
3367.662	2276.1
3370.649	2292.1
3373.633	2237.1
3376.615	2187.1
3379.595	2167.1
3382.572	2137.1
3385.547	2117.1
3388.52	2078.1
3391.49	2040.1
3394.458	2014.1
3397.424	1988.1
3400.387	1985.1
3403.348	1949.1
3406.307	1914.1
3409.263	1898.1
3412.217	1874.1
3415.168	1859.1
3418.118	1831.1
3421.065	1808.1
3424.009	1788.1
3426.951	1757.1
3429.891	1699.1
3432.829	1674.1
3435.764	1651.1
3438.697	1615.1
3441.628	1569.1
3444.557	1506.1
3447.483	1441.1
3450.407	1402.1
3453.328	1362.1
3456.247	1321.1
3459.164	1245.1
3462.079	1234.1
3464.991	1182.1
3467.902	1136.1
3470.809	1088.1
3473.715	1043.1
3476.618	1000.1
3479.519	963.1
3482.418	947.1
3485.315	902.1
3488.209	866.1
3491.101	846.1
3493.99	808.1
3496.878	770.1
3499.763	735.1
3502.646	703.1
3505.527	679.1
3508.405	640.1
3511.281	601.1
3514.155	571.1
3517.027	531.1
3519.897	489.1
3522.764	439.1
3525.629	436.1
3528.492	388.1
3531.352	344.1
3534.211	331.1
3537.067	278.1
3539.921	260.1
3542.773	219.1
3545.622	202.1
3548.469	161.1
3551.315	136.1
3554.157	120.1
3556.998	93.1
3559.837	67.1
3562.673	43.1
3565.507	36.1
3568.339	10.1
3571.169	-13.9
3573.996	-31.9
3576.822	-49.9
3579.645	-59.9
3582.466	-83.9
3585.285	-107.9
3588.101	-124.9
3590.916	-143.9
3593.728	-159.9
3596.538	-168.9
3599.346	-187.9
3602.152	-200.9
3604.956	-215.9
3607.757	-228.9
3610.556	-241.9
3613.354	-255.9
3616.149	-269.9
3618.942	-276.9
3621.732	-283.9
3624.521	-302.9
3627.307	-304.9
3630.092	-315.9
3632.874	-333.9
3635.654	-330.9
3638.432	-339.9
3641.208	-351.9
3643.982	-357.9
3646.753	-362.9
3649.523	-377.9
3652.29	-386.9
3655.055	-392.9
3657.818	-407.9
3660.579	-407.9
3663.338	-419.9
3666.095	-427.9
3668.849	-438.9
3671.602	-441.9
3674.352	-453.9
3677.101	-448.9
3679.847	-458.9
3682.591	-464.9
3685.333	-471.9
3688.073	-467.9
3690.811	-480.9
3693.547	-481.9
3696.281	-491.9
3699.013	-489.9
3701.742	-500.9
3704.47	-505.9
3707.195	-512.9
3709.919	-506.9
3712.64	-511.9
3715.359	-510.9
3718.076	-521.9
3720.792	-525.9
3723.505	-527.9
3726.216	-535.9
3728.925	-526.9
3731.632	-541.9
3734.336	-537.9
3737.039	-542.9
3739.74	-542.9
3742.439	-547.9
3745.136	-540.9
3747.83	-549.9
3750.523	-542.9
3753.213	-554.9
3755.902	-554.9
3758.589	-553.9
3761.273	-555.9
3763.956	-560.9
3766.636	-559.9
3769.315	-564.9
3771.991	-558.9
3774.665	-564.9
3777.338	-565.9
3780.008	-569.9
3782.677	-572.9
3785.343	-562.9
3788.007	-572.9
3790.67	-568.9
3793.33	-574.9
3795.989	-571.9
3798.645	-572.9
3801.299	-575.9
3803.952	-577.9
3806.602	-581.9
3809.251	-586.9
3811.897	-582.9
3814.542	-584.9
3817.184	-576.9
3819.825	-575.9
3822.463	-577.9
3825.1	-583.9
3827.735	-581.9
3830.367	-582.9
3832.998	-587.9
3835.627	-591.9
3838.253	-589.9
3840.878	-594.9
3843.501	-593.9
3846.122	-590.9
3848.741	-587.9
3851.358	-587.9
3853.973	-591.9
3856.586	-598.9
3859.197	-592.9
3861.806	-592.9
3864.414	-589.9
3867.019	-589.9
3869.622	-593.9
3872.224	-584.9
3874.823	-572.9
3877.421	-562.9
3880.016	-546.9
3882.61	-523.9
3885.202	-525.9
3887.792	-538.9
3890.38	-570.9
3892.966	-580.9
3895.55	-591.9
3898.132	-608.9
3900.713	-609.9
3903.291	-601.9
3905.868	-603.9
3908.442	-604.9
3911.015	-604.9
3913.586	-601.9
3916.155	-599.9
3918.722	-603.9
3921.287	-605.9
3923.85	-608.9
3926.411	-611.9
3928.971	-611.9
3931.528	-602.9
3934.084	-608.9
3936.638	-603.9
3939.19	-607.9
3941.74	-603.9
3944.288	-608.9
3946.834	-599.9
3949.378	-606.9
3951.921	-609.9
3954.462	-612.9
3957	-602.9
3959.537	-609.9
3962.072	-602.9
3964.606	-606.9
3967.137	-611.9
3969.667	-605.9
3972.194	-605.9
3974.72	-604.9
3977.244	-596.9
3979.766	-598.9
3982.286	-597.9
3984.805	-596.9
3987.321	-598.9
3989.836	-591.9
3992.349	-588.9
3994.86	-589.9
3997.369	-598.9
3999.877	-586.9
4002.382	-588.9
4004.886	-587.9
4007.388	-586.9
4009.888	-589.9
4012.386	-595.9
4014.883	-591.9
4017.377	-591.9
4019.87	-591.9
4022.361	-590.9
4024.85	-591.9
4027.338	-599.9
4029.823	-598.9
4032.307	-599.9
4034.789	-596.9
4037.269	-586.9
4039.747	-597.9
4042.224	-597.9
4044.699	-600.9
4047.172	-590.9
4049.643	-591.9
4052.112	-601.9
4054.58	-597.9
4057.046	-601.9
4059.51	-592.9
4061.972	-594.9
4064.432	-597.9
4066.891	-593.9
4069.348	-595.9
4071.803	-595.9
4074.256	-591.9
4076.708	-592.9
4079.158	-598.9
4081.606	-600.9
4084.052	-598.9
4086.497	-602.9
4088.939	-589.9
4091.38	-593.9
4093.819	-593.9
4096.257	-625.9
4098.693	-626.9
4101.127	-628.9
4103.559	-621.9
4105.989	-354.9
4108.418	-341.9
4110.845	-315.9
4113.27	-294.9
4115.694	-258.9
4118.115	-225.9
4120.535	-596.9
4122.954	-599.9
4125.37	-583.9
4127.785	-592.9
4130.198	-599.9
4132.609	-601.9
4135.019	-626.9
4137.427	-628.9
4139.833	-626.9
4142.237	-623.9
