Data from 2018-2-14_conc=3_n=4_RamanShift_02.txt Node
Date: Wed Feb 14 11:52:26 IST 2018
User: aro
Spectrometer: QEPB0276
Trigger mode: 0
Integration Time (sec): 3.000000E1
Scans to average: 1
Electric dark correction enabled: true
Nonlinearity correction enabled: false
Boxcar width: 0
XAxis mode: Raman Shifts
Number of Pixels in Spectrum: 1044
>>>>>Begin Spectral Data<<<<<
160.701	-141.9
166.742	56.1
172.777	595.1
178.805	2318.1
184.826	6390.1
190.841	13444.1
196.849	21740.1
202.85	27502.1
208.845	29468.1
214.833	29131.1
220.815	28562.1
226.789	28419.1
232.758	28330.1
238.719	28083.1
244.674	27749.1
250.623	27217.1
256.565	26694.1
262.5	26128.1
268.429	25658.1
274.351	25247.1
280.267	24969.1
286.176	24663.1
292.079	24421.1
297.975	24171.1
303.865	23919.1
309.748	23781.1
315.625	23672.1
321.495	23572.1
327.359	23421.1
333.217	23355.1
339.068	23421.1
344.912	23340.1
350.751	23277.1
356.583	23248.1
362.408	23279.1
368.227	23274.1
374.04	23292.1
379.847	23357.1
385.647	23516.1
391.44	23484.1
397.228	23602.1
403.009	23698.1
408.784	23771.1
414.553	23850.1
420.315	23907.1
426.071	23946.1
431.821	23933.1
437.565	23872.1
443.302	23852.1
449.033	23762.1
454.758	23789.1
460.477	23773.1
466.189	23694.1
471.896	23545.1
477.596	23522.1
483.29	23535.1
488.978	23468.1
494.66	23382.1
500.335	23186.1
506.005	23023.1
511.668	22768.1
517.325	22456.1
522.977	22264.1
528.622	22109.1
534.261	21971.1
539.894	21887.1
545.521	21809.1
551.141	21756.1
556.756	21658.1
562.365	21581.1
567.968	21521.1
573.565	21421.1
579.155	21383.1
584.74	21250.1
590.319	21172.1
595.892	21129.1
601.459	20980.1
607.02	20916.1
612.575	20840.1
618.124	20679.1
623.667	20547.1
629.204	20473.1
634.735	20384.1
640.261	20300.1
645.781	20219.1
651.294	20212.1
656.802	20133.1
662.304	20180.1
667.8	20086.1
673.29	19987.1
678.775	19990.1
684.254	19937.1
689.726	19890.1
695.193	19848.1
700.655	19737.1
706.11	19617.1
711.56	19547.1
717.004	19437.1
722.442	19357.1
727.874	19284.1
733.301	19207.1
738.722	19226.1
744.137	19140.1
749.547	19096.1
754.951	19057.1
760.349	19111.1
765.741	19118.1
771.128	19068.1
776.509	19130.1
781.885	19134.1
787.254	19122.1
792.618	19024.1
797.977	18874.1
803.33	18759.1
808.677	18628.1
814.019	18593.1
819.355	18519.1
824.686	18422.1
830.011	18347.1
835.33	18408.1
840.644	18376.1
845.952	18342.1
851.255	18420.1
856.552	18431.1
861.844	18446.1
867.13	18382.1
872.41	18287.1
877.686	18238.1
882.955	18067.1
888.219	17930.1
893.478	17745.1
898.731	17517.1
903.979	17364.1
909.221	17185.1
914.458	17135.1
919.69	17100.1
924.916	17181.1
930.136	17299.1
935.351	17250.1
940.561	17290.1
945.766	17216.1
950.965	17134.1
956.158	17012.1
961.347	16875.1
966.529	16657.1
971.707	16423.1
976.879	16263.1
982.046	16070.1
987.208	16054.1
992.364	16059.1
997.515	16179.1
1002.66	16305.1
1007.801	16507.1
1012.936	16584.1
1018.066	16612.1
1023.19	16638.1
1028.309	16586.1
1033.423	16592.1
1038.532	16444.1
1043.636	16351.1
1048.734	16094.1
1053.827	15890.1
1058.915	15759.1
1063.998	15594.1
1069.075	15647.1
1074.147	15618.1
1079.214	15666.1
1084.276	15797.1
1089.333	15887.1
1094.385	15893.1
1099.431	15959.1
1104.472	16017.1
1109.509	15850.1
1114.54	15648.1
1119.565	15508.1
1124.586	15303.1
1129.602	15167.1
1134.613	15061.1
1139.618	14951.1
1144.619	14974.1
1149.614	14941.1
1154.604	14991.1
1159.589	14987.1
1164.57	15012.1
1169.545	15073.1
1174.515	15030.1
1179.48	14961.1
1184.44	14858.1
1189.395	14758.1
1194.345	14650.1
1199.29	14567.1
1204.23	14508.1
1209.165	14610.1
1214.095	14746.1
1219.021	14728.1
1223.941	14834.1
1228.856	14930.1
1233.766	14952.1
1238.672	14996.1
1243.572	15003.1
1248.467	14859.1
1253.358	14724.1
1258.244	14504.1
1263.124	14240.1
1268	14086.1
1272.871	13931.1
1277.737	13843.1
1282.599	13742.1
1287.455	13755.1
1292.306	13744.1
1297.153	13838.1
1301.995	13899.1
1306.832	13909.1
1311.664	13867.1
1316.491	13904.1
1321.314	13771.1
1326.132	13564.1
1330.945	13232.1
1335.753	12927.1
1340.556	12576.1
1345.354	12268.1
1350.148	12087.1
1354.937	12019.1
1359.722	12032.1
1364.501	12127.1
1369.276	12376.1
1374.046	12528.1
1378.811	12733.1
1383.572	12872.1
1388.327	12933.1
1393.079	12883.1
1397.825	12657.1
1402.567	12449.1
1407.304	12285.1
1412.036	12161.1
1416.764	12084.1
1421.487	11987.1
1426.205	11910.1
1430.919	11871.1
1435.628	11878.1
1440.333	11851.1
1445.032	11946.1
1449.727	11957.1
1454.418	11919.1
1459.104	11773.1
1463.785	11577.1
1468.462	11299.1
1473.134	11059.1
1477.802	10878.1
1482.465	10663.1
1487.123	10564.1
1491.777	10611.1
1496.426	10635.1
1501.071	10882.1
1505.711	11034.1
1510.347	11210.1
1514.978	11440.1
1519.604	11589.1
1524.226	11715.1
1528.844	11704.1
1533.457	11688.1
1538.065	11672.1
1542.669	11508.1
1547.269	11452.1
1551.864	11431.1
1556.454	11285.1
1561.041	11298.1
1565.622	11266.1
1570.199	11321.1
1574.772	11325.1
1579.34	11395.1
1583.904	11450.1
1588.464	11448.1
1593.019	11423.1
1597.569	11409.1
1602.115	11384.1
1606.657	11261.1
1611.195	11172.1
1615.728	11090.1
1620.256	11052.1
1624.78	11051.1
1629.3	11082.1
1633.816	11099.1
1638.327	11142.1
1642.834	11260.1
1647.336	11308.1
1651.834	11297.1
1656.328	11321.1
1660.817	11236.1
1665.302	11141.1
1669.783	10957.1
1674.259	10742.1
1678.732	10407.1
1683.199	10070.1
1687.663	9751.1
1692.122	9435.1
1696.577	9392.1
1701.028	9354.1
1705.474	9485.1
1709.917	9574.1
1714.355	9657.1
1718.788	9547.1
1723.218	9400.1
1727.643	9197.1
1732.064	9044.1
1736.481	8811.1
1740.893	8625.1
1745.301	8361.1
1749.705	8173.1
1754.105	7924.1
1758.501	7764.1
1762.893	7513.1
1767.28	7309.1
1771.663	7171.1
1776.042	7036.1
1780.417	6982.1
1784.787	7011.1
1789.154	7115.1
1793.516	7277.1
1797.874	7395.1
1802.228	7524.1
1806.578	7645.1
1810.924	7604.1
1815.266	7541.1
1819.603	7412.1
1823.937	7269.1
1828.266	7108.1
1832.591	7063.1
1836.913	6945.1
1841.23	6874.1
1845.543	6820.1
1849.852	6780.1
1854.156	6731.1
1858.457	6754.1
1862.754	6736.1
1867.047	6778.1
1871.335	6705.1
1875.62	6708.1
1879.9	6713.1
1884.177	6635.1
1888.449	6632.1
1892.718	6510.1
1896.982	6513.1
1901.243	6427.1
1905.499	6370.1
1909.752	6342.1
1914	6393.1
1918.245	6405.1
1922.485	6475.1
1926.722	6537.1
1930.954	6602.1
1935.183	6665.1
1939.408	6755.1
1943.628	6783.1
1947.845	6809.1
1952.058	6805.1
1956.267	6769.1
1960.472	6630.1
1964.673	6545.1
1968.87	6445.1
1973.063	6342.1
1977.252	6242.1
1981.438	6164.1
1985.619	6092.1
1989.797	6052.1
1993.971	5985.1
1998.14	5967.1
2002.306	5952.1
2006.469	5934.1
2010.627	5913.1
2014.781	5858.1
2018.932	5824.1
2023.078	5750.1
2027.221	5677.1
2031.36	5575.1
2035.495	5502.1
2039.627	5436.1
2043.754	5392.1
2047.878	5308.1
2051.998	5272.1
2056.114	5298.1
2060.226	5278.1
2064.334	5284.1
2068.439	5293.1
2072.54	5337.1
2076.637	5377.1
2080.73	5437.1
2084.82	5480.1
2088.906	5474.1
2092.988	5483.1
2097.066	5462.1
2101.14	5407.1
2105.211	5383.1
2109.278	5354.1
2113.342	5326.1
2117.401	5274.1
2121.457	5240.1
2125.509	5212.1
2129.558	5195.1
2133.602	5154.1
2137.643	5129.1
2141.681	5107.1
2145.714	5104.1
2149.744	5035.1
2153.77	5017.1
2157.793	4945.1
2161.812	4876.1
2165.827	4816.1
2169.838	4740.1
2173.846	4661.1
2177.851	4595.1
2181.851	4527.1
2185.848	4459.1
2189.841	4406.1
2193.831	4368.1
2197.817	4346.1
2201.799	4313.1
2205.778	4306.1
2209.753	4279.1
2213.725	4261.1
2217.693	4240.1
2221.657	4237.1
2225.618	4232.1
2229.575	4217.1
2233.529	4141.1
2237.479	4121.1
2241.425	4102.1
2245.368	4014.1
2249.307	3990.1
2253.243	3916.1
2257.175	3873.1
2261.104	3812.1
2265.029	3778.1
2268.95	3725.1
2272.868	3693.1
2276.783	3646.1
2280.694	3619.1
2284.601	3560.1
2288.505	3552.1
2292.405	3506.1
2296.302	3478.1
2300.195	3442.1
2304.085	3405.1
2307.971	3353.1
2311.854	3307.1
2315.734	3228.1
2319.609	3222.1
2323.482	3166.1
2327.351	3116.1
2331.216	3106.1
2335.078	3085.1
2338.937	3070.1
2342.792	3064.1
2346.643	3065.1
2350.492	3034.1
2354.336	3047.1
2358.178	3020.1
2362.015	3040.1
2365.85	3057.1
2369.681	3051.1
2373.508	3040.1
2377.333	3046.1
2381.153	3024.1
2384.971	3008.1
2388.785	3005.1
2392.595	2949.1
2396.402	2946.1
2400.206	2910.1
2404.007	2880.1
2407.804	2882.1
2411.597	2838.1
2415.388	2808.1
2419.174	2788.1
2422.958	2790.1
2426.738	2749.1
2430.515	2739.1
2434.289	2716.1
2438.059	2700.1
2441.825	2678.1
2445.589	2650.1
2449.349	2619.1
2453.106	2590.1
2456.859	2533.1
2460.61	2534.1
2464.356	2505.1
2468.1	2468.1
2471.84	2437.1
2475.577	2410.1
2479.311	2414.1
2483.041	2405.1
2486.768	2394.1
2490.492	2383.1
2494.213	2380.1
2497.93	2366.1
2501.644	2361.1
2505.355	2335.1
2509.062	2373.1
2512.766	2322.1
2516.467	2319.1
2520.165	2303.1
2523.859	2284.1
2527.551	2284.1
2531.239	2273.1
2534.923	2264.1
2538.605	2222.1
2542.283	2232.1
2545.958	2239.1
2549.63	2227.1
2553.299	2226.1
2556.964	2223.1
2560.626	2191.1
2564.285	2188.1
2567.941	2205.1
2571.594	2182.1
2575.243	2149.1
2578.89	2159.1
2582.533	2120.1
2586.173	2105.1
2589.809	2112.1
2593.443	2081.1
2597.073	2061.1
2600.701	2029.1
2604.325	2036.1
2607.946	2002.1
2611.564	1992.1
2615.178	1985.1
2618.79	1981.1
2622.398	1960.1
2626.004	1942.1
2629.606	1897.1
2633.205	1883.1
2636.801	1863.1
2640.394	1841.1
2643.983	1777.1
2647.57	1781.1
2651.153	1752.1
2654.734	1718.1
2658.311	1704.1
2661.885	1678.1
2665.456	1645.1
2669.025	1634.1
2672.589	1623.1
2676.151	1602.1
2679.71	1574.1
2683.266	1540.1
2686.819	1535.1
2690.368	1491.1
2693.915	1470.1
2697.458	1442.1
2700.999	1409.1
2704.536	1378.1
2708.071	1339.1
2711.602	1320.1
2715.13	1283.1
2718.656	1258.1
2722.178	1249.1
2725.697	1213.1
2729.214	1215.1
2732.727	1206.1
2736.237	1223.1
2739.744	1191.1
2743.249	1222.1
2746.75	1223.1
2750.248	1232.1
2753.743	1259.1
2757.236	1276.1
2760.725	1281.1
2764.211	1283.1
2767.695	1292.1
2771.175	1280.1
2774.652	1280.1
2778.127	1261.1
2781.598	1259.1
2785.067	1257.1
2788.532	1244.1
2791.995	1225.1
2795.455	1229.1
2798.911	1236.1
2802.365	1237.1
2805.816	1238.1
2809.264	1238.1
2812.709	1225.1
2816.151	1219.1
2819.59	1244.1
2823.026	1230.1
2826.46	1248.1
2829.89	1238.1
2833.318	1239.1
2836.742	1227.1
2840.164	1239.1
2843.583	1263.1
2846.999	1266.1
2850.412	1274.1
2853.822	1290.1
2857.229	1299.1
2860.634	1316.1
2864.035	1334.1
2867.434	1349.1
2870.83	1384.1
2874.223	1394.1
2877.613	1416.1
2881	1435.1
2884.385	1438.1
2887.766	1446.1
2891.145	1438.1
2894.521	1444.1
2897.894	1439.1
2901.264	1405.1
2904.631	1436.1
2907.996	1433.1
2911.358	1419.1
2914.717	1451.1
2918.073	1452.1
2921.426	1441.1
2924.777	1467.1
2928.124	1509.1
2931.469	1537.1
2934.811	1548.1
2938.15	1563.1
2941.487	1573.1
2944.821	1584.1
2948.152	1574.1
2951.48	1571.1
2954.805	1560.1
2958.128	1546.1
2961.447	1542.1
2964.765	1522.1
2968.079	1535.1
2971.39	1560.1
2974.699	1565.1
2978.005	1622.1
2981.308	1628.1
2984.609	1664.1
2987.907	1695.1
2991.202	1703.1
2994.494	1750.1
2997.784	1789.1
3001.07	1799.1
3004.355	1834.1
3007.636	1846.1
3010.915	1879.1
3014.191	1890.1
3017.464	1902.1
3020.734	1917.1
3024.002	1913.1
3027.267	1917.1
3030.53	1936.1
3033.789	1964.1
3037.046	2006.1
3040.301	2024.1
3043.552	2038.1
3046.801	2105.1
3050.048	2126.1
3053.291	2184.1
3056.532	2226.1
3059.771	2300.1
3063.006	2373.1
3066.239	2446.1
3069.469	2484.1
3072.697	2544.1
3075.922	2613.1
3079.144	2708.1
3082.364	2767.1
3085.581	2807.1
3088.795	2858.1
3092.007	2921.1
3095.216	2982.1
3098.423	3036.1
3101.627	3113.1
3104.828	3178.1
3108.026	3240.1
3111.222	3310.1
3114.416	3392.1
3117.607	3478.1
3120.795	3577.1
3123.98	3616.1
3127.163	3675.1
3130.344	3815.1
3133.521	3869.1
3136.696	3969.1
3139.869	4071.1
3143.039	4121.1
3146.206	4158.1
3149.371	4226.1
3152.533	4250.1
3155.693	4303.1
3158.85	4315.1
3162.005	4334.1
3165.157	4353.1
3168.306	4362.1
3171.453	4356.1
3174.597	4390.1
3177.739	4418.1
3180.878	4369.1
3184.014	4397.1
3187.149	4396.1
3190.28	4398.1
3193.409	4406.1
3196.536	4395.1
3199.659	4415.1
3202.781	4461.1
3205.9	4432.1
3209.016	4421.1
3212.13	4418.1
3215.241	4407.1
3218.35	4363.1
3221.456	4312.1
3224.56	4254.1
3227.661	4212.1
3230.76	4152.1
3233.856	4108.1
3236.95	4084.1
3240.041	4058.1
3243.13	4035.1
3246.216	4012.1
3249.3	3969.1
3252.382	3985.1
3255.46	3945.1
3258.537	3941.1
3261.611	3911.1
3264.682	3911.1
3267.751	3907.1
3270.818	3914.1
3273.882	3921.1
3276.943	3887.1
3280.002	3843.1
3283.059	3845.1
3286.113	3755.1
3289.165	3711.1
3292.214	3656.1
3295.261	3610.1
3298.306	3553.1
3301.348	3462.1
3304.387	3433.1
3307.425	3362.1
3310.459	3327.1
3313.492	3283.1
3316.521	3221.1
3319.549	3180.1
3322.574	3146.1
3325.597	3138.1
3328.617	3108.1
3331.635	3092.1
3334.65	3051.1
3337.663	3066.1
3340.674	3013.1
3343.682	2991.1
3346.688	3015.1
3349.691	2990.1
3352.692	2993.1
3355.691	2953.1
3358.687	2911.1
3361.681	2892.1
3364.673	2865.1
3367.662	2801.1
3370.649	2787.1
3373.633	2734.1
3376.615	2680.1
3379.595	2653.1
3382.572	2614.1
3385.547	2555.1
3388.52	2529.1
3391.49	2499.1
3394.458	2466.1
3397.424	2425.1
3400.387	2405.1
3403.348	2370.1
3406.307	2322.1
3409.263	2310.1
3412.217	2276.1
3415.168	2273.1
3418.118	2232.1
3421.065	2195.1
3424.009	2165.1
3426.951	2130.1
3429.891	2127.1
3432.829	2100.1
3435.764	2016.1
3438.697	1959.1
3441.628	1898.1
3444.557	1860.1
3447.483	1809.1
3450.407	1736.1
3453.328	1701.1
3456.247	1626.1
3459.164	1584.1
3462.079	1531.1
3464.991	1454.1
3467.902	1420.1
3470.809	1363.1
3473.715	1297.1
3476.618	1265.1
3479.519	1218.1
3482.418	1192.1
3485.315	1151.1
3488.209	1109.1
3491.101	1076.1
3493.99	1027.1
3496.878	965.1
3499.763	951.1
3502.646	902.1
3505.527	869.1
3508.405	839.1
3511.281	785.1
3514.155	736.1
3517.027	714.1
3519.897	659.1
3522.764	616.1
3525.629	567.1
3528.492	512.1
3531.352	491.1
3534.211	441.1
3537.067	390.1
3539.921	369.1
3542.773	323.1
3545.622	295.1
3548.469	248.1
3551.315	218.1
3554.157	191.1
3556.998	171.1
3559.837	133.1
3562.673	116.1
3565.507	81.1
3568.339	57.1
3571.169	42.1
3573.996	14.1
3576.822	-10.9
3579.645	-27.9
3582.466	-54.9
3585.285	-62.9
3588.101	-90.9
3590.916	-113.9
3593.728	-138.9
3596.538	-153.9
3599.346	-177.9
3602.152	-189.9
3604.956	-198.9
3607.757	-231.9
3610.556	-245.9
3613.354	-266.9
3616.149	-284.9
3618.942	-283.9
3621.732	-287.9
3624.521	-316.9
3627.307	-324.9
3630.092	-335.9
3632.874	-345.9
3635.654	-346.9
3638.432	-351.9
3641.208	-374.9
3643.982	-388.9
3646.753	-392.9
3649.523	-403.9
3652.29	-411.9
3655.055	-411.9
3657.818	-430.9
3660.579	-450.9
3663.338	-454.9
3666.095	-463.9
3668.849	-469.9
3671.602	-473.9
3674.352	-487.9
3677.101	-496.9
3679.847	-502.9
3682.591	-514.9
3685.333	-515.9
3688.073	-522.9
3690.811	-532.9
3693.547	-537.9
3696.281	-547.9
3699.013	-551.9
3701.742	-549.9
3704.47	-563.9
3707.195	-572.9
3709.919	-569.9
3712.64	-571.9
3715.359	-571.9
3718.076	-583.9
3720.792	-574.9
3723.505	-584.9
3726.216	-590.9
3728.925	-585.9
3731.632	-594.9
3734.336	-598.9
3737.039	-604.9
3739.74	-593.9
3742.439	-603.9
3745.136	-608.9
3747.83	-609.9
3750.523	-613.9
3753.213	-603.9
3755.902	-614.9
3758.589	-621.9
3761.273	-629.9
3763.956	-632.9
3766.636	-627.9
3769.315	-628.9
3771.991	-632.9
3774.665	-636.9
3777.338	-628.9
3780.008	-642.9
3782.677	-637.9
3785.343	-630.9
3788.007	-633.9
3790.67	-635.9
3793.33	-644.9
3795.989	-637.9
3798.645	-641.9
3801.299	-642.9
3803.952	-652.9
3806.602	-655.9
3809.251	-652.9
3811.897	-656.9
3814.542	-652.9
3817.184	-650.9
3819.825	-651.9
3822.463	-653.9
3825.1	-661.9
3827.735	-653.9
3830.367	-648.9
3832.998	-657.9
3835.627	-664.9
3838.253	-659.9
3840.878	-657.9
3843.501	-659.9
3846.122	-655.9
3848.741	-656.9
3851.358	-664.9
3853.973	-657.9
3856.586	-661.9
3859.197	-665.9
3861.806	-666.9
3864.414	-666.9
3867.019	-659.9
3869.622	-668.9
3872.224	-660.9
3874.823	-644.9
3877.421	-628.9
3880.016	-622.9
3882.61	-596.9
3885.202	-595.9
3887.792	-601.9
3890.38	-631.9
3892.966	-653.9
3895.55	-661.9
3898.132	-675.9
3900.713	-674.9
3903.291	-675.9
3905.868	-676.9
3908.442	-673.9
3911.015	-679.9
3913.586	-675.9
3916.155	-673.9
3918.722	-685.9
3921.287	-676.9
3923.85	-686.9
3926.411	-681.9
3928.971	-691.9
3931.528	-688.9
3934.084	-681.9
3936.638	-684.9
3939.19	-678.9
3941.74	-682.9
3944.288	-685.9
3946.834	-678.9
3949.378	-683.9
3951.921	-676.9
3954.462	-691.9
3957	-678.9
3959.537	-678.9
3962.072	-683.9
3964.606	-676.9
3967.137	-678.9
3969.667	-683.9
3972.194	-677.9
3974.72	-682.9
3977.244	-675.9
3979.766	-673.9
3982.286	-672.9
3984.805	-672.9
3987.321	-670.9
3989.836	-674.9
3992.349	-663.9
3994.86	-665.9
3997.369	-665.9
3999.877	-667.9
4002.382	-661.9
4004.886	-659.9
4007.388	-660.9
4009.888	-664.9
4012.386	-664.9
4014.883	-658.9
4017.377	-665.9
4019.87	-665.9
4022.361	-665.9
4024.85	-663.9
4027.338	-670.9
4029.823	-669.9
4032.307	-668.9
4034.789	-671.9
4037.269	-666.9
4039.747	-665.9
4042.224	-669.9
4044.699	-671.9
4047.172	-666.9
4049.643	-668.9
4052.112	-670.9
4054.58	-669.9
4057.046	-672.9
4059.51	-672.9
4061.972	-670.9
4064.432	-675.9
4066.891	-670.9
4069.348	-669.9
4071.803	-666.9
4074.256	-665.9
4076.708	-665.9
4079.158	-676.9
4081.606	-670.9
4084.052	-670.9
4086.497	-673.9
4088.939	-667.9
4091.38	-669.9
4093.819	-668.9
4096.257	-703.9
4098.693	-703.9
4101.127	-706.9
4103.559	-697.9
4105.989	-420.9
4108.418	-378.9
4110.845	-355.9
4113.27	-330.9
4115.694	-287.9
4118.115	-234.9
4120.535	-664.9
4122.954	-663.9
4125.37	-661.9
4127.785	-666.9
4130.198	-672.9
4132.609	-670.9
4135.019	-705.9
4137.427	-706.9
4139.833	-709.9
4142.237	-704.9
