Data from 2018-2-14_conc=2_n=7_RamanShift_05.txt Node
Date: Wed Feb 14 11:22:56 IST 2018
User: aro
Spectrometer: QEPB0276
Trigger mode: 0
Integration Time (sec): 3.000000E1
Scans to average: 1
Electric dark correction enabled: true
Nonlinearity correction enabled: false
Boxcar width: 0
XAxis mode: Raman Shifts
Number of Pixels in Spectrum: 1044
>>>>>Begin Spectral Data<<<<<
160.701	-146.4
166.742	63.6
172.777	604.6
178.805	2303.6
184.826	6390.6
190.841	13361.6
196.849	21418.6
202.85	27225.6
208.845	29157.6
214.833	28887.6
220.815	28388.6
226.789	28323.6
232.758	28257.6
238.719	28169.6
244.674	27940.6
250.623	27397.6
256.565	26998.6
262.5	26446.6
268.429	26029.6
274.351	25702.6
280.267	25389.6
286.176	25186.6
292.079	24976.6
297.975	24827.6
303.865	24678.6
309.748	24539.6
315.625	24395.6
321.495	24246.6
327.359	24219.6
333.217	24211.6
339.068	24188.6
344.912	24173.6
350.751	24161.6
356.583	24076.6
362.408	24069.6
368.227	24064.6
374.04	24114.6
379.847	24204.6
385.647	24276.6
391.44	24289.6
397.228	24494.6
403.009	24589.6
408.784	24621.6
414.553	24670.6
420.315	24682.6
426.071	24781.6
431.821	24783.6
437.565	24742.6
443.302	24691.6
449.033	24694.6
454.758	24594.6
460.477	24641.6
466.189	24546.6
471.896	24502.6
477.596	24481.6
483.29	24444.6
488.978	24411.6
494.66	24313.6
500.335	24139.6
506.005	23955.6
511.668	23700.6
517.325	23470.6
522.977	23316.6
528.622	23145.6
534.261	23031.6
539.894	22903.6
545.521	22826.6
551.141	22776.6
556.756	22787.6
562.365	22611.6
567.968	22499.6
573.565	22485.6
579.155	22405.6
584.74	22337.6
590.319	22280.6
595.892	22178.6
601.459	22100.6
607.02	22043.6
612.575	21912.6
618.124	21763.6
623.667	21716.6
629.204	21537.6
634.735	21462.6
640.261	21370.6
645.781	21281.6
651.294	21258.6
656.802	21293.6
662.304	21228.6
667.8	21193.6
673.29	21215.6
678.775	21163.6
684.254	21066.6
689.726	21022.6
695.193	21014.6
700.655	20885.6
706.11	20750.6
711.56	20683.6
717.004	20553.6
722.442	20526.6
727.874	20462.6
733.301	20369.6
738.722	20323.6
744.137	20317.6
749.547	20275.6
754.951	20270.6
760.349	20278.6
765.741	20222.6
771.128	20350.6
776.509	20350.6
781.885	20316.6
787.254	20256.6
792.618	20174.6
797.977	20016.6
803.33	19934.6
808.677	19831.6
814.019	19723.6
819.355	19614.6
824.686	19483.6
830.011	19531.6
835.33	19531.6
840.644	19494.6
845.952	19627.6
851.255	19646.6
856.552	19637.6
861.844	19616.6
867.13	19571.6
872.41	19543.6
877.686	19468.6
882.955	19223.6
888.219	19126.6
893.478	18937.6
898.731	18700.6
903.979	18531.6
909.221	18417.6
914.458	18370.6
919.69	18367.6
924.916	18468.6
930.136	18508.6
935.351	18553.6
940.561	18495.6
945.766	18513.6
950.965	18398.6
956.158	18307.6
961.347	18114.6
966.529	17884.6
971.707	17655.6
976.879	17511.6
982.046	17322.6
987.208	17289.6
992.364	17311.6
997.515	17374.6
1002.66	17481.6
1007.801	17765.6
1012.936	17865.6
1018.066	17816.6
1023.19	17859.6
1028.309	17916.6
1033.423	17914.6
1038.532	17750.6
1043.636	17601.6
1048.734	17446.6
1053.827	17174.6
1058.915	17001.6
1063.998	16883.6
1069.075	16838.6
1074.147	16856.6
1079.214	16967.6
1084.276	17012.6
1089.333	17138.6
1094.385	17287.6
1099.431	17268.6
1104.472	17288.6
1109.509	17192.6
1114.54	16981.6
1119.565	16796.6
1124.586	16582.6
1129.602	16418.6
1134.613	16341.6
1139.618	16219.6
1144.619	16185.6
1149.614	16206.6
1154.604	16199.6
1159.589	16276.6
1164.57	16322.6
1169.545	16287.6
1174.515	16359.6
1179.48	16308.6
1184.44	16134.6
1189.395	16021.6
1194.345	15953.6
1199.29	15828.6
1204.23	15868.6
1209.165	15863.6
1214.095	15949.6
1219.021	16074.6
1223.941	16156.6
1228.856	16266.6
1233.766	16306.6
1238.672	16331.6
1243.572	16268.6
1248.467	16149.6
1253.358	16025.6
1258.244	15833.6
1263.124	15536.6
1268	15336.6
1272.871	15185.6
1277.737	15121.6
1282.599	14974.6
1287.455	14979.6
1292.306	15028.6
1297.153	15053.6
1301.995	15191.6
1306.832	15223.6
1311.664	15221.6
1316.491	15182.6
1321.314	15099.6
1326.132	14804.6
1330.945	14510.6
1335.753	14129.6
1340.556	13738.6
1345.354	13450.6
1350.148	13221.6
1354.937	13042.6
1359.722	13029.6
1364.501	13127.6
1369.276	13345.6
1374.046	13587.6
1378.811	13857.6
1383.572	14107.6
1388.327	14126.6
1393.079	14087.6
1397.825	13907.6
1402.567	13662.6
1407.304	13537.6
1412.036	13289.6
1416.764	13204.6
1421.487	13134.6
1426.205	13050.6
1430.919	13003.6
1435.628	13039.6
1440.333	13058.6
1445.032	13079.6
1449.727	13094.6
1454.418	13084.6
1459.104	12876.6
1463.785	12633.6
1468.462	12393.6
1473.134	12126.6
1477.802	11874.6
1482.465	11700.6
1487.123	11537.6
1491.777	11513.6
1496.426	11599.6
1501.071	11727.6
1505.711	11921.6
1510.347	12196.6
1514.978	12375.6
1519.604	12584.6
1524.226	12694.6
1528.844	12758.6
1533.457	12748.6
1538.065	12709.6
1542.669	12636.6
1547.269	12499.6
1551.864	12404.6
1556.454	12354.6
1561.041	12337.6
1565.622	12281.6
1570.199	12333.6
1574.772	12385.6
1579.34	12454.6
1583.904	12475.6
1588.464	12534.6
1593.019	12503.6
1597.569	12404.6
1602.115	12343.6
1606.657	12183.6
1611.195	12177.6
1615.728	12057.6
1620.256	12013.6
1624.78	11982.6
1629.3	11924.6
1633.816	12011.6
1638.327	12049.6
1642.834	12051.6
1647.336	12104.6
1651.834	12122.6
1656.328	12124.6
1660.817	12024.6
1665.302	11958.6
1669.783	11789.6
1674.259	11511.6
1678.732	11146.6
1683.199	10792.6
1687.663	10413.6
1692.122	10131.6
1696.577	9968.6
1701.028	9940.6
1705.474	10116.6
1709.917	10350.6
1714.355	10465.6
1718.788	10457.6
1723.218	10270.6
1727.643	10081.6
1732.064	9910.6
1736.481	9671.6
1740.893	9456.6
1745.301	9233.6
1749.705	8999.6
1754.105	8767.6
1758.501	8518.6
1762.893	8243.6
1767.28	8050.6
1771.663	7854.6
1776.042	7712.6
1780.417	7612.6
1784.787	7609.6
1789.154	7657.6
1793.516	7849.6
1797.874	8048.6
1802.228	8183.6
1806.578	8325.6
1810.924	8385.6
1815.266	8307.6
1819.603	8186.6
1823.937	8063.6
1828.266	7937.6
1832.591	7794.6
1836.913	7664.6
1841.23	7598.6
1845.543	7542.6
1849.852	7467.6
1854.156	7457.6
1858.457	7424.6
1862.754	7461.6
1867.047	7407.6
1871.335	7387.6
1875.62	7382.6
1879.9	7326.6
1884.177	7289.6
1888.449	7269.6
1892.718	7186.6
1896.982	7071.6
1901.243	7010.6
1905.499	6952.6
1909.752	6908.6
1914	6903.6
1918.245	6942.6
1922.485	6993.6
1926.722	7046.6
1930.954	7171.6
1935.183	7227.6
1939.408	7372.6
1943.628	7409.6
1947.845	7406.6
1952.058	7455.6
1956.267	7367.6
1960.472	7259.6
1964.673	7198.6
1968.87	7012.6
1973.063	6944.6
1977.252	6848.6
1981.438	6771.6
1985.619	6708.6
1989.797	6665.6
1993.971	6624.6
1998.14	6559.6
2002.306	6553.6
2006.469	6509.6
2010.627	6470.6
2014.781	6419.6
2018.932	6371.6
2023.078	6321.6
2027.221	6190.6
2031.36	6106.6
2035.495	6008.6
2039.627	5898.6
2043.754	5849.6
2047.878	5784.6
2051.998	5733.6
2056.114	5699.6
2060.226	5731.6
2064.334	5687.6
2068.439	5729.6
2072.54	5773.6
2076.637	5786.6
2080.73	5836.6
2084.82	5834.6
2088.906	5888.6
2092.988	5913.6
2097.066	5882.6
2101.14	5869.6
2105.211	5813.6
2109.278	5811.6
2113.342	5745.6
2117.401	5727.6
2121.457	5701.6
2125.509	5698.6
2129.558	5646.6
2133.602	5614.6
2137.643	5559.6
2141.681	5571.6
2145.714	5523.6
2149.744	5493.6
2153.77	5446.6
2157.793	5384.6
2161.812	5311.6
2165.827	5231.6
2169.838	5175.6
2173.846	5115.6
2177.851	5004.6
2181.851	4939.6
2185.848	4842.6
2189.841	4826.6
2193.831	4766.6
2197.817	4725.6
2201.799	4731.6
2205.778	4689.6
2209.753	4671.6
2213.725	4675.6
2217.693	4630.6
2221.657	4624.6
2225.618	4627.6
2229.575	4610.6
2233.529	4585.6
2237.479	4520.6
2241.425	4497.6
2245.368	4423.6
2249.307	4351.6
2253.243	4271.6
2257.175	4218.6
2261.104	4216.6
2265.029	4122.6
2268.95	4091.6
2272.868	4071.6
2276.783	4030.6
2280.694	4001.6
2284.601	3949.6
2288.505	3923.6
2292.405	3908.6
2296.302	3848.6
2300.195	3812.6
2304.085	3766.6
2307.971	3718.6
2311.854	3649.6
2315.734	3610.6
2319.609	3567.6
2323.482	3510.6
2327.351	3477.6
2331.216	3440.6
2335.078	3451.6
2338.937	3414.6
2342.792	3407.6
2346.643	3404.6
2350.492	3397.6
2354.336	3409.6
2358.178	3417.6
2362.015	3428.6
2365.85	3440.6
2369.681	3451.6
2373.508	3435.6
2377.333	3427.6
2381.153	3440.6
2384.971	3402.6
2388.785	3371.6
2392.595	3336.6
2396.402	3304.6
2400.206	3287.6
2404.007	3270.6
2407.804	3270.6
2411.597	3227.6
2415.388	3204.6
2419.174	3189.6
2422.958	3184.6
2426.738	3147.6
2430.515	3121.6
2434.289	3100.6
2438.059	3079.6
2441.825	3047.6
2445.589	3043.6
2449.349	2989.6
2453.106	2949.6
2456.859	2895.6
2460.61	2876.6
2464.356	2871.6
2468.1	2799.6
2471.84	2790.6
2475.577	2783.6
2479.311	2744.6
2483.041	2745.6
2486.768	2715.6
2490.492	2718.6
2494.213	2737.6
2497.93	2703.6
2501.644	2682.6
2505.355	2649.6
2509.062	2646.6
2512.766	2651.6
2516.467	2614.6
2520.165	2612.6
2523.859	2603.6
2527.551	2567.6
2531.239	2562.6
2534.923	2534.6
2538.605	2542.6
2542.283	2511.6
2545.958	2513.6
2549.63	2510.6
2553.299	2515.6
2556.964	2500.6
2560.626	2503.6
2564.285	2487.6
2567.941	2472.6
2571.594	2459.6
2575.243	2456.6
2578.89	2437.6
2582.533	2418.6
2586.173	2404.6
2589.809	2385.6
2593.443	2365.6
2597.073	2352.6
2600.701	2343.6
2604.325	2307.6
2607.946	2289.6
2611.564	2270.6
2615.178	2289.6
2618.79	2256.6
2622.398	2227.6
2626.004	2222.6
2629.606	2192.6
2633.205	2171.6
2636.801	2131.6
2640.394	2099.6
2643.983	2070.6
2647.57	2048.6
2651.153	2008.6
2654.734	1991.6
2658.311	1942.6
2661.885	1935.6
2665.456	1909.6
2669.025	1879.6
2672.589	1855.6
2676.151	1837.6
2679.71	1838.6
2683.266	1782.6
2686.819	1737.6
2690.368	1728.6
2693.915	1684.6
2697.458	1675.6
2700.999	1609.6
2704.536	1599.6
2708.071	1538.6
2711.602	1519.6
2715.13	1475.6
2718.656	1433.6
2722.178	1414.6
2725.697	1406.6
2729.214	1376.6
2732.727	1371.6
2736.237	1361.6
2739.744	1351.6
2743.249	1356.6
2746.75	1369.6
2750.248	1366.6
2753.743	1384.6
2757.236	1427.6
2760.725	1420.6
2764.211	1457.6
2767.695	1435.6
2771.175	1439.6
2774.652	1430.6
2778.127	1416.6
2781.598	1421.6
2785.067	1408.6
2788.532	1385.6
2791.995	1375.6
2795.455	1402.6
2798.911	1385.6
2802.365	1388.6
2805.816	1378.6
2809.264	1377.6
2812.709	1373.6
2816.151	1396.6
2819.59	1373.6
2823.026	1348.6
2826.46	1384.6
2829.89	1369.6
2833.318	1364.6
2836.742	1368.6
2840.164	1363.6
2843.583	1381.6
2846.999	1391.6
2850.412	1412.6
2853.822	1407.6
2857.229	1413.6
2860.634	1438.6
2864.035	1441.6
2867.434	1493.6
2870.83	1490.6
2874.223	1510.6
2877.613	1503.6
2881	1530.6
2884.385	1534.6
2887.766	1527.6
2891.145	1525.6
2894.521	1519.6
2897.894	1528.6
2901.264	1507.6
2904.631	1496.6
2907.996	1490.6
2911.358	1502.6
2914.717	1508.6
2918.073	1499.6
2921.426	1513.6
2924.777	1532.6
2928.124	1556.6
2931.469	1580.6
2934.811	1576.6
2938.15	1596.6
2941.487	1609.6
2944.821	1597.6
2948.152	1590.6
2951.48	1573.6
2954.805	1559.6
2958.128	1558.6
2961.447	1540.6
2964.765	1523.6
2968.079	1542.6
2971.39	1531.6
2974.699	1549.6
2978.005	1574.6
2981.308	1592.6
2984.609	1629.6
2987.907	1646.6
2991.202	1672.6
2994.494	1747.6
2997.784	1769.6
3001.07	1784.6
3004.355	1793.6
3007.636	1827.6
3010.915	1852.6
3014.191	1832.6
3017.464	1865.6
3020.734	1870.6
3024.002	1867.6
3027.267	1871.6
3030.53	1861.6
3033.789	1886.6
3037.046	1920.6
3040.301	1940.6
3043.552	1982.6
3046.801	2004.6
3050.048	2054.6
3053.291	2069.6
3056.532	2144.6
3059.771	2195.6
3063.006	2262.6
3066.239	2310.6
3069.469	2374.6
3072.697	2437.6
3075.922	2465.6
3079.144	2537.6
3082.364	2582.6
3085.581	2632.6
3088.795	2694.6
3092.007	2746.6
3095.216	2794.6
3098.423	2858.6
3101.627	2916.6
3104.828	2996.6
3108.026	3029.6
3111.222	3084.6
3114.416	3170.6
3117.607	3203.6
3120.795	3272.6
3123.98	3381.6
3127.163	3471.6
3130.344	3551.6
3133.521	3616.6
3136.696	3697.6
3139.869	3774.6
3143.039	3841.6
3146.206	3884.6
3149.371	3929.6
3152.533	3936.6
3155.693	4004.6
3158.85	3969.6
3162.005	4012.6
3165.157	4010.6
3168.306	4009.6
3171.453	4040.6
3174.597	4023.6
3177.739	4050.6
3180.878	4017.6
3184.014	4057.6
3187.149	4056.6
3190.28	4030.6
3193.409	4070.6
3196.536	4088.6
3199.659	4064.6
3202.781	4074.6
3205.9	4054.6
3209.016	4060.6
3212.13	4038.6
3215.241	4021.6
3218.35	3989.6
3221.456	3945.6
3224.56	3876.6
3227.661	3859.6
3230.76	3806.6
3233.856	3780.6
3236.95	3741.6
3240.041	3717.6
3243.13	3698.6
3246.216	3700.6
3249.3	3633.6
3252.382	3636.6
3255.46	3642.6
3258.537	3629.6
3261.611	3629.6
3264.682	3612.6
3267.751	3600.6
3270.818	3635.6
3273.882	3610.6
3276.943	3577.6
3280.002	3534.6
3283.059	3509.6
3286.113	3466.6
3289.165	3395.6
3292.214	3351.6
3295.261	3303.6
3298.306	3233.6
3301.348	3188.6
3304.387	3142.6
3307.425	3089.6
3310.459	3023.6
3313.492	3016.6
3316.521	2971.6
3319.549	2940.6
3322.574	2917.6
3325.597	2855.6
3328.617	2844.6
3331.635	2813.6
3334.65	2798.6
3337.663	2777.6
3340.674	2758.6
3343.682	2763.6
3346.688	2738.6
3349.691	2731.6
3352.692	2690.6
3355.691	2685.6
3358.687	2678.6
3361.681	2637.6
3364.673	2595.6
3367.662	2551.6
3370.649	2512.6
3373.633	2503.6
3376.615	2459.6
3379.595	2399.6
3382.572	2404.6
3385.547	2341.6
3388.52	2312.6
3391.49	2279.6
3394.458	2253.6
3397.424	2205.6
3400.387	2172.6
3403.348	2172.6
3406.307	2137.6
3409.263	2106.6
3412.217	2075.6
3415.168	2074.6
3418.118	2024.6
3421.065	1994.6
3424.009	1994.6
3426.951	1954.6
3429.891	1931.6
3432.829	1873.6
3435.764	1822.6
3438.697	1772.6
3441.628	1745.6
3444.557	1731.6
3447.483	1672.6
3450.407	1586.6
3453.328	1529.6
3456.247	1464.6
3459.164	1426.6
3462.079	1373.6
3464.991	1304.6
3467.902	1275.6
3470.809	1239.6
3473.715	1171.6
3476.618	1133.6
3479.519	1099.6
3482.418	1056.6
3485.315	1009.6
3488.209	1004.6
3491.101	934.6
3493.99	911.6
3496.878	883.6
3499.763	849.6
3502.646	803.6
3505.527	781.6
3508.405	745.6
3511.281	698.6
3514.155	668.6
3517.027	628.6
3519.897	562.6
3522.764	539.6
3525.629	497.6
3528.492	459.6
3531.352	417.6
3534.211	369.6
3537.067	338.6
3539.921	291.6
3542.773	261.6
3545.622	228.6
3548.469	197.6
3551.315	177.6
3554.157	148.6
3556.998	123.6
3559.837	95.6
3562.673	76.6
3565.507	42.6
3568.339	13.6
3571.169	11.6
3573.996	-19.4
3576.822	-41.4
3579.645	-66.4
3582.466	-95.4
3585.285	-100.4
3588.101	-120.4
3590.916	-139.4
3593.728	-167.4
3596.538	-170.4
3599.346	-204.4
3602.152	-209.4
3604.956	-226.4
3607.757	-241.4
3610.556	-258.4
3613.354	-273.4
3616.149	-282.4
3618.942	-296.4
3621.732	-313.4
3624.521	-327.4
3627.307	-333.4
3630.092	-341.4
3632.874	-362.4
3635.654	-369.4
3638.432	-361.4
3641.208	-375.4
3643.982	-392.4
3646.753	-402.4
3649.523	-408.4
3652.29	-418.4
3655.055	-417.4
3657.818	-446.4
3660.579	-448.4
3663.338	-470.4
3666.095	-460.4
3668.849	-481.4
3671.602	-488.4
3674.352	-498.4
3677.101	-501.4
3679.847	-508.4
3682.591	-520.4
3685.333	-512.4
3688.073	-523.4
3690.811	-529.4
3693.547	-536.4
3696.281	-539.4
3699.013	-542.4
3701.742	-545.4
3704.47	-553.4
3707.195	-563.4
3709.919	-559.4
3712.64	-564.4
3715.359	-570.4
3718.076	-581.4
3720.792	-578.4
3723.505	-572.4
3726.216	-595.4
3728.925	-586.4
3731.632	-597.4
3734.336	-594.4
3737.039	-595.4
3739.74	-593.4
3742.439	-593.4
3745.136	-604.4
3747.83	-611.4
3750.523	-602.4
3753.213	-588.4
3755.902	-614.4
3758.589	-617.4
3761.273	-617.4
3763.956	-621.4
3766.636	-625.4
3769.315	-625.4
3771.991	-623.4
3774.665	-626.4
3777.338	-624.4
3780.008	-633.4
3782.677	-634.4
3785.343	-627.4
3788.007	-627.4
3790.67	-629.4
3793.33	-631.4
3795.989	-637.4
3798.645	-637.4
3801.299	-636.4
3803.952	-650.4
3806.602	-648.4
3809.251	-649.4
3811.897	-645.4
3814.542	-652.4
3817.184	-648.4
3819.825	-649.4
3822.463	-637.4
3825.1	-646.4
3827.735	-645.4
3830.367	-649.4
3832.998	-656.4
3835.627	-657.4
3838.253	-652.4
3840.878	-661.4
3843.501	-654.4
3846.122	-649.4
3848.741	-654.4
3851.358	-656.4
3853.973	-653.4
3856.586	-654.4
3859.197	-662.4
3861.806	-663.4
3864.414	-661.4
3867.019	-660.4
3869.622	-659.4
3872.224	-652.4
3874.823	-641.4
3877.421	-630.4
3880.016	-611.4
3882.61	-585.4
3885.202	-579.4
3887.792	-590.4
3890.38	-623.4
3892.966	-646.4
3895.55	-660.4
3898.132	-671.4
3900.713	-679.4
3903.291	-667.4
3905.868	-670.4
3908.442	-670.4
3911.015	-678.4
3913.586	-669.4
3916.155	-675.4
3918.722	-679.4
3921.287	-673.4
3923.85	-680.4
3926.411	-675.4
3928.971	-686.4
3931.528	-677.4
3934.084	-675.4
3936.638	-677.4
3939.19	-679.4
3941.74	-679.4
3944.288	-683.4
3946.834	-676.4
3949.378	-678.4
3951.921	-676.4
3954.462	-682.4
3957	-681.4
3959.537	-679.4
3962.072	-676.4
3964.606	-672.4
3967.137	-682.4
3969.667	-676.4
3972.194	-668.4
3974.72	-675.4
3977.244	-665.4
3979.766	-662.4
3982.286	-667.4
3984.805	-670.4
3987.321	-665.4
3989.836	-668.4
3992.349	-657.4
3994.86	-661.4
3997.369	-670.4
3999.877	-661.4
4002.382	-663.4
4004.886	-664.4
4007.388	-652.4
4009.888	-656.4
4012.386	-667.4
4014.883	-666.4
4017.377	-663.4
4019.87	-659.4
4022.361	-665.4
4024.85	-658.4
4027.338	-664.4
4029.823	-666.4
4032.307	-667.4
4034.789	-660.4
4037.269	-664.4
4039.747	-667.4
4042.224	-669.4
4044.699	-667.4
4047.172	-667.4
4049.643	-664.4
4052.112	-668.4
4054.58	-671.4
4057.046	-669.4
4059.51	-665.4
4061.972	-669.4
4064.432	-672.4
4066.891	-663.4
4069.348	-662.4
4071.803	-665.4
4074.256	-665.4
4076.708	-666.4
4079.158	-661.4
4081.606	-671.4
4084.052	-671.4
4086.497	-666.4
4088.939	-664.4
4091.38	-667.4
4093.819	-664.4
4096.257	-703.4
4098.693	-702.4
4101.127	-708.4
4103.559	-701.4
4105.989	-402.4
4108.418	-377.4
4110.845	-358.4
4113.27	-323.4
4115.694	-284.4
4118.115	-233.4
4120.535	-659.4
4122.954	-659.4
4125.37	-656.4
4127.785	-661.4
4130.198	-664.4
4132.609	-668.4
4135.019	-710.4
4137.427	-706.4
4139.833	-708.4
4142.237	-700.4
