Data from 2018-2-14_conc=5_n=10_RamanShift_01.txt Node
Date: Wed Feb 14 14:34:55 IST 2018
User: aro
Spectrometer: QEPB0276
Trigger mode: 0
Integration Time (sec): 3.000000E1
Scans to average: 1
Electric dark correction enabled: true
Nonlinearity correction enabled: false
Boxcar width: 0
XAxis mode: Raman Shifts
Number of Pixels in Spectrum: 1044
>>>>>Begin Spectral Data<<<<<
160.701	-135.4
166.742	47.6
172.777	543.6
178.805	2155.6
184.826	5975.6
190.841	12495.6
196.849	20132.6
202.85	25534.6
208.845	27337.6
214.833	26997.6
220.815	26502.6
226.789	26350.6
232.758	26157.6
238.719	25959.6
244.674	25660.6
250.623	25156.6
256.565	24648.6
262.5	24093.6
268.429	23679.6
274.351	23241.6
280.267	22971.6
286.176	22709.6
292.079	22462.6
297.975	22286.6
303.865	22035.6
309.748	21917.6
315.625	21806.6
321.495	21625.6
327.359	21605.6
333.217	21494.6
339.068	21491.6
344.912	21438.6
350.751	21460.6
356.583	21425.6
362.408	21370.6
368.227	21418.6
374.04	21380.6
379.847	21506.6
385.647	21510.6
391.44	21637.6
397.228	21691.6
403.009	21777.6
408.784	21847.6
414.553	21972.6
420.315	22024.6
426.071	22062.6
431.821	21940.6
437.565	22024.6
443.302	21913.6
449.033	21913.6
454.758	21821.6
460.477	21823.6
466.189	21759.6
471.896	21685.6
477.596	21654.6
483.29	21593.6
488.978	21601.6
494.66	21497.6
500.335	21325.6
506.005	21216.6
511.668	20845.6
517.325	20643.6
522.977	20435.6
528.622	20319.6
534.261	20208.6
539.894	20098.6
545.521	20012.6
551.141	19964.6
556.756	19903.6
562.365	19856.6
567.968	19701.6
573.565	19612.6
579.155	19610.6
584.74	19490.6
590.319	19372.6
595.892	19294.6
601.459	19245.6
607.02	19166.6
612.575	19052.6
618.124	18933.6
623.667	18828.6
629.204	18738.6
634.735	18665.6
640.261	18571.6
645.781	18536.6
651.294	18488.6
656.802	18470.6
662.304	18398.6
667.8	18388.6
673.29	18321.6
678.775	18347.6
684.254	18263.6
689.726	18209.6
695.193	18158.6
700.655	17983.6
706.11	17955.6
711.56	17909.6
717.004	17769.6
722.442	17679.6
727.874	17698.6
733.301	17580.6
738.722	17535.6
744.137	17532.6
749.547	17511.6
754.951	17524.6
760.349	17544.6
765.741	17491.6
771.128	17566.6
776.509	17560.6
781.885	17555.6
787.254	17517.6
792.618	17433.6
797.977	17313.6
803.33	17244.6
808.677	17119.6
814.019	17024.6
819.355	16913.6
824.686	16873.6
830.011	16808.6
835.33	16874.6
840.644	16783.6
845.952	16853.6
851.255	16887.6
856.552	16930.6
861.844	16894.6
867.13	16851.6
872.41	16823.6
877.686	16708.6
882.955	16571.6
888.219	16399.6
893.478	16225.6
898.731	16049.6
903.979	15893.6
909.221	15775.6
914.458	15715.6
919.69	15700.6
924.916	15728.6
930.136	15828.6
935.351	15789.6
940.561	15809.6
945.766	15763.6
950.965	15741.6
956.158	15564.6
961.347	15455.6
966.529	15257.6
971.707	15021.6
976.879	14904.6
982.046	14735.6
987.208	14767.6
992.364	14698.6
997.515	14806.6
1002.66	14985.6
1007.801	15127.6
1012.936	15261.6
1018.066	15276.6
1023.19	15275.6
1028.309	15179.6
1033.423	15194.6
1038.532	15080.6
1043.636	14992.6
1048.734	14769.6
1053.827	14606.6
1058.915	14472.6
1063.998	14358.6
1069.075	14306.6
1074.147	14353.6
1079.214	14387.6
1084.276	14492.6
1089.333	14551.6
1094.385	14625.6
1099.431	14686.6
1104.472	14673.6
1109.509	14573.6
1114.54	14423.6
1119.565	14222.6
1124.586	14048.6
1129.602	13932.6
1134.613	13820.6
1139.618	13713.6
1144.619	13724.6
1149.614	13728.6
1154.604	13808.6
1159.589	13787.6
1164.57	13839.6
1169.545	13837.6
1174.515	13835.6
1179.48	13814.6
1184.44	13642.6
1189.395	13592.6
1194.345	13467.6
1199.29	13409.6
1204.23	13443.6
1209.165	13452.6
1214.095	13519.6
1219.021	13618.6
1223.941	13654.6
1228.856	13784.6
1233.766	13772.6
1238.672	13784.6
1243.572	13766.6
1248.467	13677.6
1253.358	13558.6
1258.244	13361.6
1263.124	13140.6
1268	12937.6
1272.871	12807.6
1277.737	12718.6
1282.599	12678.6
1287.455	12644.6
1292.306	12659.6
1297.153	12717.6
1301.995	12806.6
1306.832	12804.6
1311.664	12825.6
1316.491	12828.6
1321.314	12677.6
1326.132	12478.6
1330.945	12204.6
1335.753	11935.6
1340.556	11586.6
1345.354	11359.6
1350.148	11165.6
1354.937	11046.6
1359.722	11072.6
1364.501	11161.6
1369.276	11300.6
1374.046	11456.6
1378.811	11649.6
1383.572	11820.6
1388.327	11822.6
1393.079	11778.6
1397.825	11618.6
1402.567	11436.6
1407.304	11309.6
1412.036	11187.6
1416.764	11114.6
1421.487	11028.6
1426.205	10932.6
1430.919	10962.6
1435.628	10950.6
1440.333	10953.6
1445.032	10938.6
1449.727	11013.6
1454.418	10985.6
1459.104	10836.6
1463.785	10645.6
1468.462	10376.6
1473.134	10185.6
1477.802	9973.6
1482.465	9801.6
1487.123	9699.6
1491.777	9654.6
1496.426	9702.6
1501.071	9849.6
1505.711	9969.6
1510.347	10176.6
1514.978	10375.6
1519.604	10569.6
1524.226	10746.6
1528.844	10672.6
1533.457	10679.6
1538.065	10571.6
1542.669	10562.6
1547.269	10477.6
1551.864	10416.6
1556.454	10376.6
1561.041	10343.6
1565.622	10327.6
1570.199	10338.6
1574.772	10408.6
1579.34	10445.6
1583.904	10499.6
1588.464	10532.6
1593.019	10546.6
1597.569	10482.6
1602.115	10483.6
1606.657	10355.6
1611.195	10369.6
1615.728	10211.6
1620.256	10204.6
1624.78	10198.6
1629.3	10179.6
1633.816	10244.6
1638.327	10264.6
1642.834	10354.6
1647.336	10344.6
1651.834	10379.6
1656.328	10339.6
1660.817	10287.6
1665.302	10231.6
1669.783	10021.6
1674.259	9781.6
1678.732	9486.6
1683.199	9135.6
1687.663	8836.6
1692.122	8572.6
1696.577	8459.6
1701.028	8454.6
1705.474	8591.6
1709.917	8696.6
1714.355	8774.6
1718.788	8676.6
1723.218	8531.6
1727.643	8345.6
1732.064	8192.6
1736.481	8020.6
1740.893	7806.6
1745.301	7613.6
1749.705	7413.6
1754.105	7199.6
1758.501	7003.6
1762.893	6829.6
1767.28	6602.6
1771.663	6412.6
1776.042	6305.6
1780.417	6242.6
1784.787	6289.6
1789.154	6337.6
1793.516	6487.6
1797.874	6674.6
1802.228	6803.6
1806.578	6916.6
1810.924	6870.6
1815.266	6758.6
1819.603	6700.6
1823.937	6584.6
1828.266	6514.6
1832.591	6375.6
1836.913	6234.6
1841.23	6207.6
1845.543	6152.6
1849.852	6126.6
1854.156	6100.6
1858.457	6083.6
1862.754	6073.6
1867.047	6060.6
1871.335	6057.6
1875.62	6046.6
1879.9	6025.6
1884.177	5966.6
1888.449	5909.6
1892.718	5870.6
1896.982	5803.6
1901.243	5752.6
1905.499	5698.6
1909.752	5660.6
1914	5689.6
1918.245	5700.6
1922.485	5746.6
1926.722	5794.6
1930.954	5931.6
1935.183	6021.6
1939.408	6029.6
1943.628	6114.6
1947.845	6106.6
1952.058	6084.6
1956.267	6054.6
1960.472	5991.6
1964.673	5894.6
1968.87	5804.6
1973.063	5711.6
1977.252	5620.6
1981.438	5586.6
1985.619	5563.6
1989.797	5473.6
1993.971	5394.6
1998.14	5413.6
2002.306	5410.6
2006.469	5374.6
2010.627	5357.6
2014.781	5281.6
2018.932	5255.6
2023.078	5213.6
2027.221	5103.6
2031.36	5045.6
2035.495	4964.6
2039.627	4895.6
2043.754	4817.6
2047.878	4788.6
2051.998	4779.6
2056.114	4716.6
2060.226	4721.6
2064.334	4737.6
2068.439	4731.6
2072.54	4786.6
2076.637	4781.6
2080.73	4870.6
2084.82	4862.6
2088.906	4897.6
2092.988	4928.6
2097.066	4911.6
2101.14	4893.6
2105.211	4839.6
2109.278	4847.6
2113.342	4803.6
2117.401	4757.6
2121.457	4751.6
2125.509	4702.6
2129.558	4654.6
2133.602	4669.6
2137.643	4636.6
2141.681	4595.6
2145.714	4599.6
2149.744	4554.6
2153.77	4519.6
2157.793	4442.6
2161.812	4439.6
2165.827	4377.6
2169.838	4253.6
2173.846	4215.6
2177.851	4152.6
2181.851	4073.6
2185.848	4024.6
2189.841	3968.6
2193.831	3936.6
2197.817	3909.6
2201.799	3899.6
2205.778	3872.6
2209.753	3878.6
2213.725	3829.6
2217.693	3870.6
2221.657	3832.6
2225.618	3807.6
2229.575	3791.6
2233.529	3791.6
2237.479	3751.6
2241.425	3700.6
2245.368	3660.6
2249.307	3592.6
2253.243	3570.6
2257.175	3507.6
2261.104	3421.6
2265.029	3410.6
2268.95	3358.6
2272.868	3319.6
2276.783	3303.6
2280.694	3292.6
2284.601	3227.6
2288.505	3235.6
2292.405	3172.6
2296.302	3143.6
2300.195	3115.6
2304.085	3061.6
2307.971	3028.6
2311.854	2996.6
2315.734	2958.6
2319.609	2909.6
2323.482	2881.6
2327.351	2854.6
2331.216	2837.6
2335.078	2806.6
2338.937	2784.6
2342.792	2777.6
2346.643	2772.6
2350.492	2757.6
2354.336	2754.6
2358.178	2769.6
2362.015	2805.6
2365.85	2787.6
2369.681	2793.6
2373.508	2792.6
2377.333	2764.6
2381.153	2777.6
2384.971	2733.6
2388.785	2715.6
2392.595	2735.6
2396.402	2690.6
2400.206	2646.6
2404.007	2646.6
2407.804	2605.6
2411.597	2604.6
2415.388	2589.6
2419.174	2574.6
2422.958	2563.6
2426.738	2541.6
2430.515	2513.6
2434.289	2502.6
2438.059	2487.6
2441.825	2460.6
2445.589	2429.6
2449.349	2389.6
2453.106	2378.6
2456.859	2349.6
2460.61	2320.6
2464.356	2316.6
2468.1	2273.6
2471.84	2241.6
2475.577	2227.6
2479.311	2222.6
2483.041	2190.6
2486.768	2199.6
2490.492	2201.6
2494.213	2174.6
2497.93	2188.6
2501.644	2152.6
2505.355	2148.6
2509.062	2118.6
2512.766	2123.6
2516.467	2124.6
2520.165	2102.6
2523.859	2076.6
2527.551	2074.6
2531.239	2068.6
2534.923	2052.6
2538.605	2035.6
2542.283	2029.6
2545.958	2041.6
2549.63	2026.6
2553.299	2027.6
2556.964	2025.6
2560.626	2006.6
2564.285	2000.6
2567.941	2018.6
2571.594	2011.6
2575.243	1972.6
2578.89	1983.6
2582.533	1963.6
2586.173	1939.6
2589.809	1933.6
2593.443	1905.6
2597.073	1885.6
2600.701	1866.6
2604.325	1862.6
2607.946	1859.6
2611.564	1809.6
2615.178	1818.6
2618.79	1807.6
2622.398	1805.6
2626.004	1778.6
2629.606	1747.6
2633.205	1718.6
2636.801	1715.6
2640.394	1680.6
2643.983	1665.6
2647.57	1627.6
2651.153	1609.6
2654.734	1575.6
2658.311	1559.6
2661.885	1541.6
2665.456	1503.6
2669.025	1498.6
2672.589	1473.6
2676.151	1470.6
2679.71	1453.6
2683.266	1418.6
2686.819	1404.6
2690.368	1373.6
2693.915	1325.6
2697.458	1301.6
2700.999	1275.6
2704.536	1256.6
2708.071	1212.6
2711.602	1209.6
2715.13	1186.6
2718.656	1143.6
2722.178	1136.6
2725.697	1116.6
2729.214	1112.6
2732.727	1094.6
2736.237	1074.6
2739.744	1082.6
2743.249	1115.6
2746.75	1104.6
2750.248	1115.6
2753.743	1132.6
2757.236	1149.6
2760.725	1164.6
2764.211	1166.6
2767.695	1184.6
2771.175	1170.6
2774.652	1178.6
2778.127	1148.6
2781.598	1139.6
2785.067	1146.6
2788.532	1128.6
2791.995	1103.6
2795.455	1133.6
2798.911	1125.6
2802.365	1110.6
2805.816	1115.6
2809.264	1131.6
2812.709	1131.6
2816.151	1119.6
2819.59	1139.6
2823.026	1126.6
2826.46	1117.6
2829.89	1137.6
2833.318	1140.6
2836.742	1151.6
2840.164	1121.6
2843.583	1142.6
2846.999	1146.6
2850.412	1163.6
2853.822	1176.6
2857.229	1185.6
2860.634	1210.6
2864.035	1238.6
2867.434	1247.6
2870.83	1265.6
2874.223	1282.6
2877.613	1304.6
2881	1324.6
2884.385	1314.6
2887.766	1323.6
2891.145	1324.6
2894.521	1292.6
2897.894	1318.6
2901.264	1308.6
2904.631	1302.6
2907.996	1310.6
2911.358	1310.6
2914.717	1308.6
2918.073	1331.6
2921.426	1354.6
2924.777	1352.6
2928.124	1367.6
2931.469	1395.6
2934.811	1405.6
2938.15	1432.6
2941.487	1441.6
2944.821	1456.6
2948.152	1477.6
2951.48	1437.6
2954.805	1424.6
2958.128	1413.6
2961.447	1395.6
2964.765	1395.6
2968.079	1401.6
2971.39	1417.6
2974.699	1444.6
2978.005	1462.6
2981.308	1486.6
2984.609	1508.6
2987.907	1533.6
2991.202	1558.6
2994.494	1610.6
2997.784	1641.6
3001.07	1660.6
3004.355	1699.6
3007.636	1697.6
3010.915	1716.6
3014.191	1718.6
3017.464	1733.6
3020.734	1760.6
3024.002	1761.6
3027.267	1780.6
3030.53	1795.6
3033.789	1807.6
3037.046	1806.6
3040.301	1834.6
3043.552	1895.6
3046.801	1917.6
3050.048	1930.6
3053.291	2003.6
3056.532	2039.6
3059.771	2089.6
3063.006	2190.6
3066.239	2222.6
3069.469	2296.6
3072.697	2353.6
3075.922	2401.6
3079.144	2470.6
3082.364	2500.6
3085.581	2548.6
3088.795	2595.6
3092.007	2661.6
3095.216	2725.6
3098.423	2768.6
3101.627	2827.6
3104.828	2903.6
3108.026	2965.6
3111.222	2996.6
3114.416	3068.6
3117.607	3182.6
3120.795	3234.6
3123.98	3284.6
3127.163	3373.6
3130.344	3454.6
3133.521	3545.6
3136.696	3603.6
3139.869	3701.6
3143.039	3768.6
3146.206	3841.6
3149.371	3863.6
3152.533	3899.6
3155.693	3925.6
3158.85	3949.6
3162.005	3932.6
3165.157	3969.6
3168.306	3961.6
3171.453	3998.6
3174.597	3997.6
3177.739	4003.6
3180.878	4000.6
3184.014	4026.6
3187.149	3986.6
3190.28	4027.6
3193.409	4023.6
3196.536	4055.6
3199.659	4013.6
3202.781	4065.6
3205.9	4036.6
3209.016	4054.6
3212.13	3996.6
3215.241	3985.6
3218.35	3948.6
3221.456	3919.6
3224.56	3905.6
3227.661	3816.6
3230.76	3791.6
3233.856	3730.6
3236.95	3724.6
3240.041	3708.6
3243.13	3673.6
3246.216	3629.6
3249.3	3629.6
3252.382	3615.6
3255.46	3599.6
3258.537	3573.6
3261.611	3626.6
3264.682	3585.6
3267.751	3577.6
3270.818	3581.6
3273.882	3588.6
3276.943	3551.6
3280.002	3533.6
3283.059	3513.6
3286.113	3469.6
3289.165	3417.6
3292.214	3371.6
3295.261	3295.6
3298.306	3271.6
3301.348	3211.6
3304.387	3153.6
3307.425	3096.6
3310.459	3036.6
3313.492	3010.6
3316.521	2954.6
3319.549	2927.6
3322.574	2912.6
3325.597	2863.6
3328.617	2861.6
3331.635	2817.6
3334.65	2817.6
3337.663	2798.6
3340.674	2804.6
3343.682	2766.6
3346.688	2773.6
3349.691	2752.6
3352.692	2738.6
3355.691	2716.6
3358.687	2686.6
3361.681	2669.6
3364.673	2628.6
3367.662	2585.6
3370.649	2541.6
3373.633	2505.6
3376.615	2484.6
3379.595	2452.6
3382.572	2431.6
3385.547	2376.6
3388.52	2342.6
3391.49	2292.6
3394.458	2270.6
3397.424	2240.6
3400.387	2221.6
3403.348	2194.6
3406.307	2168.6
3409.263	2155.6
3412.217	2116.6
3415.168	2074.6
3418.118	2068.6
3421.065	2041.6
3424.009	2000.6
3426.951	1971.6
3429.891	1938.6
3432.829	1890.6
3435.764	1867.6
3438.697	1802.6
3441.628	1756.6
3444.557	1707.6
3447.483	1639.6
3450.407	1605.6
3453.328	1571.6
3456.247	1498.6
3459.164	1470.6
3462.079	1408.6
3464.991	1334.6
3467.902	1293.6
3470.809	1236.6
3473.715	1192.6
3476.618	1169.6
3479.519	1107.6
3482.418	1100.6
3485.315	1041.6
3488.209	1019.6
3491.101	967.6
3493.99	945.6
3496.878	894.6
3499.763	869.6
3502.646	846.6
3505.527	781.6
3508.405	775.6
3511.281	726.6
3514.155	673.6
3517.027	646.6
3519.897	602.6
3522.764	565.6
3525.629	528.6
3528.492	484.6
3531.352	453.6
3534.211	404.6
3537.067	362.6
3539.921	342.6
3542.773	299.6
3545.622	259.6
3548.469	227.6
3551.315	200.6
3554.157	171.6
3556.998	149.6
3559.837	120.6
3562.673	104.6
3565.507	78.6
3568.339	48.6
3571.169	48.6
3573.996	23.6
3576.822	-1.4
3579.645	-27.4
3582.466	-38.4
3585.285	-58.4
3588.101	-89.4
3590.916	-107.4
3593.728	-126.4
3596.538	-140.4
3599.346	-155.4
3602.152	-170.4
3604.956	-192.4
3607.757	-210.4
3610.556	-231.4
3613.354	-231.4
3616.149	-249.4
3618.942	-256.4
3621.732	-269.4
3624.521	-284.4
3627.307	-306.4
3630.092	-302.4
3632.874	-314.4
3635.654	-322.4
3638.432	-329.4
3641.208	-346.4
3643.982	-358.4
3646.753	-367.4
3649.523	-371.4
3652.29	-376.4
3655.055	-388.4
3657.818	-401.4
3660.579	-410.4
3663.338	-427.4
3666.095	-435.4
3668.849	-440.4
3671.602	-445.4
3674.352	-451.4
3677.101	-457.4
3679.847	-463.4
3682.591	-482.4
3685.333	-476.4
3688.073	-480.4
3690.811	-493.4
3693.547	-489.4
3696.281	-500.4
3699.013	-497.4
3701.742	-508.4
3704.47	-515.4
3707.195	-523.4
3709.919	-528.4
3712.64	-527.4
3715.359	-521.4
3718.076	-538.4
3720.792	-538.4
3723.505	-536.4
3726.216	-551.4
3728.925	-546.4
3731.632	-556.4
3734.336	-556.4
3737.039	-559.4
3739.74	-557.4
3742.439	-565.4
3745.136	-564.4
3747.83	-562.4
3750.523	-562.4
3753.213	-569.4
3755.902	-569.4
3758.589	-570.4
3761.273	-570.4
3763.956	-583.4
3766.636	-582.4
3769.315	-586.4
3771.991	-583.4
3774.665	-588.4
3777.338	-589.4
3780.008	-590.4
3782.677	-590.4
3785.343	-591.4
3788.007	-590.4
3790.67	-595.4
3793.33	-596.4
3795.989	-592.4
3798.645	-593.4
3801.299	-589.4
3803.952	-607.4
3806.602	-597.4
3809.251	-604.4
3811.897	-599.4
3814.542	-602.4
3817.184	-597.4
3819.825	-603.4
3822.463	-598.4
3825.1	-614.4
3827.735	-604.4
3830.367	-606.4
3832.998	-609.4
3835.627	-611.4
3838.253	-615.4
3840.878	-613.4
3843.501	-611.4
3846.122	-610.4
3848.741	-610.4
3851.358	-614.4
3853.973	-614.4
3856.586	-618.4
3859.197	-617.4
3861.806	-621.4
3864.414	-617.4
3867.019	-612.4
3869.622	-613.4
3872.224	-610.4
3874.823	-594.4
3877.421	-579.4
3880.016	-566.4
3882.61	-539.4
3885.202	-544.4
3887.792	-547.4
3890.38	-588.4
3892.966	-609.4
3895.55	-614.4
3898.132	-633.4
3900.713	-633.4
3903.291	-629.4
3905.868	-629.4
3908.442	-629.4
3911.015	-629.4
3913.586	-627.4
3916.155	-628.4
3918.722	-630.4
3921.287	-631.4
3923.85	-629.4
3926.411	-636.4
3928.971	-639.4
3931.528	-632.4
3934.084	-632.4
3936.638	-632.4
3939.19	-632.4
3941.74	-629.4
3944.288	-632.4
3946.834	-630.4
3949.378	-630.4
3951.921	-631.4
3954.462	-640.4
3957	-629.4
3959.537	-635.4
3962.072	-629.4
3964.606	-636.4
3967.137	-633.4
3969.667	-631.4
3972.194	-628.4
3974.72	-628.4
3977.244	-623.4
3979.766	-619.4
3982.286	-621.4
3984.805	-622.4
3987.321	-612.4
3989.836	-619.4
3992.349	-611.4
3994.86	-617.4
3997.369	-625.4
3999.877	-616.4
4002.382	-609.4
4004.886	-614.4
4007.388	-614.4
4009.888	-616.4
4012.386	-620.4
4014.883	-618.4
4017.377	-616.4
4019.87	-618.4
4022.361	-617.4
4024.85	-619.4
4027.338	-620.4
4029.823	-625.4
4032.307	-625.4
4034.789	-621.4
4037.269	-616.4
4039.747	-613.4
4042.224	-620.4
4044.699	-622.4
4047.172	-616.4
4049.643	-616.4
4052.112	-624.4
4054.58	-621.4
4057.046	-628.4
4059.51	-621.4
4061.972	-622.4
4064.432	-626.4
4066.891	-620.4
4069.348	-614.4
4071.803	-617.4
4074.256	-625.4
4076.708	-623.4
4079.158	-622.4
4081.606	-627.4
4084.052	-629.4
4086.497	-623.4
4088.939	-618.4
4091.38	-620.4
4093.819	-620.4
4096.257	-652.4
4098.693	-654.4
4101.127	-657.4
4103.559	-652.4
4105.989	-378.4
4108.418	-356.4
4110.845	-334.4
4113.27	-305.4
4115.694	-269.4
4118.115	-233.4
4120.535	-619.4
4122.954	-619.4
4125.37	-611.4
4127.785	-616.4
4130.198	-620.4
4132.609	-623.4
4135.019	-649.4
4137.427	-655.4
4139.833	-656.4
4142.237	-650.4
