Data from 2018-2-14_conc=3_n=8_RamanShift_04.txt Node
Date: Wed Feb 14 12:07:26 IST 2018
User: aro
Spectrometer: QEPB0276
Trigger mode: 0
Integration Time (sec): 3.000000E1
Scans to average: 1
Electric dark correction enabled: true
Nonlinearity correction enabled: false
Boxcar width: 0
XAxis mode: Raman Shifts
Number of Pixels in Spectrum: 1044
>>>>>Begin Spectral Data<<<<<
160.701	-144.9
166.742	45.1
172.777	579.1
178.805	2179.1
184.826	6075.1
190.841	12717.1
196.849	20490.1
202.85	26044.1
208.845	27784.1
214.833	27627.1
220.815	27162.1
226.789	26873.1
232.758	26773.1
238.719	26674.1
244.674	26180.1
250.623	25759.1
256.565	25220.1
262.5	24741.1
268.429	24282.1
274.351	23906.1
280.267	23565.1
286.176	23291.1
292.079	23118.1
297.975	22895.1
303.865	22716.1
309.748	22510.1
315.625	22402.1
321.495	22234.1
327.359	22113.1
333.217	22123.1
339.068	22082.1
344.912	22032.1
350.751	22059.1
356.583	21972.1
362.408	21963.1
368.227	22017.1
374.04	22017.1
379.847	22094.1
385.647	22181.1
391.44	22169.1
397.228	22305.1
403.009	22407.1
408.784	22525.1
414.553	22567.1
420.315	22626.1
426.071	22655.1
431.821	22584.1
437.565	22551.1
443.302	22514.1
449.033	22499.1
454.758	22477.1
460.477	22404.1
466.189	22398.1
471.896	22314.1
477.596	22339.1
483.29	22201.1
488.978	22184.1
494.66	22124.1
500.335	21948.1
506.005	21801.1
511.668	21492.1
517.325	21321.1
522.977	21026.1
528.622	20918.1
534.261	20758.1
539.894	20643.1
545.521	20556.1
551.141	20489.1
556.756	20428.1
562.365	20393.1
567.968	20253.1
573.565	20114.1
579.155	20081.1
584.74	20084.1
590.319	19984.1
595.892	19873.1
601.459	19789.1
607.02	19760.1
612.575	19622.1
618.124	19477.1
623.667	19370.1
629.204	19236.1
634.735	19135.1
640.261	19135.1
645.781	19017.1
651.294	18950.1
656.802	18992.1
662.304	18938.1
667.8	18878.1
673.29	18906.1
678.775	18803.1
684.254	18778.1
689.726	18673.1
695.193	18619.1
700.655	18573.1
706.11	18402.1
711.56	18400.1
717.004	18257.1
722.442	18185.1
727.874	18074.1
733.301	18028.1
738.722	17945.1
744.137	17934.1
749.547	17913.1
754.951	17953.1
760.349	17928.1
765.741	17960.1
771.128	17957.1
776.509	18016.1
781.885	18024.1
787.254	17921.1
792.618	17805.1
797.977	17741.1
803.33	17620.1
808.677	17561.1
814.019	17413.1
819.355	17276.1
824.686	17263.1
830.011	17211.1
835.33	17167.1
840.644	17225.1
845.952	17240.1
851.255	17245.1
856.552	17335.1
861.844	17276.1
867.13	17170.1
872.41	17125.1
877.686	17040.1
882.955	16890.1
888.219	16779.1
893.478	16602.1
898.731	16379.1
903.979	16135.1
909.221	16097.1
914.458	16040.1
919.69	15999.1
924.916	16080.1
930.136	16185.1
935.351	16094.1
940.561	16136.1
945.766	16074.1
950.965	15980.1
956.158	15871.1
961.347	15772.1
966.529	15559.1
971.707	15331.1
976.879	15092.1
982.046	15087.1
987.208	14969.1
992.364	15014.1
997.515	15047.1
1002.66	15159.1
1007.801	15394.1
1012.936	15495.1
1018.066	15483.1
1023.19	15448.1
1028.309	15464.1
1033.423	15437.1
1038.532	15329.1
1043.636	15226.1
1048.734	14993.1
1053.827	14817.1
1058.915	14671.1
1063.998	14553.1
1069.075	14536.1
1074.147	14526.1
1079.214	14581.1
1084.276	14652.1
1089.333	14789.1
1094.385	14788.1
1099.431	14820.1
1104.472	14811.1
1109.509	14716.1
1114.54	14555.1
1119.565	14371.1
1124.586	14190.1
1129.602	14096.1
1134.613	14014.1
1139.618	13901.1
1144.619	13878.1
1149.614	13894.1
1154.604	13883.1
1159.589	13921.1
1164.57	13936.1
1169.545	14006.1
1174.515	13919.1
1179.48	13894.1
1184.44	13782.1
1189.395	13658.1
1194.345	13617.1
1199.29	13552.1
1204.23	13495.1
1209.165	13535.1
1214.095	13569.1
1219.021	13703.1
1223.941	13774.1
1228.856	13862.1
1233.766	13889.1
1238.672	13828.1
1243.572	13842.1
1248.467	13739.1
1253.358	13607.1
1258.244	13450.1
1263.124	13221.1
1268	13031.1
1272.871	12857.1
1277.737	12780.1
1282.599	12667.1
1287.455	12645.1
1292.306	12709.1
1297.153	12764.1
1301.995	12810.1
1306.832	12828.1
1311.664	12855.1
1316.491	12824.1
1321.314	12709.1
1326.132	12537.1
1330.945	12178.1
1335.753	11942.1
1340.556	11661.1
1345.354	11453.1
1350.148	11238.1
1354.937	11222.1
1359.722	11174.1
1364.501	11255.1
1369.276	11360.1
1374.046	11482.1
1378.811	11618.1
1383.572	11797.1
1388.327	11813.1
1393.079	11744.1
1397.825	11636.1
1402.567	11449.1
1407.304	11291.1
1412.036	11167.1
1416.764	11077.1
1421.487	11038.1
1426.205	10964.1
1430.919	10876.1
1435.628	10904.1
1440.333	10919.1
1445.032	10935.1
1449.727	10991.1
1454.418	10982.1
1459.104	10846.1
1463.785	10669.1
1468.462	10393.1
1473.134	10202.1
1477.802	10035.1
1482.465	9881.1
1487.123	9741.1
1491.777	9755.1
1496.426	9809.1
1501.071	9873.1
1505.711	10104.1
1510.347	10224.1
1514.978	10371.1
1519.604	10558.1
1524.226	10635.1
1528.844	10617.1
1533.457	10624.1
1538.065	10560.1
1542.669	10479.1
1547.269	10439.1
1551.864	10332.1
1556.454	10314.1
1561.041	10284.1
1565.622	10310.1
1570.199	10277.1
1574.772	10349.1
1579.34	10392.1
1583.904	10445.1
1588.464	10478.1
1593.019	10476.1
1597.569	10422.1
1602.115	10375.1
1606.657	10316.1
1611.195	10251.1
1615.728	10194.1
1620.256	10161.1
1624.78	10136.1
1629.3	10148.1
1633.816	10159.1
1638.327	10198.1
1642.834	10302.1
1647.336	10295.1
1651.834	10332.1
1656.328	10292.1
1660.817	10235.1
1665.302	10183.1
1669.783	9980.1
1674.259	9800.1
1678.732	9509.1
1683.199	9183.1
1687.663	8897.1
1692.122	8638.1
1696.577	8530.1
1701.028	8488.1
1705.474	8543.1
1709.917	8667.1
1714.355	8679.1
1718.788	8605.1
1723.218	8475.1
1727.643	8299.1
1732.064	8153.1
1736.481	7954.1
1740.893	7796.1
1745.301	7530.1
1749.705	7368.1
1754.105	7153.1
1758.501	6969.1
1762.893	6763.1
1767.28	6579.1
1771.663	6479.1
1776.042	6367.1
1780.417	6295.1
1784.787	6305.1
1789.154	6377.1
1793.516	6481.1
1797.874	6597.1
1802.228	6691.1
1806.578	6766.1
1810.924	6780.1
1815.266	6716.1
1819.603	6631.1
1823.937	6498.1
1828.266	6398.1
1832.591	6282.1
1836.913	6208.1
1841.23	6117.1
1845.543	6086.1
1849.852	6077.1
1854.156	6033.1
1858.457	6065.1
1862.754	6014.1
1867.047	6033.1
1871.335	5999.1
1875.62	5998.1
1879.9	6006.1
1884.177	5942.1
1888.449	5883.1
1892.718	5840.1
1896.982	5811.1
1901.243	5735.1
1905.499	5696.1
1909.752	5678.1
1914	5698.1
1918.245	5710.1
1922.485	5736.1
1926.722	5789.1
1930.954	5891.1
1935.183	5968.1
1939.408	5995.1
1943.628	6031.1
1947.845	6068.1
1952.058	6019.1
1956.267	5991.1
1960.472	5896.1
1964.673	5803.1
1968.87	5717.1
1973.063	5591.1
1977.252	5546.1
1981.438	5471.1
1985.619	5412.1
1989.797	5396.1
1993.971	5326.1
1998.14	5343.1
2002.306	5284.1
2006.469	5251.1
2010.627	5259.1
2014.781	5202.1
2018.932	5129.1
2023.078	5119.1
2027.221	5040.1
2031.36	4955.1
2035.495	4882.1
2039.627	4859.1
2043.754	4782.1
2047.878	4738.1
2051.998	4696.1
2056.114	4721.1
2060.226	4677.1
2064.334	4695.1
2068.439	4691.1
2072.54	4722.1
2076.637	4723.1
2080.73	4793.1
2084.82	4813.1
2088.906	4828.1
2092.988	4826.1
2097.066	4810.1
2101.14	4766.1
2105.211	4747.1
2109.278	4742.1
2113.342	4676.1
2117.401	4681.1
2121.457	4686.1
2125.509	4610.1
2129.558	4605.1
2133.602	4575.1
2137.643	4535.1
2141.681	4513.1
2145.714	4496.1
2149.744	4442.1
2153.77	4421.1
2157.793	4382.1
2161.812	4319.1
2165.827	4274.1
2169.838	4193.1
2173.846	4124.1
2177.851	4055.1
2181.851	3992.1
2185.848	3921.1
2189.841	3899.1
2193.831	3839.1
2197.817	3812.1
2201.799	3808.1
2205.778	3802.1
2209.753	3758.1
2213.725	3756.1
2217.693	3744.1
2221.657	3734.1
2225.618	3720.1
2229.575	3700.1
2233.529	3644.1
2237.479	3640.1
2241.425	3600.1
2245.368	3534.1
2249.307	3500.1
2253.243	3416.1
2257.175	3403.1
2261.104	3325.1
2265.029	3317.1
2268.95	3288.1
2272.868	3246.1
2276.783	3215.1
2280.694	3192.1
2284.601	3141.1
2288.505	3134.1
2292.405	3093.1
2296.302	3021.1
2300.195	3010.1
2304.085	2971.1
2307.971	2934.1
2311.854	2884.1
2315.734	2839.1
2319.609	2814.1
2323.482	2764.1
2327.351	2736.1
2331.216	2719.1
2335.078	2708.1
2338.937	2667.1
2342.792	2662.1
2346.643	2627.1
2350.492	2651.1
2354.336	2631.1
2358.178	2668.1
2362.015	2663.1
2365.85	2650.1
2369.681	2663.1
2373.508	2666.1
2377.333	2641.1
2381.153	2641.1
2384.971	2634.1
2388.785	2610.1
2392.595	2579.1
2396.402	2562.1
2400.206	2547.1
2404.007	2524.1
2407.804	2516.1
2411.597	2467.1
2415.388	2457.1
2419.174	2460.1
2422.958	2435.1
2426.738	2423.1
2430.515	2397.1
2434.289	2346.1
2438.059	2351.1
2441.825	2317.1
2445.589	2333.1
2449.349	2294.1
2453.106	2284.1
2456.859	2228.1
2460.61	2194.1
2464.356	2184.1
2468.1	2148.1
2471.84	2122.1
2475.577	2126.1
2479.311	2108.1
2483.041	2072.1
2486.768	2107.1
2490.492	2044.1
2494.213	2071.1
2497.93	2039.1
2501.644	2062.1
2505.355	2019.1
2509.062	2046.1
2512.766	2003.1
2516.467	2014.1
2520.165	2006.1
2523.859	1977.1
2527.551	1981.1
2531.239	1960.1
2534.923	1950.1
2538.605	1948.1
2542.283	1942.1
2545.958	1929.1
2549.63	1916.1
2553.299	1922.1
2556.964	1918.1
2560.626	1915.1
2564.285	1899.1
2567.941	1917.1
2571.594	1866.1
2575.243	1848.1
2578.89	1840.1
2582.533	1852.1
2586.173	1810.1
2589.809	1816.1
2593.443	1771.1
2597.073	1770.1
2600.701	1764.1
2604.325	1755.1
2607.946	1728.1
2611.564	1715.1
2615.178	1692.1
2618.79	1695.1
2622.398	1660.1
2626.004	1676.1
2629.606	1647.1
2633.205	1611.1
2636.801	1585.1
2640.394	1565.1
2643.983	1532.1
2647.57	1511.1
2651.153	1495.1
2654.734	1479.1
2658.311	1446.1
2661.885	1411.1
2665.456	1415.1
2669.025	1383.1
2672.589	1381.1
2676.151	1363.1
2679.71	1345.1
2683.266	1315.1
2686.819	1287.1
2690.368	1266.1
2693.915	1241.1
2697.458	1208.1
2700.999	1208.1
2704.536	1157.1
2708.071	1144.1
2711.602	1106.1
2715.13	1064.1
2718.656	1080.1
2722.178	1059.1
2725.697	1041.1
2729.214	1032.1
2732.727	1021.1
2736.237	1025.1
2739.744	1017.1
2743.249	1025.1
2746.75	1035.1
2750.248	1033.1
2753.743	1049.1
2757.236	1067.1
2760.725	1066.1
2764.211	1076.1
2767.695	1072.1
2771.175	1051.1
2774.652	1069.1
2778.127	1057.1
2781.598	1060.1
2785.067	1058.1
2788.532	1050.1
2791.995	1033.1
2795.455	1038.1
2798.911	1046.1
2802.365	1043.1
2805.816	1051.1
2809.264	1047.1
2812.709	1050.1
2816.151	1029.1
2819.59	1050.1
2823.026	1028.1
2826.46	1042.1
2829.89	1037.1
2833.318	1057.1
2836.742	1026.1
2840.164	1049.1
2843.583	1046.1
2846.999	1077.1
2850.412	1061.1
2853.822	1088.1
2857.229	1096.1
2860.634	1131.1
2864.035	1146.1
2867.434	1137.1
2870.83	1195.1
2874.223	1200.1
2877.613	1217.1
2881	1257.1
2884.385	1245.1
2887.766	1241.1
2891.145	1245.1
2894.521	1237.1
2897.894	1234.1
2901.264	1232.1
2904.631	1227.1
2907.996	1227.1
2911.358	1237.1
2914.717	1251.1
2918.073	1256.1
2921.426	1275.1
2924.777	1291.1
2928.124	1301.1
2931.469	1320.1
2934.811	1349.1
2938.15	1380.1
2941.487	1372.1
2944.821	1392.1
2948.152	1395.1
2951.48	1382.1
2954.805	1370.1
2958.128	1346.1
2961.447	1351.1
2964.765	1339.1
2968.079	1344.1
2971.39	1349.1
2974.699	1357.1
2978.005	1401.1
2981.308	1408.1
2984.609	1441.1
2987.907	1478.1
2991.202	1501.1
2994.494	1537.1
2997.784	1561.1
3001.07	1593.1
3004.355	1629.1
3007.636	1648.1
3010.915	1659.1
3014.191	1672.1
3017.464	1672.1
3020.734	1699.1
3024.002	1705.1
3027.267	1739.1
3030.53	1726.1
3033.789	1763.1
3037.046	1761.1
3040.301	1797.1
3043.552	1835.1
3046.801	1849.1
3050.048	1923.1
3053.291	1941.1
3056.532	2007.1
3059.771	2060.1
3063.006	2131.1
3066.239	2195.1
3069.469	2232.1
3072.697	2294.1
3075.922	2355.1
3079.144	2399.1
3082.364	2452.1
3085.581	2524.1
3088.795	2585.1
3092.007	2607.1
3095.216	2681.1
3098.423	2729.1
3101.627	2814.1
3104.828	2870.1
3108.026	2944.1
3111.222	2996.1
3114.416	3062.1
3117.607	3128.1
3120.795	3207.1
3123.98	3294.1
3127.163	3374.1
3130.344	3482.1
3133.521	3520.1
3136.696	3591.1
3139.869	3681.1
3143.039	3741.1
3146.206	3786.1
3149.371	3867.1
3152.533	3882.1
3155.693	3895.1
3158.85	3923.1
3162.005	3946.1
3165.157	3935.1
3168.306	3987.1
3171.453	3962.1
3174.597	3975.1
3177.739	4002.1
3180.878	4024.1
3184.014	3995.1
3187.149	3992.1
3190.28	4004.1
3193.409	4023.1
3196.536	4051.1
3199.659	4029.1
3202.781	3992.1
3205.9	4027.1
3209.016	4032.1
3212.13	3990.1
3215.241	3962.1
3218.35	3935.1
3221.456	3906.1
3224.56	3852.1
3227.661	3808.1
3230.76	3786.1
3233.856	3723.1
3236.95	3694.1
3240.041	3675.1
3243.13	3654.1
3246.216	3643.1
3249.3	3600.1
3252.382	3603.1
3255.46	3607.1
3258.537	3580.1
3261.611	3566.1
3264.682	3553.1
3267.751	3574.1
3270.818	3561.1
3273.882	3553.1
3276.943	3540.1
3280.002	3494.1
3283.059	3488.1
3286.113	3443.1
3289.165	3372.1
3292.214	3332.1
3295.261	3299.1
3298.306	3217.1
3301.348	3183.1
3304.387	3123.1
3307.425	3082.1
3310.459	3027.1
3313.492	2987.1
3316.521	2923.1
3319.549	2922.1
3322.574	2875.1
3325.597	2847.1
3328.617	2823.1
3331.635	2799.1
3334.65	2796.1
3337.663	2767.1
3340.674	2736.1
3343.682	2727.1
3346.688	2735.1
3349.691	2728.1
3352.692	2696.1
3355.691	2693.1
3358.687	2671.1
3361.681	2625.1
3364.673	2583.1
3367.662	2567.1
3370.649	2524.1
3373.633	2482.1
3376.615	2450.1
3379.595	2415.1
3382.572	2363.1
3385.547	2331.1
3388.52	2319.1
3391.49	2275.1
3394.458	2242.1
3397.424	2212.1
3400.387	2181.1
3403.348	2134.1
3406.307	2129.1
3409.263	2111.1
3412.217	2081.1
3415.168	2064.1
3418.118	2028.1
3421.065	2010.1
3424.009	1960.1
3426.951	1939.1
3429.891	1913.1
3432.829	1866.1
3435.764	1831.1
3438.697	1772.1
3441.628	1749.1
3444.557	1684.1
3447.483	1633.1
3450.407	1566.1
3453.328	1536.1
3456.247	1465.1
3459.164	1431.1
3462.079	1356.1
3464.991	1349.1
3467.902	1282.1
3470.809	1235.1
3473.715	1174.1
3476.618	1141.1
3479.519	1083.1
3482.418	1063.1
3485.315	1050.1
3488.209	993.1
3491.101	968.1
3493.99	914.1
3496.878	876.1
3499.763	860.1
3502.646	812.1
3505.527	773.1
3508.405	750.1
3511.281	689.1
3514.155	649.1
3517.027	622.1
3519.897	584.1
3522.764	544.1
3525.629	509.1
3528.492	455.1
3531.352	434.1
3534.211	386.1
3537.067	333.1
3539.921	310.1
3542.773	286.1
3545.622	254.1
3548.469	234.1
3551.315	190.1
3554.157	170.1
3556.998	123.1
3559.837	108.1
3562.673	85.1
3565.507	51.1
3568.339	36.1
3571.169	19.1
3573.996	4.1
3576.822	-16.9
3579.645	-42.9
3582.466	-57.9
3585.285	-79.9
3588.101	-104.9
3590.916	-116.9
3593.728	-136.9
3596.538	-153.9
3599.346	-180.9
3602.152	-193.9
3604.956	-200.9
3607.757	-218.9
3610.556	-237.9
3613.354	-245.9
3616.149	-265.9
3618.942	-282.9
3621.732	-283.9
3624.521	-299.9
3627.307	-315.9
3630.092	-316.9
3632.874	-325.9
3635.654	-335.9
3638.432	-346.9
3641.208	-349.9
3643.982	-367.9
3646.753	-368.9
3649.523	-382.9
3652.29	-392.9
3655.055	-391.9
3657.818	-416.9
3660.579	-427.9
3663.338	-442.9
3666.095	-444.9
3668.849	-455.9
3671.602	-460.9
3674.352	-471.9
3677.101	-479.9
3679.847	-480.9
3682.591	-490.9
3685.333	-496.9
3688.073	-493.9
3690.811	-507.9
3693.547	-509.9
3696.281	-510.9
3699.013	-516.9
3701.742	-515.9
3704.47	-530.9
3707.195	-531.9
3709.919	-535.9
3712.64	-536.9
3715.359	-541.9
3718.076	-550.9
3720.792	-552.9
3723.505	-555.9
3726.216	-555.9
3728.925	-561.9
3731.632	-565.9
3734.336	-565.9
3737.039	-568.9
3739.74	-570.9
3742.439	-572.9
3745.136	-569.9
3747.83	-576.9
3750.523	-576.9
3753.213	-569.9
3755.902	-582.9
3758.589	-583.9
3761.273	-584.9
3763.956	-590.9
3766.636	-588.9
3769.315	-596.9
3771.991	-591.9
3774.665	-604.9
3777.338	-599.9
3780.008	-601.9
3782.677	-603.9
3785.343	-593.9
3788.007	-603.9
3790.67	-604.9
3793.33	-604.9
3795.989	-608.9
3798.645	-600.9
3801.299	-604.9
3803.952	-607.9
3806.602	-615.9
3809.251	-623.9
3811.897	-611.9
3814.542	-619.9
3817.184	-615.9
3819.825	-613.9
3822.463	-614.9
3825.1	-625.9
3827.735	-612.9
3830.367	-614.9
3832.998	-624.9
3835.627	-626.9
3838.253	-623.9
3840.878	-628.9
3843.501	-621.9
3846.122	-611.9
3848.741	-620.9
3851.358	-625.9
3853.973	-618.9
3856.586	-625.9
3859.197	-631.9
3861.806	-625.9
3864.414	-628.9
3867.019	-629.9
3869.622	-626.9
3872.224	-623.9
3874.823	-610.9
3877.421	-598.9
3880.016	-583.9
3882.61	-563.9
3885.202	-558.9
3887.792	-570.9
3890.38	-596.9
3892.966	-616.9
3895.55	-628.9
3898.132	-633.9
3900.713	-639.9
3903.291	-635.9
3905.868	-635.9
3908.442	-640.9
3911.015	-646.9
3913.586	-637.9
3916.155	-635.9
3918.722	-645.9
3921.287	-640.9
3923.85	-645.9
3926.411	-640.9
3928.971	-648.9
3931.528	-644.9
3934.084	-638.9
3936.638	-641.9
3939.19	-645.9
3941.74	-639.9
3944.288	-644.9
3946.834	-633.9
3949.378	-644.9
3951.921	-638.9
3954.462	-648.9
3957	-640.9
3959.537	-643.9
3962.072	-637.9
3964.606	-644.9
3967.137	-642.9
3969.667	-645.9
3972.194	-638.9
3974.72	-637.9
3977.244	-627.9
3979.766	-628.9
3982.286	-631.9
3984.805	-632.9
3987.321	-630.9
3989.836	-630.9
3992.349	-623.9
3994.86	-625.9
3997.369	-635.9
3999.877	-627.9
4002.382	-631.9
4004.886	-624.9
4007.388	-628.9
4009.888	-628.9
4012.386	-629.9
4014.883	-624.9
4017.377	-627.9
4019.87	-625.9
4022.361	-625.9
4024.85	-632.9
4027.338	-630.9
4029.823	-630.9
4032.307	-631.9
4034.789	-627.9
4037.269	-623.9
4039.747	-626.9
4042.224	-631.9
4044.699	-626.9
4047.172	-626.9
4049.643	-623.9
4052.112	-634.9
4054.58	-631.9
4057.046	-634.9
4059.51	-630.9
4061.972	-632.9
4064.432	-633.9
4066.891	-633.9
4069.348	-631.9
4071.803	-627.9
4074.256	-629.9
4076.708	-629.9
4079.158	-638.9
4081.606	-631.9
4084.052	-632.9
4086.497	-630.9
4088.939	-625.9
4091.38	-626.9
4093.819	-623.9
4096.257	-661.9
4098.693	-658.9
4101.127	-664.9
4103.559	-658.9
4105.989	-391.9
4108.418	-359.9
4110.845	-339.9
4113.27	-311.9
4115.694	-278.9
4118.115	-225.9
4120.535	-627.9
4122.954	-628.9
4125.37	-621.9
4127.785	-628.9
4130.198	-632.9
4132.609	-634.9
4135.019	-664.9
4137.427	-664.9
4139.833	-667.9
4142.237	-660.9
