Data from 2018-2-14_conc=3_n=10_RamanShift_04.txt Node
Date: Wed Feb 14 12:13:56 IST 2018
User: aro
Spectrometer: QEPB0276
Trigger mode: 0
Integration Time (sec): 3.000000E1
Scans to average: 1
Electric dark correction enabled: true
Nonlinearity correction enabled: false
Boxcar width: 0
XAxis mode: Raman Shifts
Number of Pixels in Spectrum: 1044
>>>>>Begin Spectral Data<<<<<
160.701	-149.9
166.742	55.1
172.777	584.1
178.805	2206.1
184.826	6150.1
190.841	12888.1
196.849	20743.1
202.85	26335.1
208.845	28189.1
214.833	27772.1
220.815	27344.1
226.789	27129.1
232.758	26982.1
238.719	26821.1
244.674	26441.1
250.623	26008.1
256.565	25422.1
262.5	24943.1
268.429	24438.1
274.351	24058.1
280.267	23781.1
286.176	23486.1
292.079	23265.1
297.975	23045.1
303.865	22831.1
309.748	22722.1
315.625	22505.1
321.495	22414.1
327.359	22331.1
333.217	22239.1
339.068	22208.1
344.912	22155.1
350.751	22161.1
356.583	22207.1
362.408	22060.1
368.227	22146.1
374.04	22167.1
379.847	22167.1
385.647	22238.1
391.44	22377.1
397.228	22405.1
403.009	22607.1
408.784	22622.1
414.553	22634.1
420.315	22650.1
426.071	22730.1
431.821	22776.1
437.565	22708.1
443.302	22727.1
449.033	22640.1
454.758	22608.1
460.477	22545.1
466.189	22499.1
471.896	22447.1
477.596	22455.1
483.29	22312.1
488.978	22313.1
494.66	22221.1
500.335	22111.1
506.005	21883.1
511.668	21609.1
517.325	21425.1
522.977	21242.1
528.622	21118.1
534.261	20982.1
539.894	20867.1
545.521	20760.1
551.141	20709.1
556.756	20698.1
562.365	20617.1
567.968	20432.1
573.565	20442.1
579.155	20359.1
584.74	20283.1
590.319	20144.1
595.892	20132.1
601.459	20083.1
607.02	19941.1
612.575	19834.1
618.124	19672.1
623.667	19627.1
629.204	19595.1
634.735	19366.1
640.261	19363.1
645.781	19310.1
651.294	19273.1
656.802	19235.1
662.304	19191.1
667.8	19138.1
673.29	19178.1
678.775	19107.1
684.254	19012.1
689.726	19009.1
695.193	18904.1
700.655	18813.1
706.11	18760.1
711.56	18677.1
717.004	18506.1
722.442	18489.1
727.874	18448.1
733.301	18338.1
738.722	18317.1
744.137	18281.1
749.547	18213.1
754.951	18242.1
760.349	18274.1
765.741	18265.1
771.128	18268.1
776.509	18306.1
781.885	18295.1
787.254	18234.1
792.618	18144.1
797.977	18059.1
803.33	17959.1
808.677	17827.1
814.019	17762.1
819.355	17712.1
824.686	17517.1
830.011	17553.1
835.33	17550.1
840.644	17579.1
845.952	17529.1
851.255	17669.1
856.552	17664.1
861.844	17615.1
867.13	17558.1
872.41	17508.1
877.686	17408.1
882.955	17251.1
888.219	17143.1
893.478	17005.1
898.731	16772.1
903.979	16563.1
909.221	16458.1
914.458	16422.1
919.69	16386.1
924.916	16405.1
930.136	16445.1
935.351	16507.1
940.561	16533.1
945.766	16525.1
950.965	16443.1
956.158	16332.1
961.347	16102.1
966.529	15907.1
971.707	15722.1
976.879	15547.1
982.046	15397.1
987.208	15404.1
992.364	15401.1
997.515	15487.1
1002.66	15564.1
1007.801	15775.1
1012.936	15910.1
1018.066	15914.1
1023.19	15928.1
1028.309	15932.1
1033.423	15870.1
1038.532	15767.1
1043.636	15643.1
1048.734	15509.1
1053.827	15256.1
1058.915	15090.1
1063.998	14997.1
1069.075	14951.1
1074.147	14952.1
1079.214	15038.1
1084.276	15088.1
1089.333	15170.1
1094.385	15317.1
1099.431	15348.1
1104.472	15360.1
1109.509	15244.1
1114.54	15038.1
1119.565	14924.1
1124.586	14681.1
1129.602	14542.1
1134.613	14438.1
1139.618	14356.1
1144.619	14307.1
1149.614	14320.1
1154.604	14352.1
1159.589	14356.1
1164.57	14426.1
1169.545	14460.1
1174.515	14458.1
1179.48	14377.1
1184.44	14270.1
1189.395	14156.1
1194.345	14073.1
1199.29	14003.1
1204.23	14014.1
1209.165	14034.1
1214.095	14084.1
1219.021	14203.1
1223.941	14256.1
1228.856	14326.1
1233.766	14418.1
1238.672	14405.1
1243.572	14390.1
1248.467	14333.1
1253.358	14112.1
1258.244	13990.1
1263.124	13707.1
1268	13534.1
1272.871	13357.1
1277.737	13316.1
1282.599	13191.1
1287.455	13194.1
1292.306	13231.1
1297.153	13301.1
1301.995	13385.1
1306.832	13401.1
1311.664	13423.1
1316.491	13348.1
1321.314	13266.1
1326.132	13053.1
1330.945	12720.1
1335.753	12426.1
1340.556	12093.1
1345.354	11831.1
1350.148	11657.1
1354.937	11638.1
1359.722	11600.1
1364.501	11741.1
1369.276	11962.1
1374.046	12125.1
1378.811	12327.1
1383.572	12515.1
1388.327	12455.1
1393.079	12401.1
1397.825	12220.1
1402.567	12032.1
1407.304	11883.1
1412.036	11718.1
1416.764	11674.1
1421.487	11567.1
1426.205	11579.1
1430.919	11452.1
1435.628	11416.1
1440.333	11489.1
1445.032	11528.1
1449.727	11531.1
1454.418	11533.1
1459.104	11352.1
1463.785	11205.1
1468.462	10980.1
1473.134	10735.1
1477.802	10512.1
1482.465	10393.1
1487.123	10307.1
1491.777	10317.1
1496.426	10371.1
1501.071	10516.1
1505.711	10686.1
1510.347	10911.1
1514.978	11132.1
1519.604	11359.1
1524.226	11364.1
1528.844	11429.1
1533.457	11380.1
1538.065	11341.1
1542.669	11208.1
1547.269	11121.1
1551.864	11015.1
1556.454	10958.1
1561.041	10945.1
1565.622	10971.1
1570.199	10919.1
1574.772	10972.1
1579.34	11048.1
1583.904	11079.1
1588.464	11138.1
1593.019	11087.1
1597.569	11098.1
1602.115	11018.1
1606.657	10903.1
1611.195	10881.1
1615.728	10788.1
1620.256	10741.1
1624.78	10714.1
1629.3	10790.1
1633.816	10734.1
1638.327	10821.1
1642.834	10898.1
1647.336	10979.1
1651.834	10992.1
1656.328	10979.1
1660.817	10953.1
1665.302	10837.1
1669.783	10691.1
1674.259	10448.1
1678.732	10198.1
1683.199	9830.1
1687.663	9498.1
1692.122	9260.1
1696.577	9119.1
1701.028	9168.1
1705.474	9282.1
1709.917	9414.1
1714.355	9497.1
1718.788	9411.1
1723.218	9242.1
1727.643	9016.1
1732.064	8845.1
1736.481	8652.1
1740.893	8449.1
1745.301	8227.1
1749.705	7996.1
1754.105	7778.1
1758.501	7512.1
1762.893	7329.1
1767.28	7158.1
1771.663	6968.1
1776.042	6858.1
1780.417	6799.1
1784.787	6802.1
1789.154	6925.1
1793.516	7084.1
1797.874	7259.1
1802.228	7415.1
1806.578	7498.1
1810.924	7492.1
1815.266	7425.1
1819.603	7259.1
1823.937	7162.1
1828.266	7027.1
1832.591	6875.1
1836.913	6779.1
1841.23	6736.1
1845.543	6683.1
1849.852	6625.1
1854.156	6602.1
1858.457	6583.1
1862.754	6612.1
1867.047	6608.1
1871.335	6563.1
1875.62	6566.1
1879.9	6586.1
1884.177	6495.1
1888.449	6462.1
1892.718	6421.1
1896.982	6358.1
1901.243	6324.1
1905.499	6285.1
1909.752	6255.1
1914	6252.1
1918.245	6338.1
1922.485	6346.1
1926.722	6429.1
1930.954	6520.1
1935.183	6591.1
1939.408	6680.1
1943.628	6735.1
1947.845	6764.1
1952.058	6691.1
1956.267	6628.1
1960.472	6603.1
1964.673	6514.1
1968.87	6338.1
1973.063	6232.1
1977.252	6143.1
1981.438	6112.1
1985.619	5999.1
1989.797	5929.1
1993.971	5919.1
1998.14	5877.1
2002.306	5822.1
2006.469	5842.1
2010.627	5803.1
2014.781	5766.1
2018.932	5709.1
2023.078	5696.1
2027.221	5606.1
2031.36	5499.1
2035.495	5445.1
2039.627	5345.1
2043.754	5297.1
2047.878	5224.1
2051.998	5176.1
2056.114	5207.1
2060.226	5182.1
2064.334	5216.1
2068.439	5245.1
2072.54	5264.1
2076.637	5256.1
2080.73	5356.1
2084.82	5383.1
2088.906	5420.1
2092.988	5419.1
2097.066	5381.1
2101.14	5388.1
2105.211	5329.1
2109.278	5305.1
2113.342	5270.1
2117.401	5224.1
2121.457	5231.1
2125.509	5189.1
2129.558	5150.1
2133.602	5110.1
2137.643	5057.1
2141.681	5046.1
2145.714	5028.1
2149.744	4973.1
2153.77	4938.1
2157.793	4898.1
2161.812	4835.1
2165.827	4763.1
2169.838	4696.1
2173.846	4599.1
2177.851	4538.1
2181.851	4461.1
2185.848	4394.1
2189.841	4375.1
2193.831	4306.1
2197.817	4282.1
2201.799	4214.1
2205.778	4233.1
2209.753	4210.1
2213.725	4190.1
2217.693	4169.1
2221.657	4166.1
2225.618	4192.1
2229.575	4143.1
2233.529	4099.1
2237.479	4062.1
2241.425	4006.1
2245.368	3968.1
2249.307	3921.1
2253.243	3860.1
2257.175	3810.1
2261.104	3739.1
2265.029	3721.1
2268.95	3699.1
2272.868	3638.1
2276.783	3606.1
2280.694	3572.1
2284.601	3531.1
2288.505	3497.1
2292.405	3452.1
2296.302	3410.1
2300.195	3380.1
2304.085	3344.1
2307.971	3287.1
2311.854	3247.1
2315.734	3191.1
2319.609	3152.1
2323.482	3119.1
2327.351	3063.1
2331.216	3055.1
2335.078	3057.1
2338.937	3037.1
2342.792	2966.1
2346.643	2992.1
2350.492	2989.1
2354.336	2976.1
2358.178	2983.1
2362.015	2980.1
2365.85	2984.1
2369.681	2987.1
2373.508	3005.1
2377.333	3000.1
2381.153	2947.1
2384.971	2964.1
2388.785	2949.1
2392.595	2895.1
2396.402	2907.1
2400.206	2858.1
2404.007	2854.1
2407.804	2827.1
2411.597	2787.1
2415.388	2779.1
2419.174	2796.1
2422.958	2762.1
2426.738	2717.1
2430.515	2711.1
2434.289	2686.1
2438.059	2671.1
2441.825	2653.1
2445.589	2626.1
2449.349	2576.1
2453.106	2564.1
2456.859	2521.1
2460.61	2504.1
2464.356	2494.1
2468.1	2452.1
2471.84	2426.1
2475.577	2409.1
2479.311	2383.1
2483.041	2387.1
2486.768	2366.1
2490.492	2365.1
2494.213	2357.1
2497.93	2360.1
2501.644	2336.1
2505.355	2340.1
2509.062	2335.1
2512.766	2307.1
2516.467	2301.1
2520.165	2285.1
2523.859	2261.1
2527.551	2251.1
2531.239	2245.1
2534.923	2245.1
2538.605	2235.1
2542.283	2222.1
2545.958	2247.1
2549.63	2243.1
2553.299	2229.1
2556.964	2228.1
2560.626	2228.1
2564.285	2218.1
2567.941	2218.1
2571.594	2163.1
2575.243	2179.1
2578.89	2146.1
2582.533	2149.1
2586.173	2126.1
2589.809	2103.1
2593.443	2086.1
2597.073	2070.1
2600.701	2052.1
2604.325	2030.1
2607.946	2008.1
2611.564	1990.1
2615.178	1986.1
2618.79	1980.1
2622.398	1943.1
2626.004	1939.1
2629.606	1907.1
2633.205	1886.1
2636.801	1860.1
2640.394	1826.1
2643.983	1803.1
2647.57	1785.1
2651.153	1753.1
2654.734	1721.1
2658.311	1693.1
2661.885	1696.1
2665.456	1644.1
2669.025	1632.1
2672.589	1604.1
2676.151	1605.1
2679.71	1576.1
2683.266	1559.1
2686.819	1521.1
2690.368	1484.1
2693.915	1469.1
2697.458	1438.1
2700.999	1387.1
2704.536	1372.1
2708.071	1346.1
2711.602	1316.1
2715.13	1279.1
2718.656	1267.1
2722.178	1248.1
2725.697	1246.1
2729.214	1226.1
2732.727	1198.1
2736.237	1207.1
2739.744	1202.1
2743.249	1233.1
2746.75	1240.1
2750.248	1254.1
2753.743	1262.1
2757.236	1292.1
2760.725	1302.1
2764.211	1280.1
2767.695	1294.1
2771.175	1309.1
2774.652	1299.1
2778.127	1280.1
2781.598	1288.1
2785.067	1271.1
2788.532	1246.1
2791.995	1235.1
2795.455	1253.1
2798.911	1280.1
2802.365	1257.1
2805.816	1243.1
2809.264	1245.1
2812.709	1255.1
2816.151	1230.1
2819.59	1237.1
2823.026	1233.1
2826.46	1243.1
2829.89	1249.1
2833.318	1252.1
2836.742	1245.1
2840.164	1261.1
2843.583	1266.1
2846.999	1267.1
2850.412	1300.1
2853.822	1279.1
2857.229	1290.1
2860.634	1326.1
2864.035	1331.1
2867.434	1369.1
2870.83	1403.1
2874.223	1389.1
2877.613	1436.1
2881	1424.1
2884.385	1436.1
2887.766	1441.1
2891.145	1429.1
2894.521	1432.1
2897.894	1431.1
2901.264	1426.1
2904.631	1421.1
2907.996	1429.1
2911.358	1439.1
2914.717	1437.1
2918.073	1446.1
2921.426	1462.1
2924.777	1465.1
2928.124	1493.1
2931.469	1516.1
2934.811	1529.1
2938.15	1558.1
2941.487	1568.1
2944.821	1592.1
2948.152	1570.1
2951.48	1571.1
2954.805	1561.1
2958.128	1541.1
2961.447	1512.1
2964.765	1511.1
2968.079	1511.1
2971.39	1545.1
2974.699	1550.1
2978.005	1576.1
2981.308	1604.1
2984.609	1643.1
2987.907	1660.1
2991.202	1713.1
2994.494	1738.1
2997.784	1757.1
3001.07	1801.1
3004.355	1833.1
3007.636	1851.1
3010.915	1880.1
3014.191	1895.1
3017.464	1884.1
3020.734	1909.1
3024.002	1927.1
3027.267	1907.1
3030.53	1932.1
3033.789	1957.1
3037.046	1962.1
3040.301	1995.1
3043.552	2030.1
3046.801	2069.1
3050.048	2099.1
3053.291	2171.1
3056.532	2211.1
3059.771	2262.1
3063.006	2332.1
3066.239	2395.1
3069.469	2464.1
3072.697	2543.1
3075.922	2573.1
3079.144	2659.1
3082.364	2722.1
3085.581	2764.1
3088.795	2826.1
3092.007	2896.1
3095.216	2947.1
3098.423	2974.1
3101.627	3083.1
3104.828	3112.1
3108.026	3179.1
3111.222	3284.1
3114.416	3368.1
3117.607	3421.1
3120.795	3464.1
3123.98	3580.1
3127.163	3671.1
3130.344	3760.1
3133.521	3818.1
3136.696	3933.1
3139.869	3973.1
3143.039	4062.1
3146.206	4107.1
3149.371	4170.1
3152.533	4203.1
3155.693	4231.1
3158.85	4237.1
3162.005	4263.1
3165.157	4292.1
3168.306	4285.1
3171.453	4320.1
3174.597	4296.1
3177.739	4320.1
3180.878	4322.1
3184.014	4340.1
3187.149	4301.1
3190.28	4311.1
3193.409	4331.1
3196.536	4323.1
3199.659	4353.1
3202.781	4323.1
3205.9	4370.1
3209.016	4367.1
3212.13	4326.1
3215.241	4276.1
3218.35	4241.1
3221.456	4196.1
3224.56	4175.1
3227.661	4120.1
3230.76	4069.1
3233.856	4046.1
3236.95	4011.1
3240.041	3972.1
3243.13	3955.1
3246.216	3951.1
3249.3	3927.1
3252.382	3927.1
3255.46	3891.1
3258.537	3886.1
3261.611	3892.1
3264.682	3889.1
3267.751	3873.1
3270.818	3844.1
3273.882	3837.1
3276.943	3832.1
3280.002	3807.1
3283.059	3768.1
3286.113	3739.1
3289.165	3655.1
3292.214	3616.1
3295.261	3559.1
3298.306	3494.1
3301.348	3448.1
3304.387	3367.1
3307.425	3321.1
3310.459	3252.1
3313.492	3214.1
3316.521	3176.1
3319.549	3135.1
3322.574	3091.1
3325.597	3073.1
3328.617	3055.1
3331.635	3021.1
3334.65	3011.1
3337.663	2991.1
3340.674	2976.1
3343.682	2965.1
3346.688	2950.1
3349.691	2954.1
3352.692	2927.1
3355.691	2891.1
3358.687	2904.1
3361.681	2823.1
3364.673	2795.1
3367.662	2772.1
3370.649	2740.1
3373.633	2684.1
3376.615	2671.1
3379.595	2626.1
3382.572	2590.1
3385.547	2534.1
3388.52	2513.1
3391.49	2472.1
3394.458	2445.1
3397.424	2395.1
3400.387	2364.1
3403.348	2325.1
3406.307	2306.1
3409.263	2327.1
3412.217	2424.1
3415.168	2405.1
3418.118	2317.1
3421.065	2223.1
3424.009	2143.1
3426.951	2124.1
3429.891	2077.1
3432.829	2031.1
3435.764	1975.1
3438.697	1953.1
3441.628	1891.1
3444.557	1854.1
3447.483	1797.1
3450.407	1710.1
3453.328	1674.1
3456.247	1628.1
3459.164	1561.1
3462.079	1511.1
3464.991	1445.1
3467.902	1406.1
3470.809	1345.1
3473.715	1310.1
3476.618	1273.1
3479.519	1237.1
3482.418	1192.1
3485.315	1147.1
3488.209	1098.1
3491.101	1083.1
3493.99	1032.1
3496.878	977.1
3499.763	960.1
3502.646	935.1
3505.527	869.1
3508.405	844.1
3511.281	790.1
3514.155	754.1
3517.027	720.1
3519.897	666.1
3522.764	629.1
3525.629	579.1
3528.492	545.1
3531.352	490.1
3534.211	460.1
3537.067	413.1
3539.921	375.1
3542.773	335.1
3545.622	306.1
3548.469	265.1
3551.315	238.1
3554.157	216.1
3556.998	188.1
3559.837	160.1
3562.673	134.1
3565.507	111.1
3568.339	75.1
3571.169	64.1
3573.996	35.1
3576.822	23.1
3579.645	-4.9
3582.466	-29.9
3585.285	-44.9
3588.101	-68.9
3590.916	-81.9
3593.728	-118.9
3596.538	-126.9
3599.346	-141.9
3602.152	-168.9
3604.956	-182.9
3607.757	-203.9
3610.556	-217.9
3613.354	-236.9
3616.149	-257.9
3618.942	-264.9
3621.732	-272.9
3624.521	-290.9
3627.307	-290.9
3630.092	-302.9
3632.874	-316.9
3635.654	-326.9
3638.432	-333.9
3641.208	-341.9
3643.982	-362.9
3646.753	-356.9
3649.523	-373.9
3652.29	-388.9
3655.055	-391.9
3657.818	-415.9
3660.579	-417.9
3663.338	-434.9
3666.095	-439.9
3668.849	-445.9
3671.602	-454.9
3674.352	-465.9
3677.101	-462.9
3679.847	-481.9
3682.591	-484.9
3685.333	-489.9
3688.073	-489.9
3690.811	-503.9
3693.547	-503.9
3696.281	-516.9
3699.013	-515.9
3701.742	-520.9
3704.47	-529.9
3707.195	-536.9
3709.919	-534.9
3712.64	-539.9
3715.359	-547.9
3718.076	-551.9
3720.792	-556.9
3723.505	-554.9
3726.216	-563.9
3728.925	-560.9
3731.632	-569.9
3734.336	-570.9
3737.039	-570.9
3739.74	-569.9
3742.439	-573.9
3745.136	-574.9
3747.83	-583.9
3750.523	-576.9
3753.213	-559.9
3755.902	-578.9
3758.589	-583.9
3761.273	-585.9
3763.956	-593.9
3766.636	-597.9
3769.315	-602.9
3771.991	-595.9
3774.665	-603.9
3777.338	-602.9
3780.008	-609.9
3782.677	-607.9
3785.343	-604.9
3788.007	-610.9
3790.67	-614.9
3793.33	-611.9
3795.989	-614.9
3798.645	-613.9
3801.299	-609.9
3803.952	-622.9
3806.602	-618.9
3809.251	-624.9
3811.897	-622.9
3814.542	-617.9
3817.184	-617.9
3819.825	-610.9
3822.463	-613.9
3825.1	-621.9
3827.735	-621.9
3830.367	-622.9
3832.998	-626.9
3835.627	-631.9
3838.253	-631.9
3840.878	-633.9
3843.501	-631.9
3846.122	-629.9
3848.741	-628.9
3851.358	-636.9
3853.973	-628.9
3856.586	-631.9
3859.197	-631.9
3861.806	-636.9
3864.414	-633.9
3867.019	-625.9
3869.622	-634.9
3872.224	-627.9
3874.823	-617.9
3877.421	-602.9
3880.016	-591.9
3882.61	-575.9
3885.202	-565.9
3887.792	-578.9
3890.38	-604.9
3892.966	-627.9
3895.55	-636.9
3898.132	-650.9
3900.713	-648.9
3903.291	-642.9
3905.868	-643.9
3908.442	-646.9
3911.015	-644.9
3913.586	-639.9
3916.155	-641.9
3918.722	-646.9
3921.287	-644.9
3923.85	-656.9
3926.411	-649.9
3928.971	-663.9
3931.528	-649.9
3934.084	-653.9
3936.638	-650.9
3939.19	-650.9
3941.74	-652.9
3944.288	-649.9
3946.834	-648.9
3949.378	-656.9
3951.921	-649.9
3954.462	-658.9
3957	-645.9
3959.537	-648.9
3962.072	-646.9
3964.606	-652.9
3967.137	-646.9
3969.667	-650.9
3972.194	-643.9
3974.72	-655.9
3977.244	-636.9
3979.766	-643.9
3982.286	-640.9
3984.805	-639.9
3987.321	-641.9
3989.836	-643.9
3992.349	-632.9
3994.86	-634.9
3997.369	-636.9
3999.877	-639.9
4002.382	-630.9
4004.886	-636.9
4007.388	-630.9
4009.888	-634.9
4012.386	-636.9
4014.883	-630.9
4017.377	-635.9
4019.87	-632.9
4022.361	-631.9
4024.85	-643.9
4027.338	-637.9
4029.823	-638.9
4032.307	-642.9
4034.789	-639.9
4037.269	-633.9
4039.747	-638.9
4042.224	-640.9
4044.699	-641.9
4047.172	-638.9
4049.643	-639.9
4052.112	-641.9
4054.58	-638.9
4057.046	-638.9
4059.51	-639.9
4061.972	-640.9
4064.432	-642.9
4066.891	-641.9
4069.348	-639.9
4071.803	-633.9
4074.256	-638.9
4076.708	-634.9
4079.158	-642.9
4081.606	-645.9
4084.052	-646.9
4086.497	-643.9
4088.939	-638.9
4091.38	-638.9
4093.819	-640.9
4096.257	-673.9
4098.693	-672.9
4101.127	-673.9
4103.559	-668.9
4105.989	-383.9
4108.418	-353.9
4110.845	-343.9
4113.27	-310.9
4115.694	-278.9
4118.115	-233.9
4120.535	-637.9
4122.954	-642.9
4125.37	-630.9
4127.785	-637.9
4130.198	-636.9
4132.609	-641.9
4135.019	-671.9
4137.427	-675.9
4139.833	-672.9
4142.237	-674.9
