Data from 2018-2-14_conc=2_n=2_RamanShift_05.txt Node
Date: Wed Feb 14 11:04:56 IST 2018
User: aro
Spectrometer: QEPB0276
Trigger mode: 0
Integration Time (sec): 3.000000E1
Scans to average: 1
Electric dark correction enabled: true
Nonlinearity correction enabled: false
Boxcar width: 0
XAxis mode: Raman Shifts
Number of Pixels in Spectrum: 1044
>>>>>Begin Spectral Data<<<<<
160.701	-130.2
166.742	63.8
172.777	554.8
178.805	2128.8
184.826	5858.8
190.841	12310.8
196.849	19835.8
202.85	25188.8
208.845	27026.8
214.833	26861.8
220.815	26381.8
226.789	26280.8
232.758	26137.8
238.719	26029.8
244.674	25730.8
250.623	25252.8
256.565	24786.8
262.5	24266.8
268.429	23889.8
274.351	23604.8
280.267	23226.8
286.176	23031.8
292.079	22784.8
297.975	22669.8
303.865	22521.8
309.748	22341.8
315.625	22178.8
321.495	22126.8
327.359	22007.8
333.217	22019.8
339.068	21963.8
344.912	22036.8
350.751	21945.8
356.583	21903.8
362.408	21822.8
368.227	21890.8
374.04	21871.8
379.847	22030.8
385.647	22028.8
391.44	22181.8
397.228	22247.8
403.009	22295.8
408.784	22343.8
414.553	22370.8
420.315	22398.8
426.071	22492.8
431.821	22496.8
437.565	22453.8
443.302	22439.8
449.033	22423.8
454.758	22340.8
460.477	22283.8
466.189	22254.8
471.896	22118.8
477.596	22099.8
483.29	22114.8
488.978	22108.8
494.66	22024.8
500.335	21915.8
506.005	21621.8
511.668	21351.8
517.325	21137.8
522.977	20964.8
528.622	20757.8
534.261	20647.8
539.894	20588.8
545.521	20393.8
551.141	20371.8
556.756	20345.8
562.365	20329.8
567.968	20154.8
573.565	20081.8
579.155	19944.8
584.74	19985.8
590.319	19873.8
595.892	19800.8
601.459	19775.8
607.02	19627.8
612.575	19553.8
618.124	19409.8
623.667	19329.8
629.204	19194.8
634.735	19141.8
640.261	18998.8
645.781	18988.8
651.294	18955.8
656.802	18823.8
662.304	18921.8
667.8	18807.8
673.29	18809.8
678.775	18783.8
684.254	18764.8
689.726	18720.8
695.193	18661.8
700.655	18528.8
706.11	18451.8
711.56	18348.8
717.004	18308.8
722.442	18213.8
727.874	18096.8
733.301	18091.8
738.722	18014.8
744.137	17957.8
749.547	17940.8
754.951	17965.8
760.349	17939.8
765.741	18001.8
771.128	17999.8
776.509	17939.8
781.885	17936.8
787.254	17944.8
792.618	17905.8
797.977	17782.8
803.33	17652.8
808.677	17563.8
814.019	17459.8
819.355	17345.8
824.686	17319.8
830.011	17201.8
835.33	17251.8
840.644	17291.8
845.952	17279.8
851.255	17385.8
856.552	17350.8
861.844	17336.8
867.13	17290.8
872.41	17223.8
877.686	17143.8
882.955	17029.8
888.219	16871.8
893.478	16700.8
898.731	16503.8
903.979	16331.8
909.221	16179.8
914.458	16114.8
919.69	16171.8
924.916	16204.8
930.136	16243.8
935.351	16202.8
940.561	16262.8
945.766	16225.8
950.965	16170.8
956.158	16024.8
961.347	15931.8
966.529	15669.8
971.707	15529.8
976.879	15314.8
982.046	15190.8
987.208	15162.8
992.364	15111.8
997.515	15188.8
1002.66	15380.8
1007.801	15486.8
1012.936	15663.8
1018.066	15649.8
1023.19	15670.8
1028.309	15629.8
1033.423	15609.8
1038.532	15498.8
1043.636	15415.8
1048.734	15275.8
1053.827	15058.8
1058.915	14861.8
1063.998	14741.8
1069.075	14676.8
1074.147	14787.8
1079.214	14764.8
1084.276	14892.8
1089.333	14949.8
1094.385	15024.8
1099.431	15083.8
1104.472	15077.8
1109.509	14984.8
1114.54	14844.8
1119.565	14648.8
1124.586	14478.8
1129.602	14299.8
1134.613	14235.8
1139.618	14140.8
1144.619	14051.8
1149.614	14134.8
1154.604	14168.8
1159.589	14209.8
1164.57	14199.8
1169.545	14237.8
1174.515	14211.8
1179.48	14173.8
1184.44	14034.8
1189.395	13986.8
1194.345	13888.8
1199.29	13813.8
1204.23	13763.8
1209.165	13823.8
1214.095	13873.8
1219.021	13954.8
1223.941	14045.8
1228.856	14149.8
1233.766	14160.8
1238.672	14177.8
1243.572	14172.8
1248.467	14069.8
1253.358	13894.8
1258.244	13773.8
1263.124	13545.8
1268	13342.8
1272.871	13135.8
1277.737	13020.8
1282.599	12997.8
1287.455	12994.8
1292.306	12970.8
1297.153	13110.8
1301.995	13148.8
1306.832	13233.8
1311.664	13156.8
1316.491	13153.8
1321.314	13034.8
1326.132	12878.8
1330.945	12631.8
1335.753	12328.8
1340.556	11973.8
1345.354	11687.8
1350.148	11473.8
1354.937	11413.8
1359.722	11361.8
1364.501	11433.8
1369.276	11543.8
1374.046	11706.8
1378.811	11837.8
1383.572	12007.8
1388.327	12037.8
1393.079	12046.8
1397.825	11888.8
1402.567	11745.8
1407.304	11590.8
1412.036	11471.8
1416.764	11393.8
1421.487	11343.8
1426.205	11238.8
1430.919	11228.8
1435.628	11229.8
1440.333	11235.8
1445.032	11270.8
1449.727	11292.8
1454.418	11294.8
1459.104	11153.8
1463.785	10923.8
1468.462	10747.8
1473.134	10478.8
1477.802	10259.8
1482.465	10023.8
1487.123	9937.8
1491.777	9925.8
1496.426	9913.8
1501.071	10000.8
1505.711	10148.8
1510.347	10367.8
1514.978	10538.8
1519.604	10694.8
1524.226	10851.8
1528.844	10857.8
1533.457	10781.8
1538.065	10779.8
1542.669	10701.8
1547.269	10655.8
1551.864	10569.8
1556.454	10528.8
1561.041	10548.8
1565.622	10533.8
1570.199	10553.8
1574.772	10544.8
1579.34	10656.8
1583.904	10722.8
1588.464	10751.8
1593.019	10759.8
1597.569	10687.8
1602.115	10620.8
1606.657	10562.8
1611.195	10468.8
1615.728	10421.8
1620.256	10350.8
1624.78	10327.8
1629.3	10359.8
1633.816	10354.8
1638.327	10417.8
1642.834	10420.8
1647.336	10510.8
1651.834	10492.8
1656.328	10458.8
1660.817	10411.8
1665.302	10300.8
1669.783	10147.8
1674.259	9913.8
1678.732	9666.8
1683.199	9294.8
1687.663	8986.8
1692.122	8687.8
1696.577	8524.8
1701.028	8475.8
1705.474	8563.8
1709.917	8708.8
1714.355	8726.8
1718.788	8681.8
1723.218	8645.8
1727.643	8466.8
1732.064	8368.8
1736.481	8103.8
1740.893	7916.8
1745.301	7748.8
1749.705	7538.8
1754.105	7372.8
1758.501	7114.8
1762.893	6894.8
1767.28	6758.8
1771.663	6588.8
1776.042	6447.8
1780.417	6359.8
1784.787	6307.8
1789.154	6409.8
1793.516	6497.8
1797.874	6627.8
1802.228	6789.8
1806.578	6858.8
1810.924	6849.8
1815.266	6823.8
1819.603	6730.8
1823.937	6653.8
1828.266	6521.8
1832.591	6411.8
1836.913	6351.8
1841.23	6278.8
1845.543	6265.8
1849.852	6210.8
1854.156	6181.8
1858.457	6156.8
1862.754	6145.8
1867.047	6150.8
1871.335	6164.8
1875.62	6114.8
1879.9	6128.8
1884.177	6064.8
1888.449	6003.8
1892.718	5916.8
1896.982	5846.8
1901.243	5805.8
1905.499	5701.8
1909.752	5710.8
1914	5699.8
1918.245	5702.8
1922.485	5734.8
1926.722	5803.8
1930.954	5835.8
1935.183	5953.8
1939.408	5983.8
1943.628	6047.8
1947.845	6067.8
1952.058	6080.8
1956.267	6053.8
1960.472	5950.8
1964.673	5871.8
1968.87	5793.8
1973.063	5692.8
1977.252	5605.8
1981.438	5545.8
1985.619	5508.8
1989.797	5475.8
1993.971	5428.8
1998.14	5429.8
2002.306	5356.8
2006.469	5374.8
2010.627	5351.8
2014.781	5302.8
2018.932	5247.8
2023.078	5230.8
2027.221	5126.8
2031.36	5044.8
2035.495	4942.8
2039.627	4898.8
2043.754	4849.8
2047.878	4751.8
2051.998	4737.8
2056.114	4754.8
2060.226	4714.8
2064.334	4705.8
2068.439	4733.8
2072.54	4725.8
2076.637	4783.8
2080.73	4796.8
2084.82	4808.8
2088.906	4841.8
2092.988	4842.8
2097.066	4825.8
2101.14	4812.8
2105.211	4778.8
2109.278	4736.8
2113.342	4687.8
2117.401	4699.8
2121.457	4668.8
2125.509	4690.8
2129.558	4633.8
2133.602	4607.8
2137.643	4587.8
2141.681	4560.8
2145.714	4572.8
2149.744	4543.8
2153.77	4479.8
2157.793	4432.8
2161.812	4385.8
2165.827	4328.8
2169.838	4283.8
2173.846	4194.8
2177.851	4146.8
2181.851	4030.8
2185.848	4044.8
2189.841	3977.8
2193.831	3943.8
2197.817	3915.8
2201.799	3874.8
2205.778	3868.8
2209.753	3866.8
2213.725	3824.8
2217.693	3849.8
2221.657	3836.8
2225.618	3837.8
2229.575	3792.8
2233.529	3769.8
2237.479	3740.8
2241.425	3716.8
2245.368	3624.8
2249.307	3571.8
2253.243	3548.8
2257.175	3473.8
2261.104	3434.8
2265.029	3412.8
2268.95	3369.8
2272.868	3312.8
2276.783	3315.8
2280.694	3271.8
2284.601	3246.8
2288.505	3233.8
2292.405	3179.8
2296.302	3152.8
2300.195	3113.8
2304.085	3076.8
2307.971	3045.8
2311.854	2992.8
2315.734	2948.8
2319.609	2916.8
2323.482	2878.8
2327.351	2856.8
2331.216	2835.8
2335.078	2829.8
2338.937	2804.8
2342.792	2790.8
2346.643	2798.8
2350.492	2797.8
2354.336	2810.8
2358.178	2812.8
2362.015	2797.8
2365.85	2844.8
2369.681	2815.8
2373.508	2836.8
2377.333	2823.8
2381.153	2816.8
2384.971	2772.8
2388.785	2803.8
2392.595	2756.8
2396.402	2764.8
2400.206	2721.8
2404.007	2706.8
2407.804	2691.8
2411.597	2657.8
2415.388	2642.8
2419.174	2639.8
2422.958	2635.8
2426.738	2590.8
2430.515	2573.8
2434.289	2565.8
2438.059	2540.8
2441.825	2496.8
2445.589	2506.8
2449.349	2473.8
2453.106	2451.8
2456.859	2390.8
2460.61	2386.8
2464.356	2336.8
2468.1	2334.8
2471.84	2290.8
2475.577	2284.8
2479.311	2268.8
2483.041	2227.8
2486.768	2232.8
2490.492	2232.8
2494.213	2204.8
2497.93	2192.8
2501.644	2199.8
2505.355	2191.8
2509.062	2183.8
2512.766	2178.8
2516.467	2152.8
2520.165	2135.8
2523.859	2122.8
2527.551	2107.8
2531.239	2089.8
2534.923	2057.8
2538.605	2046.8
2542.283	2061.8
2545.958	2062.8
2549.63	2064.8
2553.299	2046.8
2556.964	2030.8
2560.626	2042.8
2564.285	2015.8
2567.941	2018.8
2571.594	1988.8
2575.243	1971.8
2578.89	1970.8
2582.533	1968.8
2586.173	1929.8
2589.809	1939.8
2593.443	1938.8
2597.073	1908.8
2600.701	1894.8
2604.325	1880.8
2607.946	1874.8
2611.564	1845.8
2615.178	1829.8
2618.79	1818.8
2622.398	1825.8
2626.004	1814.8
2629.606	1767.8
2633.205	1776.8
2636.801	1733.8
2640.394	1716.8
2643.983	1672.8
2647.57	1673.8
2651.153	1649.8
2654.734	1594.8
2658.311	1564.8
2661.885	1550.8
2665.456	1554.8
2669.025	1529.8
2672.589	1513.8
2676.151	1485.8
2679.71	1498.8
2683.266	1441.8
2686.819	1403.8
2690.368	1384.8
2693.915	1376.8
2697.458	1348.8
2700.999	1316.8
2704.536	1292.8
2708.071	1247.8
2711.602	1230.8
2715.13	1189.8
2718.656	1194.8
2722.178	1140.8
2725.697	1120.8
2729.214	1120.8
2732.727	1112.8
2736.237	1085.8
2739.744	1081.8
2743.249	1067.8
2746.75	1081.8
2750.248	1103.8
2753.743	1107.8
2757.236	1122.8
2760.725	1145.8
2764.211	1141.8
2767.695	1137.8
2771.175	1139.8
2774.652	1136.8
2778.127	1134.8
2781.598	1126.8
2785.067	1108.8
2788.532	1119.8
2791.995	1113.8
2795.455	1107.8
2798.911	1119.8
2802.365	1135.8
2805.816	1105.8
2809.264	1106.8
2812.709	1113.8
2816.151	1113.8
2819.59	1123.8
2823.026	1123.8
2826.46	1104.8
2829.89	1122.8
2833.318	1124.8
2836.742	1128.8
2840.164	1142.8
2843.583	1137.8
2846.999	1153.8
2850.412	1158.8
2853.822	1174.8
2857.229	1168.8
2860.634	1198.8
2864.035	1221.8
2867.434	1245.8
2870.83	1254.8
2874.223	1253.8
2877.613	1295.8
2881	1287.8
2884.385	1317.8
2887.766	1290.8
2891.145	1295.8
2894.521	1284.8
2897.894	1305.8
2901.264	1280.8
2904.631	1298.8
2907.996	1300.8
2911.358	1297.8
2914.717	1295.8
2918.073	1325.8
2921.426	1341.8
2924.777	1337.8
2928.124	1351.8
2931.469	1376.8
2934.811	1403.8
2938.15	1403.8
2941.487	1419.8
2944.821	1411.8
2948.152	1417.8
2951.48	1410.8
2954.805	1384.8
2958.128	1398.8
2961.447	1373.8
2964.765	1362.8
2968.079	1367.8
2971.39	1388.8
2974.699	1392.8
2978.005	1394.8
2981.308	1421.8
2984.609	1445.8
2987.907	1461.8
2991.202	1493.8
2994.494	1531.8
2997.784	1548.8
3001.07	1589.8
3004.355	1603.8
3007.636	1639.8
3010.915	1641.8
3014.191	1671.8
3017.464	1684.8
3020.734	1703.8
3024.002	1714.8
3027.267	1736.8
3030.53	1709.8
3033.789	1737.8
3037.046	1763.8
3040.301	1795.8
3043.552	1816.8
3046.801	1846.8
3050.048	1889.8
3053.291	1940.8
3056.532	1969.8
3059.771	2045.8
3063.006	2085.8
3066.239	2165.8
3069.469	2219.8
3072.697	2265.8
3075.922	2323.8
3079.144	2390.8
3082.364	2439.8
3085.581	2464.8
3088.795	2530.8
3092.007	2614.8
3095.216	2640.8
3098.423	2695.8
3101.627	2765.8
3104.828	2805.8
3108.026	2853.8
3111.222	2944.8
3114.416	2981.8
3117.607	3066.8
3120.795	3137.8
3123.98	3226.8
3127.163	3276.8
3130.344	3370.8
3133.521	3423.8
3136.696	3500.8
3139.869	3588.8
3143.039	3627.8
3146.206	3692.8
3149.371	3760.8
3152.533	3768.8
3155.693	3783.8
3158.85	3798.8
3162.005	3809.8
3165.157	3844.8
3168.306	3836.8
3171.453	3855.8
3174.597	3866.8
3177.739	3840.8
3180.878	3880.8
3184.014	3865.8
3187.149	3866.8
3190.28	3899.8
3193.409	3865.8
3196.536	3904.8
3199.659	3896.8
3202.781	3898.8
3205.9	3896.8
3209.016	3912.8
3212.13	3910.8
3215.241	3863.8
3218.35	3820.8
3221.456	3795.8
3224.56	3748.8
3227.661	3686.8
3230.76	3677.8
3233.856	3617.8
3236.95	3600.8
3240.041	3564.8
3243.13	3504.8
3246.216	3519.8
3249.3	3487.8
3252.382	3482.8
3255.46	3479.8
3258.537	3479.8
3261.611	3453.8
3264.682	3460.8
3267.751	3453.8
3270.818	3447.8
3273.882	3420.8
3276.943	3418.8
3280.002	3371.8
3283.059	3359.8
3286.113	3339.8
3289.165	3276.8
3292.214	3210.8
3295.261	3146.8
3298.306	3110.8
3301.348	3061.8
3304.387	2999.8
3307.425	2957.8
3310.459	2929.8
3313.492	2875.8
3316.521	2834.8
3319.549	2826.8
3322.574	2780.8
3325.597	2742.8
3328.617	2741.8
3331.635	2732.8
3334.65	2717.8
3337.663	2678.8
3340.674	2653.8
3343.682	2662.8
3346.688	2650.8
3349.691	2648.8
3352.692	2638.8
3355.691	2586.8
3358.687	2592.8
3361.681	2552.8
3364.673	2511.8
3367.662	2491.8
3370.649	2434.8
3373.633	2386.8
3376.615	2374.8
3379.595	2346.8
3382.572	2333.8
3385.547	2285.8
3388.52	2236.8
3391.49	2204.8
3394.458	2170.8
3397.424	2141.8
3400.387	2113.8
3403.348	2087.8
3406.307	2070.8
3409.263	2056.8
3412.217	2019.8
3415.168	2014.8
3418.118	1967.8
3421.065	1964.8
3424.009	1915.8
3426.951	1879.8
3429.891	1861.8
3432.829	1808.8
3435.764	1769.8
3438.697	1730.8
3441.628	1681.8
3444.557	1633.8
3447.483	1576.8
3450.407	1519.8
3453.328	1467.8
3456.247	1422.8
3459.164	1377.8
3462.079	1335.8
3464.991	1278.8
3467.902	1235.8
3470.809	1186.8
3473.715	1145.8
3476.618	1097.8
3479.519	1068.8
3482.418	1031.8
3485.315	976.8
3488.209	989.8
3491.101	923.8
3493.99	886.8
3496.878	867.8
3499.763	823.8
3502.646	777.8
3505.527	759.8
3508.405	707.8
3511.281	675.8
3514.155	649.8
3517.027	613.8
3519.897	565.8
3522.764	532.8
3525.629	492.8
3528.492	442.8
3531.352	404.8
3534.211	365.8
3537.067	333.8
3539.921	295.8
3542.773	271.8
3545.622	229.8
3548.469	204.8
3551.315	176.8
3554.157	148.8
3556.998	118.8
3559.837	104.8
3562.673	88.8
3565.507	55.8
3568.339	34.8
3571.169	25.8
3573.996	-5.2
3576.822	-23.2
3579.645	-27.2
3582.466	-52.2
3585.285	-76.2
3588.101	-103.2
3590.916	-117.2
3593.728	-146.2
3596.538	-158.2
3599.346	-174.2
3602.152	-198.2
3604.956	-208.2
3607.757	-220.2
3610.556	-231.2
3613.354	-248.2
3616.149	-260.2
3618.942	-266.2
3621.732	-279.2
3624.521	-296.2
3627.307	-300.2
3630.092	-321.2
3632.874	-324.2
3635.654	-331.2
3638.432	-334.2
3641.208	-351.2
3643.982	-361.2
3646.753	-369.2
3649.523	-388.2
3652.29	-381.2
3655.055	-391.2
3657.818	-411.2
3660.579	-414.2
3663.338	-424.2
3666.095	-432.2
3668.849	-439.2
3671.602	-453.2
3674.352	-456.2
3677.101	-465.2
3679.847	-465.2
3682.591	-480.2
3685.333	-483.2
3688.073	-486.2
3690.811	-491.2
3693.547	-499.2
3696.281	-503.2
3699.013	-510.2
3701.742	-504.2
3704.47	-523.2
3707.195	-524.2
3709.919	-525.2
3712.64	-530.2
3715.359	-522.2
3718.076	-536.2
3720.792	-538.2
3723.505	-539.2
3726.216	-550.2
3728.925	-547.2
3731.632	-552.2
3734.336	-557.2
3737.039	-562.2
3739.74	-555.2
3742.439	-565.2
3745.136	-557.2
3747.83	-572.2
3750.523	-569.2
3753.213	-554.2
3755.902	-576.2
3758.589	-569.2
3761.273	-572.2
3763.956	-580.2
3766.636	-574.2
3769.315	-583.2
3771.991	-581.2
3774.665	-588.2
3777.338	-589.2
3780.008	-589.2
3782.677	-599.2
3785.343	-588.2
3788.007	-591.2
3790.67	-591.2
3793.33	-594.2
3795.989	-595.2
3798.645	-589.2
3801.299	-590.2
3803.952	-597.2
3806.602	-604.2
3809.251	-606.2
3811.897	-599.2
3814.542	-603.2
3817.184	-606.2
3819.825	-601.2
3822.463	-603.2
3825.1	-609.2
3827.735	-600.2
3830.367	-603.2
3832.998	-610.2
3835.627	-611.2
3838.253	-611.2
3840.878	-619.2
3843.501	-609.2
3846.122	-607.2
3848.741	-609.2
3851.358	-607.2
3853.973	-609.2
3856.586	-610.2
3859.197	-620.2
3861.806	-619.2
3864.414	-617.2
3867.019	-608.2
3869.622	-617.2
3872.224	-609.2
3874.823	-586.2
3877.421	-570.2
3880.016	-557.2
3882.61	-534.2
3885.202	-531.2
3887.792	-541.2
3890.38	-575.2
3892.966	-594.2
3895.55	-605.2
3898.132	-628.2
3900.713	-625.2
3903.291	-623.2
3905.868	-629.2
3908.442	-625.2
3911.015	-631.2
3913.586	-622.2
3916.155	-624.2
3918.722	-628.2
3921.287	-627.2
3923.85	-629.2
3926.411	-625.2
3928.971	-639.2
3931.528	-630.2
3934.084	-632.2
3936.638	-633.2
3939.19	-631.2
3941.74	-628.2
3944.288	-632.2
3946.834	-622.2
3949.378	-631.2
3951.921	-632.2
3954.462	-633.2
3957	-627.2
3959.537	-627.2
3962.072	-626.2
3964.606	-628.2
3967.137	-627.2
3969.667	-633.2
3972.194	-626.2
3974.72	-630.2
3977.244	-621.2
3979.766	-617.2
3982.286	-619.2
3984.805	-621.2
3987.321	-615.2
3989.836	-619.2
3992.349	-611.2
3994.86	-613.2
3997.369	-624.2
3999.877	-610.2
4002.382	-611.2
4004.886	-612.2
4007.388	-609.2
4009.888	-617.2
4012.386	-617.2
4014.883	-614.2
4017.377	-617.2
4019.87	-615.2
4022.361	-613.2
4024.85	-616.2
4027.338	-618.2
4029.823	-621.2
4032.307	-617.2
4034.789	-615.2
4037.269	-615.2
4039.747	-618.2
4042.224	-620.2
4044.699	-622.2
4047.172	-618.2
4049.643	-621.2
4052.112	-617.2
4054.58	-623.2
4057.046	-623.2
4059.51	-626.2
4061.972	-619.2
4064.432	-623.2
4066.891	-621.2
4069.348	-618.2
4071.803	-614.2
4074.256	-623.2
4076.708	-619.2
4079.158	-620.2
4081.606	-619.2
4084.052	-624.2
4086.497	-619.2
4088.939	-620.2
4091.38	-615.2
4093.819	-617.2
4096.257	-653.2
4098.693	-655.2
4101.127	-660.2
4103.559	-656.2
4105.989	-368.2
4108.418	-339.2
4110.845	-318.2
4113.27	-295.2
4115.694	-258.2
4118.115	-211.2
4120.535	-616.2
4122.954	-620.2
4125.37	-611.2
4127.785	-617.2
4130.198	-618.2
4132.609	-617.2
4135.019	-655.2
4137.427	-654.2
4139.833	-654.2
4142.237	-653.2
