Data from 2018-2-14_conc=0_n=7_RamanShift_05.txt Node
Date: Wed Feb 14 10:48:26 IST 2018
User: aro
Spectrometer: QEPB0276
Trigger mode: 0
Integration Time (sec): 3.000000E1
Scans to average: 1
Electric dark correction enabled: true
Nonlinearity correction enabled: false
Boxcar width: 0
XAxis mode: Raman Shifts
Number of Pixels in Spectrum: 1044
>>>>>Begin Spectral Data<<<<<
160.701	-149.9
166.742	50.1
172.777	581.1
178.805	2259.1
184.826	6250.1
190.841	13046.1
196.849	20950.1
202.85	26496.1
208.845	28298.1
214.833	27974.1
220.815	27576.1
226.789	27357.1
232.758	27283.1
238.719	27104.1
244.674	26755.1
250.623	26279.1
256.565	25800.1
262.5	25264.1
268.429	24834.1
274.351	24466.1
280.267	24136.1
286.176	23836.1
292.079	23698.1
297.975	23452.1
303.865	23249.1
309.748	23102.1
315.625	22937.1
321.495	22765.1
327.359	22763.1
333.217	22743.1
339.068	22691.1
344.912	22686.1
350.751	22669.1
356.583	22625.1
362.408	22590.1
368.227	22605.1
374.04	22628.1
379.847	22730.1
385.647	22715.1
391.44	22806.1
397.228	22955.1
403.009	23012.1
408.784	23029.1
414.553	23090.1
420.315	23169.1
426.071	23198.1
431.821	23185.1
437.565	23204.1
443.302	23204.1
449.033	23103.1
454.758	23065.1
460.477	23010.1
466.189	22937.1
471.896	22885.1
477.596	22876.1
483.29	22799.1
488.978	22803.1
494.66	22753.1
500.335	22591.1
506.005	22371.1
511.668	22149.1
517.325	21900.1
522.977	21775.1
528.622	21591.1
534.261	21479.1
539.894	21367.1
545.521	21232.1
551.141	21153.1
556.756	21137.1
562.365	21034.1
567.968	20968.1
573.565	20906.1
579.155	20819.1
584.74	20753.1
590.319	20660.1
595.892	20611.1
601.459	20493.1
607.02	20464.1
612.575	20346.1
618.124	20214.1
623.667	20064.1
629.204	19990.1
634.735	19874.1
640.261	19871.1
645.781	19761.1
651.294	19702.1
656.802	19678.1
662.304	19644.1
667.8	19620.1
673.29	19532.1
678.775	19447.1
684.254	19495.1
689.726	19439.1
695.193	19378.1
700.655	19338.1
706.11	19222.1
711.56	19097.1
717.004	19007.1
722.442	18922.1
727.874	18824.1
733.301	18770.1
738.722	18750.1
744.137	18691.1
749.547	18667.1
754.951	18724.1
760.349	18633.1
765.741	18711.1
771.128	18682.1
776.509	18737.1
781.885	18687.1
787.254	18632.1
792.618	18594.1
797.977	18487.1
803.33	18430.1
808.677	18252.1
814.019	18149.1
819.355	18061.1
824.686	17984.1
830.011	17941.1
835.33	17999.1
840.644	17975.1
845.952	18023.1
851.255	18097.1
856.552	18047.1
861.844	18027.1
867.13	17973.1
872.41	17904.1
877.686	17798.1
882.955	17688.1
888.219	17537.1
893.478	17317.1
898.731	17163.1
903.979	16971.1
909.221	16848.1
914.458	16765.1
919.69	16795.1
924.916	16856.1
930.136	16917.1
935.351	16900.1
940.561	16916.1
945.766	16884.1
950.965	16772.1
956.158	16738.1
961.347	16504.1
966.529	16305.1
971.707	16081.1
976.879	15920.1
982.046	15792.1
987.208	15713.1
992.364	15739.1
997.515	15859.1
1002.66	15977.1
1007.801	16082.1
1012.936	16252.1
1018.066	16300.1
1023.19	16334.1
1028.309	16286.1
1033.423	16246.1
1038.532	16166.1
1043.636	15970.1
1048.734	15833.1
1053.827	15547.1
1058.915	15480.1
1063.998	15374.1
1069.075	15284.1
1074.147	15282.1
1079.214	15394.1
1084.276	15466.1
1089.333	15520.1
1094.385	15610.1
1099.431	15713.1
1104.472	15674.1
1109.509	15562.1
1114.54	15407.1
1119.565	15213.1
1124.586	15028.1
1129.602	14822.1
1134.613	14725.1
1139.618	14709.1
1144.619	14682.1
1149.614	14678.1
1154.604	14725.1
1159.589	14731.1
1164.57	14771.1
1169.545	14836.1
1174.515	14753.1
1179.48	14766.1
1184.44	14557.1
1189.395	14515.1
1194.345	14402.1
1199.29	14308.1
1204.23	14326.1
1209.165	14375.1
1214.095	14431.1
1219.021	14552.1
1223.941	14570.1
1228.856	14641.1
1233.766	14705.1
1238.672	14707.1
1243.572	14688.1
1248.467	14550.1
1253.358	14430.1
1258.244	14235.1
1263.124	14042.1
1268	13779.1
1272.871	13707.1
1277.737	13603.1
1282.599	13487.1
1287.455	13452.1
1292.306	13525.1
1297.153	13582.1
1301.995	13639.1
1306.832	13686.1
1311.664	13728.1
1316.491	13666.1
1321.314	13570.1
1326.132	13348.1
1330.945	13063.1
1335.753	12730.1
1340.556	12429.1
1345.354	12104.1
1350.148	11973.1
1354.937	11839.1
1359.722	11904.1
1364.501	11955.1
1369.276	12114.1
1374.046	12356.1
1378.811	12612.1
1383.572	12651.1
1388.327	12786.1
1393.079	12690.1
1397.825	12500.1
1402.567	12291.1
1407.304	12108.1
1412.036	11971.1
1416.764	11866.1
1421.487	11783.1
1426.205	11773.1
1430.919	11661.1
1435.628	11665.1
1440.333	11703.1
1445.032	11730.1
1449.727	11820.1
1454.418	11816.1
1459.104	11601.1
1463.785	11399.1
1468.462	11181.1
1473.134	10963.1
1477.802	10720.1
1482.465	10576.1
1487.123	10514.1
1491.777	10496.1
1496.426	10608.1
1501.071	10705.1
1505.711	10880.1
1510.347	11094.1
1514.978	11296.1
1519.604	11402.1
1524.226	11554.1
1528.844	11563.1
1533.457	11513.1
1538.065	11437.1
1542.669	11371.1
1547.269	11343.1
1551.864	11185.1
1556.454	11215.1
1561.041	11123.1
1565.622	11077.1
1570.199	11102.1
1574.772	11179.1
1579.34	11257.1
1583.904	11255.1
1588.464	11297.1
1593.019	11290.1
1597.569	11252.1
1602.115	11160.1
1606.657	11105.1
1611.195	10991.1
1615.728	10930.1
1620.256	10905.1
1624.78	10889.1
1629.3	10866.1
1633.816	10954.1
1638.327	11006.1
1642.834	11072.1
1647.336	11103.1
1651.834	11137.1
1656.328	11073.1
1660.817	11044.1
1665.302	10988.1
1669.783	10809.1
1674.259	10592.1
1678.732	10309.1
1683.199	9979.1
1687.663	9652.1
1692.122	9341.1
1696.577	9200.1
1701.028	9202.1
1705.474	9301.1
1709.917	9467.1
1714.355	9513.1
1718.788	9428.1
1723.218	9300.1
1727.643	9126.1
1732.064	8972.1
1736.481	8723.1
1740.893	8469.1
1745.301	8279.1
1749.705	8099.1
1754.105	7853.1
1758.501	7612.1
1762.893	7436.1
1767.28	7200.1
1771.663	7093.1
1776.042	6980.1
1780.417	6906.1
1784.787	6931.1
1789.154	7008.1
1793.516	7192.1
1797.874	7309.1
1802.228	7452.1
1806.578	7543.1
1810.924	7525.1
1815.266	7505.1
1819.603	7337.1
1823.937	7194.1
1828.266	7079.1
1832.591	7009.1
1836.913	6900.1
1841.23	6800.1
1845.543	6777.1
1849.852	6695.1
1854.156	6672.1
1858.457	6662.1
1862.754	6658.1
1867.047	6662.1
1871.335	6664.1
1875.62	6648.1
1879.9	6622.1
1884.177	6569.1
1888.449	6508.1
1892.718	6452.1
1896.982	6384.1
1901.243	6342.1
1905.499	6304.1
1909.752	6292.1
1914	6288.1
1918.245	6321.1
1922.485	6378.1
1926.722	6459.1
1930.954	6537.1
1935.183	6613.1
1939.408	6675.1
1943.628	6707.1
1947.845	6711.1
1952.058	6711.1
1956.267	6660.1
1960.472	6563.1
1964.673	6462.1
1968.87	6388.1
1973.063	6245.1
1977.252	6160.1
1981.438	6059.1
1985.619	6067.1
1989.797	5971.1
1993.971	5930.1
1998.14	5887.1
2002.306	5881.1
2006.469	5841.1
2010.627	5835.1
2014.781	5760.1
2018.932	5718.1
2023.078	5671.1
2027.221	5567.1
2031.36	5540.1
2035.495	5406.1
2039.627	5361.1
2043.754	5285.1
2047.878	5214.1
2051.998	5186.1
2056.114	5225.1
2060.226	5204.1
2064.334	5195.1
2068.439	5210.1
2072.54	5249.1
2076.637	5298.1
2080.73	5328.1
2084.82	5324.1
2088.906	5363.1
2092.988	5376.1
2097.066	5385.1
2101.14	5318.1
2105.211	5330.1
2109.278	5259.1
2113.342	5238.1
2117.401	5229.1
2121.457	5172.1
2125.509	5158.1
2129.558	5094.1
2133.602	5085.1
2137.643	5048.1
2141.681	5013.1
2145.714	5011.1
2149.744	4952.1
2153.77	4898.1
2157.793	4893.1
2161.812	4771.1
2165.827	4758.1
2169.838	4642.1
2173.846	4597.1
2177.851	4520.1
2181.851	4423.1
2185.848	4413.1
2189.841	4325.1
2193.831	4280.1
2197.817	4253.1
2201.799	4225.1
2205.778	4207.1
2209.753	4183.1
2213.725	4160.1
2217.693	4170.1
2221.657	4160.1
2225.618	4131.1
2229.575	4124.1
2233.529	4099.1
2237.479	4061.1
2241.425	4011.1
2245.368	3976.1
2249.307	3891.1
2253.243	3846.1
2257.175	3792.1
2261.104	3751.1
2265.029	3678.1
2268.95	3673.1
2272.868	3621.1
2276.783	3576.1
2280.694	3553.1
2284.601	3511.1
2288.505	3465.1
2292.405	3435.1
2296.302	3403.1
2300.195	3339.1
2304.085	3351.1
2307.971	3274.1
2311.854	3229.1
2315.734	3185.1
2319.609	3156.1
2323.482	3074.1
2327.351	3064.1
2331.216	3036.1
2335.078	3027.1
2338.937	3001.1
2342.792	2982.1
2346.643	2959.1
2350.492	2966.1
2354.336	2981.1
2358.178	2999.1
2362.015	2978.1
2365.85	2970.1
2369.681	2970.1
2373.508	3011.1
2377.333	2992.1
2381.153	2962.1
2384.971	2958.1
2388.785	2928.1
2392.595	2891.1
2396.402	2892.1
2400.206	2850.1
2404.007	2811.1
2407.804	2800.1
2411.597	2787.1
2415.388	2793.1
2419.174	2764.1
2422.958	2741.1
2426.738	2730.1
2430.515	2701.1
2434.289	2691.1
2438.059	2664.1
2441.825	2632.1
2445.589	2608.1
2449.349	2581.1
2453.106	2557.1
2456.859	2522.1
2460.61	2503.1
2464.356	2457.1
2468.1	2436.1
2471.84	2403.1
2475.577	2385.1
2479.311	2376.1
2483.041	2364.1
2486.768	2364.1
2490.492	2353.1
2494.213	2359.1
2497.93	2320.1
2501.644	2349.1
2505.355	2304.1
2509.062	2294.1
2512.766	2313.1
2516.467	2277.1
2520.165	2277.1
2523.859	2220.1
2527.551	2236.1
2531.239	2218.1
2534.923	2218.1
2538.605	2196.1
2542.283	2202.1
2545.958	2203.1
2549.63	2210.1
2553.299	2184.1
2556.964	2183.1
2560.626	2161.1
2564.285	2177.1
2567.941	2154.1
2571.594	2143.1
2575.243	2117.1
2578.89	2110.1
2582.533	2073.1
2586.173	2060.1
2589.809	2059.1
2593.443	2064.1
2597.073	2040.1
2600.701	2009.1
2604.325	2019.1
2607.946	1979.1
2611.564	1979.1
2615.178	1938.1
2618.79	1948.1
2622.398	1930.1
2626.004	1893.1
2629.606	1883.1
2633.205	1834.1
2636.801	1826.1
2640.394	1801.1
2643.983	1787.1
2647.57	1762.1
2651.153	1728.1
2654.734	1683.1
2658.311	1663.1
2661.885	1666.1
2665.456	1615.1
2669.025	1630.1
2672.589	1572.1
2676.151	1561.1
2679.71	1529.1
2683.266	1529.1
2686.819	1511.1
2690.368	1464.1
2693.915	1440.1
2697.458	1405.1
2700.999	1387.1
2704.536	1337.1
2708.071	1293.1
2711.602	1301.1
2715.13	1249.1
2718.656	1250.1
2722.178	1231.1
2725.697	1212.1
2729.214	1200.1
2732.727	1190.1
2736.237	1171.1
2739.744	1175.1
2743.249	1197.1
2746.75	1179.1
2750.248	1197.1
2753.743	1214.1
2757.236	1230.1
2760.725	1244.1
2764.211	1249.1
2767.695	1247.1
2771.175	1252.1
2774.652	1255.1
2778.127	1241.1
2781.598	1218.1
2785.067	1243.1
2788.532	1221.1
2791.995	1209.1
2795.455	1208.1
2798.911	1192.1
2802.365	1192.1
2805.816	1208.1
2809.264	1195.1
2812.709	1201.1
2816.151	1185.1
2819.59	1206.1
2823.026	1200.1
2826.46	1199.1
2829.89	1211.1
2833.318	1210.1
2836.742	1201.1
2840.164	1223.1
2843.583	1199.1
2846.999	1219.1
2850.412	1239.1
2853.822	1240.1
2857.229	1251.1
2860.634	1276.1
2864.035	1306.1
2867.434	1315.1
2870.83	1346.1
2874.223	1361.1
2877.613	1353.1
2881	1370.1
2884.385	1384.1
2887.766	1384.1
2891.145	1373.1
2894.521	1375.1
2897.894	1393.1
2901.264	1385.1
2904.631	1386.1
2907.996	1368.1
2911.358	1387.1
2914.717	1386.1
2918.073	1401.1
2921.426	1407.1
2924.777	1416.1
2928.124	1438.1
2931.469	1470.1
2934.811	1499.1
2938.15	1504.1
2941.487	1501.1
2944.821	1530.1
2948.152	1515.1
2951.48	1513.1
2954.805	1481.1
2958.128	1487.1
2961.447	1491.1
2964.765	1474.1
2968.079	1470.1
2971.39	1474.1
2974.699	1514.1
2978.005	1533.1
2981.308	1574.1
2984.609	1604.1
2987.907	1618.1
2991.202	1673.1
2994.494	1687.1
2997.784	1708.1
3001.07	1738.1
3004.355	1758.1
3007.636	1801.1
3010.915	1813.1
3014.191	1819.1
3017.464	1843.1
3020.734	1834.1
3024.002	1852.1
3027.267	1850.1
3030.53	1858.1
3033.789	1885.1
3037.046	1892.1
3040.301	1917.1
3043.552	1950.1
3046.801	2023.1
3050.048	2049.1
3053.291	2066.1
3056.532	2142.1
3059.771	2183.1
3063.006	2256.1
3066.239	2348.1
3069.469	2387.1
3072.697	2428.1
3075.922	2507.1
3079.144	2563.1
3082.364	2621.1
3085.581	2674.1
3088.795	2723.1
3092.007	2782.1
3095.216	2821.1
3098.423	2910.1
3101.627	2974.1
3104.828	3039.1
3108.026	3112.1
3111.222	3157.1
3114.416	3229.1
3117.607	3318.1
3120.795	3385.1
3123.98	3449.1
3127.163	3560.1
3130.344	3627.1
3133.521	3705.1
3136.696	3774.1
3139.869	3862.1
3143.039	3919.1
3146.206	3955.1
3149.371	4020.1
3152.533	4030.1
3155.693	4088.1
3158.85	4097.1
3162.005	4120.1
3165.157	4143.1
3168.306	4154.1
3171.453	4150.1
3174.597	4192.1
3177.739	4174.1
3180.878	4181.1
3184.014	4191.1
3187.149	4171.1
3190.28	4196.1
3193.409	4184.1
3196.536	4216.1
3199.659	4211.1
3202.781	4204.1
3205.9	4212.1
3209.016	4228.1
3212.13	4176.1
3215.241	4157.1
3218.35	4118.1
3221.456	4098.1
3224.56	4064.1
3227.661	4031.1
3230.76	4001.1
3233.856	3940.1
3236.95	3904.1
3240.041	3880.1
3243.13	3843.1
3246.216	3820.1
3249.3	3789.1
3252.382	3794.1
3255.46	3787.1
3258.537	3788.1
3261.611	3767.1
3264.682	3771.1
3267.751	3750.1
3270.818	3742.1
3273.882	3742.1
3276.943	3696.1
3280.002	3692.1
3283.059	3655.1
3286.113	3630.1
3289.165	3544.1
3292.214	3491.1
3295.261	3448.1
3298.306	3386.1
3301.348	3348.1
3304.387	3263.1
3307.425	3189.1
3310.459	3185.1
3313.492	3127.1
3316.521	3089.1
3319.549	3046.1
3322.574	3024.1
3325.597	3007.1
3328.617	2967.1
3331.635	2947.1
3334.65	2925.1
3337.663	2919.1
3340.674	2884.1
3343.682	2879.1
3346.688	2890.1
3349.691	2848.1
3352.692	2842.1
3355.691	2838.1
3358.687	2788.1
3361.681	2762.1
3364.673	2723.1
3367.662	2676.1
3370.649	2621.1
3373.633	2602.1
3376.615	2596.1
3379.595	2541.1
3382.572	2504.1
3385.547	2470.1
3388.52	2426.1
3391.49	2386.1
3394.458	2354.1
3397.424	2317.1
3400.387	2286.1
3403.348	2261.1
3406.307	2239.1
3409.263	2216.1
3412.217	2186.1
3415.168	2170.1
3418.118	2140.1
3421.065	2137.1
3424.009	2060.1
3426.951	2052.1
3429.891	2027.1
3432.829	1972.1
3435.764	1911.1
3438.697	1871.1
3441.628	1796.1
3444.557	1756.1
3447.483	1708.1
3450.407	1667.1
3453.328	1617.1
3456.247	1553.1
3459.164	1509.1
3462.079	1445.1
3464.991	1407.1
3467.902	1369.1
3470.809	1309.1
3473.715	1262.1
3476.618	1206.1
3479.519	1155.1
3482.418	1125.1
3485.315	1095.1
3488.209	1054.1
3491.101	1027.1
3493.99	992.1
3496.878	947.1
3499.763	926.1
3502.646	885.1
3505.527	817.1
3508.405	802.1
3511.281	750.1
3514.155	715.1
3517.027	680.1
3519.897	641.1
3522.764	593.1
3525.629	544.1
3528.492	500.1
3531.352	458.1
3534.211	419.1
3537.067	381.1
3539.921	347.1
3542.773	299.1
3545.622	281.1
3548.469	240.1
3551.315	226.1
3554.157	183.1
3556.998	149.1
3559.837	128.1
3562.673	110.1
3565.507	70.1
3568.339	43.1
3571.169	47.1
3573.996	17.1
3576.822	-5.9
3579.645	-27.9
3582.466	-48.9
3585.285	-71.9
3588.101	-88.9
3590.916	-116.9
3593.728	-137.9
3596.538	-151.9
3599.346	-164.9
3602.152	-196.9
3604.956	-199.9
3607.757	-219.9
3610.556	-234.9
3613.354	-252.9
3616.149	-265.9
3618.942	-280.9
3621.732	-293.9
3624.521	-309.9
3627.307	-309.9
3630.092	-314.9
3632.874	-334.9
3635.654	-336.9
3638.432	-350.9
3641.208	-359.9
3643.982	-367.9
3646.753	-373.9
3649.523	-392.9
3652.29	-395.9
3655.055	-406.9
3657.818	-418.9
3660.579	-432.9
3663.338	-449.9
3666.095	-456.9
3668.849	-461.9
3671.602	-461.9
3674.352	-480.9
3677.101	-479.9
3679.847	-485.9
3682.591	-497.9
3685.333	-503.9
3688.073	-507.9
3690.811	-518.9
3693.547	-517.9
3696.281	-533.9
3699.013	-529.9
3701.742	-530.9
3704.47	-538.9
3707.195	-539.9
3709.919	-551.9
3712.64	-551.9
3715.359	-549.9
3718.076	-564.9
3720.792	-560.9
3723.505	-563.9
3726.216	-573.9
3728.925	-568.9
3731.632	-581.9
3734.336	-584.9
3737.039	-584.9
3739.74	-582.9
3742.439	-589.9
3745.136	-590.9
3747.83	-595.9
3750.523	-594.9
3753.213	-569.9
3755.902	-593.9
3758.589	-601.9
3761.273	-599.9
3763.956	-607.9
3766.636	-607.9
3769.315	-611.9
3771.991	-607.9
3774.665	-611.9
3777.338	-609.9
3780.008	-615.9
3782.677	-617.9
3785.343	-615.9
3788.007	-620.9
3790.67	-617.9
3793.33	-622.9
3795.989	-621.9
3798.645	-621.9
3801.299	-618.9
3803.952	-628.9
3806.602	-637.9
3809.251	-629.9
3811.897	-631.9
3814.542	-636.9
3817.184	-633.9
3819.825	-632.9
3822.463	-622.9
3825.1	-634.9
3827.735	-632.9
3830.367	-628.9
3832.998	-641.9
3835.627	-639.9
3838.253	-638.9
3840.878	-647.9
3843.501	-644.9
3846.122	-635.9
3848.741	-643.9
3851.358	-645.9
3853.973	-643.9
3856.586	-643.9
3859.197	-646.9
3861.806	-651.9
3864.414	-646.9
3867.019	-642.9
3869.622	-642.9
3872.224	-637.9
3874.823	-627.9
3877.421	-608.9
3880.016	-591.9
3882.61	-566.9
3885.202	-558.9
3887.792	-588.9
3890.38	-616.9
3892.966	-632.9
3895.55	-642.9
3898.132	-659.9
3900.713	-660.9
3903.291	-655.9
3905.868	-655.9
3908.442	-656.9
3911.015	-660.9
3913.586	-658.9
3916.155	-649.9
3918.722	-658.9
3921.287	-654.9
3923.85	-665.9
3926.411	-663.9
3928.971	-670.9
3931.528	-664.9
3934.084	-664.9
3936.638	-659.9
3939.19	-663.9
3941.74	-658.9
3944.288	-667.9
3946.834	-661.9
3949.378	-660.9
3951.921	-659.9
3954.462	-665.9
3957	-654.9
3959.537	-656.9
3962.072	-663.9
3964.606	-665.9
3967.137	-656.9
3969.667	-661.9
3972.194	-656.9
3974.72	-669.9
3977.244	-654.9
3979.766	-648.9
3982.286	-653.9
3984.805	-646.9
3987.321	-648.9
3989.836	-647.9
3992.349	-640.9
3994.86	-643.9
3997.369	-652.9
3999.877	-644.9
4002.382	-646.9
4004.886	-643.9
4007.388	-642.9
4009.888	-645.9
4012.386	-652.9
4014.883	-648.9
4017.377	-644.9
4019.87	-647.9
4022.361	-650.9
4024.85	-652.9
4027.338	-648.9
4029.823	-646.9
4032.307	-651.9
4034.789	-644.9
4037.269	-639.9
4039.747	-652.9
4042.224	-647.9
4044.699	-647.9
4047.172	-647.9
4049.643	-646.9
4052.112	-656.9
4054.58	-653.9
4057.046	-656.9
4059.51	-653.9
4061.972	-651.9
4064.432	-651.9
4066.891	-649.9
4069.348	-650.9
4071.803	-644.9
4074.256	-645.9
4076.708	-647.9
4079.158	-647.9
4081.606	-655.9
4084.052	-652.9
4086.497	-649.9
4088.939	-647.9
4091.38	-645.9
4093.819	-647.9
4096.257	-683.9
4098.693	-685.9
4101.127	-690.9
4103.559	-687.9
4105.989	-392.9
4108.418	-369.9
4110.845	-345.9
4113.27	-316.9
4115.694	-278.9
4118.115	-230.9
4120.535	-651.9
4122.954	-648.9
4125.37	-642.9
4127.785	-649.9
4130.198	-652.9
4132.609	-654.9
4135.019	-685.9
4137.427	-684.9
4139.833	-685.9
4142.237	-683.9
