Data from 2018-2-14_conc=6_n=1_RamanShift_02.txt Node
Date: Wed Feb 14 14:42:55 IST 2018
User: aro
Spectrometer: QEPB0276
Trigger mode: 0
Integration Time (sec): 3.000000E1
Scans to average: 1
Electric dark correction enabled: true
Nonlinearity correction enabled: false
Boxcar width: 0
XAxis mode: Raman Shifts
Number of Pixels in Spectrum: 1044
>>>>>Begin Spectral Data<<<<<
160.701	-157
166.742	39
172.777	617
178.805	2350
184.826	6505
190.841	13645
196.849	21855
202.85	27748
208.845	29572
214.833	29227
220.815	28758
226.789	28602
232.758	28361
238.719	28190
244.674	27715
250.623	27240
256.565	26723
262.5	26070
268.429	25591
274.351	25209
280.267	24879
286.176	24556
292.079	24392
297.975	24067
303.865	23852
309.748	23749
315.625	23520
321.495	23402
327.359	23249
333.217	23244
339.068	23171
344.912	23191
350.751	23102
356.583	23103
362.408	23109
368.227	23079
374.04	23106
379.847	23146
385.647	23237
391.44	23335
397.228	23476
403.009	23542
408.784	23600
414.553	23667
420.315	23755
426.071	23805
431.821	23765
437.565	23711
443.302	23662
449.033	23621
454.758	23606
460.477	23545
466.189	23462
471.896	23410
477.596	23348
483.29	23346
488.978	23275
494.66	23212
500.335	23023
506.005	22753
511.668	22495
517.325	22232
522.977	21985
528.622	21830
534.261	21674
539.894	21585
545.521	21480
551.141	21407
556.756	21332
562.365	21250
567.968	21180
573.565	21073
579.155	20970
584.74	20916
590.319	20861
595.892	20774
601.459	20671
607.02	20560
612.575	20430
618.124	20324
623.667	20177
629.204	20115
634.735	19987
640.261	19925
645.781	19894
651.294	19838
656.802	19836
662.304	19748
667.8	19713
673.29	19725
678.775	19599
684.254	19589
689.726	19503
695.193	19424
700.655	19368
706.11	19328
711.56	19157
717.004	19022
722.442	18912
727.874	18927
733.301	18814
738.722	18757
744.137	18698
749.547	18807
754.951	18702
760.349	18725
765.741	18733
771.128	18735
776.509	18754
781.885	18797
787.254	18736
792.618	18633
797.977	18499
803.33	18380
808.677	18280
814.019	18171
819.355	18133
824.686	18010
830.011	17916
835.33	17961
840.644	17952
845.952	17994
851.255	17996
856.552	18057
861.844	18005
867.13	17972
872.41	17877
877.686	17745
882.955	17622
888.219	17455
893.478	17263
898.731	17061
903.979	16936
909.221	16755
914.458	16705
919.69	16745
924.916	16736
930.136	16770
935.351	16806
940.561	16785
945.766	16777
950.965	16657
956.158	16511
961.347	16377
966.529	16137
971.707	15991
976.879	15760
982.046	15655
987.208	15595
992.364	15563
997.515	15704
1002.66	15826
1007.801	16008
1012.936	16142
1018.066	16147
1023.19	16093
1028.309	16077
1033.423	16098
1038.532	16062
1043.636	15870
1048.734	15635
1053.827	15490
1058.915	15292
1063.998	15193
1069.075	15165
1074.147	15135
1079.214	15244
1084.276	15326
1089.333	15380
1094.385	15456
1099.431	15464
1104.472	15430
1109.509	15391
1114.54	15226
1119.565	14986
1124.586	14836
1129.602	14662
1134.613	14599
1139.618	14456
1144.619	14445
1149.614	14476
1154.604	14523
1159.589	14543
1164.57	14589
1169.545	14573
1174.515	14585
1179.48	14478
1184.44	14383
1189.395	14225
1194.345	14184
1199.29	14106
1204.23	14108
1209.165	14169
1214.095	14201
1219.021	14289
1223.941	14404
1228.856	14423
1233.766	14448
1238.672	14485
1243.572	14484
1248.467	14391
1253.358	14243
1258.244	13996
1263.124	13806
1268	13622
1272.871	13425
1277.737	13336
1282.599	13273
1287.455	13272
1292.306	13296
1297.153	13303
1301.995	13437
1306.832	13479
1311.664	13495
1316.491	13455
1321.314	13328
1326.132	13118
1330.945	12878
1335.753	12563
1340.556	12250
1345.354	11980
1350.148	11771
1354.937	11734
1359.722	11722
1364.501	11717
1369.276	11890
1374.046	12041
1378.811	12213
1383.572	12399
1388.327	12404
1393.079	12331
1397.825	12199
1402.567	12001
1407.304	11866
1412.036	11725
1416.764	11658
1421.487	11585
1426.205	11550
1430.919	11443
1435.628	11458
1440.333	11484
1445.032	11491
1449.727	11532
1454.418	11510
1459.104	11430
1463.785	11165
1468.462	10990
1473.134	10721
1477.802	10545
1482.465	10351
1487.123	10260
1491.777	10206
1496.426	10296
1501.071	10392
1505.711	10505
1510.347	10751
1514.978	10958
1519.604	11080
1524.226	11179
1528.844	11193
1533.457	11150
1538.065	11137
1542.669	10982
1547.269	10948
1551.864	10900
1556.454	10837
1561.041	10805
1565.622	10859
1570.199	10816
1574.772	10873
1579.34	10938
1583.904	11018
1588.464	11065
1593.019	11033
1597.569	11070
1602.115	11002
1606.657	10889
1611.195	10810
1615.728	10736
1620.256	10722
1624.78	10697
1629.3	10760
1633.816	10780
1638.327	10803
1642.834	10894
1647.336	10946
1651.834	10931
1656.328	10934
1660.817	10877
1665.302	10745
1669.783	10589
1674.259	10390
1678.732	10074
1683.199	9731
1687.663	9419
1692.122	9112
1696.577	8973
1701.028	8935
1705.474	8991
1709.917	9095
1714.355	9112
1718.788	9014
1723.218	8951
1727.643	8759
1732.064	8572
1736.481	8380
1740.893	8178
1745.301	7927
1749.705	7748
1754.105	7506
1758.501	7273
1762.893	7106
1767.28	6943
1771.663	6791
1776.042	6635
1780.417	6631
1784.787	6639
1789.154	6680
1793.516	6814
1797.874	6900
1802.228	7039
1806.578	7129
1810.924	7141
1815.266	7033
1819.603	6976
1823.937	6856
1828.266	6710
1832.591	6614
1836.913	6512
1841.23	6469
1845.543	6366
1849.852	6369
1854.156	6359
1858.457	6324
1862.754	6320
1867.047	6352
1871.335	6315
1875.62	6301
1879.9	6282
1884.177	6222
1888.449	6226
1892.718	6106
1896.982	6067
1901.243	6007
1905.499	5961
1909.752	5967
1914	5938
1918.245	5972
1922.485	5988
1926.722	6070
1930.954	6161
1935.183	6227
1939.408	6305
1943.628	6342
1947.845	6308
1952.058	6302
1956.267	6281
1960.472	6206
1964.673	6094
1968.87	6032
1973.063	5905
1977.252	5828
1981.438	5794
1985.619	5709
1989.797	5653
1993.971	5619
1998.14	5624
2002.306	5572
2006.469	5586
2010.627	5535
2014.781	5473
2018.932	5441
2023.078	5395
2027.221	5283
2031.36	5217
2035.495	5120
2039.627	5072
2043.754	5031
2047.878	4980
2051.998	4915
2056.114	4952
2060.226	4937
2064.334	4909
2068.439	4930
2072.54	4995
2076.637	4986
2080.73	5038
2084.82	5066
2088.906	5093
2092.988	5067
2097.066	5080
2101.14	5029
2105.211	5010
2109.278	4976
2113.342	4929
2117.401	4920
2121.457	4865
2125.509	4869
2129.558	4815
2133.602	4808
2137.643	4790
2141.681	4761
2145.714	4731
2149.744	4675
2153.77	4671
2157.793	4578
2161.812	4556
2165.827	4463
2169.838	4446
2173.846	4356
2177.851	4277
2181.851	4224
2185.848	4166
2189.841	4112
2193.831	4086
2197.817	4036
2201.799	4005
2205.778	4023
2209.753	4006
2213.725	3986
2217.693	3965
2221.657	3963
2225.618	3921
2229.575	3901
2233.529	3882
2237.479	3858
2241.425	3789
2245.368	3748
2249.307	3722
2253.243	3656
2257.175	3580
2261.104	3533
2265.029	3510
2268.95	3469
2272.868	3403
2276.783	3395
2280.694	3359
2284.601	3294
2288.505	3286
2292.405	3289
2296.302	3220
2300.195	3193
2304.085	3155
2307.971	3093
2311.854	3060
2315.734	3016
2319.609	2954
2323.482	2918
2327.351	2887
2331.216	2862
2335.078	2894
2338.937	2835
2342.792	2831
2346.643	2797
2350.492	2794
2354.336	2803
2358.178	2814
2362.015	2834
2365.85	2857
2369.681	2834
2373.508	2816
2377.333	2829
2381.153	2815
2384.971	2800
2388.785	2773
2392.595	2734
2396.402	2737
2400.206	2703
2404.007	2680
2407.804	2667
2411.597	2637
2415.388	2634
2419.174	2598
2422.958	2593
2426.738	2590
2430.515	2567
2434.289	2524
2438.059	2505
2441.825	2479
2445.589	2454
2449.349	2447
2453.106	2429
2456.859	2362
2460.61	2365
2464.356	2328
2468.1	2292
2471.84	2277
2475.577	2242
2479.311	2245
2483.041	2234
2486.768	2233
2490.492	2200
2494.213	2214
2497.93	2207
2501.644	2186
2505.355	2179
2509.062	2158
2512.766	2167
2516.467	2148
2520.165	2133
2523.859	2091
2527.551	2099
2531.239	2102
2534.923	2073
2538.605	2054
2542.283	2060
2545.958	2047
2549.63	2041
2553.299	2038
2556.964	2035
2560.626	2036
2564.285	2010
2567.941	2007
2571.594	1985
2575.243	1992
2578.89	1964
2582.533	1943
2586.173	1923
2589.809	1914
2593.443	1920
2597.073	1894
2600.701	1848
2604.325	1846
2607.946	1839
2611.564	1839
2615.178	1826
2618.79	1823
2622.398	1798
2626.004	1778
2629.606	1752
2633.205	1749
2636.801	1713
2640.394	1684
2643.983	1652
2647.57	1642
2651.153	1611
2654.734	1585
2658.311	1546
2661.885	1543
2665.456	1516
2669.025	1491
2672.589	1464
2676.151	1445
2679.71	1456
2683.266	1424
2686.819	1389
2690.368	1363
2693.915	1347
2697.458	1298
2700.999	1292
2704.536	1248
2708.071	1225
2711.602	1194
2715.13	1192
2718.656	1159
2722.178	1123
2725.697	1121
2729.214	1097
2732.727	1106
2736.237	1110
2739.744	1092
2743.249	1096
2746.75	1090
2750.248	1123
2753.743	1120
2757.236	1123
2760.725	1130
2764.211	1143
2767.695	1170
2771.175	1137
2774.652	1143
2778.127	1152
2781.598	1133
2785.067	1124
2788.532	1132
2791.995	1124
2795.455	1124
2798.911	1115
2802.365	1144
2805.816	1129
2809.264	1112
2812.709	1132
2816.151	1126
2819.59	1123
2823.026	1109
2826.46	1117
2829.89	1115
2833.318	1132
2836.742	1129
2840.164	1144
2843.583	1138
2846.999	1156
2850.412	1177
2853.822	1189
2857.229	1201
2860.634	1216
2864.035	1241
2867.434	1248
2870.83	1289
2874.223	1299
2877.613	1338
2881	1345
2884.385	1357
2887.766	1356
2891.145	1352
2894.521	1340
2897.894	1343
2901.264	1340
2904.631	1352
2907.996	1353
2911.358	1355
2914.717	1380
2918.073	1389
2921.426	1408
2924.777	1429
2928.124	1450
2931.469	1472
2934.811	1481
2938.15	1506
2941.487	1540
2944.821	1538
2948.152	1532
2951.48	1529
2954.805	1516
2958.128	1488
2961.447	1495
2964.765	1496
2968.079	1481
2971.39	1495
2974.699	1526
2978.005	1556
2981.308	1579
2984.609	1596
2987.907	1637
2991.202	1670
2994.494	1700
2997.784	1725
3001.07	1773
3004.355	1810
3007.636	1828
3010.915	1826
3014.191	1879
3017.464	1871
3020.734	1885
3024.002	1895
3027.267	1912
3030.53	1919
3033.789	1957
3037.046	1976
3040.301	2003
3043.552	2052
3046.801	2083
3050.048	2134
3053.291	2196
3056.532	2247
3059.771	2296
3063.006	2365
3066.239	2434
3069.469	2524
3072.697	2592
3075.922	2652
3079.144	2700
3082.364	2774
3085.581	2826
3088.795	2909
3092.007	2971
3095.216	2999
3098.423	3080
3101.627	3158
3104.828	3203
3108.026	3280
3111.222	3358
3114.416	3444
3117.607	3511
3120.795	3574
3123.98	3716
3127.163	3782
3130.344	3847
3133.521	3951
3136.696	4060
3139.869	4108
3143.039	4230
3146.206	4230
3149.371	4306
3152.533	4342
3155.693	4386
3158.85	4395
3162.005	4407
3165.157	4418
3168.306	4433
3171.453	4448
3174.597	4457
3177.739	4486
3180.878	4461
3184.014	4475
3187.149	4484
3190.28	4471
3193.409	4498
3196.536	4484
3199.659	4517
3202.781	4513
3205.9	4493
3209.016	4521
3212.13	4520
3215.241	4445
3218.35	4412
3221.456	4391
3224.56	4322
3227.661	4258
3230.76	4234
3233.856	4214
3236.95	4156
3240.041	4120
3243.13	4082
3246.216	4062
3249.3	4050
3252.382	4017
3255.46	3988
3258.537	3981
3261.611	4026
3264.682	4003
3267.751	3989
3270.818	3996
3273.882	3996
3276.943	3962
3280.002	3910
3283.059	3906
3286.113	3876
3289.165	3809
3292.214	3736
3295.261	3693
3298.306	3630
3301.348	3568
3304.387	3504
3307.425	3446
3310.459	3411
3313.492	3340
3316.521	3304
3319.549	3262
3322.574	3225
3325.597	3193
3328.617	3152
3331.635	3146
3334.65	3152
3337.663	3127
3340.674	3096
3343.682	3089
3346.688	3081
3349.691	3071
3352.692	3060
3355.691	3018
3358.687	2996
3361.681	2945
3364.673	2915
3367.662	2890
3370.649	2846
3373.633	2801
3376.615	2788
3379.595	2730
3382.572	2704
3385.547	2650
3388.52	2604
3391.49	2582
3394.458	2512
3397.424	2486
3400.387	2454
3403.348	2426
3406.307	2429
3409.263	2407
3412.217	2328
3415.168	2336
3418.118	2296
3421.065	2242
3424.009	2252
3426.951	2187
3429.891	2149
3432.829	2126
3435.764	2084
3438.697	2015
3441.628	1969
3444.557	1911
3447.483	1868
3450.407	1814
3453.328	1743
3456.247	1691
3459.164	1604
3462.079	1564
3464.991	1507
3467.902	1450
3470.809	1403
3473.715	1358
3476.618	1276
3479.519	1246
3482.418	1229
3485.315	1166
3488.209	1136
3491.101	1104
3493.99	1065
3496.878	1019
3499.763	978
3502.646	942
3505.527	902
3508.405	872
3511.281	800
3514.155	762
3517.027	726
3519.897	684
3522.764	631
3525.629	588
3528.492	542
3531.352	513
3534.211	468
3537.067	416
3539.921	374
3542.773	335
3545.622	294
3548.469	270
3551.315	233
3554.157	211
3556.998	176
3559.837	152
3562.673	129
3565.507	103
3568.339	81
3571.169	52
3573.996	28
3576.822	11
3579.645	-8
3582.466	-40
3585.285	-64
3588.101	-82
3590.916	-107
3593.728	-132
3596.538	-135
3599.346	-164
3602.152	-179
3604.956	-191
3607.757	-216
3610.556	-232
3613.354	-246
3616.149	-264
3618.942	-278
3621.732	-284
3624.521	-311
3627.307	-323
3630.092	-322
3632.874	-339
3635.654	-349
3638.432	-355
3641.208	-367
3643.982	-385
3646.753	-384
3649.523	-399
3652.29	-410
3655.055	-418
3657.818	-428
3660.579	-447
3663.338	-459
3666.095	-465
3668.849	-481
3671.602	-489
3674.352	-506
3677.101	-500
3679.847	-508
3682.591	-519
3685.333	-518
3688.073	-522
3690.811	-536
3693.547	-537
3696.281	-538
3699.013	-553
3701.742	-553
3704.47	-561
3707.195	-573
3709.919	-572
3712.64	-573
3715.359	-579
3718.076	-584
3720.792	-594
3723.505	-591
3726.216	-597
3728.925	-601
3731.632	-601
3734.336	-609
3737.039	-607
3739.74	-611
3742.439	-619
3745.136	-614
3747.83	-615
3750.523	-613
3753.213	-621
3755.902	-622
3758.589	-626
3761.273	-627
3763.956	-631
3766.636	-630
3769.315	-631
3771.991	-632
3774.665	-639
3777.338	-639
3780.008	-639
3782.677	-647
3785.343	-638
3788.007	-643
3790.67	-642
3793.33	-653
3795.989	-651
3798.645	-652
3801.299	-653
3803.952	-653
3806.602	-661
3809.251	-663
3811.897	-661
3814.542	-658
3817.184	-653
3819.825	-654
3822.463	-658
3825.1	-661
3827.735	-659
3830.367	-657
3832.998	-668
3835.627	-666
3838.253	-668
3840.878	-676
3843.501	-670
3846.122	-662
3848.741	-666
3851.358	-670
3853.973	-672
3856.586	-673
3859.197	-679
3861.806	-677
3864.414	-672
3867.019	-667
3869.622	-672
3872.224	-661
3874.823	-651
3877.421	-631
3880.016	-614
3882.61	-588
3885.202	-576
3887.792	-604
3890.38	-630
3892.966	-659
3895.55	-666
3898.132	-680
3900.713	-683
3903.291	-685
3905.868	-680
3908.442	-683
3911.015	-682
3913.586	-684
3916.155	-684
3918.722	-688
3921.287	-690
3923.85	-692
3926.411	-688
3928.971	-697
3931.528	-688
3934.084	-694
3936.638	-686
3939.19	-692
3941.74	-696
3944.288	-693
3946.834	-682
3949.378	-693
3951.921	-683
3954.462	-697
3957	-686
3959.537	-687
3962.072	-692
3964.606	-685
3967.137	-685
3969.667	-689
3972.194	-683
3974.72	-691
3977.244	-677
3979.766	-677
3982.286	-682
3984.805	-678
3987.321	-679
3989.836	-677
3992.349	-668
3994.86	-668
3997.369	-682
3999.877	-673
4002.382	-674
4004.886	-668
4007.388	-670
4009.888	-667
4012.386	-674
4014.883	-671
4017.377	-670
4019.87	-668
4022.361	-673
4024.85	-675
4027.338	-678
4029.823	-674
4032.307	-678
4034.789	-674
4037.269	-668
4039.747	-673
4042.224	-683
4044.699	-677
4047.172	-677
4049.643	-678
4052.112	-681
4054.58	-681
4057.046	-680
4059.51	-684
4061.972	-678
4064.432	-685
4066.891	-678
4069.348	-675
4071.803	-675
4074.256	-673
4076.708	-671
4079.158	-677
4081.606	-681
4084.052	-679
4086.497	-675
4088.939	-676
4091.38	-683
4093.819	-673
4096.257	-709
4098.693	-711
4101.127	-715
4103.559	-710
4105.989	-412
4108.418	-386
4110.845	-366
4113.27	-339
4115.694	-301
4118.115	-249
4120.535	-674
4122.954	-680
4125.37	-667
4127.785	-679
4130.198	-674
4132.609	-676
4135.019	-710
4137.427	-711
4139.833	-715
4142.237	-713
