Data from 2018-2-14_conc=6_n=6_RamanShift_04.txt Node
Date: Wed Feb 14 15:03:25 IST 2018
User: aro
Spectrometer: QEPB0276
Trigger mode: 0
Integration Time (sec): 3.000000E1
Scans to average: 1
Electric dark correction enabled: true
Nonlinearity correction enabled: false
Boxcar width: 0
XAxis mode: Raman Shifts
Number of Pixels in Spectrum: 1044
>>>>>Begin Spectral Data<<<<<
160.701	-143.9
166.742	47.1
172.777	609.1
178.805	2315.1
184.826	6435.1
190.841	13582.1
196.849	21858.1
202.85	27756.1
208.845	29700.1
214.833	29502.1
220.815	28951.1
226.789	28729.1
232.758	28552.1
238.719	28332.1
244.674	27958.1
250.623	27471.1
256.565	26868.1
262.5	26345.1
268.429	25858.1
274.351	25495.1
280.267	25124.1
286.176	24841.1
292.079	24635.1
297.975	24413.1
303.865	24199.1
309.748	23975.1
315.625	23847.1
321.495	23678.1
327.359	23738.1
333.217	23628.1
339.068	23581.1
344.912	23579.1
350.751	23529.1
356.583	23462.1
362.408	23466.1
368.227	23493.1
374.04	23500.1
379.847	23552.1
385.647	23637.1
391.44	23765.1
397.228	23762.1
403.009	23920.1
408.784	23993.1
414.553	24060.1
420.315	24178.1
426.071	24153.1
431.821	24139.1
437.565	24077.1
443.302	24103.1
449.033	24053.1
454.758	23925.1
460.477	23960.1
466.189	23811.1
471.896	23790.1
477.596	23758.1
483.29	23701.1
488.978	23689.1
494.66	23581.1
500.335	23470.1
506.005	23113.1
511.668	22875.1
517.325	22598.1
522.977	22437.1
528.622	22232.1
534.261	22057.1
539.894	21977.1
545.521	21870.1
551.141	21843.1
556.756	21719.1
562.365	21586.1
567.968	21541.1
573.565	21546.1
579.155	21365.1
584.74	21274.1
590.319	21219.1
595.892	21157.1
601.459	20974.1
607.02	20953.1
612.575	20800.1
618.124	20678.1
623.667	20531.1
629.204	20499.1
634.735	20402.1
640.261	20268.1
645.781	20247.1
651.294	20172.1
656.802	20205.1
662.304	20115.1
667.8	20107.1
673.29	20100.1
678.775	19980.1
684.254	19904.1
689.726	19863.1
695.193	19745.1
700.655	19640.1
706.11	19555.1
711.56	19495.1
717.004	19369.1
722.442	19330.1
727.874	19296.1
733.301	19222.1
738.722	19103.1
744.137	19126.1
749.547	19070.1
754.951	19118.1
760.349	19062.1
765.741	19039.1
771.128	19071.1
776.509	19120.1
781.885	19121.1
787.254	19023.1
792.618	19004.1
797.977	18858.1
803.33	18748.1
808.677	18630.1
814.019	18532.1
819.355	18443.1
824.686	18401.1
830.011	18298.1
835.33	18359.1
840.644	18321.1
845.952	18319.1
851.255	18417.1
856.552	18403.1
861.844	18357.1
867.13	18315.1
872.41	18189.1
877.686	18099.1
882.955	18024.1
888.219	17820.1
893.478	17630.1
898.731	17434.1
903.979	17229.1
909.221	17167.1
914.458	17088.1
919.69	17119.1
924.916	17101.1
930.136	17187.1
935.351	17189.1
940.561	17229.1
945.766	17155.1
950.965	17027.1
956.158	16939.1
961.347	16761.1
966.529	16509.1
971.707	16391.1
976.879	16155.1
982.046	16067.1
987.208	15947.1
992.364	15973.1
997.515	16069.1
1002.66	16230.1
1007.801	16371.1
1012.936	16523.1
1018.066	16500.1
1023.19	16525.1
1028.309	16557.1
1033.423	16498.1
1038.532	16415.1
1043.636	16245.1
1048.734	16088.1
1053.827	15819.1
1058.915	15636.1
1063.998	15564.1
1069.075	15526.1
1074.147	15529.1
1079.214	15598.1
1084.276	15733.1
1089.333	15736.1
1094.385	15879.1
1099.431	15910.1
1104.472	15914.1
1109.509	15756.1
1114.54	15606.1
1119.565	15444.1
1124.586	15246.1
1129.602	15119.1
1134.613	14966.1
1139.618	14894.1
1144.619	14846.1
1149.614	14853.1
1154.604	14831.1
1159.589	14826.1
1164.57	14913.1
1169.545	14998.1
1174.515	14956.1
1179.48	14901.1
1184.44	14789.1
1189.395	14627.1
1194.345	14597.1
1199.29	14465.1
1204.23	14484.1
1209.165	14507.1
1214.095	14560.1
1219.021	14704.1
1223.941	14723.1
1228.856	14871.1
1233.766	14938.1
1238.672	14910.1
1243.572	14914.1
1248.467	14742.1
1253.358	14621.1
1258.244	14446.1
1263.124	14176.1
1268	13939.1
1272.871	13781.1
1277.737	13702.1
1282.599	13670.1
1287.455	13662.1
1292.306	13651.1
1297.153	13691.1
1301.995	13766.1
1306.832	13855.1
1311.664	13798.1
1316.491	13776.1
1321.314	13645.1
1326.132	13496.1
1330.945	13133.1
1335.753	12837.1
1340.556	12508.1
1345.354	12228.1
1350.148	12000.1
1354.937	11993.1
1359.722	12006.1
1364.501	12031.1
1369.276	12201.1
1374.046	12343.1
1378.811	12555.1
1383.572	12702.1
1388.327	12695.1
1393.079	12597.1
1397.825	12502.1
1402.567	12257.1
1407.304	12138.1
1412.036	12024.1
1416.764	11945.1
1421.487	11860.1
1426.205	11768.1
1430.919	11747.1
1435.628	11701.1
1440.333	11744.1
1445.032	11754.1
1449.727	11779.1
1454.418	11790.1
1459.104	11668.1
1463.785	11454.1
1468.462	11144.1
1473.134	10957.1
1477.802	10731.1
1482.465	10534.1
1487.123	10455.1
1491.777	10424.1
1496.426	10521.1
1501.071	10570.1
1505.711	10814.1
1510.347	10999.1
1514.978	11152.1
1519.604	11337.1
1524.226	11395.1
1528.844	11419.1
1533.457	11449.1
1538.065	11351.1
1542.669	11293.1
1547.269	11188.1
1551.864	11121.1
1556.454	11102.1
1561.041	11071.1
1565.622	11108.1
1570.199	11102.1
1574.772	11129.1
1579.34	11249.1
1583.904	11277.1
1588.464	11287.1
1593.019	11247.1
1597.569	11215.1
1602.115	11209.1
1606.657	11158.1
1611.195	11066.1
1615.728	11055.1
1620.256	10951.1
1624.78	10961.1
1629.3	10931.1
1633.816	10966.1
1638.327	11040.1
1642.834	11068.1
1647.336	11142.1
1651.834	11135.1
1656.328	11088.1
1660.817	11049.1
1665.302	10976.1
1669.783	10797.1
1674.259	10476.1
1678.732	10217.1
1683.199	9853.1
1687.663	9540.1
1692.122	9288.1
1696.577	9147.1
1701.028	9120.1
1705.474	9202.1
1709.917	9352.1
1714.355	9308.1
1718.788	9267.1
1723.218	9122.1
1727.643	8946.1
1732.064	8746.1
1736.481	8587.1
1740.893	8319.1
1745.301	8145.1
1749.705	7935.1
1754.105	7697.1
1758.501	7452.1
1762.893	7271.1
1767.28	7090.1
1771.663	6931.1
1776.042	6826.1
1780.417	6741.1
1784.787	6771.1
1789.154	6841.1
1793.516	7003.1
1797.874	7135.1
1802.228	7256.1
1806.578	7329.1
1810.924	7332.1
1815.266	7222.1
1819.603	7154.1
1823.937	7003.1
1828.266	6935.1
1832.591	6782.1
1836.913	6722.1
1841.23	6600.1
1845.543	6551.1
1849.852	6547.1
1854.156	6512.1
1858.457	6496.1
1862.754	6457.1
1867.047	6484.1
1871.335	6476.1
1875.62	6467.1
1879.9	6467.1
1884.177	6393.1
1888.449	6319.1
1892.718	6243.1
1896.982	6242.1
1901.243	6162.1
1905.499	6120.1
1909.752	6111.1
1914	6105.1
1918.245	6142.1
1922.485	6214.1
1926.722	6236.1
1930.954	6352.1
1935.183	6421.1
1939.408	6471.1
1943.628	6516.1
1947.845	6523.1
1952.058	6488.1
1956.267	6424.1
1960.472	6360.1
1964.673	6261.1
1968.87	6171.1
1973.063	6053.1
1977.252	5983.1
1981.438	5925.1
1985.619	5868.1
1989.797	5808.1
1993.971	5761.1
1998.14	5744.1
2002.306	5718.1
2006.469	5700.1
2010.627	5656.1
2014.781	5674.1
2018.932	5587.1
2023.078	5501.1
2027.221	5464.1
2031.36	5363.1
2035.495	5281.1
2039.627	5177.1
2043.754	5161.1
2047.878	5089.1
2051.998	5079.1
2056.114	5037.1
2060.226	5046.1
2064.334	5037.1
2068.439	5049.1
2072.54	5139.1
2076.637	5138.1
2080.73	5161.1
2084.82	5186.1
2088.906	5203.1
2092.988	5209.1
2097.066	5187.1
2101.14	5181.1
2105.211	5127.1
2109.278	5107.1
2113.342	5096.1
2117.401	5053.1
2121.457	5043.1
2125.509	4995.1
2129.558	4953.1
2133.602	4890.1
2137.643	4900.1
2141.681	4883.1
2145.714	4868.1
2149.744	4799.1
2153.77	4795.1
2157.793	4718.1
2161.812	4647.1
2165.827	4611.1
2169.838	4511.1
2173.846	4442.1
2177.851	4391.1
2181.851	4296.1
2185.848	4256.1
2189.841	4248.1
2193.831	4173.1
2197.817	4120.1
2201.799	4110.1
2205.778	4074.1
2209.753	4088.1
2213.725	4082.1
2217.693	4057.1
2221.657	4073.1
2225.618	4018.1
2229.575	4025.1
2233.529	3965.1
2237.479	3966.1
2241.425	3885.1
2245.368	3856.1
2249.307	3772.1
2253.243	3728.1
2257.175	3662.1
2261.104	3639.1
2265.029	3585.1
2268.95	3557.1
2272.868	3515.1
2276.783	3479.1
2280.694	3417.1
2284.601	3384.1
2288.505	3402.1
2292.405	3341.1
2296.302	3314.1
2300.195	3280.1
2304.085	3233.1
2307.971	3193.1
2311.854	3131.1
2315.734	3091.1
2319.609	3054.1
2323.482	2984.1
2327.351	2981.1
2331.216	2951.1
2335.078	2957.1
2338.937	2926.1
2342.792	2909.1
2346.643	2881.1
2350.492	2904.1
2354.336	2895.1
2358.178	2909.1
2362.015	2893.1
2365.85	2911.1
2369.681	2908.1
2373.508	2884.1
2377.333	2891.1
2381.153	2915.1
2384.971	2867.1
2388.785	2830.1
2392.595	2822.1
2396.402	2804.1
2400.206	2760.1
2404.007	2772.1
2407.804	2750.1
2411.597	2721.1
2415.388	2719.1
2419.174	2679.1
2422.958	2681.1
2426.738	2648.1
2430.515	2618.1
2434.289	2614.1
2438.059	2599.1
2441.825	2563.1
2445.589	2537.1
2449.349	2509.1
2453.106	2466.1
2456.859	2447.1
2460.61	2426.1
2464.356	2396.1
2468.1	2349.1
2471.84	2337.1
2475.577	2318.1
2479.311	2299.1
2483.041	2279.1
2486.768	2273.1
2490.492	2267.1
2494.213	2285.1
2497.93	2263.1
2501.644	2248.1
2505.355	2239.1
2509.062	2217.1
2512.766	2220.1
2516.467	2223.1
2520.165	2212.1
2523.859	2178.1
2527.551	2161.1
2531.239	2142.1
2534.923	2114.1
2538.605	2123.1
2542.283	2146.1
2545.958	2100.1
2549.63	2093.1
2553.299	2118.1
2556.964	2102.1
2560.626	2098.1
2564.285	2061.1
2567.941	2081.1
2571.594	2032.1
2575.243	2067.1
2578.89	2026.1
2582.533	2042.1
2586.173	2005.1
2589.809	1978.1
2593.443	1971.1
2597.073	1959.1
2600.701	1931.1
2604.325	1911.1
2607.946	1911.1
2611.564	1898.1
2615.178	1880.1
2618.79	1863.1
2622.398	1834.1
2626.004	1842.1
2629.606	1785.1
2633.205	1787.1
2636.801	1756.1
2640.394	1736.1
2643.983	1703.1
2647.57	1683.1
2651.153	1653.1
2654.734	1642.1
2658.311	1588.1
2661.885	1568.1
2665.456	1567.1
2669.025	1544.1
2672.589	1518.1
2676.151	1498.1
2679.71	1507.1
2683.266	1473.1
2686.819	1445.1
2690.368	1410.1
2693.915	1374.1
2697.458	1349.1
2700.999	1314.1
2704.536	1281.1
2708.071	1260.1
2711.602	1231.1
2715.13	1209.1
2718.656	1201.1
2722.178	1159.1
2725.697	1154.1
2729.214	1112.1
2732.727	1140.1
2736.237	1126.1
2739.744	1110.1
2743.249	1144.1
2746.75	1146.1
2750.248	1147.1
2753.743	1173.1
2757.236	1184.1
2760.725	1192.1
2764.211	1190.1
2767.695	1190.1
2771.175	1188.1
2774.652	1174.1
2778.127	1170.1
2781.598	1158.1
2785.067	1179.1
2788.532	1147.1
2791.995	1164.1
2795.455	1156.1
2798.911	1157.1
2802.365	1159.1
2805.816	1160.1
2809.264	1151.1
2812.709	1150.1
2816.151	1161.1
2819.59	1160.1
2823.026	1130.1
2826.46	1163.1
2829.89	1163.1
2833.318	1173.1
2836.742	1177.1
2840.164	1170.1
2843.583	1191.1
2846.999	1169.1
2850.412	1218.1
2853.822	1223.1
2857.229	1241.1
2860.634	1244.1
2864.035	1284.1
2867.434	1311.1
2870.83	1320.1
2874.223	1330.1
2877.613	1358.1
2881	1366.1
2884.385	1375.1
2887.766	1388.1
2891.145	1369.1
2894.521	1349.1
2897.894	1390.1
2901.264	1368.1
2904.631	1380.1
2907.996	1367.1
2911.358	1393.1
2914.717	1392.1
2918.073	1406.1
2921.426	1420.1
2924.777	1430.1
2928.124	1435.1
2931.469	1489.1
2934.811	1499.1
2938.15	1519.1
2941.487	1520.1
2944.821	1535.1
2948.152	1546.1
2951.48	1515.1
2954.805	1505.1
2958.128	1496.1
2961.447	1481.1
2964.765	1475.1
2968.079	1487.1
2971.39	1504.1
2974.699	1530.1
2978.005	1543.1
2981.308	1578.1
2984.609	1609.1
2987.907	1635.1
2991.202	1657.1
2994.494	1697.1
2997.784	1732.1
3001.07	1756.1
3004.355	1788.1
3007.636	1799.1
3010.915	1826.1
3014.191	1845.1
3017.464	1860.1
3020.734	1861.1
3024.002	1859.1
3027.267	1887.1
3030.53	1890.1
3033.789	1902.1
3037.046	1934.1
3040.301	1966.1
3043.552	2015.1
3046.801	2047.1
3050.048	2103.1
3053.291	2144.1
3056.532	2198.1
3059.771	2246.1
3063.006	2310.1
3066.239	2406.1
3069.469	2445.1
3072.697	2519.1
3075.922	2596.1
3079.144	2652.1
3082.364	2736.1
3085.581	2760.1
3088.795	2822.1
3092.007	2886.1
3095.216	2969.1
3098.423	3011.1
3101.627	3072.1
3104.828	3137.1
3108.026	3189.1
3111.222	3244.1
3114.416	3334.1
3117.607	3434.1
3120.795	3484.1
3123.98	3594.1
3127.163	3661.1
3130.344	3747.1
3133.521	3815.1
3136.696	3922.1
3139.869	4008.1
3143.039	4082.1
3146.206	4132.1
3149.371	4191.1
3152.533	4238.1
3155.693	4267.1
3158.85	4286.1
3162.005	4293.1
3165.157	4276.1
3168.306	4326.1
3171.453	4338.1
3174.597	4337.1
3177.739	4339.1
3180.878	4377.1
3184.014	4407.1
3187.149	4361.1
3190.28	4409.1
3193.409	4376.1
3196.536	4382.1
3199.659	4390.1
3202.781	4384.1
3205.9	4387.1
3209.016	4412.1
3212.13	4380.1
3215.241	4347.1
3218.35	4282.1
3221.456	4278.1
3224.56	4238.1
3227.661	4166.1
3230.76	4137.1
3233.856	4092.1
3236.95	4040.1
3240.041	4021.1
3243.13	3982.1
3246.216	3965.1
3249.3	3938.1
3252.382	3942.1
3255.46	3931.1
3258.537	3901.1
3261.611	3909.1
3264.682	3932.1
3267.751	3896.1
3270.818	3920.1
3273.882	3884.1
3276.943	3866.1
3280.002	3834.1
3283.059	3792.1
3286.113	3756.1
3289.165	3707.1
3292.214	3652.1
3295.261	3578.1
3298.306	3528.1
3301.348	3481.1
3304.387	3405.1
3307.425	3368.1
3310.459	3332.1
3313.492	3269.1
3316.521	3252.1
3319.549	3193.1
3322.574	3151.1
3325.597	3138.1
3328.617	3115.1
3331.635	3082.1
3334.65	3087.1
3337.663	3069.1
3340.674	3025.1
3343.682	3040.1
3346.688	3028.1
3349.691	3000.1
3352.692	2979.1
3355.691	2972.1
3358.687	2935.1
3361.681	2891.1
3364.673	2867.1
3367.662	2851.1
3370.649	2807.1
3373.633	2750.1
3376.615	2724.1
3379.595	2656.1
3382.572	2632.1
3385.547	2583.1
3388.52	2576.1
3391.49	2522.1
3394.458	2482.1
3397.424	2452.1
3400.387	2420.1
3403.348	2396.1
3406.307	2357.1
3409.263	2321.1
3412.217	2320.1
3415.168	2313.1
3418.118	2269.1
3421.065	2206.1
3424.009	2196.1
3426.951	2136.1
3429.891	2103.1
3432.829	2060.1
3435.764	2019.1
3438.697	1991.1
3441.628	1928.1
3444.557	1882.1
3447.483	1802.1
3450.407	1759.1
3453.328	1708.1
3456.247	1642.1
3459.164	1590.1
3462.079	1534.1
3464.991	1465.1
3467.902	1419.1
3470.809	1381.1
3473.715	1319.1
3476.618	1265.1
3479.519	1234.1
3482.418	1211.1
3485.315	1148.1
3488.209	1108.1
3491.101	1065.1
3493.99	1026.1
3496.878	983.1
3499.763	948.1
3502.646	910.1
3505.527	874.1
3508.405	843.1
3511.281	790.1
3514.155	744.1
3517.027	713.1
3519.897	676.1
3522.764	596.1
3525.629	579.1
3528.492	536.1
3531.352	492.1
3534.211	443.1
3537.067	415.1
3539.921	369.1
3542.773	324.1
3545.622	297.1
3548.469	265.1
3551.315	230.1
3554.157	200.1
3556.998	163.1
3559.837	151.1
3562.673	109.1
3565.507	76.1
3568.339	63.1
3571.169	54.1
3573.996	30.1
3576.822	7.1
3579.645	-13.9
3582.466	-28.9
3585.285	-55.9
3588.101	-89.9
3590.916	-104.9
3593.728	-130.9
3596.538	-150.9
3599.346	-158.9
3602.152	-181.9
3604.956	-187.9
3607.757	-226.9
3610.556	-231.9
3613.354	-254.9
3616.149	-266.9
3618.942	-273.9
3621.732	-287.9
3624.521	-305.9
3627.307	-316.9
3630.092	-327.9
3632.874	-340.9
3635.654	-352.9
3638.432	-357.9
3641.208	-368.9
3643.982	-377.9
3646.753	-387.9
3649.523	-399.9
3652.29	-402.9
3655.055	-411.9
3657.818	-421.9
3660.579	-441.9
3663.338	-453.9
3666.095	-462.9
3668.849	-465.9
3671.602	-475.9
3674.352	-485.9
3677.101	-492.9
3679.847	-506.9
3682.591	-510.9
3685.333	-517.9
3688.073	-513.9
3690.811	-521.9
3693.547	-526.9
3696.281	-540.9
3699.013	-542.9
3701.742	-552.9
3704.47	-557.9
3707.195	-565.9
3709.919	-561.9
3712.64	-573.9
3715.359	-565.9
3718.076	-578.9
3720.792	-570.9
3723.505	-581.9
3726.216	-588.9
3728.925	-592.9
3731.632	-601.9
3734.336	-596.9
3737.039	-601.9
3739.74	-601.9
3742.439	-603.9
3745.136	-611.9
3747.83	-606.9
3750.523	-612.9
3753.213	-617.9
3755.902	-615.9
3758.589	-617.9
3761.273	-617.9
3763.956	-615.9
3766.636	-626.9
3769.315	-631.9
3771.991	-628.9
3774.665	-634.9
3777.338	-630.9
3780.008	-633.9
3782.677	-631.9
3785.343	-631.9
3788.007	-630.9
3790.67	-639.9
3793.33	-639.9
3795.989	-637.9
3798.645	-639.9
3801.299	-635.9
3803.952	-646.9
3806.602	-648.9
3809.251	-650.9
3811.897	-646.9
3814.542	-652.9
3817.184	-647.9
3819.825	-644.9
3822.463	-643.9
3825.1	-648.9
3827.735	-647.9
3830.367	-646.9
3832.998	-652.9
3835.627	-657.9
3838.253	-659.9
3840.878	-664.9
3843.501	-657.9
3846.122	-654.9
3848.741	-656.9
3851.358	-658.9
3853.973	-655.9
3856.586	-663.9
3859.197	-664.9
3861.806	-669.9
3864.414	-661.9
3867.019	-660.9
3869.622	-661.9
3872.224	-654.9
3874.823	-647.9
3877.421	-629.9
3880.016	-612.9
3882.61	-582.9
3885.202	-587.9
3887.792	-591.9
3890.38	-632.9
3892.966	-651.9
3895.55	-658.9
3898.132	-675.9
3900.713	-673.9
3903.291	-672.9
3905.868	-671.9
3908.442	-671.9
3911.015	-677.9
3913.586	-673.9
3916.155	-675.9
3918.722	-682.9
3921.287	-676.9
3923.85	-683.9
3926.411	-677.9
3928.971	-687.9
3931.528	-684.9
3934.084	-685.9
3936.638	-683.9
3939.19	-678.9
3941.74	-676.9
3944.288	-681.9
3946.834	-672.9
3949.378	-680.9
3951.921	-678.9
3954.462	-682.9
3957	-679.9
3959.537	-673.9
3962.072	-675.9
3964.606	-682.9
3967.137	-673.9
3969.667	-678.9
3972.194	-670.9
3974.72	-676.9
3977.244	-667.9
3979.766	-664.9
3982.286	-670.9
3984.805	-664.9
3987.321	-671.9
3989.836	-673.9
3992.349	-659.9
3994.86	-667.9
3997.369	-667.9
3999.877	-667.9
4002.382	-663.9
4004.886	-662.9
4007.388	-658.9
4009.888	-655.9
4012.386	-667.9
4014.883	-660.9
4017.377	-662.9
4019.87	-661.9
4022.361	-662.9
4024.85	-661.9
4027.338	-665.9
4029.823	-663.9
4032.307	-670.9
4034.789	-666.9
4037.269	-659.9
4039.747	-663.9
4042.224	-669.9
4044.699	-669.9
4047.172	-661.9
4049.643	-665.9
4052.112	-673.9
4054.58	-672.9
4057.046	-671.9
4059.51	-669.9
4061.972	-673.9
4064.432	-669.9
4066.891	-670.9
4069.348	-663.9
4071.803	-663.9
4074.256	-669.9
4076.708	-664.9
4079.158	-670.9
4081.606	-671.9
4084.052	-667.9
4086.497	-667.9
4088.939	-660.9
4091.38	-669.9
4093.819	-661.9
4096.257	-703.9
4098.693	-703.9
4101.127	-705.9
4103.559	-700.9
4105.989	-407.9
4108.418	-384.9
4110.845	-355.9
4113.27	-338.9
4115.694	-282.9
4118.115	-242.9
4120.535	-662.9
4122.954	-668.9
4125.37	-658.9
4127.785	-671.9
4130.198	-670.9
4132.609	-673.9
4135.019	-708.9
4137.427	-709.9
4139.833	-706.9
4142.237	-701.9
