Data from 2018-2-14_conc=2_n=6_RamanShift_04.txt Node
Date: Wed Feb 14 11:19:26 IST 2018
User: aro
Spectrometer: QEPB0276
Trigger mode: 0
Integration Time (sec): 3.000000E1
Scans to average: 1
Electric dark correction enabled: true
Nonlinearity correction enabled: false
Boxcar width: 0
XAxis mode: Raman Shifts
Number of Pixels in Spectrum: 1044
>>>>>Begin Spectral Data<<<<<
160.701	-145.4
166.742	47.6
172.777	586.6
178.805	2233.6
184.826	6127.6
190.841	12825.6
196.849	20559.6
202.85	26058.6
208.845	27963.6
214.833	27767.6
220.815	27321.6
226.789	27172.6
232.758	27168.6
238.719	27077.6
244.674	26851.6
250.623	26412.6
256.565	25928.6
262.5	25512.6
268.429	25150.6
274.351	24856.6
280.267	24584.6
286.176	24377.6
292.079	24166.6
297.975	24016.6
303.865	23914.6
309.748	23710.6
315.625	23615.6
321.495	23578.6
327.359	23466.6
333.217	23356.6
339.068	23408.6
344.912	23398.6
350.751	23394.6
356.583	23416.6
362.408	23357.6
368.227	23405.6
374.04	23375.6
379.847	23396.6
385.647	23520.6
391.44	23590.6
397.228	23738.6
403.009	23754.6
408.784	23845.6
414.553	23937.6
420.315	24038.6
426.071	24072.6
431.821	23976.6
437.565	23955.6
443.302	23968.6
449.033	23907.6
454.758	23870.6
460.477	23895.6
466.189	23843.6
471.896	23788.6
477.596	23728.6
483.29	23655.6
488.978	23645.6
494.66	23630.6
500.335	23480.6
506.005	23233.6
511.668	22991.6
517.325	22752.6
522.977	22539.6
528.622	22380.6
534.261	22305.6
539.894	22187.6
545.521	22138.6
551.141	22039.6
556.756	22005.6
562.365	21935.6
567.968	21860.6
573.565	21789.6
579.155	21734.6
584.74	21558.6
590.319	21539.6
595.892	21423.6
601.459	21353.6
607.02	21292.6
612.575	21171.6
618.124	21000.6
623.667	20889.6
629.204	20807.6
634.735	20693.6
640.261	20639.6
645.781	20576.6
651.294	20559.6
656.802	20555.6
662.304	20458.6
667.8	20479.6
673.29	20430.6
678.775	20379.6
684.254	20272.6
689.726	20329.6
695.193	20194.6
700.655	20068.6
706.11	19999.6
711.56	19935.6
717.004	19804.6
722.442	19732.6
727.874	19679.6
733.301	19583.6
738.722	19530.6
744.137	19498.6
749.547	19460.6
754.951	19534.6
760.349	19494.6
765.741	19476.6
771.128	19452.6
776.509	19494.6
781.885	19462.6
787.254	19466.6
792.618	19352.6
797.977	19290.6
803.33	19144.6
808.677	19070.6
814.019	18866.6
819.355	18768.6
824.686	18706.6
830.011	18662.6
835.33	18721.6
840.644	18725.6
845.952	18782.6
851.255	18760.6
856.552	18868.6
861.844	18790.6
867.13	18806.6
872.41	18705.6
877.686	18587.6
882.955	18483.6
888.219	18297.6
893.478	18182.6
898.731	17881.6
903.979	17701.6
909.221	17641.6
914.458	17555.6
919.69	17550.6
924.916	17618.6
930.136	17688.6
935.351	17678.6
940.561	17711.6
945.766	17659.6
950.965	17561.6
956.158	17426.6
961.347	17286.6
966.529	17050.6
971.707	16816.6
976.879	16654.6
982.046	16490.6
987.208	16446.6
992.364	16518.6
997.515	16557.6
1002.66	16715.6
1007.801	16879.6
1012.936	16956.6
1018.066	16956.6
1023.19	17065.6
1028.309	17036.6
1033.423	16936.6
1038.532	16804.6
1043.636	16738.6
1048.734	16568.6
1053.827	16278.6
1058.915	16110.6
1063.998	15987.6
1069.075	15996.6
1074.147	15970.6
1079.214	16064.6
1084.276	16146.6
1089.333	16210.6
1094.385	16333.6
1099.431	16388.6
1104.472	16364.6
1109.509	16255.6
1114.54	16088.6
1119.565	15908.6
1124.586	15674.6
1129.602	15506.6
1134.613	15403.6
1139.618	15304.6
1144.619	15290.6
1149.614	15296.6
1154.604	15287.6
1159.589	15385.6
1164.57	15390.6
1169.545	15370.6
1174.515	15326.6
1179.48	15279.6
1184.44	15210.6
1189.395	15101.6
1194.345	15013.6
1199.29	14844.6
1204.23	14904.6
1209.165	14976.6
1214.095	14993.6
1219.021	15112.6
1223.941	15179.6
1228.856	15277.6
1233.766	15344.6
1238.672	15310.6
1243.572	15334.6
1248.467	15222.6
1253.358	15066.6
1258.244	14797.6
1263.124	14569.6
1268	14356.6
1272.871	14149.6
1277.737	14092.6
1282.599	14041.6
1287.455	14057.6
1292.306	14031.6
1297.153	14141.6
1301.995	14194.6
1306.832	14210.6
1311.664	14228.6
1316.491	14125.6
1321.314	13993.6
1326.132	13788.6
1330.945	13503.6
1335.753	13118.6
1340.556	12743.6
1345.354	12474.6
1350.148	12244.6
1354.937	12169.6
1359.722	12173.6
1364.501	12246.6
1369.276	12472.6
1374.046	12649.6
1378.811	12932.6
1383.572	13118.6
1388.327	13151.6
1393.079	13129.6
1397.825	12872.6
1402.567	12663.6
1407.304	12535.6
1412.036	12300.6
1416.764	12229.6
1421.487	12157.6
1426.205	12056.6
1430.919	12041.6
1435.628	12038.6
1440.333	12081.6
1445.032	12047.6
1449.727	12091.6
1454.418	12037.6
1459.104	11876.6
1463.785	11675.6
1468.462	11410.6
1473.134	11144.6
1477.802	10938.6
1482.465	10739.6
1487.123	10622.6
1491.777	10629.6
1496.426	10723.6
1501.071	10811.6
1505.711	10984.6
1510.347	11231.6
1514.978	11456.6
1519.604	11651.6
1524.226	11741.6
1528.844	11766.6
1533.457	11735.6
1538.065	11744.6
1542.669	11616.6
1547.269	11492.6
1551.864	11392.6
1556.454	11384.6
1561.041	11311.6
1565.622	11335.6
1570.199	11283.6
1574.772	11371.6
1579.34	11417.6
1583.904	11458.6
1588.464	11457.6
1593.019	11416.6
1597.569	11371.6
1602.115	11260.6
1606.657	11221.6
1611.195	11109.6
1615.728	11006.6
1620.256	10931.6
1624.78	10923.6
1629.3	10912.6
1633.816	10909.6
1638.327	10977.6
1642.834	11075.6
1647.336	11052.6
1651.834	11045.6
1656.328	11072.6
1660.817	10991.6
1665.302	10920.6
1669.783	10696.6
1674.259	10508.6
1678.732	10175.6
1683.199	9800.6
1687.663	9472.6
1692.122	9206.6
1696.577	9130.6
1701.028	9177.6
1705.474	9317.6
1709.917	9526.6
1714.355	9558.6
1718.788	9515.6
1723.218	9346.6
1727.643	9170.6
1732.064	8983.6
1736.481	8759.6
1740.893	8580.6
1745.301	8361.6
1749.705	8129.6
1754.105	7912.6
1758.501	7703.6
1762.893	7461.6
1767.28	7277.6
1771.663	7115.6
1776.042	6977.6
1780.417	6893.6
1784.787	6901.6
1789.154	7010.6
1793.516	7148.6
1797.874	7317.6
1802.228	7486.6
1806.578	7586.6
1810.924	7600.6
1815.266	7509.6
1819.603	7380.6
1823.937	7252.6
1828.266	7138.6
1832.591	7021.6
1836.913	6907.6
1841.23	6798.6
1845.543	6780.6
1849.852	6763.6
1854.156	6699.6
1858.457	6682.6
1862.754	6694.6
1867.047	6672.6
1871.335	6655.6
1875.62	6640.6
1879.9	6621.6
1884.177	6584.6
1888.449	6464.6
1892.718	6428.6
1896.982	6342.6
1901.243	6304.6
1905.499	6240.6
1909.752	6239.6
1914	6196.6
1918.245	6262.6
1922.485	6262.6
1926.722	6406.6
1930.954	6471.6
1935.183	6550.6
1939.408	6668.6
1943.628	6682.6
1947.845	6697.6
1952.058	6713.6
1956.267	6639.6
1960.472	6559.6
1964.673	6484.6
1968.87	6334.6
1973.063	6245.6
1977.252	6129.6
1981.438	6089.6
1985.619	6005.6
1989.797	5967.6
1993.971	5914.6
1998.14	5877.6
2002.306	5809.6
2006.469	5801.6
2010.627	5743.6
2014.781	5755.6
2018.932	5674.6
2023.078	5640.6
2027.221	5522.6
2031.36	5412.6
2035.495	5347.6
2039.627	5232.6
2043.754	5205.6
2047.878	5158.6
2051.998	5125.6
2056.114	5129.6
2060.226	5080.6
2064.334	5094.6
2068.439	5098.6
2072.54	5162.6
2076.637	5194.6
2080.73	5203.6
2084.82	5239.6
2088.906	5280.6
2092.988	5256.6
2097.066	5227.6
2101.14	5205.6
2105.211	5217.6
2109.278	5189.6
2113.342	5152.6
2117.401	5087.6
2121.457	5091.6
2125.509	5048.6
2129.558	5002.6
2133.602	4971.6
2137.643	4956.6
2141.681	4908.6
2145.714	4916.6
2149.744	4850.6
2153.77	4805.6
2157.793	4766.6
2161.812	4710.6
2165.827	4654.6
2169.838	4542.6
2173.846	4476.6
2177.851	4409.6
2181.851	4349.6
2185.848	4293.6
2189.841	4234.6
2193.831	4188.6
2197.817	4148.6
2201.799	4131.6
2205.778	4125.6
2209.753	4105.6
2213.725	4102.6
2217.693	4081.6
2221.657	4100.6
2225.618	4096.6
2229.575	4058.6
2233.529	4005.6
2237.479	3968.6
2241.425	3929.6
2245.368	3858.6
2249.307	3800.6
2253.243	3781.6
2257.175	3703.6
2261.104	3635.6
2265.029	3631.6
2268.95	3586.6
2272.868	3569.6
2276.783	3516.6
2280.694	3501.6
2284.601	3450.6
2288.505	3432.6
2292.405	3370.6
2296.302	3341.6
2300.195	3271.6
2304.085	3279.6
2307.971	3224.6
2311.854	3173.6
2315.734	3120.6
2319.609	3084.6
2323.482	3036.6
2327.351	3018.6
2331.216	2983.6
2335.078	2967.6
2338.937	2942.6
2342.792	2914.6
2346.643	2912.6
2350.492	2931.6
2354.336	2925.6
2358.178	2926.6
2362.015	2950.6
2365.85	2955.6
2369.681	2937.6
2373.508	2945.6
2377.333	2940.6
2381.153	2931.6
2384.971	2916.6
2388.785	2875.6
2392.595	2866.6
2396.402	2836.6
2400.206	2791.6
2404.007	2789.6
2407.804	2780.6
2411.597	2775.6
2415.388	2734.6
2419.174	2725.6
2422.958	2720.6
2426.738	2656.6
2430.515	2636.6
2434.289	2609.6
2438.059	2612.6
2441.825	2579.6
2445.589	2552.6
2449.349	2550.6
2453.106	2527.6
2456.859	2476.6
2460.61	2424.6
2464.356	2395.6
2468.1	2358.6
2471.84	2347.6
2475.577	2323.6
2479.311	2320.6
2483.041	2315.6
2486.768	2289.6
2490.492	2287.6
2494.213	2291.6
2497.93	2278.6
2501.644	2255.6
2505.355	2233.6
2509.062	2232.6
2512.766	2237.6
2516.467	2202.6
2520.165	2190.6
2523.859	2198.6
2527.551	2128.6
2531.239	2144.6
2534.923	2141.6
2538.605	2138.6
2542.283	2130.6
2545.958	2145.6
2549.63	2120.6
2553.299	2105.6
2556.964	2104.6
2560.626	2090.6
2564.285	2103.6
2567.941	2074.6
2571.594	2082.6
2575.243	2074.6
2578.89	2045.6
2582.533	2048.6
2586.173	2034.6
2589.809	1992.6
2593.443	1978.6
2597.073	1961.6
2600.701	1961.6
2604.325	1925.6
2607.946	1896.6
2611.564	1905.6
2615.178	1879.6
2618.79	1877.6
2622.398	1861.6
2626.004	1847.6
2629.606	1811.6
2633.205	1793.6
2636.801	1753.6
2640.394	1763.6
2643.983	1726.6
2647.57	1691.6
2651.153	1645.6
2654.734	1631.6
2658.311	1589.6
2661.885	1553.6
2665.456	1564.6
2669.025	1536.6
2672.589	1507.6
2676.151	1501.6
2679.71	1481.6
2683.266	1442.6
2686.819	1446.6
2690.368	1405.6
2693.915	1369.6
2697.458	1328.6
2700.999	1298.6
2704.536	1274.6
2708.071	1257.6
2711.602	1237.6
2715.13	1191.6
2718.656	1175.6
2722.178	1151.6
2725.697	1130.6
2729.214	1102.6
2732.727	1104.6
2736.237	1101.6
2739.744	1094.6
2743.249	1114.6
2746.75	1127.6
2750.248	1143.6
2753.743	1125.6
2757.236	1146.6
2760.725	1158.6
2764.211	1163.6
2767.695	1166.6
2771.175	1181.6
2774.652	1173.6
2778.127	1161.6
2781.598	1145.6
2785.067	1135.6
2788.532	1131.6
2791.995	1116.6
2795.455	1121.6
2798.911	1133.6
2802.365	1121.6
2805.816	1128.6
2809.264	1120.6
2812.709	1129.6
2816.151	1116.6
2819.59	1123.6
2823.026	1117.6
2826.46	1120.6
2829.89	1119.6
2833.318	1120.6
2836.742	1124.6
2840.164	1114.6
2843.583	1125.6
2846.999	1155.6
2850.412	1128.6
2853.822	1166.6
2857.229	1157.6
2860.634	1193.6
2864.035	1193.6
2867.434	1203.6
2870.83	1241.6
2874.223	1234.6
2877.613	1259.6
2881	1259.6
2884.385	1274.6
2887.766	1267.6
2891.145	1254.6
2894.521	1255.6
2897.894	1256.6
2901.264	1252.6
2904.631	1264.6
2907.996	1268.6
2911.358	1238.6
2914.717	1242.6
2918.073	1262.6
2921.426	1272.6
2924.777	1267.6
2928.124	1307.6
2931.469	1306.6
2934.811	1332.6
2938.15	1341.6
2941.487	1340.6
2944.821	1364.6
2948.152	1358.6
2951.48	1351.6
2954.805	1322.6
2958.128	1333.6
2961.447	1299.6
2964.765	1311.6
2968.079	1296.6
2971.39	1324.6
2974.699	1342.6
2978.005	1350.6
2981.308	1376.6
2984.609	1400.6
2987.907	1438.6
2991.202	1451.6
2994.494	1463.6
2997.784	1504.6
3001.07	1526.6
3004.355	1551.6
3007.636	1573.6
3010.915	1614.6
3014.191	1597.6
3017.464	1606.6
3020.734	1609.6
3024.002	1632.6
3027.267	1639.6
3030.53	1641.6
3033.789	1645.6
3037.046	1697.6
3040.301	1697.6
3043.552	1722.6
3046.801	1753.6
3050.048	1791.6
3053.291	1828.6
3056.532	1866.6
3059.771	1921.6
3063.006	1967.6
3066.239	2019.6
3069.469	2107.6
3072.697	2154.6
3075.922	2197.6
3079.144	2242.6
3082.364	2324.6
3085.581	2354.6
3088.795	2373.6
3092.007	2431.6
3095.216	2500.6
3098.423	2553.6
3101.627	2589.6
3104.828	2651.6
3108.026	2702.6
3111.222	2781.6
3114.416	2823.6
3117.607	2891.6
3120.795	2973.6
3123.98	3018.6
3127.163	3122.6
3130.344	3183.6
3133.521	3252.6
3136.696	3333.6
3139.869	3415.6
3143.039	3460.6
3146.206	3502.6
3149.371	3563.6
3152.533	3575.6
3155.693	3592.6
3158.85	3586.6
3162.005	3638.6
3165.157	3638.6
3168.306	3639.6
3171.453	3650.6
3174.597	3647.6
3177.739	3666.6
3180.878	3653.6
3184.014	3672.6
3187.149	3682.6
3190.28	3681.6
3193.409	3682.6
3196.536	3664.6
3199.659	3682.6
3202.781	3683.6
3205.9	3704.6
3209.016	3665.6
3212.13	3643.6
3215.241	3642.6
3218.35	3623.6
3221.456	3558.6
3224.56	3529.6
3227.661	3492.6
3230.76	3447.6
3233.856	3432.6
3236.95	3386.6
3240.041	3367.6
3243.13	3329.6
3246.216	3354.6
3249.3	3327.6
3252.382	3275.6
3255.46	3314.6
3258.537	3274.6
3261.611	3276.6
3264.682	3312.6
3267.751	3272.6
3270.818	3257.6
3273.882	3255.6
3276.943	3242.6
3280.002	3199.6
3283.059	3194.6
3286.113	3145.6
3289.165	3102.6
3292.214	3059.6
3295.261	3011.6
3298.306	2958.6
3301.348	2921.6
3304.387	2855.6
3307.425	2793.6
3310.459	2763.6
3313.492	2728.6
3316.521	2678.6
3319.549	2658.6
3322.574	2614.6
3325.597	2604.6
3328.617	2584.6
3331.635	2560.6
3334.65	2540.6
3337.663	2530.6
3340.674	2490.6
3343.682	2512.6
3346.688	2479.6
3349.691	2488.6
3352.692	2454.6
3355.691	2453.6
3358.687	2420.6
3361.681	2402.6
3364.673	2368.6
3367.662	2319.6
3370.649	2285.6
3373.633	2278.6
3376.615	2232.6
3379.595	2184.6
3382.572	2171.6
3385.547	2124.6
3388.52	2090.6
3391.49	2091.6
3394.458	2006.6
3397.424	1997.6
3400.387	1962.6
3403.348	1964.6
3406.307	1922.6
3409.263	1893.6
3412.217	1887.6
3415.168	1864.6
3418.118	1826.6
3421.065	1800.6
3424.009	1793.6
3426.951	1752.6
3429.891	1711.6
3432.829	1694.6
3435.764	1625.6
3438.697	1592.6
3441.628	1550.6
3444.557	1499.6
3447.483	1466.6
3450.407	1430.6
3453.328	1365.6
3456.247	1319.6
3459.164	1273.6
3462.079	1230.6
3464.991	1182.6
3467.902	1136.6
3470.809	1104.6
3473.715	1051.6
3476.618	1003.6
3479.519	985.6
3482.418	953.6
3485.315	906.6
3488.209	868.6
3491.101	857.6
3493.99	823.6
3496.878	787.6
3499.763	740.6
3502.646	695.6
3505.527	664.6
3508.405	643.6
3511.281	588.6
3514.155	569.6
3517.027	542.6
3519.897	501.6
3522.764	444.6
3525.629	409.6
3528.492	374.6
3531.352	335.6
3534.211	320.6
3537.067	272.6
3539.921	239.6
3542.773	209.6
3545.622	159.6
3548.469	145.6
3551.315	123.6
3554.157	105.6
3556.998	77.6
3559.837	52.6
3562.673	20.6
3565.507	18.6
3568.339	-13.4
3571.169	-28.4
3573.996	-46.4
3576.822	-65.4
3579.645	-79.4
3582.466	-112.4
3585.285	-126.4
3588.101	-149.4
3590.916	-165.4
3593.728	-188.4
3596.538	-196.4
3599.346	-216.4
3602.152	-226.4
3604.956	-239.4
3607.757	-261.4
3610.556	-281.4
3613.354	-293.4
3616.149	-303.4
3618.942	-311.4
3621.732	-321.4
3624.521	-332.4
3627.307	-347.4
3630.092	-357.4
3632.874	-362.4
3635.654	-376.4
3638.432	-379.4
3641.208	-388.4
3643.982	-403.4
3646.753	-395.4
3649.523	-412.4
3652.29	-413.4
3655.055	-429.4
3657.818	-440.4
3660.579	-447.4
3663.338	-459.4
3666.095	-463.4
3668.849	-481.4
3671.602	-483.4
3674.352	-494.4
3677.101	-496.4
3679.847	-497.4
3682.591	-511.4
3685.333	-511.4
3688.073	-517.4
3690.811	-529.4
3693.547	-528.4
3696.281	-536.4
3699.013	-535.4
3701.742	-546.4
3704.47	-541.4
3707.195	-553.4
3709.919	-557.4
3712.64	-559.4
3715.359	-563.4
3718.076	-567.4
3720.792	-572.4
3723.505	-571.4
3726.216	-582.4
3728.925	-578.4
3731.632	-586.4
3734.336	-581.4
3737.039	-586.4
3739.74	-581.4
3742.439	-588.4
3745.136	-590.4
3747.83	-595.4
3750.523	-593.4
3753.213	-580.4
3755.902	-595.4
3758.589	-600.4
3761.273	-605.4
3763.956	-604.4
3766.636	-611.4
3769.315	-614.4
3771.991	-609.4
3774.665	-612.4
3777.338	-617.4
3780.008	-612.4
3782.677	-615.4
3785.343	-610.4
3788.007	-621.4
3790.67	-618.4
3793.33	-621.4
3795.989	-623.4
3798.645	-620.4
3801.299	-618.4
3803.952	-629.4
3806.602	-632.4
3809.251	-634.4
3811.897	-633.4
3814.542	-633.4
3817.184	-624.4
3819.825	-626.4
3822.463	-620.4
3825.1	-627.4
3827.735	-627.4
3830.367	-625.4
3832.998	-634.4
3835.627	-637.4
3838.253	-643.4
3840.878	-642.4
3843.501	-642.4
3846.122	-637.4
3848.741	-639.4
3851.358	-640.4
3853.973	-636.4
3856.586	-635.4
3859.197	-644.4
3861.806	-640.4
3864.414	-638.4
3867.019	-637.4
3869.622	-642.4
3872.224	-632.4
3874.823	-617.4
3877.421	-607.4
3880.016	-592.4
3882.61	-567.4
3885.202	-571.4
3887.792	-572.4
3890.38	-609.4
3892.966	-624.4
3895.55	-635.4
3898.132	-648.4
3900.713	-648.4
3903.291	-647.4
3905.868	-650.4
3908.442	-656.4
3911.015	-653.4
3913.586	-647.4
3916.155	-650.4
3918.722	-654.4
3921.287	-651.4
3923.85	-658.4
3926.411	-659.4
3928.971	-658.4
3931.528	-655.4
3934.084	-659.4
3936.638	-653.4
3939.19	-659.4
3941.74	-653.4
3944.288	-659.4
3946.834	-650.4
3949.378	-656.4
3951.921	-659.4
3954.462	-661.4
3957	-655.4
3959.537	-656.4
3962.072	-656.4
3964.606	-656.4
3967.137	-661.4
3969.667	-660.4
3972.194	-648.4
3974.72	-653.4
3977.244	-645.4
3979.766	-644.4
3982.286	-643.4
3984.805	-643.4
3987.321	-642.4
3989.836	-644.4
3992.349	-632.4
3994.86	-637.4
3997.369	-645.4
3999.877	-640.4
4002.382	-638.4
4004.886	-639.4
4007.388	-639.4
4009.888	-638.4
4012.386	-643.4
4014.883	-636.4
4017.377	-632.4
4019.87	-638.4
4022.361	-641.4
4024.85	-642.4
4027.338	-643.4
4029.823	-641.4
4032.307	-643.4
4034.789	-641.4
4037.269	-639.4
4039.747	-644.4
4042.224	-648.4
4044.699	-643.4
4047.172	-644.4
4049.643	-641.4
4052.112	-644.4
4054.58	-646.4
4057.046	-648.4
4059.51	-645.4
4061.972	-645.4
4064.432	-648.4
4066.891	-639.4
4069.348	-642.4
4071.803	-636.4
4074.256	-646.4
4076.708	-641.4
4079.158	-643.4
4081.606	-648.4
4084.052	-651.4
4086.497	-647.4
4088.939	-638.4
4091.38	-644.4
4093.819	-638.4
4096.257	-679.4
4098.693	-679.4
4101.127	-683.4
4103.559	-678.4
4105.989	-382.4
4108.418	-362.4
4110.845	-341.4
4113.27	-302.4
4115.694	-273.4
4118.115	-228.4
4120.535	-636.4
4122.954	-643.4
4125.37	-636.4
4127.785	-643.4
4130.198	-644.4
4132.609	-647.4
4135.019	-681.4
4137.427	-682.4
4139.833	-680.4
4142.237	-678.4
