Data from 2018-2-14_ethanol_n=1_RamanShift_02.txt Node
Date: Wed Feb 14 10:22:26 IST 2018
User: aro
Spectrometer: QEPB0276
Trigger mode: 0
Integration Time (sec): 3.000000E1
Scans to average: 1
Electric dark correction enabled: true
Nonlinearity correction enabled: false
Boxcar width: 0
XAxis mode: Raman Shifts
Number of Pixels in Spectrum: 1044
>>>>>Begin Spectral Data<<<<<
160.701	-42.8
166.742	36.2
172.777	248.2
178.805	887.2
184.826	2383.2
190.841	4816.2
196.849	7484.2
202.85	9242.2
208.845	9694.2
214.833	9422.2
220.815	9198.2
226.789	9088.2
232.758	9019.2
238.719	8970.2
244.674	8903.2
250.623	8830.2
256.565	8794.2
262.5	8770.2
268.429	8753.2
274.351	8728.2
280.267	8587.2
286.176	8402.2
292.079	8171.2
297.975	7907.2
303.865	7625.2
309.748	7337.2
315.625	7168.2
321.495	6923.2
327.359	6832.2
333.217	6751.2
339.068	6686.2
344.912	6651.2
350.751	6670.2
356.583	6623.2
362.408	6714.2
368.227	6781.2
374.04	6919.2
379.847	7063.2
385.647	7331.2
391.44	7595.2
397.228	8026.2
403.009	8556.2
408.784	9434.2
414.553	10759.2
420.315	12993.2
426.071	16244.2
431.821	19949.2
437.565	22425.2
443.302	22229.2
449.033	19807.2
454.758	16600.2
460.477	13691.2
466.189	11582.2
471.896	9974.2
477.596	8884.2
483.29	8134.2
488.978	7623.2
494.66	7246.2
500.335	6906.2
506.005	6535.2
511.668	6180.2
517.325	5880.2
522.977	5642.2
528.622	5483.2
534.261	5321.2
539.894	5284.2
545.521	5166.2
551.141	5121.2
556.756	5115.2
562.365	5096.2
567.968	5050.2
573.565	5027.2
579.155	5010.2
584.74	5013.2
590.319	5009.2
595.892	5008.2
601.459	5033.2
607.02	5041.2
612.575	5007.2
618.124	4979.2
623.667	4936.2
629.204	4922.2
634.735	4897.2
640.261	4886.2
645.781	4885.2
651.294	4842.2
656.802	4871.2
662.304	4851.2
667.8	4864.2
673.29	4856.2
678.775	4823.2
684.254	4862.2
689.726	4789.2
695.193	4797.2
700.655	4776.2
706.11	4785.2
711.56	4755.2
717.004	4781.2
722.442	4738.2
727.874	4766.2
733.301	4794.2
738.722	4779.2
744.137	4859.2
749.547	4874.2
754.951	4930.2
760.349	5002.2
765.741	5084.2
771.128	5171.2
776.509	5344.2
781.885	5521.2
787.254	5673.2
792.618	5902.2
797.977	6123.2
803.33	6460.2
808.677	6788.2
814.019	7078.2
819.355	7222.2
824.686	7346.2
830.011	7548.2
835.33	7911.2
840.644	8501.2
845.952	9375.2
851.255	10681.2
856.552	12767.2
861.844	16252.2
867.13	23210.2
872.41	38003.2
877.686	62795.2
882.955	62795.2
888.219	62793.2
893.478	62792.2
898.731	62798.2
903.979	50320.2
909.221	22785.2
914.458	15714.2
919.69	12332.2
924.916	10362.2
930.136	9163.2
935.351	8242.2
940.561	7653.2
945.766	7220.2
950.965	6919.2
956.158	6687.2
961.347	6485.2
966.529	6344.2
971.707	6289.2
976.879	6335.2
982.046	6433.2
987.208	6605.2
992.364	6922.2
997.515	7387.2
1002.66	8057.2
1007.801	8952.2
1012.936	10210.2
1018.066	11932.2
1023.19	14396.2
1028.309	17736.2
1033.423	22150.2
1038.532	27666.2
1043.636	34299.2
1048.734	41946.2
1053.827	48203.2
1058.915	48956.2
1063.998	43264.2
1069.075	35390.2
1074.147	30641.2
1079.214	30204.2
1084.276	33366.2
1089.333	39307.2
1094.385	46396.2
1099.431	50798.2
1104.472	48721.2
1109.509	40474.2
1114.54	31256.2
1119.565	25426.2
1124.586	22074.2
1129.602	19443.2
1134.613	16728.2
1139.618	14159.2
1144.619	12114.2
1149.614	10655.2
1154.604	9709.2
1159.589	8976.2
1164.57	8311.2
1169.545	7774.2
1174.515	7250.2
1179.48	6772.2
1184.44	6444.2
1189.395	6215.2
1194.345	6044.2
1199.29	5954.2
1204.23	5961.2
1209.165	5996.2
1214.095	6078.2
1219.021	6261.2
1223.941	6513.2
1228.856	6859.2
1233.766	7293.2
1238.672	7776.2
1243.572	8330.2
1248.467	8891.2
1253.358	9633.2
1258.244	10707.2
1263.124	12341.2
1268	14981.2
1272.871	18846.2
1277.737	22867.2
1282.599	24361.2
1287.455	22245.2
1292.306	18189.2
1297.153	14636.2
1301.995	12398.2
1306.832	11048.2
1311.664	10216.2
1316.491	9692.2
1321.314	9229.2
1326.132	8961.2
1330.945	8676.2
1335.753	8455.2
1340.556	8290.2
1345.354	8189.2
1350.148	8202.2
1354.937	8361.2
1359.722	8645.2
1364.501	9005.2
1369.276	9526.2
1374.046	10313.2
1378.811	11375.2
1383.572	12459.2
1388.327	13337.2
1393.079	13804.2
1397.825	14073.2
1402.567	14478.2
1407.304	15144.2
1412.036	16157.2
1416.764	17329.2
1421.487	18789.2
1426.205	20527.2
1430.919	22741.2
1435.628	25660.2
1440.333	29973.2
1445.032	36357.2
1449.727	45117.2
1454.418	53808.2
1459.104	58607.2
1463.785	55587.2
1468.462	46606.2
1473.134	37285.2
1477.802	31327.2
1482.465	28818.2
1487.123	27459.2
1491.777	25466.2
1496.426	22293.2
1501.071	18906.2
1505.711	16193.2
1510.347	14296.2
1514.978	12910.2
1519.604	11865.2
1524.226	10943.2
1528.844	10135.2
1533.457	9386.2
1538.065	8748.2
1542.669	8139.2
1547.269	7543.2
1551.864	7137.2
1556.454	6681.2
1561.041	6295.2
1565.622	5980.2
1570.199	5683.2
1574.772	5442.2
1579.34	5207.2
1583.904	5013.2
1588.464	4811.2
1593.019	4628.2
1597.569	4470.2
1602.115	4333.2
1606.657	4249.2
1611.195	4171.2
1615.728	4140.2
1620.256	4131.2
1624.78	4054.2
1629.3	3933.2
1633.816	3761.2
1638.327	3624.2
1642.834	3508.2
1647.336	3416.2
1651.834	3369.2
1656.328	3276.2
1660.817	3260.2
1665.302	3229.2
1669.783	3182.2
1674.259	3143.2
1678.732	3106.2
1683.199	3066.2
1687.663	3006.2
1692.122	2971.2
1696.577	2989.2
1701.028	3003.2
1705.474	3030.2
1709.917	3112.2
1714.355	3110.2
1718.788	3056.2
1723.218	3010.2
1727.643	2939.2
1732.064	2847.2
1736.481	2779.2
1740.893	2642.2
1745.301	2548.2
1749.705	2473.2
1754.105	2368.2
1758.501	2287.2
1762.893	2200.2
1767.28	2122.2
1771.663	2062.2
1776.042	1993.2
1780.417	1965.2
1784.787	1966.2
1789.154	1958.2
1793.516	1977.2
1797.874	2036.2
1802.228	2028.2
1806.578	2058.2
1810.924	2048.2
1815.266	2031.2
1819.603	1984.2
1823.937	1948.2
1828.266	1897.2
1832.591	1894.2
1836.913	1846.2
1841.23	1844.2
1845.543	1812.2
1849.852	1820.2
1854.156	1794.2
1858.457	1817.2
1862.754	1804.2
1867.047	1838.2
1871.335	1832.2
1875.62	1849.2
1879.9	1857.2
1884.177	1850.2
1888.449	1851.2
1892.718	1835.2
1896.982	1836.2
1901.243	1823.2
1905.499	1805.2
1909.752	1772.2
1914	1822.2
1918.245	1810.2
1922.485	1808.2
1926.722	1853.2
1930.954	1882.2
1935.183	1890.2
1939.408	1899.2
1943.628	1884.2
1947.845	1898.2
1952.058	1894.2
1956.267	1886.2
1960.472	1873.2
1964.673	1860.2
1968.87	1807.2
1973.063	1788.2
1977.252	1771.2
1981.438	1737.2
1985.619	1714.2
1989.797	1678.2
1993.971	1653.2
1998.14	1644.2
2002.306	1616.2
2006.469	1588.2
2010.627	1592.2
2014.781	1582.2
2018.932	1539.2
2023.078	1538.2
2027.221	1516.2
2031.36	1491.2
2035.495	1477.2
2039.627	1460.2
2043.754	1443.2
2047.878	1440.2
2051.998	1427.2
2056.114	1427.2
2060.226	1458.2
2064.334	1470.2
2068.439	1494.2
2072.54	1511.2
2076.637	1565.2
2080.73	1624.2
2084.82	1677.2
2088.906	1684.2
2092.988	1749.2
2097.066	1737.2
2101.14	1763.2
2105.211	1701.2
2109.278	1647.2
2113.342	1625.2
2117.401	1608.2
2121.457	1588.2
2125.509	1592.2
2129.558	1584.2
2133.602	1597.2
2137.643	1582.2
2141.681	1579.2
2145.714	1567.2
2149.744	1546.2
2153.77	1556.2
2157.793	1531.2
2161.812	1523.2
2165.827	1520.2
2169.838	1519.2
2173.846	1535.2
2177.851	1520.2
2181.851	1494.2
2185.848	1493.2
2189.841	1482.2
2193.831	1467.2
2197.817	1460.2
2201.799	1465.2
2205.778	1438.2
2209.753	1468.2
2213.725	1477.2
2217.693	1481.2
2221.657	1502.2
2225.618	1495.2
2229.575	1498.2
2233.529	1533.2
2237.479	1546.2
2241.425	1598.2
2245.368	1584.2
2249.307	1635.2
2253.243	1652.2
2257.175	1670.2
2261.104	1652.2
2265.029	1654.2
2268.95	1630.2
2272.868	1618.2
2276.783	1645.2
2280.694	1659.2
2284.601	1662.2
2288.505	1660.2
2292.405	1625.2
2296.302	1592.2
2300.195	1562.2
2304.085	1529.2
2307.971	1475.2
2311.854	1450.2
2315.734	1400.2
2319.609	1374.2
2323.482	1368.2
2327.351	1358.2
2331.216	1375.2
2335.078	1363.2
2338.937	1328.2
2342.792	1324.2
2346.643	1302.2
2350.492	1310.2
2354.336	1302.2
2358.178	1288.2
2362.015	1307.2
2365.85	1310.2
2369.681	1288.2
2373.508	1281.2
2377.333	1277.2
2381.153	1264.2
2384.971	1249.2
2388.785	1251.2
2392.595	1246.2
2396.402	1267.2
2400.206	1266.2
2404.007	1264.2
2407.804	1282.2
2411.597	1293.2
2415.388	1294.2
2419.174	1296.2
2422.958	1321.2
2426.738	1327.2
2430.515	1330.2
2434.289	1345.2
2438.059	1355.2
2441.825	1359.2
2445.589	1351.2
2449.349	1367.2
2453.106	1378.2
2456.859	1387.2
2460.61	1402.2
2464.356	1422.2
2468.1	1425.2
2471.84	1421.2
2475.577	1429.2
2479.311	1448.2
2483.041	1425.2
2486.768	1438.2
2490.492	1435.2
2494.213	1452.2
2497.93	1464.2
2501.644	1478.2
2505.355	1471.2
2509.062	1513.2
2512.766	1539.2
2516.467	1556.2
2520.165	1575.2
2523.859	1640.2
2527.551	1693.2
2531.239	1773.2
2534.923	1847.2
2538.605	1929.2
2542.283	2024.2
2545.958	2134.2
2549.63	2198.2
2553.299	2251.2
2556.964	2213.2
2560.626	2179.2
2564.285	2127.2
2567.941	2099.2
2571.594	2060.2
2575.243	2050.2
2578.89	2030.2
2582.533	2042.2
2586.173	2056.2
2589.809	2056.2
2593.443	2062.2
2597.073	2073.2
2600.701	2087.2
2604.325	2109.2
2607.946	2051.2
2611.564	2069.2
2615.178	2058.2
2618.79	2035.2
2622.398	2038.2
2626.004	2037.2
2629.606	2017.2
2633.205	2044.2
2636.801	2053.2
2640.394	2072.2
2643.983	2094.2
2647.57	2136.2
2651.153	2189.2
2654.734	2191.2
2658.311	2228.2
2661.885	2282.2
2665.456	2328.2
2669.025	2395.2
2672.589	2491.2
2676.151	2585.2
2679.71	2730.2
2683.266	2872.2
2686.819	3049.2
2690.368	3274.2
2693.915	3537.2
2697.458	3890.2
2700.999	4250.2
2704.536	4762.2
2708.071	5240.2
2711.602	5716.2
2715.13	6085.2
2718.656	6311.2
2722.178	6448.2
2725.697	6426.2
2729.214	6308.2
2732.727	6098.2
2736.237	5890.2
2739.744	5767.2
2743.249	5730.2
2746.75	5814.2
2750.248	5911.2
2753.743	6028.2
2757.236	6019.2
2760.725	5882.2
2764.211	5699.2
2767.695	5531.2
2771.175	5351.2
2774.652	5263.2
2778.127	5229.2
2781.598	5244.2
2785.067	5341.2
2788.532	5480.2
2791.995	5692.2
2795.455	5937.2
2798.911	6264.2
2802.365	6667.2
2805.816	7100.2
2809.264	7604.2
2812.709	8207.2
2816.151	8892.2
2819.59	9727.2
2823.026	10651.2
2826.46	11803.2
2829.89	12971.2
2833.318	14207.2
2836.742	15394.2
2840.164	16407.2
2843.583	17285.2
2846.999	18090.2
2850.412	19041.2
2853.822	20302.2
2857.229	21823.2
2860.634	23836.2
2864.035	26301.2
2867.434	29376.2
2870.83	33217.2
2874.223	37362.2
2877.613	41312.2
2881	43862.2
2884.385	44812.2
2887.766	44338.2
2891.145	43161.2
2894.521	41615.2
2897.894	40027.2
2901.264	38402.2
2904.631	37100.2
2907.996	36146.2
2911.358	35808.2
2914.717	36433.2
2918.073	37966.2
2921.426	40851.2
2924.777	44955.2
2928.124	49803.2
2931.469	53511.2
2934.811	53956.2
2938.15	50974.2
2941.487	45878.2
2944.821	40399.2
2948.152	35590.2
2951.48	31452.2
2954.805	28191.2
2958.128	25847.2
2961.447	24382.2
2964.765	23805.2
2968.079	23963.2
2971.39	24395.2
2974.699	24789.2
2978.005	24605.2
2981.308	23606.2
2984.609	21730.2
2987.907	19374.2
2991.202	17026.2
2994.494	14852.2
2997.784	13035.2
3001.07	11528.2
3004.355	10239.2
3007.636	9202.2
3010.915	8291.2
3014.191	7479.2
3017.464	6870.2
3020.734	6231.2
3024.002	5726.2
3027.267	5253.2
3030.53	4862.2
3033.789	4506.2
3037.046	4168.2
3040.301	3906.2
3043.552	3649.2
3046.801	3433.2
3050.048	3242.2
3053.291	3072.2
3056.532	2901.2
3059.771	2769.2
3063.006	2651.2
3066.239	2540.2
3069.469	2426.2
3072.697	2324.2
3075.922	2232.2
3079.144	2117.2
3082.364	2050.2
3085.581	1958.2
3088.795	1883.2
3092.007	1807.2
3095.216	1727.2
3098.423	1662.2
3101.627	1619.2
3104.828	1569.2
3108.026	1539.2
3111.222	1469.2
3114.416	1455.2
3117.607	1404.2
3120.795	1371.2
3123.98	1361.2
3127.163	1356.2
3130.344	1328.2
3133.521	1308.2
3136.696	1298.2
3139.869	1286.2
3143.039	1298.2
3146.206	1259.2
3149.371	1243.2
3152.533	1241.2
3155.693	1225.2
3158.85	1195.2
3162.005	1203.2
3165.157	1190.2
3168.306	1175.2
3171.453	1152.2
3174.597	1173.2
3177.739	1163.2
3180.878	1147.2
3184.014	1168.2
3187.149	1145.2
3190.28	1140.2
3193.409	1142.2
3196.536	1148.2
3199.659	1167.2
3202.781	1159.2
3205.9	1161.2
3209.016	1163.2
3212.13	1158.2
3215.241	1165.2
3218.35	1157.2
3221.456	1142.2
3224.56	1156.2
3227.661	1127.2
3230.76	1129.2
3233.856	1123.2
3236.95	1119.2
3240.041	1115.2
3243.13	1103.2
3246.216	1115.2
3249.3	1098.2
3252.382	1112.2
3255.46	1089.2
3258.537	1096.2
3261.611	1102.2
3264.682	1095.2
3267.751	1088.2
3270.818	1098.2
3273.882	1088.2
3276.943	1090.2
3280.002	1081.2
3283.059	1057.2
3286.113	1065.2
3289.165	1042.2
3292.214	1027.2
3295.261	1006.2
3298.306	996.2
3301.348	973.2
3304.387	958.2
3307.425	939.2
3310.459	913.2
3313.492	903.2
3316.521	898.2
3319.549	885.2
3322.574	870.2
3325.597	851.2
3328.617	840.2
3331.635	840.2
3334.65	837.2
3337.663	830.2
3340.674	823.2
3343.682	808.2
3346.688	823.2
3349.691	820.2
3352.692	791.2
3355.691	789.2
3358.687	786.2
3361.681	755.2
3364.673	764.2
3367.662	720.2
3370.649	715.2
3373.633	696.2
3376.615	676.2
3379.595	661.2
3382.572	654.2
3385.547	644.2
3388.52	624.2
3391.49	622.2
3394.458	592.2
3397.424	584.2
3400.387	564.2
3403.348	554.2
3406.307	535.2
3409.263	547.2
3412.217	539.2
3415.168	514.2
3418.118	500.2
3421.065	490.2
3424.009	486.2
3426.951	468.2
3429.891	443.2
3432.829	429.2
3435.764	411.2
3438.697	393.2
3441.628	374.2
3444.557	357.2
3447.483	338.2
3450.407	322.2
3453.328	309.2
3456.247	281.2
3459.164	283.2
3462.079	262.2
3464.991	234.2
3467.902	222.2
3470.809	202.2
3473.715	189.2
3476.618	180.2
3479.519	155.2
3482.418	150.2
3485.315	138.2
3488.209	130.2
3491.101	129.2
3493.99	105.2
3496.878	98.2
3499.763	89.2
3502.646	81.2
3505.527	64.2
3508.405	59.2
3511.281	45.2
3514.155	32.2
3517.027	35.2
3519.897	12.2
3522.764	-0.8
3525.629	-1.8
3528.492	-14.8
3531.352	-21.8
3534.211	-26.8
3537.067	-43.8
3539.921	-55.8
3542.773	-59.8
3545.622	-65.8
3548.469	-80.8
3551.315	-81.8
3554.157	-85.8
3556.998	-102.8
3559.837	-109.8
3562.673	-111.8
3565.507	-114.8
3568.339	-127.8
3571.169	-123.8
3573.996	-126.8
3576.822	-129.8
3579.645	-141.8
3582.466	-145.8
3585.285	-151.8
3588.101	-150.8
3590.916	-158.8
3593.728	-165.8
3596.538	-162.8
3599.346	-173.8
3602.152	-172.8
3604.956	-170.8
3607.757	-173.8
3610.556	-180.8
3613.354	-185.8
3616.149	-182.8
3618.942	-190.8
3621.732	-187.8
3624.521	-196.8
3627.307	-191.8
3630.092	-199.8
3632.874	-203.8
3635.654	-200.8
3638.432	-200.8
3641.208	-200.8
3643.982	-210.8
3646.753	-206.8
3649.523	-212.8
3652.29	-208.8
3655.055	-207.8
3657.818	-216.8
3660.579	-215.8
3663.338	-225.8
3666.095	-222.8
3668.849	-227.8
3671.602	-222.8
3674.352	-221.8
3677.101	-226.8
3679.847	-220.8
3682.591	-226.8
3685.333	-226.8
3688.073	-224.8
3690.811	-223.8
3693.547	-229.8
3696.281	-226.8
3699.013	-226.8
3701.742	-235.8
3704.47	-233.8
3707.195	-235.8
3709.919	-233.8
3712.64	-235.8
3715.359	-234.8
3718.076	-227.8
3720.792	-229.8
3723.505	-233.8
3726.216	-241.8
3728.925	-234.8
3731.632	-239.8
3734.336	-234.8
3737.039	-239.8
3739.74	-236.8
3742.439	-240.8
3745.136	-237.8
3747.83	-246.8
3750.523	-241.8
3753.213	-235.8
3755.902	-244.8
3758.589	-242.8
3761.273	-241.8
3763.956	-250.8
3766.636	-243.8
3769.315	-242.8
3771.991	-244.8
3774.665	-255.8
3777.338	-244.8
3780.008	-253.8
3782.677	-245.8
3785.343	-243.8
3788.007	-244.8
3790.67	-243.8
3793.33	-249.8
3795.989	-242.8
3798.645	-242.8
3801.299	-244.8
3803.952	-252.8
3806.602	-255.8
3809.251	-260.8
3811.897	-259.8
3814.542	-250.8
3817.184	-250.8
3819.825	-245.8
3822.463	-246.8
3825.1	-253.8
3827.735	-241.8
3830.367	-242.8
3832.998	-253.8
3835.627	-255.8
3838.253	-254.8
3840.878	-256.8
3843.501	-254.8
3846.122	-253.8
3848.741	-250.8
3851.358	-253.8
3853.973	-252.8
3856.586	-255.8
3859.197	-254.8
3861.806	-260.8
3864.414	-256.8
3867.019	-247.8
3869.622	-251.8
3872.224	-238.8
3874.823	-231.8
3877.421	-221.8
3880.016	-206.8
3882.61	-173.8
3885.202	-175.8
3887.792	-193.8
3890.38	-216.8
3892.966	-241.8
3895.55	-246.8
3898.132	-262.8
3900.713	-269.8
3903.291	-259.8
3905.868	-262.8
3908.442	-264.8
3911.015	-267.8
3913.586	-259.8
3916.155	-252.8
3918.722	-264.8
3921.287	-263.8
3923.85	-264.8
3926.411	-261.8
3928.971	-263.8
3931.528	-268.8
3934.084	-264.8
3936.638	-267.8
3939.19	-262.8
3941.74	-264.8
3944.288	-261.8
3946.834	-256.8
3949.378	-262.8
3951.921	-263.8
3954.462	-266.8
3957	-258.8
3959.537	-264.8
3962.072	-255.8
3964.606	-267.8
3967.137	-266.8
3969.667	-262.8
3972.194	-261.8
3974.72	-265.8
3977.244	-250.8
3979.766	-254.8
3982.286	-260.8
3984.805	-253.8
3987.321	-253.8
3989.836	-262.8
3992.349	-253.8
3994.86	-256.8
3997.369	-264.8
3999.877	-255.8
4002.382	-260.8
4004.886	-255.8
4007.388	-253.8
4009.888	-250.8
4012.386	-257.8
4014.883	-251.8
4017.377	-256.8
4019.87	-251.8
4022.361	-255.8
4024.85	-253.8
4027.338	-258.8
4029.823	-261.8
4032.307	-268.8
4034.789	-256.8
4037.269	-253.8
4039.747	-259.8
4042.224	-260.8
4044.699	-261.8
4047.172	-254.8
4049.643	-256.8
4052.112	-263.8
4054.58	-262.8
4057.046	-260.8
4059.51	-262.8
4061.972	-269.8
4064.432	-268.8
4066.891	-265.8
4069.348	-259.8
4071.803	-259.8
4074.256	-256.8
4076.708	-250.8
4079.158	-255.8
4081.606	-259.8
4084.052	-258.8
4086.497	-255.8
4088.939	-247.8
4091.38	-252.8
4093.819	-249.8
4096.257	-282.8
4098.693	-284.8
4101.127	-282.8
4103.559	-279.8
4105.989	-109.8
4108.418	-103.8
4110.845	-101.8
4113.27	-90.8
4115.694	-82.8
4118.115	-82.8
4120.535	-256.8
4122.954	-252.8
4125.37	-245.8
4127.785	-252.8
4130.198	-258.8
4132.609	-255.8
4135.019	-282.8
4137.427	-280.8
4139.833	-285.8
4142.237	-279.8
