Data from 2018-2-14_conc=5_n=2_RamanShift_03.txt Node
Date: Wed Feb 14 14:08:25 IST 2018
User: aro
Spectrometer: QEPB0276
Trigger mode: 0
Integration Time (sec): 3.000000E1
Scans to average: 1
Electric dark correction enabled: true
Nonlinearity correction enabled: false
Boxcar width: 0
XAxis mode: Raman Shifts
Number of Pixels in Spectrum: 1044
>>>>>Begin Spectral Data<<<<<
160.701	-143.2
166.742	45.8
172.777	571.8
178.805	2161.8
184.826	6037.8
190.841	12554.8
196.849	20125.8
202.85	25457.8
208.845	27294.8
214.833	27006.8
220.815	26499.8
226.789	26398.8
232.758	26233.8
238.719	26042.8
244.674	25640.8
250.623	25312.8
256.565	24726.8
262.5	24233.8
268.429	23836.8
274.351	23424.8
280.267	23161.8
286.176	22864.8
292.079	22681.8
297.975	22464.8
303.865	22292.8
309.748	22197.8
315.625	21948.8
321.495	21897.8
327.359	21806.8
333.217	21748.8
339.068	21738.8
344.912	21701.8
350.751	21688.8
356.583	21586.8
362.408	21527.8
368.227	21612.8
374.04	21610.8
379.847	21632.8
385.647	21750.8
391.44	21851.8
397.228	21873.8
403.009	22034.8
408.784	22044.8
414.553	22070.8
420.315	22155.8
426.071	22095.8
431.821	22100.8
437.565	22095.8
443.302	22077.8
449.033	22080.8
454.758	22004.8
460.477	21999.8
466.189	21926.8
471.896	21861.8
477.596	21830.8
483.29	21751.8
488.978	21747.8
494.66	21742.8
500.335	21558.8
506.005	21411.8
511.668	21080.8
517.325	20980.8
522.977	20706.8
528.622	20531.8
534.261	20428.8
539.894	20414.8
545.521	20361.8
551.141	20232.8
556.756	20213.8
562.365	20115.8
567.968	20008.8
573.565	19937.8
579.155	19869.8
584.74	19806.8
590.319	19731.8
595.892	19642.8
601.459	19614.8
607.02	19423.8
612.575	19339.8
618.124	19279.8
623.667	19112.8
629.204	19096.8
634.735	18941.8
640.261	18879.8
645.781	18855.8
651.294	18823.8
656.802	18765.8
662.304	18772.8
667.8	18729.8
673.29	18690.8
678.775	18664.8
684.254	18613.8
689.726	18515.8
695.193	18495.8
700.655	18384.8
706.11	18340.8
711.56	18209.8
717.004	18127.8
722.442	18065.8
727.874	17984.8
733.301	17878.8
738.722	17844.8
744.137	17824.8
749.547	17903.8
754.951	17831.8
760.349	17799.8
765.741	17826.8
771.128	17847.8
776.509	17874.8
781.885	17784.8
787.254	17843.8
792.618	17752.8
797.977	17620.8
803.33	17499.8
808.677	17433.8
814.019	17358.8
819.355	17246.8
824.686	17133.8
830.011	17148.8
835.33	17152.8
840.644	17126.8
845.952	17146.8
851.255	17236.8
856.552	17244.8
861.844	17170.8
867.13	17187.8
872.41	17150.8
877.686	17001.8
882.955	16872.8
888.219	16755.8
893.478	16587.8
898.731	16361.8
903.979	16170.8
909.221	16158.8
914.458	16044.8
919.69	15998.8
924.916	16042.8
930.136	16112.8
935.351	16112.8
940.561	16165.8
945.766	16079.8
950.965	16021.8
956.158	15928.8
961.347	15790.8
966.529	15555.8
971.707	15335.8
976.879	15159.8
982.046	15108.8
987.208	15013.8
992.364	15011.8
997.515	15091.8
1002.66	15272.8
1007.801	15447.8
1012.936	15517.8
1018.066	15524.8
1023.19	15530.8
1028.309	15547.8
1033.423	15519.8
1038.532	15410.8
1043.636	15317.8
1048.734	15085.8
1053.827	14911.8
1058.915	14728.8
1063.998	14619.8
1069.075	14638.8
1074.147	14631.8
1079.214	14707.8
1084.276	14715.8
1089.333	14855.8
1094.385	14945.8
1099.431	15002.8
1104.472	14961.8
1109.509	14870.8
1114.54	14719.8
1119.565	14508.8
1124.586	14333.8
1129.602	14247.8
1134.613	14091.8
1139.618	14029.8
1144.619	14015.8
1149.614	14007.8
1154.604	13982.8
1159.589	14068.8
1164.57	14055.8
1169.545	14158.8
1174.515	14108.8
1179.48	14066.8
1184.44	13978.8
1189.395	13827.8
1194.345	13737.8
1199.29	13619.8
1204.23	13663.8
1209.165	13711.8
1214.095	13808.8
1219.021	13905.8
1223.941	13929.8
1228.856	13983.8
1233.766	14060.8
1238.672	14089.8
1243.572	14069.8
1248.467	13955.8
1253.358	13836.8
1258.244	13632.8
1263.124	13441.8
1268	13245.8
1272.871	13064.8
1277.737	13007.8
1282.599	12904.8
1287.455	12878.8
1292.306	12901.8
1297.153	12997.8
1301.995	13075.8
1306.832	13062.8
1311.664	13097.8
1316.491	13137.8
1321.314	12921.8
1326.132	12780.8
1330.945	12455.8
1335.753	12117.8
1340.556	11843.8
1345.354	11647.8
1350.148	11460.8
1354.937	11385.8
1359.722	11420.8
1364.501	11499.8
1369.276	11648.8
1374.046	11853.8
1378.811	12046.8
1383.572	12192.8
1388.327	12193.8
1393.079	12099.8
1397.825	11939.8
1402.567	11771.8
1407.304	11569.8
1412.036	11439.8
1416.764	11427.8
1421.487	11311.8
1426.205	11224.8
1430.919	11193.8
1435.628	11172.8
1440.333	11219.8
1445.032	11235.8
1449.727	11252.8
1454.418	11216.8
1459.104	11115.8
1463.785	10915.8
1468.462	10745.8
1473.134	10521.8
1477.802	10303.8
1482.465	10144.8
1487.123	10055.8
1491.777	10011.8
1496.426	10104.8
1501.071	10286.8
1505.711	10456.8
1510.347	10636.8
1514.978	10876.8
1519.604	11022.8
1524.226	11100.8
1528.844	11151.8
1533.457	11083.8
1538.065	11034.8
1542.669	10933.8
1547.269	10805.8
1551.864	10760.8
1556.454	10717.8
1561.041	10696.8
1565.622	10638.8
1570.199	10639.8
1574.772	10720.8
1579.34	10766.8
1583.904	10784.8
1588.464	10865.8
1593.019	10828.8
1597.569	10772.8
1602.115	10697.8
1606.657	10627.8
1611.195	10581.8
1615.728	10529.8
1620.256	10419.8
1624.78	10440.8
1629.3	10426.8
1633.816	10513.8
1638.327	10563.8
1642.834	10586.8
1647.336	10663.8
1651.834	10673.8
1656.328	10674.8
1660.817	10579.8
1665.302	10490.8
1669.783	10379.8
1674.259	10107.8
1678.732	9858.8
1683.199	9578.8
1687.663	9233.8
1692.122	8978.8
1696.577	8842.8
1701.028	8902.8
1705.474	9059.8
1709.917	9126.8
1714.355	9193.8
1718.788	9076.8
1723.218	8990.8
1727.643	8764.8
1732.064	8587.8
1736.481	8382.8
1740.893	8216.8
1745.301	7969.8
1749.705	7772.8
1754.105	7550.8
1758.501	7303.8
1762.893	7108.8
1767.28	6992.8
1771.663	6806.8
1776.042	6695.8
1780.417	6613.8
1784.787	6631.8
1789.154	6755.8
1793.516	6874.8
1797.874	7065.8
1802.228	7200.8
1806.578	7257.8
1810.924	7247.8
1815.266	7166.8
1819.603	7064.8
1823.937	6961.8
1828.266	6821.8
1832.591	6725.8
1836.913	6643.8
1841.23	6535.8
1845.543	6477.8
1849.852	6447.8
1854.156	6438.8
1858.457	6415.8
1862.754	6414.8
1867.047	6410.8
1871.335	6401.8
1875.62	6405.8
1879.9	6340.8
1884.177	6347.8
1888.449	6289.8
1892.718	6227.8
1896.982	6175.8
1901.243	6139.8
1905.499	6080.8
1909.752	6027.8
1914	6066.8
1918.245	6095.8
1922.485	6173.8
1926.722	6260.8
1930.954	6358.8
1935.183	6432.8
1939.408	6513.8
1943.628	6539.8
1947.845	6573.8
1952.058	6518.8
1956.267	6434.8
1960.472	6375.8
1964.673	6253.8
1968.87	6158.8
1973.063	6097.8
1977.252	5970.8
1981.438	5876.8
1985.619	5840.8
1989.797	5793.8
1993.971	5730.8
1998.14	5732.8
2002.306	5712.8
2006.469	5680.8
2010.627	5608.8
2014.781	5608.8
2018.932	5528.8
2023.078	5487.8
2027.221	5417.8
2031.36	5328.8
2035.495	5264.8
2039.627	5164.8
2043.754	5101.8
2047.878	5078.8
2051.998	5048.8
2056.114	5027.8
2060.226	5039.8
2064.334	5028.8
2068.439	5049.8
2072.54	5084.8
2076.637	5114.8
2080.73	5166.8
2084.82	5157.8
2088.906	5217.8
2092.988	5222.8
2097.066	5223.8
2101.14	5157.8
2105.211	5148.8
2109.278	5123.8
2113.342	5086.8
2117.401	5054.8
2121.457	5035.8
2125.509	5010.8
2129.558	4975.8
2133.602	4957.8
2137.643	4882.8
2141.681	4880.8
2145.714	4862.8
2149.744	4816.8
2153.77	4772.8
2157.793	4713.8
2161.812	4673.8
2165.827	4586.8
2169.838	4528.8
2173.846	4475.8
2177.851	4364.8
2181.851	4319.8
2185.848	4270.8
2189.841	4237.8
2193.831	4138.8
2197.817	4114.8
2201.799	4108.8
2205.778	4085.8
2209.753	4070.8
2213.725	4067.8
2217.693	4053.8
2221.657	4067.8
2225.618	4049.8
2229.575	4000.8
2233.529	3983.8
2237.479	3948.8
2241.425	3928.8
2245.368	3842.8
2249.307	3807.8
2253.243	3727.8
2257.175	3677.8
2261.104	3609.8
2265.029	3586.8
2268.95	3574.8
2272.868	3501.8
2276.783	3506.8
2280.694	3422.8
2284.601	3414.8
2288.505	3400.8
2292.405	3352.8
2296.302	3321.8
2300.195	3257.8
2304.085	3244.8
2307.971	3196.8
2311.854	3171.8
2315.734	3112.8
2319.609	3055.8
2323.482	3018.8
2327.351	2982.8
2331.216	2943.8
2335.078	2933.8
2338.937	2945.8
2342.792	2893.8
2346.643	2887.8
2350.492	2880.8
2354.336	2900.8
2358.178	2876.8
2362.015	2900.8
2365.85	2910.8
2369.681	2897.8
2373.508	2921.8
2377.333	2896.8
2381.153	2890.8
2384.971	2880.8
2388.785	2855.8
2392.595	2814.8
2396.402	2812.8
2400.206	2785.8
2404.007	2778.8
2407.804	2749.8
2411.597	2713.8
2415.388	2695.8
2419.174	2699.8
2422.958	2704.8
2426.738	2664.8
2430.515	2637.8
2434.289	2633.8
2438.059	2598.8
2441.825	2587.8
2445.589	2547.8
2449.349	2522.8
2453.106	2491.8
2456.859	2473.8
2460.61	2417.8
2464.356	2406.8
2468.1	2391.8
2471.84	2357.8
2475.577	2331.8
2479.311	2328.8
2483.041	2293.8
2486.768	2313.8
2490.492	2292.8
2494.213	2288.8
2497.93	2276.8
2501.644	2280.8
2505.355	2271.8
2509.062	2273.8
2512.766	2251.8
2516.467	2239.8
2520.165	2239.8
2523.859	2236.8
2527.551	2230.8
2531.239	2187.8
2534.923	2184.8
2538.605	2173.8
2542.283	2175.8
2545.958	2176.8
2549.63	2171.8
2553.299	2161.8
2556.964	2168.8
2560.626	2156.8
2564.285	2135.8
2567.941	2140.8
2571.594	2114.8
2575.243	2114.8
2578.89	2099.8
2582.533	2082.8
2586.173	2051.8
2589.809	2026.8
2593.443	2012.8
2597.073	2002.8
2600.701	1990.8
2604.325	1987.8
2607.946	1956.8
2611.564	1943.8
2615.178	1937.8
2618.79	1923.8
2622.398	1916.8
2626.004	1889.8
2629.606	1841.8
2633.205	1854.8
2636.801	1802.8
2640.394	1780.8
2643.983	1755.8
2647.57	1737.8
2651.153	1690.8
2654.734	1670.8
2658.311	1665.8
2661.885	1625.8
2665.456	1622.8
2669.025	1567.8
2672.589	1560.8
2676.151	1530.8
2679.71	1536.8
2683.266	1518.8
2686.819	1499.8
2690.368	1463.8
2693.915	1439.8
2697.458	1394.8
2700.999	1359.8
2704.536	1324.8
2708.071	1308.8
2711.602	1277.8
2715.13	1260.8
2718.656	1218.8
2722.178	1197.8
2725.697	1188.8
2729.214	1194.8
2732.727	1167.8
2736.237	1172.8
2739.744	1175.8
2743.249	1179.8
2746.75	1198.8
2750.248	1194.8
2753.743	1218.8
2757.236	1242.8
2760.725	1237.8
2764.211	1255.8
2767.695	1248.8
2771.175	1271.8
2774.652	1263.8
2778.127	1254.8
2781.598	1225.8
2785.067	1222.8
2788.532	1220.8
2791.995	1214.8
2795.455	1220.8
2798.911	1223.8
2802.365	1212.8
2805.816	1223.8
2809.264	1231.8
2812.709	1230.8
2816.151	1209.8
2819.59	1216.8
2823.026	1207.8
2826.46	1202.8
2829.89	1208.8
2833.318	1208.8
2836.742	1211.8
2840.164	1208.8
2843.583	1238.8
2846.999	1238.8
2850.412	1253.8
2853.822	1258.8
2857.229	1278.8
2860.634	1284.8
2864.035	1293.8
2867.434	1340.8
2870.83	1333.8
2874.223	1368.8
2877.613	1366.8
2881	1383.8
2884.385	1402.8
2887.766	1396.8
2891.145	1389.8
2894.521	1402.8
2897.894	1381.8
2901.264	1365.8
2904.631	1383.8
2907.996	1376.8
2911.358	1377.8
2914.717	1381.8
2918.073	1401.8
2921.426	1405.8
2924.777	1404.8
2928.124	1443.8
2931.469	1443.8
2934.811	1486.8
2938.15	1503.8
2941.487	1496.8
2944.821	1500.8
2948.152	1485.8
2951.48	1499.8
2954.805	1480.8
2958.128	1467.8
2961.447	1436.8
2964.765	1460.8
2968.079	1469.8
2971.39	1488.8
2974.699	1487.8
2978.005	1485.8
2981.308	1531.8
2984.609	1549.8
2987.907	1581.8
2991.202	1612.8
2994.494	1664.8
2997.784	1693.8
3001.07	1714.8
3004.355	1737.8
3007.636	1773.8
3010.915	1781.8
3014.191	1789.8
3017.464	1794.8
3020.734	1817.8
3024.002	1817.8
3027.267	1815.8
3030.53	1833.8
3033.789	1853.8
3037.046	1871.8
3040.301	1896.8
3043.552	1931.8
3046.801	1958.8
3050.048	2004.8
3053.291	2044.8
3056.532	2096.8
3059.771	2165.8
3063.006	2208.8
3066.239	2271.8
3069.469	2341.8
3072.697	2399.8
3075.922	2443.8
3079.144	2513.8
3082.364	2551.8
3085.581	2613.8
3088.795	2673.8
3092.007	2705.8
3095.216	2787.8
3098.423	2825.8
3101.627	2908.8
3104.828	2951.8
3108.026	3018.8
3111.222	3092.8
3114.416	3148.8
3117.607	3228.8
3120.795	3327.8
3123.98	3385.8
3127.163	3474.8
3130.344	3564.8
3133.521	3622.8
3136.696	3729.8
3139.869	3750.8
3143.039	3803.8
3146.206	3909.8
3149.371	3950.8
3152.533	3989.8
3155.693	4003.8
3158.85	4013.8
3162.005	4044.8
3165.157	4027.8
3168.306	4045.8
3171.453	4068.8
3174.597	4066.8
3177.739	4062.8
3180.878	4098.8
3184.014	4073.8
3187.149	4089.8
3190.28	4101.8
3193.409	4086.8
3196.536	4090.8
3199.659	4101.8
3202.781	4106.8
3205.9	4144.8
3209.016	4108.8
3212.13	4076.8
3215.241	4095.8
3218.35	4048.8
3221.456	4020.8
3224.56	3948.8
3227.661	3898.8
3230.76	3874.8
3233.856	3843.8
3236.95	3766.8
3240.041	3738.8
3243.13	3750.8
3246.216	3706.8
3249.3	3672.8
3252.382	3703.8
3255.46	3684.8
3258.537	3627.8
3261.611	3678.8
3264.682	3667.8
3267.751	3659.8
3270.818	3658.8
3273.882	3665.8
3276.943	3634.8
3280.002	3588.8
3283.059	3569.8
3286.113	3521.8
3289.165	3456.8
3292.214	3392.8
3295.261	3337.8
3298.306	3296.8
3301.348	3235.8
3304.387	3162.8
3307.425	3143.8
3310.459	3105.8
3313.492	3054.8
3316.521	3000.8
3319.549	2974.8
3322.574	2951.8
3325.597	2915.8
3328.617	2904.8
3331.635	2859.8
3334.65	2874.8
3337.663	2840.8
3340.674	2810.8
3343.682	2800.8
3346.688	2787.8
3349.691	2788.8
3352.692	2763.8
3355.691	2745.8
3358.687	2739.8
3361.681	2689.8
3364.673	2661.8
3367.662	2606.8
3370.649	2580.8
3373.633	2564.8
3376.615	2500.8
3379.595	2466.8
3382.572	2453.8
3385.547	2411.8
3388.52	2365.8
3391.49	2353.8
3394.458	2304.8
3397.424	2260.8
3400.387	2240.8
3403.348	2217.8
3406.307	2198.8
3409.263	2153.8
3412.217	2132.8
3415.168	2121.8
3418.118	2083.8
3421.065	2083.8
3424.009	2018.8
3426.951	2006.8
3429.891	1980.8
3432.829	1946.8
3435.764	1871.8
3438.697	1840.8
3441.628	1776.8
3444.557	1746.8
3447.483	1670.8
3450.407	1634.8
3453.328	1582.8
3456.247	1519.8
3459.164	1475.8
3462.079	1420.8
3464.991	1374.8
3467.902	1312.8
3470.809	1277.8
3473.715	1219.8
3476.618	1180.8
3479.519	1143.8
3482.418	1106.8
3485.315	1078.8
3488.209	1023.8
3491.101	998.8
3493.99	953.8
3496.878	927.8
3499.763	895.8
3502.646	869.8
3505.527	811.8
3508.405	769.8
3511.281	728.8
3514.155	696.8
3517.027	669.8
3519.897	631.8
3522.764	572.8
3525.629	539.8
3528.492	480.8
3531.352	458.8
3534.211	426.8
3537.067	372.8
3539.921	344.8
3542.773	300.8
3545.622	272.8
3548.469	249.8
3551.315	219.8
3554.157	180.8
3556.998	164.8
3559.837	133.8
3562.673	118.8
3565.507	83.8
3568.339	54.8
3571.169	38.8
3573.996	21.8
3576.822	7.8
3579.645	-13.2
3582.466	-33.2
3585.285	-57.2
3588.101	-72.2
3590.916	-100.2
3593.728	-121.2
3596.538	-136.2
3599.346	-158.2
3602.152	-171.2
3604.956	-172.2
3607.757	-205.2
3610.556	-220.2
3613.354	-230.2
3616.149	-250.2
3618.942	-257.2
3621.732	-275.2
3624.521	-286.2
3627.307	-297.2
3630.092	-294.2
3632.874	-313.2
3635.654	-331.2
3638.432	-332.2
3641.208	-342.2
3643.982	-363.2
3646.753	-359.2
3649.523	-373.2
3652.29	-377.2
3655.055	-384.2
3657.818	-401.2
3660.579	-411.2
3663.338	-420.2
3666.095	-430.2
3668.849	-439.2
3671.602	-444.2
3674.352	-449.2
3677.101	-458.2
3679.847	-476.2
3682.591	-480.2
3685.333	-488.2
3688.073	-485.2
3690.811	-493.2
3693.547	-496.2
3696.281	-500.2
3699.013	-504.2
3701.742	-515.2
3704.47	-519.2
3707.195	-526.2
3709.919	-525.2
3712.64	-529.2
3715.359	-531.2
3718.076	-535.2
3720.792	-542.2
3723.505	-541.2
3726.216	-545.2
3728.925	-542.2
3731.632	-546.2
3734.336	-551.2
3737.039	-558.2
3739.74	-555.2
3742.439	-567.2
3745.136	-563.2
3747.83	-570.2
3750.523	-568.2
3753.213	-559.2
3755.902	-573.2
3758.589	-575.2
3761.273	-575.2
3763.956	-577.2
3766.636	-580.2
3769.315	-584.2
3771.991	-582.2
3774.665	-592.2
3777.338	-585.2
3780.008	-590.2
3782.677	-594.2
3785.343	-587.2
3788.007	-596.2
3790.67	-593.2
3793.33	-591.2
3795.989	-596.2
3798.645	-590.2
3801.299	-591.2
3803.952	-603.2
3806.602	-608.2
3809.251	-609.2
3811.897	-610.2
3814.542	-607.2
3817.184	-605.2
3819.825	-602.2
3822.463	-597.2
3825.1	-609.2
3827.735	-605.2
3830.367	-606.2
3832.998	-618.2
3835.627	-615.2
3838.253	-614.2
3840.878	-620.2
3843.501	-613.2
3846.122	-611.2
3848.741	-615.2
3851.358	-616.2
3853.973	-615.2
3856.586	-618.2
3859.197	-618.2
3861.806	-621.2
3864.414	-615.2
3867.019	-618.2
3869.622	-616.2
3872.224	-611.2
3874.823	-600.2
3877.421	-585.2
3880.016	-569.2
3882.61	-550.2
3885.202	-549.2
3887.792	-558.2
3890.38	-589.2
3892.966	-606.2
3895.55	-618.2
3898.132	-637.2
3900.713	-635.2
3903.291	-626.2
3905.868	-633.2
3908.442	-633.2
3911.015	-634.2
3913.586	-629.2
3916.155	-630.2
3918.722	-631.2
3921.287	-633.2
3923.85	-641.2
3926.411	-630.2
3928.971	-639.2
3931.528	-637.2
3934.084	-634.2
3936.638	-630.2
3939.19	-633.2
3941.74	-635.2
3944.288	-640.2
3946.834	-631.2
3949.378	-636.2
3951.921	-636.2
3954.462	-641.2
3957	-631.2
3959.537	-636.2
3962.072	-632.2
3964.606	-633.2
3967.137	-637.2
3969.667	-637.2
3972.194	-630.2
3974.72	-635.2
3977.244	-622.2
3979.766	-628.2
3982.286	-625.2
3984.805	-629.2
3987.321	-626.2
3989.836	-629.2
3992.349	-619.2
3994.86	-614.2
3997.369	-624.2
3999.877	-617.2
4002.382	-614.2
4004.886	-621.2
4007.388	-617.2
4009.888	-618.2
4012.386	-620.2
4014.883	-618.2
4017.377	-618.2
4019.87	-617.2
4022.361	-619.2
4024.85	-622.2
4027.338	-625.2
4029.823	-626.2
4032.307	-624.2
4034.789	-624.2
4037.269	-626.2
4039.747	-628.2
4042.224	-629.2
4044.699	-626.2
4047.172	-626.2
4049.643	-620.2
4052.112	-627.2
4054.58	-621.2
4057.046	-627.2
4059.51	-623.2
4061.972	-625.2
4064.432	-627.2
4066.891	-623.2
4069.348	-623.2
4071.803	-620.2
4074.256	-624.2
4076.708	-615.2
4079.158	-628.2
4081.606	-626.2
4084.052	-629.2
4086.497	-627.2
4088.939	-620.2
4091.38	-622.2
4093.819	-623.2
4096.257	-655.2
4098.693	-655.2
4101.127	-657.2
4103.559	-657.2
4105.989	-379.2
4108.418	-354.2
4110.845	-342.2
4113.27	-305.2
4115.694	-277.2
4118.115	-228.2
4120.535	-623.2
4122.954	-628.2
4125.37	-615.2
4127.785	-623.2
4130.198	-624.2
4132.609	-626.2
4135.019	-659.2
4137.427	-658.2
4139.833	-659.2
4142.237	-659.2
