Data from 2018-2-14_conc=0_n=10_RamanShift_04.txt Node
Date: Wed Feb 14 10:57:26 IST 2018
User: aro
Spectrometer: QEPB0276
Trigger mode: 0
Integration Time (sec): 3.000000E1
Scans to average: 1
Electric dark correction enabled: true
Nonlinearity correction enabled: false
Boxcar width: 0
XAxis mode: Raman Shifts
Number of Pixels in Spectrum: 1044
>>>>>Begin Spectral Data<<<<<
160.701	-144.4
166.742	42.6
172.777	593.6
178.805	2293.6
184.826	6289.6
190.841	13232.6
196.849	21313.6
202.85	27114.6
208.845	29087.6
214.833	28821.6
220.815	28347.6
226.789	28113.6
232.758	28051.6
238.719	27826.6
244.674	27534.6
250.623	27041.6
256.565	26552.6
262.5	25984.6
268.429	25544.6
274.351	25149.6
280.267	24911.6
286.176	24703.6
292.079	24427.6
297.975	24153.6
303.865	23979.6
309.748	23891.6
315.625	23698.6
321.495	23617.6
327.359	23516.6
333.217	23452.6
339.068	23549.6
344.912	23452.6
350.751	23429.6
356.583	23391.6
362.408	23437.6
368.227	23317.6
374.04	23345.6
379.847	23401.6
385.647	23581.6
391.44	23615.6
397.228	23733.6
403.009	23738.6
408.784	23919.6
414.553	23969.6
420.315	23971.6
426.071	24041.6
431.821	23968.6
437.565	24033.6
443.302	23966.6
449.033	23934.6
454.758	23849.6
460.477	23840.6
466.189	23827.6
471.896	23662.6
477.596	23659.6
483.29	23621.6
488.978	23605.6
494.66	23459.6
500.335	23309.6
506.005	23130.6
511.668	22771.6
517.325	22546.6
522.977	22271.6
528.622	22122.6
534.261	22059.6
539.894	22017.6
545.521	21780.6
551.141	21792.6
556.756	21664.6
562.365	21630.6
567.968	21511.6
573.565	21387.6
579.155	21423.6
584.74	21289.6
590.319	21252.6
595.892	21129.6
601.459	21093.6
607.02	20929.6
612.575	20882.6
618.124	20703.6
623.667	20570.6
629.204	20476.6
634.735	20366.6
640.261	20262.6
645.781	20230.6
651.294	20165.6
656.802	20162.6
662.304	20185.6
667.8	20096.6
673.29	20046.6
678.775	20037.6
684.254	19935.6
689.726	19921.6
695.193	19808.6
700.655	19717.6
706.11	19643.6
711.56	19553.6
717.004	19415.6
722.442	19314.6
727.874	19258.6
733.301	19222.6
738.722	19189.6
744.137	19164.6
749.547	19145.6
754.951	19159.6
760.349	19148.6
765.741	19138.6
771.128	19204.6
776.509	19215.6
781.885	19145.6
787.254	19091.6
792.618	19048.6
797.977	18882.6
803.33	18833.6
808.677	18681.6
814.019	18599.6
819.355	18493.6
824.686	18391.6
830.011	18341.6
835.33	18398.6
840.644	18341.6
845.952	18371.6
851.255	18446.6
856.552	18383.6
861.844	18399.6
867.13	18260.6
872.41	18244.6
877.686	18189.6
882.955	18052.6
888.219	17863.6
893.478	17734.6
898.731	17448.6
903.979	17267.6
909.221	17197.6
914.458	17200.6
919.69	17134.6
924.916	17176.6
930.136	17255.6
935.351	17277.6
940.561	17241.6
945.766	17148.6
950.965	17113.6
956.158	16985.6
961.347	16815.6
966.529	16633.6
971.707	16387.6
976.879	16238.6
982.046	16116.6
987.208	16036.6
992.364	16018.6
997.515	16074.6
1002.66	16254.6
1007.801	16466.6
1012.936	16534.6
1018.066	16551.6
1023.19	16574.6
1028.309	16619.6
1033.423	16528.6
1038.532	16438.6
1043.636	16337.6
1048.734	16128.6
1053.827	15896.6
1058.915	15766.6
1063.998	15638.6
1069.075	15546.6
1074.147	15611.6
1079.214	15671.6
1084.276	15730.6
1089.333	15804.6
1094.385	15814.6
1099.431	15941.6
1104.472	15956.6
1109.509	15879.6
1114.54	15684.6
1119.565	15467.6
1124.586	15268.6
1129.602	15123.6
1134.613	14966.6
1139.618	14895.6
1144.619	14903.6
1149.614	14879.6
1154.604	14910.6
1159.589	14963.6
1164.57	14966.6
1169.545	14993.6
1174.515	15011.6
1179.48	14923.6
1184.44	14797.6
1189.395	14727.6
1194.345	14605.6
1199.29	14498.6
1204.23	14515.6
1209.165	14590.6
1214.095	14649.6
1219.021	14724.6
1223.941	14770.6
1228.856	14883.6
1233.766	14930.6
1238.672	14916.6
1243.572	14987.6
1248.467	14800.6
1253.358	14598.6
1258.244	14458.6
1263.124	14196.6
1268	14006.6
1272.871	13809.6
1277.737	13749.6
1282.599	13640.6
1287.455	13618.6
1292.306	13715.6
1297.153	13756.6
1301.995	13779.6
1306.832	13814.6
1311.664	13854.6
1316.491	13788.6
1321.314	13675.6
1326.132	13461.6
1330.945	13183.6
1335.753	12867.6
1340.556	12525.6
1345.354	12244.6
1350.148	12083.6
1354.937	11952.6
1359.722	11962.6
1364.501	12114.6
1369.276	12190.6
1374.046	12380.6
1378.811	12521.6
1383.572	12644.6
1388.327	12700.6
1393.079	12646.6
1397.825	12498.6
1402.567	12335.6
1407.304	12166.6
1412.036	12043.6
1416.764	11925.6
1421.487	11906.6
1426.205	11767.6
1430.919	11797.6
1435.628	11735.6
1440.333	11752.6
1445.032	11784.6
1449.727	11841.6
1454.418	11824.6
1459.104	11676.6
1463.785	11463.6
1468.462	11242.6
1473.134	11016.6
1477.802	10727.6
1482.465	10583.6
1487.123	10451.6
1491.777	10399.6
1496.426	10425.6
1501.071	10608.6
1505.711	10746.6
1510.347	10967.6
1514.978	11139.6
1519.604	11278.6
1524.226	11411.6
1528.844	11442.6
1533.457	11410.6
1538.065	11372.6
1542.669	11329.6
1547.269	11199.6
1551.864	11104.6
1556.454	11113.6
1561.041	11073.6
1565.622	11091.6
1570.199	11054.6
1574.772	11131.6
1579.34	11210.6
1583.904	11266.6
1588.464	11238.6
1593.019	11244.6
1597.569	11273.6
1602.115	11155.6
1606.657	11055.6
1611.195	10981.6
1615.728	10955.6
1620.256	10868.6
1624.78	10857.6
1629.3	10849.6
1633.816	10916.6
1638.327	10951.6
1642.834	10983.6
1647.336	11072.6
1651.834	11060.6
1656.328	11028.6
1660.817	10965.6
1665.302	10867.6
1669.783	10698.6
1674.259	10459.6
1678.732	10143.6
1683.199	9795.6
1687.663	9451.6
1692.122	9186.6
1696.577	9024.6
1701.028	9013.6
1705.474	9060.6
1709.917	9198.6
1714.355	9269.6
1718.788	9223.6
1723.218	9044.6
1727.643	8948.6
1732.064	8730.6
1736.481	8605.6
1740.893	8380.6
1745.301	8123.6
1749.705	7937.6
1754.105	7649.6
1758.501	7463.6
1762.893	7229.6
1767.28	7037.6
1771.663	6873.6
1776.042	6742.6
1780.417	6659.6
1784.787	6723.6
1789.154	6724.6
1793.516	6932.6
1797.874	7048.6
1802.228	7180.6
1806.578	7256.6
1810.924	7271.6
1815.266	7205.6
1819.603	7103.6
1823.937	6990.6
1828.266	6867.6
1832.591	6754.6
1836.913	6653.6
1841.23	6588.6
1845.543	6572.6
1849.852	6507.6
1854.156	6490.6
1858.457	6476.6
1862.754	6457.6
1867.047	6505.6
1871.335	6443.6
1875.62	6415.6
1879.9	6420.6
1884.177	6340.6
1888.449	6284.6
1892.718	6241.6
1896.982	6173.6
1901.243	6108.6
1905.499	6042.6
1909.752	6009.6
1914	6015.6
1918.245	6043.6
1922.485	6065.6
1926.722	6150.6
1930.954	6253.6
1935.183	6303.6
1939.408	6377.6
1943.628	6393.6
1947.845	6439.6
1952.058	6453.6
1956.267	6363.6
1960.472	6334.6
1964.673	6207.6
1968.87	6062.6
1973.063	5974.6
1977.252	5904.6
1981.438	5849.6
1985.619	5791.6
1989.797	5760.6
1993.971	5698.6
1998.14	5671.6
2002.306	5650.6
2006.469	5644.6
2010.627	5622.6
2014.781	5570.6
2018.932	5512.6
2023.078	5472.6
2027.221	5405.6
2031.36	5294.6
2035.495	5220.6
2039.627	5138.6
2043.754	5110.6
2047.878	5036.6
2051.998	4997.6
2056.114	4980.6
2060.226	4969.6
2064.334	4969.6
2068.439	5001.6
2072.54	5031.6
2076.637	5059.6
2080.73	5068.6
2084.82	5101.6
2088.906	5116.6
2092.988	5107.6
2097.066	5105.6
2101.14	5070.6
2105.211	5039.6
2109.278	5031.6
2113.342	5019.6
2117.401	4951.6
2121.457	4942.6
2125.509	4915.6
2129.558	4899.6
2133.602	4859.6
2137.643	4860.6
2141.681	4797.6
2145.714	4762.6
2149.744	4732.6
2153.77	4719.6
2157.793	4675.6
2161.812	4607.6
2165.827	4552.6
2169.838	4476.6
2173.846	4391.6
2177.851	4335.6
2181.851	4265.6
2185.848	4234.6
2189.841	4171.6
2193.831	4133.6
2197.817	4072.6
2201.799	4039.6
2205.778	4070.6
2209.753	4022.6
2213.725	4017.6
2217.693	4003.6
2221.657	4031.6
2225.618	4013.6
2229.575	3949.6
2233.529	3932.6
2237.479	3899.6
2241.425	3833.6
2245.368	3797.6
2249.307	3746.6
2253.243	3676.6
2257.175	3653.6
2261.104	3579.6
2265.029	3546.6
2268.95	3505.6
2272.868	3467.6
2276.783	3433.6
2280.694	3389.6
2284.601	3388.6
2288.505	3317.6
2292.405	3302.6
2296.302	3282.6
2300.195	3249.6
2304.085	3198.6
2307.971	3160.6
2311.854	3111.6
2315.734	3069.6
2319.609	3025.6
2323.482	2974.6
2327.351	2956.6
2331.216	2930.6
2335.078	2930.6
2338.937	2915.6
2342.792	2868.6
2346.643	2864.6
2350.492	2872.6
2354.336	2885.6
2358.178	2864.6
2362.015	2884.6
2365.85	2890.6
2369.681	2877.6
2373.508	2911.6
2377.333	2884.6
2381.153	2886.6
2384.971	2858.6
2388.785	2840.6
2392.595	2795.6
2396.402	2799.6
2400.206	2778.6
2404.007	2742.6
2407.804	2746.6
2411.597	2706.6
2415.388	2684.6
2419.174	2671.6
2422.958	2681.6
2426.738	2634.6
2430.515	2640.6
2434.289	2602.6
2438.059	2572.6
2441.825	2547.6
2445.589	2534.6
2449.349	2507.6
2453.106	2482.6
2456.859	2425.6
2460.61	2398.6
2464.356	2395.6
2468.1	2367.6
2471.84	2331.6
2475.577	2313.6
2479.311	2303.6
2483.041	2277.6
2486.768	2275.6
2490.492	2257.6
2494.213	2271.6
2497.93	2255.6
2501.644	2241.6
2505.355	2227.6
2509.062	2201.6
2512.766	2196.6
2516.467	2199.6
2520.165	2179.6
2523.859	2154.6
2527.551	2154.6
2531.239	2112.6
2534.923	2114.6
2538.605	2104.6
2542.283	2117.6
2545.958	2093.6
2549.63	2117.6
2553.299	2109.6
2556.964	2120.6
2560.626	2090.6
2564.285	2078.6
2567.941	2071.6
2571.594	2054.6
2575.243	2033.6
2578.89	2029.6
2582.533	2005.6
2586.173	2004.6
2589.809	1983.6
2593.443	1959.6
2597.073	1948.6
2600.701	1912.6
2604.325	1911.6
2607.946	1895.6
2611.564	1878.6
2615.178	1878.6
2618.79	1848.6
2622.398	1849.6
2626.004	1829.6
2629.606	1790.6
2633.205	1763.6
2636.801	1738.6
2640.394	1732.6
2643.983	1696.6
2647.57	1674.6
2651.153	1657.6
2654.734	1620.6
2658.311	1583.6
2661.885	1568.6
2665.456	1556.6
2669.025	1539.6
2672.589	1506.6
2676.151	1504.6
2679.71	1485.6
2683.266	1455.6
2686.819	1439.6
2690.368	1428.6
2693.915	1369.6
2697.458	1332.6
2700.999	1317.6
2704.536	1290.6
2708.071	1255.6
2711.602	1224.6
2715.13	1201.6
2718.656	1166.6
2722.178	1157.6
2725.697	1136.6
2729.214	1108.6
2732.727	1120.6
2736.237	1116.6
2739.744	1104.6
2743.249	1111.6
2746.75	1121.6
2750.248	1140.6
2753.743	1138.6
2757.236	1147.6
2760.725	1156.6
2764.211	1158.6
2767.695	1170.6
2771.175	1164.6
2774.652	1169.6
2778.127	1174.6
2781.598	1139.6
2785.067	1143.6
2788.532	1148.6
2791.995	1118.6
2795.455	1130.6
2798.911	1138.6
2802.365	1149.6
2805.816	1142.6
2809.264	1151.6
2812.709	1126.6
2816.151	1130.6
2819.59	1141.6
2823.026	1136.6
2826.46	1141.6
2829.89	1154.6
2833.318	1143.6
2836.742	1140.6
2840.164	1147.6
2843.583	1161.6
2846.999	1185.6
2850.412	1174.6
2853.822	1195.6
2857.229	1210.6
2860.634	1250.6
2864.035	1267.6
2867.434	1258.6
2870.83	1274.6
2874.223	1292.6
2877.613	1336.6
2881	1331.6
2884.385	1330.6
2887.766	1336.6
2891.145	1333.6
2894.521	1342.6
2897.894	1338.6
2901.264	1326.6
2904.631	1325.6
2907.996	1335.6
2911.358	1334.6
2914.717	1352.6
2918.073	1352.6
2921.426	1368.6
2924.777	1382.6
2928.124	1401.6
2931.469	1420.6
2934.811	1441.6
2938.15	1461.6
2941.487	1484.6
2944.821	1470.6
2948.152	1484.6
2951.48	1475.6
2954.805	1455.6
2958.128	1452.6
2961.447	1432.6
2964.765	1431.6
2968.079	1416.6
2971.39	1436.6
2974.699	1443.6
2978.005	1481.6
2981.308	1497.6
2984.609	1534.6
2987.907	1546.6
2991.202	1575.6
2994.494	1619.6
2997.784	1638.6
3001.07	1689.6
3004.355	1700.6
3007.636	1729.6
3010.915	1732.6
3014.191	1745.6
3017.464	1776.6
3020.734	1789.6
3024.002	1806.6
3027.267	1799.6
3030.53	1808.6
3033.789	1824.6
3037.046	1864.6
3040.301	1875.6
3043.552	1920.6
3046.801	1954.6
3050.048	1990.6
3053.291	2060.6
3056.532	2117.6
3059.771	2173.6
3063.006	2220.6
3066.239	2307.6
3069.469	2365.6
3072.697	2454.6
3075.922	2462.6
3079.144	2529.6
3082.364	2592.6
3085.581	2650.6
3088.795	2691.6
3092.007	2769.6
3095.216	2820.6
3098.423	2865.6
3101.627	2931.6
3104.828	3018.6
3108.026	3088.6
3111.222	3150.6
3114.416	3207.6
3117.607	3265.6
3120.795	3353.6
3123.98	3431.6
3127.163	3525.6
3130.344	3593.6
3133.521	3662.6
3136.696	3744.6
3139.869	3844.6
3143.039	3924.6
3146.206	3930.6
3149.371	3994.6
3152.533	4045.6
3155.693	4059.6
3158.85	4115.6
3162.005	4091.6
3165.157	4120.6
3168.306	4156.6
3171.453	4134.6
3174.597	4158.6
3177.739	4137.6
3180.878	4155.6
3184.014	4144.6
3187.149	4141.6
3190.28	4184.6
3193.409	4164.6
3196.536	4165.6
3199.659	4210.6
3202.781	4181.6
3205.9	4197.6
3209.016	4178.6
3212.13	4163.6
3215.241	4132.6
3218.35	4117.6
3221.456	4048.6
3224.56	4031.6
3227.661	3967.6
3230.76	3898.6
3233.856	3878.6
3236.95	3830.6
3240.041	3813.6
3243.13	3774.6
3246.216	3772.6
3249.3	3747.6
3252.382	3715.6
3255.46	3698.6
3258.537	3697.6
3261.611	3684.6
3264.682	3710.6
3267.751	3673.6
3270.818	3712.6
3273.882	3672.6
3276.943	3641.6
3280.002	3641.6
3283.059	3608.6
3286.113	3561.6
3289.165	3498.6
3292.214	3467.6
3295.261	3383.6
3298.306	3332.6
3301.348	3296.6
3304.387	3234.6
3307.425	3194.6
3310.459	3160.6
3313.492	3090.6
3316.521	3075.6
3319.549	3020.6
3322.574	2963.6
3325.597	2978.6
3328.617	2966.6
3331.635	2922.6
3334.65	2910.6
3337.663	2900.6
3340.674	2867.6
3343.682	2879.6
3346.688	2865.6
3349.691	2865.6
3352.692	2853.6
3355.691	2799.6
3358.687	2786.6
3361.681	2729.6
3364.673	2755.6
3367.662	2692.6
3370.649	2641.6
3373.633	2644.6
3376.615	2567.6
3379.595	2502.6
3382.572	2493.6
3385.547	2470.6
3388.52	2420.6
3391.49	2376.6
3394.458	2361.6
3397.424	2333.6
3400.387	2279.6
3403.348	2247.6
3406.307	2233.6
3409.263	2205.6
3412.217	2177.6
3415.168	2169.6
3418.118	2128.6
3421.065	2093.6
3424.009	2070.6
3426.951	2063.6
3429.891	2018.6
3432.829	1954.6
3435.764	1908.6
3438.697	1860.6
3441.628	1826.6
3444.557	1761.6
3447.483	1692.6
3450.407	1664.6
3453.328	1611.6
3456.247	1558.6
3459.164	1466.6
3462.079	1444.6
3464.991	1396.6
3467.902	1354.6
3470.809	1285.6
3473.715	1245.6
3476.618	1192.6
3479.519	1152.6
3482.418	1129.6
3485.315	1089.6
3488.209	1028.6
3491.101	983.6
3493.99	961.6
3496.878	915.6
3499.763	896.6
3502.646	842.6
3505.527	797.6
3508.405	791.6
3511.281	732.6
3514.155	686.6
3517.027	647.6
3519.897	611.6
3522.764	562.6
3525.629	513.6
3528.492	473.6
3531.352	438.6
3534.211	394.6
3537.067	372.6
3539.921	327.6
3542.773	279.6
3545.622	247.6
3548.469	233.6
3551.315	188.6
3554.157	156.6
3556.998	138.6
3559.837	110.6
3562.673	84.6
3565.507	71.6
3568.339	29.6
3571.169	10.6
3573.996	4.6
3576.822	-19.4
3579.645	-47.4
3582.466	-68.4
3585.285	-86.4
3588.101	-100.4
3590.916	-122.4
3593.728	-144.4
3596.538	-165.4
3599.346	-176.4
3602.152	-207.4
3604.956	-214.4
3607.757	-225.4
3610.556	-244.4
3613.354	-263.4
3616.149	-277.4
3618.942	-281.4
3621.732	-296.4
3624.521	-318.4
3627.307	-328.4
3630.092	-327.4
3632.874	-339.4
3635.654	-349.4
3638.432	-371.4
3641.208	-373.4
3643.982	-384.4
3646.753	-381.4
3649.523	-398.4
3652.29	-410.4
3655.055	-418.4
3657.818	-433.4
3660.579	-439.4
3663.338	-453.4
3666.095	-461.4
3668.849	-469.4
3671.602	-482.4
3674.352	-493.4
3677.101	-489.4
3679.847	-501.4
3682.591	-511.4
3685.333	-509.4
3688.073	-520.4
3690.811	-530.4
3693.547	-528.4
3696.281	-532.4
3699.013	-541.4
3701.742	-545.4
3704.47	-553.4
3707.195	-556.4
3709.919	-555.4
3712.64	-567.4
3715.359	-563.4
3718.076	-571.4
3720.792	-571.4
3723.505	-574.4
3726.216	-583.4
3728.925	-582.4
3731.632	-595.4
3734.336	-591.4
3737.039	-596.4
3739.74	-596.4
3742.439	-599.4
3745.136	-603.4
3747.83	-609.4
3750.523	-603.4
3753.213	-589.4
3755.902	-604.4
3758.589	-611.4
3761.273	-614.4
3763.956	-620.4
3766.636	-617.4
3769.315	-622.4
3771.991	-620.4
3774.665	-630.4
3777.338	-624.4
3780.008	-627.4
3782.677	-635.4
3785.343	-623.4
3788.007	-625.4
3790.67	-628.4
3793.33	-633.4
3795.989	-637.4
3798.645	-636.4
3801.299	-637.4
3803.952	-642.4
3806.602	-645.4
3809.251	-645.4
3811.897	-641.4
3814.542	-649.4
3817.184	-646.4
3819.825	-647.4
3822.463	-641.4
3825.1	-650.4
3827.735	-646.4
3830.367	-642.4
3832.998	-650.4
3835.627	-656.4
3838.253	-648.4
3840.878	-655.4
3843.501	-651.4
3846.122	-650.4
3848.741	-645.4
3851.358	-651.4
3853.973	-649.4
3856.586	-653.4
3859.197	-657.4
3861.806	-658.4
3864.414	-658.4
3867.019	-655.4
3869.622	-655.4
3872.224	-654.4
3874.823	-634.4
3877.421	-619.4
3880.016	-600.4
3882.61	-577.4
3885.202	-563.4
3887.792	-580.4
3890.38	-615.4
3892.966	-640.4
3895.55	-650.4
3898.132	-672.4
3900.713	-671.4
3903.291	-663.4
3905.868	-671.4
3908.442	-669.4
3911.015	-669.4
3913.586	-662.4
3916.155	-661.4
3918.722	-666.4
3921.287	-665.4
3923.85	-672.4
3926.411	-675.4
3928.971	-677.4
3931.528	-675.4
3934.084	-673.4
3936.638	-668.4
3939.19	-679.4
3941.74	-676.4
3944.288	-674.4
3946.834	-670.4
3949.378	-677.4
3951.921	-670.4
3954.462	-677.4
3957	-668.4
3959.537	-670.4
3962.072	-668.4
3964.606	-674.4
3967.137	-667.4
3969.667	-671.4
3972.194	-663.4
3974.72	-674.4
3977.244	-662.4
3979.766	-656.4
3982.286	-663.4
3984.805	-661.4
3987.321	-661.4
3989.836	-661.4
3992.349	-656.4
3994.86	-660.4
3997.369	-667.4
3999.877	-652.4
4002.382	-653.4
4004.886	-653.4
4007.388	-648.4
4009.888	-651.4
4012.386	-657.4
4014.883	-651.4
4017.377	-653.4
4019.87	-655.4
4022.361	-658.4
4024.85	-660.4
4027.338	-661.4
4029.823	-660.4
4032.307	-664.4
4034.789	-653.4
4037.269	-653.4
4039.747	-659.4
4042.224	-654.4
4044.699	-659.4
4047.172	-659.4
4049.643	-655.4
4052.112	-665.4
4054.58	-663.4
4057.046	-666.4
4059.51	-661.4
4061.972	-665.4
4064.432	-662.4
4066.891	-659.4
4069.348	-657.4
4071.803	-657.4
4074.256	-658.4
4076.708	-657.4
4079.158	-660.4
4081.606	-664.4
4084.052	-666.4
4086.497	-659.4
4088.939	-656.4
4091.38	-658.4
4093.819	-657.4
4096.257	-694.4
4098.693	-697.4
4101.127	-700.4
4103.559	-697.4
4105.989	-392.4
4108.418	-365.4
4110.845	-348.4
4113.27	-319.4
4115.694	-287.4
4118.115	-238.4
4120.535	-657.4
4122.954	-654.4
4125.37	-653.4
4127.785	-662.4
4130.198	-660.4
4132.609	-664.4
4135.019	-696.4
4137.427	-696.4
4139.833	-698.4
4142.237	-694.4
