Data from 2018-2-14_conc=4_n=4_RamanShift_05.txt Node
Date: Wed Feb 14 13:38:55 IST 2018
User: aro
Spectrometer: QEPB0276
Trigger mode: 0
Integration Time (sec): 3.000000E1
Scans to average: 1
Electric dark correction enabled: true
Nonlinearity correction enabled: false
Boxcar width: 0
XAxis mode: Raman Shifts
Number of Pixels in Spectrum: 1044
>>>>>Begin Spectral Data<<<<<
160.701	-148.9
166.742	50.1
172.777	606.1
178.805	2389.1
184.826	6642.1
190.841	13867.1
196.849	22268.1
202.85	28208.1
208.845	30163.1
214.833	29905.1
220.815	29392.1
226.789	29253.1
232.758	29147.1
238.719	28974.1
244.674	28650.1
250.623	28125.1
256.565	27683.1
262.5	27074.1
268.429	26603.1
274.351	26223.1
280.267	25977.1
286.176	25734.1
292.079	25504.1
297.975	25248.1
303.865	25049.1
309.748	24897.1
315.625	24818.1
321.495	24653.1
327.359	24574.1
333.217	24496.1
339.068	24497.1
344.912	24478.1
350.751	24448.1
356.583	24472.1
362.408	24421.1
368.227	24367.1
374.04	24394.1
379.847	24535.1
385.647	24576.1
391.44	24637.1
397.228	24735.1
403.009	24810.1
408.784	24905.1
414.553	25034.1
420.315	25041.1
426.071	25091.1
431.821	25053.1
437.565	25033.1
443.302	25012.1
449.033	25049.1
454.758	24942.1
460.477	24896.1
466.189	24791.1
471.896	24771.1
477.596	24738.1
483.29	24640.1
488.978	24688.1
494.66	24499.1
500.335	24443.1
506.005	24201.1
511.668	23902.1
517.325	23599.1
522.977	23410.1
528.622	23287.1
534.261	23118.1
539.894	23020.1
545.521	22975.1
551.141	22813.1
556.756	22796.1
562.365	22655.1
567.968	22626.1
573.565	22552.1
579.155	22489.1
584.74	22337.1
590.319	22265.1
595.892	22142.1
601.459	22166.1
607.02	22027.1
612.575	21903.1
618.124	21743.1
623.667	21619.1
629.204	21499.1
634.735	21407.1
640.261	21360.1
645.781	21267.1
651.294	21281.1
656.802	21254.1
662.304	21148.1
667.8	21096.1
673.29	21089.1
678.775	21024.1
684.254	21017.1
689.726	20960.1
695.193	20830.1
700.655	20702.1
706.11	20660.1
711.56	20579.1
717.004	20434.1
722.442	20366.1
727.874	20292.1
733.301	20164.1
738.722	20138.1
744.137	20090.1
749.547	20107.1
754.951	20165.1
760.349	20095.1
765.741	20107.1
771.128	20145.1
776.509	20113.1
781.885	20078.1
787.254	20080.1
792.618	19968.1
797.977	19925.1
803.33	19694.1
808.677	19666.1
814.019	19533.1
819.355	19417.1
824.686	19325.1
830.011	19302.1
835.33	19277.1
840.644	19399.1
845.952	19307.1
851.255	19404.1
856.552	19366.1
861.844	19356.1
867.13	19297.1
872.41	19269.1
877.686	19118.1
882.955	19029.1
888.219	18837.1
893.478	18600.1
898.731	18381.1
903.979	18228.1
909.221	18108.1
914.458	18078.1
919.69	18030.1
924.916	18126.1
930.136	18152.1
935.351	18160.1
940.561	18199.1
945.766	18084.1
950.965	18064.1
956.158	17921.1
961.347	17691.1
966.529	17474.1
971.707	17282.1
976.879	17069.1
982.046	16887.1
987.208	16929.1
992.364	16904.1
997.515	16967.1
1002.66	17164.1
1007.801	17318.1
1012.936	17444.1
1018.066	17452.1
1023.19	17522.1
1028.309	17467.1
1033.423	17428.1
1038.532	17286.1
1043.636	17139.1
1048.734	16959.1
1053.827	16770.1
1058.915	16578.1
1063.998	16423.1
1069.075	16392.1
1074.147	16402.1
1079.214	16465.1
1084.276	16524.1
1089.333	16704.1
1094.385	16756.1
1099.431	16797.1
1104.472	16771.1
1109.509	16692.1
1114.54	16477.1
1119.565	16310.1
1124.586	16128.1
1129.602	15970.1
1134.613	15803.1
1139.618	15700.1
1144.619	15676.1
1149.614	15667.1
1154.604	15759.1
1159.589	15770.1
1164.57	15806.1
1169.545	15833.1
1174.515	15808.1
1179.48	15726.1
1184.44	15582.1
1189.395	15475.1
1194.345	15442.1
1199.29	15317.1
1204.23	15331.1
1209.165	15363.1
1214.095	15416.1
1219.021	15513.1
1223.941	15556.1
1228.856	15673.1
1233.766	15742.1
1238.672	15730.1
1243.572	15706.1
1248.467	15643.1
1253.358	15462.1
1258.244	15244.1
1263.124	15009.1
1268	14758.1
1272.871	14577.1
1277.737	14483.1
1282.599	14411.1
1287.455	14406.1
1292.306	14440.1
1297.153	14499.1
1301.995	14569.1
1306.832	14674.1
1311.664	14631.1
1316.491	14526.1
1321.314	14438.1
1326.132	14205.1
1330.945	13884.1
1335.753	13521.1
1340.556	13213.1
1345.354	12900.1
1350.148	12661.1
1354.937	12589.1
1359.722	12593.1
1364.501	12714.1
1369.276	12848.1
1374.046	13051.1
1378.811	13314.1
1383.572	13432.1
1388.327	13462.1
1393.079	13426.1
1397.825	13241.1
1402.567	13006.1
1407.304	12841.1
1412.036	12735.1
1416.764	12631.1
1421.487	12504.1
1426.205	12409.1
1430.919	12436.1
1435.628	12404.1
1440.333	12380.1
1445.032	12431.1
1449.727	12488.1
1454.418	12408.1
1459.104	12345.1
1463.785	12061.1
1468.462	11802.1
1473.134	11581.1
1477.802	11334.1
1482.465	11137.1
1487.123	11060.1
1491.777	11000.1
1496.426	11078.1
1501.071	11234.1
1505.711	11381.1
1510.347	11631.1
1514.978	11801.1
1519.604	11995.1
1524.226	12132.1
1528.844	12092.1
1533.457	12118.1
1538.065	12076.1
1542.669	11938.1
1547.269	11864.1
1551.864	11778.1
1556.454	11716.1
1561.041	11705.1
1565.622	11662.1
1570.199	11653.1
1574.772	11760.1
1579.34	11846.1
1583.904	11894.1
1588.464	11885.1
1593.019	11883.1
1597.569	11833.1
1602.115	11774.1
1606.657	11661.1
1611.195	11589.1
1615.728	11492.1
1620.256	11459.1
1624.78	11444.1
1629.3	11415.1
1633.816	11518.1
1638.327	11485.1
1642.834	11571.1
1647.336	11609.1
1651.834	11706.1
1656.328	11622.1
1660.817	11548.1
1665.302	11491.1
1669.783	11288.1
1674.259	10995.1
1678.732	10687.1
1683.199	10330.1
1687.663	9915.1
1692.122	9683.1
1696.577	9572.1
1701.028	9575.1
1705.474	9700.1
1709.917	9870.1
1714.355	9888.1
1718.788	9818.1
1723.218	9637.1
1727.643	9495.1
1732.064	9320.1
1736.481	9106.1
1740.893	8850.1
1745.301	8652.1
1749.705	8407.1
1754.105	8168.1
1758.501	7947.1
1762.893	7752.1
1767.28	7545.1
1771.663	7365.1
1776.042	7246.1
1780.417	7147.1
1784.787	7200.1
1789.154	7311.1
1793.516	7445.1
1797.874	7586.1
1802.228	7753.1
1806.578	7814.1
1810.924	7813.1
1815.266	7762.1
1819.603	7665.1
1823.937	7506.1
1828.266	7387.1
1832.591	7268.1
1836.913	7150.1
1841.23	7041.1
1845.543	7034.1
1849.852	6972.1
1854.156	6948.1
1858.457	6934.1
1862.754	6915.1
1867.047	6885.1
1871.335	6945.1
1875.62	6886.1
1879.9	6850.1
1884.177	6808.1
1888.449	6737.1
1892.718	6680.1
1896.982	6590.1
1901.243	6542.1
1905.499	6529.1
1909.752	6494.1
1914	6494.1
1918.245	6517.1
1922.485	6588.1
1926.722	6649.1
1930.954	6724.1
1935.183	6851.1
1939.408	6907.1
1943.628	6969.1
1947.845	6942.1
1952.058	6904.1
1956.267	6844.1
1960.472	6794.1
1964.673	6702.1
1968.87	6560.1
1973.063	6483.1
1977.252	6378.1
1981.438	6312.1
1985.619	6233.1
1989.797	6166.1
1993.971	6172.1
1998.14	6117.1
2002.306	6059.1
2006.469	6101.1
2010.627	6009.1
2014.781	6005.1
2018.932	5935.1
2023.078	5861.1
2027.221	5805.1
2031.36	5732.1
2035.495	5612.1
2039.627	5525.1
2043.754	5477.1
2047.878	5395.1
2051.998	5369.1
2056.114	5363.1
2060.226	5359.1
2064.334	5344.1
2068.439	5399.1
2072.54	5396.1
2076.637	5449.1
2080.73	5502.1
2084.82	5527.1
2088.906	5564.1
2092.988	5519.1
2097.066	5502.1
2101.14	5495.1
2105.211	5457.1
2109.278	5406.1
2113.342	5397.1
2117.401	5392.1
2121.457	5334.1
2125.509	5295.1
2129.558	5249.1
2133.602	5230.1
2137.643	5189.1
2141.681	5146.1
2145.714	5168.1
2149.744	5094.1
2153.77	5069.1
2157.793	5022.1
2161.812	4953.1
2165.827	4894.1
2169.838	4789.1
2173.846	4729.1
2177.851	4646.1
2181.851	4586.1
2185.848	4514.1
2189.841	4483.1
2193.831	4455.1
2197.817	4384.1
2201.799	4377.1
2205.778	4357.1
2209.753	4337.1
2213.725	4332.1
2217.693	4327.1
2221.657	4294.1
2225.618	4303.1
2229.575	4276.1
2233.529	4216.1
2237.479	4219.1
2241.425	4137.1
2245.368	4082.1
2249.307	4016.1
2253.243	3970.1
2257.175	3921.1
2261.104	3875.1
2265.029	3813.1
2268.95	3761.1
2272.868	3750.1
2276.783	3719.1
2280.694	3697.1
2284.601	3647.1
2288.505	3576.1
2292.405	3571.1
2296.302	3512.1
2300.195	3496.1
2304.085	3474.1
2307.971	3383.1
2311.854	3345.1
2315.734	3289.1
2319.609	3247.1
2323.482	3173.1
2327.351	3177.1
2331.216	3146.1
2335.078	3155.1
2338.937	3123.1
2342.792	3109.1
2346.643	3069.1
2350.492	3083.1
2354.336	3061.1
2358.178	3097.1
2362.015	3098.1
2365.85	3115.1
2369.681	3080.1
2373.508	3090.1
2377.333	3097.1
2381.153	3060.1
2384.971	3078.1
2388.785	3028.1
2392.595	3001.1
2396.402	2979.1
2400.206	2929.1
2404.007	2918.1
2407.804	2898.1
2411.597	2909.1
2415.388	2892.1
2419.174	2851.1
2422.958	2823.1
2426.738	2824.1
2430.515	2784.1
2434.289	2752.1
2438.059	2739.1
2441.825	2715.1
2445.589	2727.1
2449.349	2665.1
2453.106	2614.1
2456.859	2595.1
2460.61	2569.1
2464.356	2543.1
2468.1	2496.1
2471.84	2478.1
2475.577	2450.1
2479.311	2416.1
2483.041	2426.1
2486.768	2406.1
2490.492	2414.1
2494.213	2402.1
2497.93	2372.1
2501.644	2405.1
2505.355	2362.1
2509.062	2354.1
2512.766	2330.1
2516.467	2352.1
2520.165	2312.1
2523.859	2303.1
2527.551	2274.1
2531.239	2287.1
2534.923	2242.1
2538.605	2247.1
2542.283	2242.1
2545.958	2225.1
2549.63	2236.1
2553.299	2245.1
2556.964	2218.1
2560.626	2220.1
2564.285	2215.1
2567.941	2201.1
2571.594	2172.1
2575.243	2165.1
2578.89	2168.1
2582.533	2137.1
2586.173	2105.1
2589.809	2103.1
2593.443	2091.1
2597.073	2083.1
2600.701	2017.1
2604.325	2022.1
2607.946	2027.1
2611.564	2018.1
2615.178	1999.1
2618.79	1964.1
2622.398	1965.1
2626.004	1941.1
2629.606	1931.1
2633.205	1906.1
2636.801	1871.1
2640.394	1837.1
2643.983	1810.1
2647.57	1785.1
2651.153	1761.1
2654.734	1725.1
2658.311	1675.1
2661.885	1679.1
2665.456	1651.1
2669.025	1634.1
2672.589	1615.1
2676.151	1608.1
2679.71	1578.1
2683.266	1545.1
2686.819	1521.1
2690.368	1504.1
2693.915	1477.1
2697.458	1442.1
2700.999	1397.1
2704.536	1375.1
2708.071	1346.1
2711.602	1310.1
2715.13	1276.1
2718.656	1261.1
2722.178	1231.1
2725.697	1208.1
2729.214	1221.1
2732.727	1192.1
2736.237	1193.1
2739.744	1183.1
2743.249	1195.1
2746.75	1217.1
2750.248	1232.1
2753.743	1238.1
2757.236	1259.1
2760.725	1263.1
2764.211	1254.1
2767.695	1266.1
2771.175	1265.1
2774.652	1254.1
2778.127	1239.1
2781.598	1228.1
2785.067	1236.1
2788.532	1230.1
2791.995	1223.1
2795.455	1221.1
2798.911	1230.1
2802.365	1228.1
2805.816	1213.1
2809.264	1202.1
2812.709	1221.1
2816.151	1209.1
2819.59	1226.1
2823.026	1205.1
2826.46	1206.1
2829.89	1210.1
2833.318	1220.1
2836.742	1218.1
2840.164	1241.1
2843.583	1224.1
2846.999	1240.1
2850.412	1266.1
2853.822	1270.1
2857.229	1279.1
2860.634	1295.1
2864.035	1307.1
2867.434	1334.1
2870.83	1339.1
2874.223	1379.1
2877.613	1370.1
2881	1417.1
2884.385	1428.1
2887.766	1399.1
2891.145	1395.1
2894.521	1408.1
2897.894	1384.1
2901.264	1388.1
2904.631	1400.1
2907.996	1388.1
2911.358	1406.1
2914.717	1406.1
2918.073	1453.1
2921.426	1417.1
2924.777	1447.1
2928.124	1465.1
2931.469	1496.1
2934.811	1537.1
2938.15	1522.1
2941.487	1545.1
2944.821	1550.1
2948.152	1541.1
2951.48	1521.1
2954.805	1523.1
2958.128	1519.1
2961.447	1498.1
2964.765	1494.1
2968.079	1487.1
2971.39	1495.1
2974.699	1523.1
2978.005	1540.1
2981.308	1571.1
2984.609	1601.1
2987.907	1615.1
2991.202	1668.1
2994.494	1719.1
2997.784	1728.1
3001.07	1766.1
3004.355	1774.1
3007.636	1804.1
3010.915	1825.1
3014.191	1828.1
3017.464	1845.1
3020.734	1864.1
3024.002	1872.1
3027.267	1871.1
3030.53	1876.1
3033.789	1905.1
3037.046	1936.1
3040.301	1959.1
3043.552	1995.1
3046.801	2017.1
3050.048	2067.1
3053.291	2136.1
3056.532	2164.1
3059.771	2220.1
3063.006	2289.1
3066.239	2349.1
3069.469	2416.1
3072.697	2502.1
3075.922	2541.1
3079.144	2599.1
3082.364	2671.1
3085.581	2708.1
3088.795	2784.1
3092.007	2834.1
3095.216	2884.1
3098.423	2954.1
3101.627	3040.1
3104.828	3085.1
3108.026	3135.1
3111.222	3204.1
3114.416	3297.1
3117.607	3348.1
3120.795	3433.1
3123.98	3515.1
3127.163	3624.1
3130.344	3691.1
3133.521	3767.1
3136.696	3848.1
3139.869	3918.1
3143.039	4006.1
3146.206	4087.1
3149.371	4111.1
3152.533	4134.1
3155.693	4156.1
3158.85	4177.1
3162.005	4194.1
3165.157	4216.1
3168.306	4231.1
3171.453	4234.1
3174.597	4236.1
3177.739	4232.1
3180.878	4289.1
3184.014	4255.1
3187.149	4256.1
3190.28	4278.1
3193.409	4284.1
3196.536	4285.1
3199.659	4291.1
3202.781	4297.1
3205.9	4327.1
3209.016	4313.1
3212.13	4290.1
3215.241	4198.1
3218.35	4203.1
3221.456	4135.1
3224.56	4152.1
3227.661	4054.1
3230.76	4040.1
3233.856	3981.1
3236.95	3967.1
3240.041	3932.1
3243.13	3898.1
3246.216	3887.1
3249.3	3830.1
3252.382	3824.1
3255.46	3822.1
3258.537	3783.1
3261.611	3829.1
3264.682	3838.1
3267.751	3806.1
3270.818	3783.1
3273.882	3787.1
3276.943	3735.1
3280.002	3737.1
3283.059	3694.1
3286.113	3646.1
3289.165	3631.1
3292.214	3549.1
3295.261	3486.1
3298.306	3428.1
3301.348	3388.1
3304.387	3334.1
3307.425	3247.1
3310.459	3220.1
3313.492	3178.1
3316.521	3144.1
3319.549	3109.1
3322.574	3080.1
3325.597	3044.1
3328.617	3036.1
3331.635	3018.1
3334.65	2973.1
3337.663	2959.1
3340.674	2936.1
3343.682	2905.1
3346.688	2939.1
3349.691	2913.1
3352.692	2903.1
3355.691	2861.1
3358.687	2854.1
3361.681	2831.1
3364.673	2793.1
3367.662	2732.1
3370.649	2676.1
3373.633	2661.1
3376.615	2619.1
3379.595	2585.1
3382.572	2542.1
3385.547	2498.1
3388.52	2494.1
3391.49	2440.1
3394.458	2392.1
3397.424	2354.1
3400.387	2333.1
3403.348	2297.1
3406.307	2268.1
3409.263	2266.1
3412.217	2220.1
3415.168	2208.1
3418.118	2174.1
3421.065	2140.1
3424.009	2112.1
3426.951	2081.1
3429.891	2020.1
3432.829	2007.1
3435.764	1947.1
3438.697	1918.1
3441.628	1855.1
3444.557	1808.1
3447.483	1718.1
3450.407	1693.1
3453.328	1642.1
3456.247	1580.1
3459.164	1521.1
3462.079	1460.1
3464.991	1406.1
3467.902	1359.1
3470.809	1311.1
3473.715	1260.1
3476.618	1219.1
3479.519	1171.1
3482.418	1128.1
3485.315	1099.1
3488.209	1053.1
3491.101	1025.1
3493.99	978.1
3496.878	945.1
3499.763	901.1
3502.646	874.1
3505.527	829.1
3508.405	791.1
3511.281	742.1
3514.155	708.1
3517.027	678.1
3519.897	598.1
3522.764	580.1
3525.629	530.1
3528.492	490.1
3531.352	438.1
3534.211	413.1
3537.067	368.1
3539.921	327.1
3542.773	290.1
3545.622	244.1
3548.469	237.1
3551.315	194.1
3554.157	166.1
3556.998	136.1
3559.837	121.1
3562.673	78.1
3565.507	45.1
3568.339	37.1
3571.169	11.1
3573.996	-2.9
3576.822	-37.9
3579.645	-48.9
3582.466	-80.9
3585.285	-88.9
3588.101	-105.9
3590.916	-127.9
3593.728	-169.9
3596.538	-175.9
3599.346	-200.9
3602.152	-212.9
3604.956	-222.9
3607.757	-239.9
3610.556	-264.9
3613.354	-267.9
3616.149	-282.9
3618.942	-304.9
3621.732	-306.9
3624.521	-336.9
3627.307	-335.9
3630.092	-345.9
3632.874	-357.9
3635.654	-370.9
3638.432	-374.9
3641.208	-379.9
3643.982	-404.9
3646.753	-408.9
3649.523	-429.9
3652.29	-425.9
3655.055	-436.9
3657.818	-454.9
3660.579	-461.9
3663.338	-481.9
3666.095	-478.9
3668.849	-498.9
3671.602	-502.9
3674.352	-507.9
3677.101	-512.9
3679.847	-527.9
3682.591	-536.9
3685.333	-531.9
3688.073	-532.9
3690.811	-548.9
3693.547	-552.9
3696.281	-559.9
3699.013	-556.9
3701.742	-571.9
3704.47	-574.9
3707.195	-587.9
3709.919	-581.9
3712.64	-594.9
3715.359	-586.9
3718.076	-599.9
3720.792	-597.9
3723.505	-601.9
3726.216	-606.9
3728.925	-606.9
3731.632	-611.9
3734.336	-613.9
3737.039	-615.9
3739.74	-619.9
3742.439	-624.9
3745.136	-624.9
3747.83	-627.9
3750.523	-632.9
3753.213	-605.9
3755.902	-635.9
3758.589	-637.9
3761.273	-638.9
3763.956	-641.9
3766.636	-642.9
3769.315	-641.9
3771.991	-644.9
3774.665	-644.9
3777.338	-650.9
3780.008	-652.9
3782.677	-647.9
3785.343	-650.9
3788.007	-661.9
3790.67	-655.9
3793.33	-655.9
3795.989	-658.9
3798.645	-657.9
3801.299	-654.9
3803.952	-664.9
3806.602	-669.9
3809.251	-663.9
3811.897	-671.9
3814.542	-668.9
3817.184	-670.9
3819.825	-666.9
3822.463	-658.9
3825.1	-673.9
3827.735	-662.9
3830.367	-668.9
3832.998	-671.9
3835.627	-673.9
3838.253	-678.9
3840.878	-678.9
3843.501	-674.9
3846.122	-674.9
3848.741	-677.9
3851.358	-677.9
3853.973	-676.9
3856.586	-677.9
3859.197	-683.9
3861.806	-688.9
3864.414	-678.9
3867.019	-680.9
3869.622	-679.9
3872.224	-679.9
3874.823	-661.9
3877.421	-648.9
3880.016	-637.9
3882.61	-609.9
3885.202	-612.9
3887.792	-624.9
3890.38	-655.9
3892.966	-668.9
3895.55	-672.9
3898.132	-690.9
3900.713	-695.9
3903.291	-691.9
3905.868	-692.9
3908.442	-689.9
3911.015	-694.9
3913.586	-689.9
3916.155	-687.9
3918.722	-693.9
3921.287	-690.9
3923.85	-698.9
3926.411	-697.9
3928.971	-706.9
3931.528	-701.9
3934.084	-700.9
3936.638	-701.9
3939.19	-700.9
3941.74	-696.9
3944.288	-693.9
3946.834	-690.9
3949.378	-700.9
3951.921	-694.9
3954.462	-701.9
3957	-694.9
3959.537	-690.9
3962.072	-692.9
3964.606	-693.9
3967.137	-694.9
3969.667	-694.9
3972.194	-690.9
3974.72	-692.9
3977.244	-684.9
3979.766	-686.9
3982.286	-689.9
3984.805	-688.9
3987.321	-683.9
3989.836	-689.9
3992.349	-683.9
3994.86	-678.9
3997.369	-692.9
3999.877	-678.9
4002.382	-677.9
4004.886	-675.9
4007.388	-677.9
4009.888	-678.9
4012.386	-679.9
4014.883	-678.9
4017.377	-674.9
4019.87	-673.9
4022.361	-681.9
4024.85	-682.9
4027.338	-681.9
4029.823	-683.9
4032.307	-688.9
4034.789	-681.9
4037.269	-676.9
4039.747	-680.9
4042.224	-682.9
4044.699	-686.9
4047.172	-686.9
4049.643	-686.9
4052.112	-691.9
4054.58	-690.9
4057.046	-682.9
4059.51	-687.9
4061.972	-690.9
4064.432	-686.9
4066.891	-683.9
4069.348	-682.9
4071.803	-677.9
4074.256	-682.9
4076.708	-676.9
4079.158	-678.9
4081.606	-683.9
4084.052	-693.9
4086.497	-687.9
4088.939	-676.9
4091.38	-682.9
4093.819	-681.9
4096.257	-717.9
4098.693	-717.9
4101.127	-724.9
4103.559	-720.9
4105.989	-420.9
4108.418	-395.9
4110.845	-368.9
4113.27	-341.9
4115.694	-299.9
4118.115	-246.9
4120.535	-684.9
4122.954	-684.9
4125.37	-670.9
4127.785	-681.9
4130.198	-689.9
4132.609	-688.9
4135.019	-724.9
4137.427	-721.9
4139.833	-725.9
4142.237	-723.9
