Data from 2018-2-14_conc=3_n=1_RamanShift_01.txt Node
Date: Wed Feb 14 11:42:26 IST 2018
User: aro
Spectrometer: QEPB0276
Trigger mode: 0
Integration Time (sec): 3.000000E1
Scans to average: 1
Electric dark correction enabled: true
Nonlinearity correction enabled: false
Boxcar width: 0
XAxis mode: Raman Shifts
Number of Pixels in Spectrum: 1044
>>>>>Begin Spectral Data<<<<<
160.701	-145.1
166.742	40.9
172.777	576.9
178.805	2208.9
184.826	6099.9
190.841	12753.9
196.849	20428.9
202.85	25797.9
208.845	27474.9
214.833	27206.9
220.815	26779.9
226.789	26487.9
232.758	26386.9
238.719	26199.9
244.674	25875.9
250.623	25366.9
256.565	24847.9
262.5	24345.9
268.429	23887.9
274.351	23508.9
280.267	23163.9
286.176	22942.9
292.079	22673.9
297.975	22458.9
303.865	22314.9
309.748	22044.9
315.625	21974.9
321.495	21841.9
327.359	21779.9
333.217	21708.9
339.068	21749.9
344.912	21666.9
350.751	21636.9
356.583	21643.9
362.408	21615.9
368.227	21642.9
374.04	21581.9
379.847	21663.9
385.647	21739.9
391.44	21867.9
397.228	21949.9
403.009	22008.9
408.784	22104.9
414.553	22137.9
420.315	22196.9
426.071	22215.9
431.821	22148.9
437.565	22151.9
443.302	22110.9
449.033	22023.9
454.758	22013.9
460.477	21970.9
466.189	21979.9
471.896	21900.9
477.596	21770.9
483.29	21818.9
488.978	21756.9
494.66	21678.9
500.335	21533.9
506.005	21327.9
511.668	20988.9
517.325	20827.9
522.977	20642.9
528.622	20515.9
534.261	20378.9
539.894	20251.9
545.521	20103.9
551.141	20087.9
556.756	20030.9
562.365	19939.9
567.968	19845.9
573.565	19763.9
579.155	19666.9
584.74	19572.9
590.319	19446.9
595.892	19425.9
601.459	19401.9
607.02	19227.9
612.575	19098.9
618.124	19077.9
623.667	18945.9
629.204	18848.9
634.735	18756.9
640.261	18670.9
645.781	18605.9
651.294	18578.9
656.802	18564.9
662.304	18456.9
667.8	18441.9
673.29	18484.9
678.775	18368.9
684.254	18394.9
689.726	18295.9
695.193	18156.9
700.655	18121.9
706.11	18025.9
711.56	17955.9
717.004	17828.9
722.442	17750.9
727.874	17654.9
733.301	17673.9
738.722	17575.9
744.137	17555.9
749.547	17528.9
754.951	17565.9
760.349	17507.9
765.741	17517.9
771.128	17538.9
776.509	17529.9
781.885	17574.9
787.254	17431.9
792.618	17421.9
797.977	17320.9
803.33	17158.9
808.677	17105.9
814.019	16978.9
819.355	16918.9
824.686	16852.9
830.011	16780.9
835.33	16758.9
840.644	16766.9
845.952	16828.9
851.255	16858.9
856.552	16840.9
861.844	16824.9
867.13	16728.9
872.41	16674.9
877.686	16622.9
882.955	16424.9
888.219	16343.9
893.478	16162.9
898.731	16000.9
903.979	15803.9
909.221	15666.9
914.458	15575.9
919.69	15606.9
924.916	15663.9
930.136	15709.9
935.351	15700.9
940.561	15665.9
945.766	15634.9
950.965	15554.9
956.158	15456.9
961.347	15274.9
966.529	15143.9
971.707	14864.9
976.879	14675.9
982.046	14609.9
987.208	14543.9
992.364	14596.9
997.515	14634.9
1002.66	14740.9
1007.801	14893.9
1012.936	15037.9
1018.066	15035.9
1023.19	15038.9
1028.309	15009.9
1033.423	14954.9
1038.532	14907.9
1043.636	14744.9
1048.734	14629.9
1053.827	14384.9
1058.915	14212.9
1063.998	14129.9
1069.075	14105.9
1074.147	14102.9
1079.214	14134.9
1084.276	14163.9
1089.333	14349.9
1094.385	14364.9
1099.431	14381.9
1104.472	14407.9
1109.509	14363.9
1114.54	14193.9
1119.565	13991.9
1124.586	13759.9
1129.602	13669.9
1134.613	13564.9
1139.618	13463.9
1144.619	13410.9
1149.614	13454.9
1154.604	13447.9
1159.589	13481.9
1164.57	13535.9
1169.545	13561.9
1174.515	13577.9
1179.48	13443.9
1184.44	13366.9
1189.395	13213.9
1194.345	13181.9
1199.29	13116.9
1204.23	13066.9
1209.165	13092.9
1214.095	13162.9
1219.021	13233.9
1223.941	13334.9
1228.856	13399.9
1233.766	13429.9
1238.672	13464.9
1243.572	13433.9
1248.467	13300.9
1253.358	13217.9
1258.244	12980.9
1263.124	12772.9
1268	12622.9
1272.871	12474.9
1277.737	12345.9
1282.599	12271.9
1287.455	12280.9
1292.306	12302.9
1297.153	12321.9
1301.995	12406.9
1306.832	12436.9
1311.664	12415.9
1316.491	12403.9
1321.314	12290.9
1326.132	12089.9
1330.945	11828.9
1335.753	11522.9
1340.556	11286.9
1345.354	11009.9
1350.148	10812.9
1354.937	10733.9
1359.722	10725.9
1364.501	10711.9
1369.276	10871.9
1374.046	10952.9
1378.811	11160.9
1383.572	11230.9
1388.327	11272.9
1393.079	11225.9
1397.825	11110.9
1402.567	10973.9
1407.304	10865.9
1412.036	10747.9
1416.764	10675.9
1421.487	10574.9
1426.205	10524.9
1430.919	10498.9
1435.628	10479.9
1440.333	10502.9
1445.032	10521.9
1449.727	10559.9
1454.418	10517.9
1459.104	10413.9
1463.785	10190.9
1468.462	9966.9
1473.134	9731.9
1477.802	9531.9
1482.465	9356.9
1487.123	9258.9
1491.777	9155.9
1496.426	9201.9
1501.071	9305.9
1505.711	9415.9
1510.347	9590.9
1514.978	9772.9
1519.604	9943.9
1524.226	10034.9
1528.844	10029.9
1533.457	10013.9
1538.065	9991.9
1542.669	9897.9
1547.269	9853.9
1551.864	9842.9
1556.454	9772.9
1561.041	9803.9
1565.622	9739.9
1570.199	9795.9
1574.772	9842.9
1579.34	9921.9
1583.904	9944.9
1588.464	9996.9
1593.019	9980.9
1597.569	9956.9
1602.115	9917.9
1606.657	9801.9
1611.195	9780.9
1615.728	9737.9
1620.256	9703.9
1624.78	9686.9
1629.3	9658.9
1633.816	9668.9
1638.327	9732.9
1642.834	9834.9
1647.336	9805.9
1651.834	9845.9
1656.328	9765.9
1660.817	9711.9
1665.302	9623.9
1669.783	9454.9
1674.259	9229.9
1678.732	8932.9
1683.199	8621.9
1687.663	8318.9
1692.122	8059.9
1696.577	7911.9
1701.028	7849.9
1705.474	7889.9
1709.917	7963.9
1714.355	8012.9
1718.788	7978.9
1723.218	7867.9
1727.643	7741.9
1732.064	7615.9
1736.481	7441.9
1740.893	7221.9
1745.301	7043.9
1749.705	6835.9
1754.105	6641.9
1758.501	6468.9
1762.893	6284.9
1767.28	6108.9
1771.663	5968.9
1776.042	5857.9
1780.417	5741.9
1784.787	5738.9
1789.154	5811.9
1793.516	5919.9
1797.874	5999.9
1802.228	6092.9
1806.578	6202.9
1810.924	6202.9
1815.266	6163.9
1819.603	6064.9
1823.937	5965.9
1828.266	5864.9
1832.591	5785.9
1836.913	5665.9
1841.23	5669.9
1845.543	5570.9
1849.852	5576.9
1854.156	5558.9
1858.457	5534.9
1862.754	5521.9
1867.047	5532.9
1871.335	5538.9
1875.62	5511.9
1879.9	5460.9
1884.177	5437.9
1888.449	5372.9
1892.718	5299.9
1896.982	5217.9
1901.243	5208.9
1905.499	5161.9
1909.752	5098.9
1914	5074.9
1918.245	5119.9
1922.485	5166.9
1926.722	5199.9
1930.954	5257.9
1935.183	5345.9
1939.408	5427.9
1943.628	5447.9
1947.845	5456.9
1952.058	5450.9
1956.267	5372.9
1960.472	5312.9
1964.673	5273.9
1968.87	5158.9
1973.063	5093.9
1977.252	5033.9
1981.438	4969.9
1985.619	4951.9
1989.797	4880.9
1993.971	4858.9
1998.14	4825.9
2002.306	4819.9
2006.469	4796.9
2010.627	4798.9
2014.781	4726.9
2018.932	4696.9
2023.078	4634.9
2027.221	4596.9
2031.36	4500.9
2035.495	4446.9
2039.627	4383.9
2043.754	4306.9
2047.878	4268.9
2051.998	4246.9
2056.114	4234.9
2060.226	4199.9
2064.334	4224.9
2068.439	4229.9
2072.54	4259.9
2076.637	4268.9
2080.73	4318.9
2084.82	4325.9
2088.906	4339.9
2092.988	4343.9
2097.066	4307.9
2101.14	4323.9
2105.211	4250.9
2109.278	4250.9
2113.342	4227.9
2117.401	4175.9
2121.457	4200.9
2125.509	4178.9
2129.558	4150.9
2133.602	4096.9
2137.643	4076.9
2141.681	4064.9
2145.714	4064.9
2149.744	4040.9
2153.77	3962.9
2157.793	3962.9
2161.812	3880.9
2165.827	3864.9
2169.838	3802.9
2173.846	3745.9
2177.851	3678.9
2181.851	3592.9
2185.848	3569.9
2189.841	3530.9
2193.831	3507.9
2197.817	3448.9
2201.799	3432.9
2205.778	3413.9
2209.753	3434.9
2213.725	3372.9
2217.693	3383.9
2221.657	3382.9
2225.618	3414.9
2229.575	3366.9
2233.529	3328.9
2237.479	3308.9
2241.425	3263.9
2245.368	3226.9
2249.307	3174.9
2253.243	3138.9
2257.175	3082.9
2261.104	3042.9
2265.029	2970.9
2268.95	2979.9
2272.868	2919.9
2276.783	2894.9
2280.694	2866.9
2284.601	2859.9
2288.505	2803.9
2292.405	2800.9
2296.302	2766.9
2300.195	2725.9
2304.085	2696.9
2307.971	2657.9
2311.854	2618.9
2315.734	2594.9
2319.609	2538.9
2323.482	2516.9
2327.351	2479.9
2331.216	2463.9
2335.078	2478.9
2338.937	2421.9
2342.792	2428.9
2346.643	2442.9
2350.492	2430.9
2354.336	2441.9
2358.178	2434.9
2362.015	2437.9
2365.85	2437.9
2369.681	2427.9
2373.508	2445.9
2377.333	2462.9
2381.153	2442.9
2384.971	2426.9
2388.785	2396.9
2392.595	2386.9
2396.402	2358.9
2400.206	2351.9
2404.007	2330.9
2407.804	2309.9
2411.597	2280.9
2415.388	2266.9
2419.174	2267.9
2422.958	2243.9
2426.738	2235.9
2430.515	2217.9
2434.289	2192.9
2438.059	2177.9
2441.825	2148.9
2445.589	2128.9
2449.349	2122.9
2453.106	2067.9
2456.859	2035.9
2460.61	2026.9
2464.356	2006.9
2468.1	1973.9
2471.84	1944.9
2475.577	1934.9
2479.311	1929.9
2483.041	1884.9
2486.768	1917.9
2490.492	1873.9
2494.213	1889.9
2497.93	1885.9
2501.644	1857.9
2505.355	1856.9
2509.062	1836.9
2512.766	1829.9
2516.467	1821.9
2520.165	1798.9
2523.859	1792.9
2527.551	1766.9
2531.239	1752.9
2534.923	1757.9
2538.605	1742.9
2542.283	1737.9
2545.958	1724.9
2549.63	1724.9
2553.299	1717.9
2556.964	1719.9
2560.626	1705.9
2564.285	1719.9
2567.941	1691.9
2571.594	1682.9
2575.243	1670.9
2578.89	1649.9
2582.533	1648.9
2586.173	1636.9
2589.809	1629.9
2593.443	1610.9
2597.073	1596.9
2600.701	1578.9
2604.325	1555.9
2607.946	1538.9
2611.564	1548.9
2615.178	1546.9
2618.79	1505.9
2622.398	1494.9
2626.004	1488.9
2629.606	1465.9
2633.205	1443.9
2636.801	1430.9
2640.394	1396.9
2643.983	1374.9
2647.57	1370.9
2651.153	1346.9
2654.734	1318.9
2658.311	1304.9
2661.885	1290.9
2665.456	1274.9
2669.025	1257.9
2672.589	1241.9
2676.151	1221.9
2679.71	1199.9
2683.266	1185.9
2686.819	1159.9
2690.368	1139.9
2693.915	1115.9
2697.458	1079.9
2700.999	1058.9
2704.536	1032.9
2708.071	998.9
2711.602	989.9
2715.13	956.9
2718.656	940.9
2722.178	929.9
2725.697	891.9
2729.214	896.9
2732.727	881.9
2736.237	873.9
2739.744	864.9
2743.249	869.9
2746.75	887.9
2750.248	886.9
2753.743	896.9
2757.236	913.9
2760.725	907.9
2764.211	909.9
2767.695	924.9
2771.175	930.9
2774.652	931.9
2778.127	903.9
2781.598	896.9
2785.067	916.9
2788.532	902.9
2791.995	893.9
2795.455	903.9
2798.911	899.9
2802.365	909.9
2805.816	912.9
2809.264	900.9
2812.709	899.9
2816.151	897.9
2819.59	907.9
2823.026	898.9
2826.46	921.9
2829.89	929.9
2833.318	923.9
2836.742	913.9
2840.164	926.9
2843.583	927.9
2846.999	948.9
2850.412	967.9
2853.822	970.9
2857.229	976.9
2860.634	1002.9
2864.035	1024.9
2867.434	1044.9
2870.83	1078.9
2874.223	1076.9
2877.613	1112.9
2881	1129.9
2884.385	1137.9
2887.766	1131.9
2891.145	1129.9
2894.521	1141.9
2897.894	1133.9
2901.264	1142.9
2904.631	1132.9
2907.996	1131.9
2911.358	1170.9
2914.717	1142.9
2918.073	1169.9
2921.426	1173.9
2924.777	1186.9
2928.124	1215.9
2931.469	1239.9
2934.811	1281.9
2938.15	1277.9
2941.487	1276.9
2944.821	1288.9
2948.152	1289.9
2951.48	1276.9
2954.805	1275.9
2958.128	1273.9
2961.447	1265.9
2964.765	1239.9
2968.079	1257.9
2971.39	1270.9
2974.699	1294.9
2978.005	1305.9
2981.308	1320.9
2984.609	1343.9
2987.907	1378.9
2991.202	1412.9
2994.494	1434.9
2997.784	1472.9
3001.07	1496.9
3004.355	1523.9
3007.636	1549.9
3010.915	1568.9
3014.191	1587.9
3017.464	1581.9
3020.734	1619.9
3024.002	1630.9
3027.267	1629.9
3030.53	1643.9
3033.789	1681.9
3037.046	1690.9
3040.301	1722.9
3043.552	1747.9
3046.801	1802.9
3050.048	1847.9
3053.291	1877.9
3056.532	1924.9
3059.771	1984.9
3063.006	2057.9
3066.239	2115.9
3069.469	2199.9
3072.697	2227.9
3075.922	2282.9
3079.144	2367.9
3082.364	2409.9
3085.581	2458.9
3088.795	2521.9
3092.007	2568.9
3095.216	2610.9
3098.423	2666.9
3101.627	2751.9
3104.828	2791.9
3108.026	2867.9
3111.222	2954.9
3114.416	2989.9
3117.607	3069.9
3120.795	3146.9
3123.98	3227.9
3127.163	3311.9
3130.344	3386.9
3133.521	3468.9
3136.696	3536.9
3139.869	3600.9
3143.039	3680.9
3146.206	3754.9
3149.371	3794.9
3152.533	3826.9
3155.693	3821.9
3158.85	3857.9
3162.005	3874.9
3165.157	3902.9
3168.306	3929.9
3171.453	3923.9
3174.597	3924.9
3177.739	3963.9
3180.878	3926.9
3184.014	3944.9
3187.149	3935.9
3190.28	3950.9
3193.409	3945.9
3196.536	3937.9
3199.659	3968.9
3202.781	3970.9
3205.9	3939.9
3209.016	3982.9
3212.13	3925.9
3215.241	3888.9
3218.35	3880.9
3221.456	3858.9
3224.56	3783.9
3227.661	3727.9
3230.76	3682.9
3233.856	3661.9
3236.95	3634.9
3240.041	3610.9
3243.13	3565.9
3246.216	3523.9
3249.3	3534.9
3252.382	3506.9
3255.46	3484.9
3258.537	3506.9
3261.611	3507.9
3264.682	3492.9
3267.751	3501.9
3270.818	3471.9
3273.882	3470.9
3276.943	3484.9
3280.002	3418.9
3283.059	3379.9
3286.113	3331.9
3289.165	3327.9
3292.214	3272.9
3295.261	3230.9
3298.306	3172.9
3301.348	3114.9
3304.387	3065.9
3307.425	3022.9
3310.459	2970.9
3313.492	2891.9
3316.521	2886.9
3319.549	2841.9
3322.574	2831.9
3325.597	2788.9
3328.617	2796.9
3331.635	2770.9
3334.65	2754.9
3337.663	2719.9
3340.674	2682.9
3343.682	2701.9
3346.688	2682.9
3349.691	2685.9
3352.692	2676.9
3355.691	2645.9
3358.687	2627.9
3361.681	2574.9
3364.673	2571.9
3367.662	2522.9
3370.649	2502.9
3373.633	2439.9
3376.615	2416.9
3379.595	2361.9
3382.572	2341.9
3385.547	2304.9
3388.52	2272.9
3391.49	2222.9
3394.458	2202.9
3397.424	2167.9
3400.387	2131.9
3403.348	2121.9
3406.307	2086.9
3409.263	2073.9
3412.217	2035.9
3415.168	2023.9
3418.118	1982.9
3421.065	1963.9
3424.009	1935.9
3426.951	1901.9
3429.891	1862.9
3432.829	1839.9
3435.764	1781.9
3438.697	1756.9
3441.628	1691.9
3444.557	1652.9
3447.483	1581.9
3450.407	1543.9
3453.328	1489.9
3456.247	1448.9
3459.164	1381.9
3462.079	1331.9
3464.991	1286.9
3467.902	1242.9
3470.809	1187.9
3473.715	1150.9
3476.618	1098.9
3479.519	1065.9
3482.418	1035.9
3485.315	999.9
3488.209	956.9
3491.101	908.9
3493.99	893.9
3496.878	850.9
3499.763	808.9
3502.646	781.9
3505.527	759.9
3508.405	709.9
3511.281	670.9
3514.155	635.9
3517.027	603.9
3519.897	555.9
3522.764	519.9
3525.629	462.9
3528.492	430.9
3531.352	387.9
3534.211	369.9
3537.067	319.9
3539.921	284.9
3542.773	252.9
3545.622	204.9
3548.469	182.9
3551.315	156.9
3554.157	140.9
3556.998	113.9
3559.837	86.9
3562.673	63.9
3565.507	46.9
3568.339	21.9
3571.169	9.9
3573.996	-9.1
3576.822	-43.1
3579.645	-52.1
3582.466	-76.1
3585.285	-94.1
3588.101	-117.1
3590.916	-134.1
3593.728	-162.1
3596.538	-164.1
3599.346	-193.1
3602.152	-202.1
3604.956	-216.1
3607.757	-239.1
3610.556	-253.1
3613.354	-270.1
3616.149	-277.1
3618.942	-287.1
3621.732	-294.1
3624.521	-316.1
3627.307	-323.1
3630.092	-339.1
3632.874	-340.1
3635.654	-345.1
3638.432	-356.1
3641.208	-363.1
3643.982	-378.1
3646.753	-384.1
3649.523	-400.1
3652.29	-402.1
3655.055	-410.1
3657.818	-420.1
3660.579	-429.1
3663.338	-455.1
3666.095	-448.1
3668.849	-462.1
3671.602	-471.1
3674.352	-482.1
3677.101	-481.1
3679.847	-493.1
3682.591	-500.1
3685.333	-502.1
3688.073	-501.1
3690.811	-520.1
3693.547	-514.1
3696.281	-526.1
3699.013	-527.1
3701.742	-537.1
3704.47	-541.1
3707.195	-549.1
3709.919	-542.1
3712.64	-553.1
3715.359	-552.1
3718.076	-555.1
3720.792	-552.1
3723.505	-556.1
3726.216	-569.1
3728.925	-566.1
3731.632	-570.1
3734.336	-577.1
3737.039	-576.1
3739.74	-576.1
3742.439	-580.1
3745.136	-581.1
3747.83	-590.1
3750.523	-589.1
3753.213	-566.1
3755.902	-591.1
3758.589	-596.1
3761.273	-595.1
3763.956	-604.1
3766.636	-597.1
3769.315	-604.1
3771.991	-598.1
3774.665	-603.1
3777.338	-604.1
3780.008	-606.1
3782.677	-609.1
3785.343	-607.1
3788.007	-607.1
3790.67	-608.1
3793.33	-616.1
3795.989	-618.1
3798.645	-615.1
3801.299	-607.1
3803.952	-628.1
3806.602	-629.1
3809.251	-628.1
3811.897	-622.1
3814.542	-622.1
3817.184	-618.1
3819.825	-620.1
3822.463	-617.1
3825.1	-628.1
3827.735	-618.1
3830.367	-619.1
3832.998	-632.1
3835.627	-631.1
3838.253	-633.1
3840.878	-635.1
3843.501	-635.1
3846.122	-628.1
3848.741	-633.1
3851.358	-631.1
3853.973	-636.1
3856.586	-631.1
3859.197	-635.1
3861.806	-637.1
3864.414	-634.1
3867.019	-633.1
3869.622	-633.1
3872.224	-630.1
3874.823	-613.1
3877.421	-602.1
3880.016	-591.1
3882.61	-574.1
3885.202	-564.1
3887.792	-579.1
3890.38	-604.1
3892.966	-622.1
3895.55	-631.1
3898.132	-648.1
3900.713	-647.1
3903.291	-643.1
3905.868	-647.1
3908.442	-649.1
3911.015	-646.1
3913.586	-644.1
3916.155	-642.1
3918.722	-647.1
3921.287	-649.1
3923.85	-651.1
3926.411	-648.1
3928.971	-654.1
3931.528	-656.1
3934.084	-649.1
3936.638	-650.1
3939.19	-654.1
3941.74	-651.1
3944.288	-651.1
3946.834	-644.1
3949.378	-650.1
3951.921	-651.1
3954.462	-654.1
3957	-650.1
3959.537	-647.1
3962.072	-653.1
3964.606	-647.1
3967.137	-650.1
3969.667	-650.1
3972.194	-641.1
3974.72	-647.1
3977.244	-637.1
3979.766	-634.1
3982.286	-644.1
3984.805	-639.1
3987.321	-636.1
3989.836	-636.1
3992.349	-629.1
3994.86	-634.1
3997.369	-642.1
3999.877	-627.1
4002.382	-628.1
4004.886	-633.1
4007.388	-636.1
4009.888	-628.1
4012.386	-640.1
4014.883	-634.1
4017.377	-634.1
4019.87	-635.1
4022.361	-640.1
4024.85	-637.1
4027.338	-637.1
4029.823	-634.1
4032.307	-636.1
4034.789	-630.1
4037.269	-634.1
4039.747	-639.1
4042.224	-642.1
4044.699	-631.1
4047.172	-635.1
4049.643	-640.1
4052.112	-647.1
4054.58	-644.1
4057.046	-642.1
4059.51	-643.1
4061.972	-645.1
4064.432	-644.1
4066.891	-641.1
4069.348	-639.1
4071.803	-634.1
4074.256	-632.1
4076.708	-632.1
4079.158	-635.1
4081.606	-641.1
4084.052	-643.1
4086.497	-636.1
4088.939	-633.1
4091.38	-637.1
4093.819	-638.1
4096.257	-671.1
4098.693	-673.1
4101.127	-674.1
4103.559	-671.1
4105.989	-390.1
4108.418	-367.1
4110.845	-345.1
4113.27	-316.1
4115.694	-282.1
4118.115	-230.1
4120.535	-637.1
4122.954	-640.1
4125.37	-631.1
4127.785	-640.1
4130.198	-642.1
4132.609	-639.1
4135.019	-668.1
4137.427	-675.1
4139.833	-670.1
4142.237	-668.1
