Data from 2018-2-14_conc=6_n=1_RamanShift_03.txt Node
Date: Wed Feb 14 14:43:25 IST 2018
User: aro
Spectrometer: QEPB0276
Trigger mode: 0
Integration Time (sec): 3.000000E1
Scans to average: 1
Electric dark correction enabled: true
Nonlinearity correction enabled: false
Boxcar width: 0
XAxis mode: Raman Shifts
Number of Pixels in Spectrum: 1044
>>>>>Begin Spectral Data<<<<<
160.701	-140.1
166.742	43.9
172.777	580.9
178.805	2202.9
184.826	6088.9
190.841	12716.9
196.849	20456.9
202.85	25868.9
208.845	27613.9
214.833	27340.9
220.815	26868.9
226.789	26695.9
232.758	26565.9
238.719	26438.9
244.674	26053.9
250.623	25620.9
256.565	25009.9
262.5	24539.9
268.429	24082.9
274.351	23741.9
280.267	23423.9
286.176	23112.9
292.079	22940.9
297.975	22702.9
303.865	22529.9
309.748	22372.9
315.625	22180.9
321.495	22097.9
327.359	21952.9
333.217	22002.9
339.068	21947.9
344.912	21910.9
350.751	21838.9
356.583	21837.9
362.408	21825.9
368.227	21836.9
374.04	21843.9
379.847	21873.9
385.647	21995.9
391.44	22065.9
397.228	22151.9
403.009	22276.9
408.784	22361.9
414.553	22408.9
420.315	22411.9
426.071	22442.9
431.821	22415.9
437.565	22411.9
443.302	22387.9
449.033	22356.9
454.758	22286.9
460.477	22241.9
466.189	22181.9
471.896	22186.9
477.596	22036.9
483.29	22026.9
488.978	22003.9
494.66	21914.9
500.335	21790.9
506.005	21558.9
511.668	21226.9
517.325	20931.9
522.977	20759.9
528.622	20615.9
534.261	20501.9
539.894	20358.9
545.521	20315.9
551.141	20248.9
556.756	20059.9
562.365	20091.9
567.968	19989.9
573.565	19923.9
579.155	19801.9
584.74	19694.9
590.319	19667.9
595.892	19591.9
601.459	19483.9
607.02	19396.9
612.575	19308.9
618.124	19185.9
623.667	19026.9
629.204	19024.9
634.735	18862.9
640.261	18775.9
645.781	18723.9
651.294	18728.9
656.802	18663.9
662.304	18572.9
667.8	18652.9
673.29	18536.9
678.775	18588.9
684.254	18457.9
689.726	18407.9
695.193	18303.9
700.655	18247.9
706.11	18176.9
711.56	18119.9
717.004	18002.9
722.442	17929.9
727.874	17867.9
733.301	17734.9
738.722	17703.9
744.137	17707.9
749.547	17680.9
754.951	17649.9
760.349	17658.9
765.741	17672.9
771.128	17695.9
776.509	17747.9
781.885	17691.9
787.254	17643.9
792.618	17588.9
797.977	17493.9
803.33	17413.9
808.677	17262.9
814.019	17145.9
819.355	17108.9
824.686	17047.9
830.011	16949.9
835.33	16966.9
840.644	16968.9
845.952	17020.9
851.255	16983.9
856.552	17053.9
861.844	16989.9
867.13	16933.9
872.41	16901.9
877.686	16765.9
882.955	16658.9
888.219	16547.9
893.478	16403.9
898.731	16159.9
903.979	15973.9
909.221	15857.9
914.458	15783.9
919.69	15785.9
924.916	15816.9
930.136	15876.9
935.351	15874.9
940.561	15887.9
945.766	15878.9
950.965	15757.9
956.158	15711.9
961.347	15496.9
966.529	15249.9
971.707	15088.9
976.879	14969.9
982.046	14793.9
987.208	14714.9
992.364	14719.9
997.515	14871.9
1002.66	14963.9
1007.801	15172.9
1012.936	15225.9
1018.066	15270.9
1023.19	15259.9
1028.309	15243.9
1033.423	15194.9
1038.532	15111.9
1043.636	15004.9
1048.734	14834.9
1053.827	14663.9
1058.915	14492.9
1063.998	14365.9
1069.075	14304.9
1074.147	14322.9
1079.214	14394.9
1084.276	14460.9
1089.333	14522.9
1094.385	14594.9
1099.431	14670.9
1104.472	14682.9
1109.509	14583.9
1114.54	14366.9
1119.565	14262.9
1124.586	14036.9
1129.602	13892.9
1134.613	13824.9
1139.618	13708.9
1144.619	13727.9
1149.614	13689.9
1154.604	13743.9
1159.589	13782.9
1164.57	13799.9
1169.545	13756.9
1174.515	13788.9
1179.48	13730.9
1184.44	13619.9
1189.395	13532.9
1194.345	13433.9
1199.29	13323.9
1204.23	13369.9
1209.165	13352.9
1214.095	13475.9
1219.021	13537.9
1223.941	13596.9
1228.856	13685.9
1233.766	13687.9
1238.672	13710.9
1243.572	13745.9
1248.467	13590.9
1253.358	13447.9
1258.244	13230.9
1263.124	13024.9
1268	12861.9
1272.871	12683.9
1277.737	12652.9
1282.599	12559.9
1287.455	12546.9
1292.306	12541.9
1297.153	12587.9
1301.995	12689.9
1306.832	12746.9
1311.664	12733.9
1316.491	12695.9
1321.314	12604.9
1326.132	12411.9
1330.945	12169.9
1335.753	11855.9
1340.556	11576.9
1345.354	11351.9
1350.148	11168.9
1354.937	11048.9
1359.722	11033.9
1364.501	11113.9
1369.276	11191.9
1374.046	11364.9
1378.811	11483.9
1383.572	11580.9
1388.327	11663.9
1393.079	11583.9
1397.825	11410.9
1402.567	11276.9
1407.304	11098.9
1412.036	11034.9
1416.764	10939.9
1421.487	10909.9
1426.205	10826.9
1430.919	10796.9
1435.628	10814.9
1440.333	10861.9
1445.032	10858.9
1449.727	10906.9
1454.418	10857.9
1459.104	10717.9
1463.785	10547.9
1468.462	10306.9
1473.134	10138.9
1477.802	9920.9
1482.465	9771.9
1487.123	9646.9
1491.777	9634.9
1496.426	9657.9
1501.071	9770.9
1505.711	9878.9
1510.347	9990.9
1514.978	10213.9
1519.604	10368.9
1524.226	10436.9
1528.844	10445.9
1533.457	10432.9
1538.065	10443.9
1542.669	10296.9
1547.269	10229.9
1551.864	10175.9
1556.454	10161.9
1561.041	10083.9
1565.622	10152.9
1570.199	10120.9
1574.772	10253.9
1579.34	10268.9
1583.904	10353.9
1588.464	10365.9
1593.019	10390.9
1597.569	10299.9
1602.115	10290.9
1606.657	10211.9
1611.195	10153.9
1615.728	10098.9
1620.256	10015.9
1624.78	10038.9
1629.3	10066.9
1633.816	10106.9
1638.327	10132.9
1642.834	10168.9
1647.336	10230.9
1651.834	10220.9
1656.328	10230.9
1660.817	10152.9
1665.302	10037.9
1669.783	9906.9
1674.259	9670.9
1678.732	9405.9
1683.199	9095.9
1687.663	8782.9
1692.122	8526.9
1696.577	8343.9
1701.028	8335.9
1705.474	8352.9
1709.917	8419.9
1714.355	8488.9
1718.788	8398.9
1723.218	8332.9
1727.643	8155.9
1732.064	7977.9
1736.481	7799.9
1740.893	7634.9
1745.301	7405.9
1749.705	7241.9
1754.105	7035.9
1758.501	6833.9
1762.893	6663.9
1767.28	6485.9
1771.663	6361.9
1776.042	6226.9
1780.417	6180.9
1784.787	6141.9
1789.154	6190.9
1793.516	6334.9
1797.874	6446.9
1802.228	6545.9
1806.578	6585.9
1810.924	6605.9
1815.266	6507.9
1819.603	6505.9
1823.937	6385.9
1828.266	6256.9
1832.591	6177.9
1836.913	6067.9
1841.23	6017.9
1845.543	5982.9
1849.852	5952.9
1854.156	5923.9
1858.457	5941.9
1862.754	5911.9
1867.047	5923.9
1871.335	5913.9
1875.62	5899.9
1879.9	5872.9
1884.177	5823.9
1888.449	5783.9
1892.718	5711.9
1896.982	5685.9
1901.243	5613.9
1905.499	5555.9
1909.752	5530.9
1914	5525.9
1918.245	5579.9
1922.485	5617.9
1926.722	5653.9
1930.954	5695.9
1935.183	5779.9
1939.408	5812.9
1943.628	5872.9
1947.845	5897.9
1952.058	5863.9
1956.267	5800.9
1960.472	5727.9
1964.673	5645.9
1968.87	5558.9
1973.063	5483.9
1977.252	5412.9
1981.438	5331.9
1985.619	5297.9
1989.797	5260.9
1993.971	5217.9
1998.14	5205.9
2002.306	5141.9
2006.469	5151.9
2010.627	5114.9
2014.781	5101.9
2018.932	5074.9
2023.078	5002.9
2027.221	4945.9
2031.36	4873.9
2035.495	4816.9
2039.627	4742.9
2043.754	4685.9
2047.878	4648.9
2051.998	4616.9
2056.114	4606.9
2060.226	4578.9
2064.334	4586.9
2068.439	4604.9
2072.54	4648.9
2076.637	4676.9
2080.73	4705.9
2084.82	4707.9
2088.906	4714.9
2092.988	4755.9
2097.066	4701.9
2101.14	4682.9
2105.211	4634.9
2109.278	4632.9
2113.342	4577.9
2117.401	4576.9
2121.457	4534.9
2125.509	4535.9
2129.558	4507.9
2133.602	4465.9
2137.643	4433.9
2141.681	4434.9
2145.714	4389.9
2149.744	4383.9
2153.77	4324.9
2157.793	4303.9
2161.812	4239.9
2165.827	4179.9
2169.838	4119.9
2173.846	4051.9
2177.851	3986.9
2181.851	3939.9
2185.848	3881.9
2189.841	3818.9
2193.831	3806.9
2197.817	3755.9
2201.799	3723.9
2205.778	3736.9
2209.753	3721.9
2213.725	3686.9
2217.693	3684.9
2221.657	3704.9
2225.618	3670.9
2229.575	3648.9
2233.529	3628.9
2237.479	3585.9
2241.425	3532.9
2245.368	3533.9
2249.307	3465.9
2253.243	3402.9
2257.175	3369.9
2261.104	3302.9
2265.029	3273.9
2268.95	3237.9
2272.868	3207.9
2276.783	3182.9
2280.694	3138.9
2284.601	3104.9
2288.505	3072.9
2292.405	3058.9
2296.302	3009.9
2300.195	2996.9
2304.085	2924.9
2307.971	2905.9
2311.854	2855.9
2315.734	2810.9
2319.609	2782.9
2323.482	2767.9
2327.351	2722.9
2331.216	2690.9
2335.078	2707.9
2338.937	2668.9
2342.792	2661.9
2346.643	2647.9
2350.492	2643.9
2354.336	2632.9
2358.178	2650.9
2362.015	2654.9
2365.85	2662.9
2369.681	2663.9
2373.508	2660.9
2377.333	2688.9
2381.153	2665.9
2384.971	2650.9
2388.785	2631.9
2392.595	2591.9
2396.402	2560.9
2400.206	2547.9
2404.007	2554.9
2407.804	2521.9
2411.597	2509.9
2415.388	2491.9
2419.174	2469.9
2422.958	2456.9
2426.738	2438.9
2430.515	2419.9
2434.289	2410.9
2438.059	2386.9
2441.825	2347.9
2445.589	2320.9
2449.349	2296.9
2453.106	2266.9
2456.859	2251.9
2460.61	2213.9
2464.356	2209.9
2468.1	2178.9
2471.84	2146.9
2475.577	2126.9
2479.311	2109.9
2483.041	2099.9
2486.768	2093.9
2490.492	2074.9
2494.213	2095.9
2497.93	2069.9
2501.644	2044.9
2505.355	2064.9
2509.062	2037.9
2512.766	2038.9
2516.467	2049.9
2520.165	1990.9
2523.859	1975.9
2527.551	1975.9
2531.239	1944.9
2534.923	1953.9
2538.605	1940.9
2542.283	1937.9
2545.958	1943.9
2549.63	1942.9
2553.299	1917.9
2556.964	1914.9
2560.626	1927.9
2564.285	1926.9
2567.941	1886.9
2571.594	1881.9
2575.243	1880.9
2578.89	1868.9
2582.533	1835.9
2586.173	1833.9
2589.809	1813.9
2593.443	1789.9
2597.073	1781.9
2600.701	1768.9
2604.325	1761.9
2607.946	1760.9
2611.564	1709.9
2615.178	1714.9
2618.79	1722.9
2622.398	1699.9
2626.004	1666.9
2629.606	1656.9
2633.205	1627.9
2636.801	1595.9
2640.394	1574.9
2643.983	1560.9
2647.57	1534.9
2651.153	1535.9
2654.734	1505.9
2658.311	1452.9
2661.885	1455.9
2665.456	1410.9
2669.025	1411.9
2672.589	1392.9
2676.151	1401.9
2679.71	1362.9
2683.266	1340.9
2686.819	1319.9
2690.368	1287.9
2693.915	1280.9
2697.458	1233.9
2700.999	1216.9
2704.536	1177.9
2708.071	1162.9
2711.602	1141.9
2715.13	1115.9
2718.656	1076.9
2722.178	1060.9
2725.697	1052.9
2729.214	1036.9
2732.727	1024.9
2736.237	1022.9
2739.744	1015.9
2743.249	1035.9
2746.75	1042.9
2750.248	1040.9
2753.743	1040.9
2757.236	1057.9
2760.725	1073.9
2764.211	1076.9
2767.695	1081.9
2771.175	1074.9
2774.652	1073.9
2778.127	1067.9
2781.598	1057.9
2785.067	1052.9
2788.532	1050.9
2791.995	1042.9
2795.455	1048.9
2798.911	1048.9
2802.365	1054.9
2805.816	1053.9
2809.264	1048.9
2812.709	1039.9
2816.151	1042.9
2819.59	1048.9
2823.026	1031.9
2826.46	1051.9
2829.89	1062.9
2833.318	1058.9
2836.742	1047.9
2840.164	1067.9
2843.583	1073.9
2846.999	1086.9
2850.412	1096.9
2853.822	1107.9
2857.229	1119.9
2860.634	1141.9
2864.035	1156.9
2867.434	1188.9
2870.83	1190.9
2874.223	1215.9
2877.613	1230.9
2881	1246.9
2884.385	1277.9
2887.766	1249.9
2891.145	1254.9
2894.521	1240.9
2897.894	1262.9
2901.264	1252.9
2904.631	1267.9
2907.996	1256.9
2911.358	1245.9
2914.717	1279.9
2918.073	1286.9
2921.426	1305.9
2924.777	1320.9
2928.124	1324.9
2931.469	1341.9
2934.811	1367.9
2938.15	1394.9
2941.487	1381.9
2944.821	1403.9
2948.152	1419.9
2951.48	1412.9
2954.805	1398.9
2958.128	1369.9
2961.447	1364.9
2964.765	1375.9
2968.079	1374.9
2971.39	1389.9
2974.699	1378.9
2978.005	1404.9
2981.308	1436.9
2984.609	1453.9
2987.907	1502.9
2991.202	1513.9
2994.494	1565.9
2997.784	1594.9
3001.07	1598.9
3004.355	1635.9
3007.636	1661.9
3010.915	1664.9
3014.191	1692.9
3017.464	1698.9
3020.734	1713.9
3024.002	1739.9
3027.267	1732.9
3030.53	1758.9
3033.789	1763.9
3037.046	1787.9
3040.301	1802.9
3043.552	1889.9
3046.801	1894.9
3050.048	1935.9
3053.291	1969.9
3056.532	2040.9
3059.771	2099.9
3063.006	2172.9
3066.239	2233.9
3069.469	2289.9
3072.697	2364.9
3075.922	2381.9
3079.144	2449.9
3082.364	2502.9
3085.581	2574.9
3088.795	2635.9
3092.007	2686.9
3095.216	2749.9
3098.423	2784.9
3101.627	2861.9
3104.828	2940.9
3108.026	2983.9
3111.222	3034.9
3114.416	3115.9
3117.607	3181.9
3120.795	3267.9
3123.98	3344.9
3127.163	3413.9
3130.344	3522.9
3133.521	3585.9
3136.696	3639.9
3139.869	3743.9
3143.039	3794.9
3146.206	3852.9
3149.371	3894.9
3152.533	3957.9
3155.693	3979.9
3158.85	3989.9
3162.005	3999.9
3165.157	4035.9
3168.306	4033.9
3171.453	4025.9
3174.597	4047.9
3177.739	4083.9
3180.878	4058.9
3184.014	4060.9
3187.149	4040.9
3190.28	4080.9
3193.409	4067.9
3196.536	4056.9
3199.659	4104.9
3202.781	4080.9
3205.9	4094.9
3209.016	4084.9
3212.13	4055.9
3215.241	4051.9
3218.35	3987.9
3221.456	3966.9
3224.56	3905.9
3227.661	3880.9
3230.76	3821.9
3233.856	3794.9
3236.95	3765.9
3240.041	3728.9
3243.13	3694.9
3246.216	3676.9
3249.3	3648.9
3252.382	3644.9
3255.46	3656.9
3258.537	3604.9
3261.611	3625.9
3264.682	3614.9
3267.751	3607.9
3270.818	3624.9
3273.882	3591.9
3276.943	3574.9
3280.002	3534.9
3283.059	3528.9
3286.113	3489.9
3289.165	3416.9
3292.214	3389.9
3295.261	3320.9
3298.306	3254.9
3301.348	3231.9
3304.387	3177.9
3307.425	3130.9
3310.459	3081.9
3313.492	3040.9
3316.521	2991.9
3319.549	2961.9
3322.574	2942.9
3325.597	2904.9
3328.617	2879.9
3331.635	2848.9
3334.65	2846.9
3337.663	2817.9
3340.674	2787.9
3343.682	2768.9
3346.688	2804.9
3349.691	2789.9
3352.692	2743.9
3355.691	2729.9
3358.687	2710.9
3361.681	2680.9
3364.673	2639.9
3367.662	2593.9
3370.649	2599.9
3373.633	2530.9
3376.615	2520.9
3379.595	2445.9
3382.572	2423.9
3385.547	2377.9
3388.52	2354.9
3391.49	2326.9
3394.458	2302.9
3397.424	2248.9
3400.387	2226.9
3403.348	2186.9
3406.307	2174.9
3409.263	2152.9
3412.217	2111.9
3415.168	2083.9
3418.118	2059.9
3421.065	2053.9
3424.009	2009.9
3426.951	1967.9
3429.891	1946.9
3432.829	1890.9
3435.764	1877.9
3438.697	1810.9
3441.628	1741.9
3444.557	1701.9
3447.483	1649.9
3450.407	1610.9
3453.328	1556.9
3456.247	1502.9
3459.164	1453.9
3462.079	1405.9
3464.991	1343.9
3467.902	1309.9
3470.809	1248.9
3473.715	1204.9
3476.618	1152.9
3479.519	1113.9
3482.418	1095.9
3485.315	1050.9
3488.209	1013.9
3491.101	973.9
3493.99	947.9
3496.878	888.9
3499.763	871.9
3502.646	848.9
3505.527	779.9
3508.405	757.9
3511.281	706.9
3514.155	674.9
3517.027	642.9
3519.897	599.9
3522.764	556.9
3525.629	504.9
3528.492	479.9
3531.352	442.9
3534.211	387.9
3537.067	359.9
3539.921	337.9
3542.773	286.9
3545.622	254.9
3548.469	228.9
3551.315	192.9
3554.157	178.9
3556.998	144.9
3559.837	124.9
3562.673	98.9
3565.507	68.9
3568.339	52.9
3571.169	23.9
3573.996	4.9
3576.822	1.9
3579.645	-41.1
3582.466	-56.1
3585.285	-71.1
3588.101	-90.1
3590.916	-121.1
3593.728	-139.1
3596.538	-150.1
3599.346	-165.1
3602.152	-187.1
3604.956	-197.1
3607.757	-215.1
3610.556	-243.1
3613.354	-238.1
3616.149	-265.1
3618.942	-278.1
3621.732	-281.1
3624.521	-305.1
3627.307	-301.1
3630.092	-312.1
3632.874	-332.1
3635.654	-345.1
3638.432	-352.1
3641.208	-355.1
3643.982	-374.1
3646.753	-370.1
3649.523	-391.1
3652.29	-393.1
3655.055	-398.1
3657.818	-413.1
3660.579	-417.1
3663.338	-431.1
3666.095	-451.1
3668.849	-462.1
3671.602	-458.1
3674.352	-469.1
3677.101	-470.1
3679.847	-485.1
3682.591	-496.1
3685.333	-492.1
3688.073	-502.1
3690.811	-508.1
3693.547	-513.1
3696.281	-517.1
3699.013	-522.1
3701.742	-530.1
3704.47	-533.1
3707.195	-539.1
3709.919	-542.1
3712.64	-547.1
3715.359	-547.1
3718.076	-549.1
3720.792	-556.1
3723.505	-550.1
3726.216	-563.1
3728.925	-557.1
3731.632	-564.1
3734.336	-568.1
3737.039	-575.1
3739.74	-576.1
3742.439	-579.1
3745.136	-573.1
3747.83	-581.1
3750.523	-581.1
3753.213	-589.1
3755.902	-590.1
3758.589	-589.1
3761.273	-590.1
3763.956	-600.1
3766.636	-597.1
3769.315	-606.1
3771.991	-603.1
3774.665	-606.1
3777.338	-601.1
3780.008	-606.1
3782.677	-607.1
3785.343	-611.1
3788.007	-610.1
3790.67	-609.1
3793.33	-612.1
3795.989	-610.1
3798.645	-607.1
3801.299	-608.1
3803.952	-625.1
3806.602	-622.1
3809.251	-624.1
3811.897	-617.1
3814.542	-621.1
3817.184	-615.1
3819.825	-614.1
3822.463	-617.1
3825.1	-625.1
3827.735	-617.1
3830.367	-618.1
3832.998	-629.1
3835.627	-633.1
3838.253	-632.1
3840.878	-625.1
3843.501	-630.1
3846.122	-625.1
3848.741	-630.1
3851.358	-627.1
3853.973	-623.1
3856.586	-632.1
3859.197	-637.1
3861.806	-637.1
3864.414	-629.1
3867.019	-624.1
3869.622	-625.1
3872.224	-625.1
3874.823	-610.1
3877.421	-593.1
3880.016	-576.1
3882.61	-554.1
3885.202	-548.1
3887.792	-564.1
3890.38	-596.1
3892.966	-620.1
3895.55	-629.1
3898.132	-646.1
3900.713	-647.1
3903.291	-642.1
3905.868	-644.1
3908.442	-637.1
3911.015	-653.1
3913.586	-642.1
3916.155	-639.1
3918.722	-644.1
3921.287	-644.1
3923.85	-649.1
3926.411	-650.1
3928.971	-660.1
3931.528	-654.1
3934.084	-648.1
3936.638	-645.1
3939.19	-648.1
3941.74	-649.1
3944.288	-650.1
3946.834	-647.1
3949.378	-647.1
3951.921	-648.1
3954.462	-651.1
3957	-646.1
3959.537	-647.1
3962.072	-640.1
3964.606	-647.1
3967.137	-644.1
3969.667	-649.1
3972.194	-640.1
3974.72	-648.1
3977.244	-637.1
3979.766	-638.1
3982.286	-641.1
3984.805	-636.1
3987.321	-635.1
3989.836	-638.1
3992.349	-627.1
3994.86	-632.1
3997.369	-647.1
3999.877	-633.1
4002.382	-631.1
4004.886	-630.1
4007.388	-628.1
4009.888	-627.1
4012.386	-633.1
4014.883	-626.1
4017.377	-628.1
4019.87	-624.1
4022.361	-630.1
4024.85	-632.1
4027.338	-634.1
4029.823	-636.1
4032.307	-638.1
4034.789	-630.1
4037.269	-630.1
4039.747	-638.1
4042.224	-637.1
4044.699	-637.1
4047.172	-636.1
4049.643	-635.1
4052.112	-641.1
4054.58	-642.1
4057.046	-644.1
4059.51	-637.1
4061.972	-642.1
4064.432	-644.1
4066.891	-638.1
4069.348	-637.1
4071.803	-633.1
4074.256	-639.1
4076.708	-632.1
4079.158	-633.1
4081.606	-633.1
4084.052	-642.1
4086.497	-633.1
4088.939	-631.1
4091.38	-632.1
4093.819	-630.1
4096.257	-667.1
4098.693	-667.1
4101.127	-673.1
4103.559	-667.1
4105.989	-386.1
4108.418	-354.1
4110.845	-338.1
4113.27	-319.1
4115.694	-272.1
4118.115	-233.1
4120.535	-635.1
4122.954	-636.1
4125.37	-627.1
4127.785	-632.1
4130.198	-638.1
4132.609	-638.1
4135.019	-672.1
4137.427	-671.1
4139.833	-670.1
4142.237	-674.1
