Data from 2018-2-14_conc=6_n=11_RamanShift_01.txt Node
Date: Wed Feb 14 15:18:25 IST 2018
User: aro
Spectrometer: QEPB0276
Trigger mode: 0
Integration Time (sec): 3.000000E1
Scans to average: 1
Electric dark correction enabled: true
Nonlinearity correction enabled: false
Boxcar width: 0
XAxis mode: Raman Shifts
Number of Pixels in Spectrum: 1044
>>>>>Begin Spectral Data<<<<<
160.701	-132.9
166.742	35.1
172.777	533.1
178.805	2008.1
184.826	5554.1
190.841	11603.1
196.849	18579.1
202.85	23472.1
208.845	25152.1
214.833	24897.1
220.815	24364.1
226.789	24279.1
232.758	24048.1
238.719	23926.1
244.674	23659.1
250.623	23204.1
256.565	22700.1
262.5	22200.1
268.429	21816.1
274.351	21460.1
280.267	21178.1
286.176	20985.1
292.079	20747.1
297.975	20573.1
303.865	20444.1
309.748	20292.1
315.625	20164.1
321.495	20005.1
327.359	19969.1
333.217	19964.1
339.068	19919.1
344.912	19883.1
350.751	19897.1
356.583	19867.1
362.408	19814.1
368.227	19855.1
374.04	19862.1
379.847	19930.1
385.647	20020.1
391.44	20127.1
397.228	20205.1
403.009	20276.1
408.784	20279.1
414.553	20344.1
420.315	20537.1
426.071	20481.1
431.821	20452.1
437.565	20412.1
443.302	20346.1
449.033	20293.1
454.758	20280.1
460.477	20173.1
466.189	20143.1
471.896	20072.1
477.596	20000.1
483.29	20018.1
488.978	19980.1
494.66	19886.1
500.335	19687.1
506.005	19496.1
511.668	19289.1
517.325	18951.1
522.977	18776.1
528.622	18588.1
534.261	18439.1
539.894	18294.1
545.521	18241.1
551.141	18206.1
556.756	18126.1
562.365	18033.1
567.968	17999.1
573.565	17863.1
579.155	17795.1
584.74	17711.1
590.319	17637.1
595.892	17590.1
601.459	17519.1
607.02	17420.1
612.575	17342.1
618.124	17224.1
623.667	17083.1
629.204	17030.1
634.735	16843.1
640.261	16868.1
645.781	16787.1
651.294	16760.1
656.802	16733.1
662.304	16634.1
667.8	16607.1
673.29	16623.1
678.775	16572.1
684.254	16485.1
689.726	16479.1
695.193	16392.1
700.655	16303.1
706.11	16279.1
711.56	16198.1
717.004	16052.1
722.442	15994.1
727.874	15928.1
733.301	15821.1
738.722	15757.1
744.137	15765.1
749.547	15793.1
754.951	15764.1
760.349	15742.1
765.741	15766.1
771.128	15762.1
776.509	15838.1
781.885	15802.1
787.254	15724.1
792.618	15732.1
797.977	15592.1
803.33	15516.1
808.677	15397.1
814.019	15301.1
819.355	15215.1
824.686	15174.1
830.011	15097.1
835.33	15102.1
840.644	15058.1
845.952	15075.1
851.255	15132.1
856.552	15131.1
861.844	15161.1
867.13	15065.1
872.41	14990.1
877.686	14917.1
882.955	14781.1
888.219	14622.1
893.478	14498.1
898.731	14328.1
903.979	14224.1
909.221	14079.1
914.458	14037.1
919.69	13973.1
924.916	14035.1
930.136	14077.1
935.351	14101.1
940.561	14136.1
945.766	14064.1
950.965	14011.1
956.158	13897.1
961.347	13740.1
966.529	13568.1
971.707	13357.1
976.879	13208.1
982.046	13122.1
987.208	13040.1
992.364	13093.1
997.515	13132.1
1002.66	13251.1
1007.801	13443.1
1012.936	13503.1
1018.066	13482.1
1023.19	13474.1
1028.309	13447.1
1033.423	13442.1
1038.532	13397.1
1043.636	13288.1
1048.734	13098.1
1053.827	12923.1
1058.915	12781.1
1063.998	12675.1
1069.075	12665.1
1074.147	12670.1
1079.214	12774.1
1084.276	12787.1
1089.333	12831.1
1094.385	12859.1
1099.431	12965.1
1104.472	12918.1
1109.509	12874.1
1114.54	12690.1
1119.565	12530.1
1124.586	12387.1
1129.602	12272.1
1134.613	12184.1
1139.618	12093.1
1144.619	12056.1
1149.614	12036.1
1154.604	12097.1
1159.589	12135.1
1164.57	12100.1
1169.545	12155.1
1174.515	12080.1
1179.48	12078.1
1184.44	11979.1
1189.395	11923.1
1194.345	11827.1
1199.29	11758.1
1204.23	11684.1
1209.165	11745.1
1214.095	11814.1
1219.021	11901.1
1223.941	11974.1
1228.856	11998.1
1233.766	12012.1
1238.672	12046.1
1243.572	12045.1
1248.467	11911.1
1253.358	11809.1
1258.244	11669.1
1263.124	11433.1
1268	11306.1
1272.871	11154.1
1277.737	11056.1
1282.599	10982.1
1287.455	10989.1
1292.306	11015.1
1297.153	11037.1
1301.995	11062.1
1306.832	11088.1
1311.664	11071.1
1316.491	11080.1
1321.314	10963.1
1326.132	10868.1
1330.945	10665.1
1335.753	10319.1
1340.556	10153.1
1345.354	9956.1
1350.148	9802.1
1354.937	9735.1
1359.722	9678.1
1364.501	9674.1
1369.276	9736.1
1374.046	9804.1
1378.811	9917.1
1383.572	9988.1
1388.327	10033.1
1393.079	9987.1
1397.825	9864.1
1402.567	9782.1
1407.304	9678.1
1412.036	9552.1
1416.764	9538.1
1421.487	9433.1
1426.205	9404.1
1430.919	9369.1
1435.628	9353.1
1440.333	9415.1
1445.032	9441.1
1449.727	9471.1
1454.418	9427.1
1459.104	9320.1
1463.785	9192.1
1468.462	9000.1
1473.134	8789.1
1477.802	8626.1
1482.465	8480.1
1487.123	8355.1
1491.777	8342.1
1496.426	8321.1
1501.071	8442.1
1505.711	8487.1
1510.347	8674.1
1514.978	8805.1
1519.604	8882.1
1524.226	8938.1
1528.844	8950.1
1533.457	8928.1
1538.065	8898.1
1542.669	8821.1
1547.269	8827.1
1551.864	8741.1
1556.454	8776.1
1561.041	8743.1
1565.622	8753.1
1570.199	8732.1
1574.772	8781.1
1579.34	8878.1
1583.904	8954.1
1588.464	8990.1
1593.019	8959.1
1597.569	8899.1
1602.115	8886.1
1606.657	8858.1
1611.195	8764.1
1615.728	8751.1
1620.256	8677.1
1624.78	8689.1
1629.3	8724.1
1633.816	8747.1
1638.327	8779.1
1642.834	8826.1
1647.336	8851.1
1651.834	8915.1
1656.328	8865.1
1660.817	8803.1
1665.302	8722.1
1669.783	8512.1
1674.259	8327.1
1678.732	8078.1
1683.199	7857.1
1687.663	7589.1
1692.122	7377.1
1696.577	7241.1
1701.028	7177.1
1705.474	7174.1
1709.917	7157.1
1714.355	7194.1
1718.788	7125.1
1723.218	7017.1
1727.643	6925.1
1732.064	6817.1
1736.481	6643.1
1740.893	6451.1
1745.301	6277.1
1749.705	6148.1
1754.105	5986.1
1758.501	5804.1
1762.893	5638.1
1767.28	5491.1
1771.663	5384.1
1776.042	5294.1
1780.417	5259.1
1784.787	5270.1
1789.154	5315.1
1793.516	5344.1
1797.874	5414.1
1802.228	5511.1
1806.578	5548.1
1810.924	5566.1
1815.266	5477.1
1819.603	5419.1
1823.937	5313.1
1828.266	5264.1
1832.591	5198.1
1836.913	5099.1
1841.23	5064.1
1845.543	5027.1
1849.852	5013.1
1854.156	4992.1
1858.457	4975.1
1862.754	4967.1
1867.047	5003.1
1871.335	4988.1
1875.62	4941.1
1879.9	4968.1
1884.177	4896.1
1888.449	4883.1
1892.718	4784.1
1896.982	4747.1
1901.243	4759.1
1905.499	4687.1
1909.752	4654.1
1914	4645.1
1918.245	4683.1
1922.485	4701.1
1926.722	4746.1
1930.954	4770.1
1935.183	4838.1
1939.408	4896.1
1943.628	4911.1
1947.845	4922.1
1952.058	4912.1
1956.267	4846.1
1960.472	4813.1
1964.673	4744.1
1968.87	4657.1
1973.063	4586.1
1977.252	4504.1
1981.438	4455.1
1985.619	4417.1
1989.797	4380.1
1993.971	4335.1
1998.14	4371.1
2002.306	4355.1
2006.469	4331.1
2010.627	4310.1
2014.781	4275.1
2018.932	4260.1
2023.078	4206.1
2027.221	4143.1
2031.36	4085.1
2035.495	4006.1
2039.627	3958.1
2043.754	3909.1
2047.878	3859.1
2051.998	3835.1
2056.114	3823.1
2060.226	3816.1
2064.334	3815.1
2068.439	3829.1
2072.54	3863.1
2076.637	3874.1
2080.73	3913.1
2084.82	3922.1
2088.906	3952.1
2092.988	3920.1
2097.066	3937.1
2101.14	3917.1
2105.211	3873.1
2109.278	3840.1
2113.342	3821.1
2117.401	3785.1
2121.457	3750.1
2125.509	3763.1
2129.558	3707.1
2133.602	3677.1
2137.643	3668.1
2141.681	3682.1
2145.714	3649.1
2149.744	3612.1
2153.77	3584.1
2157.793	3563.1
2161.812	3498.1
2165.827	3485.1
2169.838	3397.1
2173.846	3349.1
2177.851	3286.1
2181.851	3249.1
2185.848	3220.1
2189.841	3170.1
2193.831	3121.1
2197.817	3111.1
2201.799	3098.1
2205.778	3087.1
2209.753	3073.1
2213.725	3043.1
2217.693	3033.1
2221.657	3048.1
2225.618	3035.1
2229.575	2994.1
2233.529	2976.1
2237.479	2948.1
2241.425	2922.1
2245.368	2887.1
2249.307	2814.1
2253.243	2801.1
2257.175	2773.1
2261.104	2731.1
2265.029	2666.1
2268.95	2670.1
2272.868	2658.1
2276.783	2595.1
2280.694	2577.1
2284.601	2556.1
2288.505	2552.1
2292.405	2503.1
2296.302	2473.1
2300.195	2439.1
2304.085	2413.1
2307.971	2363.1
2311.854	2348.1
2315.734	2290.1
2319.609	2284.1
2323.482	2237.1
2327.351	2215.1
2331.216	2194.1
2335.078	2222.1
2338.937	2185.1
2342.792	2140.1
2346.643	2156.1
2350.492	2146.1
2354.336	2148.1
2358.178	2159.1
2362.015	2158.1
2365.85	2160.1
2369.681	2175.1
2373.508	2181.1
2377.333	2174.1
2381.153	2167.1
2384.971	2127.1
2388.785	2142.1
2392.595	2086.1
2396.402	2106.1
2400.206	2076.1
2404.007	2035.1
2407.804	2043.1
2411.597	2034.1
2415.388	2021.1
2419.174	2005.1
2422.958	1989.1
2426.738	1979.1
2430.515	1956.1
2434.289	1932.1
2438.059	1935.1
2441.825	1906.1
2445.589	1882.1
2449.349	1872.1
2453.106	1847.1
2456.859	1812.1
2460.61	1791.1
2464.356	1780.1
2468.1	1753.1
2471.84	1756.1
2475.577	1714.1
2479.311	1699.1
2483.041	1682.1
2486.768	1676.1
2490.492	1687.1
2494.213	1657.1
2497.93	1661.1
2501.644	1657.1
2505.355	1647.1
2509.062	1658.1
2512.766	1638.1
2516.467	1621.1
2520.165	1593.1
2523.859	1588.1
2527.551	1593.1
2531.239	1556.1
2534.923	1556.1
2538.605	1551.1
2542.283	1538.1
2545.958	1532.1
2549.63	1538.1
2553.299	1544.1
2556.964	1519.1
2560.626	1524.1
2564.285	1511.1
2567.941	1511.1
2571.594	1488.1
2575.243	1484.1
2578.89	1469.1
2582.533	1459.1
2586.173	1461.1
2589.809	1447.1
2593.443	1411.1
2597.073	1394.1
2600.701	1398.1
2604.325	1360.1
2607.946	1367.1
2611.564	1371.1
2615.178	1363.1
2618.79	1345.1
2622.398	1331.1
2626.004	1307.1
2629.606	1295.1
2633.205	1282.1
2636.801	1255.1
2640.394	1244.1
2643.983	1215.1
2647.57	1203.1
2651.153	1190.1
2654.734	1164.1
2658.311	1133.1
2661.885	1142.1
2665.456	1098.1
2669.025	1116.1
2672.589	1080.1
2676.151	1073.1
2679.71	1066.1
2683.266	1036.1
2686.819	1028.1
2690.368	991.1
2693.915	981.1
2697.458	966.1
2700.999	923.1
2704.536	923.1
2708.071	880.1
2711.602	878.1
2715.13	839.1
2718.656	828.1
2722.178	838.1
2725.697	821.1
2729.214	811.1
2732.727	796.1
2736.237	780.1
2739.744	786.1
2743.249	802.1
2746.75	806.1
2750.248	796.1
2753.743	806.1
2757.236	807.1
2760.725	838.1
2764.211	809.1
2767.695	814.1
2771.175	825.1
2774.652	820.1
2778.127	818.1
2781.598	801.1
2785.067	807.1
2788.532	809.1
2791.995	797.1
2795.455	801.1
2798.911	805.1
2802.365	806.1
2805.816	810.1
2809.264	808.1
2812.709	788.1
2816.151	819.1
2819.59	813.1
2823.026	813.1
2826.46	823.1
2829.89	826.1
2833.318	813.1
2836.742	843.1
2840.164	818.1
2843.583	857.1
2846.999	846.1
2850.412	865.1
2853.822	868.1
2857.229	885.1
2860.634	901.1
2864.035	905.1
2867.434	911.1
2870.83	942.1
2874.223	958.1
2877.613	981.1
2881	1009.1
2884.385	1019.1
2887.766	1020.1
2891.145	1012.1
2894.521	1009.1
2897.894	998.1
2901.264	1017.1
2904.631	1023.1
2907.996	1015.1
2911.358	1011.1
2914.717	1035.1
2918.073	1038.1
2921.426	1046.1
2924.777	1064.1
2928.124	1085.1
2931.469	1092.1
2934.811	1123.1
2938.15	1140.1
2941.487	1163.1
2944.821	1180.1
2948.152	1162.1
2951.48	1170.1
2954.805	1140.1
2958.128	1146.1
2961.447	1123.1
2964.765	1145.1
2968.079	1135.1
2971.39	1138.1
2974.699	1156.1
2978.005	1176.1
2981.308	1191.1
2984.609	1224.1
2987.907	1236.1
2991.202	1282.1
2994.494	1285.1
2997.784	1326.1
3001.07	1335.1
3004.355	1364.1
3007.636	1386.1
3010.915	1403.1
3014.191	1423.1
3017.464	1417.1
3020.734	1424.1
3024.002	1456.1
3027.267	1455.1
3030.53	1462.1
3033.789	1491.1
3037.046	1505.1
3040.301	1551.1
3043.552	1576.1
3046.801	1609.1
3050.048	1641.1
3053.291	1671.1
3056.532	1753.1
3059.771	1787.1
3063.006	1831.1
3066.239	1915.1
3069.469	1966.1
3072.697	1997.1
3075.922	2053.1
3079.144	2114.1
3082.364	2154.1
3085.581	2218.1
3088.795	2231.1
3092.007	2322.1
3095.216	2363.1
3098.423	2416.1
3101.627	2464.1
3104.828	2512.1
3108.026	2593.1
3111.222	2623.1
3114.416	2692.1
3117.607	2781.1
3120.795	2811.1
3123.98	2888.1
3127.163	2936.1
3130.344	3050.1
3133.521	3112.1
3136.696	3195.1
3139.869	3269.1
3143.039	3311.1
3146.206	3362.1
3149.371	3379.1
3152.533	3437.1
3155.693	3471.1
3158.85	3480.1
3162.005	3487.1
3165.157	3495.1
3168.306	3485.1
3171.453	3510.1
3174.597	3525.1
3177.739	3524.1
3180.878	3543.1
3184.014	3555.1
3187.149	3533.1
3190.28	3566.1
3193.409	3571.1
3196.536	3569.1
3199.659	3593.1
3202.781	3563.1
3205.9	3576.1
3209.016	3568.1
3212.13	3547.1
3215.241	3543.1
3218.35	3505.1
3221.456	3462.1
3224.56	3419.1
3227.661	3390.1
3230.76	3378.1
3233.856	3298.1
3236.95	3261.1
3240.041	3264.1
3243.13	3224.1
3246.216	3225.1
3249.3	3203.1
3252.382	3197.1
3255.46	3180.1
3258.537	3151.1
3261.611	3172.1
3264.682	3153.1
3267.751	3157.1
3270.818	3137.1
3273.882	3158.1
3276.943	3132.1
3280.002	3112.1
3283.059	3086.1
3286.113	3027.1
3289.165	2980.1
3292.214	2949.1
3295.261	2908.1
3298.306	2860.1
3301.348	2819.1
3304.387	2750.1
3307.425	2741.1
3310.459	2684.1
3313.492	2653.1
3316.521	2624.1
3319.549	2572.1
3322.574	2563.1
3325.597	2540.1
3328.617	2519.1
3331.635	2523.1
3334.65	2489.1
3337.663	2457.1
3340.674	2447.1
3343.682	2459.1
3346.688	2433.1
3349.691	2438.1
3352.692	2426.1
3355.691	2408.1
3358.687	2379.1
3361.681	2370.1
3364.673	2321.1
3367.662	2298.1
3370.649	2243.1
3373.633	2236.1
3376.615	2227.1
3379.595	2170.1
3382.572	2144.1
3385.547	2111.1
3388.52	2066.1
3391.49	2031.1
3394.458	2008.1
3397.424	1959.1
3400.387	1939.1
3403.348	1934.1
3406.307	1905.1
3409.263	1870.1
3412.217	1867.1
3415.168	1843.1
3418.118	1834.1
3421.065	1778.1
3424.009	1785.1
3426.951	1715.1
3429.891	1713.1
3432.829	1685.1
3435.764	1651.1
3438.697	1585.1
3441.628	1539.1
3444.557	1502.1
3447.483	1449.1
3450.407	1416.1
3453.328	1369.1
3456.247	1323.1
3459.164	1271.1
3462.079	1224.1
3464.991	1184.1
3467.902	1130.1
3470.809	1095.1
3473.715	1039.1
3476.618	1007.1
3479.519	983.1
3482.418	952.1
3485.315	913.1
3488.209	866.1
3491.101	834.1
3493.99	803.1
3496.878	778.1
3499.763	769.1
3502.646	714.1
3505.527	682.1
3508.405	649.1
3511.281	609.1
3514.155	585.1
3517.027	546.1
3519.897	508.1
3522.764	458.1
3525.629	427.1
3528.492	386.1
3531.352	359.1
3534.211	329.1
3537.067	290.1
3539.921	266.1
3542.773	234.1
3545.622	202.1
3548.469	191.1
3551.315	160.1
3554.157	137.1
3556.998	94.1
3559.837	74.1
3562.673	60.1
3565.507	25.1
3568.339	8.1
3571.169	0.1
3573.996	-17.9
3576.822	-24.9
3579.645	-45.9
3582.466	-73.9
3585.285	-81.9
3588.101	-106.9
3590.916	-120.9
3593.728	-141.9
3596.538	-162.9
3599.346	-178.9
3602.152	-191.9
3604.956	-191.9
3607.757	-223.9
3610.556	-228.9
3613.354	-254.9
3616.149	-262.9
3618.942	-270.9
3621.732	-268.9
3624.521	-296.9
3627.307	-294.9
3630.092	-306.9
3632.874	-310.9
3635.654	-320.9
3638.432	-324.9
3641.208	-332.9
3643.982	-346.9
3646.753	-350.9
3649.523	-357.9
3652.29	-371.9
3655.055	-377.9
3657.818	-386.9
3660.579	-401.9
3663.338	-415.9
3666.095	-414.9
3668.849	-420.9
3671.602	-426.9
3674.352	-440.9
3677.101	-443.9
3679.847	-443.9
3682.591	-450.9
3685.333	-455.9
3688.073	-461.9
3690.811	-468.9
3693.547	-470.9
3696.281	-483.9
3699.013	-475.9
3701.742	-482.9
3704.47	-487.9
3707.195	-497.9
3709.919	-492.9
3712.64	-500.9
3715.359	-503.9
3718.076	-510.9
3720.792	-512.9
3723.505	-507.9
3726.216	-515.9
3728.925	-512.9
3731.632	-519.9
3734.336	-524.9
3737.039	-530.9
3739.74	-524.9
3742.439	-528.9
3745.136	-525.9
3747.83	-536.9
3750.523	-534.9
3753.213	-540.9
3755.902	-539.9
3758.589	-541.9
3761.273	-546.9
3763.956	-548.9
3766.636	-547.9
3769.315	-553.9
3771.991	-547.9
3774.665	-555.9
3777.338	-550.9
3780.008	-553.9
3782.677	-554.9
3785.343	-552.9
3788.007	-560.9
3790.67	-558.9
3793.33	-561.9
3795.989	-562.9
3798.645	-564.9
3801.299	-556.9
3803.952	-567.9
3806.602	-576.9
3809.251	-572.9
3811.897	-570.9
3814.542	-569.9
3817.184	-565.9
3819.825	-565.9
3822.463	-566.9
3825.1	-570.9
3827.735	-566.9
3830.367	-564.9
3832.998	-572.9
3835.627	-570.9
3838.253	-571.9
3840.878	-572.9
3843.501	-577.9
3846.122	-567.9
3848.741	-571.9
3851.358	-581.9
3853.973	-576.9
3856.586	-578.9
3859.197	-580.9
3861.806	-585.9
3864.414	-574.9
3867.019	-578.9
3869.622	-571.9
3872.224	-570.9
3874.823	-553.9
3877.421	-532.9
3880.016	-519.9
3882.61	-497.9
3885.202	-494.9
3887.792	-512.9
3890.38	-546.9
3892.966	-561.9
3895.55	-574.9
3898.132	-592.9
3900.713	-591.9
3903.291	-585.9
3905.868	-589.9
3908.442	-592.9
3911.015	-592.9
3913.586	-583.9
3916.155	-585.9
3918.722	-585.9
3921.287	-587.9
3923.85	-588.9
3926.411	-584.9
3928.971	-597.9
3931.528	-593.9
3934.084	-595.9
3936.638	-588.9
3939.19	-592.9
3941.74	-592.9
3944.288	-593.9
3946.834	-586.9
3949.378	-592.9
3951.921	-589.9
3954.462	-595.9
3957	-589.9
3959.537	-590.9
3962.072	-587.9
3964.606	-586.9
3967.137	-591.9
3969.667	-590.9
3972.194	-576.9
3974.72	-582.9
3977.244	-579.9
3979.766	-579.9
3982.286	-581.9
3984.805	-585.9
3987.321	-578.9
3989.836	-582.9
3992.349	-576.9
3994.86	-578.9
3997.369	-587.9
3999.877	-575.9
4002.382	-574.9
4004.886	-572.9
4007.388	-571.9
4009.888	-570.9
4012.386	-577.9
4014.883	-571.9
4017.377	-575.9
4019.87	-575.9
4022.361	-572.9
4024.85	-577.9
4027.338	-584.9
4029.823	-579.9
4032.307	-584.9
4034.789	-574.9
4037.269	-578.9
4039.747	-580.9
4042.224	-581.9
4044.699	-573.9
4047.172	-574.9
4049.643	-576.9
4052.112	-585.9
4054.58	-583.9
4057.046	-581.9
4059.51	-585.9
4061.972	-581.9
4064.432	-580.9
4066.891	-583.9
4069.348	-579.9
4071.803	-574.9
4074.256	-575.9
4076.708	-579.9
4079.158	-580.9
4081.606	-578.9
4084.052	-576.9
4086.497	-582.9
4088.939	-570.9
4091.38	-576.9
4093.819	-572.9
4096.257	-606.9
4098.693	-607.9
4101.127	-611.9
4103.559	-608.9
4105.989	-346.9
4108.418	-325.9
4110.845	-311.9
4113.27	-283.9
4115.694	-246.9
4118.115	-209.9
4120.535	-571.9
4122.954	-580.9
4125.37	-571.9
4127.785	-582.9
4130.198	-584.9
4132.609	-587.9
4135.019	-609.9
4137.427	-614.9
4139.833	-609.9
4142.237	-608.9
