Data from 2018-2-14_conc=3_n=7_RamanShift_03.txt Node
Date: Wed Feb 14 12:03:26 IST 2018
User: aro
Spectrometer: QEPB0276
Trigger mode: 0
Integration Time (sec): 3.000000E1
Scans to average: 1
Electric dark correction enabled: true
Nonlinearity correction enabled: false
Boxcar width: 0
XAxis mode: Raman Shifts
Number of Pixels in Spectrum: 1044
>>>>>Begin Spectral Data<<<<<
160.701	-146.6
166.742	57.4
172.777	609.4
178.805	2244.4
184.826	6289.4
190.841	13233.4
196.849	21352.4
202.85	27048.4
208.845	29016.4
214.833	28651.4
220.815	28157.4
226.789	27911.4
232.758	27735.4
238.719	27465.4
244.674	27171.4
250.623	26600.4
256.565	25967.4
262.5	25518.4
268.429	24967.4
274.351	24561.4
280.267	24210.4
286.176	23902.4
292.079	23656.4
297.975	23439.4
303.865	23248.4
309.748	23024.4
315.625	22919.4
321.495	22708.4
327.359	22614.4
333.217	22591.4
339.068	22627.4
344.912	22502.4
350.751	22491.4
356.583	22451.4
362.408	22390.4
368.227	22395.4
374.04	22410.4
379.847	22483.4
385.647	22557.4
391.44	22683.4
397.228	22773.4
403.009	22840.4
408.784	22970.4
414.553	22939.4
420.315	23066.4
426.071	23103.4
431.821	23077.4
437.565	23019.4
443.302	22965.4
449.033	22941.4
454.758	22951.4
460.477	22829.4
466.189	22687.4
471.896	22687.4
477.596	22681.4
483.29	22598.4
488.978	22560.4
494.66	22506.4
500.335	22364.4
506.005	22146.4
511.668	21780.4
517.325	21611.4
522.977	21459.4
528.622	21222.4
534.261	21068.4
539.894	20953.4
545.521	20888.4
551.141	20812.4
556.756	20718.4
562.365	20720.4
567.968	20565.4
573.565	20487.4
579.155	20397.4
584.74	20308.4
590.319	20295.4
595.892	20213.4
601.459	20109.4
607.02	19991.4
612.575	19911.4
618.124	19763.4
623.667	19608.4
629.204	19535.4
634.735	19454.4
640.261	19344.4
645.781	19376.4
651.294	19283.4
656.802	19225.4
662.304	19217.4
667.8	19165.4
673.29	19087.4
678.775	19081.4
684.254	18983.4
689.726	19003.4
695.193	18901.4
700.655	18822.4
706.11	18757.4
711.56	18616.4
717.004	18476.4
722.442	18480.4
727.874	18343.4
733.301	18302.4
738.722	18234.4
744.137	18183.4
749.547	18173.4
754.951	18232.4
760.349	18220.4
765.741	18259.4
771.128	18225.4
776.509	18254.4
781.885	18182.4
787.254	18187.4
792.618	18112.4
797.977	18055.4
803.33	17827.4
808.677	17760.4
814.019	17664.4
819.355	17575.4
824.686	17496.4
830.011	17488.4
835.33	17482.4
840.644	17459.4
845.952	17469.4
851.255	17522.4
856.552	17560.4
861.844	17492.4
867.13	17410.4
872.41	17377.4
877.686	17285.4
882.955	17152.4
888.219	16980.4
893.478	16873.4
898.731	16566.4
903.979	16445.4
909.221	16328.4
914.458	16269.4
919.69	16273.4
924.916	16282.4
930.136	16368.4
935.351	16320.4
940.561	16375.4
945.766	16402.4
950.965	16257.4
956.158	16102.4
961.347	15968.4
966.529	15755.4
971.707	15580.4
976.879	15371.4
982.046	15210.4
987.208	15203.4
992.364	15192.4
997.515	15247.4
1002.66	15369.4
1007.801	15595.4
1012.936	15685.4
1018.066	15735.4
1023.19	15652.4
1028.309	15671.4
1033.423	15653.4
1038.532	15532.4
1043.636	15396.4
1048.734	15257.4
1053.827	15065.4
1058.915	14893.4
1063.998	14764.4
1069.075	14778.4
1074.147	14683.4
1079.214	14838.4
1084.276	14874.4
1089.333	14966.4
1094.385	15128.4
1099.431	15100.4
1104.472	15120.4
1109.509	15045.4
1114.54	14800.4
1119.565	14607.4
1124.586	14451.4
1129.602	14279.4
1134.613	14207.4
1139.618	14122.4
1144.619	14098.4
1149.614	14118.4
1154.604	14126.4
1159.589	14146.4
1164.57	14188.4
1169.545	14186.4
1174.515	14160.4
1179.48	14107.4
1184.44	13985.4
1189.395	13915.4
1194.345	13845.4
1199.29	13751.4
1204.23	13759.4
1209.165	13822.4
1214.095	13847.4
1219.021	13977.4
1223.941	14033.4
1228.856	14091.4
1233.766	14122.4
1238.672	14186.4
1243.572	14135.4
1248.467	14054.4
1253.358	13912.4
1258.244	13655.4
1263.124	13425.4
1268	13333.4
1272.871	13143.4
1277.737	13004.4
1282.599	12951.4
1287.455	12938.4
1292.306	13014.4
1297.153	13011.4
1301.995	13064.4
1306.832	13119.4
1311.664	13150.4
1316.491	13080.4
1321.314	12969.4
1326.132	12813.4
1330.945	12486.4
1335.753	12230.4
1340.556	11901.4
1345.354	11628.4
1350.148	11420.4
1354.937	11397.4
1359.722	11395.4
1364.501	11442.4
1369.276	11576.4
1374.046	11774.4
1378.811	12036.4
1383.572	12100.4
1388.327	12130.4
1393.079	12042.4
1397.825	11876.4
1402.567	11731.4
1407.304	11582.4
1412.036	11459.4
1416.764	11338.4
1421.487	11247.4
1426.205	11255.4
1430.919	11119.4
1435.628	11150.4
1440.333	11217.4
1445.032	11203.4
1449.727	11255.4
1454.418	11222.4
1459.104	11121.4
1463.785	10856.4
1468.462	10680.4
1473.134	10437.4
1477.802	10237.4
1482.465	10091.4
1487.123	9976.4
1491.777	9927.4
1496.426	10021.4
1501.071	10133.4
1505.711	10303.4
1510.347	10501.4
1514.978	10753.4
1519.604	10834.4
1524.226	10954.4
1528.844	10962.4
1533.457	10925.4
1538.065	10946.4
1542.669	10810.4
1547.269	10721.4
1551.864	10636.4
1556.454	10616.4
1561.041	10596.4
1565.622	10600.4
1570.199	10600.4
1574.772	10621.4
1579.34	10755.4
1583.904	10776.4
1588.464	10827.4
1593.019	10784.4
1597.569	10759.4
1602.115	10741.4
1606.657	10670.4
1611.195	10612.4
1615.728	10517.4
1620.256	10496.4
1624.78	10469.4
1629.3	10538.4
1633.816	10567.4
1638.327	10593.4
1642.834	10650.4
1647.336	10733.4
1651.834	10745.4
1656.328	10701.4
1660.817	10692.4
1665.302	10588.4
1669.783	10363.4
1674.259	10172.4
1678.732	9901.4
1683.199	9563.4
1687.663	9217.4
1692.122	8959.4
1696.577	8858.4
1701.028	8784.4
1705.474	8893.4
1709.917	8981.4
1714.355	8999.4
1718.788	8940.4
1723.218	8778.4
1727.643	8620.4
1732.064	8453.4
1736.481	8258.4
1740.893	8021.4
1745.301	7874.4
1749.705	7636.4
1754.105	7398.4
1758.501	7206.4
1762.893	7027.4
1767.28	6833.4
1771.663	6671.4
1776.042	6568.4
1780.417	6519.4
1784.787	6552.4
1789.154	6591.4
1793.516	6717.4
1797.874	6884.4
1802.228	6971.4
1806.578	7039.4
1810.924	7020.4
1815.266	6980.4
1819.603	6840.4
1823.937	6721.4
1828.266	6632.4
1832.591	6543.4
1836.913	6434.4
1841.23	6361.4
1845.543	6315.4
1849.852	6297.4
1854.156	6268.4
1858.457	6234.4
1862.754	6241.4
1867.047	6226.4
1871.335	6219.4
1875.62	6206.4
1879.9	6203.4
1884.177	6136.4
1888.449	6122.4
1892.718	6054.4
1896.982	5988.4
1901.243	5967.4
1905.499	5916.4
1909.752	5910.4
1914	5935.4
1918.245	5944.4
1922.485	5982.4
1926.722	6034.4
1930.954	6132.4
1935.183	6213.4
1939.408	6265.4
1943.628	6302.4
1947.845	6319.4
1952.058	6251.4
1956.267	6222.4
1960.472	6099.4
1964.673	6038.4
1968.87	5957.4
1973.063	5846.4
1977.252	5778.4
1981.438	5739.4
1985.619	5649.4
1989.797	5619.4
1993.971	5565.4
1998.14	5554.4
2002.306	5514.4
2006.469	5505.4
2010.627	5454.4
2014.781	5446.4
2018.932	5405.4
2023.078	5334.4
2027.221	5270.4
2031.36	5187.4
2035.495	5108.4
2039.627	5041.4
2043.754	4987.4
2047.878	4921.4
2051.998	4930.4
2056.114	4891.4
2060.226	4897.4
2064.334	4932.4
2068.439	4927.4
2072.54	4937.4
2076.637	4999.4
2080.73	5011.4
2084.82	5024.4
2088.906	5089.4
2092.988	5077.4
2097.066	5053.4
2101.14	5018.4
2105.211	4988.4
2109.278	4956.4
2113.342	4913.4
2117.401	4908.4
2121.457	4885.4
2125.509	4840.4
2129.558	4846.4
2133.602	4798.4
2137.643	4765.4
2141.681	4740.4
2145.714	4714.4
2149.744	4684.4
2153.77	4631.4
2157.793	4581.4
2161.812	4551.4
2165.827	4463.4
2169.838	4426.4
2173.846	4315.4
2177.851	4229.4
2181.851	4173.4
2185.848	4157.4
2189.841	4096.4
2193.831	4042.4
2197.817	4025.4
2201.799	3972.4
2205.778	3980.4
2209.753	3968.4
2213.725	3938.4
2217.693	3938.4
2221.657	3922.4
2225.618	3908.4
2229.575	3898.4
2233.529	3864.4
2237.479	3829.4
2241.425	3787.4
2245.368	3719.4
2249.307	3659.4
2253.243	3618.4
2257.175	3579.4
2261.104	3508.4
2265.029	3490.4
2268.95	3447.4
2272.868	3406.4
2276.783	3379.4
2280.694	3351.4
2284.601	3311.4
2288.505	3282.4
2292.405	3240.4
2296.302	3202.4
2300.195	3176.4
2304.085	3144.4
2307.971	3084.4
2311.854	3019.4
2315.734	2993.4
2319.609	2934.4
2323.482	2922.4
2327.351	2850.4
2331.216	2866.4
2335.078	2831.4
2338.937	2800.4
2342.792	2800.4
2346.643	2783.4
2350.492	2786.4
2354.336	2774.4
2358.178	2770.4
2362.015	2782.4
2365.85	2802.4
2369.681	2783.4
2373.508	2823.4
2377.333	2793.4
2381.153	2758.4
2384.971	2747.4
2388.785	2750.4
2392.595	2707.4
2396.402	2677.4
2400.206	2661.4
2404.007	2637.4
2407.804	2625.4
2411.597	2629.4
2415.388	2602.4
2419.174	2573.4
2422.958	2538.4
2426.738	2526.4
2430.515	2532.4
2434.289	2513.4
2438.059	2489.4
2441.825	2450.4
2445.589	2431.4
2449.349	2414.4
2453.106	2372.4
2456.859	2335.4
2460.61	2303.4
2464.356	2314.4
2468.1	2264.4
2471.84	2240.4
2475.577	2221.4
2479.311	2196.4
2483.041	2186.4
2486.768	2179.4
2490.492	2183.4
2494.213	2171.4
2497.93	2153.4
2501.644	2156.4
2505.355	2152.4
2509.062	2130.4
2512.766	2114.4
2516.467	2134.4
2520.165	2099.4
2523.859	2077.4
2527.551	2071.4
2531.239	2047.4
2534.923	2062.4
2538.605	2051.4
2542.283	2026.4
2545.958	2030.4
2549.63	2044.4
2553.299	2018.4
2556.964	2027.4
2560.626	2010.4
2564.285	2007.4
2567.941	1987.4
2571.594	1998.4
2575.243	1963.4
2578.89	1964.4
2582.533	1967.4
2586.173	1944.4
2589.809	1907.4
2593.443	1888.4
2597.073	1893.4
2600.701	1860.4
2604.325	1859.4
2607.946	1834.4
2611.564	1824.4
2615.178	1797.4
2618.79	1790.4
2622.398	1785.4
2626.004	1762.4
2629.606	1741.4
2633.205	1717.4
2636.801	1693.4
2640.394	1672.4
2643.983	1626.4
2647.57	1635.4
2651.153	1583.4
2654.734	1585.4
2658.311	1538.4
2661.885	1524.4
2665.456	1502.4
2669.025	1478.4
2672.589	1461.4
2676.151	1464.4
2679.71	1453.4
2683.266	1401.4
2686.819	1394.4
2690.368	1370.4
2693.915	1329.4
2697.458	1287.4
2700.999	1275.4
2704.536	1238.4
2708.071	1216.4
2711.602	1185.4
2715.13	1175.4
2718.656	1146.4
2722.178	1131.4
2725.697	1102.4
2729.214	1101.4
2732.727	1092.4
2736.237	1099.4
2739.744	1090.4
2743.249	1111.4
2746.75	1109.4
2750.248	1125.4
2753.743	1143.4
2757.236	1155.4
2760.725	1159.4
2764.211	1173.4
2767.695	1176.4
2771.175	1156.4
2774.652	1174.4
2778.127	1150.4
2781.598	1142.4
2785.067	1137.4
2788.532	1130.4
2791.995	1121.4
2795.455	1116.4
2798.911	1114.4
2802.365	1125.4
2805.816	1132.4
2809.264	1135.4
2812.709	1132.4
2816.151	1131.4
2819.59	1136.4
2823.026	1144.4
2826.46	1138.4
2829.89	1147.4
2833.318	1131.4
2836.742	1132.4
2840.164	1161.4
2843.583	1151.4
2846.999	1176.4
2850.412	1180.4
2853.822	1180.4
2857.229	1199.4
2860.634	1236.4
2864.035	1238.4
2867.434	1245.4
2870.83	1289.4
2874.223	1308.4
2877.613	1340.4
2881	1345.4
2884.385	1358.4
2887.766	1353.4
2891.145	1371.4
2894.521	1343.4
2897.894	1326.4
2901.264	1344.4
2904.631	1385.4
2907.996	1364.4
2911.358	1361.4
2914.717	1380.4
2918.073	1403.4
2921.426	1385.4
2924.777	1419.4
2928.124	1450.4
2931.469	1471.4
2934.811	1501.4
2938.15	1496.4
2941.487	1516.4
2944.821	1522.4
2948.152	1523.4
2951.48	1532.4
2954.805	1542.4
2958.128	1507.4
2961.447	1494.4
2964.765	1480.4
2968.079	1505.4
2971.39	1521.4
2974.699	1539.4
2978.005	1563.4
2981.308	1590.4
2984.609	1617.4
2987.907	1649.4
2991.202	1677.4
2994.494	1710.4
2997.784	1765.4
3001.07	1766.4
3004.355	1797.4
3007.636	1839.4
3010.915	1841.4
3014.191	1868.4
3017.464	1873.4
3020.734	1900.4
3024.002	1914.4
3027.267	1902.4
3030.53	1899.4
3033.789	1947.4
3037.046	1969.4
3040.301	1993.4
3043.552	2029.4
3046.801	2066.4
3050.048	2112.4
3053.291	2189.4
3056.532	2229.4
3059.771	2303.4
3063.006	2367.4
3066.239	2435.4
3069.469	2497.4
3072.697	2559.4
3075.922	2607.4
3079.144	2686.4
3082.364	2754.4
3085.581	2818.4
3088.795	2892.4
3092.007	2918.4
3095.216	3007.4
3098.423	3067.4
3101.627	3102.4
3104.828	3201.4
3108.026	3281.4
3111.222	3351.4
3114.416	3418.4
3117.607	3497.4
3120.795	3564.4
3123.98	3651.4
3127.163	3738.4
3130.344	3806.4
3133.521	3925.4
3136.696	4012.4
3139.869	4086.4
3143.039	4175.4
3146.206	4222.4
3149.371	4290.4
3152.533	4325.4
3155.693	4334.4
3158.85	4366.4
3162.005	4384.4
3165.157	4410.4
3168.306	4427.4
3171.453	4436.4
3174.597	4422.4
3177.739	4439.4
3180.878	4429.4
3184.014	4481.4
3187.149	4448.4
3190.28	4474.4
3193.409	4480.4
3196.536	4492.4
3199.659	4476.4
3202.781	4501.4
3205.9	4500.4
3209.016	4525.4
3212.13	4445.4
3215.241	4439.4
3218.35	4400.4
3221.456	4354.4
3224.56	4335.4
3227.661	4259.4
3230.76	4228.4
3233.856	4178.4
3236.95	4130.4
3240.041	4156.4
3243.13	4080.4
3246.216	4060.4
3249.3	4039.4
3252.382	4021.4
3255.46	3991.4
3258.537	3994.4
3261.611	4025.4
3264.682	4003.4
3267.751	3977.4
3270.818	3978.4
3273.882	3975.4
3276.943	3956.4
3280.002	3933.4
3283.059	3898.4
3286.113	3810.4
3289.165	3795.4
3292.214	3695.4
3295.261	3663.4
3298.306	3605.4
3301.348	3574.4
3304.387	3498.4
3307.425	3469.4
3310.459	3415.4
3313.492	3329.4
3316.521	3310.4
3319.549	3258.4
3322.574	3219.4
3325.597	3198.4
3328.617	3172.4
3331.635	3147.4
3334.65	3133.4
3337.663	3124.4
3340.674	3073.4
3343.682	3092.4
3346.688	3093.4
3349.691	3046.4
3352.692	3043.4
3355.691	3011.4
3358.687	3006.4
3361.681	2967.4
3364.673	2916.4
3367.662	2893.4
3370.649	2835.4
3373.633	2813.4
3376.615	2751.4
3379.595	2701.4
3382.572	2669.4
3385.547	2652.4
3388.52	2609.4
3391.49	2572.4
3394.458	2520.4
3397.424	2487.4
3400.387	2471.4
3403.348	2419.4
3406.307	2421.4
3409.263	2387.4
3412.217	2353.4
3415.168	2339.4
3418.118	2306.4
3421.065	2259.4
3424.009	2245.4
3426.951	2212.4
3429.891	2166.4
3432.829	2117.4
3435.764	2077.4
3438.697	2025.4
3441.628	1967.4
3444.557	1893.4
3447.483	1856.4
3450.407	1808.4
3453.328	1741.4
3456.247	1684.4
3459.164	1633.4
3462.079	1593.4
3464.991	1532.4
3467.902	1465.4
3470.809	1383.4
3473.715	1352.4
3476.618	1314.4
3479.519	1253.4
3482.418	1224.4
3485.315	1210.4
3488.209	1145.4
3491.101	1102.4
3493.99	1075.4
3496.878	1031.4
3499.763	985.4
3502.646	952.4
3505.527	918.4
3508.405	873.4
3511.281	827.4
3514.155	788.4
3517.027	760.4
3519.897	706.4
3522.764	638.4
3525.629	595.4
3528.492	539.4
3531.352	517.4
3534.211	468.4
3537.067	425.4
3539.921	409.4
3542.773	352.4
3545.622	316.4
3548.469	288.4
3551.315	259.4
3554.157	226.4
3556.998	199.4
3559.837	174.4
3562.673	126.4
3565.507	113.4
3568.339	89.4
3571.169	70.4
3573.996	39.4
3576.822	28.4
3579.645	-1.6
3582.466	-25.6
3585.285	-45.6
3588.101	-65.6
3590.916	-94.6
3593.728	-111.6
3596.538	-128.6
3599.346	-150.6
3602.152	-174.6
3604.956	-183.6
3607.757	-200.6
3610.556	-224.6
3613.354	-241.6
3616.149	-256.6
3618.942	-264.6
3621.732	-279.6
3624.521	-292.6
3627.307	-301.6
3630.092	-312.6
3632.874	-324.6
3635.654	-333.6
3638.432	-336.6
3641.208	-349.6
3643.982	-359.6
3646.753	-368.6
3649.523	-378.6
3652.29	-389.6
3655.055	-395.6
3657.818	-417.6
3660.579	-419.6
3663.338	-440.6
3666.095	-446.6
3668.849	-460.6
3671.602	-466.6
3674.352	-478.6
3677.101	-484.6
3679.847	-493.6
3682.591	-502.6
3685.333	-503.6
3688.073	-511.6
3690.811	-513.6
3693.547	-523.6
3696.281	-524.6
3699.013	-532.6
3701.742	-534.6
3704.47	-542.6
3707.195	-549.6
3709.919	-551.6
3712.64	-556.6
3715.359	-558.6
3718.076	-569.6
3720.792	-567.6
3723.505	-570.6
3726.216	-576.6
3728.925	-571.6
3731.632	-584.6
3734.336	-586.6
3737.039	-596.6
3739.74	-586.6
3742.439	-597.6
3745.136	-597.6
3747.83	-600.6
3750.523	-596.6
3753.213	-587.6
3755.902	-603.6
3758.589	-608.6
3761.273	-605.6
3763.956	-613.6
3766.636	-614.6
3769.315	-620.6
3771.991	-605.6
3774.665	-619.6
3777.338	-615.6
3780.008	-622.6
3782.677	-622.6
3785.343	-618.6
3788.007	-621.6
3790.67	-628.6
3793.33	-628.6
3795.989	-631.6
3798.645	-622.6
3801.299	-630.6
3803.952	-629.6
3806.602	-633.6
3809.251	-636.6
3811.897	-630.6
3814.542	-639.6
3817.184	-633.6
3819.825	-637.6
3822.463	-635.6
3825.1	-643.6
3827.735	-633.6
3830.367	-639.6
3832.998	-640.6
3835.627	-647.6
3838.253	-645.6
3840.878	-653.6
3843.501	-645.6
3846.122	-641.6
3848.741	-643.6
3851.358	-642.6
3853.973	-642.6
3856.586	-646.6
3859.197	-644.6
3861.806	-652.6
3864.414	-646.6
3867.019	-646.6
3869.622	-647.6
3872.224	-645.6
3874.823	-627.6
3877.421	-614.6
3880.016	-598.6
3882.61	-583.6
3885.202	-578.6
3887.792	-592.6
3890.38	-616.6
3892.966	-635.6
3895.55	-651.6
3898.132	-666.6
3900.713	-665.6
3903.291	-661.6
3905.868	-659.6
3908.442	-661.6
3911.015	-662.6
3913.586	-660.6
3916.155	-658.6
3918.722	-662.6
3921.287	-663.6
3923.85	-668.6
3926.411	-664.6
3928.971	-671.6
3931.528	-667.6
3934.084	-664.6
3936.638	-661.6
3939.19	-668.6
3941.74	-666.6
3944.288	-671.6
3946.834	-657.6
3949.378	-667.6
3951.921	-665.6
3954.462	-675.6
3957	-670.6
3959.537	-667.6
3962.072	-664.6
3964.606	-666.6
3967.137	-666.6
3969.667	-665.6
3972.194	-660.6
3974.72	-667.6
3977.244	-649.6
3979.766	-653.6
3982.286	-656.6
3984.805	-653.6
3987.321	-656.6
3989.836	-654.6
3992.349	-645.6
3994.86	-652.6
3997.369	-658.6
3999.877	-653.6
4002.382	-653.6
4004.886	-652.6
4007.388	-649.6
4009.888	-653.6
4012.386	-656.6
4014.883	-652.6
4017.377	-657.6
4019.87	-648.6
4022.361	-651.6
4024.85	-654.6
4027.338	-652.6
4029.823	-660.6
4032.307	-655.6
4034.789	-646.6
4037.269	-647.6
4039.747	-648.6
4042.224	-657.6
4044.699	-660.6
4047.172	-654.6
4049.643	-652.6
4052.112	-659.6
4054.58	-661.6
4057.046	-658.6
4059.51	-656.6
4061.972	-659.6
4064.432	-660.6
4066.891	-656.6
4069.348	-655.6
4071.803	-650.6
4074.256	-651.6
4076.708	-651.6
4079.158	-655.6
4081.606	-654.6
4084.052	-656.6
4086.497	-655.6
4088.939	-648.6
4091.38	-653.6
4093.819	-650.6
4096.257	-691.6
4098.693	-695.6
4101.127	-691.6
4103.559	-686.6
4105.989	-390.6
4108.418	-365.6
4110.845	-342.6
4113.27	-322.6
4115.694	-277.6
4118.115	-234.6
4120.535	-654.6
4122.954	-653.6
4125.37	-651.6
4127.785	-656.6
4130.198	-656.6
4132.609	-654.6
4135.019	-690.6
4137.427	-693.6
4139.833	-691.6
4142.237	-688.6
