Data from 2018-2-14_conc=2_n=5_RamanShift_01.txt Node
Date: Wed Feb 14 11:14:26 IST 2018
User: aro
Spectrometer: QEPB0276
Trigger mode: 0
Integration Time (sec): 3.000000E1
Scans to average: 1
Electric dark correction enabled: true
Nonlinearity correction enabled: false
Boxcar width: 0
XAxis mode: Raman Shifts
Number of Pixels in Spectrum: 1044
>>>>>Begin Spectral Data<<<<<
160.701	-139.8
166.742	50.2
172.777	578.2
178.805	2255.2
184.826	6234.2
190.841	13048.2
196.849	20999.2
202.85	26652.2
208.845	28711.2
214.833	28369.2
220.815	27911.2
226.789	27637.2
232.758	27649.2
238.719	27431.2
244.674	27120.2
250.623	26662.2
256.565	26116.2
262.5	25633.2
268.429	25110.2
274.351	24753.2
280.267	24446.2
286.176	24225.2
292.079	24054.2
297.975	23781.2
303.865	23566.2
309.748	23444.2
315.625	23239.2
321.495	23192.2
327.359	23101.2
333.217	23010.2
339.068	23080.2
344.912	22999.2
350.751	22983.2
356.583	23008.2
362.408	22889.2
368.227	22886.2
374.04	22961.2
379.847	23039.2
385.647	23092.2
391.44	23174.2
397.228	23243.2
403.009	23330.2
408.784	23402.2
414.553	23440.2
420.315	23542.2
426.071	23545.2
431.821	23552.2
437.565	23509.2
443.302	23473.2
449.033	23408.2
454.758	23407.2
460.477	23388.2
466.189	23296.2
471.896	23217.2
477.596	23222.2
483.29	23094.2
488.978	23121.2
494.66	22954.2
500.335	22892.2
506.005	22586.2
511.668	22394.2
517.325	22135.2
522.977	21965.2
528.622	21794.2
534.261	21624.2
539.894	21504.2
545.521	21425.2
551.141	21383.2
556.756	21363.2
562.365	21278.2
567.968	21129.2
573.565	21055.2
579.155	20916.2
584.74	20880.2
590.319	20796.2
595.892	20771.2
601.459	20662.2
607.02	20603.2
612.575	20455.2
618.124	20312.2
623.667	20245.2
629.204	20132.2
634.735	20034.2
640.261	19943.2
645.781	19892.2
651.294	19849.2
656.802	19814.2
662.304	19789.2
667.8	19742.2
673.29	19715.2
678.775	19686.2
684.254	19566.2
689.726	19533.2
695.193	19532.2
700.655	19365.2
706.11	19286.2
711.56	19196.2
717.004	19021.2
722.442	19020.2
727.874	18875.2
733.301	18889.2
738.722	18812.2
744.137	18823.2
749.547	18771.2
754.951	18774.2
760.349	18740.2
765.741	18713.2
771.128	18735.2
776.509	18835.2
781.885	18780.2
787.254	18739.2
792.618	18690.2
797.977	18492.2
803.33	18430.2
808.677	18322.2
814.019	18253.2
819.355	18141.2
824.686	18008.2
830.011	18006.2
835.33	17960.2
840.644	18030.2
845.952	17974.2
851.255	18080.2
856.552	18108.2
861.844	18072.2
867.13	17980.2
872.41	17959.2
877.686	17765.2
882.955	17733.2
888.219	17557.2
893.478	17373.2
898.731	17135.2
903.979	16992.2
909.221	16928.2
914.458	16785.2
919.69	16788.2
924.916	16850.2
930.136	16875.2
935.351	16893.2
940.561	16893.2
945.766	16875.2
950.965	16827.2
956.158	16638.2
961.347	16558.2
966.529	16283.2
971.707	16131.2
976.879	15871.2
982.046	15779.2
987.208	15741.2
992.364	15722.2
997.515	15854.2
1002.66	15978.2
1007.801	16133.2
1012.936	16243.2
1018.066	16232.2
1023.19	16234.2
1028.309	16254.2
1033.423	16209.2
1038.532	16091.2
1043.636	16002.2
1048.734	15802.2
1053.827	15582.2
1058.915	15472.2
1063.998	15252.2
1069.075	15255.2
1074.147	15313.2
1079.214	15300.2
1084.276	15426.2
1089.333	15552.2
1094.385	15563.2
1099.431	15609.2
1104.472	15609.2
1109.509	15543.2
1114.54	15369.2
1119.565	15126.2
1124.586	14971.2
1129.602	14789.2
1134.613	14709.2
1139.618	14589.2
1144.619	14583.2
1149.614	14582.2
1154.604	14597.2
1159.589	14660.2
1164.57	14624.2
1169.545	14684.2
1174.515	14691.2
1179.48	14603.2
1184.44	14469.2
1189.395	14391.2
1194.345	14311.2
1199.29	14191.2
1204.23	14249.2
1209.165	14258.2
1214.095	14304.2
1219.021	14373.2
1223.941	14458.2
1228.856	14579.2
1233.766	14578.2
1238.672	14635.2
1243.572	14568.2
1248.467	14552.2
1253.358	14336.2
1258.244	14156.2
1263.124	13894.2
1268	13741.2
1272.871	13544.2
1277.737	13455.2
1282.599	13409.2
1287.455	13355.2
1292.306	13390.2
1297.153	13438.2
1301.995	13528.2
1306.832	13608.2
1311.664	13583.2
1316.491	13527.2
1321.314	13366.2
1326.132	13272.2
1330.945	12967.2
1335.753	12665.2
1340.556	12294.2
1345.354	12040.2
1350.148	11906.2
1354.937	11752.2
1359.722	11716.2
1364.501	11759.2
1369.276	11919.2
1374.046	12083.2
1378.811	12286.2
1383.572	12431.2
1388.327	12475.2
1393.079	12387.2
1397.825	12244.2
1402.567	12019.2
1407.304	11865.2
1412.036	11768.2
1416.764	11708.2
1421.487	11597.2
1426.205	11569.2
1430.919	11525.2
1435.628	11511.2
1440.333	11556.2
1445.032	11564.2
1449.727	11634.2
1454.418	11575.2
1459.104	11469.2
1463.785	11284.2
1468.462	11032.2
1473.134	10758.2
1477.802	10607.2
1482.465	10394.2
1487.123	10284.2
1491.777	10223.2
1496.426	10265.2
1501.071	10433.2
1505.711	10546.2
1510.347	10764.2
1514.978	10910.2
1519.604	11089.2
1524.226	11175.2
1528.844	11227.2
1533.457	11172.2
1538.065	11154.2
1542.669	11086.2
1547.269	11011.2
1551.864	10952.2
1556.454	10897.2
1561.041	10842.2
1565.622	10816.2
1570.199	10854.2
1574.772	10907.2
1579.34	11015.2
1583.904	11050.2
1588.464	11081.2
1593.019	11059.2
1597.569	10995.2
1602.115	10938.2
1606.657	10883.2
1611.195	10824.2
1615.728	10737.2
1620.256	10660.2
1624.78	10644.2
1629.3	10721.2
1633.816	10704.2
1638.327	10746.2
1642.834	10792.2
1647.336	10870.2
1651.834	10887.2
1656.328	10878.2
1660.817	10820.2
1665.302	10764.2
1669.783	10515.2
1674.259	10352.2
1678.732	10057.2
1683.199	9732.2
1687.663	9357.2
1692.122	9060.2
1696.577	8914.2
1701.028	8839.2
1705.474	8918.2
1709.917	9021.2
1714.355	9122.2
1718.788	9028.2
1723.218	8928.2
1727.643	8749.2
1732.064	8578.2
1736.481	8403.2
1740.893	8215.2
1745.301	7983.2
1749.705	7779.2
1754.105	7537.2
1758.501	7338.2
1762.893	7163.2
1767.28	6997.2
1771.663	6826.2
1776.042	6684.2
1780.417	6646.2
1784.787	6633.2
1789.154	6668.2
1793.516	6782.2
1797.874	6969.2
1802.228	7031.2
1806.578	7135.2
1810.924	7128.2
1815.266	7088.2
1819.603	6999.2
1823.937	6845.2
1828.266	6777.2
1832.591	6663.2
1836.913	6601.2
1841.23	6515.2
1845.543	6443.2
1849.852	6403.2
1854.156	6376.2
1858.457	6363.2
1862.754	6340.2
1867.047	6350.2
1871.335	6344.2
1875.62	6334.2
1879.9	6313.2
1884.177	6269.2
1888.449	6207.2
1892.718	6155.2
1896.982	6081.2
1901.243	6050.2
1905.499	6002.2
1909.752	5977.2
1914	5957.2
1918.245	6008.2
1922.485	6019.2
1926.722	6092.2
1930.954	6135.2
1935.183	6214.2
1939.408	6309.2
1943.628	6340.2
1947.845	6336.2
1952.058	6335.2
1956.267	6266.2
1960.472	6172.2
1964.673	6077.2
1968.87	5982.2
1973.063	5916.2
1977.252	5828.2
1981.438	5757.2
1985.619	5707.2
1989.797	5680.2
1993.971	5620.2
1998.14	5579.2
2002.306	5567.2
2006.469	5574.2
2010.627	5517.2
2014.781	5486.2
2018.932	5452.2
2023.078	5407.2
2027.221	5340.2
2031.36	5234.2
2035.495	5182.2
2039.627	5070.2
2043.754	5019.2
2047.878	4982.2
2051.998	4947.2
2056.114	4909.2
2060.226	4916.2
2064.334	4919.2
2068.439	4912.2
2072.54	4941.2
2076.637	4951.2
2080.73	5013.2
2084.82	5058.2
2088.906	5053.2
2092.988	5075.2
2097.066	5028.2
2101.14	5049.2
2105.211	5018.2
2109.278	4977.2
2113.342	4907.2
2117.401	4896.2
2121.457	4843.2
2125.509	4850.2
2129.558	4842.2
2133.602	4783.2
2137.643	4743.2
2141.681	4724.2
2145.714	4730.2
2149.744	4704.2
2153.77	4656.2
2157.793	4564.2
2161.812	4516.2
2165.827	4467.2
2169.838	4406.2
2173.846	4332.2
2177.851	4239.2
2181.851	4202.2
2185.848	4185.2
2189.841	4142.2
2193.831	4053.2
2197.817	4036.2
2201.799	3977.2
2205.778	3995.2
2209.753	3975.2
2213.725	3913.2
2217.693	3951.2
2221.657	3944.2
2225.618	3968.2
2229.575	3900.2
2233.529	3865.2
2237.479	3827.2
2241.425	3781.2
2245.368	3722.2
2249.307	3698.2
2253.243	3635.2
2257.175	3576.2
2261.104	3531.2
2265.029	3511.2
2268.95	3458.2
2272.868	3444.2
2276.783	3404.2
2280.694	3361.2
2284.601	3328.2
2288.505	3296.2
2292.405	3257.2
2296.302	3226.2
2300.195	3184.2
2304.085	3175.2
2307.971	3102.2
2311.854	3070.2
2315.734	3006.2
2319.609	2962.2
2323.482	2936.2
2327.351	2905.2
2331.216	2870.2
2335.078	2854.2
2338.937	2847.2
2342.792	2852.2
2346.643	2844.2
2350.492	2827.2
2354.336	2835.2
2358.178	2837.2
2362.015	2843.2
2365.85	2855.2
2369.681	2858.2
2373.508	2840.2
2377.333	2857.2
2381.153	2791.2
2384.971	2808.2
2388.785	2787.2
2392.595	2785.2
2396.402	2777.2
2400.206	2748.2
2404.007	2731.2
2407.804	2705.2
2411.597	2681.2
2415.388	2684.2
2419.174	2654.2
2422.958	2644.2
2426.738	2618.2
2430.515	2570.2
2434.289	2571.2
2438.059	2549.2
2441.825	2533.2
2445.589	2491.2
2449.349	2459.2
2453.106	2450.2
2456.859	2381.2
2460.61	2389.2
2464.356	2347.2
2468.1	2319.2
2471.84	2295.2
2475.577	2283.2
2479.311	2258.2
2483.041	2249.2
2486.768	2250.2
2490.492	2238.2
2494.213	2263.2
2497.93	2217.2
2501.644	2220.2
2505.355	2201.2
2509.062	2190.2
2512.766	2166.2
2516.467	2154.2
2520.165	2146.2
2523.859	2133.2
2527.551	2116.2
2531.239	2121.2
2534.923	2100.2
2538.605	2085.2
2542.283	2085.2
2545.958	2064.2
2549.63	2082.2
2553.299	2035.2
2556.964	2052.2
2560.626	2037.2
2564.285	2027.2
2567.941	2011.2
2571.594	2008.2
2575.243	2020.2
2578.89	2004.2
2582.533	1973.2
2586.173	1953.2
2589.809	1957.2
2593.443	1929.2
2597.073	1926.2
2600.701	1904.2
2604.325	1875.2
2607.946	1865.2
2611.564	1851.2
2615.178	1831.2
2618.79	1826.2
2622.398	1817.2
2626.004	1801.2
2629.606	1795.2
2633.205	1764.2
2636.801	1717.2
2640.394	1708.2
2643.983	1678.2
2647.57	1658.2
2651.153	1628.2
2654.734	1615.2
2658.311	1593.2
2661.885	1549.2
2665.456	1532.2
2669.025	1523.2
2672.589	1497.2
2676.151	1493.2
2679.71	1473.2
2683.266	1438.2
2686.819	1431.2
2690.368	1401.2
2693.915	1373.2
2697.458	1335.2
2700.999	1318.2
2704.536	1296.2
2708.071	1247.2
2711.602	1238.2
2715.13	1196.2
2718.656	1167.2
2722.178	1146.2
2725.697	1148.2
2729.214	1110.2
2732.727	1128.2
2736.237	1108.2
2739.744	1083.2
2743.249	1088.2
2746.75	1119.2
2750.248	1126.2
2753.743	1130.2
2757.236	1147.2
2760.725	1162.2
2764.211	1168.2
2767.695	1142.2
2771.175	1147.2
2774.652	1142.2
2778.127	1138.2
2781.598	1131.2
2785.067	1143.2
2788.532	1118.2
2791.995	1129.2
2795.455	1110.2
2798.911	1103.2
2802.365	1124.2
2805.816	1127.2
2809.264	1108.2
2812.709	1121.2
2816.151	1110.2
2819.59	1123.2
2823.026	1125.2
2826.46	1120.2
2829.89	1114.2
2833.318	1132.2
2836.742	1124.2
2840.164	1142.2
2843.583	1144.2
2846.999	1169.2
2850.412	1169.2
2853.822	1172.2
2857.229	1176.2
2860.634	1209.2
2864.035	1225.2
2867.434	1227.2
2870.83	1269.2
2874.223	1294.2
2877.613	1296.2
2881	1316.2
2884.385	1343.2
2887.766	1344.2
2891.145	1336.2
2894.521	1322.2
2897.894	1331.2
2901.264	1329.2
2904.631	1335.2
2907.996	1315.2
2911.358	1313.2
2914.717	1341.2
2918.073	1340.2
2921.426	1350.2
2924.777	1378.2
2928.124	1382.2
2931.469	1423.2
2934.811	1450.2
2938.15	1466.2
2941.487	1490.2
2944.821	1482.2
2948.152	1465.2
2951.48	1475.2
2954.805	1444.2
2958.128	1431.2
2961.447	1428.2
2964.765	1428.2
2968.079	1401.2
2971.39	1430.2
2974.699	1443.2
2978.005	1483.2
2981.308	1490.2
2984.609	1546.2
2987.907	1533.2
2991.202	1559.2
2994.494	1625.2
2997.784	1634.2
3001.07	1680.2
3004.355	1700.2
3007.636	1738.2
3010.915	1743.2
3014.191	1745.2
3017.464	1756.2
3020.734	1775.2
3024.002	1802.2
3027.267	1802.2
3030.53	1810.2
3033.789	1830.2
3037.046	1862.2
3040.301	1875.2
3043.552	1913.2
3046.801	1975.2
3050.048	2003.2
3053.291	2039.2
3056.532	2108.2
3059.771	2153.2
3063.006	2225.2
3066.239	2276.2
3069.469	2346.2
3072.697	2408.2
3075.922	2471.2
3079.144	2541.2
3082.364	2587.2
3085.581	2619.2
3088.795	2681.2
3092.007	2728.2
3095.216	2809.2
3098.423	2860.2
3101.627	2950.2
3104.828	3013.2
3108.026	3048.2
3111.222	3121.2
3114.416	3202.2
3117.607	3284.2
3120.795	3342.2
3123.98	3441.2
3127.163	3510.2
3130.344	3600.2
3133.521	3657.2
3136.696	3738.2
3139.869	3809.2
3143.039	3892.2
3146.206	3949.2
3149.371	4012.2
3152.533	4015.2
3155.693	4064.2
3158.85	4090.2
3162.005	4116.2
3165.157	4094.2
3168.306	4127.2
3171.453	4133.2
3174.597	4122.2
3177.739	4137.2
3180.878	4157.2
3184.014	4160.2
3187.149	4146.2
3190.28	4174.2
3193.409	4138.2
3196.536	4159.2
3199.659	4178.2
3202.781	4185.2
3205.9	4191.2
3209.016	4154.2
3212.13	4132.2
3215.241	4134.2
3218.35	4089.2
3221.456	4033.2
3224.56	4038.2
3227.661	3952.2
3230.76	3916.2
3233.856	3886.2
3236.95	3855.2
3240.041	3844.2
3243.13	3784.2
3246.216	3758.2
3249.3	3735.2
3252.382	3717.2
3255.46	3713.2
3258.537	3697.2
3261.611	3720.2
3264.682	3713.2
3267.751	3699.2
3270.818	3695.2
3273.882	3681.2
3276.943	3660.2
3280.002	3603.2
3283.059	3589.2
3286.113	3552.2
3289.165	3489.2
3292.214	3436.2
3295.261	3386.2
3298.306	3341.2
3301.348	3276.2
3304.387	3231.2
3307.425	3191.2
3310.459	3137.2
3313.492	3102.2
3316.521	3048.2
3319.549	3021.2
3322.574	2971.2
3325.597	2958.2
3328.617	2917.2
3331.635	2941.2
3334.65	2917.2
3337.663	2888.2
3340.674	2865.2
3343.682	2893.2
3346.688	2855.2
3349.691	2817.2
3352.692	2825.2
3355.691	2770.2
3358.687	2766.2
3361.681	2760.2
3364.673	2684.2
3367.662	2667.2
3370.649	2626.2
3373.633	2577.2
3376.615	2564.2
3379.595	2518.2
3382.572	2474.2
3385.547	2443.2
3388.52	2394.2
3391.49	2385.2
3394.458	2329.2
3397.424	2304.2
3400.387	2268.2
3403.348	2250.2
3406.307	2222.2
3409.263	2198.2
3412.217	2160.2
3415.168	2147.2
3418.118	2122.2
3421.065	2094.2
3424.009	2077.2
3426.951	2030.2
3429.891	1994.2
3432.829	1938.2
3435.764	1920.2
3438.697	1887.2
3441.628	1803.2
3444.557	1753.2
3447.483	1697.2
3450.407	1654.2
3453.328	1584.2
3456.247	1555.2
3459.164	1467.2
3462.079	1433.2
3464.991	1374.2
3467.902	1318.2
3470.809	1295.2
3473.715	1230.2
3476.618	1194.2
3479.519	1133.2
3482.418	1116.2
3485.315	1090.2
3488.209	1032.2
3491.101	995.2
3493.99	952.2
3496.878	921.2
3499.763	908.2
3502.646	863.2
3505.527	834.2
3508.405	790.2
3511.281	735.2
3514.155	701.2
3517.027	659.2
3519.897	620.2
3522.764	567.2
3525.629	520.2
3528.492	478.2
3531.352	444.2
3534.211	412.2
3537.067	375.2
3539.921	334.2
3542.773	290.2
3545.622	257.2
3548.469	235.2
3551.315	209.2
3554.157	177.2
3556.998	133.2
3559.837	111.2
3562.673	110.2
3565.507	79.2
3568.339	36.2
3571.169	30.2
3573.996	9.2
3576.822	-14.8
3579.645	-51.8
3582.466	-49.8
3585.285	-77.8
3588.101	-96.8
3590.916	-109.8
3593.728	-129.8
3596.538	-145.8
3599.346	-167.8
3602.152	-185.8
3604.956	-196.8
3607.757	-226.8
3610.556	-240.8
3613.354	-255.8
3616.149	-270.8
3618.942	-283.8
3621.732	-293.8
3624.521	-312.8
3627.307	-318.8
3630.092	-322.8
3632.874	-336.8
3635.654	-342.8
3638.432	-352.8
3641.208	-350.8
3643.982	-384.8
3646.753	-378.8
3649.523	-387.8
3652.29	-393.8
3655.055	-405.8
3657.818	-421.8
3660.579	-431.8
3663.338	-453.8
3666.095	-453.8
3668.849	-466.8
3671.602	-466.8
3674.352	-477.8
3677.101	-482.8
3679.847	-487.8
3682.591	-497.8
3685.333	-497.8
3688.073	-512.8
3690.811	-517.8
3693.547	-522.8
3696.281	-520.8
3699.013	-525.8
3701.742	-530.8
3704.47	-538.8
3707.195	-545.8
3709.919	-547.8
3712.64	-554.8
3715.359	-554.8
3718.076	-557.8
3720.792	-559.8
3723.505	-562.8
3726.216	-581.8
3728.925	-567.8
3731.632	-581.8
3734.336	-581.8
3737.039	-580.8
3739.74	-586.8
3742.439	-584.8
3745.136	-594.8
3747.83	-600.8
3750.523	-598.8
3753.213	-584.8
3755.902	-606.8
3758.589	-600.8
3761.273	-600.8
3763.956	-609.8
3766.636	-605.8
3769.315	-609.8
3771.991	-611.8
3774.665	-615.8
3777.338	-611.8
3780.008	-617.8
3782.677	-617.8
3785.343	-615.8
3788.007	-615.8
3790.67	-622.8
3793.33	-616.8
3795.989	-619.8
3798.645	-626.8
3801.299	-621.8
3803.952	-633.8
3806.602	-634.8
3809.251	-635.8
3811.897	-630.8
3814.542	-628.8
3817.184	-626.8
3819.825	-627.8
3822.463	-624.8
3825.1	-631.8
3827.735	-632.8
3830.367	-627.8
3832.998	-642.8
3835.627	-639.8
3838.253	-647.8
3840.878	-646.8
3843.501	-643.8
3846.122	-637.8
3848.741	-634.8
3851.358	-636.8
3853.973	-640.8
3856.586	-642.8
3859.197	-642.8
3861.806	-648.8
3864.414	-645.8
3867.019	-641.8
3869.622	-643.8
3872.224	-638.8
3874.823	-623.8
3877.421	-608.8
3880.016	-595.8
3882.61	-571.8
3885.202	-569.8
3887.792	-587.8
3890.38	-615.8
3892.966	-630.8
3895.55	-639.8
3898.132	-653.8
3900.713	-660.8
3903.291	-659.8
3905.868	-655.8
3908.442	-653.8
3911.015	-662.8
3913.586	-654.8
3916.155	-651.8
3918.722	-659.8
3921.287	-655.8
3923.85	-664.8
3926.411	-660.8
3928.971	-673.8
3931.528	-665.8
3934.084	-663.8
3936.638	-658.8
3939.19	-662.8
3941.74	-662.8
3944.288	-665.8
3946.834	-657.8
3949.378	-665.8
3951.921	-659.8
3954.462	-666.8
3957	-657.8
3959.537	-660.8
3962.072	-659.8
3964.606	-663.8
3967.137	-659.8
3969.667	-665.8
3972.194	-655.8
3974.72	-662.8
3977.244	-651.8
3979.766	-645.8
3982.286	-650.8
3984.805	-646.8
3987.321	-649.8
3989.836	-649.8
3992.349	-637.8
3994.86	-643.8
3997.369	-652.8
3999.877	-639.8
4002.382	-642.8
4004.886	-642.8
4007.388	-646.8
4009.888	-643.8
4012.386	-650.8
4014.883	-643.8
4017.377	-650.8
4019.87	-644.8
4022.361	-645.8
4024.85	-648.8
4027.338	-645.8
4029.823	-644.8
4032.307	-650.8
4034.789	-642.8
4037.269	-644.8
4039.747	-643.8
4042.224	-651.8
4044.699	-648.8
4047.172	-648.8
4049.643	-651.8
4052.112	-657.8
4054.58	-658.8
4057.046	-654.8
4059.51	-653.8
4061.972	-650.8
4064.432	-649.8
4066.891	-648.8
4069.348	-650.8
4071.803	-639.8
4074.256	-644.8
4076.708	-643.8
4079.158	-651.8
4081.606	-653.8
4084.052	-654.8
4086.497	-649.8
4088.939	-650.8
4091.38	-650.8
4093.819	-647.8
4096.257	-683.8
4098.693	-685.8
4101.127	-687.8
4103.559	-686.8
4105.989	-389.8
4108.418	-355.8
4110.845	-341.8
4113.27	-314.8
4115.694	-279.8
4118.115	-235.8
4120.535	-648.8
4122.954	-646.8
4125.37	-638.8
4127.785	-649.8
4130.198	-651.8
4132.609	-649.8
4135.019	-687.8
4137.427	-685.8
4139.833	-686.8
4142.237	-683.8
