Data from 2018-2-14_conc=6_n=2_RamanShift_01.txt Node
Date: Wed Feb 14 14:45:55 IST 2018
User: aro
Spectrometer: QEPB0276
Trigger mode: 0
Integration Time (sec): 3.000000E1
Scans to average: 1
Electric dark correction enabled: true
Nonlinearity correction enabled: false
Boxcar width: 0
XAxis mode: Raman Shifts
Number of Pixels in Spectrum: 1044
>>>>>Begin Spectral Data<<<<<
160.701	-147.6
166.742	43.4
172.777	572.4
178.805	2207.4
184.826	6105.4
190.841	12829.4
196.849	20672.4
202.85	26137.4
208.845	27983.4
214.833	27540.4
220.815	27015.4
226.789	26888.4
232.758	26746.4
238.719	26478.4
244.674	26096.4
250.623	25650.4
256.565	25064.4
262.5	24456.4
268.429	24012.4
274.351	23521.4
280.267	23243.4
286.176	22991.4
292.079	22751.4
297.975	22461.4
303.865	22310.4
309.748	22121.4
315.625	21961.4
321.495	21799.4
327.359	21753.4
333.217	21714.4
339.068	21680.4
344.912	21633.4
350.751	21615.4
356.583	21558.4
362.408	21532.4
368.227	21585.4
374.04	21545.4
379.847	21592.4
385.647	21733.4
391.44	21785.4
397.228	21899.4
403.009	21968.4
408.784	22028.4
414.553	22090.4
420.315	22096.4
426.071	22181.4
431.821	22188.4
437.565	22103.4
443.302	22111.4
449.033	22068.4
454.758	22099.4
460.477	21945.4
466.189	21872.4
471.896	21881.4
477.596	21818.4
483.29	21735.4
488.978	21736.4
494.66	21614.4
500.335	21468.4
506.005	21262.4
511.668	21100.4
517.325	20779.4
522.977	20606.4
528.622	20423.4
534.261	20348.4
539.894	20258.4
545.521	20176.4
551.141	20130.4
556.756	20060.4
562.365	19920.4
567.968	19796.4
573.565	19833.4
579.155	19739.4
584.74	19699.4
590.319	19535.4
595.892	19460.4
601.459	19391.4
607.02	19361.4
612.575	19211.4
618.124	19105.4
623.667	18933.4
629.204	18876.4
634.735	18810.4
640.261	18763.4
645.781	18699.4
651.294	18664.4
656.802	18596.4
662.304	18657.4
667.8	18523.4
673.29	18460.4
678.775	18513.4
684.254	18392.4
689.726	18286.4
695.193	18277.4
700.655	18180.4
706.11	18112.4
711.56	18095.4
717.004	17968.4
722.442	17856.4
727.874	17804.4
733.301	17728.4
738.722	17708.4
744.137	17650.4
749.547	17642.4
754.951	17616.4
760.349	17646.4
765.741	17649.4
771.128	17655.4
776.509	17685.4
781.885	17683.4
787.254	17609.4
792.618	17549.4
797.977	17339.4
803.33	17293.4
808.677	17210.4
814.019	17129.4
819.355	16984.4
824.686	16929.4
830.011	16897.4
835.33	16965.4
840.644	16961.4
845.952	16970.4
851.255	17004.4
856.552	17018.4
861.844	16985.4
867.13	16936.4
872.41	16835.4
877.686	16807.4
882.955	16663.4
888.219	16521.4
893.478	16333.4
898.731	16088.4
903.979	15955.4
909.221	15846.4
914.458	15814.4
919.69	15784.4
924.916	15784.4
930.136	15925.4
935.351	15954.4
940.561	15933.4
945.766	15860.4
950.965	15792.4
956.158	15730.4
961.347	15545.4
966.529	15281.4
971.707	15079.4
976.879	14937.4
982.046	14823.4
987.208	14744.4
992.364	14723.4
997.515	14872.4
1002.66	15028.4
1007.801	15192.4
1012.936	15302.4
1018.066	15285.4
1023.19	15261.4
1028.309	15283.4
1033.423	15268.4
1038.532	15180.4
1043.636	14997.4
1048.734	14885.4
1053.827	14628.4
1058.915	14556.4
1063.998	14417.4
1069.075	14414.4
1074.147	14369.4
1079.214	14429.4
1084.276	14510.4
1089.333	14599.4
1094.385	14669.4
1099.431	14719.4
1104.472	14729.4
1109.509	14626.4
1114.54	14469.4
1119.565	14274.4
1124.586	14108.4
1129.602	13971.4
1134.613	13874.4
1139.618	13818.4
1144.619	13731.4
1149.614	13754.4
1154.604	13758.4
1159.589	13784.4
1164.57	13858.4
1169.545	13857.4
1174.515	13835.4
1179.48	13798.4
1184.44	13684.4
1189.395	13575.4
1194.345	13507.4
1199.29	13426.4
1204.23	13385.4
1209.165	13494.4
1214.095	13538.4
1219.021	13603.4
1223.941	13706.4
1228.856	13792.4
1233.766	13803.4
1238.672	13832.4
1243.572	13782.4
1248.467	13729.4
1253.358	13569.4
1258.244	13408.4
1263.124	13156.4
1268	12973.4
1272.871	12795.4
1277.737	12710.4
1282.599	12681.4
1287.455	12664.4
1292.306	12672.4
1297.153	12764.4
1301.995	12818.4
1306.832	12858.4
1311.664	12877.4
1316.491	12889.4
1321.314	12745.4
1326.132	12562.4
1330.945	12293.4
1335.753	11978.4
1340.556	11646.4
1345.354	11441.4
1350.148	11195.4
1354.937	11137.4
1359.722	11060.4
1364.501	11101.4
1369.276	11200.4
1374.046	11367.4
1378.811	11528.4
1383.572	11711.4
1388.327	11743.4
1393.079	11681.4
1397.825	11592.4
1402.567	11417.4
1407.304	11286.4
1412.036	11214.4
1416.764	11110.4
1421.487	11061.4
1426.205	10959.4
1430.919	10949.4
1435.628	10978.4
1440.333	10965.4
1445.032	10956.4
1449.727	11033.4
1454.418	10999.4
1459.104	10849.4
1463.785	10668.4
1468.462	10414.4
1473.134	10201.4
1477.802	9966.4
1482.465	9814.4
1487.123	9643.4
1491.777	9596.4
1496.426	9653.4
1501.071	9735.4
1505.711	9880.4
1510.347	10023.4
1514.978	10218.4
1519.604	10364.4
1524.226	10538.4
1528.844	10540.4
1533.457	10506.4
1538.065	10514.4
1542.669	10461.4
1547.269	10360.4
1551.864	10327.4
1556.454	10284.4
1561.041	10253.4
1565.622	10273.4
1570.199	10259.4
1574.772	10338.4
1579.34	10438.4
1583.904	10448.4
1588.464	10542.4
1593.019	10553.4
1597.569	10514.4
1602.115	10464.4
1606.657	10391.4
1611.195	10296.4
1615.728	10240.4
1620.256	10247.4
1624.78	10214.4
1629.3	10207.4
1633.816	10212.4
1638.327	10269.4
1642.834	10317.4
1647.336	10345.4
1651.834	10386.4
1656.328	10343.4
1660.817	10314.4
1665.302	10233.4
1669.783	10013.4
1674.259	9783.4
1678.732	9500.4
1683.199	9127.4
1687.663	8804.4
1692.122	8512.4
1696.577	8373.4
1701.028	8310.4
1705.474	8359.4
1709.917	8457.4
1714.355	8503.4
1718.788	8473.4
1723.218	8397.4
1727.643	8247.4
1732.064	8054.4
1736.481	7868.4
1740.893	7710.4
1745.301	7515.4
1749.705	7318.4
1754.105	7121.4
1758.501	6912.4
1762.893	6709.4
1767.28	6488.4
1771.663	6349.4
1776.042	6257.4
1780.417	6164.4
1784.787	6125.4
1789.154	6164.4
1793.516	6270.4
1797.874	6383.4
1802.228	6488.4
1806.578	6586.4
1810.924	6634.4
1815.266	6557.4
1819.603	6461.4
1823.937	6423.4
1828.266	6300.4
1832.591	6231.4
1836.913	6116.4
1841.23	6064.4
1845.543	6063.4
1849.852	5989.4
1854.156	5966.4
1858.457	5952.4
1862.754	5988.4
1867.047	5919.4
1871.335	5908.4
1875.62	5881.4
1879.9	5888.4
1884.177	5860.4
1888.449	5795.4
1892.718	5714.4
1896.982	5685.4
1901.243	5553.4
1905.499	5528.4
1909.752	5507.4
1914	5522.4
1918.245	5511.4
1922.485	5531.4
1926.722	5594.4
1930.954	5639.4
1935.183	5745.4
1939.408	5824.4
1943.628	5841.4
1947.845	5884.4
1952.058	5862.4
1956.267	5815.4
1960.472	5749.4
1964.673	5664.4
1968.87	5607.4
1973.063	5507.4
1977.252	5420.4
1981.438	5409.4
1985.619	5329.4
1989.797	5339.4
1993.971	5272.4
1998.14	5248.4
2002.306	5239.4
2006.469	5244.4
2010.627	5189.4
2014.781	5127.4
2018.932	5138.4
2023.078	5063.4
2027.221	4996.4
2031.36	4899.4
2035.495	4849.4
2039.627	4770.4
2043.754	4720.4
2047.878	4669.4
2051.998	4615.4
2056.114	4596.4
2060.226	4611.4
2064.334	4577.4
2068.439	4595.4
2072.54	4636.4
2076.637	4662.4
2080.73	4692.4
2084.82	4684.4
2088.906	4725.4
2092.988	4741.4
2097.066	4709.4
2101.14	4706.4
2105.211	4676.4
2109.278	4636.4
2113.342	4577.4
2117.401	4616.4
2121.457	4605.4
2125.509	4574.4
2129.558	4556.4
2133.602	4519.4
2137.643	4483.4
2141.681	4475.4
2145.714	4464.4
2149.744	4454.4
2153.77	4417.4
2157.793	4364.4
2161.812	4303.4
2165.827	4242.4
2169.838	4156.4
2173.846	4092.4
2177.851	4025.4
2181.851	3986.4
2185.848	3946.4
2189.841	3907.4
2193.831	3845.4
2197.817	3805.4
2201.799	3814.4
2205.778	3779.4
2209.753	3765.4
2213.725	3762.4
2217.693	3747.4
2221.657	3732.4
2225.618	3738.4
2229.575	3714.4
2233.529	3665.4
2237.479	3650.4
2241.425	3609.4
2245.368	3561.4
2249.307	3509.4
2253.243	3465.4
2257.175	3409.4
2261.104	3338.4
2265.029	3326.4
2268.95	3296.4
2272.868	3271.4
2276.783	3217.4
2280.694	3193.4
2284.601	3191.4
2288.505	3175.4
2292.405	3120.4
2296.302	3087.4
2300.195	3050.4
2304.085	3016.4
2307.971	2957.4
2311.854	2915.4
2315.734	2903.4
2319.609	2885.4
2323.482	2834.4
2327.351	2778.4
2331.216	2779.4
2335.078	2766.4
2338.937	2748.4
2342.792	2713.4
2346.643	2718.4
2350.492	2717.4
2354.336	2729.4
2358.178	2719.4
2362.015	2756.4
2365.85	2753.4
2369.681	2730.4
2373.508	2762.4
2377.333	2757.4
2381.153	2758.4
2384.971	2718.4
2388.785	2704.4
2392.595	2670.4
2396.402	2697.4
2400.206	2644.4
2404.007	2646.4
2407.804	2645.4
2411.597	2590.4
2415.388	2565.4
2419.174	2572.4
2422.958	2547.4
2426.738	2518.4
2430.515	2518.4
2434.289	2502.4
2438.059	2462.4
2441.825	2444.4
2445.589	2408.4
2449.349	2403.4
2453.106	2373.4
2456.859	2346.4
2460.61	2312.4
2464.356	2298.4
2468.1	2272.4
2471.84	2222.4
2475.577	2214.4
2479.311	2192.4
2483.041	2184.4
2486.768	2190.4
2490.492	2165.4
2494.213	2173.4
2497.93	2146.4
2501.644	2128.4
2505.355	2168.4
2509.062	2132.4
2512.766	2097.4
2516.467	2117.4
2520.165	2096.4
2523.859	2061.4
2527.551	2074.4
2531.239	2057.4
2534.923	2026.4
2538.605	2003.4
2542.283	2002.4
2545.958	1982.4
2549.63	2006.4
2553.299	1984.4
2556.964	1984.4
2560.626	1974.4
2564.285	1968.4
2567.941	1953.4
2571.594	1960.4
2575.243	1939.4
2578.89	1928.4
2582.533	1928.4
2586.173	1898.4
2589.809	1864.4
2593.443	1849.4
2597.073	1857.4
2600.701	1824.4
2604.325	1811.4
2607.946	1799.4
2611.564	1800.4
2615.178	1779.4
2618.79	1766.4
2622.398	1759.4
2626.004	1739.4
2629.606	1700.4
2633.205	1728.4
2636.801	1666.4
2640.394	1665.4
2643.983	1618.4
2647.57	1603.4
2651.153	1581.4
2654.734	1538.4
2658.311	1538.4
2661.885	1507.4
2665.456	1496.4
2669.025	1464.4
2672.589	1463.4
2676.151	1448.4
2679.71	1450.4
2683.266	1411.4
2686.819	1391.4
2690.368	1361.4
2693.915	1321.4
2697.458	1301.4
2700.999	1269.4
2704.536	1249.4
2708.071	1215.4
2711.602	1207.4
2715.13	1170.4
2718.656	1131.4
2722.178	1118.4
2725.697	1103.4
2729.214	1090.4
2732.727	1067.4
2736.237	1067.4
2739.744	1066.4
2743.249	1062.4
2746.75	1058.4
2750.248	1065.4
2753.743	1082.4
2757.236	1104.4
2760.725	1113.4
2764.211	1107.4
2767.695	1134.4
2771.175	1125.4
2774.652	1127.4
2778.127	1123.4
2781.598	1108.4
2785.067	1101.4
2788.532	1107.4
2791.995	1087.4
2795.455	1088.4
2798.911	1080.4
2802.365	1111.4
2805.816	1109.4
2809.264	1092.4
2812.709	1102.4
2816.151	1102.4
2819.59	1105.4
2823.026	1100.4
2826.46	1099.4
2829.89	1099.4
2833.318	1106.4
2836.742	1108.4
2840.164	1104.4
2843.583	1121.4
2846.999	1128.4
2850.412	1149.4
2853.822	1151.4
2857.229	1166.4
2860.634	1200.4
2864.035	1208.4
2867.434	1251.4
2870.83	1257.4
2874.223	1281.4
2877.613	1298.4
2881	1309.4
2884.385	1323.4
2887.766	1333.4
2891.145	1301.4
2894.521	1327.4
2897.894	1319.4
2901.264	1321.4
2904.631	1314.4
2907.996	1328.4
2911.358	1337.4
2914.717	1339.4
2918.073	1351.4
2921.426	1380.4
2924.777	1377.4
2928.124	1394.4
2931.469	1434.4
2934.811	1448.4
2938.15	1489.4
2941.487	1483.4
2944.821	1483.4
2948.152	1489.4
2951.48	1475.4
2954.805	1438.4
2958.128	1419.4
2961.447	1444.4
2964.765	1427.4
2968.079	1424.4
2971.39	1452.4
2974.699	1457.4
2978.005	1487.4
2981.308	1517.4
2984.609	1543.4
2987.907	1556.4
2991.202	1613.4
2994.494	1619.4
2997.784	1679.4
3001.07	1692.4
3004.355	1704.4
3007.636	1734.4
3010.915	1749.4
3014.191	1785.4
3017.464	1767.4
3020.734	1834.4
3024.002	1805.4
3027.267	1817.4
3030.53	1823.4
3033.789	1859.4
3037.046	1881.4
3040.301	1922.4
3043.552	1970.4
3046.801	1983.4
3050.048	2012.4
3053.291	2093.4
3056.532	2150.4
3059.771	2193.4
3063.006	2268.4
3066.239	2326.4
3069.469	2410.4
3072.697	2452.4
3075.922	2506.4
3079.144	2574.4
3082.364	2651.4
3085.581	2685.4
3088.795	2764.4
3092.007	2819.4
3095.216	2868.4
3098.423	2918.4
3101.627	2978.4
3104.828	3050.4
3108.026	3085.4
3111.222	3195.4
3114.416	3289.4
3117.607	3332.4
3120.795	3395.4
3123.98	3494.4
3127.163	3567.4
3130.344	3653.4
3133.521	3743.4
3136.696	3833.4
3139.869	3908.4
3143.039	4005.4
3146.206	4050.4
3149.371	4075.4
3152.533	4123.4
3155.693	4150.4
3158.85	4203.4
3162.005	4193.4
3165.157	4213.4
3168.306	4210.4
3171.453	4242.4
3174.597	4206.4
3177.739	4232.4
3180.878	4230.4
3184.014	4260.4
3187.149	4231.4
3190.28	4243.4
3193.409	4251.4
3196.536	4271.4
3199.659	4260.4
3202.781	4240.4
3205.9	4238.4
3209.016	4246.4
3212.13	4238.4
3215.241	4183.4
3218.35	4169.4
3221.456	4111.4
3224.56	4106.4
3227.661	4035.4
3230.76	3976.4
3233.856	3939.4
3236.95	3925.4
3240.041	3886.4
3243.13	3836.4
3246.216	3855.4
3249.3	3815.4
3252.382	3797.4
3255.46	3796.4
3258.537	3770.4
3261.611	3771.4
3264.682	3793.4
3267.751	3784.4
3270.818	3742.4
3273.882	3742.4
3276.943	3735.4
3280.002	3701.4
3283.059	3687.4
3286.113	3623.4
3289.165	3563.4
3292.214	3531.4
3295.261	3457.4
3298.306	3396.4
3301.348	3354.4
3304.387	3294.4
3307.425	3261.4
3310.459	3209.4
3313.492	3152.4
3316.521	3119.4
3319.549	3092.4
3322.574	3053.4
3325.597	3042.4
3328.617	2991.4
3331.635	3001.4
3334.65	2942.4
3337.663	2972.4
3340.674	2924.4
3343.682	2925.4
3346.688	2901.4
3349.691	2897.4
3352.692	2895.4
3355.691	2849.4
3358.687	2833.4
3361.681	2792.4
3364.673	2766.4
3367.662	2719.4
3370.649	2689.4
3373.633	2629.4
3376.615	2613.4
3379.595	2550.4
3382.572	2553.4
3385.547	2508.4
3388.52	2452.4
3391.49	2423.4
3394.458	2407.4
3397.424	2371.4
3400.387	2331.4
3403.348	2304.4
3406.307	2280.4
3409.263	2258.4
3412.217	2250.4
3415.168	2201.4
3418.118	2190.4
3421.065	2131.4
3424.009	2098.4
3426.951	2082.4
3429.891	2031.4
3432.829	2010.4
3435.764	1941.4
3438.697	1913.4
3441.628	1849.4
3444.557	1823.4
3447.483	1736.4
3450.407	1681.4
3453.328	1637.4
3456.247	1564.4
3459.164	1511.4
3462.079	1478.4
3464.991	1432.4
3467.902	1376.4
3470.809	1327.4
3473.715	1270.4
3476.618	1223.4
3479.519	1176.4
3482.418	1143.4
3485.315	1093.4
3488.209	1068.4
3491.101	1034.4
3493.99	991.4
3496.878	946.4
3499.763	917.4
3502.646	882.4
3505.527	857.4
3508.405	821.4
3511.281	759.4
3514.155	727.4
3517.027	688.4
3519.897	633.4
3522.764	598.4
3525.629	548.4
3528.492	507.4
3531.352	472.4
3534.211	426.4
3537.067	398.4
3539.921	355.4
3542.773	304.4
3545.622	288.4
3548.469	242.4
3551.315	223.4
3554.157	198.4
3556.998	158.4
3559.837	147.4
3562.673	119.4
3565.507	98.4
3568.339	71.4
3571.169	48.4
3573.996	22.4
3576.822	1.4
3579.645	-12.6
3582.466	-28.6
3585.285	-61.6
3588.101	-65.6
3590.916	-97.6
3593.728	-122.6
3596.538	-133.6
3599.346	-158.6
3602.152	-175.6
3604.956	-189.6
3607.757	-213.6
3610.556	-225.6
3613.354	-234.6
3616.149	-252.6
3618.942	-260.6
3621.732	-273.6
3624.521	-287.6
3627.307	-300.6
3630.092	-309.6
3632.874	-315.6
3635.654	-327.6
3638.432	-333.6
3641.208	-340.6
3643.982	-363.6
3646.753	-368.6
3649.523	-375.6
3652.29	-382.6
3655.055	-385.6
3657.818	-406.6
3660.579	-423.6
3663.338	-431.6
3666.095	-439.6
3668.849	-447.6
3671.602	-456.6
3674.352	-463.6
3677.101	-456.6
3679.847	-478.6
3682.591	-480.6
3685.333	-488.6
3688.073	-487.6
3690.811	-486.6
3693.547	-494.6
3696.281	-507.6
3699.013	-510.6
3701.742	-514.6
3704.47	-522.6
3707.195	-530.6
3709.919	-527.6
3712.64	-539.6
3715.359	-539.6
3718.076	-552.6
3720.792	-545.6
3723.505	-551.6
3726.216	-556.6
3728.925	-561.6
3731.632	-566.6
3734.336	-562.6
3737.039	-572.6
3739.74	-569.6
3742.439	-577.6
3745.136	-572.6
3747.83	-577.6
3750.523	-576.6
3753.213	-578.6
3755.902	-585.6
3758.589	-583.6
3761.273	-582.6
3763.956	-594.6
3766.636	-590.6
3769.315	-592.6
3771.991	-592.6
3774.665	-604.6
3777.338	-597.6
3780.008	-595.6
3782.677	-600.6
3785.343	-593.6
3788.007	-603.6
3790.67	-606.6
3793.33	-608.6
3795.989	-608.6
3798.645	-608.6
3801.299	-610.6
3803.952	-615.6
3806.602	-619.6
3809.251	-619.6
3811.897	-614.6
3814.542	-615.6
3817.184	-606.6
3819.825	-610.6
3822.463	-610.6
3825.1	-618.6
3827.735	-615.6
3830.367	-610.6
3832.998	-625.6
3835.627	-624.6
3838.253	-623.6
3840.878	-627.6
3843.501	-625.6
3846.122	-621.6
3848.741	-617.6
3851.358	-623.6
3853.973	-625.6
3856.586	-628.6
3859.197	-633.6
3861.806	-636.6
3864.414	-630.6
3867.019	-621.6
3869.622	-632.6
3872.224	-624.6
3874.823	-603.6
3877.421	-592.6
3880.016	-576.6
3882.61	-557.6
3885.202	-548.6
3887.792	-565.6
3890.38	-596.6
3892.966	-615.6
3895.55	-630.6
3898.132	-635.6
3900.713	-643.6
3903.291	-640.6
3905.868	-644.6
3908.442	-641.6
3911.015	-644.6
3913.586	-641.6
3916.155	-643.6
3918.722	-644.6
3921.287	-639.6
3923.85	-648.6
3926.411	-645.6
3928.971	-655.6
3931.528	-643.6
3934.084	-646.6
3936.638	-642.6
3939.19	-647.6
3941.74	-642.6
3944.288	-645.6
3946.834	-637.6
3949.378	-645.6
3951.921	-639.6
3954.462	-650.6
3957	-645.6
3959.537	-645.6
3962.072	-644.6
3964.606	-647.6
3967.137	-648.6
3969.667	-645.6
3972.194	-637.6
3974.72	-642.6
3977.244	-634.6
3979.766	-635.6
3982.286	-636.6
3984.805	-634.6
3987.321	-633.6
3989.836	-636.6
3992.349	-628.6
3994.86	-629.6
3997.369	-640.6
3999.877	-626.6
4002.382	-632.6
4004.886	-625.6
4007.388	-628.6
4009.888	-628.6
4012.386	-632.6
4014.883	-628.6
4017.377	-625.6
4019.87	-630.6
4022.361	-627.6
4024.85	-627.6
4027.338	-629.6
4029.823	-631.6
4032.307	-635.6
4034.789	-628.6
4037.269	-629.6
4039.747	-633.6
4042.224	-636.6
4044.699	-635.6
4047.172	-633.6
4049.643	-634.6
4052.112	-644.6
4054.58	-637.6
4057.046	-639.6
4059.51	-636.6
4061.972	-640.6
4064.432	-637.6
4066.891	-633.6
4069.348	-630.6
4071.803	-631.6
4074.256	-629.6
4076.708	-632.6
4079.158	-630.6
4081.606	-634.6
4084.052	-641.6
4086.497	-635.6
4088.939	-626.6
4091.38	-636.6
4093.819	-630.6
4096.257	-668.6
4098.693	-666.6
4101.127	-673.6
4103.559	-668.6
4105.989	-393.6
4108.418	-366.6
4110.845	-338.6
4113.27	-314.6
4115.694	-282.6
4118.115	-234.6
4120.535	-635.6
4122.954	-631.6
4125.37	-625.6
4127.785	-633.6
4130.198	-631.6
4132.609	-633.6
4135.019	-668.6
4137.427	-669.6
4139.833	-670.6
4142.237	-666.6
