Data from 2018-2-14_conc=0_n=8_RamanShift_04.txt Node
Date: Wed Feb 14 10:51:26 IST 2018
User: aro
Spectrometer: QEPB0276
Trigger mode: 0
Integration Time (sec): 3.000000E1
Scans to average: 1
Electric dark correction enabled: true
Nonlinearity correction enabled: false
Boxcar width: 0
XAxis mode: Raman Shifts
Number of Pixels in Spectrum: 1044
>>>>>Begin Spectral Data<<<<<
160.701	-146.1
166.742	47.9
172.777	573.9
178.805	2226.9
184.826	6097.9
190.841	12762.9
196.849	20530.9
202.85	26012.9
208.845	27793.9
214.833	27609.9
220.815	27097.9
226.789	26861.9
232.758	26840.9
238.719	26649.9
244.674	26291.9
250.623	25846.9
256.565	25382.9
262.5	24836.9
268.429	24448.9
274.351	24076.9
280.267	23751.9
286.176	23489.9
292.079	23321.9
297.975	23092.9
303.865	22888.9
309.748	22745.9
315.625	22631.9
321.495	22493.9
327.359	22463.9
333.217	22404.9
339.068	22353.9
344.912	22382.9
350.751	22277.9
356.583	22327.9
362.408	22180.9
368.227	22250.9
374.04	22287.9
379.847	22350.9
385.647	22414.9
391.44	22483.9
397.228	22595.9
403.009	22715.9
408.784	22762.9
414.553	22762.9
420.315	22906.9
426.071	22879.9
431.821	22930.9
437.565	22859.9
443.302	22768.9
449.033	22711.9
454.758	22751.9
460.477	22650.9
466.189	22633.9
471.896	22603.9
477.596	22463.9
483.29	22523.9
488.978	22476.9
494.66	22339.9
500.335	22272.9
506.005	22099.9
511.668	21817.9
517.325	21583.9
522.977	21384.9
528.622	21201.9
534.261	21159.9
539.894	21052.9
545.521	20946.9
551.141	20857.9
556.756	20836.9
562.365	20737.9
567.968	20709.9
573.565	20545.9
579.155	20490.9
584.74	20454.9
590.319	20374.9
595.892	20272.9
601.459	20176.9
607.02	20118.9
612.575	19958.9
618.124	19882.9
623.667	19749.9
629.204	19707.9
634.735	19591.9
640.261	19547.9
645.781	19437.9
651.294	19428.9
656.802	19451.9
662.304	19398.9
667.8	19300.9
673.29	19318.9
678.775	19188.9
684.254	19228.9
689.726	19110.9
695.193	19130.9
700.655	18938.9
706.11	18875.9
711.56	18778.9
717.004	18678.9
722.442	18636.9
727.874	18512.9
733.301	18466.9
738.722	18427.9
744.137	18405.9
749.547	18418.9
754.951	18394.9
760.349	18432.9
765.741	18384.9
771.128	18475.9
776.509	18421.9
781.885	18406.9
787.254	18365.9
792.618	18324.9
797.977	18196.9
803.33	18081.9
808.677	17976.9
814.019	17892.9
819.355	17773.9
824.686	17716.9
830.011	17696.9
835.33	17643.9
840.644	17692.9
845.952	17723.9
851.255	17698.9
856.552	17784.9
861.844	17747.9
867.13	17712.9
872.41	17591.9
877.686	17576.9
882.955	17410.9
888.219	17341.9
893.478	17072.9
898.731	16845.9
903.979	16743.9
909.221	16597.9
914.458	16540.9
919.69	16492.9
924.916	16595.9
930.136	16648.9
935.351	16664.9
940.561	16647.9
945.766	16614.9
950.965	16494.9
956.158	16393.9
961.347	16299.9
966.529	16063.9
971.707	15857.9
976.879	15629.9
982.046	15560.9
987.208	15517.9
992.364	15561.9
997.515	15584.9
1002.66	15748.9
1007.801	15868.9
1012.936	16016.9
1018.066	16001.9
1023.19	15982.9
1028.309	16062.9
1033.423	16016.9
1038.532	15869.9
1043.636	15725.9
1048.734	15585.9
1053.827	15317.9
1058.915	15189.9
1063.998	15082.9
1069.075	15054.9
1074.147	15119.9
1079.214	15146.9
1084.276	15191.9
1089.333	15331.9
1094.385	15383.9
1099.431	15432.9
1104.472	15368.9
1109.509	15350.9
1114.54	15202.9
1119.565	14939.9
1124.586	14781.9
1129.602	14669.9
1134.613	14560.9
1139.618	14485.9
1144.619	14384.9
1149.614	14398.9
1154.604	14456.9
1159.589	14472.9
1164.57	14489.9
1169.545	14498.9
1174.515	14548.9
1179.48	14471.9
1184.44	14324.9
1189.395	14243.9
1194.345	14153.9
1199.29	14069.9
1204.23	14109.9
1209.165	14115.9
1214.095	14168.9
1219.021	14270.9
1223.941	14337.9
1228.856	14392.9
1233.766	14431.9
1238.672	14494.9
1243.572	14456.9
1248.467	14364.9
1253.358	14244.9
1258.244	14016.9
1263.124	13733.9
1268	13539.9
1272.871	13445.9
1277.737	13347.9
1282.599	13250.9
1287.455	13297.9
1292.306	13244.9
1297.153	13334.9
1301.995	13388.9
1306.832	13513.9
1311.664	13506.9
1316.491	13434.9
1321.314	13308.9
1326.132	13114.9
1330.945	12869.9
1335.753	12543.9
1340.556	12172.9
1345.354	11909.9
1350.148	11718.9
1354.937	11605.9
1359.722	11635.9
1364.501	11676.9
1369.276	11808.9
1374.046	12020.9
1378.811	12183.9
1383.572	12348.9
1388.327	12411.9
1393.079	12355.9
1397.825	12250.9
1402.567	11974.9
1407.304	11873.9
1412.036	11721.9
1416.764	11658.9
1421.487	11609.9
1426.205	11538.9
1430.919	11469.9
1435.628	11507.9
1440.333	11504.9
1445.032	11508.9
1449.727	11525.9
1454.418	11490.9
1459.104	11414.9
1463.785	11190.9
1468.462	10993.9
1473.134	10723.9
1477.802	10504.9
1482.465	10319.9
1487.123	10209.9
1491.777	10170.9
1496.426	10230.9
1501.071	10374.9
1505.711	10494.9
1510.347	10689.9
1514.978	10900.9
1519.604	11096.9
1524.226	11213.9
1528.844	11190.9
1533.457	11164.9
1538.065	11130.9
1542.669	11086.9
1547.269	10957.9
1551.864	10923.9
1556.454	10881.9
1561.041	10827.9
1565.622	10782.9
1570.199	10826.9
1574.772	10886.9
1579.34	10916.9
1583.904	10971.9
1588.464	11011.9
1593.019	11023.9
1597.569	11003.9
1602.115	10890.9
1606.657	10883.9
1611.195	10783.9
1615.728	10703.9
1620.256	10601.9
1624.78	10616.9
1629.3	10604.9
1633.816	10636.9
1638.327	10726.9
1642.834	10778.9
1647.336	10797.9
1651.834	10822.9
1656.328	10815.9
1660.817	10764.9
1665.302	10648.9
1669.783	10489.9
1674.259	10249.9
1678.732	9953.9
1683.199	9597.9
1687.663	9296.9
1692.122	9062.9
1696.577	8860.9
1701.028	8785.9
1705.474	8919.9
1709.917	9076.9
1714.355	9122.9
1718.788	9095.9
1723.218	8960.9
1727.643	8781.9
1732.064	8605.9
1736.481	8403.9
1740.893	8219.9
1745.301	7993.9
1749.705	7809.9
1754.105	7593.9
1758.501	7349.9
1762.893	7157.9
1767.28	6990.9
1771.663	6857.9
1776.042	6672.9
1780.417	6616.9
1784.787	6616.9
1789.154	6693.9
1793.516	6833.9
1797.874	6972.9
1802.228	7137.9
1806.578	7196.9
1810.924	7204.9
1815.266	7145.9
1819.603	7012.9
1823.937	6892.9
1828.266	6842.9
1832.591	6698.9
1836.913	6633.9
1841.23	6534.9
1845.543	6474.9
1849.852	6463.9
1854.156	6440.9
1858.457	6400.9
1862.754	6410.9
1867.047	6382.9
1871.335	6411.9
1875.62	6372.9
1879.9	6340.9
1884.177	6284.9
1888.449	6222.9
1892.718	6194.9
1896.982	6098.9
1901.243	6042.9
1905.499	6038.9
1909.752	5984.9
1914	5959.9
1918.245	6031.9
1922.485	6072.9
1926.722	6095.9
1930.954	6210.9
1935.183	6241.9
1939.408	6320.9
1943.628	6366.9
1947.845	6393.9
1952.058	6400.9
1956.267	6327.9
1960.472	6264.9
1964.673	6156.9
1968.87	6062.9
1973.063	5966.9
1977.252	5850.9
1981.438	5775.9
1985.619	5759.9
1989.797	5703.9
1993.971	5682.9
1998.14	5653.9
2002.306	5600.9
2006.469	5607.9
2010.627	5568.9
2014.781	5550.9
2018.932	5454.9
2023.078	5453.9
2027.221	5351.9
2031.36	5262.9
2035.495	5192.9
2039.627	5118.9
2043.754	5031.9
2047.878	5016.9
2051.998	4944.9
2056.114	4960.9
2060.226	4940.9
2064.334	4936.9
2068.439	4950.9
2072.54	5002.9
2076.637	5005.9
2080.73	5050.9
2084.82	5104.9
2088.906	5117.9
2092.988	5090.9
2097.066	5095.9
2101.14	5049.9
2105.211	5049.9
2109.278	5018.9
2113.342	5003.9
2117.401	4949.9
2121.457	4923.9
2125.509	4915.9
2129.558	4874.9
2133.602	4828.9
2137.643	4797.9
2141.681	4790.9
2145.714	4787.9
2149.744	4716.9
2153.77	4685.9
2157.793	4659.9
2161.812	4581.9
2165.827	4485.9
2169.838	4453.9
2173.846	4368.9
2177.851	4316.9
2181.851	4254.9
2185.848	4221.9
2189.841	4141.9
2193.831	4088.9
2197.817	4039.9
2201.799	4035.9
2205.778	4029.9
2209.753	4030.9
2213.725	3961.9
2217.693	3976.9
2221.657	3973.9
2225.618	3969.9
2229.575	3944.9
2233.529	3934.9
2237.479	3888.9
2241.425	3808.9
2245.368	3764.9
2249.307	3733.9
2253.243	3665.9
2257.175	3654.9
2261.104	3594.9
2265.029	3544.9
2268.95	3526.9
2272.868	3476.9
2276.783	3443.9
2280.694	3383.9
2284.601	3351.9
2288.505	3362.9
2292.405	3312.9
2296.302	3285.9
2300.195	3233.9
2304.085	3215.9
2307.971	3156.9
2311.854	3082.9
2315.734	3069.9
2319.609	3023.9
2323.482	2976.9
2327.351	2949.9
2331.216	2930.9
2335.078	2923.9
2338.937	2895.9
2342.792	2864.9
2346.643	2901.9
2350.492	2863.9
2354.336	2913.9
2358.178	2896.9
2362.015	2887.9
2365.85	2880.9
2369.681	2875.9
2373.508	2922.9
2377.333	2885.9
2381.153	2890.9
2384.971	2879.9
2388.785	2859.9
2392.595	2788.9
2396.402	2788.9
2400.206	2769.9
2404.007	2749.9
2407.804	2732.9
2411.597	2743.9
2415.388	2715.9
2419.174	2684.9
2422.958	2679.9
2426.738	2656.9
2430.515	2631.9
2434.289	2619.9
2438.059	2588.9
2441.825	2548.9
2445.589	2532.9
2449.349	2508.9
2453.106	2494.9
2456.859	2457.9
2460.61	2445.9
2464.356	2407.9
2468.1	2402.9
2471.84	2359.9
2475.577	2319.9
2479.311	2319.9
2483.041	2329.9
2486.768	2292.9
2490.492	2287.9
2494.213	2281.9
2497.93	2257.9
2501.644	2258.9
2505.355	2210.9
2509.062	2240.9
2512.766	2222.9
2516.467	2199.9
2520.165	2181.9
2523.859	2166.9
2527.551	2162.9
2531.239	2140.9
2534.923	2135.9
2538.605	2116.9
2542.283	2113.9
2545.958	2085.9
2549.63	2100.9
2553.299	2103.9
2556.964	2101.9
2560.626	2091.9
2564.285	2086.9
2567.941	2073.9
2571.594	2074.9
2575.243	2045.9
2578.89	2030.9
2582.533	2020.9
2586.173	2003.9
2589.809	2006.9
2593.443	1957.9
2597.073	1952.9
2600.701	1950.9
2604.325	1914.9
2607.946	1915.9
2611.564	1912.9
2615.178	1884.9
2618.79	1877.9
2622.398	1862.9
2626.004	1840.9
2629.606	1818.9
2633.205	1792.9
2636.801	1772.9
2640.394	1744.9
2643.983	1710.9
2647.57	1702.9
2651.153	1660.9
2654.734	1658.9
2658.311	1625.9
2661.885	1588.9
2665.456	1573.9
2669.025	1581.9
2672.589	1538.9
2676.151	1513.9
2679.71	1507.9
2683.266	1497.9
2686.819	1467.9
2690.368	1421.9
2693.915	1423.9
2697.458	1374.9
2700.999	1339.9
2704.536	1303.9
2708.071	1271.9
2711.602	1267.9
2715.13	1220.9
2718.656	1189.9
2722.178	1182.9
2725.697	1170.9
2729.214	1153.9
2732.727	1153.9
2736.237	1118.9
2739.744	1107.9
2743.249	1128.9
2746.75	1119.9
2750.248	1142.9
2753.743	1154.9
2757.236	1173.9
2760.725	1167.9
2764.211	1184.9
2767.695	1192.9
2771.175	1182.9
2774.652	1197.9
2778.127	1172.9
2781.598	1161.9
2785.067	1158.9
2788.532	1173.9
2791.995	1141.9
2795.455	1146.9
2798.911	1150.9
2802.365	1157.9
2805.816	1146.9
2809.264	1152.9
2812.709	1130.9
2816.151	1123.9
2819.59	1157.9
2823.026	1145.9
2826.46	1160.9
2829.89	1142.9
2833.318	1149.9
2836.742	1159.9
2840.164	1143.9
2843.583	1158.9
2846.999	1175.9
2850.412	1203.9
2853.822	1191.9
2857.229	1218.9
2860.634	1224.9
2864.035	1242.9
2867.434	1267.9
2870.83	1290.9
2874.223	1315.9
2877.613	1312.9
2881	1329.9
2884.385	1354.9
2887.766	1344.9
2891.145	1340.9
2894.521	1335.9
2897.894	1339.9
2901.264	1337.9
2904.631	1354.9
2907.996	1343.9
2911.358	1332.9
2914.717	1322.9
2918.073	1354.9
2921.426	1358.9
2924.777	1371.9
2928.124	1398.9
2931.469	1427.9
2934.811	1436.9
2938.15	1439.9
2941.487	1474.9
2944.821	1461.9
2948.152	1463.9
2951.48	1462.9
2954.805	1431.9
2958.128	1446.9
2961.447	1412.9
2964.765	1434.9
2968.079	1418.9
2971.39	1424.9
2974.699	1443.9
2978.005	1475.9
2981.308	1482.9
2984.609	1517.9
2987.907	1556.9
2991.202	1565.9
2994.494	1614.9
2997.784	1635.9
3001.07	1658.9
3004.355	1703.9
3007.636	1715.9
3010.915	1725.9
3014.191	1740.9
3017.464	1752.9
3020.734	1766.9
3024.002	1771.9
3027.267	1787.9
3030.53	1797.9
3033.789	1800.9
3037.046	1831.9
3040.301	1852.9
3043.552	1884.9
3046.801	1931.9
3050.048	1951.9
3053.291	2015.9
3056.532	2077.9
3059.771	2118.9
3063.006	2168.9
3066.239	2244.9
3069.469	2310.9
3072.697	2333.9
3075.922	2432.9
3079.144	2469.9
3082.364	2531.9
3085.581	2596.9
3088.795	2627.9
3092.007	2701.9
3095.216	2766.9
3098.423	2789.9
3101.627	2893.9
3104.828	2942.9
3108.026	2982.9
3111.222	3071.9
3114.416	3106.9
3117.607	3162.9
3120.795	3273.9
3123.98	3347.9
3127.163	3423.9
3130.344	3500.9
3133.521	3557.9
3136.696	3679.9
3139.869	3754.9
3143.039	3811.9
3146.206	3832.9
3149.371	3887.9
3152.533	3932.9
3155.693	3930.9
3158.85	3976.9
3162.005	4011.9
3165.157	3992.9
3168.306	4024.9
3171.453	4051.9
3174.597	4023.9
3177.739	4043.9
3180.878	4026.9
3184.014	4060.9
3187.149	4082.9
3190.28	4049.9
3193.409	4062.9
3196.536	4058.9
3199.659	4088.9
3202.781	4091.9
3205.9	4067.9
3209.016	4075.9
3212.13	4080.9
3215.241	4039.9
3218.35	4001.9
3221.456	3948.9
3224.56	3933.9
3227.661	3882.9
3230.76	3828.9
3233.856	3809.9
3236.95	3763.9
3240.041	3715.9
3243.13	3707.9
3246.216	3691.9
3249.3	3657.9
3252.382	3668.9
3255.46	3624.9
3258.537	3655.9
3261.611	3656.9
3264.682	3620.9
3267.751	3624.9
3270.818	3620.9
3273.882	3612.9
3276.943	3581.9
3280.002	3566.9
3283.059	3523.9
3286.113	3481.9
3289.165	3434.9
3292.214	3378.9
3295.261	3334.9
3298.306	3249.9
3301.348	3228.9
3304.387	3154.9
3307.425	3128.9
3310.459	3075.9
3313.492	3002.9
3316.521	2985.9
3319.549	2947.9
3322.574	2909.9
3325.597	2888.9
3328.617	2855.9
3331.635	2840.9
3334.65	2812.9
3337.663	2829.9
3340.674	2789.9
3343.682	2790.9
3346.688	2778.9
3349.691	2755.9
3352.692	2757.9
3355.691	2721.9
3358.687	2704.9
3361.681	2677.9
3364.673	2631.9
3367.662	2576.9
3370.649	2544.9
3373.633	2536.9
3376.615	2512.9
3379.595	2440.9
3382.572	2406.9
3385.547	2410.9
3388.52	2335.9
3391.49	2314.9
3394.458	2263.9
3397.424	2275.9
3400.387	2220.9
3403.348	2196.9
3406.307	2157.9
3409.263	2137.9
3412.217	2113.9
3415.168	2100.9
3418.118	2058.9
3421.065	2049.9
3424.009	2010.9
3426.951	1985.9
3429.891	1954.9
3432.829	1898.9
3435.764	1856.9
3438.697	1829.9
3441.628	1758.9
3444.557	1709.9
3447.483	1671.9
3450.407	1616.9
3453.328	1562.9
3456.247	1499.9
3459.164	1441.9
3462.079	1410.9
3464.991	1350.9
3467.902	1291.9
3470.809	1243.9
3473.715	1218.9
3476.618	1152.9
3479.519	1127.9
3482.418	1095.9
3485.315	1055.9
3488.209	1015.9
3491.101	992.9
3493.99	949.9
3496.878	896.9
3499.763	877.9
3502.646	842.9
3505.527	810.9
3508.405	771.9
3511.281	729.9
3514.155	681.9
3517.027	642.9
3519.897	607.9
3522.764	562.9
3525.629	515.9
3528.492	463.9
3531.352	438.9
3534.211	396.9
3537.067	358.9
3539.921	329.9
3542.773	276.9
3545.622	262.9
3548.469	232.9
3551.315	198.9
3554.157	181.9
3556.998	134.9
3559.837	122.9
3562.673	76.9
3565.507	69.9
3568.339	39.9
3571.169	22.9
3573.996	-2.1
3576.822	-20.1
3579.645	-30.1
3582.466	-56.1
3585.285	-78.1
3588.101	-98.1
3590.916	-123.1
3593.728	-143.1
3596.538	-158.1
3599.346	-169.1
3602.152	-193.1
3604.956	-211.1
3607.757	-217.1
3610.556	-249.1
3613.354	-254.1
3616.149	-273.1
3618.942	-272.1
3621.732	-287.1
3624.521	-306.1
3627.307	-307.1
3630.092	-315.1
3632.874	-329.1
3635.654	-329.1
3638.432	-344.1
3641.208	-356.1
3643.982	-363.1
3646.753	-375.1
3649.523	-384.1
3652.29	-398.1
3655.055	-406.1
3657.818	-418.1
3660.579	-431.1
3663.338	-440.1
3666.095	-445.1
3668.849	-447.1
3671.602	-457.1
3674.352	-471.1
3677.101	-475.1
3679.847	-482.1
3682.591	-492.1
3685.333	-501.1
3688.073	-507.1
3690.811	-508.1
3693.547	-516.1
3696.281	-523.1
3699.013	-526.1
3701.742	-528.1
3704.47	-536.1
3707.195	-538.1
3709.919	-539.1
3712.64	-543.1
3715.359	-553.1
3718.076	-557.1
3720.792	-553.1
3723.505	-554.1
3726.216	-564.1
3728.925	-565.1
3731.632	-572.1
3734.336	-568.1
3737.039	-581.1
3739.74	-576.1
3742.439	-580.1
3745.136	-580.1
3747.83	-585.1
3750.523	-588.1
3753.213	-568.1
3755.902	-586.1
3758.589	-593.1
3761.273	-593.1
3763.956	-596.1
3766.636	-598.1
3769.315	-600.1
3771.991	-601.1
3774.665	-600.1
3777.338	-608.1
3780.008	-606.1
3782.677	-602.1
3785.343	-603.1
3788.007	-604.1
3790.67	-605.1
3793.33	-616.1
3795.989	-609.1
3798.645	-614.1
3801.299	-605.1
3803.952	-617.1
3806.602	-623.1
3809.251	-620.1
3811.897	-621.1
3814.542	-625.1
3817.184	-621.1
3819.825	-618.1
3822.463	-616.1
3825.1	-625.1
3827.735	-615.1
3830.367	-620.1
3832.998	-628.1
3835.627	-631.1
3838.253	-630.1
3840.878	-635.1
3843.501	-628.1
3846.122	-630.1
3848.741	-629.1
3851.358	-628.1
3853.973	-632.1
3856.586	-631.1
3859.197	-637.1
3861.806	-639.1
3864.414	-635.1
3867.019	-629.1
3869.622	-631.1
3872.224	-629.1
3874.823	-616.1
3877.421	-597.1
3880.016	-573.1
3882.61	-545.1
3885.202	-538.1
3887.792	-559.1
3890.38	-597.1
3892.966	-624.1
3895.55	-632.1
3898.132	-646.1
3900.713	-650.1
3903.291	-646.1
3905.868	-647.1
3908.442	-646.1
3911.015	-648.1
3913.586	-636.1
3916.155	-640.1
3918.722	-645.1
3921.287	-645.1
3923.85	-650.1
3926.411	-646.1
3928.971	-654.1
3931.528	-652.1
3934.084	-649.1
3936.638	-655.1
3939.19	-656.1
3941.74	-649.1
3944.288	-650.1
3946.834	-646.1
3949.378	-656.1
3951.921	-648.1
3954.462	-656.1
3957	-646.1
3959.537	-652.1
3962.072	-651.1
3964.606	-643.1
3967.137	-649.1
3969.667	-650.1
3972.194	-647.1
3974.72	-650.1
3977.244	-643.1
3979.766	-637.1
3982.286	-642.1
3984.805	-641.1
3987.321	-636.1
3989.836	-641.1
3992.349	-635.1
3994.86	-633.1
3997.369	-644.1
3999.877	-635.1
4002.382	-631.1
4004.886	-630.1
4007.388	-632.1
4009.888	-629.1
4012.386	-641.1
4014.883	-634.1
4017.377	-635.1
4019.87	-637.1
4022.361	-633.1
4024.85	-637.1
4027.338	-641.1
4029.823	-638.1
4032.307	-639.1
4034.789	-633.1
4037.269	-636.1
4039.747	-635.1
4042.224	-638.1
4044.699	-644.1
4047.172	-638.1
4049.643	-634.1
4052.112	-644.1
4054.58	-643.1
4057.046	-643.1
4059.51	-641.1
4061.972	-647.1
4064.432	-647.1
4066.891	-641.1
4069.348	-640.1
4071.803	-637.1
4074.256	-642.1
4076.708	-638.1
4079.158	-640.1
4081.606	-645.1
4084.052	-641.1
4086.497	-637.1
4088.939	-637.1
4091.38	-641.1
4093.819	-634.1
4096.257	-674.1
4098.693	-675.1
4101.127	-678.1
4103.559	-674.1
4105.989	-398.1
4108.418	-363.1
4110.845	-343.1
4113.27	-324.1
4115.694	-278.1
4118.115	-229.1
4120.535	-640.1
4122.954	-638.1
4125.37	-628.1
4127.785	-638.1
4130.198	-637.1
4132.609	-639.1
4135.019	-677.1
4137.427	-675.1
4139.833	-675.1
4142.237	-675.1
