Data from 2018-2-14_conc=0_n=1_RamanShift_04.txt Node
Date: Wed Feb 14 10:27:26 IST 2018
User: aro
Spectrometer: QEPB0276
Trigger mode: 0
Integration Time (sec): 3.000000E1
Scans to average: 1
Electric dark correction enabled: true
Nonlinearity correction enabled: false
Boxcar width: 0
XAxis mode: Raman Shifts
Number of Pixels in Spectrum: 1044
>>>>>Begin Spectral Data<<<<<
160.701	-155
166.742	27
172.777	595
178.805	2252
184.826	6167
190.841	12784
196.849	20299
202.85	25475
208.845	27090
214.833	26782
220.815	26280
226.789	26017
232.758	25858
238.719	25708
244.674	25278
250.623	24763
256.565	24239
262.5	23685
268.429	23159
274.351	22765
280.267	22518
286.176	22313
292.079	22012
297.975	21820
303.865	21571
309.748	21397
315.625	21284
321.495	21073
327.359	21045
333.217	20932
339.068	20950
344.912	20985
350.751	20864
356.583	20905
362.408	20820
368.227	20792
374.04	20867
379.847	20942
385.647	20992
391.44	21088
397.228	21196
403.009	21316
408.784	21306
414.553	21382
420.315	21426
426.071	21442
431.821	21474
437.565	21438
443.302	21425
449.033	21347
454.758	21278
460.477	21226
466.189	21214
471.896	21136
477.596	21066
483.29	21072
488.978	21047
494.66	20869
500.335	20743
506.005	20534
511.668	20288
517.325	20026
522.977	19793
528.622	19654
534.261	19604
539.894	19438
545.521	19354
551.141	19322
556.756	19228
562.365	19171
567.968	19114
573.565	18974
579.155	18870
584.74	18828
590.319	18747
595.892	18681
601.459	18594
607.02	18518
612.575	18439
618.124	18282
623.667	18201
629.204	18120
634.735	17999
640.261	17896
645.781	17927
651.294	17901
656.802	17800
662.304	17776
667.8	17782
673.29	17733
678.775	17692
684.254	17611
689.726	17564
695.193	17578
700.655	17429
706.11	17308
711.56	17295
717.004	17180
722.442	17119
727.874	17025
733.301	16961
738.722	16949
744.137	16912
749.547	16852
754.951	16915
760.349	16909
765.741	16907
771.128	16947
776.509	16941
781.885	16998
787.254	16895
792.618	16781
797.977	16748
803.33	16632
808.677	16579
814.019	16431
819.355	16348
824.686	16283
830.011	16163
835.33	16256
840.644	16190
845.952	16288
851.255	16313
856.552	16350
861.844	16242
867.13	16194
872.41	16219
877.686	16069
882.955	15896
888.219	15825
893.478	15624
898.731	15471
903.979	15247
909.221	15218
914.458	15107
919.69	15131
924.916	15131
930.136	15211
935.351	15246
940.561	15209
945.766	15240
950.965	15156
956.158	14956
961.347	14824
966.529	14658
971.707	14494
976.879	14300
982.046	14203
987.208	14123
992.364	14152
997.515	14223
1002.66	14402
1007.801	14517
1012.936	14641
1018.066	14582
1023.19	14638
1028.309	14629
1033.423	14565
1038.532	14560
1043.636	14370
1048.734	14203
1053.827	14044
1058.915	13907
1063.998	13807
1069.075	13803
1074.147	13754
1079.214	13838
1084.276	13897
1089.333	13965
1094.385	14022
1099.431	14114
1104.472	14128
1109.509	14025
1114.54	13840
1119.565	13634
1124.586	13487
1129.602	13436
1134.613	13297
1139.618	13162
1144.619	13144
1149.614	13118
1154.604	13229
1159.589	13241
1164.57	13259
1169.545	13294
1174.515	13257
1179.48	13150
1184.44	13120
1189.395	13048
1194.345	12907
1199.29	12888
1204.23	12893
1209.165	12903
1214.095	12999
1219.021	13038
1223.941	13141
1228.856	13179
1233.766	13203
1238.672	13309
1243.572	13254
1248.467	13159
1253.358	13007
1258.244	12806
1263.124	12625
1268	12471
1272.871	12270
1277.737	12232
1282.599	12087
1287.455	12162
1292.306	12183
1297.153	12212
1301.995	12272
1306.832	12296
1311.664	12312
1316.491	12278
1321.314	12160
1326.132	11996
1330.945	11698
1335.753	11437
1340.556	11119
1345.354	10925
1350.148	10777
1354.937	10714
1359.722	10741
1364.501	10739
1369.276	10893
1374.046	10970
1378.811	11138
1383.572	11267
1388.327	11256
1393.079	11255
1397.825	11098
1402.567	10965
1407.304	10808
1412.036	10719
1416.764	10633
1421.487	10574
1426.205	10504
1430.919	10465
1435.628	10463
1440.333	10494
1445.032	10515
1449.727	10561
1454.418	10549
1459.104	10409
1463.785	10201
1468.462	10007
1473.134	9804
1477.802	9573
1482.465	9457
1487.123	9370
1491.777	9348
1496.426	9370
1501.071	9460
1505.711	9597
1510.347	9798
1514.978	9915
1519.604	10103
1524.226	10167
1528.844	10213
1533.457	10161
1538.065	10145
1542.669	10064
1547.269	10009
1551.864	9968
1556.454	9905
1561.041	9902
1565.622	9862
1570.199	9891
1574.772	9963
1579.34	10015
1583.904	10092
1588.464	10136
1593.019	10127
1597.569	10091
1602.115	10049
1606.657	9930
1611.195	9905
1615.728	9846
1620.256	9843
1624.78	9786
1629.3	9812
1633.816	9828
1638.327	9863
1642.834	9924
1647.336	9965
1651.834	10024
1656.328	10010
1660.817	9945
1665.302	9840
1669.783	9672
1674.259	9419
1678.732	9178
1683.199	8898
1687.663	8551
1692.122	8309
1696.577	8214
1701.028	8198
1705.474	8227
1709.917	8298
1714.355	8288
1718.788	8256
1723.218	8130
1727.643	8000
1732.064	7816
1736.481	7638
1740.893	7437
1745.301	7225
1749.705	7067
1754.105	6798
1758.501	6671
1762.893	6491
1767.28	6282
1771.663	6157
1776.042	6040
1780.417	6022
1784.787	6015
1789.154	6111
1793.516	6201
1797.874	6323
1802.228	6442
1806.578	6504
1810.924	6471
1815.266	6415
1819.603	6338
1823.937	6236
1828.266	6093
1832.591	6045
1836.913	5949
1841.23	5880
1845.543	5829
1849.852	5837
1854.156	5806
1858.457	5776
1862.754	5754
1867.047	5774
1871.335	5744
1875.62	5730
1879.9	5708
1884.177	5674
1888.449	5619
1892.718	5570
1896.982	5532
1901.243	5496
1905.499	5424
1909.752	5437
1914	5409
1918.245	5417
1922.485	5500
1926.722	5520
1930.954	5660
1935.183	5698
1939.408	5773
1943.628	5781
1947.845	5770
1952.058	5759
1956.267	5761
1960.472	5683
1964.673	5560
1968.87	5478
1973.063	5404
1977.252	5336
1981.438	5223
1985.619	5180
1989.797	5189
1993.971	5132
1998.14	5112
2002.306	5101
2006.469	5090
2010.627	5024
2014.781	5018
2018.932	5001
2023.078	4942
2027.221	4862
2031.36	4787
2035.495	4726
2039.627	4659
2043.754	4622
2047.878	4543
2051.998	4518
2056.114	4494
2060.226	4511
2064.334	4518
2068.439	4547
2072.54	4575
2076.637	4577
2080.73	4632
2084.82	4658
2088.906	4677
2092.988	4699
2097.066	4644
2101.14	4651
2105.211	4638
2109.278	4582
2113.342	4554
2117.401	4509
2121.457	4503
2125.509	4472
2129.558	4457
2133.602	4437
2137.643	4417
2141.681	4362
2145.714	4357
2149.744	4320
2153.77	4311
2157.793	4268
2161.812	4174
2165.827	4155
2169.838	4055
2173.846	4014
2177.851	3961
2181.851	3876
2185.848	3844
2189.841	3803
2193.831	3743
2197.817	3735
2201.799	3672
2205.778	3694
2209.753	3673
2213.725	3669
2217.693	3644
2221.657	3644
2225.618	3647
2229.575	3591
2233.529	3570
2237.479	3541
2241.425	3501
2245.368	3455
2249.307	3391
2253.243	3379
2257.175	3329
2261.104	3258
2265.029	3238
2268.95	3194
2272.868	3166
2276.783	3129
2280.694	3114
2284.601	3053
2288.505	3012
2292.405	3015
2296.302	2988
2300.195	2963
2304.085	2914
2307.971	2858
2311.854	2828
2315.734	2792
2319.609	2747
2323.482	2681
2327.351	2696
2331.216	2671
2335.078	2664
2338.937	2629
2342.792	2617
2346.643	2600
2350.492	2611
2354.336	2607
2358.178	2621
2362.015	2621
2365.85	2615
2369.681	2649
2373.508	2622
2377.333	2635
2381.153	2625
2384.971	2619
2388.785	2599
2392.595	2556
2396.402	2549
2400.206	2525
2404.007	2484
2407.804	2472
2411.597	2479
2415.388	2440
2419.174	2439
2422.958	2425
2426.738	2397
2430.515	2378
2434.289	2360
2438.059	2361
2441.825	2347
2445.589	2309
2449.349	2277
2453.106	2267
2456.859	2231
2460.61	2213
2464.356	2159
2468.1	2139
2471.84	2116
2475.577	2090
2479.311	2092
2483.041	2080
2486.768	2072
2490.492	2073
2494.213	2053
2497.93	2033
2501.644	2059
2505.355	2024
2509.062	2025
2512.766	2018
2516.467	1993
2520.165	2003
2523.859	1977
2527.551	1970
2531.239	1942
2534.923	1922
2538.605	1938
2542.283	1927
2545.958	1914
2549.63	1915
2553.299	1898
2556.964	1904
2560.626	1898
2564.285	1890
2567.941	1870
2571.594	1870
2575.243	1890
2578.89	1845
2582.533	1835
2586.173	1823
2589.809	1802
2593.443	1776
2597.073	1767
2600.701	1778
2604.325	1753
2607.946	1735
2611.564	1730
2615.178	1698
2618.79	1696
2622.398	1680
2626.004	1664
2629.606	1641
2633.205	1601
2636.801	1594
2640.394	1588
2643.983	1557
2647.57	1543
2651.153	1495
2654.734	1463
2658.311	1460
2661.885	1431
2665.456	1431
2669.025	1399
2672.589	1374
2676.151	1380
2679.71	1362
2683.266	1336
2686.819	1300
2690.368	1288
2693.915	1248
2697.458	1224
2700.999	1212
2704.536	1183
2708.071	1147
2711.602	1122
2715.13	1111
2718.656	1058
2722.178	1045
2725.697	1037
2729.214	1034
2732.727	1017
2736.237	1024
2739.744	1018
2743.249	1040
2746.75	1042
2750.248	1038
2753.743	1049
2757.236	1084
2760.725	1077
2764.211	1092
2767.695	1086
2771.175	1083
2774.652	1075
2778.127	1060
2781.598	1058
2785.067	1053
2788.532	1049
2791.995	1054
2795.455	1056
2798.911	1051
2802.365	1048
2805.816	1060
2809.264	1053
2812.709	1045
2816.151	1063
2819.59	1062
2823.026	1047
2826.46	1046
2829.89	1075
2833.318	1050
2836.742	1062
2840.164	1082
2843.583	1097
2846.999	1107
2850.412	1124
2853.822	1124
2857.229	1115
2860.634	1141
2864.035	1166
2867.434	1184
2870.83	1226
2874.223	1224
2877.613	1255
2881	1264
2884.385	1260
2887.766	1265
2891.145	1284
2894.521	1253
2897.894	1273
2901.264	1259
2904.631	1254
2907.996	1257
2911.358	1277
2914.717	1288
2918.073	1293
2921.426	1308
2924.777	1312
2928.124	1356
2931.469	1382
2934.811	1395
2938.15	1428
2941.487	1425
2944.821	1429
2948.152	1409
2951.48	1411
2954.805	1400
2958.128	1394
2961.447	1374
2964.765	1387
2968.079	1383
2971.39	1394
2974.699	1426
2978.005	1437
2981.308	1474
2984.609	1489
2987.907	1514
2991.202	1526
2994.494	1585
2997.784	1607
3001.07	1642
3004.355	1641
3007.636	1662
3010.915	1702
3014.191	1724
3017.464	1725
3020.734	1753
3024.002	1742
3027.267	1759
3030.53	1756
3033.789	1803
3037.046	1807
3040.301	1840
3043.552	1857
3046.801	1919
3050.048	1966
3053.291	2007
3056.532	2077
3059.771	2146
3063.006	2183
3066.239	2250
3069.469	2326
3072.697	2329
3075.922	2413
3079.144	2494
3082.364	2542
3085.581	2618
3088.795	2644
3092.007	2723
3095.216	2761
3098.423	2829
3101.627	2899
3104.828	2952
3108.026	3028
3111.222	3088
3114.416	3171
3117.607	3261
3120.795	3306
3123.98	3383
3127.163	3461
3130.344	3559
3133.521	3620
3136.696	3702
3139.869	3770
3143.039	3848
3146.206	3888
3149.371	3938
3152.533	3980
3155.693	4012
3158.85	4032
3162.005	4060
3165.157	4069
3168.306	4086
3171.453	4077
3174.597	4072
3177.739	4116
3180.878	4083
3184.014	4083
3187.149	4111
3190.28	4133
3193.409	4125
3196.536	4116
3199.659	4127
3202.781	4125
3205.9	4139
3209.016	4089
3212.13	4085
3215.241	4051
3218.35	4030
3221.456	4012
3224.56	3957
3227.661	3903
3230.76	3866
3233.856	3836
3236.95	3801
3240.041	3770
3243.13	3731
3246.216	3715
3249.3	3697
3252.382	3658
3255.46	3661
3258.537	3647
3261.611	3665
3264.682	3671
3267.751	3643
3270.818	3642
3273.882	3628
3276.943	3603
3280.002	3582
3283.059	3545
3286.113	3493
3289.165	3451
3292.214	3417
3295.261	3343
3298.306	3292
3301.348	3237
3304.387	3199
3307.425	3135
3310.459	3099
3313.492	3033
3316.521	3011
3319.549	2946
3322.574	2932
3325.597	2910
3328.617	2893
3331.635	2876
3334.65	2845
3337.663	2847
3340.674	2806
3343.682	2802
3346.688	2792
3349.691	2802
3352.692	2770
3355.691	2741
3358.687	2724
3361.681	2683
3364.673	2652
3367.662	2605
3370.649	2569
3373.633	2559
3376.615	2516
3379.595	2447
3382.572	2446
3385.547	2415
3388.52	2375
3391.49	2333
3394.458	2295
3397.424	2272
3400.387	2222
3403.348	2211
3406.307	2158
3409.263	2155
3412.217	2131
3415.168	2115
3418.118	2093
3421.065	2039
3424.009	2029
3426.951	1981
3429.891	1954
3432.829	1918
3435.764	1852
3438.697	1830
3441.628	1766
3444.557	1721
3447.483	1670
3450.407	1610
3453.328	1573
3456.247	1503
3459.164	1450
3462.079	1393
3464.991	1355
3467.902	1305
3470.809	1251
3473.715	1200
3476.618	1172
3479.519	1117
3482.418	1094
3485.315	1039
3488.209	1010
3491.101	976
3493.99	958
3496.878	889
3499.763	867
3502.646	839
3505.527	798
3508.405	750
3511.281	709
3514.155	662
3517.027	633
3519.897	590
3522.764	531
3525.629	502
3528.492	463
3531.352	437
3534.211	389
3537.067	347
3539.921	320
3542.773	281
3545.622	232
3548.469	214
3551.315	192
3554.157	179
3556.998	137
3559.837	117
3562.673	82
3565.507	59
3568.339	31
3571.169	19
3573.996	-2
3576.822	-16
3579.645	-40
3582.466	-57
3585.285	-86
3588.101	-108
3590.916	-134
3593.728	-140
3596.538	-162
3599.346	-180
3602.152	-198
3604.956	-217
3607.757	-231
3610.556	-248
3613.354	-257
3616.149	-276
3618.942	-287
3621.732	-305
3624.521	-307
3627.307	-322
3630.092	-329
3632.874	-334
3635.654	-353
3638.432	-353
3641.208	-362
3643.982	-379
3646.753	-387
3649.523	-395
3652.29	-406
3655.055	-414
3657.818	-413
3660.579	-436
3663.338	-451
3666.095	-454
3668.849	-460
3671.602	-473
3674.352	-481
3677.101	-481
3679.847	-492
3682.591	-504
3685.333	-503
3688.073	-507
3690.811	-516
3693.547	-519
3696.281	-527
3699.013	-535
3701.742	-538
3704.47	-538
3707.195	-548
3709.919	-549
3712.64	-560
3715.359	-557
3718.076	-562
3720.792	-564
3723.505	-569
3726.216	-578
3728.925	-567
3731.632	-579
3734.336	-573
3737.039	-582
3739.74	-578
3742.439	-578
3745.136	-588
3747.83	-594
3750.523	-596
3753.213	-587
3755.902	-597
3758.589	-595
3761.273	-600
3763.956	-605
3766.636	-605
3769.315	-607
3771.991	-604
3774.665	-607
3777.338	-611
3780.008	-619
3782.677	-615
3785.343	-611
3788.007	-617
3790.67	-616
3793.33	-621
3795.989	-621
3798.645	-613
3801.299	-622
3803.952	-625
3806.602	-627
3809.251	-630
3811.897	-625
3814.542	-628
3817.184	-622
3819.825	-624
3822.463	-625
3825.1	-635
3827.735	-630
3830.367	-630
3832.998	-636
3835.627	-639
3838.253	-639
3840.878	-646
3843.501	-637
3846.122	-629
3848.741	-636
3851.358	-637
3853.973	-635
3856.586	-643
3859.197	-638
3861.806	-641
3864.414	-641
3867.019	-636
3869.622	-642
3872.224	-635
3874.823	-625
3877.421	-609
3880.016	-599
3882.61	-578
3885.202	-577
3887.792	-585
3890.38	-613
3892.966	-629
3895.55	-638
3898.132	-654
3900.713	-653
3903.291	-654
3905.868	-652
3908.442	-650
3911.015	-649
3913.586	-650
3916.155	-649
3918.722	-658
3921.287	-650
3923.85	-659
3926.411	-656
3928.971	-664
3931.528	-659
3934.084	-654
3936.638	-658
3939.19	-657
3941.74	-659
3944.288	-657
3946.834	-648
3949.378	-656
3951.921	-650
3954.462	-662
3957	-654
3959.537	-659
3962.072	-656
3964.606	-654
3967.137	-658
3969.667	-658
3972.194	-650
3974.72	-654
3977.244	-646
3979.766	-646
3982.286	-641
3984.805	-645
3987.321	-644
3989.836	-651
3992.349	-641
3994.86	-640
3997.369	-647
3999.877	-641
4002.382	-642
4004.886	-645
4007.388	-644
4009.888	-638
4012.386	-645
4014.883	-639
4017.377	-643
4019.87	-639
4022.361	-642
4024.85	-651
4027.338	-652
4029.823	-647
4032.307	-649
4034.789	-647
4037.269	-644
4039.747	-642
4042.224	-642
4044.699	-647
4047.172	-642
4049.643	-640
4052.112	-659
4054.58	-652
4057.046	-644
4059.51	-651
4061.972	-651
4064.432	-658
4066.891	-650
4069.348	-643
4071.803	-643
4074.256	-643
4076.708	-644
4079.158	-644
4081.606	-645
4084.052	-655
4086.497	-648
4088.939	-643
4091.38	-647
4093.819	-647
4096.257	-679
4098.693	-680
4101.127	-682
4103.559	-680
4105.989	-399
4108.418	-371
4110.845	-349
4113.27	-331
4115.694	-293
4118.115	-243
4120.535	-648
4122.954	-644
4125.37	-641
4127.785	-645
4130.198	-648
4132.609	-645
4135.019	-680
4137.427	-684
4139.833	-679
4142.237	-676
