Data from 2018-2-14_conc=4_n=9_RamanShift_03.txt Node
Date: Wed Feb 14 13:57:25 IST 2018
User: aro
Spectrometer: QEPB0276
Trigger mode: 0
Integration Time (sec): 3.000000E1
Scans to average: 1
Electric dark correction enabled: true
Nonlinearity correction enabled: false
Boxcar width: 0
XAxis mode: Raman Shifts
Number of Pixels in Spectrum: 1044
>>>>>Begin Spectral Data<<<<<
160.701	-144.6
166.742	38.4
172.777	567.4
178.805	2189.4
184.826	6027.4
190.841	12554.4
196.849	20224.4
202.85	25580.4
208.845	27403.4
214.833	27216.4
220.815	26742.4
226.789	26561.4
232.758	26402.4
238.719	26173.4
244.674	25901.4
250.623	25487.4
256.565	24982.4
262.5	24553.4
268.429	24105.4
274.351	23701.4
280.267	23415.4
286.176	23217.4
292.079	22978.4
297.975	22744.4
303.865	22593.4
309.748	22410.4
315.625	22302.4
321.495	22133.4
327.359	22148.4
333.217	22058.4
339.068	21997.4
344.912	22075.4
350.751	22065.4
356.583	21988.4
362.408	21968.4
368.227	22022.4
374.04	21964.4
379.847	22039.4
385.647	22131.4
391.44	22195.4
397.228	22287.4
403.009	22392.4
408.784	22517.4
414.553	22520.4
420.315	22500.4
426.071	22590.4
431.821	22615.4
437.565	22578.4
443.302	22504.4
449.033	22509.4
454.758	22424.4
460.477	22346.4
466.189	22292.4
471.896	22286.4
477.596	22193.4
483.29	22182.4
488.978	22159.4
494.66	22011.4
500.335	21909.4
506.005	21674.4
511.668	21428.4
517.325	21108.4
522.977	20914.4
528.622	20843.4
534.261	20640.4
539.894	20500.4
545.521	20430.4
551.141	20342.4
556.756	20282.4
562.365	20213.4
567.968	20127.4
573.565	20044.4
579.155	19950.4
584.74	19904.4
590.319	19833.4
595.892	19737.4
601.459	19700.4
607.02	19597.4
612.575	19508.4
618.124	19312.4
623.667	19212.4
629.204	19090.4
634.735	19039.4
640.261	18939.4
645.781	18920.4
651.294	18866.4
656.802	18846.4
662.304	18832.4
667.8	18745.4
673.29	18744.4
678.775	18671.4
684.254	18634.4
689.726	18602.4
695.193	18507.4
700.655	18419.4
706.11	18298.4
711.56	18202.4
717.004	18153.4
722.442	18067.4
727.874	17995.4
733.301	17953.4
738.722	17907.4
744.137	17813.4
749.547	17786.4
754.951	17836.4
760.349	17804.4
765.741	17837.4
771.128	17833.4
776.509	17864.4
781.885	17885.4
787.254	17794.4
792.618	17765.4
797.977	17667.4
803.33	17518.4
808.677	17382.4
814.019	17294.4
819.355	17203.4
824.686	17162.4
830.011	17050.4
835.33	17105.4
840.644	17088.4
845.952	17189.4
851.255	17190.4
856.552	17192.4
861.844	17157.4
867.13	17107.4
872.41	17060.4
877.686	16939.4
882.955	16854.4
888.219	16654.4
893.478	16460.4
898.731	16294.4
903.979	16109.4
909.221	16016.4
914.458	15983.4
919.69	15942.4
924.916	16004.4
930.136	16055.4
935.351	16027.4
940.561	16106.4
945.766	15993.4
950.965	15953.4
956.158	15776.4
961.347	15662.4
966.529	15434.4
971.707	15223.4
976.879	15075.4
982.046	14942.4
987.208	14902.4
992.364	14900.4
997.515	14966.4
1002.66	15109.4
1007.801	15277.4
1012.936	15417.4
1018.066	15481.4
1023.19	15410.4
1028.309	15408.4
1033.423	15321.4
1038.532	15301.4
1043.636	15104.4
1048.734	14943.4
1053.827	14775.4
1058.915	14668.4
1063.998	14540.4
1069.075	14458.4
1074.147	14515.4
1079.214	14581.4
1084.276	14638.4
1089.333	14688.4
1094.385	14763.4
1099.431	14802.4
1104.472	14821.4
1109.509	14721.4
1114.54	14542.4
1119.565	14313.4
1124.586	14206.4
1129.602	14026.4
1134.613	13917.4
1139.618	13860.4
1144.619	13830.4
1149.614	13798.4
1154.604	13846.4
1159.589	13864.4
1164.57	13915.4
1169.545	13931.4
1174.515	13947.4
1179.48	13831.4
1184.44	13724.4
1189.395	13624.4
1194.345	13568.4
1199.29	13498.4
1204.23	13508.4
1209.165	13506.4
1214.095	13529.4
1219.021	13610.4
1223.941	13787.4
1228.856	13830.4
1233.766	13803.4
1238.672	13873.4
1243.572	13834.4
1248.467	13751.4
1253.358	13584.4
1258.244	13356.4
1263.124	13212.4
1268	12985.4
1272.871	12853.4
1277.737	12758.4
1282.599	12701.4
1287.455	12633.4
1292.306	12685.4
1297.153	12700.4
1301.995	12782.4
1306.832	12827.4
1311.664	12825.4
1316.491	12807.4
1321.314	12692.4
1326.132	12541.4
1330.945	12240.4
1335.753	11952.4
1340.556	11693.4
1345.354	11439.4
1350.148	11243.4
1354.937	11118.4
1359.722	11097.4
1364.501	11076.4
1369.276	11160.4
1374.046	11336.4
1378.811	11405.4
1383.572	11600.4
1388.327	11681.4
1393.079	11606.4
1397.825	11462.4
1402.567	11352.4
1407.304	11220.4
1412.036	11134.4
1416.764	10990.4
1421.487	10954.4
1426.205	10857.4
1430.919	10887.4
1435.628	10848.4
1440.333	10905.4
1445.032	10936.4
1449.727	10923.4
1454.418	10888.4
1459.104	10780.4
1463.785	10566.4
1468.462	10363.4
1473.134	10194.4
1477.802	9941.4
1482.465	9788.4
1487.123	9622.4
1491.777	9577.4
1496.426	9586.4
1501.071	9674.4
1505.711	9793.4
1510.347	9927.4
1514.978	10097.4
1519.604	10323.4
1524.226	10367.4
1528.844	10394.4
1533.457	10353.4
1538.065	10335.4
1542.669	10308.4
1547.269	10221.4
1551.864	10170.4
1556.454	10170.4
1561.041	10144.4
1565.622	10134.4
1570.199	10137.4
1574.772	10195.4
1579.34	10332.4
1583.904	10350.4
1588.464	10339.4
1593.019	10385.4
1597.569	10371.4
1602.115	10293.4
1606.657	10212.4
1611.195	10162.4
1615.728	10064.4
1620.256	10016.4
1624.78	10073.4
1629.3	10026.4
1633.816	10050.4
1638.327	10073.4
1642.834	10119.4
1647.336	10201.4
1651.834	10178.4
1656.328	10134.4
1660.817	10109.4
1665.302	9993.4
1669.783	9798.4
1674.259	9577.4
1678.732	9316.4
1683.199	8986.4
1687.663	8686.4
1692.122	8461.4
1696.577	8269.4
1701.028	8178.4
1705.474	8203.4
1709.917	8277.4
1714.355	8311.4
1718.788	8262.4
1723.218	8154.4
1727.643	8021.4
1732.064	7907.4
1736.481	7706.4
1740.893	7577.4
1745.301	7354.4
1749.705	7187.4
1754.105	6959.4
1758.501	6768.4
1762.893	6601.4
1767.28	6434.4
1771.663	6287.4
1776.042	6181.4
1780.417	6087.4
1784.787	6115.4
1789.154	6106.4
1793.516	6189.4
1797.874	6269.4
1802.228	6386.4
1806.578	6439.4
1810.924	6460.4
1815.266	6402.4
1819.603	6369.4
1823.937	6282.4
1828.266	6155.4
1832.591	6088.4
1836.913	6001.4
1841.23	5950.4
1845.543	5906.4
1849.852	5906.4
1854.156	5864.4
1858.457	5849.4
1862.754	5829.4
1867.047	5813.4
1871.335	5821.4
1875.62	5809.4
1879.9	5768.4
1884.177	5743.4
1888.449	5678.4
1892.718	5631.4
1896.982	5557.4
1901.243	5511.4
1905.499	5457.4
1909.752	5421.4
1914	5419.4
1918.245	5418.4
1922.485	5453.4
1926.722	5488.4
1930.954	5541.4
1935.183	5590.4
1939.408	5632.4
1943.628	5668.4
1947.845	5705.4
1952.058	5710.4
1956.267	5675.4
1960.472	5590.4
1964.673	5500.4
1968.87	5451.4
1973.063	5342.4
1977.252	5280.4
1981.438	5221.4
1985.619	5176.4
1989.797	5151.4
1993.971	5084.4
1998.14	5081.4
2002.306	5113.4
2006.469	5087.4
2010.627	5005.4
2014.781	5001.4
2018.932	4966.4
2023.078	4925.4
2027.221	4852.4
2031.36	4770.4
2035.495	4682.4
2039.627	4630.4
2043.754	4573.4
2047.878	4529.4
2051.998	4484.4
2056.114	4479.4
2060.226	4471.4
2064.334	4480.4
2068.439	4461.4
2072.54	4481.4
2076.637	4502.4
2080.73	4523.4
2084.82	4528.4
2088.906	4555.4
2092.988	4578.4
2097.066	4561.4
2101.14	4507.4
2105.211	4492.4
2109.278	4461.4
2113.342	4425.4
2117.401	4438.4
2121.457	4377.4
2125.509	4372.4
2129.558	4365.4
2133.602	4313.4
2137.643	4309.4
2141.681	4248.4
2145.714	4281.4
2149.744	4219.4
2153.77	4220.4
2157.793	4186.4
2161.812	4111.4
2165.827	4038.4
2169.838	3993.4
2173.846	3938.4
2177.851	3863.4
2181.851	3806.4
2185.848	3789.4
2189.841	3747.4
2193.831	3717.4
2197.817	3649.4
2201.799	3621.4
2205.778	3609.4
2209.753	3626.4
2213.725	3624.4
2217.693	3603.4
2221.657	3572.4
2225.618	3616.4
2229.575	3547.4
2233.529	3512.4
2237.479	3481.4
2241.425	3476.4
2245.368	3397.4
2249.307	3358.4
2253.243	3317.4
2257.175	3257.4
2261.104	3179.4
2265.029	3184.4
2268.95	3143.4
2272.868	3117.4
2276.783	3082.4
2280.694	3051.4
2284.601	3018.4
2288.505	2995.4
2292.405	2979.4
2296.302	2922.4
2300.195	2915.4
2304.085	2866.4
2307.971	2813.4
2311.854	2790.4
2315.734	2760.4
2319.609	2721.4
2323.482	2699.4
2327.351	2639.4
2331.216	2617.4
2335.078	2641.4
2338.937	2594.4
2342.792	2616.4
2346.643	2594.4
2350.492	2586.4
2354.336	2592.4
2358.178	2593.4
2362.015	2598.4
2365.85	2620.4
2369.681	2601.4
2373.508	2619.4
2377.333	2589.4
2381.153	2612.4
2384.971	2588.4
2388.785	2562.4
2392.595	2542.4
2396.402	2547.4
2400.206	2517.4
2404.007	2485.4
2407.804	2485.4
2411.597	2464.4
2415.388	2452.4
2419.174	2452.4
2422.958	2418.4
2426.738	2385.4
2430.515	2383.4
2434.289	2348.4
2438.059	2331.4
2441.825	2311.4
2445.589	2284.4
2449.349	2281.4
2453.106	2254.4
2456.859	2213.4
2460.61	2189.4
2464.356	2166.4
2468.1	2130.4
2471.84	2117.4
2475.577	2080.4
2479.311	2073.4
2483.041	2043.4
2486.768	2053.4
2490.492	2027.4
2494.213	2058.4
2497.93	2021.4
2501.644	2016.4
2505.355	1992.4
2509.062	1995.4
2512.766	1974.4
2516.467	1970.4
2520.165	1941.4
2523.859	1915.4
2527.551	1892.4
2531.239	1901.4
2534.923	1878.4
2538.605	1878.4
2542.283	1869.4
2545.958	1858.4
2549.63	1879.4
2553.299	1856.4
2556.964	1876.4
2560.626	1826.4
2564.285	1830.4
2567.941	1816.4
2571.594	1798.4
2575.243	1811.4
2578.89	1794.4
2582.533	1775.4
2586.173	1763.4
2589.809	1753.4
2593.443	1757.4
2597.073	1719.4
2600.701	1703.4
2604.325	1690.4
2607.946	1686.4
2611.564	1651.4
2615.178	1653.4
2618.79	1674.4
2622.398	1641.4
2626.004	1631.4
2629.606	1607.4
2633.205	1588.4
2636.801	1569.4
2640.394	1545.4
2643.983	1514.4
2647.57	1502.4
2651.153	1468.4
2654.734	1450.4
2658.311	1438.4
2661.885	1397.4
2665.456	1396.4
2669.025	1380.4
2672.589	1352.4
2676.151	1334.4
2679.71	1322.4
2683.266	1296.4
2686.819	1290.4
2690.368	1253.4
2693.915	1230.4
2697.458	1217.4
2700.999	1181.4
2704.536	1155.4
2708.071	1135.4
2711.602	1105.4
2715.13	1074.4
2718.656	1049.4
2722.178	1026.4
2725.697	1003.4
2729.214	1000.4
2732.727	1002.4
2736.237	982.4
2739.744	977.4
2743.249	962.4
2746.75	967.4
2750.248	990.4
2753.743	987.4
2757.236	996.4
2760.725	993.4
2764.211	1006.4
2767.695	1004.4
2771.175	993.4
2774.652	987.4
2778.127	997.4
2781.598	1015.4
2785.067	976.4
2788.532	975.4
2791.995	1003.4
2795.455	994.4
2798.911	989.4
2802.365	991.4
2805.816	992.4
2809.264	997.4
2812.709	995.4
2816.151	970.4
2819.59	983.4
2823.026	992.4
2826.46	992.4
2829.89	997.4
2833.318	1000.4
2836.742	993.4
2840.164	1022.4
2843.583	1014.4
2846.999	1018.4
2850.412	1038.4
2853.822	1049.4
2857.229	1067.4
2860.634	1089.4
2864.035	1100.4
2867.434	1111.4
2870.83	1136.4
2874.223	1155.4
2877.613	1176.4
2881	1181.4
2884.385	1195.4
2887.766	1187.4
2891.145	1204.4
2894.521	1199.4
2897.894	1206.4
2901.264	1196.4
2904.631	1210.4
2907.996	1181.4
2911.358	1225.4
2914.717	1223.4
2918.073	1216.4
2921.426	1238.4
2924.777	1256.4
2928.124	1275.4
2931.469	1295.4
2934.811	1314.4
2938.15	1322.4
2941.487	1349.4
2944.821	1373.4
2948.152	1346.4
2951.48	1339.4
2954.805	1306.4
2958.128	1329.4
2961.447	1313.4
2964.765	1308.4
2968.079	1311.4
2971.39	1307.4
2974.699	1334.4
2978.005	1343.4
2981.308	1363.4
2984.609	1393.4
2987.907	1394.4
2991.202	1439.4
2994.494	1463.4
2997.784	1487.4
3001.07	1534.4
3004.355	1543.4
3007.636	1565.4
3010.915	1562.4
3014.191	1604.4
3017.464	1630.4
3020.734	1628.4
3024.002	1655.4
3027.267	1651.4
3030.53	1665.4
3033.789	1686.4
3037.046	1700.4
3040.301	1750.4
3043.552	1772.4
3046.801	1797.4
3050.048	1853.4
3053.291	1898.4
3056.532	1949.4
3059.771	1993.4
3063.006	2047.4
3066.239	2121.4
3069.469	2172.4
3072.697	2213.4
3075.922	2282.4
3079.144	2345.4
3082.364	2395.4
3085.581	2437.4
3088.795	2505.4
3092.007	2564.4
3095.216	2602.4
3098.423	2645.4
3101.627	2732.4
3104.828	2807.4
3108.026	2847.4
3111.222	2915.4
3114.416	2978.4
3117.607	3041.4
3120.795	3104.4
3123.98	3199.4
3127.163	3279.4
3130.344	3371.4
3133.521	3418.4
3136.696	3511.4
3139.869	3556.4
3143.039	3636.4
3146.206	3664.4
3149.371	3736.4
3152.533	3764.4
3155.693	3800.4
3158.85	3806.4
3162.005	3840.4
3165.157	3843.4
3168.306	3856.4
3171.453	3866.4
3174.597	3858.4
3177.739	3892.4
3180.878	3867.4
3184.014	3883.4
3187.149	3873.4
3190.28	3897.4
3193.409	3898.4
3196.536	3910.4
3199.659	3917.4
3202.781	3913.4
3205.9	3923.4
3209.016	3909.4
3212.13	3865.4
3215.241	3883.4
3218.35	3820.4
3221.456	3792.4
3224.56	3769.4
3227.661	3716.4
3230.76	3669.4
3233.856	3638.4
3236.95	3617.4
3240.041	3568.4
3243.13	3538.4
3246.216	3519.4
3249.3	3524.4
3252.382	3510.4
3255.46	3459.4
3258.537	3445.4
3261.611	3455.4
3264.682	3459.4
3267.751	3459.4
3270.818	3450.4
3273.882	3442.4
3276.943	3409.4
3280.002	3400.4
3283.059	3350.4
3286.113	3328.4
3289.165	3299.4
3292.214	3227.4
3295.261	3182.4
3298.306	3134.4
3301.348	3083.4
3304.387	3040.4
3307.425	2998.4
3310.459	2939.4
3313.492	2863.4
3316.521	2850.4
3319.549	2841.4
3322.574	2806.4
3325.597	2764.4
3328.617	2751.4
3331.635	2715.4
3334.65	2729.4
3337.663	2708.4
3340.674	2680.4
3343.682	2660.4
3346.688	2683.4
3349.691	2667.4
3352.692	2644.4
3355.691	2628.4
3358.687	2623.4
3361.681	2590.4
3364.673	2518.4
3367.662	2529.4
3370.649	2474.4
3373.633	2425.4
3376.615	2387.4
3379.595	2357.4
3382.572	2347.4
3385.547	2315.4
3388.52	2252.4
3391.49	2230.4
3394.458	2208.4
3397.424	2175.4
3400.387	2119.4
3403.348	2085.4
3406.307	2076.4
3409.263	2065.4
3412.217	2032.4
3415.168	2008.4
3418.118	1989.4
3421.065	1955.4
3424.009	1934.4
3426.951	1915.4
3429.891	1874.4
3432.829	1834.4
3435.764	1770.4
3438.697	1741.4
3441.628	1682.4
3444.557	1629.4
3447.483	1582.4
3450.407	1540.4
3453.328	1484.4
3456.247	1443.4
3459.164	1386.4
3462.079	1355.4
3464.991	1285.4
3467.902	1260.4
3470.809	1190.4
3473.715	1162.4
3476.618	1111.4
3479.519	1080.4
3482.418	1035.4
3485.315	991.4
3488.209	961.4
3491.101	920.4
3493.99	883.4
3496.878	860.4
3499.763	816.4
3502.646	805.4
3505.527	745.4
3508.405	717.4
3511.281	665.4
3514.155	637.4
3517.027	604.4
3519.897	567.4
3522.764	509.4
3525.629	489.4
3528.492	428.4
3531.352	395.4
3534.211	368.4
3537.067	341.4
3539.921	295.4
3542.773	273.4
3545.622	224.4
3548.469	200.4
3551.315	169.4
3554.157	145.4
3556.998	121.4
3559.837	99.4
3562.673	74.4
3565.507	41.4
3568.339	14.4
3571.169	14.4
3573.996	-12.6
3576.822	-22.6
3579.645	-54.6
3582.466	-69.6
3585.285	-86.6
3588.101	-113.6
3590.916	-125.6
3593.728	-143.6
3596.538	-158.6
3599.346	-178.6
3602.152	-199.6
3604.956	-206.6
3607.757	-230.6
3610.556	-242.6
3613.354	-260.6
3616.149	-280.6
3618.942	-277.6
3621.732	-286.6
3624.521	-305.6
3627.307	-314.6
3630.092	-326.6
3632.874	-336.6
3635.654	-347.6
3638.432	-353.6
3641.208	-354.6
3643.982	-369.6
3646.753	-383.6
3649.523	-390.6
3652.29	-402.6
3655.055	-397.6
3657.818	-412.6
3660.579	-430.6
3663.338	-442.6
3666.095	-442.6
3668.849	-460.6
3671.602	-461.6
3674.352	-472.6
3677.101	-473.6
3679.847	-488.6
3682.591	-486.6
3685.333	-492.6
3688.073	-496.6
3690.811	-502.6
3693.547	-505.6
3696.281	-508.6
3699.013	-513.6
3701.742	-528.6
3704.47	-529.6
3707.195	-539.6
3709.919	-536.6
3712.64	-542.6
3715.359	-548.6
3718.076	-548.6
3720.792	-550.6
3723.505	-553.6
3726.216	-560.6
3728.925	-560.6
3731.632	-569.6
3734.336	-567.6
3737.039	-566.6
3739.74	-569.6
3742.439	-564.6
3745.136	-571.6
3747.83	-576.6
3750.523	-575.6
3753.213	-580.6
3755.902	-582.6
3758.589	-586.6
3761.273	-582.6
3763.956	-590.6
3766.636	-590.6
3769.315	-597.6
3771.991	-592.6
3774.665	-595.6
3777.338	-596.6
3780.008	-599.6
3782.677	-606.6
3785.343	-595.6
3788.007	-599.6
3790.67	-606.6
3793.33	-609.6
3795.989	-608.6
3798.645	-610.6
3801.299	-607.6
3803.952	-617.6
3806.602	-618.6
3809.251	-620.6
3811.897	-616.6
3814.542	-613.6
3817.184	-608.6
3819.825	-616.6
3822.463	-606.6
3825.1	-612.6
3827.735	-609.6
3830.367	-610.6
3832.998	-622.6
3835.627	-627.6
3838.253	-622.6
3840.878	-629.6
3843.501	-624.6
3846.122	-621.6
3848.741	-626.6
3851.358	-620.6
3853.973	-623.6
3856.586	-626.6
3859.197	-629.6
3861.806	-630.6
3864.414	-626.6
3867.019	-621.6
3869.622	-621.6
3872.224	-619.6
3874.823	-611.6
3877.421	-599.6
3880.016	-582.6
3882.61	-564.6
3885.202	-561.6
3887.792	-567.6
3890.38	-601.6
3892.966	-615.6
3895.55	-622.6
3898.132	-638.6
3900.713	-641.6
3903.291	-634.6
3905.868	-635.6
3908.442	-635.6
3911.015	-644.6
3913.586	-634.6
3916.155	-635.6
3918.722	-643.6
3921.287	-641.6
3923.85	-640.6
3926.411	-644.6
3928.971	-651.6
3931.528	-639.6
3934.084	-639.6
3936.638	-635.6
3939.19	-637.6
3941.74	-638.6
3944.288	-642.6
3946.834	-632.6
3949.378	-640.6
3951.921	-641.6
3954.462	-646.6
3957	-633.6
3959.537	-640.6
3962.072	-639.6
3964.606	-645.6
3967.137	-643.6
3969.667	-642.6
3972.194	-637.6
3974.72	-636.6
3977.244	-633.6
3979.766	-628.6
3982.286	-636.6
3984.805	-631.6
3987.321	-632.6
3989.836	-630.6
3992.349	-626.6
3994.86	-622.6
3997.369	-635.6
3999.877	-622.6
4002.382	-624.6
4004.886	-623.6
4007.388	-625.6
4009.888	-625.6
4012.386	-630.6
4014.883	-629.6
4017.377	-622.6
4019.87	-619.6
4022.361	-624.6
4024.85	-625.6
4027.338	-631.6
4029.823	-630.6
4032.307	-628.6
4034.789	-629.6
4037.269	-628.6
4039.747	-633.6
4042.224	-632.6
4044.699	-628.6
4047.172	-629.6
4049.643	-629.6
4052.112	-641.6
4054.58	-633.6
4057.046	-636.6
4059.51	-627.6
4061.972	-633.6
4064.432	-639.6
4066.891	-629.6
4069.348	-632.6
4071.803	-619.6
4074.256	-624.6
4076.708	-621.6
4079.158	-629.6
4081.606	-628.6
4084.052	-632.6
4086.497	-631.6
4088.939	-624.6
4091.38	-629.6
4093.819	-627.6
4096.257	-665.6
4098.693	-664.6
4101.127	-662.6
4103.559	-663.6
4105.989	-386.6
4108.418	-361.6
4110.845	-334.6
4113.27	-314.6
4115.694	-263.6
4118.115	-219.6
4120.535	-630.6
4122.954	-627.6
4125.37	-623.6
4127.785	-633.6
4130.198	-629.6
4132.609	-632.6
4135.019	-664.6
4137.427	-665.6
4139.833	-662.6
4142.237	-657.6
