Data from 2018-2-14_conc=5_n=8_RamanShift_05.txt Node
Date: Wed Feb 14 14:29:55 IST 2018
User: aro
Spectrometer: QEPB0276
Trigger mode: 0
Integration Time (sec): 3.000000E1
Scans to average: 1
Electric dark correction enabled: true
Nonlinearity correction enabled: false
Boxcar width: 0
XAxis mode: Raman Shifts
Number of Pixels in Spectrum: 1044
>>>>>Begin Spectral Data<<<<<
160.701	-147.9
166.742	50.1
172.777	588.1
178.805	2235.1
184.826	6164.1
190.841	12955.1
196.849	20880.1
202.85	26564.1
208.845	28570.1
214.833	28267.1
220.815	27773.1
226.789	27581.1
232.758	27458.1
238.719	27257.1
244.674	26874.1
250.623	26517.1
256.565	25919.1
262.5	25422.1
268.429	24988.1
274.351	24567.1
280.267	24261.1
286.176	24043.1
292.079	23851.1
297.975	23673.1
303.865	23403.1
309.748	23289.1
315.625	23175.1
321.495	23016.1
327.359	22918.1
333.217	22894.1
339.068	22887.1
344.912	22829.1
350.751	22845.1
356.583	22759.1
362.408	22763.1
368.227	22730.1
374.04	22826.1
379.847	22803.1
385.647	22935.1
391.44	23039.1
397.228	23125.1
403.009	23185.1
408.784	23240.1
414.553	23315.1
420.315	23402.1
426.071	23460.1
431.821	23401.1
437.565	23360.1
443.302	23336.1
449.033	23199.1
454.758	23215.1
460.477	23183.1
466.189	23123.1
471.896	23044.1
477.596	23038.1
483.29	23002.1
488.978	22908.1
494.66	22807.1
500.335	22731.1
506.005	22490.1
511.668	22185.1
517.325	21937.1
522.977	21795.1
528.622	21699.1
534.261	21496.1
539.894	21385.1
545.521	21307.1
551.141	21264.1
556.756	21181.1
562.365	21032.1
567.968	21015.1
573.565	20895.1
579.155	20789.1
584.74	20748.1
590.319	20684.1
595.892	20606.1
601.459	20584.1
607.02	20404.1
612.575	20348.1
618.124	20181.1
623.667	20088.1
629.204	19971.1
634.735	19934.1
640.261	19780.1
645.781	19801.1
651.294	19703.1
656.802	19677.1
662.304	19643.1
667.8	19632.1
673.29	19591.1
678.775	19563.1
684.254	19447.1
689.726	19429.1
695.193	19322.1
700.655	19222.1
706.11	19174.1
711.56	19045.1
717.004	18964.1
722.442	18867.1
727.874	18788.1
733.301	18710.1
738.722	18699.1
744.137	18684.1
749.547	18568.1
754.951	18618.1
760.349	18695.1
765.741	18630.1
771.128	18703.1
776.509	18635.1
781.885	18713.1
787.254	18647.1
792.618	18543.1
797.977	18407.1
803.33	18349.1
808.677	18202.1
814.019	18103.1
819.355	18031.1
824.686	17958.1
830.011	17870.1
835.33	17929.1
840.644	17942.1
845.952	17890.1
851.255	17982.1
856.552	18007.1
861.844	17944.1
867.13	17877.1
872.41	17861.1
877.686	17751.1
882.955	17627.1
888.219	17493.1
893.478	17314.1
898.731	17120.1
903.979	16978.1
909.221	16822.1
914.458	16715.1
919.69	16727.1
924.916	16761.1
930.136	16813.1
935.351	16872.1
940.561	16868.1
945.766	16827.1
950.965	16745.1
956.158	16632.1
961.347	16391.1
966.529	16235.1
971.707	16016.1
976.879	15841.1
982.046	15727.1
987.208	15696.1
992.364	15686.1
997.515	15758.1
1002.66	15862.1
1007.801	16061.1
1012.936	16215.1
1018.066	16182.1
1023.19	16160.1
1028.309	16224.1
1033.423	16173.1
1038.532	16034.1
1043.636	15893.1
1048.734	15677.1
1053.827	15508.1
1058.915	15446.1
1063.998	15270.1
1069.075	15239.1
1074.147	15229.1
1079.214	15320.1
1084.276	15432.1
1089.333	15480.1
1094.385	15571.1
1099.431	15653.1
1104.472	15590.1
1109.509	15484.1
1114.54	15355.1
1119.565	15134.1
1124.586	14939.1
1129.602	14794.1
1134.613	14743.1
1139.618	14596.1
1144.619	14573.1
1149.614	14574.1
1154.604	14598.1
1159.589	14601.1
1164.57	14670.1
1169.545	14674.1
1174.515	14676.1
1179.48	14609.1
1184.44	14498.1
1189.395	14409.1
1194.345	14279.1
1199.29	14258.1
1204.23	14161.1
1209.165	14244.1
1214.095	14285.1
1219.021	14430.1
1223.941	14460.1
1228.856	14591.1
1233.766	14576.1
1238.672	14612.1
1243.572	14626.1
1248.467	14506.1
1253.358	14314.1
1258.244	14170.1
1263.124	13912.1
1268	13717.1
1272.871	13614.1
1277.737	13446.1
1282.599	13391.1
1287.455	13395.1
1292.306	13402.1
1297.153	13466.1
1301.995	13468.1
1306.832	13611.1
1311.664	13562.1
1316.491	13511.1
1321.314	13401.1
1326.132	13204.1
1330.945	12984.1
1335.753	12598.1
1340.556	12251.1
1345.354	12059.1
1350.148	11902.1
1354.937	11805.1
1359.722	11798.1
1364.501	11835.1
1369.276	11990.1
1374.046	12187.1
1378.811	12290.1
1383.572	12509.1
1388.327	12501.1
1393.079	12499.1
1397.825	12290.1
1402.567	12083.1
1407.304	11918.1
1412.036	11834.1
1416.764	11727.1
1421.487	11631.1
1426.205	11573.1
1430.919	11601.1
1435.628	11563.1
1440.333	11609.1
1445.032	11554.1
1449.727	11610.1
1454.418	11602.1
1459.104	11489.1
1463.785	11272.1
1468.462	11044.1
1473.134	10836.1
1477.802	10634.1
1482.465	10447.1
1487.123	10273.1
1491.777	10340.1
1496.426	10356.1
1501.071	10512.1
1505.711	10652.1
1510.347	10870.1
1514.978	11027.1
1519.604	11183.1
1524.226	11234.1
1528.844	11315.1
1533.457	11278.1
1538.065	11261.1
1542.669	11121.1
1547.269	11066.1
1551.864	11001.1
1556.454	10941.1
1561.041	10929.1
1565.622	10891.1
1570.199	10959.1
1574.772	10957.1
1579.34	11020.1
1583.904	11088.1
1588.464	11177.1
1593.019	11138.1
1597.569	11061.1
1602.115	11018.1
1606.657	10885.1
1611.195	10935.1
1615.728	10784.1
1620.256	10714.1
1624.78	10703.1
1629.3	10711.1
1633.816	10712.1
1638.327	10830.1
1642.834	10882.1
1647.336	10902.1
1651.834	10946.1
1656.328	10891.1
1660.817	10904.1
1665.302	10793.1
1669.783	10600.1
1674.259	10399.1
1678.732	10043.1
1683.199	9769.1
1687.663	9405.1
1692.122	9174.1
1696.577	9039.1
1701.028	9059.1
1705.474	9114.1
1709.917	9170.1
1714.355	9225.1
1718.788	9146.1
1723.218	9009.1
1727.643	8848.1
1732.064	8651.1
1736.481	8508.1
1740.893	8271.1
1745.301	8075.1
1749.705	7877.1
1754.105	7658.1
1758.501	7452.1
1762.893	7260.1
1767.28	7073.1
1771.663	6902.1
1776.042	6799.1
1780.417	6737.1
1784.787	6732.1
1789.154	6854.1
1793.516	6979.1
1797.874	7112.1
1802.228	7244.1
1806.578	7316.1
1810.924	7279.1
1815.266	7187.1
1819.603	7117.1
1823.937	6998.1
1828.266	6887.1
1832.591	6783.1
1836.913	6708.1
1841.23	6684.1
1845.543	6569.1
1849.852	6561.1
1854.156	6526.1
1858.457	6492.1
1862.754	6506.1
1867.047	6512.1
1871.335	6472.1
1875.62	6488.1
1879.9	6438.1
1884.177	6409.1
1888.449	6350.1
1892.718	6266.1
1896.982	6243.1
1901.243	6166.1
1905.499	6136.1
1909.752	6110.1
1914	6114.1
1918.245	6123.1
1922.485	6212.1
1926.722	6247.1
1930.954	6338.1
1935.183	6395.1
1939.408	6475.1
1943.628	6501.1
1947.845	6524.1
1952.058	6509.1
1956.267	6451.1
1960.472	6378.1
1964.673	6260.1
1968.87	6151.1
1973.063	6047.1
1977.252	5982.1
1981.438	5896.1
1985.619	5854.1
1989.797	5801.1
1993.971	5752.1
1998.14	5740.1
2002.306	5723.1
2006.469	6150.1
2010.627	5937.1
2014.781	5802.1
2018.932	5580.1
2023.078	5519.1
2027.221	5426.1
2031.36	5340.1
2035.495	5295.1
2039.627	5201.1
2043.754	5141.1
2047.878	5095.1
2051.998	5071.1
2056.114	5046.1
2060.226	5057.1
2064.334	5071.1
2068.439	5069.1
2072.54	5117.1
2076.637	5139.1
2080.73	5182.1
2084.82	5206.1
2088.906	5224.1
2092.988	5202.1
2097.066	5193.1
2101.14	5188.1
2105.211	5132.1
2109.278	5125.1
2113.342	5082.1
2117.401	5059.1
2121.457	4992.1
2125.509	4990.1
2129.558	4928.1
2133.602	4937.1
2137.643	4915.1
2141.681	4892.1
2145.714	4830.1
2149.744	4827.1
2153.77	4791.1
2157.793	4720.1
2161.812	4676.1
2165.827	4631.1
2169.838	4554.1
2173.846	4492.1
2177.851	4370.1
2181.851	4342.1
2185.848	4279.1
2189.841	4222.1
2193.831	4180.1
2197.817	4167.1
2201.799	4122.1
2205.778	4098.1
2209.753	4118.1
2213.725	4115.1
2217.693	4082.1
2221.657	4075.1
2225.618	4064.1
2229.575	4036.1
2233.529	4000.1
2237.479	3985.1
2241.425	3929.1
2245.368	3853.1
2249.307	3814.1
2253.243	3740.1
2257.175	3698.1
2261.104	3646.1
2265.029	3629.1
2268.95	3590.1
2272.868	3556.1
2276.783	3506.1
2280.694	3458.1
2284.601	3440.1
2288.505	3389.1
2292.405	3371.1
2296.302	3319.1
2300.195	3287.1
2304.085	3274.1
2307.971	3202.1
2311.854	3185.1
2315.734	3116.1
2319.609	3085.1
2323.482	3015.1
2327.351	3004.1
2331.216	2966.1
2335.078	2959.1
2338.937	2953.1
2342.792	2922.1
2346.643	2907.1
2350.492	2899.1
2354.336	2922.1
2358.178	2924.1
2362.015	2915.1
2365.85	2924.1
2369.681	2930.1
2373.508	2931.1
2377.333	2938.1
2381.153	2906.1
2384.971	2891.1
2388.785	2858.1
2392.595	2867.1
2396.402	2813.1
2400.206	2820.1
2404.007	2805.1
2407.804	2785.1
2411.597	2754.1
2415.388	2746.1
2419.174	2715.1
2422.958	2695.1
2426.738	2682.1
2430.515	2636.1
2434.289	2628.1
2438.059	2610.1
2441.825	2603.1
2445.589	2547.1
2449.349	2521.1
2453.106	2499.1
2456.859	2480.1
2460.61	2454.1
2464.356	2396.1
2468.1	2400.1
2471.84	2360.1
2475.577	2342.1
2479.311	2339.1
2483.041	2316.1
2486.768	2327.1
2490.492	2279.1
2494.213	2295.1
2497.93	2289.1
2501.644	2275.1
2505.355	2285.1
2509.062	2256.1
2512.766	2233.1
2516.467	2247.1
2520.165	2244.1
2523.859	2222.1
2527.551	2184.1
2531.239	2176.1
2534.923	2172.1
2538.605	2146.1
2542.283	2178.1
2545.958	2161.1
2549.63	2154.1
2553.299	2150.1
2556.964	2149.1
2560.626	2130.1
2564.285	2120.1
2567.941	2112.1
2571.594	2091.1
2575.243	2117.1
2578.89	2070.1
2582.533	2057.1
2586.173	2036.1
2589.809	2037.1
2593.443	2039.1
2597.073	1989.1
2600.701	1972.1
2604.325	1959.1
2607.946	1946.1
2611.564	1927.1
2615.178	1916.1
2618.79	1907.1
2622.398	1895.1
2626.004	1879.1
2629.606	1847.1
2633.205	1829.1
2636.801	1802.1
2640.394	1770.1
2643.983	1743.1
2647.57	1723.1
2651.153	1712.1
2654.734	1657.1
2658.311	1640.1
2661.885	1624.1
2665.456	1604.1
2669.025	1563.1
2672.589	1560.1
2676.151	1543.1
2679.71	1521.1
2683.266	1500.1
2686.819	1481.1
2690.368	1439.1
2693.915	1423.1
2697.458	1395.1
2700.999	1348.1
2704.536	1326.1
2708.071	1319.1
2711.602	1285.1
2715.13	1264.1
2718.656	1224.1
2722.178	1226.1
2725.697	1185.1
2729.214	1172.1
2732.727	1180.1
2736.237	1171.1
2739.744	1147.1
2743.249	1177.1
2746.75	1183.1
2750.248	1198.1
2753.743	1201.1
2757.236	1213.1
2760.725	1245.1
2764.211	1231.1
2767.695	1230.1
2771.175	1244.1
2774.652	1224.1
2778.127	1230.1
2781.598	1212.1
2785.067	1192.1
2788.532	1206.1
2791.995	1182.1
2795.455	1180.1
2798.911	1178.1
2802.365	1199.1
2805.816	1199.1
2809.264	1184.1
2812.709	1175.1
2816.151	1187.1
2819.59	1169.1
2823.026	1176.1
2826.46	1185.1
2829.89	1205.1
2833.318	1186.1
2836.742	1181.1
2840.164	1205.1
2843.583	1224.1
2846.999	1211.1
2850.412	1222.1
2853.822	1236.1
2857.229	1248.1
2860.634	1274.1
2864.035	1295.1
2867.434	1304.1
2870.83	1324.1
2874.223	1334.1
2877.613	1352.1
2881	1382.1
2884.385	1384.1
2887.766	1377.1
2891.145	1376.1
2894.521	1365.1
2897.894	1390.1
2901.264	1375.1
2904.631	1364.1
2907.996	1359.1
2911.358	1380.1
2914.717	1370.1
2918.073	1395.1
2921.426	1403.1
2924.777	1418.1
2928.124	1438.1
2931.469	1458.1
2934.811	1495.1
2938.15	1504.1
2941.487	1502.1
2944.821	1504.1
2948.152	1510.1
2951.48	1500.1
2954.805	1491.1
2958.128	1480.1
2961.447	1463.1
2964.765	1450.1
2968.079	1474.1
2971.39	1470.1
2974.699	1480.1
2978.005	1513.1
2981.308	1533.1
2984.609	1559.1
2987.907	1580.1
2991.202	1614.1
2994.494	1654.1
2997.784	1675.1
3001.07	1699.1
3004.355	1753.1
3007.636	1753.1
3010.915	1758.1
3014.191	1785.1
3017.464	1786.1
3020.734	1803.1
3024.002	1820.1
3027.267	1809.1
3030.53	1816.1
3033.789	1849.1
3037.046	1869.1
3040.301	1905.1
3043.552	1919.1
3046.801	1946.1
3050.048	2010.1
3053.291	2042.1
3056.532	2104.1
3059.771	2168.1
3063.006	2216.1
3066.239	2280.1
3069.469	2367.1
3072.697	2412.1
3075.922	2454.1
3079.144	2546.1
3082.364	2565.1
3085.581	2640.1
3088.795	2710.1
3092.007	2723.1
3095.216	2789.1
3098.423	2845.1
3101.627	2927.1
3104.828	2986.1
3108.026	3029.1
3111.222	3093.1
3114.416	3163.1
3117.607	3247.1
3120.795	3306.1
3123.98	3411.1
3127.163	3486.1
3130.344	3567.1
3133.521	3642.1
3136.696	3733.1
3139.869	3802.1
3143.039	3875.1
3146.206	3908.1
3149.371	3949.1
3152.533	4013.1
3155.693	3996.1
3158.85	4036.1
3162.005	4041.1
3165.157	4065.1
3168.306	4048.1
3171.453	4072.1
3174.597	4095.1
3177.739	4062.1
3180.878	4068.1
3184.014	4103.1
3187.149	4118.1
3190.28	4100.1
3193.409	4103.1
3196.536	4095.1
3199.659	4131.1
3202.781	4156.1
3205.9	4161.1
3209.016	4138.1
3212.13	4113.1
3215.241	4103.1
3218.35	4042.1
3221.456	4021.1
3224.56	3983.1
3227.661	3915.1
3230.76	3891.1
3233.856	3846.1
3236.95	3798.1
3240.041	3765.1
3243.13	3756.1
3246.216	3727.1
3249.3	3700.1
3252.382	3681.1
3255.46	3649.1
3258.537	3624.1
3261.611	3657.1
3264.682	3683.1
3267.751	3661.1
3270.818	3629.1
3273.882	3636.1
3276.943	3621.1
3280.002	3583.1
3283.059	3540.1
3286.113	3515.1
3289.165	3462.1
3292.214	3421.1
3295.261	3340.1
3298.306	3301.1
3301.348	3254.1
3304.387	3209.1
3307.425	3166.1
3310.459	3115.1
3313.492	3081.1
3316.521	3035.1
3319.549	3003.1
3322.574	2967.1
3325.597	2938.1
3328.617	2931.1
3331.635	2894.1
3334.65	2888.1
3337.663	2859.1
3340.674	2837.1
3343.682	2796.1
3346.688	2829.1
3349.691	2812.1
3352.692	2816.1
3355.691	2773.1
3358.687	2753.1
3361.681	2717.1
3364.673	2688.1
3367.662	2647.1
3370.649	2620.1
3373.633	2577.1
3376.615	2521.1
3379.595	2481.1
3382.572	2472.1
3385.547	2440.1
3388.52	2405.1
3391.49	2329.1
3394.458	2323.1
3397.424	2293.1
3400.387	2242.1
3403.348	2211.1
3406.307	2186.1
3409.263	2196.1
3412.217	2152.1
3415.168	2135.1
3418.118	2103.1
3421.065	2095.1
3424.009	2041.1
3426.951	2012.1
3429.891	1986.1
3432.829	1934.1
3435.764	1908.1
3438.697	1848.1
3441.628	1792.1
3444.557	1740.1
3447.483	1718.1
3450.407	1644.1
3453.328	1584.1
3456.247	1524.1
3459.164	1485.1
3462.079	1427.1
3464.991	1372.1
3467.902	1323.1
3470.809	1285.1
3473.715	1227.1
3476.618	1186.1
3479.519	1139.1
3482.418	1102.1
3485.315	1079.1
3488.209	1021.1
3491.101	995.1
3493.99	952.1
3496.878	912.1
3499.763	885.1
3502.646	853.1
3505.527	818.1
3508.405	785.1
3511.281	734.1
3514.155	695.1
3517.027	670.1
3519.897	610.1
3522.764	554.1
3525.629	522.1
3528.492	473.1
3531.352	438.1
3534.211	395.1
3537.067	362.1
3539.921	323.1
3542.773	290.1
3545.622	262.1
3548.469	233.1
3551.315	213.1
3554.157	170.1
3556.998	140.1
3559.837	124.1
3562.673	101.1
3565.507	69.1
3568.339	56.1
3571.169	37.1
3573.996	9.1
3576.822	-2.9
3579.645	-39.9
3582.466	-50.9
3585.285	-79.9
3588.101	-90.9
3590.916	-119.9
3593.728	-140.9
3596.538	-153.9
3599.346	-170.9
3602.152	-193.9
3604.956	-201.9
3607.757	-221.9
3610.556	-233.9
3613.354	-252.9
3616.149	-270.9
3618.942	-278.9
3621.732	-281.9
3624.521	-303.9
3627.307	-313.9
3630.092	-320.9
3632.874	-330.9
3635.654	-341.9
3638.432	-348.9
3641.208	-353.9
3643.982	-381.9
3646.753	-372.9
3649.523	-395.9
3652.29	-392.9
3655.055	-398.9
3657.818	-422.9
3660.579	-429.9
3663.338	-446.9
3666.095	-449.9
3668.849	-457.9
3671.602	-470.9
3674.352	-478.9
3677.101	-480.9
3679.847	-486.9
3682.591	-493.9
3685.333	-505.9
3688.073	-507.9
3690.811	-508.9
3693.547	-515.9
3696.281	-520.9
3699.013	-520.9
3701.742	-529.9
3704.47	-536.9
3707.195	-540.9
3709.919	-542.9
3712.64	-547.9
3715.359	-546.9
3718.076	-557.9
3720.792	-553.9
3723.505	-559.9
3726.216	-569.9
3728.925	-567.9
3731.632	-573.9
3734.336	-579.9
3737.039	-579.9
3739.74	-580.9
3742.439	-587.9
3745.136	-587.9
3747.83	-597.9
3750.523	-592.9
3753.213	-596.9
3755.902	-597.9
3758.589	-598.9
3761.273	-603.9
3763.956	-607.9
3766.636	-599.9
3769.315	-605.9
3771.991	-605.9
3774.665	-605.9
3777.338	-610.9
3780.008	-611.9
3782.677	-611.9
3785.343	-608.9
3788.007	-612.9
3790.67	-616.9
3793.33	-616.9
3795.989	-618.9
3798.645	-621.9
3801.299	-620.9
3803.952	-626.9
3806.602	-624.9
3809.251	-631.9
3811.897	-630.9
3814.542	-624.9
3817.184	-626.9
3819.825	-626.9
3822.463	-625.9
3825.1	-630.9
3827.735	-620.9
3830.367	-627.9
3832.998	-637.9
3835.627	-634.9
3838.253	-635.9
3840.878	-637.9
3843.501	-632.9
3846.122	-631.9
3848.741	-635.9
3851.358	-634.9
3853.973	-632.9
3856.586	-643.9
3859.197	-638.9
3861.806	-645.9
3864.414	-640.9
3867.019	-638.9
3869.622	-637.9
3872.224	-638.9
3874.823	-616.9
3877.421	-603.9
3880.016	-591.9
3882.61	-568.9
3885.202	-566.9
3887.792	-578.9
3890.38	-612.9
3892.966	-626.9
3895.55	-639.9
3898.132	-651.9
3900.713	-653.9
3903.291	-646.9
3905.868	-651.9
3908.442	-650.9
3911.015	-657.9
3913.586	-648.9
3916.155	-649.9
3918.722	-652.9
3921.287	-653.9
3923.85	-661.9
3926.411	-658.9
3928.971	-663.9
3931.528	-654.9
3934.084	-655.9
3936.638	-655.9
3939.19	-662.9
3941.74	-653.9
3944.288	-663.9
3946.834	-654.9
3949.378	-658.9
3951.921	-659.9
3954.462	-667.9
3957	-657.9
3959.537	-656.9
3962.072	-658.9
3964.606	-657.9
3967.137	-656.9
3969.667	-656.9
3972.194	-649.9
3974.72	-657.9
3977.244	-642.9
3979.766	-642.9
3982.286	-645.9
3984.805	-643.9
3987.321	-643.9
3989.836	-641.9
3992.349	-638.9
3994.86	-646.9
3997.369	-651.9
3999.877	-639.9
4002.382	-641.9
4004.886	-644.9
4007.388	-638.9
4009.888	-639.9
4012.386	-643.9
4014.883	-640.9
4017.377	-638.9
4019.87	-637.9
4022.361	-643.9
4024.85	-639.9
4027.338	-639.9
4029.823	-639.9
4032.307	-648.9
4034.789	-637.9
4037.269	-636.9
4039.747	-644.9
4042.224	-645.9
4044.699	-645.9
4047.172	-641.9
4049.643	-642.9
4052.112	-647.9
4054.58	-654.9
4057.046	-652.9
4059.51	-648.9
4061.972	-648.9
4064.432	-652.9
4066.891	-648.9
4069.348	-643.9
4071.803	-641.9
4074.256	-645.9
4076.708	-646.9
4079.158	-647.9
4081.606	-646.9
4084.052	-645.9
4086.497	-645.9
4088.939	-638.9
4091.38	-640.9
4093.819	-636.9
4096.257	-678.9
4098.693	-680.9
4101.127	-682.9
4103.559	-682.9
4105.989	-390.9
4108.418	-362.9
4110.845	-346.9
4113.27	-314.9
4115.694	-265.9
4118.115	-228.9
4120.535	-644.9
4122.954	-641.9
4125.37	-639.9
4127.785	-644.9
4130.198	-644.9
4132.609	-648.9
4135.019	-680.9
4137.427	-679.9
4139.833	-682.9
4142.237	-681.9
