Data from 2018-2-14_conc=6_n=6_RamanShift_05.txt Node
Date: Wed Feb 14 15:03:55 IST 2018
User: aro
Spectrometer: QEPB0276
Trigger mode: 0
Integration Time (sec): 3.000000E1
Scans to average: 1
Electric dark correction enabled: true
Nonlinearity correction enabled: false
Boxcar width: 0
XAxis mode: Raman Shifts
Number of Pixels in Spectrum: 1044
>>>>>Begin Spectral Data<<<<<
160.701	-136.8
166.742	57.2
172.777	570.2
178.805	2188.2
184.826	6036.2
190.841	12667.2
196.849	20402.2
202.85	26077.2
208.845	27916.2
214.833	27661.2
220.815	27221.2
226.789	27146.2
232.758	26977.2
238.719	26778.2
244.674	26532.2
250.623	26096.2
256.565	25607.2
262.5	25086.2
268.429	24692.2
274.351	24343.2
280.267	24003.2
286.176	23852.2
292.079	23617.2
297.975	23418.2
303.865	23243.2
309.748	23125.2
315.625	22958.2
321.495	22834.2
327.359	22728.2
333.217	22693.2
339.068	22694.2
344.912	22708.2
350.751	22703.2
356.583	22629.2
362.408	22635.2
368.227	22643.2
374.04	22604.2
379.847	22693.2
385.647	22813.2
391.44	22865.2
397.228	23001.2
403.009	23084.2
408.784	23140.2
414.553	23255.2
420.315	23218.2
426.071	23268.2
431.821	23218.2
437.565	23222.2
443.302	23195.2
449.033	23119.2
454.758	23112.2
460.477	23094.2
466.189	23004.2
471.896	23011.2
477.596	22977.2
483.29	22824.2
488.978	22820.2
494.66	22719.2
500.335	22577.2
506.005	22410.2
511.668	22063.2
517.325	21777.2
522.977	21597.2
528.622	21441.2
534.261	21343.2
539.894	21222.2
545.521	21081.2
551.141	21014.2
556.756	20993.2
562.365	20841.2
567.968	20802.2
573.565	20758.2
579.155	20634.2
584.74	20602.2
590.319	20493.2
595.892	20460.2
601.459	20303.2
607.02	20247.2
612.575	20105.2
618.124	19993.2
623.667	19830.2
629.204	19836.2
634.735	19711.2
640.261	19611.2
645.781	19544.2
651.294	19496.2
656.802	19488.2
662.304	19409.2
667.8	19422.2
673.29	19348.2
678.775	19308.2
684.254	19286.2
689.726	19176.2
695.193	19126.2
700.655	19076.2
706.11	18986.2
711.56	18824.2
717.004	18780.2
722.442	18665.2
727.874	18617.2
733.301	18572.2
738.722	18475.2
744.137	18438.2
749.547	18478.2
754.951	18451.2
760.349	18463.2
765.741	18435.2
771.128	18457.2
776.509	18504.2
781.885	18507.2
787.254	18443.2
792.618	18374.2
797.977	18277.2
803.33	18118.2
808.677	18112.2
814.019	17942.2
819.355	17901.2
824.686	17808.2
830.011	17763.2
835.33	17789.2
840.644	17738.2
845.952	17798.2
851.255	17837.2
856.552	17852.2
861.844	17785.2
867.13	17761.2
872.41	17677.2
877.686	17514.2
882.955	17431.2
888.219	17211.2
893.478	17078.2
898.731	16891.2
903.979	16771.2
909.221	16592.2
914.458	16525.2
919.69	16534.2
924.916	16607.2
930.136	16648.2
935.351	16633.2
940.561	16696.2
945.766	16676.2
950.965	16569.2
956.158	16421.2
961.347	16251.2
966.529	16052.2
971.707	15885.2
976.879	15657.2
982.046	15586.2
987.208	15476.2
992.364	15465.2
997.515	15641.2
1002.66	15692.2
1007.801	15890.2
1012.936	16029.2
1018.066	15973.2
1023.19	16006.2
1028.309	16002.2
1033.423	15987.2
1038.532	15856.2
1043.636	15748.2
1048.734	15552.2
1053.827	15347.2
1058.915	15213.2
1063.998	15124.2
1069.075	15038.2
1074.147	15058.2
1079.214	15099.2
1084.276	15223.2
1089.333	15252.2
1094.385	15353.2
1099.431	15398.2
1104.472	15332.2
1109.509	15310.2
1114.54	15162.2
1119.565	14903.2
1124.586	14757.2
1129.602	14653.2
1134.613	14506.2
1139.618	14448.2
1144.619	14358.2
1149.614	14382.2
1154.604	14360.2
1159.589	14423.2
1164.57	14471.2
1169.545	14494.2
1174.515	14493.2
1179.48	14403.2
1184.44	14295.2
1189.395	14203.2
1194.345	14148.2
1199.29	14057.2
1204.23	14050.2
1209.165	14081.2
1214.095	14177.2
1219.021	14232.2
1223.941	14275.2
1228.856	14379.2
1233.766	14416.2
1238.672	14418.2
1243.572	14417.2
1248.467	14317.2
1253.358	14192.2
1258.244	13948.2
1263.124	13714.2
1268	13577.2
1272.871	13379.2
1277.737	13319.2
1282.599	13234.2
1287.455	13202.2
1292.306	13228.2
1297.153	13336.2
1301.995	13333.2
1306.832	13387.2
1311.664	13373.2
1316.491	13344.2
1321.314	13176.2
1326.132	12985.2
1330.945	12702.2
1335.753	12403.2
1340.556	12169.2
1345.354	11953.2
1350.148	11727.2
1354.937	11664.2
1359.722	11635.2
1364.501	11684.2
1369.276	11726.2
1374.046	11902.2
1378.811	12099.2
1383.572	12203.2
1388.327	12197.2
1393.079	12169.2
1397.825	12015.2
1402.567	11827.2
1407.304	11734.2
1412.036	11611.2
1416.764	11563.2
1421.487	11455.2
1426.205	11381.2
1430.919	11378.2
1435.628	11389.2
1440.333	11390.2
1445.032	11421.2
1449.727	11454.2
1454.418	11421.2
1459.104	11220.2
1463.785	11052.2
1468.462	10840.2
1473.134	10640.2
1477.802	10361.2
1482.465	10238.2
1487.123	10092.2
1491.777	10097.2
1496.426	10088.2
1501.071	10245.2
1505.711	10371.2
1510.347	10545.2
1514.978	10736.2
1519.604	10891.2
1524.226	10984.2
1528.844	10977.2
1533.457	10939.2
1538.065	10915.2
1542.669	10841.2
1547.269	10757.2
1551.864	10735.2
1556.454	10679.2
1561.041	10667.2
1565.622	10690.2
1570.199	10651.2
1574.772	10707.2
1579.34	10772.2
1583.904	10843.2
1588.464	10868.2
1593.019	10884.2
1597.569	10818.2
1602.115	10760.2
1606.657	10645.2
1611.195	10601.2
1615.728	10493.2
1620.256	10475.2
1624.78	10444.2
1629.3	10460.2
1633.816	10486.2
1638.327	10481.2
1642.834	10563.2
1647.336	10631.2
1651.834	10613.2
1656.328	10580.2
1660.817	10522.2
1665.302	10455.2
1669.783	10253.2
1674.259	10075.2
1678.732	9756.2
1683.199	9420.2
1687.663	9125.2
1692.122	8892.2
1696.577	8769.2
1701.028	8719.2
1705.474	8783.2
1709.917	8833.2
1714.355	8850.2
1718.788	8815.2
1723.218	8707.2
1727.643	8543.2
1732.064	8381.2
1736.481	8266.2
1740.893	8033.2
1745.301	7828.2
1749.705	7615.2
1754.105	7394.2
1758.501	7182.2
1762.893	6997.2
1767.28	6809.2
1771.663	6665.2
1776.042	6581.2
1780.417	6518.2
1784.787	6529.2
1789.154	6598.2
1793.516	6694.2
1797.874	6857.2
1802.228	6937.2
1806.578	7010.2
1810.924	6988.2
1815.266	6916.2
1819.603	6833.2
1823.937	6753.2
1828.266	6634.2
1832.591	6506.2
1836.913	6411.2
1841.23	6365.2
1845.543	6334.2
1849.852	6300.2
1854.156	6272.2
1858.457	6248.2
1862.754	6248.2
1867.047	6213.2
1871.335	6226.2
1875.62	6216.2
1879.9	6198.2
1884.177	6182.2
1888.449	6087.2
1892.718	6022.2
1896.982	5986.2
1901.243	5926.2
1905.499	5888.2
1909.752	5871.2
1914	5865.2
1918.245	5903.2
1922.485	5960.2
1926.722	5972.2
1930.954	6081.2
1935.183	6124.2
1939.408	6191.2
1943.628	6234.2
1947.845	6253.2
1952.058	6237.2
1956.267	6123.2
1960.472	6072.2
1964.673	6018.2
1968.87	5934.2
1973.063	5791.2
1977.252	5700.2
1981.438	5670.2
1985.619	5616.2
1989.797	5550.2
1993.971	5512.2
1998.14	5507.2
2002.306	5459.2
2006.469	5440.2
2010.627	5440.2
2014.781	5376.2
2018.932	5351.2
2023.078	5263.2
2027.221	5198.2
2031.36	5147.2
2035.495	5073.2
2039.627	4987.2
2043.754	4949.2
2047.878	4867.2
2051.998	4859.2
2056.114	4843.2
2060.226	4836.2
2064.334	4829.2
2068.439	4837.2
2072.54	4859.2
2076.637	4888.2
2080.73	4943.2
2084.82	4978.2
2088.906	4946.2
2092.988	4968.2
2097.066	4944.2
2101.14	4898.2
2105.211	4891.2
2109.278	4867.2
2113.342	4805.2
2117.401	4784.2
2121.457	4760.2
2125.509	4747.2
2129.558	4716.2
2133.602	4689.2
2137.643	4648.2
2141.681	4644.2
2145.714	4609.2
2149.744	4572.2
2153.77	4570.2
2157.793	4496.2
2161.812	4441.2
2165.827	4398.2
2169.838	4323.2
2173.846	4255.2
2177.851	4179.2
2181.851	4123.2
2185.848	4047.2
2189.841	4034.2
2193.831	3966.2
2197.817	3920.2
2201.799	3912.2
2205.778	3881.2
2209.753	3923.2
2213.725	3878.2
2217.693	3877.2
2221.657	3840.2
2225.618	3848.2
2229.575	3830.2
2233.529	3790.2
2237.479	3773.2
2241.425	3735.2
2245.368	3668.2
2249.307	3610.2
2253.243	3555.2
2257.175	3542.2
2261.104	3479.2
2265.029	3458.2
2268.95	3420.2
2272.868	3387.2
2276.783	3320.2
2280.694	3291.2
2284.601	3289.2
2288.505	3226.2
2292.405	3221.2
2296.302	3191.2
2300.195	3128.2
2304.085	3111.2
2307.971	3083.2
2311.854	3011.2
2315.734	2986.2
2319.609	2917.2
2323.482	2896.2
2327.351	2835.2
2331.216	2833.2
2335.078	2835.2
2338.937	2805.2
2342.792	2764.2
2346.643	2789.2
2350.492	2780.2
2354.336	2775.2
2358.178	2795.2
2362.015	2812.2
2365.85	2840.2
2369.681	2793.2
2373.508	2808.2
2377.333	2815.2
2381.153	2809.2
2384.971	2771.2
2388.785	2758.2
2392.595	2693.2
2396.402	2714.2
2400.206	2721.2
2404.007	2671.2
2407.804	2645.2
2411.597	2645.2
2415.388	2634.2
2419.174	2572.2
2422.958	2574.2
2426.738	2565.2
2430.515	2540.2
2434.289	2520.2
2438.059	2505.2
2441.825	2475.2
2445.589	2471.2
2449.349	2424.2
2453.106	2385.2
2456.859	2378.2
2460.61	2345.2
2464.356	2289.2
2468.1	2270.2
2471.84	2249.2
2475.577	2242.2
2479.311	2245.2
2483.041	2222.2
2486.768	2214.2
2490.492	2178.2
2494.213	2200.2
2497.93	2192.2
2501.644	2173.2
2505.355	2159.2
2509.062	2155.2
2512.766	2136.2
2516.467	2129.2
2520.165	2108.2
2523.859	2089.2
2527.551	2076.2
2531.239	2064.2
2534.923	2076.2
2538.605	2043.2
2542.283	2039.2
2545.958	2026.2
2549.63	2019.2
2553.299	2042.2
2556.964	2025.2
2560.626	2003.2
2564.285	2001.2
2567.941	2014.2
2571.594	2007.2
2575.243	1970.2
2578.89	1950.2
2582.533	1932.2
2586.173	1931.2
2589.809	1916.2
2593.443	1904.2
2597.073	1897.2
2600.701	1863.2
2604.325	1816.2
2607.946	1834.2
2611.564	1833.2
2615.178	1817.2
2618.79	1786.2
2622.398	1779.2
2626.004	1752.2
2629.606	1741.2
2633.205	1739.2
2636.801	1715.2
2640.394	1688.2
2643.983	1630.2
2647.57	1627.2
2651.153	1575.2
2654.734	1570.2
2658.311	1543.2
2661.885	1540.2
2665.456	1499.2
2669.025	1496.2
2672.589	1462.2
2676.151	1455.2
2679.71	1454.2
2683.266	1415.2
2686.819	1402.2
2690.368	1372.2
2693.915	1353.2
2697.458	1309.2
2700.999	1260.2
2704.536	1253.2
2708.071	1217.2
2711.602	1191.2
2715.13	1176.2
2718.656	1149.2
2722.178	1112.2
2725.697	1116.2
2729.214	1095.2
2732.727	1095.2
2736.237	1071.2
2739.744	1062.2
2743.249	1098.2
2746.75	1093.2
2750.248	1107.2
2753.743	1113.2
2757.236	1135.2
2760.725	1130.2
2764.211	1138.2
2767.695	1137.2
2771.175	1115.2
2774.652	1116.2
2778.127	1132.2
2781.598	1110.2
2785.067	1112.2
2788.532	1092.2
2791.995	1083.2
2795.455	1090.2
2798.911	1097.2
2802.365	1096.2
2805.816	1094.2
2809.264	1105.2
2812.709	1093.2
2816.151	1074.2
2819.59	1090.2
2823.026	1092.2
2826.46	1095.2
2829.89	1091.2
2833.318	1092.2
2836.742	1094.2
2840.164	1112.2
2843.583	1120.2
2846.999	1112.2
2850.412	1132.2
2853.822	1143.2
2857.229	1158.2
2860.634	1172.2
2864.035	1194.2
2867.434	1196.2
2870.83	1213.2
2874.223	1240.2
2877.613	1254.2
2881	1281.2
2884.385	1289.2
2887.766	1270.2
2891.145	1273.2
2894.521	1280.2
2897.894	1275.2
2901.264	1267.2
2904.631	1265.2
2907.996	1266.2
2911.358	1272.2
2914.717	1299.2
2918.073	1301.2
2921.426	1310.2
2924.777	1315.2
2928.124	1324.2
2931.469	1346.2
2934.811	1376.2
2938.15	1371.2
2941.487	1388.2
2944.821	1393.2
2948.152	1407.2
2951.48	1412.2
2954.805	1364.2
2958.128	1367.2
2961.447	1365.2
2964.765	1331.2
2968.079	1351.2
2971.39	1363.2
2974.699	1386.2
2978.005	1397.2
2981.308	1416.2
2984.609	1438.2
2987.907	1469.2
2991.202	1485.2
2994.494	1523.2
2997.784	1566.2
3001.07	1574.2
3004.355	1587.2
3007.636	1623.2
3010.915	1628.2
3014.191	1645.2
3017.464	1681.2
3020.734	1680.2
3024.002	1699.2
3027.267	1698.2
3030.53	1682.2
3033.789	1707.2
3037.046	1746.2
3040.301	1743.2
3043.552	1800.2
3046.801	1816.2
3050.048	1860.2
3053.291	1930.2
3056.532	1986.2
3059.771	2016.2
3063.006	2083.2
3066.239	2127.2
3069.469	2212.2
3072.697	2259.2
3075.922	2311.2
3079.144	2361.2
3082.364	2404.2
3085.581	2470.2
3088.795	2519.2
3092.007	2565.2
3095.216	2634.2
3098.423	2671.2
3101.627	2753.2
3104.828	2787.2
3108.026	2844.2
3111.222	2906.2
3114.416	2967.2
3117.607	3056.2
3120.795	3098.2
3123.98	3194.2
3127.163	3258.2
3130.344	3337.2
3133.521	3398.2
3136.696	3459.2
3139.869	3528.2
3143.039	3631.2
3146.206	3678.2
3149.371	3727.2
3152.533	3770.2
3155.693	3760.2
3158.85	3814.2
3162.005	3791.2
3165.157	3804.2
3168.306	3832.2
3171.453	3840.2
3174.597	3846.2
3177.739	3855.2
3180.878	3858.2
3184.014	3847.2
3187.149	3849.2
3190.28	3871.2
3193.409	3869.2
3196.536	3874.2
3199.659	3898.2
3202.781	3889.2
3205.9	3896.2
3209.016	3867.2
3212.13	3869.2
3215.241	3861.2
3218.35	3790.2
3221.456	3771.2
3224.56	3729.2
3227.661	3670.2
3230.76	3661.2
3233.856	3594.2
3236.95	3566.2
3240.041	3548.2
3243.13	3521.2
3246.216	3487.2
3249.3	3479.2
3252.382	3466.2
3255.46	3462.2
3258.537	3416.2
3261.611	3430.2
3264.682	3452.2
3267.751	3429.2
3270.818	3409.2
3273.882	3414.2
3276.943	3397.2
3280.002	3363.2
3283.059	3335.2
3286.113	3310.2
3289.165	3255.2
3292.214	3206.2
3295.261	3144.2
3298.306	3096.2
3301.348	3030.2
3304.387	3011.2
3307.425	2957.2
3310.459	2919.2
3313.492	2874.2
3316.521	2836.2
3319.549	2832.2
3322.574	2753.2
3325.597	2753.2
3328.617	2736.2
3331.635	2718.2
3334.65	2724.2
3337.663	2694.2
3340.674	2679.2
3343.682	2673.2
3346.688	2676.2
3349.691	2646.2
3352.692	2613.2
3355.691	2571.2
3358.687	2575.2
3361.681	2531.2
3364.673	2527.2
3367.662	2481.2
3370.649	2463.2
3373.633	2425.2
3376.615	2385.2
3379.595	2323.2
3382.572	2301.2
3385.547	2294.2
3388.52	2207.2
3391.49	2198.2
3394.458	2169.2
3397.424	2133.2
3400.387	2110.2
3403.348	2098.2
3406.307	2043.2
3409.263	2039.2
3412.217	2030.2
3415.168	2000.2
3418.118	1992.2
3421.065	1941.2
3424.009	1911.2
3426.951	1880.2
3429.891	1853.2
3432.829	1825.2
3435.764	1759.2
3438.697	1736.2
3441.628	1663.2
3444.557	1631.2
3447.483	1564.2
3450.407	1515.2
3453.328	1484.2
3456.247	1424.2
3459.164	1364.2
3462.079	1317.2
3464.991	1279.2
3467.902	1203.2
3470.809	1170.2
3473.715	1140.2
3476.618	1090.2
3479.519	1055.2
3482.418	1028.2
3485.315	988.2
3488.209	940.2
3491.101	916.2
3493.99	873.2
3496.878	841.2
3499.763	814.2
3502.646	782.2
3505.527	741.2
3508.405	704.2
3511.281	659.2
3514.155	612.2
3517.027	590.2
3519.897	553.2
3522.764	494.2
3525.629	472.2
3528.492	427.2
3531.352	387.2
3534.211	359.2
3537.067	324.2
3539.921	277.2
3542.773	252.2
3545.622	217.2
3548.469	194.2
3551.315	166.2
3554.157	147.2
3556.998	105.2
3559.837	90.2
3562.673	66.2
3565.507	37.2
3568.339	10.2
3571.169	4.2
3573.996	-5.8
3576.822	-34.8
3579.645	-54.8
3582.466	-77.8
3585.285	-87.8
3588.101	-121.8
3590.916	-134.8
3593.728	-150.8
3596.538	-175.8
3599.346	-193.8
3602.152	-208.8
3604.956	-215.8
3607.757	-233.8
3610.556	-257.8
3613.354	-265.8
3616.149	-283.8
3618.942	-297.8
3621.732	-303.8
3624.521	-310.8
3627.307	-315.8
3630.092	-331.8
3632.874	-341.8
3635.654	-353.8
3638.432	-347.8
3641.208	-368.8
3643.982	-378.8
3646.753	-384.8
3649.523	-383.8
3652.29	-400.8
3655.055	-396.8
3657.818	-420.8
3660.579	-428.8
3663.338	-444.8
3666.095	-448.8
3668.849	-465.8
3671.602	-465.8
3674.352	-476.8
3677.101	-486.8
3679.847	-487.8
3682.591	-500.8
3685.333	-501.8
3688.073	-500.8
3690.811	-509.8
3693.547	-515.8
3696.281	-518.8
3699.013	-519.8
3701.742	-532.8
3704.47	-530.8
3707.195	-548.8
3709.919	-542.8
3712.64	-549.8
3715.359	-543.8
3718.076	-554.8
3720.792	-546.8
3723.505	-552.8
3726.216	-562.8
3728.925	-561.8
3731.632	-566.8
3734.336	-568.8
3737.039	-573.8
3739.74	-572.8
3742.439	-580.8
3745.136	-579.8
3747.83	-585.8
3750.523	-582.8
3753.213	-587.8
3755.902	-584.8
3758.589	-589.8
3761.273	-586.8
3763.956	-598.8
3766.636	-597.8
3769.315	-596.8
3771.991	-596.8
3774.665	-605.8
3777.338	-605.8
3780.008	-602.8
3782.677	-607.8
3785.343	-599.8
3788.007	-597.8
3790.67	-606.8
3793.33	-605.8
3795.989	-608.8
3798.645	-606.8
3801.299	-606.8
3803.952	-618.8
3806.602	-623.8
3809.251	-625.8
3811.897	-619.8
3814.542	-622.8
3817.184	-619.8
3819.825	-619.8
3822.463	-614.8
3825.1	-620.8
3827.735	-611.8
3830.367	-611.8
3832.998	-624.8
3835.627	-621.8
3838.253	-624.8
3840.878	-626.8
3843.501	-623.8
3846.122	-622.8
3848.741	-622.8
3851.358	-621.8
3853.973	-624.8
3856.586	-621.8
3859.197	-627.8
3861.806	-638.8
3864.414	-627.8
3867.019	-630.8
3869.622	-629.8
3872.224	-628.8
3874.823	-610.8
3877.421	-603.8
3880.016	-584.8
3882.61	-555.8
3885.202	-552.8
3887.792	-573.8
3890.38	-596.8
3892.966	-619.8
3895.55	-627.8
3898.132	-644.8
3900.713	-643.8
3903.291	-637.8
3905.868	-638.8
3908.442	-644.8
3911.015	-646.8
3913.586	-637.8
3916.155	-645.8
3918.722	-644.8
3921.287	-643.8
3923.85	-649.8
3926.411	-646.8
3928.971	-655.8
3931.528	-650.8
3934.084	-651.8
3936.638	-649.8
3939.19	-649.8
3941.74	-645.8
3944.288	-652.8
3946.834	-639.8
3949.378	-641.8
3951.921	-641.8
3954.462	-649.8
3957	-641.8
3959.537	-648.8
3962.072	-646.8
3964.606	-646.8
3967.137	-649.8
3969.667	-645.8
3972.194	-643.8
3974.72	-648.8
3977.244	-631.8
3979.766	-639.8
3982.286	-638.8
3984.805	-639.8
3987.321	-632.8
3989.836	-636.8
3992.349	-629.8
3994.86	-623.8
3997.369	-638.8
3999.877	-631.8
4002.382	-630.8
4004.886	-627.8
4007.388	-629.8
4009.888	-628.8
4012.386	-623.8
4014.883	-628.8
4017.377	-623.8
4019.87	-623.8
4022.361	-630.8
4024.85	-636.8
4027.338	-631.8
4029.823	-632.8
4032.307	-638.8
4034.789	-632.8
4037.269	-628.8
4039.747	-637.8
4042.224	-638.8
4044.699	-638.8
4047.172	-631.8
4049.643	-634.8
4052.112	-641.8
4054.58	-635.8
4057.046	-634.8
4059.51	-637.8
4061.972	-636.8
4064.432	-641.8
4066.891	-633.8
4069.348	-638.8
4071.803	-626.8
4074.256	-633.8
4076.708	-628.8
4079.158	-631.8
4081.606	-637.8
4084.052	-639.8
4086.497	-634.8
4088.939	-631.8
4091.38	-635.8
4093.819	-631.8
4096.257	-667.8
4098.693	-667.8
4101.127	-670.8
4103.559	-670.8
4105.989	-386.8
4108.418	-356.8
4110.845	-343.8
4113.27	-312.8
4115.694	-258.8
4118.115	-221.8
4120.535	-636.8
4122.954	-632.8
4125.37	-631.8
4127.785	-636.8
4130.198	-638.8
4132.609	-640.8
4135.019	-672.8
4137.427	-668.8
4139.833	-669.8
4142.237	-667.8
