Data from 2018-2-14_conc=0_n=1_RamanShift_06.txt Node
Date: Wed Feb 14 10:29:26 IST 2018
User: aro
Spectrometer: QEPB0276
Trigger mode: 0
Integration Time (sec): 3.000000E1
Scans to average: 1
Electric dark correction enabled: true
Nonlinearity correction enabled: false
Boxcar width: 0
XAxis mode: Raman Shifts
Number of Pixels in Spectrum: 1044
>>>>>Begin Spectral Data<<<<<
160.701	-144.9
166.742	39.1
172.777	570.1
178.805	2245.1
184.826	6175.1
190.841	12821.1
196.849	20457.1
202.85	25704.1
208.845	27357.1
214.833	27106.1
220.815	26508.1
226.789	26243.1
232.758	26137.1
238.719	25890.1
244.674	25493.1
250.623	25013.1
256.565	24483.1
262.5	23878.1
268.429	23404.1
274.351	23001.1
280.267	22636.1
286.176	22384.1
292.079	22099.1
297.975	21938.1
303.865	21682.1
309.748	21483.1
315.625	21338.1
321.495	21279.1
327.359	21134.1
333.217	21077.1
339.068	20978.1
344.912	21084.1
350.751	21057.1
356.583	20967.1
362.408	20956.1
368.227	20967.1
374.04	20988.1
379.847	21020.1
385.647	21111.1
391.44	21232.1
397.228	21287.1
403.009	21377.1
408.784	21431.1
414.553	21481.1
420.315	21590.1
426.071	21581.1
431.821	21508.1
437.565	21541.1
443.302	21539.1
449.033	21462.1
454.758	21475.1
460.477	21343.1
466.189	21348.1
471.896	21297.1
477.596	21219.1
483.29	21182.1
488.978	21135.1
494.66	21095.1
500.335	20920.1
506.005	20655.1
511.668	20370.1
517.325	20124.1
522.977	19992.1
528.622	19844.1
534.261	19664.1
539.894	19605.1
545.521	19433.1
551.141	19379.1
556.756	19367.1
562.365	19319.1
567.968	19238.1
573.565	19091.1
579.155	19024.1
584.74	18975.1
590.319	18874.1
595.892	18810.1
601.459	18791.1
607.02	18674.1
612.575	18522.1
618.124	18420.1
623.667	18333.1
629.204	18249.1
634.735	18144.1
640.261	18023.1
645.781	18026.1
651.294	18004.1
656.802	17919.1
662.304	17904.1
667.8	17875.1
673.29	17855.1
678.775	17818.1
684.254	17756.1
689.726	17659.1
695.193	17588.1
700.655	17501.1
706.11	17423.1
711.56	17352.1
717.004	17272.1
722.442	17206.1
727.874	17099.1
733.301	17064.1
738.722	17047.1
744.137	16993.1
749.547	16975.1
754.951	16969.1
760.349	16996.1
765.741	16947.1
771.128	16949.1
776.509	17022.1
781.885	17025.1
787.254	16959.1
792.618	16867.1
797.977	16730.1
803.33	16642.1
808.677	16613.1
814.019	16468.1
819.355	16426.1
824.686	16323.1
830.011	16288.1
835.33	16251.1
840.644	16273.1
845.952	16331.1
851.255	16322.1
856.552	16340.1
861.844	16335.1
867.13	16237.1
872.41	16186.1
877.686	16053.1
882.955	15959.1
888.219	15805.1
893.478	15684.1
898.731	15403.1
903.979	15272.1
909.221	15222.1
914.458	15128.1
919.69	15092.1
924.916	15105.1
930.136	15175.1
935.351	15200.1
940.561	15176.1
945.766	15180.1
950.965	15052.1
956.158	15006.1
961.347	14844.1
966.529	14650.1
971.707	14450.1
976.879	14304.1
982.046	14180.1
987.208	14110.1
992.364	14110.1
997.515	14265.1
1002.66	14397.1
1007.801	14448.1
1012.936	14569.1
1018.066	14559.1
1023.19	14616.1
1028.309	14598.1
1033.423	14533.1
1038.532	14509.1
1043.636	14342.1
1048.734	14162.1
1053.827	13984.1
1058.915	13869.1
1063.998	13738.1
1069.075	13659.1
1074.147	13701.1
1079.214	13731.1
1084.276	13870.1
1089.333	13946.1
1094.385	13971.1
1099.431	14025.1
1104.472	14013.1
1109.509	13951.1
1114.54	13794.1
1119.565	13638.1
1124.586	13419.1
1129.602	13264.1
1134.613	13185.1
1139.618	13107.1
1144.619	13134.1
1149.614	13057.1
1154.604	13123.1
1159.589	13091.1
1164.57	13165.1
1169.545	13175.1
1174.515	13176.1
1179.48	13067.1
1184.44	12974.1
1189.395	12913.1
1194.345	12859.1
1199.29	12726.1
1204.23	12737.1
1209.165	12778.1
1214.095	12850.1
1219.021	12946.1
1223.941	12999.1
1228.856	13060.1
1233.766	13130.1
1238.672	13096.1
1243.572	13137.1
1248.467	13023.1
1253.358	12852.1
1258.244	12694.1
1263.124	12536.1
1268	12317.1
1272.871	12179.1
1277.737	12066.1
1282.599	12021.1
1287.455	12016.1
1292.306	12048.1
1297.153	12085.1
1301.995	12148.1
1306.832	12170.1
1311.664	12230.1
1316.491	12161.1
1321.314	12037.1
1326.132	11944.1
1330.945	11672.1
1335.753	11358.1
1340.556	11078.1
1345.354	10862.1
1350.148	10682.1
1354.937	10617.1
1359.722	10555.1
1364.501	10627.1
1369.276	10669.1
1374.046	10840.1
1378.811	10973.1
1383.572	11084.1
1388.327	11097.1
1393.079	11110.1
1397.825	11000.1
1402.567	10826.1
1407.304	10647.1
1412.036	10618.1
1416.764	10517.1
1421.487	10453.1
1426.205	10420.1
1430.919	10350.1
1435.628	10313.1
1440.333	10289.1
1445.032	10416.1
1449.727	10406.1
1454.418	10437.1
1459.104	10301.1
1463.785	10169.1
1468.462	9968.1
1473.134	9694.1
1477.802	9521.1
1482.465	9353.1
1487.123	9225.1
1491.777	9265.1
1496.426	9253.1
1501.071	9348.1
1505.711	9479.1
1510.347	9671.1
1514.978	9820.1
1519.604	9932.1
1524.226	10044.1
1528.844	10101.1
1533.457	10038.1
1538.065	10010.1
1542.669	9916.1
1547.269	9867.1
1551.864	9806.1
1556.454	9714.1
1561.041	9787.1
1565.622	9751.1
1570.199	9745.1
1574.772	9848.1
1579.34	9926.1
1583.904	9938.1
1588.464	9970.1
1593.019	10019.1
1597.569	9935.1
1602.115	9952.1
1606.657	9880.1
1611.195	9795.1
1615.728	9721.1
1620.256	9704.1
1624.78	9730.1
1629.3	9727.1
1633.816	9750.1
1638.327	9888.1
1642.834	9889.1
1647.336	9910.1
1651.834	9907.1
1656.328	9903.1
1660.817	9876.1
1665.302	9753.1
1669.783	9577.1
1674.259	9393.1
1678.732	9113.1
1683.199	8822.1
1687.663	8525.1
1692.122	8258.1
1696.577	8121.1
1701.028	8076.1
1705.474	8108.1
1709.917	8149.1
1714.355	8193.1
1718.788	8132.1
1723.218	8012.1
1727.643	7825.1
1732.064	7687.1
1736.481	7497.1
1740.893	7347.1
1745.301	7146.1
1749.705	6948.1
1754.105	6741.1
1758.501	6552.1
1762.893	6368.1
1767.28	6238.1
1771.663	6090.1
1776.042	5976.1
1780.417	5939.1
1784.787	5950.1
1789.154	5977.1
1793.516	6097.1
1797.874	6170.1
1802.228	6280.1
1806.578	6338.1
1810.924	6312.1
1815.266	6278.1
1819.603	6157.1
1823.937	6100.1
1828.266	5997.1
1832.591	5894.1
1836.913	5811.1
1841.23	5781.1
1845.543	5709.1
1849.852	5729.1
1854.156	5665.1
1858.457	5654.1
1862.754	5667.1
1867.047	5664.1
1871.335	5665.1
1875.62	5641.1
1879.9	5620.1
1884.177	5615.1
1888.449	5538.1
1892.718	5493.1
1896.982	5435.1
1901.243	5387.1
1905.499	5348.1
1909.752	5326.1
1914	5313.1
1918.245	5337.1
1922.485	5404.1
1926.722	5426.1
1930.954	5502.1
1935.183	5560.1
1939.408	5601.1
1943.628	5646.1
1947.845	5652.1
1952.058	5636.1
1956.267	5579.1
1960.472	5501.1
1964.673	5415.1
1968.87	5338.1
1973.063	5225.1
1977.252	5156.1
1981.438	5186.1
1985.619	5077.1
1989.797	5074.1
1993.971	5006.1
1998.14	4987.1
2002.306	4976.1
2006.469	4969.1
2010.627	4946.1
2014.781	4862.1
2018.932	4839.1
2023.078	4826.1
2027.221	4746.1
2031.36	4681.1
2035.495	4606.1
2039.627	4530.1
2043.754	4505.1
2047.878	4439.1
2051.998	4436.1
2056.114	4421.1
2060.226	4417.1
2064.334	4422.1
2068.439	4405.1
2072.54	4457.1
2076.637	4485.1
2080.73	4510.1
2084.82	4532.1
2088.906	4552.1
2092.988	4573.1
2097.066	4530.1
2101.14	4514.1
2105.211	4473.1
2109.278	4441.1
2113.342	4418.1
2117.401	4400.1
2121.457	4375.1
2125.509	4346.1
2129.558	4309.1
2133.602	4338.1
2137.643	4287.1
2141.681	4250.1
2145.714	4225.1
2149.744	4209.1
2153.77	4157.1
2157.793	4142.1
2161.812	4045.1
2165.827	4005.1
2169.838	3956.1
2173.846	3882.1
2177.851	3814.1
2181.851	3763.1
2185.848	3711.1
2189.841	3676.1
2193.831	3613.1
2197.817	3601.1
2201.799	3604.1
2205.778	3579.1
2209.753	3575.1
2213.725	3530.1
2217.693	3526.1
2221.657	3512.1
2225.618	3486.1
2229.575	3492.1
2233.529	3459.1
2237.479	3432.1
2241.425	3382.1
2245.368	3363.1
2249.307	3283.1
2253.243	3229.1
2257.175	3212.1
2261.104	3116.1
2265.029	3109.1
2268.95	3080.1
2272.868	3036.1
2276.783	3006.1
2280.694	2981.1
2284.601	2939.1
2288.505	2948.1
2292.405	2879.1
2296.302	2850.1
2300.195	2842.1
2304.085	2812.1
2307.971	2770.1
2311.854	2732.1
2315.734	2652.1
2319.609	2600.1
2323.482	2599.1
2327.351	2557.1
2331.216	2545.1
2335.078	2541.1
2338.937	2511.1
2342.792	2515.1
2346.643	2491.1
2350.492	2477.1
2354.336	2492.1
2358.178	2490.1
2362.015	2496.1
2365.85	2507.1
2369.681	2512.1
2373.508	2523.1
2377.333	2487.1
2381.153	2501.1
2384.971	2474.1
2388.785	2483.1
2392.595	2450.1
2396.402	2432.1
2400.206	2402.1
2404.007	2398.1
2407.804	2359.1
2411.597	2354.1
2415.388	2332.1
2419.174	2318.1
2422.958	2296.1
2426.738	2286.1
2430.515	2266.1
2434.289	2228.1
2438.059	2203.1
2441.825	2201.1
2445.589	2167.1
2449.349	2168.1
2453.106	2129.1
2456.859	2095.1
2460.61	2076.1
2464.356	2037.1
2468.1	2018.1
2471.84	2012.1
2475.577	1986.1
2479.311	1975.1
2483.041	1965.1
2486.768	1953.1
2490.492	1954.1
2494.213	1954.1
2497.93	1935.1
2501.644	1925.1
2505.355	1932.1
2509.062	1903.1
2512.766	1903.1
2516.467	1888.1
2520.165	1883.1
2523.859	1853.1
2527.551	1838.1
2531.239	1853.1
2534.923	1822.1
2538.605	1826.1
2542.283	1799.1
2545.958	1788.1
2549.63	1821.1
2553.299	1817.1
2556.964	1812.1
2560.626	1775.1
2564.285	1774.1
2567.941	1783.1
2571.594	1748.1
2575.243	1739.1
2578.89	1724.1
2582.533	1722.1
2586.173	1706.1
2589.809	1697.1
2593.443	1674.1
2597.073	1656.1
2600.701	1669.1
2604.325	1631.1
2607.946	1610.1
2611.564	1606.1
2615.178	1606.1
2618.79	1584.1
2622.398	1565.1
2626.004	1562.1
2629.606	1516.1
2633.205	1524.1
2636.801	1495.1
2640.394	1498.1
2643.983	1442.1
2647.57	1437.1
2651.153	1411.1
2654.734	1381.1
2658.311	1365.1
2661.885	1335.1
2665.456	1325.1
2669.025	1307.1
2672.589	1299.1
2676.151	1276.1
2679.71	1256.1
2683.266	1239.1
2686.819	1218.1
2690.368	1192.1
2693.915	1161.1
2697.458	1153.1
2700.999	1113.1
2704.536	1091.1
2708.071	1055.1
2711.602	1046.1
2715.13	1020.1
2718.656	985.1
2722.178	1004.1
2725.697	971.1
2729.214	963.1
2732.727	945.1
2736.237	957.1
2739.744	944.1
2743.249	954.1
2746.75	955.1
2750.248	958.1
2753.743	979.1
2757.236	995.1
2760.725	990.1
2764.211	988.1
2767.695	995.1
2771.175	999.1
2774.652	983.1
2778.127	979.1
2781.598	986.1
2785.067	981.1
2788.532	989.1
2791.995	969.1
2795.455	988.1
2798.911	971.1
2802.365	978.1
2805.816	973.1
2809.264	976.1
2812.709	974.1
2816.151	978.1
2819.59	983.1
2823.026	977.1
2826.46	974.1
2829.89	990.1
2833.318	994.1
2836.742	988.1
2840.164	1022.1
2843.583	1008.1
2846.999	1034.1
2850.412	1031.1
2853.822	1051.1
2857.229	1063.1
2860.634	1088.1
2864.035	1105.1
2867.434	1130.1
2870.83	1126.1
2874.223	1172.1
2877.613	1180.1
2881	1182.1
2884.385	1196.1
2887.766	1213.1
2891.145	1217.1
2894.521	1206.1
2897.894	1212.1
2901.264	1216.1
2904.631	1233.1
2907.996	1223.1
2911.358	1232.1
2914.717	1227.1
2918.073	1241.1
2921.426	1255.1
2924.777	1287.1
2928.124	1304.1
2931.469	1314.1
2934.811	1366.1
2938.15	1361.1
2941.487	1387.1
2944.821	1402.1
2948.152	1382.1
2951.48	1378.1
2954.805	1365.1
2958.128	1356.1
2961.447	1353.1
2964.765	1347.1
2968.079	1353.1
2971.39	1350.1
2974.699	1390.1
2978.005	1411.1
2981.308	1445.1
2984.609	1459.1
2987.907	1496.1
2991.202	1524.1
2994.494	1564.1
2997.784	1575.1
3001.07	1596.1
3004.355	1603.1
3007.636	1664.1
3010.915	1673.1
3014.191	1703.1
3017.464	1702.1
3020.734	1734.1
3024.002	1749.1
3027.267	1766.1
3030.53	1771.1
3033.789	1765.1
3037.046	1807.1
3040.301	1850.1
3043.552	1899.1
3046.801	1910.1
3050.048	1973.1
3053.291	2013.1
3056.532	2079.1
3059.771	2147.1
3063.006	2207.1
3066.239	2273.1
3069.469	2326.1
3072.697	2397.1
3075.922	2445.1
3079.144	2519.1
3082.364	2578.1
3085.581	2624.1
3088.795	2660.1
3092.007	2746.1
3095.216	2783.1
3098.423	2871.1
3101.627	2949.1
3104.828	2999.1
3108.026	3056.1
3111.222	3130.1
3114.416	3204.1
3117.607	3272.1
3120.795	3359.1
3123.98	3433.1
3127.163	3535.1
3130.344	3587.1
3133.521	3678.1
3136.696	3782.1
3139.869	3856.1
3143.039	3929.1
3146.206	3982.1
3149.371	4018.1
3152.533	4054.1
3155.693	4098.1
3158.85	4118.1
3162.005	4142.1
3165.157	4142.1
3168.306	4151.1
3171.453	4154.1
3174.597	4169.1
3177.739	4169.1
3180.878	4178.1
3184.014	4146.1
3187.149	4196.1
3190.28	4204.1
3193.409	4207.1
3196.536	4196.1
3199.659	4213.1
3202.781	4226.1
3205.9	4210.1
3209.016	4222.1
3212.13	4186.1
3215.241	4160.1
3218.35	4142.1
3221.456	4098.1
3224.56	4032.1
3227.661	3995.1
3230.76	3964.1
3233.856	3915.1
3236.95	3876.1
3240.041	3858.1
3243.13	3825.1
3246.216	3815.1
3249.3	3757.1
3252.382	3772.1
3255.46	3746.1
3258.537	3727.1
3261.611	3746.1
3264.682	3738.1
3267.751	3731.1
3270.818	3746.1
3273.882	3720.1
3276.943	3715.1
3280.002	3667.1
3283.059	3646.1
3286.113	3586.1
3289.165	3545.1
3292.214	3477.1
3295.261	3432.1
3298.306	3380.1
3301.348	3316.1
3304.387	3267.1
3307.425	3221.1
3310.459	3154.1
3313.492	3117.1
3316.521	3074.1
3319.549	3042.1
3322.574	2988.1
3325.597	2991.1
3328.617	2980.1
3331.635	2961.1
3334.65	2931.1
3337.663	2893.1
3340.674	2903.1
3343.682	2870.1
3346.688	2883.1
3349.691	2878.1
3352.692	2849.1
3355.691	2802.1
3358.687	2784.1
3361.681	2770.1
3364.673	2737.1
3367.662	2682.1
3370.649	2633.1
3373.633	2613.1
3376.615	2575.1
3379.595	2538.1
3382.572	2527.1
3385.547	2474.1
3388.52	2426.1
3391.49	2395.1
3394.458	2350.1
3397.424	2327.1
3400.387	2293.1
3403.348	2258.1
3406.307	2234.1
3409.263	2220.1
3412.217	2189.1
3415.168	2174.1
3418.118	2142.1
3421.065	2098.1
3424.009	2074.1
3426.951	2057.1
3429.891	2011.1
3432.829	1983.1
3435.764	1936.1
3438.697	1898.1
3441.628	1827.1
3444.557	1774.1
3447.483	1708.1
3450.407	1657.1
3453.328	1620.1
3456.247	1547.1
3459.164	1527.1
3462.079	1451.1
3464.991	1401.1
3467.902	1370.1
3470.809	1293.1
3473.715	1250.1
3476.618	1205.1
3479.519	1169.1
3482.418	1127.1
3485.315	1089.1
3488.209	1052.1
3491.101	1025.1
3493.99	987.1
3496.878	936.1
3499.763	911.1
3502.646	860.1
3505.527	814.1
3508.405	784.1
3511.281	741.1
3514.155	701.1
3517.027	673.1
3519.897	626.1
3522.764	579.1
3525.629	552.1
3528.492	486.1
3531.352	454.1
3534.211	412.1
3537.067	368.1
3539.921	336.1
3542.773	297.1
3545.622	261.1
3548.469	235.1
3551.315	210.1
3554.157	177.1
3556.998	147.1
3559.837	141.1
3562.673	103.1
3565.507	80.1
3568.339	43.1
3571.169	39.1
3573.996	12.1
3576.822	-4.9
3579.645	-12.9
3582.466	-53.9
3585.285	-60.9
3588.101	-83.9
3590.916	-105.9
3593.728	-133.9
3596.538	-147.9
3599.346	-171.9
3602.152	-183.9
3604.956	-194.9
3607.757	-214.9
3610.556	-235.9
3613.354	-248.9
3616.149	-258.9
3618.942	-278.9
3621.732	-284.9
3624.521	-301.9
3627.307	-311.9
3630.092	-317.9
3632.874	-325.9
3635.654	-339.9
3638.432	-348.9
3641.208	-351.9
3643.982	-377.9
3646.753	-381.9
3649.523	-385.9
3652.29	-400.9
3655.055	-405.9
3657.818	-414.9
3660.579	-427.9
3663.338	-438.9
3666.095	-443.9
3668.849	-461.9
3671.602	-462.9
3674.352	-473.9
3677.101	-475.9
3679.847	-489.9
3682.591	-497.9
3685.333	-502.9
3688.073	-506.9
3690.811	-513.9
3693.547	-514.9
3696.281	-521.9
3699.013	-524.9
3701.742	-529.9
3704.47	-535.9
3707.195	-545.9
3709.919	-545.9
3712.64	-555.9
3715.359	-550.9
3718.076	-555.9
3720.792	-558.9
3723.505	-562.9
3726.216	-576.9
3728.925	-568.9
3731.632	-572.9
3734.336	-575.9
3737.039	-574.9
3739.74	-576.9
3742.439	-582.9
3745.136	-585.9
3747.83	-588.9
3750.523	-591.9
3753.213	-577.9
3755.902	-593.9
3758.589	-594.9
3761.273	-601.9
3763.956	-609.9
3766.636	-602.9
3769.315	-604.9
3771.991	-605.9
3774.665	-610.9
3777.338	-603.9
3780.008	-611.9
3782.677	-611.9
3785.343	-608.9
3788.007	-611.9
3790.67	-620.9
3793.33	-613.9
3795.989	-620.9
3798.645	-619.9
3801.299	-614.9
3803.952	-620.9
3806.602	-628.9
3809.251	-628.9
3811.897	-625.9
3814.542	-631.9
3817.184	-622.9
3819.825	-626.9
3822.463	-627.9
3825.1	-631.9
3827.735	-621.9
3830.367	-630.9
3832.998	-636.9
3835.627	-540.9
3838.253	-513.9
3840.878	-493.9
3843.501	-295.9
3846.122	-587.9
3848.741	-632.9
3851.358	-633.9
3853.973	-637.9
3856.586	-634.9
3859.197	-645.9
3861.806	-643.9
3864.414	-636.9
3867.019	-634.9
3869.622	-636.9
3872.224	-632.9
3874.823	-620.9
3877.421	-605.9
3880.016	-596.9
3882.61	-572.9
3885.202	-573.9
3887.792	-587.9
3890.38	-620.9
3892.966	-630.9
3895.55	-633.9
3898.132	-647.9
3900.713	-656.9
3903.291	-646.9
3905.868	-649.9
3908.442	-648.9
3911.015	-650.9
3913.586	-648.9
3916.155	-650.9
3918.722	-654.9
3921.287	-648.9
3923.85	-655.9
3926.411	-653.9
3928.971	-662.9
3931.528	-653.9
3934.084	-655.9
3936.638	-648.9
3939.19	-650.9
3941.74	-653.9
3944.288	-655.9
3946.834	-655.9
3949.378	-654.9
3951.921	-658.9
3954.462	-663.9
3957	-655.9
3959.537	-654.9
3962.072	-648.9
3964.606	-653.9
3967.137	-652.9
3969.667	-653.9
3972.194	-648.9
3974.72	-650.9
3977.244	-641.9
3979.766	-646.9
3982.286	-646.9
3984.805	-642.9
3987.321	-637.9
3989.836	-641.9
3992.349	-633.9
3994.86	-638.9
3997.369	-643.9
3999.877	-637.9
4002.382	-636.9
4004.886	-641.9
4007.388	-635.9
4009.888	-636.9
4012.386	-640.9
4014.883	-641.9
4017.377	-636.9
4019.87	-638.9
4022.361	-639.9
4024.85	-639.9
4027.338	-640.9
4029.823	-641.9
4032.307	-645.9
4034.789	-641.9
4037.269	-639.9
4039.747	-644.9
4042.224	-643.9
4044.699	-641.9
4047.172	-644.9
4049.643	-640.9
4052.112	-643.9
4054.58	-646.9
4057.046	-641.9
4059.51	-650.9
4061.972	-644.9
4064.432	-649.9
4066.891	-643.9
4069.348	-643.9
4071.803	-646.9
4074.256	-643.9
4076.708	-642.9
4079.158	-639.9
4081.606	-643.9
4084.052	-644.9
4086.497	-647.9
4088.939	-635.9
4091.38	-646.9
4093.819	-641.9
4096.257	-676.9
4098.693	-675.9
4101.127	-682.9
4103.559	-678.9
4105.989	-387.9
4108.418	-369.9
4110.845	-347.9
4113.27	-316.9
4115.694	-284.9
4118.115	-231.9
4120.535	-644.9
4122.954	-643.9
4125.37	-636.9
4127.785	-641.9
4130.198	-642.9
4132.609	-644.9
4135.019	-673.9
4137.427	-680.9
4139.833	-678.9
4142.237	-675.9
