Data from 2018-2-14_conc=4_n=9_RamanShift_05.txt Node
Date: Wed Feb 14 13:58:25 IST 2018
User: aro
Spectrometer: QEPB0276
Trigger mode: 0
Integration Time (sec): 3.000000E1
Scans to average: 1
Electric dark correction enabled: true
Nonlinearity correction enabled: false
Boxcar width: 0
XAxis mode: Raman Shifts
Number of Pixels in Spectrum: 1044
>>>>>Begin Spectral Data<<<<<
160.701	-138.8
166.742	45.2
172.777	559.2
178.805	2114.2
184.826	5834.2
190.841	12226.2
196.849	19656.2
202.85	24839.2
208.845	26609.2
214.833	26395.2
220.815	25892.2
226.789	25757.2
232.758	25672.2
238.719	25402.2
244.674	25107.2
250.623	24682.2
256.565	24140.2
262.5	23657.2
268.429	23304.2
274.351	22924.2
280.267	22649.2
286.176	22370.2
292.079	22191.2
297.975	22034.2
303.865	21745.2
309.748	21690.2
315.625	21565.2
321.495	21404.2
327.359	21391.2
333.217	21275.2
339.068	21329.2
344.912	21244.2
350.751	21249.2
356.583	21178.2
362.408	21201.2
368.227	21207.2
374.04	21314.2
379.847	21283.2
385.647	21341.2
391.44	21413.2
397.228	21590.2
403.009	21633.2
408.784	21666.2
414.553	21770.2
420.315	21825.2
426.071	21833.2
431.821	21792.2
437.565	21776.2
443.302	21753.2
449.033	21664.2
454.758	21633.2
460.477	21652.2
466.189	21583.2
471.896	21578.2
477.596	21362.2
483.29	21404.2
488.978	21403.2
494.66	21342.2
500.335	21138.2
506.005	20915.2
511.668	20587.2
517.325	20330.2
522.977	20160.2
528.622	19965.2
534.261	19800.2
539.894	19759.2
545.521	19621.2
551.141	19589.2
556.756	19465.2
562.365	19382.2
567.968	19245.2
573.565	19273.2
579.155	19143.2
584.74	19129.2
590.319	18995.2
595.892	18951.2
601.459	18872.2
607.02	18813.2
612.575	18669.2
618.124	18569.2
623.667	18459.2
629.204	18334.2
634.735	18265.2
640.261	18165.2
645.781	18088.2
651.294	18045.2
656.802	18095.2
662.304	18029.2
667.8	17948.2
673.29	17962.2
678.775	17887.2
684.254	17822.2
689.726	17745.2
695.193	17725.2
700.655	17630.2
706.11	17554.2
711.56	17502.2
717.004	17391.2
722.442	17279.2
727.874	17218.2
733.301	17168.2
738.722	17140.2
744.137	17031.2
749.547	17072.2
754.951	17077.2
760.349	17116.2
765.741	17123.2
771.128	17087.2
776.509	17140.2
781.885	17080.2
787.254	17066.2
792.618	16967.2
797.977	16880.2
803.33	16761.2
808.677	16684.2
814.019	16628.2
819.355	16486.2
824.686	16430.2
830.011	16366.2
835.33	16377.2
840.644	16343.2
845.952	16379.2
851.255	16397.2
856.552	16427.2
861.844	16387.2
867.13	16356.2
872.41	16295.2
877.686	16212.2
882.955	16048.2
888.219	15923.2
893.478	15754.2
898.731	15553.2
903.979	15386.2
909.221	15339.2
914.458	15261.2
919.69	15214.2
924.916	15235.2
930.136	15293.2
935.351	15346.2
940.561	15344.2
945.766	15237.2
950.965	15162.2
956.158	15101.2
961.347	14906.2
966.529	14731.2
971.707	14616.2
976.879	14380.2
982.046	14227.2
987.208	14194.2
992.364	14214.2
997.515	14283.2
1002.66	14438.2
1007.801	14574.2
1012.936	14696.2
1018.066	14693.2
1023.19	14684.2
1028.309	14666.2
1033.423	14655.2
1038.532	14588.2
1043.636	14448.2
1048.734	14258.2
1053.827	14119.2
1058.915	13951.2
1063.998	13844.2
1069.075	13795.2
1074.147	13825.2
1079.214	13880.2
1084.276	13990.2
1089.333	14038.2
1094.385	14136.2
1099.431	14089.2
1104.472	14111.2
1109.509	14044.2
1114.54	13890.2
1119.565	13727.2
1124.586	13548.2
1129.602	13366.2
1134.613	13325.2
1139.618	13166.2
1144.619	13159.2
1149.614	13138.2
1154.604	13202.2
1159.589	13236.2
1164.57	13253.2
1169.545	13259.2
1174.515	13227.2
1179.48	13163.2
1184.44	13098.2
1189.395	13007.2
1194.345	12895.2
1199.29	12796.2
1204.23	12782.2
1209.165	12894.2
1214.095	12938.2
1219.021	12979.2
1223.941	13077.2
1228.856	13161.2
1233.766	13130.2
1238.672	13213.2
1243.572	13180.2
1248.467	13056.2
1253.358	12953.2
1258.244	12762.2
1263.124	12571.2
1268	12405.2
1272.871	12208.2
1277.737	12141.2
1282.599	11987.2
1287.455	12018.2
1292.306	12063.2
1297.153	12072.2
1301.995	12154.2
1306.832	12135.2
1311.664	12210.2
1316.491	12136.2
1321.314	12028.2
1326.132	11847.2
1330.945	11591.2
1335.753	11331.2
1340.556	11075.2
1345.354	10808.2
1350.148	10612.2
1354.937	10529.2
1359.722	10502.2
1364.501	10573.2
1369.276	10619.2
1374.046	10699.2
1378.811	10823.2
1383.572	10995.2
1388.327	11027.2
1393.079	10941.2
1397.825	10870.2
1402.567	10713.2
1407.304	10582.2
1412.036	10532.2
1416.764	10439.2
1421.487	10381.2
1426.205	10329.2
1430.919	10301.2
1435.628	10251.2
1440.333	10295.2
1445.032	10271.2
1449.727	10384.2
1454.418	10315.2
1459.104	10160.2
1463.785	9972.2
1468.462	9742.2
1473.134	9523.2
1477.802	9330.2
1482.465	9189.2
1487.123	9062.2
1491.777	9001.2
1496.426	8992.2
1501.071	9109.2
1505.711	9216.2
1510.347	9392.2
1514.978	9547.2
1519.604	9696.2
1524.226	9730.2
1528.844	9762.2
1533.457	9823.2
1538.065	9750.2
1542.669	9675.2
1547.269	9623.2
1551.864	9572.2
1556.454	9559.2
1561.041	9522.2
1565.622	9555.2
1570.199	9558.2
1574.772	9616.2
1579.34	9659.2
1583.904	9750.2
1588.464	9773.2
1593.019	9759.2
1597.569	9763.2
1602.115	9723.2
1606.657	9624.2
1611.195	9586.2
1615.728	9478.2
1620.256	9507.2
1624.78	9410.2
1629.3	9430.2
1633.816	9459.2
1638.327	9522.2
1642.834	9535.2
1647.336	9592.2
1651.834	9619.2
1656.328	9577.2
1660.817	9448.2
1665.302	9334.2
1669.783	9195.2
1674.259	9022.2
1678.732	8687.2
1683.199	8418.2
1687.663	8081.2
1692.122	7812.2
1696.577	7711.2
1701.028	7664.2
1705.474	7664.2
1709.917	7722.2
1714.355	7796.2
1718.788	7721.2
1723.218	7587.2
1727.643	7519.2
1732.064	7344.2
1736.481	7229.2
1740.893	7052.2
1745.301	6884.2
1749.705	6686.2
1754.105	6465.2
1758.501	6311.2
1762.893	6134.2
1767.28	5977.2
1771.663	5832.2
1776.042	5682.2
1780.417	5629.2
1784.787	5612.2
1789.154	5617.2
1793.516	5728.2
1797.874	5845.2
1802.228	5919.2
1806.578	5970.2
1810.924	5993.2
1815.266	5949.2
1819.603	5889.2
1823.937	5798.2
1828.266	5740.2
1832.591	5643.2
1836.913	5570.2
1841.23	5505.2
1845.543	5446.2
1849.852	5444.2
1854.156	5439.2
1858.457	5405.2
1862.754	5405.2
1867.047	5401.2
1871.335	5375.2
1875.62	5379.2
1879.9	5357.2
1884.177	5304.2
1888.449	5249.2
1892.718	5152.2
1896.982	5108.2
1901.243	5060.2
1905.499	5000.2
1909.752	4955.2
1914	4944.2
1918.245	4988.2
1922.485	5021.2
1926.722	5040.2
1930.954	5080.2
1935.183	5180.2
1939.408	5235.2
1943.628	5261.2
1947.845	5294.2
1952.058	5248.2
1956.267	5266.2
1960.472	5181.2
1964.673	5113.2
1968.87	5008.2
1973.063	4926.2
1977.252	4899.2
1981.438	4826.2
1985.619	4753.2
1989.797	4758.2
1993.971	4717.2
1998.14	4711.2
2002.306	4701.2
2006.469	4689.2
2010.627	4653.2
2014.781	4617.2
2018.932	4565.2
2023.078	4517.2
2027.221	4475.2
2031.36	4387.2
2035.495	4327.2
2039.627	4246.2
2043.754	4216.2
2047.878	4175.2
2051.998	4150.2
2056.114	4136.2
2060.226	4080.2
2064.334	4079.2
2068.439	4106.2
2072.54	4122.2
2076.637	4128.2
2080.73	4172.2
2084.82	4189.2
2088.906	4198.2
2092.988	4196.2
2097.066	4189.2
2101.14	4171.2
2105.211	4138.2
2109.278	4112.2
2113.342	4112.2
2117.401	4065.2
2121.457	4067.2
2125.509	4041.2
2129.558	4035.2
2133.602	4011.2
2137.643	3963.2
2141.681	3953.2
2145.714	3927.2
2149.744	3894.2
2153.77	3906.2
2157.793	3850.2
2161.812	3777.2
2165.827	3743.2
2169.838	3687.2
2173.846	3638.2
2177.851	3548.2
2181.851	3538.2
2185.848	3478.2
2189.841	3459.2
2193.831	3405.2
2197.817	3391.2
2201.799	3363.2
2205.778	3334.2
2209.753	3336.2
2213.725	3340.2
2217.693	3334.2
2221.657	3313.2
2225.618	3319.2
2229.575	3283.2
2233.529	3254.2
2237.479	3221.2
2241.425	3184.2
2245.368	3156.2
2249.307	3078.2
2253.243	3038.2
2257.175	2989.2
2261.104	2974.2
2265.029	2910.2
2268.95	2917.2
2272.868	2858.2
2276.783	2864.2
2280.694	2800.2
2284.601	2790.2
2288.505	2770.2
2292.405	2746.2
2296.302	2698.2
2300.195	2691.2
2304.085	2636.2
2307.971	2607.2
2311.854	2585.2
2315.734	2542.2
2319.609	2503.2
2323.482	2494.2
2327.351	2461.2
2331.216	2456.2
2335.078	2445.2
2338.937	2424.2
2342.792	2406.2
2346.643	2389.2
2350.492	2407.2
2354.336	2403.2
2358.178	2423.2
2362.015	2429.2
2365.85	2422.2
2369.681	2431.2
2373.508	2435.2
2377.333	2432.2
2381.153	2412.2
2384.971	2388.2
2388.785	2391.2
2392.595	2387.2
2396.402	2365.2
2400.206	2343.2
2404.007	2326.2
2407.804	2309.2
2411.597	2270.2
2415.388	2279.2
2419.174	2277.2
2422.958	2265.2
2426.738	2219.2
2430.515	2199.2
2434.289	2170.2
2438.059	2186.2
2441.825	2164.2
2445.589	2131.2
2449.349	2088.2
2453.106	2065.2
2456.859	2032.2
2460.61	2016.2
2464.356	2007.2
2468.1	1951.2
2471.84	1963.2
2475.577	1922.2
2479.311	1908.2
2483.041	1933.2
2486.768	1889.2
2490.492	1900.2
2494.213	1889.2
2497.93	1874.2
2501.644	1870.2
2505.355	1843.2
2509.062	1840.2
2512.766	1799.2
2516.467	1816.2
2520.165	1796.2
2523.859	1792.2
2527.551	1774.2
2531.239	1769.2
2534.923	1733.2
2538.605	1731.2
2542.283	1734.2
2545.958	1721.2
2549.63	1734.2
2553.299	1719.2
2556.964	1719.2
2560.626	1697.2
2564.285	1694.2
2567.941	1682.2
2571.594	1672.2
2575.243	1666.2
2578.89	1655.2
2582.533	1636.2
2586.173	1622.2
2589.809	1608.2
2593.443	1594.2
2597.073	1597.2
2600.701	1578.2
2604.325	1580.2
2607.946	1553.2
2611.564	1536.2
2615.178	1537.2
2618.79	1527.2
2622.398	1515.2
2626.004	1491.2
2629.606	1480.2
2633.205	1448.2
2636.801	1406.2
2640.394	1417.2
2643.983	1401.2
2647.57	1397.2
2651.153	1348.2
2654.734	1324.2
2658.311	1298.2
2661.885	1285.2
2665.456	1287.2
2669.025	1269.2
2672.589	1237.2
2676.151	1234.2
2679.71	1222.2
2683.266	1204.2
2686.819	1172.2
2690.368	1148.2
2693.915	1123.2
2697.458	1072.2
2700.999	1059.2
2704.536	1043.2
2708.071	1023.2
2711.602	992.2
2715.13	983.2
2718.656	948.2
2722.178	924.2
2725.697	923.2
2729.214	893.2
2732.727	892.2
2736.237	879.2
2739.744	879.2
2743.249	878.2
2746.75	877.2
2750.248	894.2
2753.743	892.2
2757.236	906.2
2760.725	912.2
2764.211	918.2
2767.695	928.2
2771.175	915.2
2774.652	928.2
2778.127	912.2
2781.598	908.2
2785.067	894.2
2788.532	903.2
2791.995	899.2
2795.455	898.2
2798.911	898.2
2802.365	915.2
2805.816	891.2
2809.264	884.2
2812.709	900.2
2816.151	898.2
2819.59	909.2
2823.026	898.2
2826.46	911.2
2829.89	909.2
2833.318	910.2
2836.742	907.2
2840.164	910.2
2843.583	952.2
2846.999	943.2
2850.412	945.2
2853.822	964.2
2857.229	976.2
2860.634	996.2
2864.035	1017.2
2867.434	1020.2
2870.83	1046.2
2874.223	1079.2
2877.613	1086.2
2881	1101.2
2884.385	1117.2
2887.766	1111.2
2891.145	1104.2
2894.521	1123.2
2897.894	1104.2
2901.264	1116.2
2904.631	1110.2
2907.996	1108.2
2911.358	1121.2
2914.717	1116.2
2918.073	1131.2
2921.426	1138.2
2924.777	1167.2
2928.124	1166.2
2931.469	1215.2
2934.811	1228.2
2938.15	1228.2
2941.487	1246.2
2944.821	1262.2
2948.152	1255.2
2951.48	1230.2
2954.805	1233.2
2958.128	1223.2
2961.447	1211.2
2964.765	1208.2
2968.079	1200.2
2971.39	1216.2
2974.699	1202.2
2978.005	1241.2
2981.308	1256.2
2984.609	1274.2
2987.907	1303.2
2991.202	1317.2
2994.494	1379.2
2997.784	1390.2
3001.07	1405.2
3004.355	1428.2
3007.636	1457.2
3010.915	1490.2
3014.191	1481.2
3017.464	1503.2
3020.734	1509.2
3024.002	1541.2
3027.267	1549.2
3030.53	1546.2
3033.789	1565.2
3037.046	1604.2
3040.301	1630.2
3043.552	1664.2
3046.801	1708.2
3050.048	1725.2
3053.291	1770.2
3056.532	1830.2
3059.771	1859.2
3063.006	1929.2
3066.239	1986.2
3069.469	2040.2
3072.697	2103.2
3075.922	2159.2
3079.144	2203.2
3082.364	2263.2
3085.581	2322.2
3088.795	2377.2
3092.007	2418.2
3095.216	2451.2
3098.423	2522.2
3101.627	2587.2
3104.828	2639.2
3108.026	2683.2
3111.222	2726.2
3114.416	2816.2
3117.607	2887.2
3120.795	2937.2
3123.98	2968.2
3127.163	3094.2
3130.344	3151.2
3133.521	3220.2
3136.696	3289.2
3139.869	3385.2
3143.039	3430.2
3146.206	3480.2
3149.371	3527.2
3152.533	3543.2
3155.693	3590.2
3158.85	3593.2
3162.005	3606.2
3165.157	3604.2
3168.306	3660.2
3171.453	3649.2
3174.597	3648.2
3177.739	3644.2
3180.878	3682.2
3184.014	3672.2
3187.149	3658.2
3190.28	3673.2
3193.409	3668.2
3196.536	3671.2
3199.659	3710.2
3202.781	3686.2
3205.9	3713.2
3209.016	3700.2
3212.13	3680.2
3215.241	3647.2
3218.35	3617.2
3221.456	3579.2
3224.56	3543.2
3227.661	3456.2
3230.76	3425.2
3233.856	3418.2
3236.95	3372.2
3240.041	3320.2
3243.13	3310.2
3246.216	3289.2
3249.3	3285.2
3252.382	3259.2
3255.46	3262.2
3258.537	3255.2
3261.611	3242.2
3264.682	3240.2
3267.751	3239.2
3270.818	3228.2
3273.882	3228.2
3276.943	3192.2
3280.002	3162.2
3283.059	3173.2
3286.113	3119.2
3289.165	3077.2
3292.214	3053.2
3295.261	2968.2
3298.306	2962.2
3301.348	2910.2
3304.387	2839.2
3307.425	2819.2
3310.459	2763.2
3313.492	2745.2
3316.521	2699.2
3319.549	2663.2
3322.574	2628.2
3325.597	2617.2
3328.617	2574.2
3331.635	2602.2
3334.65	2547.2
3337.663	2546.2
3340.674	2499.2
3343.682	2532.2
3346.688	2519.2
3349.691	2506.2
3352.692	2488.2
3355.691	2461.2
3358.687	2473.2
3361.681	2442.2
3364.673	2406.2
3367.662	2383.2
3370.649	2328.2
3373.633	2290.2
3376.615	2268.2
3379.595	2229.2
3382.572	2213.2
3385.547	2182.2
3388.52	2136.2
3391.49	2113.2
3394.458	2077.2
3397.424	2046.2
3400.387	2009.2
3403.348	1990.2
3406.307	1963.2
3409.263	1949.2
3412.217	1919.2
3415.168	1883.2
3418.118	1866.2
3421.065	1830.2
3424.009	1825.2
3426.951	1778.2
3429.891	1748.2
3432.829	1708.2
3435.764	1681.2
3438.697	1616.2
3441.628	1584.2
3444.557	1524.2
3447.483	1470.2
3450.407	1462.2
3453.328	1396.2
3456.247	1340.2
3459.164	1312.2
3462.079	1243.2
3464.991	1206.2
3467.902	1155.2
3470.809	1110.2
3473.715	1063.2
3476.618	1022.2
3479.519	978.2
3482.418	955.2
3485.315	904.2
3488.209	887.2
3491.101	858.2
3493.99	829.2
3496.878	796.2
3499.763	762.2
3502.646	731.2
3505.527	704.2
3508.405	651.2
3511.281	618.2
3514.155	566.2
3517.027	542.2
3519.897	504.2
3522.764	462.2
3525.629	429.2
3528.492	379.2
3531.352	343.2
3534.211	317.2
3537.067	279.2
3539.921	257.2
3542.773	224.2
3545.622	194.2
3548.469	170.2
3551.315	138.2
3554.157	116.2
3556.998	84.2
3559.837	62.2
3562.673	46.2
3565.507	24.2
3568.339	4.2
3571.169	-17.8
3573.996	-27.8
3576.822	-45.8
3579.645	-71.8
3582.466	-88.8
3585.285	-102.8
3588.101	-132.8
3590.916	-144.8
3593.728	-167.8
3596.538	-167.8
3599.346	-193.8
3602.152	-205.8
3604.956	-221.8
3607.757	-238.8
3610.556	-246.8
3613.354	-253.8
3616.149	-267.8
3618.942	-291.8
3621.732	-289.8
3624.521	-311.8
3627.307	-316.8
3630.092	-331.8
3632.874	-336.8
3635.654	-350.8
3638.432	-346.8
3641.208	-360.8
3643.982	-369.8
3646.753	-379.8
3649.523	-387.8
3652.29	-397.8
3655.055	-402.8
3657.818	-415.8
3660.579	-418.8
3663.338	-433.8
3666.095	-438.8
3668.849	-452.8
3671.602	-456.8
3674.352	-463.8
3677.101	-462.8
3679.847	-479.8
3682.591	-476.8
3685.333	-489.8
3688.073	-488.8
3690.811	-493.8
3693.547	-496.8
3696.281	-504.8
3699.013	-504.8
3701.742	-510.8
3704.47	-513.8
3707.195	-519.8
3709.919	-523.8
3712.64	-529.8
3715.359	-530.8
3718.076	-537.8
3720.792	-542.8
3723.505	-536.8
3726.216	-544.8
3728.925	-548.8
3731.632	-555.8
3734.336	-555.8
3737.039	-553.8
3739.74	-554.8
3742.439	-561.8
3745.136	-565.8
3747.83	-574.8
3750.523	-561.8
3753.213	-566.8
3755.902	-569.8
3758.589	-569.8
3761.273	-574.8
3763.956	-576.8
3766.636	-581.8
3769.315	-582.8
3771.991	-582.8
3774.665	-582.8
3777.338	-578.8
3780.008	-585.8
3782.677	-584.8
3785.343	-581.8
3788.007	-583.8
3790.67	-591.8
3793.33	-589.8
3795.989	-592.8
3798.645	-588.8
3801.299	-591.8
3803.952	-600.8
3806.602	-602.8
3809.251	-595.8
3811.897	-600.8
3814.542	-596.8
3817.184	-601.8
3819.825	-594.8
3822.463	-592.8
3825.1	-603.8
3827.735	-596.8
3830.367	-597.8
3832.998	-605.8
3835.627	-607.8
3838.253	-605.8
3840.878	-610.8
3843.501	-608.8
3846.122	-604.8
3848.741	-603.8
3851.358	-604.8
3853.973	-605.8
3856.586	-610.8
3859.197	-617.8
3861.806	-615.8
3864.414	-615.8
3867.019	-608.8
3869.622	-616.8
3872.224	-603.8
3874.823	-591.8
3877.421	-584.8
3880.016	-563.8
3882.61	-544.8
3885.202	-540.8
3887.792	-549.8
3890.38	-586.8
3892.966	-599.8
3895.55	-606.8
3898.132	-624.8
3900.713	-627.8
3903.291	-620.8
3905.868	-620.8
3908.442	-622.8
3911.015	-623.8
3913.586	-618.8
3916.155	-619.8
3918.722	-625.8
3921.287	-626.8
3923.85	-634.8
3926.411	-625.8
3928.971	-632.8
3931.528	-624.8
3934.084	-623.8
3936.638	-622.8
3939.19	-619.8
3941.74	-624.8
3944.288	-628.8
3946.834	-621.8
3949.378	-623.8
3951.921	-623.8
3954.462	-630.8
3957	-625.8
3959.537	-623.8
3962.072	-620.8
3964.606	-629.8
3967.137	-624.8
3969.667	-623.8
3972.194	-618.8
3974.72	-628.8
3977.244	-613.8
3979.766	-611.8
3982.286	-617.8
3984.805	-616.8
3987.321	-614.8
3989.836	-614.8
3992.349	-605.8
3994.86	-605.8
3997.369	-618.8
3999.877	-604.8
4002.382	-608.8
4004.886	-605.8
4007.388	-608.8
4009.888	-607.8
4012.386	-611.8
4014.883	-609.8
4017.377	-606.8
4019.87	-605.8
4022.361	-608.8
4024.85	-609.8
4027.338	-614.8
4029.823	-613.8
4032.307	-619.8
4034.789	-611.8
4037.269	-612.8
4039.747	-613.8
4042.224	-617.8
4044.699	-613.8
4047.172	-612.8
4049.643	-608.8
4052.112	-617.8
4054.58	-617.8
4057.046	-611.8
4059.51	-616.8
4061.972	-614.8
4064.432	-617.8
4066.891	-613.8
4069.348	-614.8
4071.803	-608.8
4074.256	-604.8
4076.708	-608.8
4079.158	-615.8
4081.606	-616.8
4084.052	-617.8
4086.497	-617.8
4088.939	-613.8
4091.38	-609.8
4093.819	-604.8
4096.257	-644.8
4098.693	-642.8
4101.127	-647.8
4103.559	-643.8
4105.989	-371.8
4108.418	-348.8
4110.845	-326.8
4113.27	-304.8
4115.694	-276.8
4118.115	-224.8
4120.535	-613.8
4122.954	-615.8
4125.37	-605.8
4127.785	-618.8
4130.198	-617.8
4132.609	-619.8
4135.019	-647.8
4137.427	-643.8
4139.833	-645.8
4142.237	-642.8
