Data from 2018-2-14_conc=4_n=6_RamanShift_04.txt Node
Date: Wed Feb 14 13:44:55 IST 2018
User: aro
Spectrometer: QEPB0276
Trigger mode: 0
Integration Time (sec): 3.000000E1
Scans to average: 1
Electric dark correction enabled: true
Nonlinearity correction enabled: false
Boxcar width: 0
XAxis mode: Raman Shifts
Number of Pixels in Spectrum: 1044
>>>>>Begin Spectral Data<<<<<
160.701	-146.4
166.742	50.6
172.777	565.6
178.805	2214.6
184.826	6164.6
190.841	12965.6
196.849	20750.6
202.85	26234.6
208.845	27994.6
214.833	27675.6
220.815	27212.6
226.789	27083.6
232.758	26945.6
238.719	26782.6
244.674	26408.6
250.623	25940.6
256.565	25479.6
262.5	24905.6
268.429	24496.6
274.351	24119.6
280.267	23826.6
286.176	23568.6
292.079	23326.6
297.975	23142.6
303.865	23000.6
309.748	22826.6
315.625	22692.6
321.495	22531.6
327.359	22499.6
333.217	22396.6
339.068	22432.6
344.912	22380.6
350.751	22309.6
356.583	22341.6
362.408	22289.6
368.227	22293.6
374.04	22341.6
379.847	22332.6
385.647	22488.6
391.44	22475.6
397.228	22632.6
403.009	22763.6
408.784	22750.6
414.553	22845.6
420.315	22921.6
426.071	22844.6
431.821	22893.6
437.565	22858.6
443.302	22869.6
449.033	22824.6
454.758	22801.6
460.477	22668.6
466.189	22684.6
471.896	22682.6
477.596	22608.6
483.29	22551.6
488.978	22501.6
494.66	22409.6
500.335	22326.6
506.005	22095.6
511.668	21783.6
517.325	21564.6
522.977	21476.6
528.622	21248.6
534.261	21166.6
539.894	21029.6
545.521	20949.6
551.141	20859.6
556.756	20786.6
562.365	20712.6
567.968	20639.6
573.565	20644.6
579.155	20493.6
584.74	20435.6
590.319	20352.6
595.892	20331.6
601.459	20147.6
607.02	20137.6
612.575	20027.6
618.124	19876.6
623.667	19757.6
629.204	19688.6
634.735	19606.6
640.261	19481.6
645.781	19410.6
651.294	19418.6
656.802	19406.6
662.304	19336.6
667.8	19332.6
673.29	19267.6
678.775	19226.6
684.254	19176.6
689.726	19116.6
695.193	19025.6
700.655	19027.6
706.11	18910.6
711.56	18771.6
717.004	18675.6
722.442	18544.6
727.874	18581.6
733.301	18540.6
738.722	18429.6
744.137	18399.6
749.547	18396.6
754.951	18404.6
760.349	18352.6
765.741	18427.6
771.128	18465.6
776.509	18509.6
781.885	18390.6
787.254	18430.6
792.618	18332.6
797.977	18234.6
803.33	18114.6
808.677	17964.6
814.019	17903.6
819.355	17787.6
824.686	17782.6
830.011	17656.6
835.33	17676.6
840.644	17702.6
845.952	17779.6
851.255	17807.6
856.552	17813.6
861.844	17721.6
867.13	17692.6
872.41	17585.6
877.686	17618.6
882.955	17383.6
888.219	17267.6
893.478	17087.6
898.731	16869.6
903.979	16712.6
909.221	16617.6
914.458	16567.6
919.69	16573.6
924.916	16536.6
930.136	16604.6
935.351	16674.6
940.561	16667.6
945.766	16626.6
950.965	16554.6
956.158	16444.6
961.347	16276.6
966.529	16069.6
971.707	15847.6
976.879	15698.6
982.046	15597.6
987.208	15477.6
992.364	15498.6
997.515	15620.6
1002.66	15743.6
1007.801	15891.6
1012.936	16011.6
1018.066	16042.6
1023.19	16029.6
1028.309	16047.6
1033.423	15997.6
1038.532	15928.6
1043.636	15779.6
1048.734	15592.6
1053.827	15378.6
1058.915	15267.6
1063.998	15144.6
1069.075	15088.6
1074.147	15070.6
1079.214	15200.6
1084.276	15211.6
1089.333	15292.6
1094.385	15363.6
1099.431	15441.6
1104.472	15438.6
1109.509	15378.6
1114.54	15198.6
1119.565	15026.6
1124.586	14785.6
1129.602	14661.6
1134.613	14555.6
1139.618	14439.6
1144.619	14448.6
1149.614	14400.6
1154.604	14484.6
1159.589	14495.6
1164.57	14581.6
1169.545	14569.6
1174.515	14574.6
1179.48	14493.6
1184.44	14343.6
1189.395	14302.6
1194.345	14211.6
1199.29	14148.6
1204.23	14096.6
1209.165	14150.6
1214.095	14237.6
1219.021	14344.6
1223.941	14367.6
1228.856	14425.6
1233.766	14439.6
1238.672	14450.6
1243.572	14518.6
1248.467	14389.6
1253.358	14230.6
1258.244	14032.6
1263.124	13869.6
1268	13612.6
1272.871	13455.6
1277.737	13384.6
1282.599	13298.6
1287.455	13307.6
1292.306	13296.6
1297.153	13421.6
1301.995	13444.6
1306.832	13491.6
1311.664	13540.6
1316.491	13515.6
1321.314	13345.6
1326.132	13150.6
1330.945	12858.6
1335.753	12551.6
1340.556	12221.6
1345.354	11922.6
1350.148	11742.6
1354.937	11599.6
1359.722	11603.6
1364.501	11684.6
1369.276	11848.6
1374.046	12031.6
1378.811	12271.6
1383.572	12443.6
1388.327	12537.6
1393.079	12414.6
1397.825	12235.6
1402.567	12089.6
1407.304	11885.6
1412.036	11798.6
1416.764	11624.6
1421.487	11617.6
1426.205	11541.6
1430.919	11498.6
1435.628	11521.6
1440.333	11525.6
1445.032	11519.6
1449.727	11547.6
1454.418	11539.6
1459.104	11416.6
1463.785	11177.6
1468.462	10949.6
1473.134	10743.6
1477.802	10477.6
1482.465	10335.6
1487.123	10196.6
1491.777	10188.6
1496.426	10265.6
1501.071	10366.6
1505.711	10572.6
1510.347	10770.6
1514.978	10943.6
1519.604	11117.6
1524.226	11242.6
1528.844	11277.6
1533.457	11253.6
1538.065	11262.6
1542.669	11150.6
1547.269	11024.6
1551.864	10974.6
1556.454	10887.6
1561.041	10833.6
1565.622	10850.6
1570.199	10883.6
1574.772	10978.6
1579.34	11013.6
1583.904	11079.6
1588.464	11218.6
1593.019	11098.6
1597.569	11013.6
1602.115	10975.6
1606.657	10861.6
1611.195	10841.6
1615.728	10737.6
1620.256	10664.6
1624.78	10683.6
1629.3	10695.6
1633.816	10737.6
1638.327	10745.6
1642.834	10790.6
1647.336	10809.6
1651.834	10887.6
1656.328	10860.6
1660.817	10798.6
1665.302	10656.6
1669.783	10527.6
1674.259	10312.6
1678.732	9987.6
1683.199	9673.6
1687.663	9308.6
1692.122	9025.6
1696.577	8896.6
1701.028	8886.6
1705.474	9001.6
1709.917	9150.6
1714.355	9218.6
1718.788	9211.6
1723.218	9050.6
1727.643	8835.6
1732.064	8692.6
1736.481	8513.6
1740.893	8273.6
1745.301	8093.6
1749.705	7850.6
1754.105	7630.6
1758.501	7380.6
1762.893	7168.6
1767.28	6997.6
1771.663	6856.6
1776.042	6731.6
1780.417	6656.6
1784.787	6670.6
1789.154	6759.6
1793.516	6884.6
1797.874	7020.6
1802.228	7175.6
1806.578	7255.6
1810.924	7313.6
1815.266	7176.6
1819.603	7091.6
1823.937	6998.6
1828.266	6859.6
1832.591	6779.6
1836.913	6644.6
1841.23	6567.6
1845.543	6552.6
1849.852	6495.6
1854.156	6458.6
1858.457	6425.6
1862.754	6442.6
1867.047	6446.6
1871.335	6442.6
1875.62	6438.6
1879.9	6438.6
1884.177	6333.6
1888.449	6284.6
1892.718	6234.6
1896.982	6137.6
1901.243	6121.6
1905.499	6060.6
1909.752	6030.6
1914	6047.6
1918.245	6085.6
1922.485	6161.6
1926.722	6189.6
1930.954	6287.6
1935.183	6337.6
1939.408	6445.6
1943.628	6462.6
1947.845	6492.6
1952.058	6456.6
1956.267	6386.6
1960.472	6353.6
1964.673	6213.6
1968.87	6170.6
1973.063	6065.6
1977.252	5964.6
1981.438	5876.6
1985.619	5847.6
1989.797	5772.6
1993.971	5743.6
1998.14	5714.6
2002.306	5675.6
2006.469	5634.6
2010.627	5645.6
2014.781	5593.6
2018.932	5536.6
2023.078	5462.6
2027.221	5413.6
2031.36	5316.6
2035.495	5230.6
2039.627	5146.6
2043.754	5093.6
2047.878	5034.6
2051.998	5013.6
2056.114	5002.6
2060.226	4967.6
2064.334	5017.6
2068.439	5007.6
2072.54	5038.6
2076.637	5067.6
2080.73	5126.6
2084.82	5134.6
2088.906	5155.6
2092.988	5192.6
2097.066	5141.6
2101.14	5120.6
2105.211	5087.6
2109.278	5090.6
2113.342	5040.6
2117.401	4999.6
2121.457	4976.6
2125.509	4978.6
2129.558	4957.6
2133.602	4890.6
2137.643	4846.6
2141.681	4865.6
2145.714	4824.6
2149.744	4777.6
2153.77	4758.6
2157.793	4707.6
2161.812	4627.6
2165.827	4592.6
2169.838	4499.6
2173.846	4433.6
2177.851	4376.6
2181.851	4303.6
2185.848	4242.6
2189.841	4165.6
2193.831	4161.6
2197.817	4104.6
2201.799	4098.6
2205.778	4070.6
2209.753	4073.6
2213.725	4060.6
2217.693	4032.6
2221.657	4004.6
2225.618	4034.6
2229.575	3987.6
2233.529	3960.6
2237.479	3935.6
2241.425	3885.6
2245.368	3853.6
2249.307	3759.6
2253.243	3702.6
2257.175	3678.6
2261.104	3597.6
2265.029	3582.6
2268.95	3534.6
2272.868	3514.6
2276.783	3464.6
2280.694	3424.6
2284.601	3398.6
2288.505	3370.6
2292.405	3321.6
2296.302	3302.6
2300.195	3273.6
2304.085	3256.6
2307.971	3196.6
2311.854	3131.6
2315.734	3109.6
2319.609	3041.6
2323.482	2998.6
2327.351	2971.6
2331.216	2959.6
2335.078	2947.6
2338.937	2913.6
2342.792	2909.6
2346.643	2932.6
2350.492	2886.6
2354.336	2907.6
2358.178	2916.6
2362.015	2914.6
2365.85	2924.6
2369.681	2932.6
2373.508	2920.6
2377.333	2918.6
2381.153	2909.6
2384.971	2899.6
2388.785	2859.6
2392.595	2847.6
2396.402	2853.6
2400.206	2795.6
2404.007	2769.6
2407.804	2774.6
2411.597	2755.6
2415.388	2727.6
2419.174	2715.6
2422.958	2702.6
2426.738	2670.6
2430.515	2660.6
2434.289	2644.6
2438.059	2600.6
2441.825	2592.6
2445.589	2563.6
2449.349	2528.6
2453.106	2514.6
2456.859	2471.6
2460.61	2435.6
2464.356	2434.6
2468.1	2388.6
2471.84	2357.6
2475.577	2361.6
2479.311	2334.6
2483.041	2315.6
2486.768	2318.6
2490.492	2288.6
2494.213	2313.6
2497.93	2272.6
2501.644	2263.6
2505.355	2248.6
2509.062	2260.6
2512.766	2245.6
2516.467	2238.6
2520.165	2206.6
2523.859	2194.6
2527.551	2186.6
2531.239	2166.6
2534.923	2167.6
2538.605	2148.6
2542.283	2130.6
2545.958	2124.6
2549.63	2145.6
2553.299	2158.6
2556.964	2163.6
2560.626	2119.6
2564.285	2123.6
2567.941	2095.6
2571.594	2086.6
2575.243	2065.6
2578.89	2053.6
2582.533	2048.6
2586.173	2046.6
2589.809	2025.6
2593.443	2014.6
2597.073	1995.6
2600.701	1957.6
2604.325	1944.6
2607.946	1923.6
2611.564	1929.6
2615.178	1931.6
2618.79	1905.6
2622.398	1871.6
2626.004	1868.6
2629.606	1841.6
2633.205	1813.6
2636.801	1803.6
2640.394	1769.6
2643.983	1727.6
2647.57	1706.6
2651.153	1694.6
2654.734	1661.6
2658.311	1615.6
2661.885	1598.6
2665.456	1606.6
2669.025	1582.6
2672.589	1570.6
2676.151	1548.6
2679.71	1519.6
2683.266	1504.6
2686.819	1491.6
2690.368	1445.6
2693.915	1434.6
2697.458	1396.6
2700.999	1338.6
2704.536	1319.6
2708.071	1318.6
2711.602	1266.6
2715.13	1226.6
2718.656	1219.6
2722.178	1183.6
2725.697	1176.6
2729.214	1166.6
2732.727	1154.6
2736.237	1138.6
2739.744	1131.6
2743.249	1140.6
2746.75	1150.6
2750.248	1140.6
2753.743	1161.6
2757.236	1185.6
2760.725	1214.6
2764.211	1224.6
2767.695	1214.6
2771.175	1232.6
2774.652	1213.6
2778.127	1207.6
2781.598	1195.6
2785.067	1193.6
2788.532	1196.6
2791.995	1187.6
2795.455	1175.6
2798.911	1180.6
2802.365	1185.6
2805.816	1185.6
2809.264	1173.6
2812.709	1175.6
2816.151	1161.6
2819.59	1176.6
2823.026	1187.6
2826.46	1171.6
2829.89	1184.6
2833.318	1182.6
2836.742	1170.6
2840.164	1199.6
2843.583	1185.6
2846.999	1190.6
2850.412	1195.6
2853.822	1220.6
2857.229	1237.6
2860.634	1270.6
2864.035	1269.6
2867.434	1305.6
2870.83	1312.6
2874.223	1340.6
2877.613	1346.6
2881	1370.6
2884.385	1354.6
2887.766	1376.6
2891.145	1369.6
2894.521	1361.6
2897.894	1361.6
2901.264	1368.6
2904.631	1352.6
2907.996	1352.6
2911.358	1373.6
2914.717	1366.6
2918.073	1371.6
2921.426	1387.6
2924.777	1405.6
2928.124	1409.6
2931.469	1454.6
2934.811	1439.6
2938.15	1453.6
2941.487	1498.6
2944.821	1500.6
2948.152	1493.6
2951.48	1478.6
2954.805	1461.6
2958.128	1458.6
2961.447	1430.6
2964.765	1424.6
2968.079	1439.6
2971.39	1447.6
2974.699	1456.6
2978.005	1488.6
2981.308	1522.6
2984.609	1538.6
2987.907	1558.6
2991.202	1610.6
2994.494	1631.6
2997.784	1651.6
3001.07	1695.6
3004.355	1715.6
3007.636	1747.6
3010.915	1766.6
3014.191	1772.6
3017.464	1771.6
3020.734	1793.6
3024.002	1798.6
3027.267	1818.6
3030.53	1821.6
3033.789	1847.6
3037.046	1860.6
3040.301	1875.6
3043.552	1889.6
3046.801	1953.6
3050.048	1984.6
3053.291	2056.6
3056.532	2083.6
3059.771	2162.6
3063.006	2206.6
3066.239	2258.6
3069.469	2322.6
3072.697	2377.6
3075.922	2445.6
3079.144	2502.6
3082.364	2551.6
3085.581	2614.6
3088.795	2671.6
3092.007	2716.6
3095.216	2782.6
3098.423	2803.6
3101.627	2884.6
3104.828	2956.6
3108.026	3004.6
3111.222	3075.6
3114.416	3148.6
3117.607	3246.6
3120.795	3296.6
3123.98	3368.6
3127.163	3466.6
3130.344	3541.6
3133.521	3623.6
3136.696	3675.6
3139.869	3780.6
3143.039	3843.6
3146.206	3865.6
3149.371	3927.6
3152.533	3969.6
3155.693	3962.6
3158.85	4002.6
3162.005	4025.6
3165.157	4056.6
3168.306	4061.6
3171.453	4066.6
3174.597	4085.6
3177.739	4060.6
3180.878	4083.6
3184.014	4085.6
3187.149	4064.6
3190.28	4077.6
3193.409	4079.6
3196.536	4119.6
3199.659	4085.6
3202.781	4083.6
3205.9	4126.6
3209.016	4064.6
3212.13	4093.6
3215.241	4046.6
3218.35	4045.6
3221.456	3976.6
3224.56	3965.6
3227.661	3888.6
3230.76	3853.6
3233.856	3817.6
3236.95	3759.6
3240.041	3746.6
3243.13	3725.6
3246.216	3696.6
3249.3	3695.6
3252.382	3690.6
3255.46	3668.6
3258.537	3646.6
3261.611	3685.6
3264.682	3696.6
3267.751	3655.6
3270.818	3657.6
3273.882	3628.6
3276.943	3644.6
3280.002	3603.6
3283.059	3540.6
3286.113	3528.6
3289.165	3444.6
3292.214	3416.6
3295.261	3368.6
3298.306	3319.6
3301.348	3272.6
3304.387	3197.6
3307.425	3150.6
3310.459	3087.6
3313.492	3030.6
3316.521	3000.6
3319.549	2976.6
3322.574	2953.6
3325.597	2904.6
3328.617	2885.6
3331.635	2862.6
3334.65	2851.6
3337.663	2838.6
3340.674	2825.6
3343.682	2820.6
3346.688	2791.6
3349.691	2791.6
3352.692	2785.6
3355.691	2737.6
3358.687	2734.6
3361.681	2695.6
3364.673	2668.6
3367.662	2621.6
3370.649	2559.6
3373.633	2542.6
3376.615	2528.6
3379.595	2460.6
3382.572	2457.6
3385.547	2413.6
3388.52	2365.6
3391.49	2318.6
3394.458	2288.6
3397.424	2255.6
3400.387	2226.6
3403.348	2209.6
3406.307	2182.6
3409.263	2164.6
3412.217	2128.6
3415.168	2109.6
3418.118	2069.6
3421.065	2069.6
3424.009	2032.6
3426.951	1988.6
3429.891	1952.6
3432.829	1926.6
3435.764	1875.6
3438.697	1846.6
3441.628	1791.6
3444.557	1714.6
3447.483	1665.6
3450.407	1617.6
3453.328	1571.6
3456.247	1513.6
3459.164	1462.6
3462.079	1416.6
3464.991	1355.6
3467.902	1309.6
3470.809	1261.6
3473.715	1239.6
3476.618	1168.6
3479.519	1133.6
3482.418	1116.6
3485.315	1075.6
3488.209	1035.6
3491.101	982.6
3493.99	965.6
3496.878	920.6
3499.763	894.6
3502.646	843.6
3505.527	806.6
3508.405	782.6
3511.281	728.6
3514.155	705.6
3517.027	663.6
3519.897	618.6
3522.764	571.6
3525.629	526.6
3528.492	489.6
3531.352	450.6
3534.211	402.6
3537.067	369.6
3539.921	337.6
3542.773	287.6
3545.622	266.6
3548.469	227.6
3551.315	207.6
3554.157	180.6
3556.998	143.6
3559.837	122.6
3562.673	107.6
3565.507	66.6
3568.339	59.6
3571.169	42.6
3573.996	14.6
3576.822	-4.4
3579.645	-21.4
3582.466	-37.4
3585.285	-75.4
3588.101	-87.4
3590.916	-109.4
3593.728	-142.4
3596.538	-148.4
3599.346	-165.4
3602.152	-186.4
3604.956	-197.4
3607.757	-215.4
3610.556	-233.4
3613.354	-245.4
3616.149	-255.4
3618.942	-275.4
3621.732	-280.4
3624.521	-299.4
3627.307	-314.4
3630.092	-313.4
3632.874	-318.4
3635.654	-335.4
3638.432	-336.4
3641.208	-352.4
3643.982	-365.4
3646.753	-374.4
3649.523	-384.4
3652.29	-395.4
3655.055	-396.4
3657.818	-414.4
3660.579	-423.4
3663.338	-442.4
3666.095	-439.4
3668.849	-458.4
3671.602	-454.4
3674.352	-467.4
3677.101	-475.4
3679.847	-482.4
3682.591	-485.4
3685.333	-490.4
3688.073	-489.4
3690.811	-500.4
3693.547	-504.4
3696.281	-513.4
3699.013	-516.4
3701.742	-527.4
3704.47	-524.4
3707.195	-538.4
3709.919	-531.4
3712.64	-538.4
3715.359	-546.4
3718.076	-545.4
3720.792	-551.4
3723.505	-552.4
3726.216	-559.4
3728.925	-554.4
3731.632	-562.4
3734.336	-573.4
3737.039	-565.4
3739.74	-569.4
3742.439	-574.4
3745.136	-572.4
3747.83	-579.4
3750.523	-578.4
3753.213	-562.4
3755.902	-585.4
3758.589	-584.4
3761.273	-582.4
3763.956	-590.4
3766.636	-593.4
3769.315	-596.4
3771.991	-596.4
3774.665	-603.4
3777.338	-595.4
3780.008	-606.4
3782.677	-602.4
3785.343	-602.4
3788.007	-610.4
3790.67	-605.4
3793.33	-611.4
3795.989	-608.4
3798.645	-607.4
3801.299	-611.4
3803.952	-616.4
3806.602	-618.4
3809.251	-624.4
3811.897	-619.4
3814.542	-616.4
3817.184	-618.4
3819.825	-609.4
3822.463	-611.4
3825.1	-621.4
3827.735	-618.4
3830.367	-616.4
3832.998	-622.4
3835.627	-622.4
3838.253	-630.4
3840.878	-629.4
3843.501	-632.4
3846.122	-624.4
3848.741	-628.4
3851.358	-629.4
3853.973	-625.4
3856.586	-629.4
3859.197	-629.4
3861.806	-632.4
3864.414	-629.4
3867.019	-622.4
3869.622	-630.4
3872.224	-617.4
3874.823	-608.4
3877.421	-598.4
3880.016	-584.4
3882.61	-572.4
3885.202	-570.4
3887.792	-577.4
3890.38	-604.4
3892.966	-620.4
3895.55	-631.4
3898.132	-645.4
3900.713	-646.4
3903.291	-641.4
3905.868	-642.4
3908.442	-645.4
3911.015	-647.4
3913.586	-638.4
3916.155	-637.4
3918.722	-645.4
3921.287	-643.4
3923.85	-650.4
3926.411	-646.4
3928.971	-652.4
3931.528	-646.4
3934.084	-647.4
3936.638	-645.4
3939.19	-646.4
3941.74	-645.4
3944.288	-650.4
3946.834	-647.4
3949.378	-649.4
3951.921	-645.4
3954.462	-654.4
3957	-644.4
3959.537	-650.4
3962.072	-644.4
3964.606	-648.4
3967.137	-649.4
3969.667	-654.4
3972.194	-639.4
3974.72	-651.4
3977.244	-636.4
3979.766	-634.4
3982.286	-632.4
3984.805	-633.4
3987.321	-633.4
3989.836	-637.4
3992.349	-628.4
3994.86	-625.4
3997.369	-641.4
3999.877	-630.4
4002.382	-630.4
4004.886	-628.4
4007.388	-632.4
4009.888	-628.4
4012.386	-634.4
4014.883	-633.4
4017.377	-629.4
4019.87	-629.4
4022.361	-633.4
4024.85	-631.4
4027.338	-638.4
4029.823	-634.4
4032.307	-636.4
4034.789	-637.4
4037.269	-630.4
4039.747	-634.4
4042.224	-641.4
4044.699	-639.4
4047.172	-632.4
4049.643	-631.4
4052.112	-636.4
4054.58	-638.4
4057.046	-631.4
4059.51	-639.4
4061.972	-639.4
4064.432	-636.4
4066.891	-633.4
4069.348	-635.4
4071.803	-637.4
4074.256	-633.4
4076.708	-635.4
4079.158	-637.4
4081.606	-634.4
4084.052	-642.4
4086.497	-638.4
4088.939	-632.4
4091.38	-636.4
4093.819	-632.4
4096.257	-664.4
4098.693	-671.4
4101.127	-671.4
4103.559	-669.4
4105.989	-386.4
4108.418	-362.4
4110.845	-345.4
4113.27	-311.4
4115.694	-274.4
4118.115	-232.4
4120.535	-629.4
4122.954	-631.4
4125.37	-627.4
4127.785	-638.4
4130.198	-634.4
4132.609	-638.4
4135.019	-674.4
4137.427	-669.4
4139.833	-671.4
4142.237	-669.4
