Data from 2018-2-14_conc=3_n=3_RamanShift_05.txt Node
Date: Wed Feb 14 11:50:26 IST 2018
User: aro
Spectrometer: QEPB0276
Trigger mode: 0
Integration Time (sec): 3.000000E1
Scans to average: 1
Electric dark correction enabled: true
Nonlinearity correction enabled: false
Boxcar width: 0
XAxis mode: Raman Shifts
Number of Pixels in Spectrum: 1044
>>>>>Begin Spectral Data<<<<<
160.701	-143
166.742	51
172.777	602
178.805	2270
184.826	6324
190.841	13330
196.849	21470
202.85	27286
208.845	29295
214.833	28906
220.815	28520
226.789	28303
232.758	28161
238.719	28004
244.674	27622
250.623	27208
256.565	26619
262.5	26152
268.429	25665
274.351	25270
280.267	24939
286.176	24709
292.079	24433
297.975	24243
303.865	23995
309.748	23847
315.625	23671
321.495	23589
327.359	23470
333.217	23472
339.068	23448
344.912	23397
350.751	23392
356.583	23389
362.408	23351
368.227	23328
374.04	23319
379.847	23394
385.647	23499
391.44	23621
397.228	23668
403.009	23742
408.784	23900
414.553	23913
420.315	23989
426.071	23993
431.821	24044
437.565	23990
443.302	23914
449.033	23898
454.758	23826
460.477	23859
466.189	23746
471.896	23705
477.596	23652
483.29	23616
488.978	23593
494.66	23529
500.335	23360
506.005	23088
511.668	22872
517.325	22615
522.977	22441
528.622	22186
534.261	22122
539.894	22015
545.521	21921
551.141	21833
556.756	21798
562.365	21670
567.968	21637
573.565	21570
579.155	21448
584.74	21464
590.319	21304
595.892	21246
601.459	21163
607.02	21045
612.575	20910
618.124	20793
623.667	20643
629.204	20630
634.735	20469
640.261	20407
645.781	20333
651.294	20302
656.802	20326
662.304	20249
667.8	20224
673.29	20155
678.775	20152
684.254	20066
689.726	20037
695.193	19934
700.655	19804
706.11	19705
711.56	19651
717.004	19581
722.442	19552
727.874	19361
733.301	19308
738.722	19285
744.137	19263
749.547	19252
754.951	19281
760.349	19292
765.741	19268
771.128	19256
776.509	19292
781.885	19286
787.254	19204
792.618	19188
797.977	18994
803.33	18935
808.677	18786
814.019	18708
819.355	18614
824.686	18478
830.011	18497
835.33	18451
840.644	18474
845.952	18488
851.255	18578
856.552	18579
861.844	18617
867.13	18496
872.41	18426
877.686	18348
882.955	18218
888.219	18046
893.478	17869
898.731	17613
903.979	17491
909.221	17397
914.458	17305
919.69	17244
924.916	17321
930.136	17378
935.351	17384
940.561	17383
945.766	17390
950.965	17281
956.158	17123
961.347	16971
966.529	16799
971.707	16574
976.879	16402
982.046	16263
987.208	16176
992.364	16205
997.515	16257
1002.66	16436
1007.801	16576
1012.936	16702
1018.066	16756
1023.19	16734
1028.309	16722
1033.423	16698
1038.532	16652
1043.636	16471
1048.734	16236
1053.827	16072
1058.915	15924
1063.998	15780
1069.075	15767
1074.147	15743
1079.214	15816
1084.276	15900
1089.333	16013
1094.385	16055
1099.431	16151
1104.472	16158
1109.509	16050
1114.54	15892
1119.565	15616
1124.586	15451
1129.602	15271
1134.613	15167
1139.618	15107
1144.619	15090
1149.614	15079
1154.604	15098
1159.589	15161
1164.57	15212
1169.545	15206
1174.515	15181
1179.48	15075
1184.44	15024
1189.395	14882
1194.345	14792
1199.29	14781
1204.23	14772
1209.165	14817
1214.095	14854
1219.021	14872
1223.941	15030
1228.856	15106
1233.766	15120
1238.672	15173
1243.572	15128
1248.467	15024
1253.358	14884
1258.244	14660
1263.124	14438
1268	14276
1272.871	14116
1277.737	13953
1282.599	13876
1287.455	13890
1292.306	13945
1297.153	14020
1301.995	14071
1306.832	14135
1311.664	14136
1316.491	14127
1321.314	13944
1326.132	13792
1330.945	13470
1335.753	13135
1340.556	12798
1345.354	12562
1350.148	12296
1354.937	12108
1359.722	12125
1364.501	12206
1369.276	12357
1374.046	12602
1378.811	12787
1383.572	12985
1388.327	13031
1393.079	12962
1397.825	12809
1402.567	12566
1407.304	12433
1412.036	12259
1416.764	12217
1421.487	12133
1426.205	12027
1430.919	11977
1435.628	12026
1440.333	12026
1445.032	12078
1449.727	12170
1454.418	12085
1459.104	11958
1463.785	11734
1468.462	11464
1473.134	11286
1477.802	11009
1482.465	10806
1487.123	10682
1491.777	10690
1496.426	10675
1501.071	10827
1505.711	10960
1510.347	11215
1514.978	11348
1519.604	11554
1524.226	11726
1528.844	11684
1533.457	11696
1538.065	11670
1542.669	11559
1547.269	11501
1551.864	11377
1556.454	11393
1561.041	11327
1565.622	11349
1570.199	11361
1574.772	11406
1579.34	11471
1583.904	11581
1588.464	11551
1593.019	11550
1597.569	11551
1602.115	11418
1606.657	11332
1611.195	11259
1615.728	11186
1620.256	11152
1624.78	11083
1629.3	11175
1633.816	11112
1638.327	11230
1642.834	11226
1647.336	11293
1651.834	11323
1656.328	11265
1660.817	11222
1665.302	11127
1669.783	10976
1674.259	10727
1678.732	10448
1683.199	10098
1687.663	9673
1692.122	9392
1696.577	9200
1701.028	9141
1705.474	9290
1709.917	9406
1714.355	9483
1718.788	9413
1723.218	9269
1727.643	9126
1732.064	8950
1736.481	8762
1740.893	8558
1745.301	8337
1749.705	8094
1754.105	7895
1758.501	7705
1762.893	7481
1767.28	7268
1771.663	7141
1776.042	6963
1780.417	6861
1784.787	6853
1789.154	6916
1793.516	7040
1797.874	7167
1802.228	7343
1806.578	7476
1810.924	7448
1815.266	7398
1819.603	7268
1823.937	7161
1828.266	7079
1832.591	6952
1836.913	6864
1841.23	6811
1845.543	6750
1849.852	6692
1854.156	6639
1858.457	6675
1862.754	6656
1867.047	6639
1871.335	6651
1875.62	6621
1879.9	6584
1884.177	6560
1888.449	6491
1892.718	6422
1896.982	6380
1901.243	6275
1905.499	6218
1909.752	6197
1914	6171
1918.245	6184
1922.485	6243
1926.722	6320
1930.954	6374
1935.183	6459
1939.408	6486
1943.628	6543
1947.845	6573
1952.058	6559
1956.267	6487
1960.472	6439
1964.673	6330
1968.87	6236
1973.063	6131
1977.252	6059
1981.438	5964
1985.619	5942
1989.797	5918
1993.971	5862
1998.14	5844
2002.306	5811
2006.469	5816
2010.627	5768
2014.781	5709
2018.932	5673
2023.078	5642
2027.221	5564
2031.36	5451
2035.495	5329
2039.627	5276
2043.754	5246
2047.878	5170
2051.998	5150
2056.114	5132
2060.226	5098
2064.334	5130
2068.439	5136
2072.54	5154
2076.637	5142
2080.73	5195
2084.82	5242
2088.906	5257
2092.988	5234
2097.066	5217
2101.14	5171
2105.211	5188
2109.278	5142
2113.342	5122
2117.401	5079
2121.457	5063
2125.509	5053
2129.558	5008
2133.602	5004
2137.643	4949
2141.681	4942
2145.714	4926
2149.744	4868
2153.77	4824
2157.793	4804
2161.812	4720
2165.827	4661
2169.838	4603
2173.846	4487
2177.851	4439
2181.851	4409
2185.848	4346
2189.841	4291
2193.831	4234
2197.817	4190
2201.799	4194
2205.778	4167
2209.753	4137
2213.725	4147
2217.693	4136
2221.657	4095
2225.618	4108
2229.575	4064
2233.529	4067
2237.479	4006
2241.425	3946
2245.368	3919
2249.307	3852
2253.243	3795
2257.175	3752
2261.104	3687
2265.029	3658
2268.95	3622
2272.868	3574
2276.783	3558
2280.694	3517
2284.601	3466
2288.505	3432
2292.405	3406
2296.302	3373
2300.195	3360
2304.085	3320
2307.971	3281
2311.854	3191
2315.734	3159
2319.609	3111
2323.482	3079
2327.351	3027
2331.216	3032
2335.078	3019
2338.937	2981
2342.792	2974
2346.643	2956
2350.492	2984
2354.336	2989
2358.178	2977
2362.015	2992
2365.85	2982
2369.681	2986
2373.508	3004
2377.333	3001
2381.153	2975
2384.971	2924
2388.785	2951
2392.595	2909
2396.402	2899
2400.206	2863
2404.007	2866
2407.804	2814
2411.597	2822
2415.388	2776
2419.174	2800
2422.958	2764
2426.738	2721
2430.515	2702
2434.289	2659
2438.059	2681
2441.825	2645
2445.589	2620
2449.349	2601
2453.106	2553
2456.859	2531
2460.61	2509
2464.356	2461
2468.1	2441
2471.84	2400
2475.577	2405
2479.311	2374
2483.041	2369
2486.768	2371
2490.492	2353
2494.213	2353
2497.93	2325
2501.644	2319
2505.355	2307
2509.062	2283
2512.766	2253
2516.467	2256
2520.165	2236
2523.859	2209
2527.551	2212
2531.239	2211
2534.923	2192
2538.605	2178
2542.283	2169
2545.958	2177
2549.63	2180
2553.299	2170
2556.964	2161
2560.626	2149
2564.285	2157
2567.941	2132
2571.594	2120
2575.243	2088
2578.89	2097
2582.533	2055
2586.173	2069
2589.809	2031
2593.443	2014
2597.073	1999
2600.701	1996
2604.325	1968
2607.946	1965
2611.564	1987
2615.178	1952
2618.79	1926
2622.398	1911
2626.004	1899
2629.606	1856
2633.205	1850
2636.801	1825
2640.394	1798
2643.983	1753
2647.57	1738
2651.153	1696
2654.734	1690
2658.311	1665
2661.885	1658
2665.456	1635
2669.025	1601
2672.589	1549
2676.151	1557
2679.71	1563
2683.266	1532
2686.819	1493
2690.368	1456
2693.915	1436
2697.458	1399
2700.999	1370
2704.536	1340
2708.071	1309
2711.602	1288
2715.13	1266
2718.656	1242
2722.178	1218
2725.697	1196
2729.214	1177
2732.727	1163
2736.237	1139
2739.744	1137
2743.249	1141
2746.75	1142
2750.248	1165
2753.743	1168
2757.236	1192
2760.725	1213
2764.211	1211
2767.695	1201
2771.175	1223
2774.652	1197
2778.127	1197
2781.598	1200
2785.067	1185
2788.532	1201
2791.995	1185
2795.455	1178
2798.911	1165
2802.365	1176
2805.816	1182
2809.264	1181
2812.709	1171
2816.151	1183
2819.59	1180
2823.026	1155
2826.46	1178
2829.89	1167
2833.318	1191
2836.742	1199
2840.164	1201
2843.583	1196
2846.999	1208
2850.412	1218
2853.822	1232
2857.229	1260
2860.634	1266
2864.035	1290
2867.434	1303
2870.83	1338
2874.223	1358
2877.613	1358
2881	1390
2884.385	1397
2887.766	1391
2891.145	1399
2894.521	1365
2897.894	1380
2901.264	1377
2904.631	1382
2907.996	1362
2911.358	1367
2914.717	1388
2918.073	1390
2921.426	1432
2924.777	1432
2928.124	1469
2931.469	1462
2934.811	1474
2938.15	1524
2941.487	1511
2944.821	1530
2948.152	1524
2951.48	1508
2954.805	1471
2958.128	1485
2961.447	1476
2964.765	1469
2968.079	1474
2971.39	1480
2974.699	1486
2978.005	1505
2981.308	1530
2984.609	1570
2987.907	1588
2991.202	1629
2994.494	1658
2997.784	1687
3001.07	1721
3004.355	1760
3007.636	1766
3010.915	1772
3014.191	1801
3017.464	1807
3020.734	1849
3024.002	1839
3027.267	1867
3030.53	1860
3033.789	1916
3037.046	1935
3040.301	1927
3043.552	1978
3046.801	2028
3050.048	2058
3053.291	2086
3056.532	2162
3059.771	2222
3063.006	2288
3066.239	2346
3069.469	2396
3072.697	2461
3075.922	2521
3079.144	2590
3082.364	2648
3085.581	2699
3088.795	2745
3092.007	2826
3095.216	2864
3098.423	2904
3101.627	2989
3104.828	3036
3108.026	3122
3111.222	3170
3114.416	3242
3117.607	3345
3120.795	3406
3123.98	3474
3127.163	3591
3130.344	3650
3133.521	3749
3136.696	3833
3139.869	3888
3143.039	3984
3146.206	4028
3149.371	4059
3152.533	4107
3155.693	4088
3158.85	4168
3162.005	4194
3165.157	4193
3168.306	4179
3171.453	4213
3174.597	4195
3177.739	4239
3180.878	4218
3184.014	4214
3187.149	4260
3190.28	4225
3193.409	4234
3196.536	4207
3199.659	4237
3202.781	4246
3205.9	4263
3209.016	4255
3212.13	4244
3215.241	4186
3218.35	4136
3221.456	4123
3224.56	4074
3227.661	4035
3230.76	3976
3233.856	3956
3236.95	3881
3240.041	3891
3243.13	3858
3246.216	3834
3249.3	3786
3252.382	3741
3255.46	3765
3258.537	3769
3261.611	3756
3264.682	3769
3267.751	3763
3270.818	3740
3273.882	3723
3276.943	3699
3280.002	3701
3283.059	3672
3286.113	3626
3289.165	3547
3292.214	3495
3295.261	3432
3298.306	3378
3301.348	3349
3304.387	3284
3307.425	3246
3310.459	3179
3313.492	3147
3316.521	3094
3319.549	3056
3322.574	3027
3325.597	3003
3328.617	2983
3331.635	2977
3334.65	2940
3337.663	2937
3340.674	2897
3343.682	2898
3346.688	2903
3349.691	2881
3352.692	2868
3355.691	2844
3358.687	2815
3361.681	2768
3364.673	2724
3367.662	2686
3370.649	2650
3373.633	2636
3376.615	2578
3379.595	2560
3382.572	2530
3385.547	2497
3388.52	2463
3391.49	2411
3394.458	2364
3397.424	2334
3400.387	2307
3403.348	2284
3406.307	2270
3409.263	2232
3412.217	2183
3415.168	2175
3418.118	2135
3421.065	2110
3424.009	2087
3426.951	2083
3429.891	2030
3432.829	1952
3435.764	1934
3438.697	1878
3441.628	1826
3444.557	1779
3447.483	1707
3450.407	1659
3453.328	1624
3456.247	1565
3459.164	1516
3462.079	1450
3464.991	1403
3467.902	1317
3470.809	1320
3473.715	1263
3476.618	1212
3479.519	1173
3482.418	1113
3485.315	1082
3488.209	1059
3491.101	1001
3493.99	970
3496.878	944
3499.763	898
3502.646	867
3505.527	820
3508.405	793
3511.281	757
3514.155	711
3517.027	658
3519.897	616
3522.764	564
3525.629	537
3528.492	487
3531.352	455
3534.211	410
3537.067	362
3539.921	342
3542.773	296
3545.622	256
3548.469	218
3551.315	206
3554.157	167
3556.998	141
3559.837	124
3562.673	107
3565.507	69
3568.339	41
3571.169	17
3573.996	12
3576.822	-16
3579.645	-18
3582.466	-61
3585.285	-78
3588.101	-96
3590.916	-117
3593.728	-148
3596.538	-155
3599.346	-174
3602.152	-200
3604.956	-213
3607.757	-234
3610.556	-242
3613.354	-259
3616.149	-271
3618.942	-289
3621.732	-296
3624.521	-314
3627.307	-329
3630.092	-335
3632.874	-340
3635.654	-349
3638.432	-350
3641.208	-368
3643.982	-382
3646.753	-380
3649.523	-396
3652.29	-400
3655.055	-408
3657.818	-422
3660.579	-444
3663.338	-451
3666.095	-452
3668.849	-470
3671.602	-480
3674.352	-488
3677.101	-495
3679.847	-502
3682.591	-506
3685.333	-512
3688.073	-516
3690.811	-527
3693.547	-523
3696.281	-538
3699.013	-537
3701.742	-543
3704.47	-546
3707.195	-557
3709.919	-560
3712.64	-562
3715.359	-561
3718.076	-572
3720.792	-573
3723.505	-576
3726.216	-583
3728.925	-586
3731.632	-589
3734.336	-589
3737.039	-596
3739.74	-595
3742.439	-596
3745.136	-595
3747.83	-604
3750.523	-601
3753.213	-592
3755.902	-604
3758.589	-610
3761.273	-612
3763.956	-615
3766.636	-618
3769.315	-623
3771.991	-622
3774.665	-626
3777.338	-621
3780.008	-620
3782.677	-624
3785.343	-623
3788.007	-628
3790.67	-633
3793.33	-628
3795.989	-629
3798.645	-630
3801.299	-630
3803.952	-639
3806.602	-642
3809.251	-643
3811.897	-637
3814.542	-638
3817.184	-639
3819.825	-634
3822.463	-633
3825.1	-644
3827.735	-633
3830.367	-641
3832.998	-649
3835.627	-651
3838.253	-649
3840.878	-654
3843.501	-651
3846.122	-643
3848.741	-650
3851.358	-648
3853.973	-648
3856.586	-650
3859.197	-652
3861.806	-656
3864.414	-650
3867.019	-649
3869.622	-651
3872.224	-649
3874.823	-630
3877.421	-614
3880.016	-608
3882.61	-590
3885.202	-584
3887.792	-601
3890.38	-627
3892.966	-646
3895.55	-656
3898.132	-674
3900.713	-672
3903.291	-660
3905.868	-668
3908.442	-664
3911.015	-672
3913.586	-661
3916.155	-663
3918.722	-665
3921.287	-665
3923.85	-671
3926.411	-667
3928.971	-681
3931.528	-673
3934.084	-671
3936.638	-666
3939.19	-671
3941.74	-673
3944.288	-678
3946.834	-671
3949.378	-676
3951.921	-673
3954.462	-681
3957	-672
3959.537	-673
3962.072	-665
3964.606	-671
3967.137	-673
3969.667	-675
3972.194	-661
3974.72	-666
3977.244	-652
3979.766	-658
3982.286	-663
3984.805	-656
3987.321	-652
3989.836	-663
3992.349	-655
3994.86	-651
3997.369	-665
3999.877	-651
4002.382	-654
4004.886	-655
4007.388	-658
4009.888	-655
4012.386	-657
4014.883	-655
4017.377	-655
4019.87	-650
4022.361	-650
4024.85	-649
4027.338	-655
4029.823	-655
4032.307	-657
4034.789	-653
4037.269	-658
4039.747	-655
4042.224	-658
4044.699	-659
4047.172	-653
4049.643	-655
4052.112	-661
4054.58	-660
4057.046	-664
4059.51	-665
4061.972	-665
4064.432	-661
4066.891	-658
4069.348	-659
4071.803	-654
4074.256	-654
4076.708	-649
4079.158	-658
4081.606	-661
4084.052	-660
4086.497	-660
4088.939	-655
4091.38	-654
4093.819	-651
4096.257	-694
4098.693	-692
4101.127	-698
4103.559	-691
4105.989	-389
4108.418	-367
4110.845	-338
4113.27	-309
4115.694	-279
4118.115	-238
4120.535	-659
4122.954	-658
4125.37	-651
4127.785	-657
4130.198	-659
4132.609	-663
4135.019	-695
4137.427	-698
4139.833	-696
4142.237	-691
