Data from 2018-2-14_conc=6_n=10_RamanShift_05.txt Node
Date: Wed Feb 14 15:17:55 IST 2018
User: aro
Spectrometer: QEPB0276
Trigger mode: 0
Integration Time (sec): 3.000000E1
Scans to average: 1
Electric dark correction enabled: true
Nonlinearity correction enabled: false
Boxcar width: 0
XAxis mode: Raman Shifts
Number of Pixels in Spectrum: 1044
>>>>>Begin Spectral Data<<<<<
160.701	-132.6
166.742	35.4
172.777	553.4
178.805	2066.4
184.826	5646.4
190.841	11823.4
196.849	18922.4
202.85	23960.4
208.845	25625.4
214.833	25383.4
220.815	24902.4
226.789	24912.4
232.758	24709.4
238.719	24555.4
244.674	24240.4
250.623	23758.4
256.565	23298.4
262.5	22856.4
268.429	22436.4
274.351	22145.4
280.267	21771.4
286.176	21625.4
292.079	21421.4
297.975	21222.4
303.865	21013.4
309.748	20923.4
315.625	20777.4
321.495	20653.4
327.359	20642.4
333.217	20604.4
339.068	20557.4
344.912	20541.4
350.751	20507.4
356.583	20502.4
362.408	20490.4
368.227	20486.4
374.04	20497.4
379.847	20553.4
385.647	20676.4
391.44	20722.4
397.228	20804.4
403.009	20903.4
408.784	20990.4
414.553	20968.4
420.315	21096.4
426.071	21079.4
431.821	21035.4
437.565	21102.4
443.302	21003.4
449.033	20977.4
454.758	20957.4
460.477	20877.4
466.189	20811.4
471.896	20761.4
477.596	20667.4
483.29	20633.4
488.978	20611.4
494.66	20538.4
500.335	20409.4
506.005	20090.4
511.668	19894.4
517.325	19560.4
522.977	19397.4
528.622	19236.4
534.261	19043.4
539.894	18989.4
545.521	18898.4
551.141	18819.4
556.756	18739.4
562.365	18642.4
567.968	18616.4
573.565	18471.4
579.155	18435.4
584.74	18353.4
590.319	18257.4
595.892	18213.4
601.459	18171.4
607.02	18051.4
612.575	17988.4
618.124	17861.4
623.667	17668.4
629.204	17624.4
634.735	17575.4
640.261	17482.4
645.781	17373.4
651.294	17349.4
656.802	17353.4
662.304	17305.4
667.8	17276.4
673.29	17239.4
678.775	17208.4
684.254	17148.4
689.726	17062.4
695.193	16982.4
700.655	16896.4
706.11	16857.4
711.56	16786.4
717.004	16653.4
722.442	16539.4
727.874	16527.4
733.301	16472.4
738.722	16415.4
744.137	16368.4
749.547	16379.4
754.951	16378.4
760.349	16401.4
765.741	16438.4
771.128	16400.4
776.509	16392.4
781.885	16413.4
787.254	16325.4
792.618	16279.4
797.977	16207.4
803.33	16042.4
808.677	15976.4
814.019	15868.4
819.355	15791.4
824.686	15710.4
830.011	15650.4
835.33	15676.4
840.644	15642.4
845.952	15687.4
851.255	15719.4
856.552	15734.4
861.844	15675.4
867.13	15597.4
872.41	15623.4
877.686	15468.4
882.955	15333.4
888.219	15228.4
893.478	15057.4
898.731	14854.4
903.979	14726.4
909.221	14626.4
914.458	14561.4
919.69	14539.4
924.916	14623.4
930.136	14601.4
935.351	14624.4
940.561	14590.4
945.766	14578.4
950.965	14489.4
956.158	14391.4
961.347	14228.4
966.529	14102.4
971.707	13904.4
976.879	13706.4
982.046	13601.4
987.208	13596.4
992.364	13584.4
997.515	13608.4
1002.66	13780.4
1007.801	13878.4
1012.936	14031.4
1018.066	14031.4
1023.19	13983.4
1028.309	13993.4
1033.423	13909.4
1038.532	13865.4
1043.636	13727.4
1048.734	13580.4
1053.827	13453.4
1058.915	13220.4
1063.998	13143.4
1069.075	13126.4
1074.147	13145.4
1079.214	13146.4
1084.276	13218.4
1089.333	13338.4
1094.385	13409.4
1099.431	13462.4
1104.472	13458.4
1109.509	13332.4
1114.54	13161.4
1119.565	13036.4
1124.586	12802.4
1129.602	12738.4
1134.613	12574.4
1139.618	12511.4
1144.619	12483.4
1149.614	12493.4
1154.604	12483.4
1159.589	12542.4
1164.57	12568.4
1169.545	12603.4
1174.515	12551.4
1179.48	12500.4
1184.44	12417.4
1189.395	12350.4
1194.345	12262.4
1199.29	12184.4
1204.23	12179.4
1209.165	12256.4
1214.095	12247.4
1219.021	12301.4
1223.941	12392.4
1228.856	12509.4
1233.766	12527.4
1238.672	12527.4
1243.572	12509.4
1248.467	12410.4
1253.358	12295.4
1258.244	12114.4
1263.124	11877.4
1268	11720.4
1272.871	11549.4
1277.737	11448.4
1282.599	11398.4
1287.455	11434.4
1292.306	11409.4
1297.153	11427.4
1301.995	11469.4
1306.832	11528.4
1311.664	11502.4
1316.491	11518.4
1321.314	11405.4
1326.132	11225.4
1330.945	11002.4
1335.753	10768.4
1340.556	10534.4
1345.354	10301.4
1350.148	10182.4
1354.937	10076.4
1359.722	10054.4
1364.501	10047.4
1369.276	10132.4
1374.046	10244.4
1378.811	10294.4
1383.572	10383.4
1388.327	10440.4
1393.079	10379.4
1397.825	10256.4
1402.567	10161.4
1407.304	9976.4
1412.036	9956.4
1416.764	9872.4
1421.487	9835.4
1426.205	9747.4
1430.919	9734.4
1435.628	9734.4
1440.333	9728.4
1445.032	9766.4
1449.727	9797.4
1454.418	9772.4
1459.104	9697.4
1463.785	9558.4
1468.462	9306.4
1473.134	9118.4
1477.802	8973.4
1482.465	8792.4
1487.123	8675.4
1491.777	8670.4
1496.426	8712.4
1501.071	8732.4
1505.711	8879.4
1510.347	9000.4
1514.978	9143.4
1519.604	9245.4
1524.226	9349.4
1528.844	9317.4
1533.457	9303.4
1538.065	9234.4
1542.669	9242.4
1547.269	9108.4
1551.864	9160.4
1556.454	9073.4
1561.041	9074.4
1565.622	9061.4
1570.199	9070.4
1574.772	9122.4
1579.34	9223.4
1583.904	9205.4
1588.464	9273.4
1593.019	9293.4
1597.569	9239.4
1602.115	9188.4
1606.657	9188.4
1611.195	9112.4
1615.728	9034.4
1620.256	9010.4
1624.78	8998.4
1629.3	9016.4
1633.816	9021.4
1638.327	9119.4
1642.834	9133.4
1647.336	9154.4
1651.834	9144.4
1656.328	9152.4
1660.817	9086.4
1665.302	8982.4
1669.783	8832.4
1674.259	8615.4
1678.732	8406.4
1683.199	8124.4
1687.663	7852.4
1692.122	7657.4
1696.577	7526.4
1701.028	7440.4
1705.474	7412.4
1709.917	7430.4
1714.355	7442.4
1718.788	7391.4
1723.218	7267.4
1727.643	7167.4
1732.064	7075.4
1736.481	6932.4
1740.893	6741.4
1745.301	6526.4
1749.705	6381.4
1754.105	6178.4
1758.501	6034.4
1762.893	5851.4
1767.28	5738.4
1771.663	5568.4
1776.042	5518.4
1780.417	5475.4
1784.787	5496.4
1789.154	5507.4
1793.516	5566.4
1797.874	5681.4
1802.228	5705.4
1806.578	5772.4
1810.924	5772.4
1815.266	5682.4
1819.603	5614.4
1823.937	5556.4
1828.266	5466.4
1832.591	5403.4
1836.913	5328.4
1841.23	5278.4
1845.543	5260.4
1849.852	5236.4
1854.156	5217.4
1858.457	5174.4
1862.754	5160.4
1867.047	5176.4
1871.335	5182.4
1875.62	5170.4
1879.9	5179.4
1884.177	5102.4
1888.449	5070.4
1892.718	5001.4
1896.982	4940.4
1901.243	4904.4
1905.499	4892.4
1909.752	4862.4
1914	4861.4
1918.245	4861.4
1922.485	4912.4
1926.722	4944.4
1930.954	4988.4
1935.183	5050.4
1939.408	5120.4
1943.628	5110.4
1947.845	5122.4
1952.058	5100.4
1956.267	5037.4
1960.472	4976.4
1964.673	4916.4
1968.87	4826.4
1973.063	4755.4
1977.252	4698.4
1981.438	4635.4
1985.619	4590.4
1989.797	4576.4
1993.971	4520.4
1998.14	4516.4
2002.306	4527.4
2006.469	4469.4
2010.627	4499.4
2014.781	4442.4
2018.932	4423.4
2023.078	4351.4
2027.221	4283.4
2031.36	4228.4
2035.495	4173.4
2039.627	4085.4
2043.754	4022.4
2047.878	4008.4
2051.998	3972.4
2056.114	3992.4
2060.226	3974.4
2064.334	3976.4
2068.439	3964.4
2072.54	4012.4
2076.637	4026.4
2080.73	4050.4
2084.82	4066.4
2088.906	4089.4
2092.988	4064.4
2097.066	4090.4
2101.14	4041.4
2105.211	4002.4
2109.278	3973.4
2113.342	3952.4
2117.401	3915.4
2121.457	3889.4
2125.509	3884.4
2129.558	3869.4
2133.602	3844.4
2137.643	3828.4
2141.681	3802.4
2145.714	3773.4
2149.744	3760.4
2153.77	3735.4
2157.793	3697.4
2161.812	3651.4
2165.827	3591.4
2169.838	3519.4
2173.846	3494.4
2177.851	3418.4
2181.851	3343.4
2185.848	3312.4
2189.841	3283.4
2193.831	3259.4
2197.817	3207.4
2201.799	3209.4
2205.778	3174.4
2209.753	3177.4
2213.725	3176.4
2217.693	3166.4
2221.657	3135.4
2225.618	3146.4
2229.575	3109.4
2233.529	3094.4
2237.479	3070.4
2241.425	3036.4
2245.368	2964.4
2249.307	2921.4
2253.243	2902.4
2257.175	2848.4
2261.104	2815.4
2265.029	2784.4
2268.95	2764.4
2272.868	2723.4
2276.783	2691.4
2280.694	2657.4
2284.601	2641.4
2288.505	2598.4
2292.405	2578.4
2296.302	2576.4
2300.195	2527.4
2304.085	2512.4
2307.971	2468.4
2311.854	2428.4
2315.734	2367.4
2319.609	2373.4
2323.482	2301.4
2327.351	2305.4
2331.216	2273.4
2335.078	2270.4
2338.937	2252.4
2342.792	2240.4
2346.643	2222.4
2350.492	2243.4
2354.336	2225.4
2358.178	2213.4
2362.015	2248.4
2365.85	2248.4
2369.681	2235.4
2373.508	2259.4
2377.333	2251.4
2381.153	2236.4
2384.971	2229.4
2388.785	2203.4
2392.595	2164.4
2396.402	2171.4
2400.206	2155.4
2404.007	2137.4
2407.804	2125.4
2411.597	2091.4
2415.388	2081.4
2419.174	2080.4
2422.958	2049.4
2426.738	2055.4
2430.515	2023.4
2434.289	1994.4
2438.059	2006.4
2441.825	1942.4
2445.589	1966.4
2449.349	1939.4
2453.106	1921.4
2456.859	1846.4
2460.61	1863.4
2464.356	1848.4
2468.1	1796.4
2471.84	1767.4
2475.577	1772.4
2479.311	1747.4
2483.041	1752.4
2486.768	1729.4
2490.492	1729.4
2494.213	1735.4
2497.93	1715.4
2501.644	1691.4
2505.355	1702.4
2509.062	1690.4
2512.766	1670.4
2516.467	1682.4
2520.165	1666.4
2523.859	1641.4
2527.551	1622.4
2531.239	1607.4
2534.923	1628.4
2538.605	1596.4
2542.283	1605.4
2545.958	1606.4
2549.63	1599.4
2553.299	1604.4
2556.964	1561.4
2560.626	1590.4
2564.285	1559.4
2567.941	1559.4
2571.594	1564.4
2575.243	1540.4
2578.89	1516.4
2582.533	1506.4
2586.173	1491.4
2589.809	1477.4
2593.443	1492.4
2597.073	1444.4
2600.701	1434.4
2604.325	1440.4
2607.946	1422.4
2611.564	1403.4
2615.178	1409.4
2618.79	1390.4
2622.398	1371.4
2626.004	1375.4
2629.606	1343.4
2633.205	1318.4
2636.801	1306.4
2640.394	1309.4
2643.983	1253.4
2647.57	1240.4
2651.153	1229.4
2654.734	1198.4
2658.311	1170.4
2661.885	1166.4
2665.456	1148.4
2669.025	1126.4
2672.589	1113.4
2676.151	1116.4
2679.71	1088.4
2683.266	1065.4
2686.819	1046.4
2690.368	1037.4
2693.915	1017.4
2697.458	968.4
2700.999	958.4
2704.536	946.4
2708.071	921.4
2711.602	895.4
2715.13	876.4
2718.656	865.4
2722.178	835.4
2725.697	855.4
2729.214	826.4
2732.727	820.4
2736.237	820.4
2739.744	797.4
2743.249	842.4
2746.75	842.4
2750.248	823.4
2753.743	823.4
2757.236	830.4
2760.725	849.4
2764.211	831.4
2767.695	835.4
2771.175	837.4
2774.652	845.4
2778.127	834.4
2781.598	821.4
2785.067	836.4
2788.532	824.4
2791.995	822.4
2795.455	829.4
2798.911	826.4
2802.365	833.4
2805.816	835.4
2809.264	837.4
2812.709	831.4
2816.151	830.4
2819.59	828.4
2823.026	820.4
2826.46	825.4
2829.89	846.4
2833.318	842.4
2836.742	845.4
2840.164	847.4
2843.583	843.4
2846.999	862.4
2850.412	881.4
2853.822	885.4
2857.229	896.4
2860.634	926.4
2864.035	937.4
2867.434	949.4
2870.83	980.4
2874.223	993.4
2877.613	1010.4
2881	1025.4
2884.385	1033.4
2887.766	1020.4
2891.145	1021.4
2894.521	1006.4
2897.894	1025.4
2901.264	1022.4
2904.631	1034.4
2907.996	1026.4
2911.358	1032.4
2914.717	1051.4
2918.073	1060.4
2921.426	1078.4
2924.777	1086.4
2928.124	1088.4
2931.469	1127.4
2934.811	1137.4
2938.15	1151.4
2941.487	1153.4
2944.821	1173.4
2948.152	1176.4
2951.48	1154.4
2954.805	1165.4
2958.128	1157.4
2961.447	1138.4
2964.765	1131.4
2968.079	1144.4
2971.39	1134.4
2974.699	1164.4
2978.005	1198.4
2981.308	1201.4
2984.609	1232.4
2987.907	1236.4
2991.202	1268.4
2994.494	1293.4
2997.784	1328.4
3001.07	1356.4
3004.355	1382.4
3007.636	1384.4
3010.915	1398.4
3014.191	1445.4
3017.464	1430.4
3020.734	1452.4
3024.002	1447.4
3027.267	1483.4
3030.53	1485.4
3033.789	1502.4
3037.046	1504.4
3040.301	1540.4
3043.552	1578.4
3046.801	1612.4
3050.048	1671.4
3053.291	1702.4
3056.532	1758.4
3059.771	1784.4
3063.006	1854.4
3066.239	1908.4
3069.469	1987.4
3072.697	2025.4
3075.922	2062.4
3079.144	2113.4
3082.364	2166.4
3085.581	2224.4
3088.795	2274.4
3092.007	2332.4
3095.216	2336.4
3098.423	2426.4
3101.627	2512.4
3104.828	2540.4
3108.026	2584.4
3111.222	2654.4
3114.416	2711.4
3117.607	2775.4
3120.795	2869.4
3123.98	2914.4
3127.163	2984.4
3130.344	3063.4
3133.521	3133.4
3136.696	3193.4
3139.869	3251.4
3143.039	3308.4
3146.206	3367.4
3149.371	3395.4
3152.533	3437.4
3155.693	3474.4
3158.85	3520.4
3162.005	3516.4
3165.157	3522.4
3168.306	3550.4
3171.453	3579.4
3174.597	3540.4
3177.739	3557.4
3180.878	3550.4
3184.014	3558.4
3187.149	3543.4
3190.28	3556.4
3193.409	3564.4
3196.536	3592.4
3199.659	3611.4
3202.781	3607.4
3205.9	3603.4
3209.016	3585.4
3212.13	3580.4
3215.241	3556.4
3218.35	3517.4
3221.456	3473.4
3224.56	3422.4
3227.661	3403.4
3230.76	3379.4
3233.856	3354.4
3236.95	3313.4
3240.041	3315.4
3243.13	3237.4
3246.216	3241.4
3249.3	3205.4
3252.382	3192.4
3255.46	3176.4
3258.537	3159.4
3261.611	3188.4
3264.682	3159.4
3267.751	3162.4
3270.818	3178.4
3273.882	3187.4
3276.943	3136.4
3280.002	3109.4
3283.059	3092.4
3286.113	3034.4
3289.165	3026.4
3292.214	2965.4
3295.261	2924.4
3298.306	2872.4
3301.348	2820.4
3304.387	2771.4
3307.425	2724.4
3310.459	2685.4
3313.492	2668.4
3316.521	2630.4
3319.549	2607.4
3322.574	2544.4
3325.597	2546.4
3328.617	2543.4
3331.635	2484.4
3334.65	2498.4
3337.663	2482.4
3340.674	2474.4
3343.682	2459.4
3346.688	2457.4
3349.691	2449.4
3352.692	2441.4
3355.691	2398.4
3358.687	2379.4
3361.681	2366.4
3364.673	2314.4
3367.662	2298.4
3370.649	2256.4
3373.633	2242.4
3376.615	2198.4
3379.595	2157.4
3382.572	2155.4
3385.547	2104.4
3388.52	2096.4
3391.49	2059.4
3394.458	2020.4
3397.424	1983.4
3400.387	1967.4
3403.348	1948.4
3406.307	1920.4
3409.263	1892.4
3412.217	1869.4
3415.168	1809.4
3418.118	1813.4
3421.065	1796.4
3424.009	1768.4
3426.951	1733.4
3429.891	1706.4
3432.829	1678.4
3435.764	1642.4
3438.697	1595.4
3441.628	1547.4
3444.557	1514.4
3447.483	1444.4
3450.407	1421.4
3453.328	1376.4
3456.247	1335.4
3459.164	1257.4
3462.079	1234.4
3464.991	1193.4
3467.902	1117.4
3470.809	1083.4
3473.715	1058.4
3476.618	1015.4
3479.519	970.4
3482.418	938.4
3485.315	901.4
3488.209	893.4
3491.101	847.4
3493.99	808.4
3496.878	769.4
3499.763	756.4
3502.646	717.4
3505.527	671.4
3508.405	646.4
3511.281	608.4
3514.155	562.4
3517.027	553.4
3519.897	488.4
3522.764	457.4
3525.629	419.4
3528.492	385.4
3531.352	356.4
3534.211	325.4
3537.067	288.4
3539.921	247.4
3542.773	222.4
3545.622	188.4
3548.469	168.4
3551.315	138.4
3554.157	123.4
3556.998	98.4
3559.837	66.4
3562.673	42.4
3565.507	12.4
3568.339	-0.6
3571.169	-15.6
3573.996	-28.6
3576.822	-47.6
3579.645	-71.6
3582.466	-79.6
3585.285	-100.6
3588.101	-127.6
3590.916	-134.6
3593.728	-158.6
3596.538	-166.6
3599.346	-182.6
3602.152	-202.6
3604.956	-216.6
3607.757	-234.6
3610.556	-250.6
3613.354	-256.6
3616.149	-264.6
3618.942	-286.6
3621.732	-297.6
3624.521	-307.6
3627.307	-305.6
3630.092	-309.6
3632.874	-328.6
3635.654	-334.6
3638.432	-339.6
3641.208	-343.6
3643.982	-360.6
3646.753	-366.6
3649.523	-376.6
3652.29	-377.6
3655.055	-382.6
3657.818	-404.6
3660.579	-413.6
3663.338	-424.6
3666.095	-436.6
3668.849	-440.6
3671.602	-447.6
3674.352	-452.6
3677.101	-460.6
3679.847	-470.6
3682.591	-471.6
3685.333	-476.6
3688.073	-476.6
3690.811	-483.6
3693.547	-488.6
3696.281	-491.6
3699.013	-495.6
3701.742	-499.6
3704.47	-508.6
3707.195	-512.6
3709.919	-512.6
3712.64	-514.6
3715.359	-518.6
3718.076	-525.6
3720.792	-527.6
3723.505	-530.6
3726.216	-536.6
3728.925	-528.6
3731.632	-540.6
3734.336	-537.6
3737.039	-540.6
3739.74	-547.6
3742.439	-554.6
3745.136	-547.6
3747.83	-550.6
3750.523	-548.6
3753.213	-556.6
3755.902	-558.6
3758.589	-551.6
3761.273	-559.6
3763.956	-564.6
3766.636	-564.6
3769.315	-567.6
3771.991	-565.6
3774.665	-569.6
3777.338	-568.6
3780.008	-575.6
3782.677	-570.6
3785.343	-568.6
3788.007	-565.6
3790.67	-573.6
3793.33	-574.6
3795.989	-576.6
3798.645	-577.6
3801.299	-571.6
3803.952	-583.6
3806.602	-586.6
3809.251	-584.6
3811.897	-579.6
3814.542	-586.6
3817.184	-582.6
3819.825	-582.6
3822.463	-577.6
3825.1	-591.6
3827.735	-581.6
3830.367	-584.6
3832.998	-592.6
3835.627	-594.6
3838.253	-594.6
3840.878	-595.6
3843.501	-595.6
3846.122	-585.6
3848.741	-596.6
3851.358	-589.6
3853.973	-589.6
3856.586	-592.6
3859.197	-592.6
3861.806	-594.6
3864.414	-591.6
3867.019	-597.6
3869.622	-587.6
3872.224	-586.6
3874.823	-577.6
3877.421	-557.6
3880.016	-534.6
3882.61	-516.6
3885.202	-518.6
3887.792	-539.6
3890.38	-567.6
3892.966	-582.6
3895.55	-592.6
3898.132	-608.6
3900.713	-603.6
3903.291	-600.6
3905.868	-606.6
3908.442	-599.6
3911.015	-610.6
3913.586	-600.6
3916.155	-600.6
3918.722	-603.6
3921.287	-602.6
3923.85	-613.6
3926.411	-608.6
3928.971	-617.6
3931.528	-609.6
3934.084	-607.6
3936.638	-609.6
3939.19	-607.6
3941.74	-607.6
3944.288	-608.6
3946.834	-604.6
3949.378	-600.6
3951.921	-601.6
3954.462	-608.6
3957	-599.6
3959.537	-609.6
3962.072	-605.6
3964.606	-611.6
3967.137	-605.6
3969.667	-613.6
3972.194	-601.6
3974.72	-606.6
3977.244	-595.6
3979.766	-595.6
3982.286	-602.6
3984.805	-596.6
3987.321	-598.6
3989.836	-595.6
3992.349	-590.6
3994.86	-594.6
3997.369	-600.6
3999.877	-598.6
4002.382	-593.6
4004.886	-592.6
4007.388	-593.6
4009.888	-591.6
4012.386	-601.6
4014.883	-589.6
4017.377	-592.6
4019.87	-589.6
4022.361	-590.6
4024.85	-595.6
4027.338	-597.6
4029.823	-599.6
4032.307	-595.6
4034.789	-594.6
4037.269	-589.6
4039.747	-594.6
4042.224	-601.6
4044.699	-596.6
4047.172	-598.6
4049.643	-595.6
4052.112	-599.6
4054.58	-601.6
4057.046	-599.6
4059.51	-599.6
4061.972	-595.6
4064.432	-600.6
4066.891	-590.6
4069.348	-594.6
4071.803	-590.6
4074.256	-595.6
4076.708	-601.6
4079.158	-598.6
4081.606	-600.6
4084.052	-600.6
4086.497	-603.6
4088.939	-596.6
4091.38	-593.6
4093.819	-589.6
4096.257	-625.6
4098.693	-626.6
4101.127	-628.6
4103.559	-626.6
4105.989	-368.6
4108.418	-334.6
4110.845	-320.6
4113.27	-297.6
4115.694	-256.6
4118.115	-214.6
4120.535	-595.6
4122.954	-596.6
4125.37	-584.6
4127.785	-595.6
4130.198	-594.6
4132.609	-598.6
4135.019	-627.6
4137.427	-631.6
4139.833	-633.6
4142.237	-629.6
