Data from 2018-2-14_conc=5_n=10_RamanShift_04.txt Node
Date: Wed Feb 14 14:36:25 IST 2018
User: aro
Spectrometer: QEPB0276
Trigger mode: 0
Integration Time (sec): 3.000000E1
Scans to average: 1
Electric dark correction enabled: true
Nonlinearity correction enabled: false
Boxcar width: 0
XAxis mode: Raman Shifts
Number of Pixels in Spectrum: 1044
>>>>>Begin Spectral Data<<<<<
160.701	-133.8
166.742	49.2
172.777	563.2
178.805	2114.2
184.826	5863.2
190.841	12274.2
196.849	19697.2
202.85	25110.2
208.845	26861.2
214.833	26624.2
220.815	26205.2
226.789	26027.2
232.758	25933.2
238.719	25737.2
244.674	25500.2
250.623	25007.2
256.565	24464.2
262.5	24016.2
268.429	23598.2
274.351	23221.2
280.267	22940.2
286.176	22704.2
292.079	22476.2
297.975	22313.2
303.865	22116.2
309.748	21996.2
315.625	21877.2
321.495	21737.2
327.359	21681.2
333.217	21662.2
339.068	21624.2
344.912	21619.2
350.751	21576.2
356.583	21581.2
362.408	21538.2
368.227	21525.2
374.04	21590.2
379.847	21644.2
385.647	21670.2
391.44	21781.2
397.228	21880.2
403.009	21961.2
408.784	22116.2
414.553	22125.2
420.315	22176.2
426.071	22182.2
431.821	22153.2
437.565	22184.2
443.302	22074.2
449.033	22051.2
454.758	22014.2
460.477	21982.2
466.189	21850.2
471.896	21900.2
477.596	21821.2
483.29	21705.2
488.978	21711.2
494.66	21608.2
500.335	21463.2
506.005	21213.2
511.668	20886.2
517.325	20667.2
522.977	20509.2
528.622	20285.2
534.261	20191.2
539.894	20021.2
545.521	19968.2
551.141	19825.2
556.756	19809.2
562.365	19745.2
567.968	19569.2
573.565	19598.2
579.155	19465.2
584.74	19435.2
590.319	19344.2
595.892	19219.2
601.459	19152.2
607.02	19052.2
612.575	18989.2
618.124	18865.2
623.667	18672.2
629.204	18627.2
634.735	18557.2
640.261	18465.2
645.781	18428.2
651.294	18309.2
656.802	18353.2
662.304	18308.2
667.8	18235.2
673.29	18223.2
678.775	18166.2
684.254	18162.2
689.726	18076.2
695.193	17996.2
700.655	17939.2
706.11	17813.2
711.56	17704.2
717.004	17719.2
722.442	17554.2
727.874	17466.2
733.301	17468.2
738.722	17358.2
744.137	17283.2
749.547	17355.2
754.951	17320.2
760.349	17335.2
765.741	17329.2
771.128	17330.2
776.509	17292.2
781.885	17349.2
787.254	17302.2
792.618	17218.2
797.977	17115.2
803.33	17038.2
808.677	16895.2
814.019	16825.2
819.355	16735.2
824.686	16608.2
830.011	16565.2
835.33	16565.2
840.644	16630.2
845.952	16606.2
851.255	16590.2
856.552	16621.2
861.844	16611.2
867.13	16576.2
872.41	16527.2
877.686	16350.2
882.955	16237.2
888.219	16187.2
893.478	15941.2
898.731	15738.2
903.979	15577.2
909.221	15462.2
914.458	15417.2
919.69	15420.2
924.916	15453.2
930.136	15487.2
935.351	15507.2
940.561	15453.2
945.766	15483.2
950.965	15366.2
956.158	15215.2
961.347	15101.2
966.529	14918.2
971.707	14709.2
976.879	14546.2
982.046	14444.2
987.208	14337.2
992.364	14283.2
997.515	14427.2
1002.66	14561.2
1007.801	14746.2
1012.936	14798.2
1018.066	14838.2
1023.19	14815.2
1028.309	14814.2
1033.423	14814.2
1038.532	14754.2
1043.636	14582.2
1048.734	14374.2
1053.827	14196.2
1058.915	14030.2
1063.998	13947.2
1069.075	13907.2
1074.147	13926.2
1079.214	13978.2
1084.276	14044.2
1089.333	14096.2
1094.385	14228.2
1099.431	14231.2
1104.472	14267.2
1109.509	14112.2
1114.54	13997.2
1119.565	13796.2
1124.586	13576.2
1129.602	13481.2
1134.613	13387.2
1139.618	13268.2
1144.619	13275.2
1149.614	13241.2
1154.604	13287.2
1159.589	13288.2
1164.57	13315.2
1169.545	13325.2
1174.515	13334.2
1179.48	13291.2
1184.44	13203.2
1189.395	13065.2
1194.345	12925.2
1199.29	12894.2
1204.23	12906.2
1209.165	12966.2
1214.095	13077.2
1219.021	13058.2
1223.941	13094.2
1228.856	13199.2
1233.766	13246.2
1238.672	13275.2
1243.572	13274.2
1248.467	13175.2
1253.358	13056.2
1258.244	12794.2
1263.124	12628.2
1268	12389.2
1272.871	12261.2
1277.737	12179.2
1282.599	12153.2
1287.455	12091.2
1292.306	12143.2
1297.153	12144.2
1301.995	12193.2
1306.832	12205.2
1311.664	12281.2
1316.491	12210.2
1321.314	12126.2
1326.132	11905.2
1330.945	11675.2
1335.753	11398.2
1340.556	11117.2
1345.354	10870.2
1350.148	10746.2
1354.937	10648.2
1359.722	10587.2
1364.501	10585.2
1369.276	10620.2
1374.046	10722.2
1378.811	10855.2
1383.572	10910.2
1388.327	10970.2
1393.079	10996.2
1397.825	10863.2
1402.567	10721.2
1407.304	10585.2
1412.036	10526.2
1416.764	10461.2
1421.487	10416.2
1426.205	10374.2
1430.919	10315.2
1435.628	10342.2
1440.333	10374.2
1445.032	10401.2
1449.727	10388.2
1454.418	10371.2
1459.104	10282.2
1463.785	10092.2
1468.462	9829.2
1473.134	9642.2
1477.802	9391.2
1482.465	9198.2
1487.123	9085.2
1491.777	9037.2
1496.426	9062.2
1501.071	9141.2
1505.711	9224.2
1510.347	9376.2
1514.978	9489.2
1519.604	9600.2
1524.226	9687.2
1528.844	9759.2
1533.457	9693.2
1538.065	9700.2
1542.669	9614.2
1547.269	9599.2
1551.864	9553.2
1556.454	9532.2
1561.041	9555.2
1565.622	9550.2
1570.199	9561.2
1574.772	9619.2
1579.34	9716.2
1583.904	9773.2
1588.464	9779.2
1593.019	9751.2
1597.569	9746.2
1602.115	9701.2
1606.657	9624.2
1611.195	9565.2
1615.728	9551.2
1620.256	9452.2
1624.78	9492.2
1629.3	9476.2
1633.816	9454.2
1638.327	9547.2
1642.834	9601.2
1647.336	9586.2
1651.834	9568.2
1656.328	9558.2
1660.817	9532.2
1665.302	9392.2
1669.783	9233.2
1674.259	9011.2
1678.732	8743.2
1683.199	8429.2
1687.663	8139.2
1692.122	7891.2
1696.577	7726.2
1701.028	7681.2
1705.474	7635.2
1709.917	7654.2
1714.355	7682.2
1718.788	7638.2
1723.218	7564.2
1727.643	7440.2
1732.064	7363.2
1736.481	7157.2
1740.893	7018.2
1745.301	6818.2
1749.705	6655.2
1754.105	6453.2
1758.501	6275.2
1762.893	6077.2
1767.28	5947.2
1771.663	5824.2
1776.042	5718.2
1780.417	5643.2
1784.787	5635.2
1789.154	5629.2
1793.516	5729.2
1797.874	5757.2
1802.228	5871.2
1806.578	5924.2
1810.924	5936.2
1815.266	5901.2
1819.603	5827.2
1823.937	5752.2
1828.266	5665.2
1832.591	5593.2
1836.913	5556.2
1841.23	5456.2
1845.543	5421.2
1849.852	5428.2
1854.156	5397.2
1858.457	5392.2
1862.754	5397.2
1867.047	5385.2
1871.335	5379.2
1875.62	5351.2
1879.9	5295.2
1884.177	5269.2
1888.449	5209.2
1892.718	5152.2
1896.982	5064.2
1901.243	5027.2
1905.499	4959.2
1909.752	4966.2
1914	4934.2
1918.245	4965.2
1922.485	4962.2
1926.722	5035.2
1930.954	5086.2
1935.183	5119.2
1939.408	5169.2
1943.628	5194.2
1947.845	5216.2
1952.058	5213.2
1956.267	5159.2
1960.472	5061.2
1964.673	5041.2
1968.87	4942.2
1973.063	4864.2
1977.252	4830.2
1981.438	4759.2
1985.619	4741.2
1989.797	4667.2
1993.971	4662.2
1998.14	4638.2
2002.306	4655.2
2006.469	4634.2
2010.627	4596.2
2014.781	4568.2
2018.932	4561.2
2023.078	4505.2
2027.221	4430.2
2031.36	4364.2
2035.495	4309.2
2039.627	4227.2
2043.754	4172.2
2047.878	4112.2
2051.998	4110.2
2056.114	4089.2
2060.226	4053.2
2064.334	4039.2
2068.439	4055.2
2072.54	4094.2
2076.637	4094.2
2080.73	4132.2
2084.82	4155.2
2088.906	4158.2
2092.988	4146.2
2097.066	4120.2
2101.14	4098.2
2105.211	4059.2
2109.278	4050.2
2113.342	4025.2
2117.401	3996.2
2121.457	4001.2
2125.509	3988.2
2129.558	3946.2
2133.602	3921.2
2137.643	3894.2
2141.681	3875.2
2145.714	3873.2
2149.744	3849.2
2153.77	3820.2
2157.793	3780.2
2161.812	3711.2
2165.827	3716.2
2169.838	3641.2
2173.846	3591.2
2177.851	3522.2
2181.851	3448.2
2185.848	3425.2
2189.841	3396.2
2193.831	3369.2
2197.817	3321.2
2201.799	3310.2
2205.778	3272.2
2209.753	3275.2
2213.725	3270.2
2217.693	3243.2
2221.657	3251.2
2225.618	3263.2
2229.575	3215.2
2233.529	3194.2
2237.479	3148.2
2241.425	3119.2
2245.368	3095.2
2249.307	3030.2
2253.243	2972.2
2257.175	2968.2
2261.104	2905.2
2265.029	2870.2
2268.95	2871.2
2272.868	2786.2
2276.783	2809.2
2280.694	2748.2
2284.601	2706.2
2288.505	2700.2
2292.405	2672.2
2296.302	2654.2
2300.195	2622.2
2304.085	2589.2
2307.971	2532.2
2311.854	2518.2
2315.734	2458.2
2319.609	2468.2
2323.482	2407.2
2327.351	2384.2
2331.216	2392.2
2335.078	2392.2
2338.937	2343.2
2342.792	2324.2
2346.643	2339.2
2350.492	2327.2
2354.336	2359.2
2358.178	2352.2
2362.015	2338.2
2365.85	2372.2
2369.681	2353.2
2373.508	2376.2
2377.333	2371.2
2381.153	2365.2
2384.971	2339.2
2388.785	2322.2
2392.595	2309.2
2396.402	2296.2
2400.206	2250.2
2404.007	2242.2
2407.804	2229.2
2411.597	2213.2
2415.388	2205.2
2419.174	2197.2
2422.958	2162.2
2426.738	2151.2
2430.515	2152.2
2434.289	2112.2
2438.059	2140.2
2441.825	2061.2
2445.589	2046.2
2449.349	2049.2
2453.106	2026.2
2456.859	1983.2
2460.61	1960.2
2464.356	1938.2
2468.1	1903.2
2471.84	1884.2
2475.577	1864.2
2479.311	1859.2
2483.041	1847.2
2486.768	1825.2
2490.492	1844.2
2494.213	1834.2
2497.93	1799.2
2501.644	1814.2
2505.355	1776.2
2509.062	1794.2
2512.766	1745.2
2516.467	1741.2
2520.165	1728.2
2523.859	1720.2
2527.551	1684.2
2531.239	1682.2
2534.923	1703.2
2538.605	1655.2
2542.283	1654.2
2545.958	1656.2
2549.63	1652.2
2553.299	1656.2
2556.964	1630.2
2560.626	1634.2
2564.285	1611.2
2567.941	1614.2
2571.594	1610.2
2575.243	1596.2
2578.89	1608.2
2582.533	1575.2
2586.173	1565.2
2589.809	1543.2
2593.443	1532.2
2597.073	1507.2
2600.701	1494.2
2604.325	1481.2
2607.946	1482.2
2611.564	1470.2
2615.178	1459.2
2618.79	1462.2
2622.398	1455.2
2626.004	1444.2
2629.606	1419.2
2633.205	1396.2
2636.801	1372.2
2640.394	1341.2
2643.983	1331.2
2647.57	1302.2
2651.153	1304.2
2654.734	1272.2
2658.311	1241.2
2661.885	1202.2
2665.456	1226.2
2669.025	1208.2
2672.589	1165.2
2676.151	1179.2
2679.71	1146.2
2683.266	1141.2
2686.819	1130.2
2690.368	1079.2
2693.915	1068.2
2697.458	1043.2
2700.999	1019.2
2704.536	993.2
2708.071	973.2
2711.602	950.2
2715.13	918.2
2718.656	909.2
2722.178	889.2
2725.697	870.2
2729.214	860.2
2732.727	850.2
2736.237	839.2
2739.744	829.2
2743.249	844.2
2746.75	852.2
2750.248	847.2
2753.743	838.2
2757.236	867.2
2760.725	872.2
2764.211	860.2
2767.695	859.2
2771.175	866.2
2774.652	871.2
2778.127	860.2
2781.598	854.2
2785.067	851.2
2788.532	845.2
2791.995	837.2
2795.455	838.2
2798.911	848.2
2802.365	850.2
2805.816	847.2
2809.264	849.2
2812.709	847.2
2816.151	859.2
2819.59	862.2
2823.026	861.2
2826.46	834.2
2829.89	865.2
2833.318	854.2
2836.742	876.2
2840.164	871.2
2843.583	881.2
2846.999	895.2
2850.412	889.2
2853.822	913.2
2857.229	926.2
2860.634	944.2
2864.035	947.2
2867.434	975.2
2870.83	1007.2
2874.223	1027.2
2877.613	1032.2
2881	1052.2
2884.385	1051.2
2887.766	1042.2
2891.145	1043.2
2894.521	1053.2
2897.894	1057.2
2901.264	1056.2
2904.631	1053.2
2907.996	1072.2
2911.358	1094.2
2914.717	1101.2
2918.073	1094.2
2921.426	1126.2
2924.777	1128.2
2928.124	1149.2
2931.469	1168.2
2934.811	1196.2
2938.15	1207.2
2941.487	1217.2
2944.821	1226.2
2948.152	1213.2
2951.48	1208.2
2954.805	1213.2
2958.128	1203.2
2961.447	1178.2
2964.765	1178.2
2968.079	1182.2
2971.39	1195.2
2974.699	1218.2
2978.005	1221.2
2981.308	1229.2
2984.609	1263.2
2987.907	1269.2
2991.202	1304.2
2994.494	1342.2
2997.784	1361.2
3001.07	1370.2
3004.355	1412.2
3007.636	1431.2
3010.915	1455.2
3014.191	1469.2
3017.464	1472.2
3020.734	1490.2
3024.002	1489.2
3027.267	1518.2
3030.53	1518.2
3033.789	1536.2
3037.046	1564.2
3040.301	1600.2
3043.552	1635.2
3046.801	1675.2
3050.048	1714.2
3053.291	1757.2
3056.532	1789.2
3059.771	1834.2
3063.006	1909.2
3066.239	1985.2
3069.469	2030.2
3072.697	2075.2
3075.922	2128.2
3079.144	2199.2
3082.364	2243.2
3085.581	2293.2
3088.795	2349.2
3092.007	2396.2
3095.216	2436.2
3098.423	2487.2
3101.627	2545.2
3104.828	2599.2
3108.026	2661.2
3111.222	2728.2
3114.416	2775.2
3117.607	2834.2
3120.795	2908.2
3123.98	2992.2
3127.163	3051.2
3130.344	3151.2
3133.521	3188.2
3136.696	3278.2
3139.869	3341.2
3143.039	3416.2
3146.206	3443.2
3149.371	3491.2
3152.533	3523.2
3155.693	3542.2
3158.85	3566.2
3162.005	3599.2
3165.157	3619.2
3168.306	3621.2
3171.453	3642.2
3174.597	3617.2
3177.739	3631.2
3180.878	3631.2
3184.014	3649.2
3187.149	3645.2
3190.28	3680.2
3193.409	3655.2
3196.536	3682.2
3199.659	3684.2
3202.781	3689.2
3205.9	3700.2
3209.016	3670.2
3212.13	3660.2
3215.241	3632.2
3218.35	3601.2
3221.456	3573.2
3224.56	3541.2
3227.661	3491.2
3230.76	3454.2
3233.856	3426.2
3236.95	3388.2
3240.041	3343.2
3243.13	3326.2
3246.216	3287.2
3249.3	3286.2
3252.382	3278.2
3255.46	3268.2
3258.537	3182.2
3261.611	3264.2
3264.682	3241.2
3267.751	3232.2
3270.818	3211.2
3273.882	3224.2
3276.943	3216.2
3280.002	3199.2
3283.059	3186.2
3286.113	3115.2
3289.165	3050.2
3292.214	3045.2
3295.261	2983.2
3298.306	2927.2
3301.348	2882.2
3304.387	2856.2
3307.425	2815.2
3310.459	2773.2
3313.492	2711.2
3316.521	2704.2
3319.549	2680.2
3322.574	2638.2
3325.597	2599.2
3328.617	2577.2
3331.635	2575.2
3334.65	2566.2
3337.663	2575.2
3340.674	2540.2
3343.682	2551.2
3346.688	2540.2
3349.691	2534.2
3352.692	2487.2
3355.691	2512.2
3358.687	2468.2
3361.681	2448.2
3364.673	2388.2
3367.662	2361.2
3370.649	2340.2
3373.633	2290.2
3376.615	2247.2
3379.595	2211.2
3382.572	2216.2
3385.547	2184.2
3388.52	2146.2
3391.49	2095.2
3394.458	2057.2
3397.424	2037.2
3400.387	1996.2
3403.348	1977.2
3406.307	1974.2
3409.263	1930.2
3412.217	1926.2
3415.168	1866.2
3418.118	1863.2
3421.065	1833.2
3424.009	1820.2
3426.951	1791.2
3429.891	1755.2
3432.829	1710.2
3435.764	1650.2
3438.697	1635.2
3441.628	1581.2
3444.557	1537.2
3447.483	1495.2
3450.407	1465.2
3453.328	1395.2
3456.247	1350.2
3459.164	1304.2
3462.079	1243.2
3464.991	1200.2
3467.902	1153.2
3470.809	1098.2
3473.715	1055.2
3476.618	1022.2
3479.519	979.2
3482.418	964.2
3485.315	932.2
3488.209	875.2
3491.101	836.2
3493.99	824.2
3496.878	777.2
3499.763	759.2
3502.646	718.2
3505.527	684.2
3508.405	660.2
3511.281	619.2
3514.155	587.2
3517.027	542.2
3519.897	498.2
3522.764	466.2
3525.629	408.2
3528.492	380.2
3531.352	351.2
3534.211	315.2
3537.067	275.2
3539.921	244.2
3542.773	222.2
3545.622	188.2
3548.469	163.2
3551.315	127.2
3554.157	117.2
3556.998	90.2
3559.837	72.2
3562.673	39.2
3565.507	21.2
3568.339	17.2
3571.169	-6.8
3573.996	-24.8
3576.822	-46.8
3579.645	-74.8
3582.466	-91.8
3585.285	-110.8
3588.101	-117.8
3590.916	-142.8
3593.728	-171.8
3596.538	-169.8
3599.346	-197.8
3602.152	-209.8
3604.956	-214.8
3607.757	-239.8
3610.556	-261.8
3613.354	-265.8
3616.149	-281.8
3618.942	-290.8
3621.732	-299.8
3624.521	-315.8
3627.307	-320.8
3630.092	-325.8
3632.874	-340.8
3635.654	-352.8
3638.432	-350.8
3641.208	-365.8
3643.982	-377.8
3646.753	-378.8
3649.523	-393.8
3652.29	-400.8
3655.055	-396.8
3657.818	-409.8
3660.579	-421.8
3663.338	-441.8
3666.095	-444.8
3668.849	-445.8
3671.602	-459.8
3674.352	-471.8
3677.101	-465.8
3679.847	-476.8
3682.591	-483.8
3685.333	-489.8
3688.073	-492.8
3690.811	-493.8
3693.547	-504.8
3696.281	-504.8
3699.013	-511.8
3701.742	-512.8
3704.47	-521.8
3707.195	-528.8
3709.919	-526.8
3712.64	-535.8
3715.359	-528.8
3718.076	-538.8
3720.792	-546.8
3723.505	-538.8
3726.216	-550.8
3728.925	-545.8
3731.632	-554.8
3734.336	-565.8
3737.039	-562.8
3739.74	-556.8
3742.439	-563.8
3745.136	-569.8
3747.83	-571.8
3750.523	-565.8
3753.213	-573.8
3755.902	-570.8
3758.589	-574.8
3761.273	-573.8
3763.956	-571.8
3766.636	-576.8
3769.315	-581.8
3771.991	-576.8
3774.665	-586.8
3777.338	-590.8
3780.008	-582.8
3782.677	-555.8
3785.343	-519.8
3788.007	-594.8
3790.67	-582.8
3793.33	-597.8
3795.989	-598.8
3798.645	-598.8
3801.299	-592.8
3803.952	-596.8
3806.602	-608.8
3809.251	-603.8
3811.897	-601.8
3814.542	-600.8
3817.184	-596.8
3819.825	-597.8
3822.463	-599.8
3825.1	-603.8
3827.735	-599.8
3830.367	-598.8
3832.998	-606.8
3835.627	-614.8
3838.253	-607.8
3840.878	-609.8
3843.501	-613.8
3846.122	-605.8
3848.741	-610.8
3851.358	-605.8
3853.973	-614.8
3856.586	-616.8
3859.197	-613.8
3861.806	-618.8
3864.414	-610.8
3867.019	-611.8
3869.622	-605.8
3872.224	-610.8
3874.823	-597.8
3877.421	-576.8
3880.016	-560.8
3882.61	-541.8
3885.202	-540.8
3887.792	-546.8
3890.38	-572.8
3892.966	-596.8
3895.55	-606.8
3898.132	-626.8
3900.713	-630.8
3903.291	-618.8
3905.868	-619.8
3908.442	-627.8
3911.015	-623.8
3913.586	-612.8
3916.155	-620.8
3918.722	-624.8
3921.287	-624.8
3923.85	-632.8
3926.411	-622.8
3928.971	-633.8
3931.528	-627.8
3934.084	-628.8
3936.638	-621.8
3939.19	-627.8
3941.74	-624.8
3944.288	-629.8
3946.834	-622.8
3949.378	-629.8
3951.921	-626.8
3954.462	-632.8
3957	-625.8
3959.537	-623.8
3962.072	-624.8
3964.606	-625.8
3967.137	-623.8
3969.667	-632.8
3972.194	-621.8
3974.72	-625.8
3977.244	-618.8
3979.766	-612.8
3982.286	-616.8
3984.805	-617.8
3987.321	-612.8
3989.836	-617.8
3992.349	-609.8
3994.86	-607.8
3997.369	-623.8
3999.877	-609.8
4002.382	-608.8
4004.886	-604.8
4007.388	-602.8
4009.888	-606.8
4012.386	-612.8
4014.883	-610.8
4017.377	-613.8
4019.87	-609.8
4022.361	-608.8
4024.85	-607.8
4027.338	-615.8
4029.823	-613.8
4032.307	-616.8
4034.789	-610.8
4037.269	-610.8
4039.747	-616.8
4042.224	-615.8
4044.699	-613.8
4047.172	-613.8
4049.643	-610.8
4052.112	-619.8
4054.58	-616.8
4057.046	-615.8
4059.51	-617.8
4061.972	-616.8
4064.432	-619.8
4066.891	-614.8
4069.348	-608.8
4071.803	-613.8
4074.256	-607.8
4076.708	-608.8
4079.158	-613.8
4081.606	-613.8
4084.052	-619.8
4086.497	-614.8
4088.939	-608.8
4091.38	-610.8
4093.819	-614.8
4096.257	-643.8
4098.693	-640.8
4101.127	-648.8
4103.559	-647.8
4105.989	-371.8
4108.418	-346.8
4110.845	-322.8
4113.27	-298.8
4115.694	-277.8
4118.115	-217.8
4120.535	-610.8
4122.954	-612.8
4125.37	-607.8
4127.785	-613.8
4130.198	-615.8
4132.609	-617.8
4135.019	-645.8
4137.427	-651.8
4139.833	-648.8
4142.237	-646.8
