Data from 2018-2-14_ethanol_n=1_RamanShift_05.txt Node
Date: Wed Feb 14 10:23:56 IST 2018
User: aro
Spectrometer: QEPB0276
Trigger mode: 0
Integration Time (sec): 3.000000E1
Scans to average: 1
Electric dark correction enabled: true
Nonlinearity correction enabled: false
Boxcar width: 0
XAxis mode: Raman Shifts
Number of Pixels in Spectrum: 1044
>>>>>Begin Spectral Data<<<<<
160.701	-36.6
166.742	28.4
172.777	244.4
178.805	886.4
184.826	2310.4
190.841	4710.4
196.849	7409.4
202.85	9098.4
208.845	9560.4
214.833	9363.4
220.815	9050.4
226.789	8936.4
232.758	8846.4
238.719	8803.4
244.674	8744.4
250.623	8669.4
256.565	8617.4
262.5	8590.4
268.429	8596.4
274.351	8498.4
280.267	8436.4
286.176	8173.4
292.079	7948.4
297.975	7639.4
303.865	7438.4
309.748	7164.4
315.625	6946.4
321.495	6724.4
327.359	6575.4
333.217	6509.4
339.068	6451.4
344.912	6445.4
350.751	6386.4
356.583	6413.4
362.408	6461.4
368.227	6555.4
374.04	6655.4
379.847	6836.4
385.647	7097.4
391.44	7376.4
397.228	7764.4
403.009	8309.4
408.784	9176.4
414.553	10558.4
420.315	12774.4
426.071	16090.4
431.821	19893.4
437.565	22321.4
443.302	22215.4
449.033	19663.4
454.758	16409.4
460.477	13541.4
466.189	11329.4
471.896	9780.4
477.596	8616.4
483.29	7900.4
488.978	7402.4
494.66	7004.4
500.335	6655.4
506.005	6297.4
511.668	5899.4
517.325	5666.4
522.977	5444.4
528.622	5246.4
534.261	5115.4
539.894	5000.4
545.521	4920.4
551.141	4905.4
556.756	4827.4
562.365	4797.4
567.968	4807.4
573.565	4753.4
579.155	4772.4
584.74	4768.4
590.319	4739.4
595.892	4755.4
601.459	4774.4
607.02	4775.4
612.575	4741.4
618.124	4734.4
623.667	4702.4
629.204	4675.4
634.735	4647.4
640.261	4624.4
645.781	4610.4
651.294	4635.4
656.802	4616.4
662.304	4637.4
667.8	4613.4
673.29	4578.4
678.775	4594.4
684.254	4589.4
689.726	4575.4
695.193	4560.4
700.655	4554.4
706.11	4542.4
711.56	4510.4
717.004	4527.4
722.442	4510.4
727.874	4521.4
733.301	4551.4
738.722	4578.4
744.137	4602.4
749.547	4635.4
754.951	4662.4
760.349	4768.4
765.741	4894.4
771.128	4961.4
776.509	5096.4
781.885	5267.4
787.254	5432.4
792.618	5657.4
797.977	5933.4
803.33	6250.4
808.677	6583.4
814.019	6867.4
819.355	6990.4
824.686	7121.4
830.011	7335.4
835.33	7721.4
840.644	8335.4
845.952	9229.4
851.255	10536.4
856.552	12603.4
861.844	16136.4
867.13	23231.4
872.41	38261.4
877.686	62799.4
882.955	62799.4
888.219	62797.4
893.478	62796.4
898.731	62802.4
903.979	53783.4
909.221	22764.4
914.458	15680.4
919.69	12198.4
924.916	10176.4
930.136	8941.4
935.351	8093.4
940.561	7412.4
945.766	7022.4
950.965	6700.4
956.158	6510.4
961.347	6291.4
966.529	6153.4
971.707	6108.4
976.879	6092.4
982.046	6228.4
987.208	6438.4
992.364	6760.4
997.515	7233.4
1002.66	7899.4
1007.801	8749.4
1012.936	10010.4
1018.066	11809.4
1023.19	14259.4
1028.309	17620.4
1033.423	22039.4
1038.532	27555.4
1043.636	34324.4
1048.734	42244.4
1053.827	48545.4
1058.915	49331.4
1063.998	43624.4
1069.075	35678.4
1074.147	30730.4
1079.214	30311.4
1084.276	33513.4
1089.333	39486.4
1094.385	46751.4
1099.431	51272.4
1104.472	49092.4
1109.509	40570.4
1114.54	31350.4
1119.565	25418.4
1124.586	22108.4
1129.602	19429.4
1134.613	16674.4
1139.618	14104.4
1144.619	11982.4
1149.614	10520.4
1154.604	9555.4
1159.589	8842.4
1164.57	8166.4
1169.545	7613.4
1174.515	7023.4
1179.48	6602.4
1184.44	6248.4
1189.395	6028.4
1194.345	5912.4
1199.29	5790.4
1204.23	5759.4
1209.165	5788.4
1214.095	5905.4
1219.021	6083.4
1223.941	6367.4
1228.856	6693.4
1233.766	7122.4
1238.672	7596.4
1243.572	8169.4
1248.467	8793.4
1253.358	9508.4
1258.244	10574.4
1263.124	12266.4
1268	14947.4
1272.871	18875.4
1277.737	22924.4
1282.599	24433.4
1287.455	22261.4
1292.306	18172.4
1297.153	14606.4
1301.995	12296.4
1306.832	10906.4
1311.664	10091.4
1316.491	9580.4
1321.314	9162.4
1326.132	8817.4
1330.945	8581.4
1335.753	8357.4
1340.556	8183.4
1345.354	8103.4
1350.148	8151.4
1354.937	8253.4
1359.722	8503.4
1364.501	8896.4
1369.276	9446.4
1374.046	10218.4
1378.811	11264.4
1383.572	12367.4
1388.327	13282.4
1393.079	13758.4
1397.825	14042.4
1402.567	14396.4
1407.304	15096.4
1412.036	16123.4
1416.764	17317.4
1421.487	18820.4
1426.205	20606.4
1430.919	22798.4
1435.628	25821.4
1440.333	30076.4
1445.032	36526.4
1449.727	45331.4
1454.418	54312.4
1459.104	59079.4
1463.785	56068.4
1468.462	46886.4
1473.134	37438.4
1477.802	31537.4
1482.465	28909.4
1487.123	27584.4
1491.777	25595.4
1496.426	22293.4
1501.071	18873.4
1505.711	16141.4
1510.347	14223.4
1514.978	12823.4
1519.604	11718.4
1524.226	10838.4
1528.844	10039.4
1533.457	9276.4
1538.065	8634.4
1542.669	8026.4
1547.269	7472.4
1551.864	7006.4
1556.454	6600.4
1561.041	6242.4
1565.622	5875.4
1570.199	5582.4
1574.772	5318.4
1579.34	5103.4
1583.904	4906.4
1588.464	4692.4
1593.019	4496.4
1597.569	4336.4
1602.115	4217.4
1606.657	4102.4
1611.195	4073.4
1615.728	4033.4
1620.256	4004.4
1624.78	3930.4
1629.3	3798.4
1633.816	3671.4
1638.327	3487.4
1642.834	3403.4
1647.336	3286.4
1651.834	3215.4
1656.328	3183.4
1660.817	3158.4
1665.302	3095.4
1669.783	3071.4
1674.259	3025.4
1678.732	2981.4
1683.199	2925.4
1687.663	2887.4
1692.122	2852.4
1696.577	2847.4
1701.028	2868.4
1705.474	2904.4
1709.917	2947.4
1714.355	2975.4
1718.788	2960.4
1723.218	2901.4
1727.643	2818.4
1732.064	2740.4
1736.481	2625.4
1740.893	2516.4
1745.301	2410.4
1749.705	2353.4
1754.105	2251.4
1758.501	2161.4
1762.893	2092.4
1767.28	2029.4
1771.663	1952.4
1776.042	1902.4
1780.417	1865.4
1784.787	1839.4
1789.154	1847.4
1793.516	1875.4
1797.874	1874.4
1802.228	1926.4
1806.578	1932.4
1810.924	1933.4
1815.266	1915.4
1819.603	1877.4
1823.937	1831.4
1828.266	1802.4
1832.591	1775.4
1836.913	1747.4
1841.23	1730.4
1845.543	1722.4
1849.852	1719.4
1854.156	1704.4
1858.457	1710.4
1862.754	1719.4
1867.047	1725.4
1871.335	1720.4
1875.62	1742.4
1879.9	1743.4
1884.177	1757.4
1888.449	1761.4
1892.718	1737.4
1896.982	1717.4
1901.243	1705.4
1905.499	1690.4
1909.752	1693.4
1914	1690.4
1918.245	1706.4
1922.485	1692.4
1926.722	1735.4
1930.954	1743.4
1935.183	1780.4
1939.408	1782.4
1943.628	1779.4
1947.845	1780.4
1952.058	1801.4
1956.267	1800.4
1960.472	1764.4
1964.673	1752.4
1968.87	1730.4
1973.063	1710.4
1977.252	1676.4
1981.438	1627.4
1985.619	1617.4
1989.797	1582.4
1993.971	1565.4
1998.14	1582.4
2002.306	1536.4
2006.469	1520.4
2010.627	1511.4
2014.781	1485.4
2018.932	1473.4
2023.078	1442.4
2027.221	1433.4
2031.36	1421.4
2035.495	1398.4
2039.627	1363.4
2043.754	1380.4
2047.878	1322.4
2051.998	1353.4
2056.114	1369.4
2060.226	1386.4
2064.334	1374.4
2068.439	1416.4
2072.54	1454.4
2076.637	1495.4
2080.73	1551.4
2084.82	1581.4
2088.906	1635.4
2092.988	1685.4
2097.066	1677.4
2101.14	1667.4
2105.211	1629.4
2109.278	1586.4
2113.342	1562.4
2117.401	1539.4
2121.457	1520.4
2125.509	1517.4
2129.558	1512.4
2133.602	1507.4
2137.643	1509.4
2141.681	1523.4
2145.714	1492.4
2149.744	1500.4
2153.77	1484.4
2157.793	1473.4
2161.812	1472.4
2165.827	1482.4
2169.838	1465.4
2173.846	1455.4
2177.851	1428.4
2181.851	1439.4
2185.848	1440.4
2189.841	1412.4
2193.831	1412.4
2197.817	1402.4
2201.799	1394.4
2205.778	1400.4
2209.753	1395.4
2213.725	1404.4
2217.693	1429.4
2221.657	1427.4
2225.618	1444.4
2229.575	1474.4
2233.529	1494.4
2237.479	1495.4
2241.425	1522.4
2245.368	1551.4
2249.307	1578.4
2253.243	1589.4
2257.175	1628.4
2261.104	1614.4
2265.029	1593.4
2268.95	1578.4
2272.868	1579.4
2276.783	1583.4
2280.694	1599.4
2284.601	1621.4
2288.505	1612.4
2292.405	1576.4
2296.302	1554.4
2300.195	1516.4
2304.085	1488.4
2307.971	1441.4
2311.854	1391.4
2315.734	1370.4
2319.609	1339.4
2323.482	1349.4
2327.351	1315.4
2331.216	1316.4
2335.078	1320.4
2338.937	1318.4
2342.792	1276.4
2346.643	1279.4
2350.492	1283.4
2354.336	1244.4
2358.178	1262.4
2362.015	1261.4
2365.85	1265.4
2369.681	1274.4
2373.508	1261.4
2377.333	1249.4
2381.153	1239.4
2384.971	1239.4
2388.785	1222.4
2392.595	1209.4
2396.402	1232.4
2400.206	1222.4
2404.007	1229.4
2407.804	1253.4
2411.597	1268.4
2415.388	1296.4
2419.174	1282.4
2422.958	1293.4
2426.738	1301.4
2430.515	1307.4
2434.289	1305.4
2438.059	1328.4
2441.825	1326.4
2445.589	1344.4
2449.349	1328.4
2453.106	1368.4
2456.859	1377.4
2460.61	1386.4
2464.356	1404.4
2468.1	1406.4
2471.84	1409.4
2475.577	1403.4
2479.311	1423.4
2483.041	1403.4
2486.768	1411.4
2490.492	1402.4
2494.213	1423.4
2497.93	1439.4
2501.644	1455.4
2505.355	1462.4
2509.062	1477.4
2512.766	1501.4
2516.467	1551.4
2520.165	1586.4
2523.859	1601.4
2527.551	1666.4
2531.239	1737.4
2534.923	1821.4
2538.605	1913.4
2542.283	2017.4
2545.958	2106.4
2549.63	2181.4
2553.299	2198.4
2556.964	2203.4
2560.626	2157.4
2564.285	2114.4
2567.941	2088.4
2571.594	2039.4
2575.243	2019.4
2578.89	2015.4
2582.533	2030.4
2586.173	2006.4
2589.809	2046.4
2593.443	2061.4
2597.073	2061.4
2600.701	2063.4
2604.325	2062.4
2607.946	2048.4
2611.564	2043.4
2615.178	2031.4
2618.79	2027.4
2622.398	2038.4
2626.004	2027.4
2629.606	2025.4
2633.205	2058.4
2636.801	2041.4
2640.394	2083.4
2643.983	2088.4
2647.57	2129.4
2651.153	2166.4
2654.734	2211.4
2658.311	2224.4
2661.885	2277.4
2665.456	2324.4
2669.025	2399.4
2672.589	2481.4
2676.151	2582.4
2679.71	2727.4
2683.266	2867.4
2686.819	3061.4
2690.368	3268.4
2693.915	3572.4
2697.458	3892.4
2700.999	4299.4
2704.536	4768.4
2708.071	5283.4
2711.602	5804.4
2715.13	6137.4
2718.656	6401.4
2722.178	6488.4
2725.697	6492.4
2729.214	6364.4
2732.727	6160.4
2736.237	5901.4
2739.744	5772.4
2743.249	5763.4
2746.75	5833.4
2750.248	5976.4
2753.743	6056.4
2757.236	6083.4
2760.725	5892.4
2764.211	5741.4
2767.695	5542.4
2771.175	5387.4
2774.652	5293.4
2778.127	5270.4
2781.598	5291.4
2785.067	5361.4
2788.532	5514.4
2791.995	5727.4
2795.455	5974.4
2798.911	6288.4
2802.365	6673.4
2805.816	7139.4
2809.264	7615.4
2812.709	8221.4
2816.151	8903.4
2819.59	9698.4
2823.026	10668.4
2826.46	11789.4
2829.89	12999.4
2833.318	14264.4
2836.742	15451.4
2840.164	16491.4
2843.583	17285.4
2846.999	18174.4
2850.412	19119.4
2853.822	20393.4
2857.229	21916.4
2860.634	23913.4
2864.035	26448.4
2867.434	29578.4
2870.83	33392.4
2874.223	37664.4
2877.613	41599.4
2881	44205.4
2884.385	45170.4
2887.766	44790.4
2891.145	43471.4
2894.521	41975.4
2897.894	40273.4
2901.264	38703.4
2904.631	37363.4
2907.996	36491.4
2911.358	36184.4
2914.717	36700.4
2918.073	38326.4
2921.426	41260.4
2924.777	45408.4
2928.124	50312.4
2931.469	54017.4
2934.811	54506.4
2938.15	51424.4
2941.487	46338.4
2944.821	40894.4
2948.152	35927.4
2951.48	31796.4
2954.805	28457.4
2958.128	26061.4
2961.447	24574.4
2964.765	23982.4
2968.079	24183.4
2971.39	24677.4
2974.699	25028.4
2978.005	24884.4
2981.308	23775.4
2984.609	21916.4
2987.907	19608.4
2991.202	17107.4
2994.494	14974.4
2997.784	13154.4
3001.07	11613.4
3004.355	10340.4
3007.636	9279.4
3010.915	8345.4
3014.191	7559.4
3017.464	6888.4
3020.734	6312.4
3024.002	5765.4
3027.267	5325.4
3030.53	4902.4
3033.789	4535.4
3037.046	4221.4
3040.301	3936.4
3043.552	3673.4
3046.801	3483.4
3050.048	3268.4
3053.291	3122.4
3056.532	2943.4
3059.771	2781.4
3063.006	2663.4
3066.239	2580.4
3069.469	2455.4
3072.697	2323.4
3075.922	2218.4
3079.144	2125.4
3082.364	2070.4
3085.581	1970.4
3088.795	1905.4
3092.007	1842.4
3095.216	1751.4
3098.423	1692.4
3101.627	1641.4
3104.828	1597.4
3108.026	1535.4
3111.222	1511.4
3114.416	1474.4
3117.607	1428.4
3120.795	1409.4
3123.98	1381.4
3127.163	1363.4
3130.344	1339.4
3133.521	1333.4
3136.696	1302.4
3139.869	1319.4
3143.039	1306.4
3146.206	1272.4
3149.371	1279.4
3152.533	1254.4
3155.693	1242.4
3158.85	1223.4
3162.005	1208.4
3165.157	1200.4
3168.306	1183.4
3171.453	1185.4
3174.597	1181.4
3177.739	1180.4
3180.878	1173.4
3184.014	1180.4
3187.149	1175.4
3190.28	1165.4
3193.409	1178.4
3196.536	1163.4
3199.659	1179.4
3202.781	1177.4
3205.9	1190.4
3209.016	1184.4
3212.13	1168.4
3215.241	1167.4
3218.35	1199.4
3221.456	1175.4
3224.56	1154.4
3227.661	1154.4
3230.76	1166.4
3233.856	1147.4
3236.95	1137.4
3240.041	1136.4
3243.13	1136.4
3246.216	1127.4
3249.3	1119.4
3252.382	1126.4
3255.46	1115.4
3258.537	1111.4
3261.611	1112.4
3264.682	1119.4
3267.751	1111.4
3270.818	1101.4
3273.882	1104.4
3276.943	1096.4
3280.002	1082.4
3283.059	1078.4
3286.113	1065.4
3289.165	1050.4
3292.214	1039.4
3295.261	1009.4
3298.306	1004.4
3301.348	993.4
3304.387	957.4
3307.425	961.4
3310.459	939.4
3313.492	926.4
3316.521	919.4
3319.549	907.4
3322.574	879.4
3325.597	879.4
3328.617	866.4
3331.635	868.4
3334.65	867.4
3337.663	864.4
3340.674	829.4
3343.682	842.4
3346.688	831.4
3349.691	821.4
3352.692	804.4
3355.691	805.4
3358.687	784.4
3361.681	787.4
3364.673	767.4
3367.662	742.4
3370.649	728.4
3373.633	716.4
3376.615	699.4
3379.595	689.4
3382.572	662.4
3385.547	663.4
3388.52	652.4
3391.49	631.4
3394.458	602.4
3397.424	586.4
3400.387	591.4
3403.348	559.4
3406.307	566.4
3409.263	556.4
3412.217	545.4
3415.168	519.4
3418.118	502.4
3421.065	488.4
3424.009	477.4
3426.951	463.4
3429.891	464.4
3432.829	443.4
3435.764	437.4
3438.697	411.4
3441.628	400.4
3444.557	374.4
3447.483	349.4
3450.407	338.4
3453.328	324.4
3456.247	308.4
3459.164	292.4
3462.079	276.4
3464.991	244.4
3467.902	232.4
3470.809	218.4
3473.715	199.4
3476.618	195.4
3479.519	174.4
3482.418	171.4
3485.315	159.4
3488.209	142.4
3491.101	127.4
3493.99	119.4
3496.878	99.4
3499.763	100.4
3502.646	86.4
3505.527	81.4
3508.405	68.4
3511.281	45.4
3514.155	40.4
3517.027	42.4
3519.897	36.4
3522.764	7.4
3525.629	7.4
3528.492	-17.6
3531.352	-12.6
3534.211	-20.6
3537.067	-41.6
3539.921	-37.6
3542.773	-53.6
3545.622	-64.6
3548.469	-69.6
3551.315	-74.6
3554.157	-87.6
3556.998	-95.6
3559.837	-95.6
3562.673	-99.6
3565.507	-119.6
3568.339	-112.6
3571.169	-120.6
3573.996	-125.6
3576.822	-122.6
3579.645	-133.6
3582.466	-146.6
3585.285	-145.6
3588.101	-151.6
3590.916	-154.6
3593.728	-157.6
3596.538	-158.6
3599.346	-166.6
3602.152	-164.6
3604.956	-168.6
3607.757	-176.6
3610.556	-180.6
3613.354	-184.6
3616.149	-185.6
3618.942	-187.6
3621.732	-185.6
3624.521	-195.6
3627.307	-190.6
3630.092	-191.6
3632.874	-197.6
3635.654	-197.6
3638.432	-197.6
3641.208	-197.6
3643.982	-205.6
3646.753	-203.6
3649.523	-206.6
3652.29	-205.6
3655.055	-205.6
3657.818	-206.6
3660.579	-219.6
3663.338	-216.6
3666.095	-210.6
3668.849	-220.6
3671.602	-218.6
3674.352	-223.6
3677.101	-224.6
3679.847	-220.6
3682.591	-224.6
3685.333	-219.6
3688.073	-221.6
3690.811	-222.6
3693.547	-219.6
3696.281	-224.6
3699.013	-222.6
3701.742	-228.6
3704.47	-227.6
3707.195	-235.6
3709.919	-226.6
3712.64	-236.6
3715.359	-227.6
3718.076	-230.6
3720.792	-232.6
3723.505	-228.6
3726.216	-234.6
3728.925	-223.6
3731.632	-234.6
3734.336	-230.6
3737.039	-235.6
3739.74	-232.6
3742.439	-233.6
3745.136	-236.6
3747.83	-242.6
3750.523	-237.6
3753.213	-241.6
3755.902	-237.6
3758.589	-239.6
3761.273	-233.6
3763.956	-240.6
3766.636	-243.6
3769.315	-237.6
3771.991	-234.6
3774.665	-244.6
3777.338	-243.6
3780.008	-243.6
3782.677	-242.6
3785.343	-240.6
3788.007	-239.6
3790.67	-243.6
3793.33	-243.6
3795.989	-245.6
3798.645	-242.6
3801.299	-246.6
3803.952	-243.6
3806.602	-247.6
3809.251	-251.6
3811.897	-250.6
3814.542	-245.6
3817.184	-243.6
3819.825	-241.6
3822.463	-237.6
3825.1	-244.6
3827.735	-245.6
3830.367	-243.6
3832.998	-253.6
3835.627	-250.6
3838.253	-248.6
3840.878	-251.6
3843.501	-248.6
3846.122	-246.6
3848.741	-249.6
3851.358	-252.6
3853.973	-247.6
3856.586	-253.6
3859.197	-251.6
3861.806	-251.6
3864.414	-246.6
3867.019	-240.6
3869.622	-248.6
3872.224	-247.6
3874.823	-226.6
3877.421	-214.6
3880.016	-204.6
3882.61	-177.6
3885.202	-171.6
3887.792	-178.6
3890.38	-213.6
3892.966	-231.6
3895.55	-242.6
3898.132	-253.6
3900.713	-255.6
3903.291	-252.6
3905.868	-255.6
3908.442	-254.6
3911.015	-261.6
3913.586	-255.6
3916.155	-254.6
3918.722	-256.6
3921.287	-255.6
3923.85	-259.6
3926.411	-255.6
3928.971	-262.6
3931.528	-261.6
3934.084	-261.6
3936.638	-257.6
3939.19	-262.6
3941.74	-261.6
3944.288	-262.6
3946.834	-259.6
3949.378	-261.6
3951.921	-258.6
3954.462	-261.6
3957	-256.6
3959.537	-258.6
3962.072	-253.6
3964.606	-260.6
3967.137	-259.6
3969.667	-257.6
3972.194	-254.6
3974.72	-264.6
3977.244	-251.6
3979.766	-252.6
3982.286	-255.6
3984.805	-252.6
3987.321	-250.6
3989.836	-259.6
3992.349	-252.6
3994.86	-253.6
3997.369	-259.6
3999.877	-252.6
4002.382	-259.6
4004.886	-256.6
4007.388	-251.6
4009.888	-252.6
4012.386	-261.6
4014.883	-248.6
4017.377	-250.6
4019.87	-251.6
4022.361	-246.6
4024.85	-250.6
4027.338	-258.6
4029.823	-257.6
4032.307	-261.6
4034.789	-249.6
4037.269	-259.6
4039.747	-252.6
4042.224	-254.6
4044.699	-252.6
4047.172	-253.6
4049.643	-256.6
4052.112	-259.6
4054.58	-256.6
4057.046	-260.6
4059.51	-254.6
4061.972	-257.6
4064.432	-259.6
4066.891	-255.6
4069.348	-249.6
4071.803	-251.6
4074.256	-254.6
4076.708	-254.6
4079.158	-248.6
4081.606	-256.6
4084.052	-258.6
4086.497	-251.6
4088.939	-242.6
4091.38	-251.6
4093.819	-243.6
4096.257	-276.6
4098.693	-280.6
4101.127	-276.6
4103.559	-277.6
4105.989	-112.6
4108.418	-103.6
4110.845	-94.6
4113.27	-86.6
4115.694	-80.6
4118.115	-73.6
4120.535	-251.6
4122.954	-246.6
4125.37	-240.6
4127.785	-246.6
4130.198	-253.6
4132.609	-253.6
4135.019	-281.6
4137.427	-280.6
4139.833	-280.6
4142.237	-279.6
