Data from 2018-2-14_conc=3_n=2_RamanShift_03.txt Node
Date: Wed Feb 14 11:46:26 IST 2018
User: aro
Spectrometer: QEPB0276
Trigger mode: 0
Integration Time (sec): 3.000000E1
Scans to average: 1
Electric dark correction enabled: true
Nonlinearity correction enabled: false
Boxcar width: 0
XAxis mode: Raman Shifts
Number of Pixels in Spectrum: 1044
>>>>>Begin Spectral Data<<<<<
160.701	-143.8
166.742	47.2
172.777	572.2
178.805	2200.2
184.826	6045.2
190.841	12654.2
196.849	20348.2
202.85	25813.2
208.845	27685.2
214.833	27382.2
220.815	26884.2
226.789	26674.2
232.758	26483.2
238.719	26333.2
244.674	25943.2
250.623	25403.2
256.565	24959.2
262.5	24450.2
268.429	23930.2
274.351	23512.2
280.267	23223.2
286.176	22908.2
292.079	22831.2
297.975	22510.2
303.865	22273.2
309.748	22113.2
315.625	22024.2
321.495	21824.2
327.359	21855.2
333.217	21731.2
339.068	21749.2
344.912	21683.2
350.751	21662.2
356.583	21620.2
362.408	21633.2
368.227	21647.2
374.04	21660.2
379.847	21690.2
385.647	21791.2
391.44	21826.2
397.228	22025.2
403.009	22042.2
408.784	22145.2
414.553	22174.2
420.315	22204.2
426.071	22281.2
431.821	22270.2
437.565	22210.2
443.302	22203.2
449.033	22164.2
454.758	22106.2
460.477	22005.2
466.189	22042.2
471.896	21847.2
477.596	21869.2
483.29	21800.2
488.978	21823.2
494.66	21668.2
500.335	21585.2
506.005	21381.2
511.668	21077.2
517.325	20826.2
522.977	20609.2
528.622	20410.2
534.261	20304.2
539.894	20207.2
545.521	20128.2
551.141	20049.2
556.756	19976.2
562.365	19944.2
567.968	19836.2
573.565	19749.2
579.155	19590.2
584.74	19642.2
590.319	19493.2
595.892	19415.2
601.459	19359.2
607.02	19287.2
612.575	19075.2
618.124	19012.2
623.667	18944.2
629.204	18877.2
634.735	18689.2
640.261	18664.2
645.781	18571.2
651.294	18486.2
656.802	18473.2
662.304	18456.2
667.8	18387.2
673.29	18391.2
678.775	18426.2
684.254	18293.2
689.726	18235.2
695.193	18204.2
700.655	18113.2
706.11	18017.2
711.56	17939.2
717.004	17819.2
722.442	17755.2
727.874	17660.2
733.301	17576.2
738.722	17599.2
744.137	17545.2
749.547	17517.2
754.951	17514.2
760.349	17542.2
765.741	17565.2
771.128	17569.2
776.509	17562.2
781.885	17546.2
787.254	17533.2
792.618	17391.2
797.977	17271.2
803.33	17209.2
808.677	17111.2
814.019	16978.2
819.355	16969.2
824.686	16825.2
830.011	16757.2
835.33	16772.2
840.644	16817.2
845.952	16795.2
851.255	16823.2
856.552	16889.2
861.844	16817.2
867.13	16755.2
872.41	16681.2
877.686	16593.2
882.955	16498.2
888.219	16375.2
893.478	16189.2
898.731	15967.2
903.979	15783.2
909.221	15668.2
914.458	15592.2
919.69	15596.2
924.916	15618.2
930.136	15711.2
935.351	15719.2
940.561	15713.2
945.766	15639.2
950.965	15630.2
956.158	15442.2
961.347	15306.2
966.529	15107.2
971.707	14939.2
976.879	14746.2
982.046	14562.2
987.208	14605.2
992.364	14578.2
997.515	14684.2
1002.66	14756.2
1007.801	14935.2
1012.936	15081.2
1018.066	15089.2
1023.19	15047.2
1028.309	15047.2
1033.423	14992.2
1038.532	14900.2
1043.636	14776.2
1048.734	14663.2
1053.827	14465.2
1058.915	14254.2
1063.998	14151.2
1069.075	14054.2
1074.147	14142.2
1079.214	14211.2
1084.276	14282.2
1089.333	14334.2
1094.385	14357.2
1099.431	14451.2
1104.472	14491.2
1109.509	14374.2
1114.54	14224.2
1119.565	13999.2
1124.586	13797.2
1129.602	13724.2
1134.613	13601.2
1139.618	13500.2
1144.619	13461.2
1149.614	13462.2
1154.604	13541.2
1159.589	13568.2
1164.57	13566.2
1169.545	13561.2
1174.515	13547.2
1179.48	13466.2
1184.44	13379.2
1189.395	13305.2
1194.345	13229.2
1199.29	13169.2
1204.23	13169.2
1209.165	13166.2
1214.095	13265.2
1219.021	13250.2
1223.941	13385.2
1228.856	13440.2
1233.766	13479.2
1238.672	13499.2
1243.572	13458.2
1248.467	13382.2
1253.358	13236.2
1258.244	13040.2
1263.124	12887.2
1268	12641.2
1272.871	12533.2
1277.737	12419.2
1282.599	12349.2
1287.455	12351.2
1292.306	12350.2
1297.153	12386.2
1301.995	12485.2
1306.832	12529.2
1311.664	12564.2
1316.491	12484.2
1321.314	12355.2
1326.132	12188.2
1330.945	11954.2
1335.753	11679.2
1340.556	11358.2
1345.354	11138.2
1350.148	10930.2
1354.937	10864.2
1359.722	10896.2
1364.501	10856.2
1369.276	10969.2
1374.046	11067.2
1378.811	11238.2
1383.572	11355.2
1388.327	11392.2
1393.079	11371.2
1397.825	11259.2
1402.567	11082.2
1407.304	10926.2
1412.036	10841.2
1416.764	10793.2
1421.487	10721.2
1426.205	10638.2
1430.919	10621.2
1435.628	10596.2
1440.333	10629.2
1445.032	10638.2
1449.727	10676.2
1454.418	10683.2
1459.104	10537.2
1463.785	10331.2
1468.462	10135.2
1473.134	9921.2
1477.802	9721.2
1482.465	9557.2
1487.123	9413.2
1491.777	9412.2
1496.426	9401.2
1501.071	9541.2
1505.711	9688.2
1510.347	9816.2
1514.978	10046.2
1519.604	10141.2
1524.226	10257.2
1528.844	10274.2
1533.457	10246.2
1538.065	10174.2
1542.669	10136.2
1547.269	10047.2
1551.864	9967.2
1556.454	9935.2
1561.041	9985.2
1565.622	9979.2
1570.199	9955.2
1574.772	10034.2
1579.34	10069.2
1583.904	10139.2
1588.464	10192.2
1593.019	10199.2
1597.569	10165.2
1602.115	10070.2
1606.657	10006.2
1611.195	9994.2
1615.728	9907.2
1620.256	9877.2
1624.78	9863.2
1629.3	9879.2
1633.816	9901.2
1638.327	10003.2
1642.834	10085.2
1647.336	10022.2
1651.834	10040.2
1656.328	10064.2
1660.817	10004.2
1665.302	9907.2
1669.783	9749.2
1674.259	9514.2
1678.732	9230.2
1683.199	8934.2
1687.663	8583.2
1692.122	8329.2
1696.577	8186.2
1701.028	8113.2
1705.474	8188.2
1709.917	8279.2
1714.355	8319.2
1718.788	8247.2
1723.218	8094.2
1727.643	7970.2
1732.064	7802.2
1736.481	7658.2
1740.893	7452.2
1745.301	7258.2
1749.705	7067.2
1754.105	6847.2
1758.501	6620.2
1762.893	6476.2
1767.28	6314.2
1771.663	6151.2
1776.042	6033.2
1780.417	5974.2
1784.787	5967.2
1789.154	6049.2
1793.516	6096.2
1797.874	6240.2
1802.228	6355.2
1806.578	6405.2
1810.924	6399.2
1815.266	6422.2
1819.603	6290.2
1823.937	6171.2
1828.266	6087.2
1832.591	5962.2
1836.913	5904.2
1841.23	5837.2
1845.543	5803.2
1849.852	5786.2
1854.156	5757.2
1858.457	5752.2
1862.754	5717.2
1867.047	5720.2
1871.335	5716.2
1875.62	5671.2
1879.9	5651.2
1884.177	5653.2
1888.449	5589.2
1892.718	5551.2
1896.982	5460.2
1901.243	5417.2
1905.499	5375.2
1909.752	5325.2
1914	5336.2
1918.245	5375.2
1922.485	5408.2
1926.722	5424.2
1930.954	5480.2
1935.183	5563.2
1939.408	5643.2
1943.628	5661.2
1947.845	5707.2
1952.058	5676.2
1956.267	5642.2
1960.472	5538.2
1964.673	5480.2
1968.87	5380.2
1973.063	5295.2
1977.252	5230.2
1981.438	5165.2
1985.619	5127.2
1989.797	5098.2
1993.971	5048.2
1998.14	5033.2
2002.306	5002.2
2006.469	5018.2
2010.627	4983.2
2014.781	4928.2
2018.932	4901.2
2023.078	4864.2
2027.221	4794.2
2031.36	4687.2
2035.495	4631.2
2039.627	4556.2
2043.754	4513.2
2047.878	4455.2
2051.998	4440.2
2056.114	4426.2
2060.226	4417.2
2064.334	4416.2
2068.439	4431.2
2072.54	4446.2
2076.637	4499.2
2080.73	4520.2
2084.82	4531.2
2088.906	4565.2
2092.988	4585.2
2097.066	4553.2
2101.14	4515.2
2105.211	4486.2
2109.278	4441.2
2113.342	4426.2
2117.401	4385.2
2121.457	4382.2
2125.509	4353.2
2129.558	4370.2
2133.602	4325.2
2137.643	4300.2
2141.681	4280.2
2145.714	4273.2
2149.744	4205.2
2153.77	4203.2
2157.793	4127.2
2161.812	4083.2
2165.827	4032.2
2169.838	3969.2
2173.846	3914.2
2177.851	3861.2
2181.851	3774.2
2185.848	3739.2
2189.841	3703.2
2193.831	3649.2
2197.817	3626.2
2201.799	3598.2
2205.778	3553.2
2209.753	3569.2
2213.725	3544.2
2217.693	3567.2
2221.657	3552.2
2225.618	3522.2
2229.575	3506.2
2233.529	3497.2
2237.479	3442.2
2241.425	3400.2
2245.368	3357.2
2249.307	3333.2
2253.243	3256.2
2257.175	3214.2
2261.104	3159.2
2265.029	3130.2
2268.95	3100.2
2272.868	3073.2
2276.783	3037.2
2280.694	2993.2
2284.601	2976.2
2288.505	2923.2
2292.405	2916.2
2296.302	2875.2
2300.195	2843.2
2304.085	2812.2
2307.971	2791.2
2311.854	2739.2
2315.734	2687.2
2319.609	2662.2
2323.482	2608.2
2327.351	2590.2
2331.216	2601.2
2335.078	2577.2
2338.937	2541.2
2342.792	2544.2
2346.643	2521.2
2350.492	2521.2
2354.336	2545.2
2358.178	2569.2
2362.015	2539.2
2365.85	2561.2
2369.681	2545.2
2373.508	2555.2
2377.333	2562.2
2381.153	2534.2
2384.971	2519.2
2388.785	2525.2
2392.595	2461.2
2396.402	2484.2
2400.206	2446.2
2404.007	2415.2
2407.804	2420.2
2411.597	2392.2
2415.388	2389.2
2419.174	2363.2
2422.958	2361.2
2426.738	2334.2
2430.515	2313.2
2434.289	2285.2
2438.059	2285.2
2441.825	2269.2
2445.589	2225.2
2449.349	2208.2
2453.106	2163.2
2456.859	2148.2
2460.61	2128.2
2464.356	2092.2
2468.1	2064.2
2471.84	2049.2
2475.577	2026.2
2479.311	2028.2
2483.041	2018.2
2486.768	1993.2
2490.492	1982.2
2494.213	1997.2
2497.93	1964.2
2501.644	1965.2
2505.355	1969.2
2509.062	1946.2
2512.766	1947.2
2516.467	1918.2
2520.165	1911.2
2523.859	1892.2
2527.551	1870.2
2531.239	1864.2
2534.923	1852.2
2538.605	1850.2
2542.283	1845.2
2545.958	1821.2
2549.63	1808.2
2553.299	1820.2
2556.964	1810.2
2560.626	1803.2
2564.285	1779.2
2567.941	1789.2
2571.594	1765.2
2575.243	1781.2
2578.89	1754.2
2582.533	1745.2
2586.173	1730.2
2589.809	1701.2
2593.443	1722.2
2597.073	1687.2
2600.701	1666.2
2604.325	1660.2
2607.946	1641.2
2611.564	1632.2
2615.178	1627.2
2618.79	1613.2
2622.398	1580.2
2626.004	1598.2
2629.606	1570.2
2633.205	1549.2
2636.801	1513.2
2640.394	1504.2
2643.983	1469.2
2647.57	1463.2
2651.153	1431.2
2654.734	1405.2
2658.311	1377.2
2661.885	1371.2
2665.456	1352.2
2669.025	1330.2
2672.589	1326.2
2676.151	1306.2
2679.71	1306.2
2683.266	1259.2
2686.819	1234.2
2690.368	1219.2
2693.915	1181.2
2697.458	1174.2
2700.999	1126.2
2704.536	1100.2
2708.071	1081.2
2711.602	1068.2
2715.13	1034.2
2718.656	995.2
2722.178	984.2
2725.697	981.2
2729.214	964.2
2732.727	961.2
2736.237	942.2
2739.744	949.2
2743.249	948.2
2746.75	965.2
2750.248	954.2
2753.743	970.2
2757.236	993.2
2760.725	1005.2
2764.211	1005.2
2767.695	973.2
2771.175	1001.2
2774.652	1008.2
2778.127	986.2
2781.598	990.2
2785.067	981.2
2788.532	978.2
2791.995	963.2
2795.455	972.2
2798.911	986.2
2802.365	987.2
2805.816	970.2
2809.264	973.2
2812.709	987.2
2816.151	999.2
2819.59	973.2
2823.026	980.2
2826.46	990.2
2829.89	996.2
2833.318	988.2
2836.742	1004.2
2840.164	1004.2
2843.583	1010.2
2846.999	1023.2
2850.412	1035.2
2853.822	1061.2
2857.229	1072.2
2860.634	1075.2
2864.035	1099.2
2867.434	1119.2
2870.83	1128.2
2874.223	1162.2
2877.613	1171.2
2881	1202.2
2884.385	1208.2
2887.766	1223.2
2891.145	1224.2
2894.521	1197.2
2897.894	1204.2
2901.264	1227.2
2904.631	1225.2
2907.996	1208.2
2911.358	1233.2
2914.717	1232.2
2918.073	1252.2
2921.426	1231.2
2924.777	1283.2
2928.124	1299.2
2931.469	1308.2
2934.811	1329.2
2938.15	1362.2
2941.487	1357.2
2944.821	1396.2
2948.152	1367.2
2951.48	1373.2
2954.805	1366.2
2958.128	1328.2
2961.447	1330.2
2964.765	1332.2
2968.079	1336.2
2971.39	1342.2
2974.699	1363.2
2978.005	1383.2
2981.308	1418.2
2984.609	1430.2
2987.907	1470.2
2991.202	1487.2
2994.494	1534.2
2997.784	1552.2
3001.07	1564.2
3004.355	1600.2
3007.636	1628.2
3010.915	1640.2
3014.191	1684.2
3017.464	1674.2
3020.734	1703.2
3024.002	1720.2
3027.267	1719.2
3030.53	1742.2
3033.789	1733.2
3037.046	1769.2
3040.301	1820.2
3043.552	1845.2
3046.801	1874.2
3050.048	1929.2
3053.291	1972.2
3056.532	2051.2
3059.771	2097.2
3063.006	2137.2
3066.239	2217.2
3069.469	2286.2
3072.697	2353.2
3075.922	2414.2
3079.144	2473.2
3082.364	2521.2
3085.581	2599.2
3088.795	2633.2
3092.007	2695.2
3095.216	2748.2
3098.423	2769.2
3101.627	2883.2
3104.828	2930.2
3108.026	2992.2
3111.222	3071.2
3114.416	3141.2
3117.607	3212.2
3120.795	3271.2
3123.98	3402.2
3127.163	3462.2
3130.344	3554.2
3133.521	3612.2
3136.696	3712.2
3139.869	3769.2
3143.039	3814.2
3146.206	3890.2
3149.371	3957.2
3152.533	3980.2
3155.693	3993.2
3158.85	4022.2
3162.005	4050.2
3165.157	4070.2
3168.306	4057.2
3171.453	4059.2
3174.597	4100.2
3177.739	4067.2
3180.878	4127.2
3184.014	4112.2
3187.149	4084.2
3190.28	4094.2
3193.409	4122.2
3196.536	4129.2
3199.659	4129.2
3202.781	4141.2
3205.9	4135.2
3209.016	4126.2
3212.13	4130.2
3215.241	4087.2
3218.35	4028.2
3221.456	4001.2
3224.56	3940.2
3227.661	3919.2
3230.76	3852.2
3233.856	3822.2
3236.95	3778.2
3240.041	3753.2
3243.13	3732.2
3246.216	3727.2
3249.3	3697.2
3252.382	3685.2
3255.46	3673.2
3258.537	3677.2
3261.611	3656.2
3264.682	3645.2
3267.751	3644.2
3270.818	3634.2
3273.882	3634.2
3276.943	3595.2
3280.002	3603.2
3283.059	3548.2
3286.113	3538.2
3289.165	3448.2
3292.214	3408.2
3295.261	3369.2
3298.306	3314.2
3301.348	3231.2
3304.387	3198.2
3307.425	3145.2
3310.459	3096.2
3313.492	3072.2
3316.521	3019.2
3319.549	2978.2
3322.574	2952.2
3325.597	2923.2
3328.617	2890.2
3331.635	2879.2
3334.65	2851.2
3337.663	2870.2
3340.674	2832.2
3343.682	2818.2
3346.688	2848.2
3349.691	2810.2
3352.692	2781.2
3355.691	2752.2
3358.687	2744.2
3361.681	2729.2
3364.673	2688.2
3367.662	2636.2
3370.649	2582.2
3373.633	2546.2
3376.615	2515.2
3379.595	2458.2
3382.572	2436.2
3385.547	2407.2
3388.52	2375.2
3391.49	2345.2
3394.458	2312.2
3397.424	2268.2
3400.387	2254.2
3403.348	2206.2
3406.307	2197.2
3409.263	2154.2
3412.217	2152.2
3415.168	2114.2
3418.118	2100.2
3421.065	2064.2
3424.009	2054.2
3426.951	1995.2
3429.891	1982.2
3432.829	1926.2
3435.764	1888.2
3438.697	1851.2
3441.628	1783.2
3444.557	1720.2
3447.483	1672.2
3450.407	1641.2
3453.328	1560.2
3456.247	1529.2
3459.164	1460.2
3462.079	1415.2
3464.991	1358.2
3467.902	1328.2
3470.809	1270.2
3473.715	1222.2
3476.618	1160.2
3479.519	1139.2
3482.418	1108.2
3485.315	1067.2
3488.209	1014.2
3491.101	983.2
3493.99	951.2
3496.878	906.2
3499.763	888.2
3502.646	848.2
3505.527	793.2
3508.405	790.2
3511.281	717.2
3514.155	691.2
3517.027	650.2
3519.897	617.2
3522.764	561.2
3525.629	518.2
3528.492	471.2
3531.352	438.2
3534.211	407.2
3537.067	381.2
3539.921	333.2
3542.773	289.2
3545.622	253.2
3548.469	229.2
3551.315	198.2
3554.157	176.2
3556.998	131.2
3559.837	124.2
3562.673	103.2
3565.507	61.2
3568.339	47.2
3571.169	29.2
3573.996	7.2
3576.822	-14.8
3579.645	-35.8
3582.466	-47.8
3585.285	-59.8
3588.101	-92.8
3590.916	-102.8
3593.728	-142.8
3596.538	-151.8
3599.346	-173.8
3602.152	-181.8
3604.956	-203.8
3607.757	-216.8
3610.556	-229.8
3613.354	-238.8
3616.149	-268.8
3618.942	-275.8
3621.732	-283.8
3624.521	-300.8
3627.307	-310.8
3630.092	-319.8
3632.874	-328.8
3635.654	-345.8
3638.432	-341.8
3641.208	-349.8
3643.982	-367.8
3646.753	-364.8
3649.523	-381.8
3652.29	-389.8
3655.055	-391.8
3657.818	-408.8
3660.579	-420.8
3663.338	-427.8
3666.095	-434.8
3668.849	-454.8
3671.602	-465.8
3674.352	-459.8
3677.101	-470.8
3679.847	-485.8
3682.591	-490.8
3685.333	-493.8
3688.073	-500.8
3690.811	-506.8
3693.547	-512.8
3696.281	-510.8
3699.013	-521.8
3701.742	-523.8
3704.47	-532.8
3707.195	-531.8
3709.919	-536.8
3712.64	-539.8
3715.359	-543.8
3718.076	-553.8
3720.792	-548.8
3723.505	-551.8
3726.216	-564.8
3728.925	-552.8
3731.632	-568.8
3734.336	-568.8
3737.039	-572.8
3739.74	-572.8
3742.439	-579.8
3745.136	-579.8
3747.83	-579.8
3750.523	-581.8
3753.213	-557.8
3755.902	-584.8
3758.589	-585.8
3761.273	-592.8
3763.956	-591.8
3766.636	-589.8
3769.315	-594.8
3771.991	-594.8
3774.665	-601.8
3777.338	-597.8
3780.008	-600.8
3782.677	-604.8
3785.343	-600.8
3788.007	-606.8
3790.67	-605.8
3793.33	-609.8
3795.989	-607.8
3798.645	-612.8
3801.299	-606.8
3803.952	-615.8
3806.602	-617.8
3809.251	-616.8
3811.897	-620.8
3814.542	-615.8
3817.184	-612.8
3819.825	-617.8
3822.463	-617.8
3825.1	-619.8
3827.735	-615.8
3830.367	-615.8
3832.998	-627.8
3835.627	-626.8
3838.253	-628.8
3840.878	-635.8
3843.501	-631.8
3846.122	-625.8
3848.741	-623.8
3851.358	-621.8
3853.973	-627.8
3856.586	-628.8
3859.197	-626.8
3861.806	-632.8
3864.414	-631.8
3867.019	-627.8
3869.622	-626.8
3872.224	-624.8
3874.823	-610.8
3877.421	-592.8
3880.016	-575.8
3882.61	-562.8
3885.202	-554.8
3887.792	-569.8
3890.38	-604.8
3892.966	-615.8
3895.55	-626.8
3898.132	-641.8
3900.713	-641.8
3903.291	-643.8
3905.868	-644.8
3908.442	-640.8
3911.015	-645.8
3913.586	-645.8
3916.155	-637.8
3918.722	-642.8
3921.287	-642.8
3923.85	-644.8
3926.411	-647.8
3928.971	-652.8
3931.528	-647.8
3934.084	-651.8
3936.638	-646.8
3939.19	-645.8
3941.74	-643.8
3944.288	-649.8
3946.834	-647.8
3949.378	-652.8
3951.921	-644.8
3954.462	-653.8
3957	-646.8
3959.537	-642.8
3962.072	-645.8
3964.606	-641.8
3967.137	-646.8
3969.667	-642.8
3972.194	-638.8
3974.72	-639.8
3977.244	-629.8
3979.766	-635.8
3982.286	-634.8
3984.805	-633.8
3987.321	-632.8
3989.836	-632.8
3992.349	-627.8
3994.86	-628.8
3997.369	-638.8
3999.877	-636.8
4002.382	-629.8
4004.886	-628.8
4007.388	-628.8
4009.888	-629.8
4012.386	-632.8
4014.883	-632.8
4017.377	-633.8
4019.87	-630.8
4022.361	-624.8
4024.85	-631.8
4027.338	-631.8
4029.823	-636.8
4032.307	-632.8
4034.789	-628.8
4037.269	-631.8
4039.747	-634.8
4042.224	-636.8
4044.699	-635.8
4047.172	-629.8
4049.643	-633.8
4052.112	-638.8
4054.58	-641.8
4057.046	-643.8
4059.51	-642.8
4061.972	-636.8
4064.432	-637.8
4066.891	-633.8
4069.348	-633.8
4071.803	-627.8
4074.256	-627.8
4076.708	-624.8
4079.158	-633.8
4081.606	-629.8
4084.052	-638.8
4086.497	-637.8
4088.939	-627.8
4091.38	-635.8
4093.819	-627.8
4096.257	-663.8
4098.693	-668.8
4101.127	-672.8
4103.559	-670.8
4105.989	-380.8
4108.418	-356.8
4110.845	-337.8
4113.27	-302.8
4115.694	-273.8
4118.115	-233.8
4120.535	-631.8
4122.954	-628.8
4125.37	-627.8
4127.785	-633.8
4130.198	-634.8
4132.609	-639.8
4135.019	-666.8
4137.427	-670.8
4139.833	-671.8
4142.237	-666.8
