Data from 2018-2-14_conc=3_n=10_RamanShift_01.txt Node
Date: Wed Feb 14 12:12:26 IST 2018
User: aro
Spectrometer: QEPB0276
Trigger mode: 0
Integration Time (sec): 3.000000E1
Scans to average: 1
Electric dark correction enabled: true
Nonlinearity correction enabled: false
Boxcar width: 0
XAxis mode: Raman Shifts
Number of Pixels in Spectrum: 1044
>>>>>Begin Spectral Data<<<<<
160.701	-143.8
166.742	46.2
172.777	579.2
178.805	2218.2
184.826	6150.2
190.841	12992.2
196.849	20815.2
202.85	26399.2
208.845	28245.2
214.833	27872.2
220.815	27362.2
226.789	27187.2
232.758	27082.2
238.719	26866.2
244.674	26462.2
250.623	26016.2
256.565	25422.2
262.5	24871.2
268.429	24339.2
274.351	23918.2
280.267	23676.2
286.176	23394.2
292.079	23106.2
297.975	22898.2
303.865	22683.2
309.748	22519.2
315.625	22319.2
321.495	22247.2
327.359	22128.2
333.217	22053.2
339.068	22090.2
344.912	21992.2
350.751	21984.2
356.583	22054.2
362.408	22009.2
368.227	21925.2
374.04	22014.2
379.847	22055.2
385.647	22076.2
391.44	22242.2
397.228	22353.2
403.009	22402.2
408.784	22481.2
414.553	22529.2
420.315	22609.2
426.071	22580.2
431.821	22540.2
437.565	22547.2
443.302	22565.2
449.033	22429.2
454.758	22450.2
460.477	22361.2
466.189	22359.2
471.896	22342.2
477.596	22227.2
483.29	22189.2
488.978	22165.2
494.66	22067.2
500.335	21937.2
506.005	21777.2
511.668	21524.2
517.325	21269.2
522.977	21047.2
528.622	20910.2
534.261	20815.2
539.894	20644.2
545.521	20598.2
551.141	20543.2
556.756	20469.2
562.365	20382.2
567.968	20280.2
573.565	20233.2
579.155	20132.2
584.74	20084.2
590.319	19996.2
595.892	19884.2
601.459	19874.2
607.02	19692.2
612.575	19603.2
618.124	19469.2
623.667	19409.2
629.204	19296.2
634.735	19240.2
640.261	19158.2
645.781	19140.2
651.294	19054.2
656.802	19044.2
662.304	18992.2
667.8	18933.2
673.29	18961.2
678.775	18826.2
684.254	18814.2
689.726	18760.2
695.193	18710.2
700.655	18603.2
706.11	18532.2
711.56	18471.2
717.004	18337.2
722.442	18267.2
727.874	18153.2
733.301	18136.2
738.722	18044.2
744.137	18032.2
749.547	18029.2
754.951	18050.2
760.349	18021.2
765.741	18077.2
771.128	18069.2
776.509	18047.2
781.885	18112.2
787.254	17963.2
792.618	17920.2
797.977	17830.2
803.33	17756.2
808.677	17639.2
814.019	17548.2
819.355	17429.2
824.686	17366.2
830.011	17310.2
835.33	17347.2
840.644	17315.2
845.952	17316.2
851.255	17348.2
856.552	17411.2
861.844	17365.2
867.13	17332.2
872.41	17228.2
877.686	17158.2
882.955	17089.2
888.219	16873.2
893.478	16751.2
898.731	16464.2
903.979	16347.2
909.221	16227.2
914.458	16156.2
919.69	16149.2
924.916	16183.2
930.136	16229.2
935.351	16285.2
940.561	16280.2
945.766	16243.2
950.965	16178.2
956.158	16036.2
961.347	15879.2
966.529	15663.2
971.707	15453.2
976.879	15338.2
982.046	15196.2
987.208	15113.2
992.364	15165.2
997.515	15276.2
1002.66	15367.2
1007.801	15503.2
1012.936	15630.2
1018.066	15592.2
1023.19	15667.2
1028.309	15633.2
1033.423	15598.2
1038.532	15511.2
1043.636	15442.2
1048.734	15216.2
1053.827	15018.2
1058.915	14845.2
1063.998	14755.2
1069.075	14749.2
1074.147	14703.2
1079.214	14781.2
1084.276	14885.2
1089.333	15000.2
1094.385	15008.2
1099.431	15058.2
1104.472	15039.2
1109.509	14958.2
1114.54	14795.2
1119.565	14621.2
1124.586	14443.2
1129.602	14291.2
1134.613	14226.2
1139.618	14111.2
1144.619	14056.2
1149.614	14040.2
1154.604	14106.2
1159.589	14131.2
1164.57	14200.2
1169.545	14164.2
1174.515	14174.2
1179.48	14069.2
1184.44	14009.2
1189.395	13904.2
1194.345	13827.2
1199.29	13757.2
1204.23	13728.2
1209.165	13836.2
1214.095	13909.2
1219.021	13934.2
1223.941	13982.2
1228.856	14082.2
1233.766	14162.2
1238.672	14139.2
1243.572	14154.2
1248.467	14080.2
1253.358	13921.2
1258.244	13718.2
1263.124	13484.2
1268	13292.2
1272.871	13100.2
1277.737	13025.2
1282.599	12950.2
1287.455	12955.2
1292.306	12951.2
1297.153	13047.2
1301.995	13024.2
1306.832	13112.2
1311.664	13156.2
1316.491	13131.2
1321.314	13049.2
1326.132	12835.2
1330.945	12533.2
1335.753	12202.2
1340.556	11916.2
1345.354	11612.2
1350.148	11457.2
1354.937	11365.2
1359.722	11362.2
1364.501	11394.2
1369.276	11549.2
1374.046	11732.2
1378.811	11929.2
1383.572	12047.2
1388.327	12117.2
1393.079	12093.2
1397.825	11931.2
1402.567	11723.2
1407.304	11548.2
1412.036	11477.2
1416.764	11373.2
1421.487	11354.2
1426.205	11215.2
1430.919	11185.2
1435.628	11199.2
1440.333	11258.2
1445.032	11226.2
1449.727	11288.2
1454.418	11272.2
1459.104	11096.2
1463.785	10902.2
1468.462	10689.2
1473.134	10452.2
1477.802	10229.2
1482.465	10040.2
1487.123	9943.2
1491.777	9872.2
1496.426	9936.2
1501.071	10068.2
1505.711	10254.2
1510.347	10464.2
1514.978	10629.2
1519.604	10829.2
1524.226	10900.2
1528.844	10929.2
1533.457	10922.2
1538.065	10895.2
1542.669	10780.2
1547.269	10734.2
1551.864	10690.2
1556.454	10606.2
1561.041	10560.2
1565.622	10611.2
1570.199	10606.2
1574.772	10634.2
1579.34	10760.2
1583.904	10773.2
1588.464	10782.2
1593.019	10823.2
1597.569	10804.2
1602.115	10713.2
1606.657	10646.2
1611.195	10592.2
1615.728	10530.2
1620.256	10461.2
1624.78	10420.2
1629.3	10466.2
1633.816	10470.2
1638.327	10553.2
1642.834	10623.2
1647.336	10668.2
1651.834	10663.2
1656.328	10647.2
1660.817	10639.2
1665.302	10510.2
1669.783	10322.2
1674.259	10054.2
1678.732	9786.2
1683.199	9453.2
1687.663	9126.2
1692.122	8791.2
1696.577	8667.2
1701.028	8664.2
1705.474	8735.2
1709.917	8894.2
1714.355	8913.2
1718.788	8855.2
1723.218	8700.2
1727.643	8571.2
1732.064	8372.2
1736.481	8219.2
1740.893	8011.2
1745.301	7785.2
1749.705	7591.2
1754.105	7370.2
1758.501	7138.2
1762.893	6941.2
1767.28	6800.2
1771.663	6634.2
1776.042	6479.2
1780.417	6417.2
1784.787	6366.2
1789.154	6489.2
1793.516	6577.2
1797.874	6740.2
1802.228	6863.2
1806.578	6973.2
1810.924	6957.2
1815.266	6918.2
1819.603	6827.2
1823.937	6720.2
1828.266	6610.2
1832.591	6514.2
1836.913	6400.2
1841.23	6300.2
1845.543	6293.2
1849.852	6253.2
1854.156	6216.2
1858.457	6194.2
1862.754	6240.2
1867.047	6200.2
1871.335	6195.2
1875.62	6146.2
1879.9	6151.2
1884.177	6101.2
1888.449	6030.2
1892.718	5978.2
1896.982	5905.2
1901.243	5848.2
1905.499	5812.2
1909.752	5795.2
1914	5750.2
1918.245	5798.2
1922.485	5865.2
1926.722	5926.2
1930.954	6005.2
1935.183	6072.2
1939.408	6148.2
1943.628	6209.2
1947.845	6180.2
1952.058	6200.2
1956.267	6147.2
1960.472	6062.2
1964.673	5982.2
1968.87	5910.2
1973.063	5782.2
1977.252	5698.2
1981.438	5661.2
1985.619	5575.2
1989.797	5544.2
1993.971	5516.2
1998.14	5490.2
2002.306	5444.2
2006.469	5450.2
2010.627	5404.2
2014.781	5376.2
2018.932	5356.2
2023.078	5316.2
2027.221	5207.2
2031.36	5139.2
2035.495	5074.2
2039.627	4995.2
2043.754	4897.2
2047.878	4873.2
2051.998	4853.2
2056.114	4810.2
2060.226	4828.2
2064.334	4840.2
2068.439	4805.2
2072.54	4828.2
2076.637	4889.2
2080.73	4948.2
2084.82	4941.2
2088.906	4969.2
2092.988	4979.2
2097.066	4964.2
2101.14	4953.2
2105.211	4923.2
2109.278	4900.2
2113.342	4887.2
2117.401	4842.2
2121.457	4810.2
2125.509	4790.2
2129.558	4788.2
2133.602	4759.2
2137.643	4721.2
2141.681	4721.2
2145.714	4673.2
2149.744	4633.2
2153.77	4594.2
2157.793	4534.2
2161.812	4491.2
2165.827	4392.2
2169.838	4353.2
2173.846	4293.2
2177.851	4220.2
2181.851	4168.2
2185.848	4082.2
2189.841	4059.2
2193.831	4020.2
2197.817	3970.2
2201.799	3944.2
2205.778	3924.2
2209.753	3903.2
2213.725	3903.2
2217.693	3889.2
2221.657	3894.2
2225.618	3884.2
2229.575	3835.2
2233.529	3817.2
2237.479	3809.2
2241.425	3757.2
2245.368	3693.2
2249.307	3649.2
2253.243	3592.2
2257.175	3555.2
2261.104	3488.2
2265.029	3498.2
2268.95	3421.2
2272.868	3388.2
2276.783	3381.2
2280.694	3326.2
2284.601	3275.2
2288.505	3273.2
2292.405	3230.2
2296.302	3214.2
2300.195	3170.2
2304.085	3118.2
2307.971	3063.2
2311.854	3027.2
2315.734	3008.2
2319.609	2975.2
2323.482	2901.2
2327.351	2890.2
2331.216	2864.2
2335.078	2859.2
2338.937	2837.2
2342.792	2846.2
2346.643	2793.2
2350.492	2823.2
2354.336	2817.2
2358.178	2832.2
2362.015	2822.2
2365.85	2834.2
2369.681	2807.2
2373.508	2834.2
2377.333	2837.2
2381.153	2831.2
2384.971	2798.2
2388.785	2781.2
2392.595	2766.2
2396.402	2743.2
2400.206	2732.2
2404.007	2684.2
2407.804	2660.2
2411.597	2652.2
2415.388	2633.2
2419.174	2647.2
2422.958	2590.2
2426.738	2591.2
2430.515	2542.2
2434.289	2542.2
2438.059	2514.2
2441.825	2500.2
2445.589	2481.2
2449.349	2472.2
2453.106	2436.2
2456.859	2389.2
2460.61	2381.2
2464.356	2335.2
2468.1	2317.2
2471.84	2301.2
2475.577	2265.2
2479.311	2238.2
2483.041	2249.2
2486.768	2225.2
2490.492	2203.2
2494.213	2214.2
2497.93	2213.2
2501.644	2184.2
2505.355	2187.2
2509.062	2160.2
2512.766	2157.2
2516.467	2159.2
2520.165	2117.2
2523.859	2139.2
2527.551	2088.2
2531.239	2087.2
2534.923	2089.2
2538.605	2095.2
2542.283	2070.2
2545.958	2085.2
2549.63	2087.2
2553.299	2096.2
2556.964	2060.2
2560.626	2051.2
2564.285	2046.2
2567.941	2026.2
2571.594	2006.2
2575.243	2002.2
2578.89	1995.2
2582.533	1976.2
2586.173	1949.2
2589.809	1938.2
2593.443	1925.2
2597.073	1918.2
2600.701	1900.2
2604.325	1896.2
2607.946	1866.2
2611.564	1851.2
2615.178	1855.2
2618.79	1838.2
2622.398	1819.2
2626.004	1794.2
2629.606	1771.2
2633.205	1755.2
2636.801	1722.2
2640.394	1720.2
2643.983	1671.2
2647.57	1658.2
2651.153	1636.2
2654.734	1590.2
2658.311	1558.2
2661.885	1575.2
2665.456	1541.2
2669.025	1495.2
2672.589	1491.2
2676.151	1479.2
2679.71	1462.2
2683.266	1462.2
2686.819	1426.2
2690.368	1381.2
2693.915	1359.2
2697.458	1327.2
2700.999	1294.2
2704.536	1261.2
2708.071	1241.2
2711.602	1228.2
2715.13	1182.2
2718.656	1163.2
2722.178	1143.2
2725.697	1124.2
2729.214	1116.2
2732.727	1108.2
2736.237	1103.2
2739.744	1071.2
2743.249	1091.2
2746.75	1101.2
2750.248	1119.2
2753.743	1130.2
2757.236	1143.2
2760.725	1180.2
2764.211	1179.2
2767.695	1176.2
2771.175	1167.2
2774.652	1165.2
2778.127	1145.2
2781.598	1125.2
2785.067	1160.2
2788.532	1153.2
2791.995	1151.2
2795.455	1140.2
2798.911	1159.2
2802.365	1150.2
2805.816	1133.2
2809.264	1142.2
2812.709	1130.2
2816.151	1128.2
2819.59	1133.2
2823.026	1132.2
2826.46	1139.2
2829.89	1154.2
2833.318	1142.2
2836.742	1137.2
2840.164	1161.2
2843.583	1166.2
2846.999	1184.2
2850.412	1179.2
2853.822	1201.2
2857.229	1209.2
2860.634	1235.2
2864.035	1249.2
2867.434	1266.2
2870.83	1301.2
2874.223	1304.2
2877.613	1347.2
2881	1379.2
2884.385	1356.2
2887.766	1358.2
2891.145	1354.2
2894.521	1345.2
2897.894	1367.2
2901.264	1359.2
2904.631	1354.2
2907.996	1358.2
2911.358	1352.2
2914.717	1385.2
2918.073	1390.2
2921.426	1382.2
2924.777	1393.2
2928.124	1426.2
2931.469	1432.2
2934.811	1477.2
2938.15	1500.2
2941.487	1495.2
2944.821	1514.2
2948.152	1520.2
2951.48	1503.2
2954.805	1480.2
2958.128	1474.2
2961.447	1456.2
2964.765	1461.2
2968.079	1456.2
2971.39	1470.2
2974.699	1474.2
2978.005	1517.2
2981.308	1528.2
2984.609	1533.2
2987.907	1597.2
2991.202	1618.2
2994.494	1665.2
2997.784	1707.2
3001.07	1719.2
3004.355	1739.2
3007.636	1788.2
3010.915	1793.2
3014.191	1793.2
3017.464	1792.2
3020.734	1827.2
3024.002	1828.2
3027.267	1869.2
3030.53	1882.2
3033.789	1906.2
3037.046	1904.2
3040.301	1941.2
3043.552	1963.2
3046.801	2017.2
3050.048	2046.2
3053.291	2109.2
3056.532	2152.2
3059.771	2204.2
3063.006	2277.2
3066.239	2356.2
3069.469	2443.2
3072.697	2475.2
3075.922	2545.2
3079.144	2605.2
3082.364	2659.2
3085.581	2698.2
3088.795	2768.2
3092.007	2833.2
3095.216	2887.2
3098.423	2963.2
3101.627	3018.2
3104.828	3106.2
3108.026	3134.2
3111.222	3233.2
3114.416	3288.2
3117.607	3376.2
3120.795	3440.2
3123.98	3534.2
3127.163	3606.2
3130.344	3701.2
3133.521	3787.2
3136.696	3861.2
3139.869	3925.2
3143.039	4029.2
3146.206	4058.2
3149.371	4119.2
3152.533	4180.2
3155.693	4171.2
3158.85	4187.2
3162.005	4232.2
3165.157	4236.2
3168.306	4248.2
3171.453	4260.2
3174.597	4263.2
3177.739	4277.2
3180.878	4264.2
3184.014	4262.2
3187.149	4275.2
3190.28	4287.2
3193.409	4277.2
3196.536	4278.2
3199.659	4286.2
3202.781	4278.2
3205.9	4303.2
3209.016	4284.2
3212.13	4261.2
3215.241	4242.2
3218.35	4222.2
3221.456	4157.2
3224.56	4144.2
3227.661	4067.2
3230.76	4030.2
3233.856	4004.2
3236.95	3950.2
3240.041	3907.2
3243.13	3897.2
3246.216	3869.2
3249.3	3847.2
3252.382	3841.2
3255.46	3847.2
3258.537	3823.2
3261.611	3826.2
3264.682	3781.2
3267.751	3834.2
3270.818	3805.2
3273.882	3787.2
3276.943	3780.2
3280.002	3743.2
3283.059	3691.2
3286.113	3670.2
3289.165	3606.2
3292.214	3540.2
3295.261	3516.2
3298.306	3470.2
3301.348	3375.2
3304.387	3333.2
3307.425	3310.2
3310.459	3231.2
3313.492	3223.2
3316.521	3162.2
3319.549	3114.2
3322.574	3081.2
3325.597	3053.2
3328.617	3011.2
3331.635	3001.2
3334.65	2985.2
3337.663	2946.2
3340.674	2942.2
3343.682	2931.2
3346.688	2917.2
3349.691	2917.2
3352.692	2921.2
3355.691	2856.2
3358.687	2853.2
3361.681	2831.2
3364.673	2791.2
3367.662	2765.2
3370.649	2715.2
3373.633	2682.2
3376.615	2628.2
3379.595	2593.2
3382.572	2546.2
3385.547	2524.2
3388.52	2476.2
3391.49	2420.2
3394.458	2420.2
3397.424	2387.2
3400.387	2341.2
3403.348	2310.2
3406.307	2297.2
3409.263	2268.2
3412.217	2235.2
3415.168	2198.2
3418.118	2188.2
3421.065	2172.2
3424.009	2155.2
3426.951	2102.2
3429.891	2069.2
3432.829	2003.2
3435.764	1968.2
3438.697	1915.2
3441.628	1871.2
3444.557	1825.2
3447.483	1769.2
3450.407	1716.2
3453.328	1672.2
3456.247	1594.2
3459.164	1538.2
3462.079	1494.2
3464.991	1437.2
3467.902	1385.2
3470.809	1322.2
3473.715	1267.2
3476.618	1236.2
3479.519	1196.2
3482.418	1154.2
3485.315	1099.2
3488.209	1075.2
3491.101	1045.2
3493.99	1013.2
3496.878	984.2
3499.763	945.2
3502.646	896.2
3505.527	843.2
3508.405	823.2
3511.281	773.2
3514.155	745.2
3517.027	682.2
3519.897	660.2
3522.764	603.2
3525.629	544.2
3528.492	508.2
3531.352	475.2
3534.211	431.2
3537.067	398.2
3539.921	359.2
3542.773	331.2
3545.622	284.2
3548.469	267.2
3551.315	231.2
3554.157	203.2
3556.998	178.2
3559.837	142.2
3562.673	123.2
3565.507	95.2
3568.339	79.2
3571.169	60.2
3573.996	36.2
3576.822	14.2
3579.645	-2.8
3582.466	-33.8
3585.285	-59.8
3588.101	-77.8
3590.916	-102.8
3593.728	-125.8
3596.538	-137.8
3599.346	-156.8
3602.152	-164.8
3604.956	-186.8
3607.757	-214.8
3610.556	-220.8
3613.354	-243.8
3616.149	-262.8
3618.942	-256.8
3621.732	-275.8
3624.521	-295.8
3627.307	-304.8
3630.092	-312.8
3632.874	-324.8
3635.654	-332.8
3638.432	-330.8
3641.208	-349.8
3643.982	-361.8
3646.753	-365.8
3649.523	-372.8
3652.29	-389.8
3655.055	-392.8
3657.818	-416.8
3660.579	-414.8
3663.338	-437.8
3666.095	-440.8
3668.849	-454.8
3671.602	-457.8
3674.352	-463.8
3677.101	-471.8
3679.847	-471.8
3682.591	-485.8
3685.333	-485.8
3688.073	-491.8
3690.811	-500.8
3693.547	-500.8
3696.281	-511.8
3699.013	-521.8
3701.742	-526.8
3704.47	-531.8
3707.195	-534.8
3709.919	-538.8
3712.64	-547.8
3715.359	-546.8
3718.076	-555.8
3720.792	-543.8
3723.505	-549.8
3726.216	-563.8
3728.925	-559.8
3731.632	-570.8
3734.336	-565.8
3737.039	-571.8
3739.74	-570.8
3742.439	-570.8
3745.136	-580.8
3747.83	-581.8
3750.523	-578.8
3753.213	-577.8
3755.902	-589.8
3758.589	-589.8
3761.273	-599.8
3763.956	-600.8
3766.636	-597.8
3769.315	-600.8
3771.991	-596.8
3774.665	-608.8
3777.338	-605.8
3780.008	-601.8
3782.677	-609.8
3785.343	-604.8
3788.007	-607.8
3790.67	-612.8
3793.33	-611.8
3795.989	-608.8
3798.645	-615.8
3801.299	-612.8
3803.952	-623.8
3806.602	-624.8
3809.251	-624.8
3811.897	-622.8
3814.542	-623.8
3817.184	-621.8
3819.825	-617.8
3822.463	-619.8
3825.1	-629.8
3827.735	-619.8
3830.367	-619.8
3832.998	-631.8
3835.627	-634.8
3838.253	-632.8
3840.878	-632.8
3843.501	-631.8
3846.122	-629.8
3848.741	-629.8
3851.358	-622.8
3853.973	-630.8
3856.586	-636.8
3859.197	-636.8
3861.806	-639.8
3864.414	-630.8
3867.019	-636.8
3869.622	-633.8
3872.224	-632.8
3874.823	-622.8
3877.421	-607.8
3880.016	-591.8
3882.61	-573.8
3885.202	-570.8
3887.792	-579.8
3890.38	-598.8
3892.966	-622.8
3895.55	-637.8
3898.132	-645.8
3900.713	-650.8
3903.291	-641.8
3905.868	-648.8
3908.442	-647.8
3911.015	-652.8
3913.586	-648.8
3916.155	-648.8
3918.722	-652.8
3921.287	-650.8
3923.85	-652.8
3926.411	-649.8
3928.971	-655.8
3931.528	-645.8
3934.084	-653.8
3936.638	-644.8
3939.19	-653.8
3941.74	-646.8
3944.288	-652.8
3946.834	-643.8
3949.378	-653.8
3951.921	-648.8
3954.462	-656.8
3957	-644.8
3959.537	-652.8
3962.072	-652.8
3964.606	-651.8
3967.137	-658.8
3969.667	-652.8
3972.194	-645.8
3974.72	-648.8
3977.244	-637.8
3979.766	-636.8
3982.286	-640.8
3984.805	-638.8
3987.321	-639.8
3989.836	-641.8
3992.349	-628.8
3994.86	-629.8
3997.369	-639.8
3999.877	-635.8
4002.382	-634.8
4004.886	-635.8
4007.388	-627.8
4009.888	-637.8
4012.386	-645.8
4014.883	-638.8
4017.377	-634.8
4019.87	-633.8
4022.361	-637.8
4024.85	-638.8
4027.338	-638.8
4029.823	-637.8
4032.307	-641.8
4034.789	-636.8
4037.269	-636.8
4039.747	-641.8
4042.224	-639.8
4044.699	-639.8
4047.172	-643.8
4049.643	-637.8
4052.112	-643.8
4054.58	-642.8
4057.046	-644.8
4059.51	-647.8
4061.972	-642.8
4064.432	-646.8
4066.891	-636.8
4069.348	-638.8
4071.803	-635.8
4074.256	-635.8
4076.708	-637.8
4079.158	-641.8
4081.606	-637.8
4084.052	-640.8
4086.497	-643.8
4088.939	-637.8
4091.38	-636.8
4093.819	-634.8
4096.257	-675.8
4098.693	-678.8
4101.127	-681.8
4103.559	-673.8
4105.989	-379.8
4108.418	-366.8
4110.845	-339.8
4113.27	-313.8
4115.694	-278.8
4118.115	-229.8
4120.535	-641.8
4122.954	-633.8
4125.37	-636.8
4127.785	-640.8
4130.198	-641.8
4132.609	-647.8
4135.019	-678.8
4137.427	-678.8
4139.833	-673.8
4142.237	-668.8
