Data from 2018-2-14_conc=2_n=3_RamanShift_04.txt Node
Date: Wed Feb 14 11:07:56 IST 2018
User: aro
Spectrometer: QEPB0276
Trigger mode: 0
Integration Time (sec): 3.000000E1
Scans to average: 1
Electric dark correction enabled: true
Nonlinearity correction enabled: false
Boxcar width: 0
XAxis mode: Raman Shifts
Number of Pixels in Spectrum: 1044
>>>>>Begin Spectral Data<<<<<
160.701	-143.9
166.742	52.1
172.777	609.1
178.805	2367.1
184.826	6495.1
190.841	13666.1
196.849	21923.1
202.85	27843.1
208.845	29839.1
214.833	29649.1
220.815	29178.1
226.789	28965.1
232.758	28860.1
238.719	28811.1
244.674	28479.1
250.623	28010.1
256.565	27494.1
262.5	26951.1
268.429	26566.1
274.351	26147.1
280.267	25823.1
286.176	25598.1
292.079	25445.1
297.975	25177.1
303.865	25026.1
309.748	24851.1
315.625	24701.1
321.495	24624.1
327.359	24525.1
333.217	24479.1
339.068	24438.1
344.912	24380.1
350.751	24359.1
356.583	24361.1
362.408	24398.1
368.227	24392.1
374.04	24362.1
379.847	24446.1
385.647	24536.1
391.44	24629.1
397.228	24774.1
403.009	24801.1
408.784	24887.1
414.553	25007.1
420.315	25061.1
426.071	25036.1
431.821	25031.1
437.565	24978.1
443.302	24986.1
449.033	24978.1
454.758	24856.1
460.477	24871.1
466.189	24800.1
471.896	24760.1
477.596	24709.1
483.29	24661.1
488.978	24657.1
494.66	24572.1
500.335	24436.1
506.005	24255.1
511.668	23969.1
517.325	23741.1
522.977	23518.1
528.622	23386.1
534.261	23201.1
539.894	23156.1
545.521	23023.1
551.141	22924.1
556.756	22854.1
562.365	22847.1
567.968	22703.1
573.565	22668.1
579.155	22595.1
584.74	22470.1
590.319	22403.1
595.892	22253.1
601.459	22279.1
607.02	22119.1
612.575	21983.1
618.124	21867.1
623.667	21787.1
629.204	21683.1
634.735	21545.1
640.261	21458.1
645.781	21458.1
651.294	21366.1
656.802	21382.1
662.304	21270.1
667.8	21301.1
673.29	21210.1
678.775	21206.1
684.254	21146.1
689.726	21101.1
695.193	20973.1
700.655	20908.1
706.11	20827.1
711.56	20714.1
717.004	20582.1
722.442	20527.1
727.874	20494.1
733.301	20431.1
738.722	20374.1
744.137	20322.1
749.547	20303.1
754.951	20233.1
760.349	20299.1
765.741	20327.1
771.128	20264.1
776.509	20320.1
781.885	20339.1
787.254	20223.1
792.618	20187.1
797.977	20037.1
803.33	19978.1
808.677	19807.1
814.019	19716.1
819.355	19618.1
824.686	19589.1
830.011	19458.1
835.33	19470.1
840.644	19458.1
845.952	19499.1
851.255	19611.1
856.552	19593.1
861.844	19573.1
867.13	19545.1
872.41	19425.1
877.686	19318.1
882.955	19231.1
888.219	19047.1
893.478	18862.1
898.731	18686.1
903.979	18454.1
909.221	18360.1
914.458	18258.1
919.69	18208.1
924.916	18321.1
930.136	18338.1
935.351	18364.1
940.561	18344.1
945.766	18300.1
950.965	18273.1
956.158	18158.1
961.347	17929.1
966.529	17772.1
971.707	17519.1
976.879	17307.1
982.046	17186.1
987.208	17152.1
992.364	17105.1
997.515	17223.1
1002.66	17351.1
1007.801	17486.1
1012.936	17681.1
1018.066	17755.1
1023.19	17722.1
1028.309	17672.1
1033.423	17635.1
1038.532	17577.1
1043.636	17395.1
1048.734	17167.1
1053.827	16955.1
1058.915	16763.1
1063.998	16680.1
1069.075	16648.1
1074.147	16637.1
1079.214	16682.1
1084.276	16858.1
1089.333	16897.1
1094.385	16970.1
1099.431	17044.1
1104.472	17059.1
1109.509	16926.1
1114.54	16704.1
1119.565	16552.1
1124.586	16285.1
1129.602	16192.1
1134.613	16059.1
1139.618	15945.1
1144.619	15949.1
1149.614	15886.1
1154.604	15942.1
1159.589	16035.1
1164.57	16044.1
1169.545	16066.1
1174.515	16041.1
1179.48	15921.1
1184.44	15854.1
1189.395	15732.1
1194.345	15612.1
1199.29	15576.1
1204.23	15539.1
1209.165	15595.1
1214.095	15691.1
1219.021	15845.1
1223.941	15862.1
1228.856	15968.1
1233.766	16023.1
1238.672	16023.1
1243.572	15943.1
1248.467	15922.1
1253.358	15702.1
1258.244	15475.1
1263.124	15246.1
1268	15065.1
1272.871	14855.1
1277.737	14708.1
1282.599	14630.1
1287.455	14707.1
1292.306	14671.1
1297.153	14765.1
1301.995	14860.1
1306.832	14906.1
1311.664	14898.1
1316.491	14850.1
1321.314	14749.1
1326.132	14484.1
1330.945	14177.1
1335.753	13884.1
1340.556	13486.1
1345.354	13165.1
1350.148	12939.1
1354.937	12802.1
1359.722	12757.1
1364.501	12836.1
1369.276	12999.1
1374.046	13218.1
1378.811	13459.1
1383.572	13654.1
1388.327	13662.1
1393.079	13674.1
1397.825	13482.1
1402.567	13288.1
1407.304	13096.1
1412.036	12914.1
1416.764	12838.1
1421.487	12722.1
1426.205	12663.1
1430.919	12668.1
1435.628	12702.1
1440.333	12659.1
1445.032	12699.1
1449.727	12711.1
1454.418	12725.1
1459.104	12578.1
1463.785	12372.1
1468.462	12101.1
1473.134	11803.1
1477.802	11547.1
1482.465	11365.1
1487.123	11206.1
1491.777	11206.1
1496.426	11196.1
1501.071	11289.1
1505.711	11509.1
1510.347	11774.1
1514.978	11913.1
1519.604	12143.1
1524.226	12267.1
1528.844	12306.1
1533.457	12285.1
1538.065	12261.1
1542.669	12170.1
1547.269	12078.1
1551.864	11986.1
1556.454	11960.1
1561.041	11877.1
1565.622	11900.1
1570.199	11898.1
1574.772	11980.1
1579.34	12006.1
1583.904	12105.1
1588.464	12154.1
1593.019	12087.1
1597.569	12083.1
1602.115	11966.1
1606.657	11905.1
1611.195	11819.1
1615.728	11703.1
1620.256	11613.1
1624.78	11661.1
1629.3	11653.1
1633.816	11652.1
1638.327	11694.1
1642.834	11730.1
1647.336	11806.1
1651.834	11762.1
1656.328	11770.1
1660.817	11729.1
1665.302	11600.1
1669.783	11429.1
1674.259	11166.1
1678.732	10902.1
1683.199	10525.1
1687.663	10116.1
1692.122	9806.1
1696.577	9629.1
1701.028	9566.1
1705.474	9677.1
1709.917	9861.1
1714.355	9954.1
1718.788	9941.1
1723.218	9818.1
1727.643	9609.1
1732.064	9448.1
1736.481	9217.1
1740.893	9028.1
1745.301	8790.1
1749.705	8553.1
1754.105	8356.1
1758.501	8117.1
1762.893	7883.1
1767.28	7692.1
1771.663	7506.1
1776.042	7322.1
1780.417	7235.1
1784.787	7219.1
1789.154	7298.1
1793.516	7362.1
1797.874	7527.1
1802.228	7704.1
1806.578	7852.1
1810.924	7833.1
1815.266	7850.1
1819.603	7691.1
1823.937	7598.1
1828.266	7452.1
1832.591	7353.1
1836.913	7244.1
1841.23	7184.1
1845.543	7155.1
1849.852	7058.1
1854.156	7066.1
1858.457	7052.1
1862.754	7028.1
1867.047	7014.1
1871.335	7007.1
1875.62	6987.1
1879.9	6920.1
1884.177	6909.1
1888.449	6800.1
1892.718	6780.1
1896.982	6664.1
1901.243	6616.1
1905.499	6536.1
1909.752	6486.1
1914	6522.1
1918.245	6525.1
1922.485	6550.1
1926.722	6621.1
1930.954	6704.1
1935.183	6792.1
1939.408	6884.1
1943.628	6910.1
1947.845	6948.1
1952.058	6930.1
1956.267	6859.1
1960.472	6815.1
1964.673	6684.1
1968.87	6594.1
1973.063	6507.1
1977.252	6447.1
1981.438	6367.1
1985.619	6292.1
1989.797	6235.1
1993.971	6206.1
1998.14	6154.1
2002.306	6136.1
2006.469	6112.1
2010.627	6066.1
2014.781	6030.1
2018.932	5972.1
2023.078	5938.1
2027.221	5784.1
2031.36	5742.1
2035.495	5649.1
2039.627	5561.1
2043.754	5519.1
2047.878	5457.1
2051.998	5433.1
2056.114	5389.1
2060.226	5356.1
2064.334	5385.1
2068.439	5402.1
2072.54	5404.1
2076.637	5450.1
2080.73	5463.1
2084.82	5460.1
2088.906	5529.1
2092.988	5494.1
2097.066	5478.1
2101.14	5464.1
2105.211	5472.1
2109.278	5374.1
2113.342	5336.1
2117.401	5326.1
2121.457	5302.1
2125.509	5310.1
2129.558	5287.1
2133.602	5277.1
2137.643	5194.1
2141.681	5203.1
2145.714	5172.1
2149.744	5118.1
2153.77	5069.1
2157.793	5036.1
2161.812	5014.1
2165.827	4920.1
2169.838	4827.1
2173.846	4747.1
2177.851	4678.1
2181.851	4599.1
2185.848	4542.1
2189.841	4510.1
2193.831	4442.1
2197.817	4402.1
2201.799	4394.1
2205.778	4385.1
2209.753	4370.1
2213.725	4356.1
2217.693	4317.1
2221.657	4329.1
2225.618	4325.1
2229.575	4300.1
2233.529	4239.1
2237.479	4213.1
2241.425	4181.1
2245.368	4102.1
2249.307	4058.1
2253.243	3987.1
2257.175	3918.1
2261.104	3883.1
2265.029	3838.1
2268.95	3824.1
2272.868	3756.1
2276.783	3745.1
2280.694	3699.1
2284.601	3650.1
2288.505	3650.1
2292.405	3587.1
2296.302	3563.1
2300.195	3486.1
2304.085	3452.1
2307.971	3451.1
2311.854	3392.1
2315.734	3343.1
2319.609	3296.1
2323.482	3244.1
2327.351	3200.1
2331.216	3186.1
2335.078	3180.1
2338.937	3127.1
2342.792	3137.1
2346.643	3123.1
2350.492	3153.1
2354.336	3140.1
2358.178	3155.1
2362.015	3170.1
2365.85	3160.1
2369.681	3130.1
2373.508	3146.1
2377.333	3166.1
2381.153	3132.1
2384.971	3113.1
2388.785	3109.1
2392.595	3082.1
2396.402	3074.1
2400.206	3031.1
2404.007	3028.1
2407.804	2995.1
2411.597	2961.1
2415.388	2945.1
2419.174	2949.1
2422.958	2932.1
2426.738	2879.1
2430.515	2864.1
2434.289	2847.1
2438.059	2841.1
2441.825	2800.1
2445.589	2774.1
2449.349	2745.1
2453.106	2698.1
2456.859	2670.1
2460.61	2660.1
2464.356	2615.1
2468.1	2579.1
2471.84	2532.1
2475.577	2527.1
2479.311	2526.1
2483.041	2505.1
2486.768	2488.1
2490.492	2477.1
2494.213	2481.1
2497.93	2493.1
2501.644	2444.1
2505.355	2409.1
2509.062	2421.1
2512.766	2394.1
2516.467	2397.1
2520.165	2389.1
2523.859	2376.1
2527.551	2339.1
2531.239	2326.1
2534.923	2310.1
2538.605	2303.1
2542.283	2283.1
2545.958	2283.1
2549.63	2293.1
2553.299	2291.1
2556.964	2284.1
2560.626	2269.1
2564.285	2257.1
2567.941	2241.1
2571.594	2208.1
2575.243	2218.1
2578.89	2199.1
2582.533	2179.1
2586.173	2165.1
2589.809	2170.1
2593.443	2150.1
2597.073	2115.1
2600.701	2091.1
2604.325	2092.1
2607.946	2073.1
2611.564	2054.1
2615.178	2042.1
2618.79	2036.1
2622.398	2003.1
2626.004	1998.1
2629.606	1968.1
2633.205	1925.1
2636.801	1922.1
2640.394	1891.1
2643.983	1867.1
2647.57	1853.1
2651.153	1809.1
2654.734	1780.1
2658.311	1743.1
2661.885	1715.1
2665.456	1710.1
2669.025	1683.1
2672.589	1664.1
2676.151	1662.1
2679.71	1646.1
2683.266	1619.1
2686.819	1578.1
2690.368	1542.1
2693.915	1522.1
2697.458	1474.1
2700.999	1461.1
2704.536	1415.1
2708.071	1380.1
2711.602	1343.1
2715.13	1320.1
2718.656	1287.1
2722.178	1279.1
2725.697	1258.1
2729.214	1217.1
2732.727	1220.1
2736.237	1209.1
2739.744	1202.1
2743.249	1186.1
2746.75	1214.1
2750.248	1203.1
2753.743	1206.1
2757.236	1248.1
2760.725	1252.1
2764.211	1256.1
2767.695	1279.1
2771.175	1265.1
2774.652	1263.1
2778.127	1268.1
2781.598	1248.1
2785.067	1228.1
2788.532	1241.1
2791.995	1227.1
2795.455	1235.1
2798.911	1221.1
2802.365	1232.1
2805.816	1238.1
2809.264	1226.1
2812.709	1221.1
2816.151	1219.1
2819.59	1235.1
2823.026	1217.1
2826.46	1233.1
2829.89	1217.1
2833.318	1235.1
2836.742	1243.1
2840.164	1256.1
2843.583	1253.1
2846.999	1247.1
2850.412	1257.1
2853.822	1274.1
2857.229	1292.1
2860.634	1306.1
2864.035	1325.1
2867.434	1345.1
2870.83	1354.1
2874.223	1388.1
2877.613	1392.1
2881	1423.1
2884.385	1414.1
2887.766	1428.1
2891.145	1414.1
2894.521	1412.1
2897.894	1412.1
2901.264	1417.1
2904.631	1407.1
2907.996	1411.1
2911.358	1407.1
2914.717	1431.1
2918.073	1444.1
2921.426	1438.1
2924.777	1448.1
2928.124	1461.1
2931.469	1495.1
2934.811	1512.1
2938.15	1526.1
2941.487	1536.1
2944.821	1534.1
2948.152	1526.1
2951.48	1541.1
2954.805	1488.1
2958.128	1505.1
2961.447	1484.1
2964.765	1481.1
2968.079	1467.1
2971.39	1498.1
2974.699	1526.1
2978.005	1514.1
2981.308	1543.1
2984.609	1567.1
2987.907	1610.1
2991.202	1614.1
2994.494	1670.1
2997.784	1701.1
3001.07	1741.1
3004.355	1764.1
3007.636	1774.1
3010.915	1783.1
3014.191	1814.1
3017.464	1821.1
3020.734	1848.1
3024.002	1825.1
3027.267	1859.1
3030.53	1856.1
3033.789	1883.1
3037.046	1907.1
3040.301	1949.1
3043.552	1970.1
3046.801	2016.1
3050.048	2053.1
3053.291	2097.1
3056.532	2142.1
3059.771	2191.1
3063.006	2270.1
3066.239	2336.1
3069.469	2387.1
3072.697	2453.1
3075.922	2528.1
3079.144	2599.1
3082.364	2640.1
3085.581	2661.1
3088.795	2743.1
3092.007	2770.1
3095.216	2855.1
3098.423	2917.1
3101.627	2982.1
3104.828	3056.1
3108.026	3114.1
3111.222	3181.1
3114.416	3262.1
3117.607	3316.1
3120.795	3384.1
3123.98	3476.1
3127.163	3550.1
3130.344	3648.1
3133.521	3720.1
3136.696	3795.1
3139.869	3861.1
3143.039	3948.1
3146.206	4024.1
3149.371	4052.1
3152.533	4071.1
3155.693	4119.1
3158.85	4112.1
3162.005	4158.1
3165.157	4136.1
3168.306	4161.1
3171.453	4156.1
3174.597	4175.1
3177.739	4201.1
3180.878	4194.1
3184.014	4197.1
3187.149	4190.1
3190.28	4187.1
3193.409	4213.1
3196.536	4219.1
3199.659	4225.1
3202.781	4200.1
3205.9	4214.1
3209.016	4217.1
3212.13	4200.1
3215.241	4166.1
3218.35	4133.1
3221.456	4087.1
3224.56	4039.1
3227.661	4009.1
3230.76	3972.1
3233.856	3907.1
3236.95	3884.1
3240.041	3864.1
3243.13	3827.1
3246.216	3805.1
3249.3	3787.1
3252.382	3805.1
3255.46	3749.1
3258.537	3740.1
3261.611	3757.1
3264.682	3757.1
3267.751	3728.1
3270.818	3711.1
3273.882	3740.1
3276.943	3714.1
3280.002	3670.1
3283.059	3632.1
3286.113	3595.1
3289.165	3561.1
3292.214	3485.1
3295.261	3436.1
3298.306	3367.1
3301.348	3305.1
3304.387	3248.1
3307.425	3199.1
3310.459	3157.1
3313.492	3115.1
3316.521	3083.1
3319.549	3082.1
3322.574	3008.1
3325.597	2984.1
3328.617	2957.1
3331.635	2940.1
3334.65	2929.1
3337.663	2906.1
3340.674	2860.1
3343.682	2850.1
3346.688	2823.1
3349.691	2868.1
3352.692	2846.1
3355.691	2808.1
3358.687	2774.1
3361.681	2729.1
3364.673	2724.1
3367.662	2692.1
3370.649	2650.1
3373.633	2584.1
3376.615	2545.1
3379.595	2501.1
3382.572	2504.1
3385.547	2460.1
3388.52	2417.1
3391.49	2369.1
3394.458	2350.1
3397.424	2300.1
3400.387	2287.1
3403.348	2262.1
3406.307	2224.1
3409.263	2175.1
3412.217	2175.1
3415.168	2153.1
3418.118	2116.1
3421.065	2104.1
3424.009	2061.1
3426.951	2023.1
3429.891	1983.1
3432.829	1953.1
3435.764	1913.1
3438.697	1856.1
3441.628	1811.1
3444.557	1749.1
3447.483	1702.1
3450.407	1642.1
3453.328	1586.1
3456.247	1554.1
3459.164	1484.1
3462.079	1422.1
3464.991	1368.1
3467.902	1342.1
3470.809	1278.1
3473.715	1227.1
3476.618	1179.1
3479.519	1156.1
3482.418	1118.1
3485.315	1066.1
3488.209	1023.1
3491.101	1007.1
3493.99	945.1
3496.878	902.1
3499.763	890.1
3502.646	840.1
3505.527	818.1
3508.405	768.1
3511.281	713.1
3514.155	673.1
3517.027	656.1
3519.897	606.1
3522.764	557.1
3525.629	518.1
3528.492	474.1
3531.352	449.1
3534.211	392.1
3537.067	356.1
3539.921	334.1
3542.773	279.1
3545.622	248.1
3548.469	214.1
3551.315	187.1
3554.157	167.1
3556.998	120.1
3559.837	99.1
3562.673	68.1
3565.507	57.1
3568.339	32.1
3571.169	16.1
3573.996	-17.9
3576.822	-25.9
3579.645	-48.9
3582.466	-86.9
3585.285	-102.9
3588.101	-118.9
3590.916	-131.9
3593.728	-164.9
3596.538	-180.9
3599.346	-195.9
3602.152	-220.9
3604.956	-235.9
3607.757	-260.9
3610.556	-266.9
3613.354	-276.9
3616.149	-292.9
3618.942	-314.9
3621.732	-303.9
3624.521	-333.9
3627.307	-343.9
3630.092	-345.9
3632.874	-365.9
3635.654	-374.9
3638.432	-373.9
3641.208	-384.9
3643.982	-408.9
3646.753	-406.9
3649.523	-419.9
3652.29	-423.9
3655.055	-437.9
3657.818	-444.9
3660.579	-462.9
3663.338	-466.9
3666.095	-473.9
3668.849	-492.9
3671.602	-497.9
3674.352	-497.9
3677.101	-507.9
3679.847	-514.9
3682.591	-526.9
3685.333	-532.9
3688.073	-538.9
3690.811	-549.9
3693.547	-556.9
3696.281	-557.9
3699.013	-557.9
3701.742	-538.9
3704.47	-504.9
3707.195	-572.9
3709.919	-574.9
3712.64	-580.9
3715.359	-582.9
3718.076	-579.9
3720.792	-593.9
3723.505	-591.9
3726.216	-603.9
3728.925	-597.9
3731.632	-611.9
3734.336	-610.9
3737.039	-616.9
3739.74	-617.9
3742.439	-612.9
3745.136	-617.9
3747.83	-626.9
3750.523	-622.9
3753.213	-616.9
3755.902	-628.9
3758.589	-627.9
3761.273	-630.9
3763.956	-631.9
3766.636	-635.9
3769.315	-638.9
3771.991	-640.9
3774.665	-641.9
3777.338	-643.9
3780.008	-644.9
3782.677	-645.9
3785.343	-641.9
3788.007	-648.9
3790.67	-647.9
3793.33	-649.9
3795.989	-651.9
3798.645	-654.9
3801.299	-648.9
3803.952	-658.9
3806.602	-663.9
3809.251	-665.9
3811.897	-659.9
3814.542	-665.9
3817.184	-663.9
3819.825	-660.9
3822.463	-660.9
3825.1	-668.9
3827.735	-661.9
3830.367	-665.9
3832.998	-672.9
3835.627	-672.9
3838.253	-667.9
3840.878	-675.9
3843.501	-665.9
3846.122	-669.9
3848.741	-668.9
3851.358	-669.9
3853.973	-672.9
3856.586	-670.9
3859.197	-674.9
3861.806	-678.9
3864.414	-677.9
3867.019	-678.9
3869.622	-678.9
3872.224	-673.9
3874.823	-659.9
3877.421	-632.9
3880.016	-615.9
3882.61	-590.9
3885.202	-570.9
3887.792	-598.9
3890.38	-633.9
3892.966	-657.9
3895.55	-672.9
3898.132	-686.9
3900.713	-685.9
3903.291	-686.9
3905.868	-686.9
3908.442	-689.9
3911.015	-689.9
3913.586	-692.9
3916.155	-682.9
3918.722	-693.9
3921.287	-688.9
3923.85	-690.9
3926.411	-689.9
3928.971	-695.9
3931.528	-699.9
3934.084	-692.9
3936.638	-691.9
3939.19	-691.9
3941.74	-691.9
3944.288	-689.9
3946.834	-685.9
3949.378	-694.9
3951.921	-691.9
3954.462	-698.9
3957	-690.9
3959.537	-698.9
3962.072	-688.9
3964.606	-688.9
3967.137	-686.9
3969.667	-692.9
3972.194	-680.9
3974.72	-693.9
3977.244	-674.9
3979.766	-677.9
3982.286	-685.9
3984.805	-680.9
3987.321	-682.9
3989.836	-683.9
3992.349	-677.9
3994.86	-677.9
3997.369	-680.9
3999.877	-673.9
4002.382	-679.9
4004.886	-674.9
4007.388	-672.9
4009.888	-676.9
4012.386	-676.9
4014.883	-678.9
4017.377	-673.9
4019.87	-672.9
4022.361	-671.9
4024.85	-673.9
4027.338	-680.9
4029.823	-678.9
4032.307	-684.9
4034.789	-676.9
4037.269	-676.9
4039.747	-678.9
4042.224	-682.9
4044.699	-686.9
4047.172	-678.9
4049.643	-676.9
4052.112	-683.9
4054.58	-682.9
4057.046	-679.9
4059.51	-684.9
4061.972	-679.9
4064.432	-682.9
4066.891	-684.9
4069.348	-684.9
4071.803	-680.9
4074.256	-680.9
4076.708	-681.9
4079.158	-681.9
4081.606	-685.9
4084.052	-680.9
4086.497	-682.9
4088.939	-675.9
4091.38	-675.9
4093.819	-672.9
4096.257	-714.9
4098.693	-715.9
4101.127	-718.9
4103.559	-715.9
4105.989	-406.9
4108.418	-391.9
4110.845	-360.9
4113.27	-338.9
4115.694	-286.9
4118.115	-240.9
4120.535	-675.9
4122.954	-675.9
4125.37	-666.9
4127.785	-678.9
4130.198	-676.9
4132.609	-676.9
4135.019	-720.9
4137.427	-720.9
4139.833	-723.9
4142.237	-718.9
