Data from 2018-2-14_conc=2_n=4_RamanShift_01.txt Node
Date: Wed Feb 14 11:09:56 IST 2018
User: aro
Spectrometer: QEPB0276
Trigger mode: 0
Integration Time (sec): 3.000000E1
Scans to average: 1
Electric dark correction enabled: true
Nonlinearity correction enabled: false
Boxcar width: 0
XAxis mode: Raman Shifts
Number of Pixels in Spectrum: 1044
>>>>>Begin Spectral Data<<<<<
160.701	-142.9
166.742	62.1
172.777	600.1
178.805	2246.1
184.826	6280.1
190.841	13140.1
196.849	21069.1
202.85	26801.1
208.845	28655.1
214.833	28366.1
220.815	27853.1
226.789	27653.1
232.758	27454.1
238.719	27257.1
244.674	26898.1
250.623	26437.1
256.565	25765.1
262.5	25235.1
268.429	24797.1
274.351	24436.1
280.267	24045.1
286.176	23779.1
292.079	23569.1
297.975	23342.1
303.865	23091.1
309.748	22904.1
315.625	22824.1
321.495	22687.1
327.359	22570.1
333.217	22570.1
339.068	22486.1
344.912	22503.1
350.751	22410.1
356.583	22364.1
362.408	22370.1
368.227	22335.1
374.04	22375.1
379.847	22478.1
385.647	22564.1
391.44	22650.1
397.228	22739.1
403.009	22820.1
408.784	22843.1
414.553	22918.1
420.315	23007.1
426.071	23026.1
431.821	22968.1
437.565	22941.1
443.302	22914.1
449.033	22955.1
454.758	22852.1
460.477	22797.1
466.189	22805.1
471.896	22732.1
477.596	22664.1
483.29	22567.1
488.978	22524.1
494.66	22508.1
500.335	22284.1
506.005	22104.1
511.668	21795.1
517.325	21567.1
522.977	21328.1
528.622	21198.1
534.261	21020.1
539.894	20946.1
545.521	20860.1
551.141	20782.1
556.756	20650.1
562.365	20582.1
567.968	20536.1
573.565	20476.1
579.155	20403.1
584.74	20296.1
590.319	20203.1
595.892	20151.1
601.459	20101.1
607.02	19942.1
612.575	19872.1
618.124	19706.1
623.667	19637.1
629.204	19466.1
634.735	19373.1
640.261	19334.1
645.781	19323.1
651.294	19262.1
656.802	19206.1
662.304	19182.1
667.8	19171.1
673.29	19128.1
678.775	19016.1
684.254	19022.1
689.726	18914.1
695.193	18847.1
700.655	18773.1
706.11	18681.1
711.56	18595.1
717.004	18500.1
722.442	18451.1
727.874	18359.1
733.301	18292.1
738.722	18288.1
744.137	18172.1
749.547	18229.1
754.951	18243.1
760.349	18204.1
765.741	18152.1
771.128	18180.1
776.509	18260.1
781.885	18192.1
787.254	18185.1
792.618	18103.1
797.977	17930.1
803.33	17905.1
808.677	17769.1
814.019	17657.1
819.355	17527.1
824.686	17485.1
830.011	17460.1
835.33	17522.1
840.644	17489.1
845.952	17485.1
851.255	17501.1
856.552	17547.1
861.844	17499.1
867.13	17465.1
872.41	17409.1
877.686	17304.1
882.955	17191.1
888.219	17044.1
893.478	16823.1
898.731	16588.1
903.979	16436.1
909.221	16324.1
914.458	16284.1
919.69	16270.1
924.916	16337.1
930.136	16328.1
935.351	16349.1
940.561	16368.1
945.766	16319.1
950.965	16300.1
956.158	16129.1
961.347	15996.1
966.529	15769.1
971.707	15561.1
976.879	15360.1
982.046	15257.1
987.208	15201.1
992.364	15193.1
997.515	15322.1
1002.66	15439.1
1007.801	15610.1
1012.936	15764.1
1018.066	15730.1
1023.19	15721.1
1028.309	15719.1
1033.423	15656.1
1038.532	15650.1
1043.636	15460.1
1048.734	15271.1
1053.827	15054.1
1058.915	14899.1
1063.998	14787.1
1069.075	14758.1
1074.147	14792.1
1079.214	14851.1
1084.276	14912.1
1089.333	14986.1
1094.385	15048.1
1099.431	15145.1
1104.472	15087.1
1109.509	15070.1
1114.54	14857.1
1119.565	14678.1
1124.586	14468.1
1129.602	14316.1
1134.613	14245.1
1139.618	14165.1
1144.619	14091.1
1149.614	14133.1
1154.604	14182.1
1159.589	14188.1
1164.57	14228.1
1169.545	14223.1
1174.515	14216.1
1179.48	14139.1
1184.44	14023.1
1189.395	13965.1
1194.345	13817.1
1199.29	13742.1
1204.23	13756.1
1209.165	13813.1
1214.095	13876.1
1219.021	13973.1
1223.941	13999.1
1228.856	14126.1
1233.766	14155.1
1238.672	14154.1
1243.572	14185.1
1248.467	14062.1
1253.358	13912.1
1258.244	13731.1
1263.124	13547.1
1268	13321.1
1272.871	13155.1
1277.737	13056.1
1282.599	12970.1
1287.455	12973.1
1292.306	12973.1
1297.153	13041.1
1301.995	13104.1
1306.832	13134.1
1311.664	13211.1
1316.491	13104.1
1321.314	13019.1
1326.132	12810.1
1330.945	12512.1
1335.753	12230.1
1340.556	11914.1
1345.354	11689.1
1350.148	11484.1
1354.937	11450.1
1359.722	11417.1
1364.501	11514.1
1369.276	11673.1
1374.046	11857.1
1378.811	11992.1
1383.572	12113.1
1388.327	12122.1
1393.079	12030.1
1397.825	11831.1
1402.567	11756.1
1407.304	11557.1
1412.036	11478.1
1416.764	11376.1
1421.487	11291.1
1426.205	11206.1
1430.919	11190.1
1435.628	11194.1
1440.333	11231.1
1445.032	11279.1
1449.727	11280.1
1454.418	11187.1
1459.104	11133.1
1463.785	10877.1
1468.462	10660.1
1473.134	10483.1
1477.802	10306.1
1482.465	10139.1
1487.123	9986.1
1491.777	10006.1
1496.426	10053.1
1501.071	10222.1
1505.711	10343.1
1510.347	10517.1
1514.978	10748.1
1519.604	10892.1
1524.226	10983.1
1528.844	11010.1
1533.457	10937.1
1538.065	10897.1
1542.669	10828.1
1547.269	10727.1
1551.864	10678.1
1556.454	10683.1
1561.041	10645.1
1565.622	10615.1
1570.199	10628.1
1574.772	10671.1
1579.34	10748.1
1583.904	10746.1
1588.464	10867.1
1593.019	10812.1
1597.569	10782.1
1602.115	10710.1
1606.657	10666.1
1611.195	10542.1
1615.728	10531.1
1620.256	10498.1
1624.78	10477.1
1629.3	10557.1
1633.816	10559.1
1638.327	10566.1
1642.834	10641.1
1647.336	10663.1
1651.834	10722.1
1656.328	10646.1
1660.817	10656.1
1665.302	10577.1
1669.783	10376.1
1674.259	10111.1
1678.732	9812.1
1683.199	9492.1
1687.663	9233.1
1692.122	8939.1
1696.577	8800.1
1701.028	8773.1
1705.474	8931.1
1709.917	8957.1
1714.355	9012.1
1718.788	8910.1
1723.218	8762.1
1727.643	8562.1
1732.064	8414.1
1736.481	8249.1
1740.893	8046.1
1745.301	7844.1
1749.705	7630.1
1754.105	7416.1
1758.501	7196.1
1762.893	6975.1
1767.28	6810.1
1771.663	6656.1
1776.042	6589.1
1780.417	6505.1
1784.787	6530.1
1789.154	6574.1
1793.516	6734.1
1797.874	6843.1
1802.228	6966.1
1806.578	7046.1
1810.924	7037.1
1815.266	7003.1
1819.603	6866.1
1823.937	6756.1
1828.266	6642.1
1832.591	6564.1
1836.913	6482.1
1841.23	6336.1
1845.543	6353.1
1849.852	6301.1
1854.156	6242.1
1858.457	6241.1
1862.754	6248.1
1867.047	6261.1
1871.335	6223.1
1875.62	6211.1
1879.9	6252.1
1884.177	6174.1
1888.449	6123.1
1892.718	6057.1
1896.982	6008.1
1901.243	5956.1
1905.499	5927.1
1909.752	5898.1
1914	5905.1
1918.245	5902.1
1922.485	5983.1
1926.722	6082.1
1930.954	6128.1
1935.183	6192.1
1939.408	6237.1
1943.628	6294.1
1947.845	6312.1
1952.058	6278.1
1956.267	6208.1
1960.472	6165.1
1964.673	6039.1
1968.87	5925.1
1973.063	5878.1
1977.252	5798.1
1981.438	5726.1
1985.619	5649.1
1989.797	5609.1
1993.971	5559.1
1998.14	5544.1
2002.306	5541.1
2006.469	5469.1
2010.627	5494.1
2014.781	5434.1
2018.932	5366.1
2023.078	5344.1
2027.221	5253.1
2031.36	5218.1
2035.495	5124.1
2039.627	5025.1
2043.754	4969.1
2047.878	4946.1
2051.998	4913.1
2056.114	4888.1
2060.226	4894.1
2064.334	4898.1
2068.439	4906.1
2072.54	4942.1
2076.637	4983.1
2080.73	5012.1
2084.82	5039.1
2088.906	5080.1
2092.988	5078.1
2097.066	5035.1
2101.14	5022.1
2105.211	5018.1
2109.278	4971.1
2113.342	4950.1
2117.401	4899.1
2121.457	4878.1
2125.509	4840.1
2129.558	4832.1
2133.602	4800.1
2137.643	4767.1
2141.681	4732.1
2145.714	4712.1
2149.744	4679.1
2153.77	4610.1
2157.793	4602.1
2161.812	4551.1
2165.827	4455.1
2169.838	4394.1
2173.846	4336.1
2177.851	4283.1
2181.851	4189.1
2185.848	4154.1
2189.841	4106.1
2193.831	4039.1
2197.817	4008.1
2201.799	4003.1
2205.778	3976.1
2209.753	3967.1
2213.725	3955.1
2217.693	3937.1
2221.657	3914.1
2225.618	3897.1
2229.575	3893.1
2233.529	3850.1
2237.479	3839.1
2241.425	3778.1
2245.368	3742.1
2249.307	3661.1
2253.243	3644.1
2257.175	3596.1
2261.104	3492.1
2265.029	3487.1
2268.95	3466.1
2272.868	3410.1
2276.783	3390.1
2280.694	3333.1
2284.601	3299.1
2288.505	3265.1
2292.405	3264.1
2296.302	3227.1
2300.195	3169.1
2304.085	3129.1
2307.971	3074.1
2311.854	3058.1
2315.734	3001.1
2319.609	2992.1
2323.482	2916.1
2327.351	2894.1
2331.216	2866.1
2335.078	2860.1
2338.937	2805.1
2342.792	2809.1
2346.643	2811.1
2350.492	2781.1
2354.336	2795.1
2358.178	2798.1
2362.015	2819.1
2365.85	2830.1
2369.681	2808.1
2373.508	2841.1
2377.333	2802.1
2381.153	2800.1
2384.971	2740.1
2388.785	2780.1
2392.595	2742.1
2396.402	2714.1
2400.206	2704.1
2404.007	2656.1
2407.804	2650.1
2411.597	2626.1
2415.388	2606.1
2419.174	2587.1
2422.958	2584.1
2426.738	2550.1
2430.515	2558.1
2434.289	2487.1
2438.059	2509.1
2441.825	2456.1
2445.589	2453.1
2449.349	2442.1
2453.106	2409.1
2456.859	2371.1
2460.61	2320.1
2464.356	2319.1
2468.1	2296.1
2471.84	2261.1
2475.577	2252.1
2479.311	2241.1
2483.041	2213.1
2486.768	2224.1
2490.492	2197.1
2494.213	2206.1
2497.93	2201.1
2501.644	2173.1
2505.355	2159.1
2509.062	2160.1
2512.766	2153.1
2516.467	2129.1
2520.165	2129.1
2523.859	2100.1
2527.551	2099.1
2531.239	2073.1
2534.923	2057.1
2538.605	2073.1
2542.283	2068.1
2545.958	2046.1
2549.63	2028.1
2553.299	2055.1
2556.964	2044.1
2560.626	2042.1
2564.285	2025.1
2567.941	2021.1
2571.594	2021.1
2575.243	1997.1
2578.89	1974.1
2582.533	1958.1
2586.173	1956.1
2589.809	1924.1
2593.443	1910.1
2597.073	1884.1
2600.701	1863.1
2604.325	1867.1
2607.946	1857.1
2611.564	1844.1
2615.178	1860.1
2618.79	1841.1
2622.398	1805.1
2626.004	1774.1
2629.606	1752.1
2633.205	1748.1
2636.801	1729.1
2640.394	1684.1
2643.983	1660.1
2647.57	1648.1
2651.153	1597.1
2654.734	1582.1
2658.311	1547.1
2661.885	1529.1
2665.456	1532.1
2669.025	1486.1
2672.589	1473.1
2676.151	1463.1
2679.71	1443.1
2683.266	1399.1
2686.819	1397.1
2690.368	1367.1
2693.915	1330.1
2697.458	1322.1
2700.999	1274.1
2704.536	1257.1
2708.071	1223.1
2711.602	1216.1
2715.13	1174.1
2718.656	1144.1
2722.178	1133.1
2725.697	1131.1
2729.214	1097.1
2732.727	1115.1
2736.237	1091.1
2739.744	1096.1
2743.249	1121.1
2746.75	1130.1
2750.248	1141.1
2753.743	1147.1
2757.236	1181.1
2760.725	1156.1
2764.211	1173.1
2767.695	1159.1
2771.175	1174.1
2774.652	1166.1
2778.127	1177.1
2781.598	1142.1
2785.067	1137.1
2788.532	1153.1
2791.995	1155.1
2795.455	1152.1
2798.911	1133.1
2802.365	1160.1
2805.816	1131.1
2809.264	1143.1
2812.709	1147.1
2816.151	1132.1
2819.59	1132.1
2823.026	1142.1
2826.46	1136.1
2829.89	1146.1
2833.318	1143.1
2836.742	1148.1
2840.164	1142.1
2843.583	1160.1
2846.999	1177.1
2850.412	1174.1
2853.822	1186.1
2857.229	1206.1
2860.634	1226.1
2864.035	1255.1
2867.434	1263.1
2870.83	1288.1
2874.223	1311.1
2877.613	1321.1
2881	1358.1
2884.385	1362.1
2887.766	1364.1
2891.145	1344.1
2894.521	1331.1
2897.894	1337.1
2901.264	1335.1
2904.631	1348.1
2907.996	1349.1
2911.358	1353.1
2914.717	1364.1
2918.073	1386.1
2921.426	1397.1
2924.777	1417.1
2928.124	1434.1
2931.469	1459.1
2934.811	1480.1
2938.15	1487.1
2941.487	1504.1
2944.821	1509.1
2948.152	1521.1
2951.48	1524.1
2954.805	1476.1
2958.128	1462.1
2961.447	1462.1
2964.765	1467.1
2968.079	1456.1
2971.39	1495.1
2974.699	1493.1
2978.005	1537.1
2981.308	1550.1
2984.609	1567.1
2987.907	1603.1
2991.202	1640.1
2994.494	1676.1
2997.784	1693.1
3001.07	1747.1
3004.355	1751.1
3007.636	1785.1
3010.915	1806.1
3014.191	1811.1
3017.464	1823.1
3020.734	1849.1
3024.002	1863.1
3027.267	1865.1
3030.53	1859.1
3033.789	1891.1
3037.046	1920.1
3040.301	1953.1
3043.552	2001.1
3046.801	2025.1
3050.048	2064.1
3053.291	2133.1
3056.532	2175.1
3059.771	2247.1
3063.006	2306.1
3066.239	2387.1
3069.469	2461.1
3072.697	2505.1
3075.922	2559.1
3079.144	2607.1
3082.364	2672.1
3085.581	2738.1
3088.795	2799.1
3092.007	2881.1
3095.216	2932.1
3098.423	2969.1
3101.627	3055.1
3104.828	3158.1
3108.026	3193.1
3111.222	3246.1
3114.416	3319.1
3117.607	3391.1
3120.795	3484.1
3123.98	3560.1
3127.163	3629.1
3130.344	3740.1
3133.521	3809.1
3136.696	3877.1
3139.869	3992.1
3143.039	4040.1
3146.206	4093.1
3149.371	4160.1
3152.533	4191.1
3155.693	4228.1
3158.85	4261.1
3162.005	4260.1
3165.157	4243.1
3168.306	4285.1
3171.453	4276.1
3174.597	4284.1
3177.739	4303.1
3180.878	4285.1
3184.014	4307.1
3187.149	4305.1
3190.28	4350.1
3193.409	4326.1
3196.536	4326.1
3199.659	4350.1
3202.781	4332.1
3205.9	4352.1
3209.016	4316.1
3212.13	4300.1
3215.241	4278.1
3218.35	4266.1
3221.456	4219.1
3224.56	4171.1
3227.661	4095.1
3230.76	4062.1
3233.856	4036.1
3236.95	4011.1
3240.041	3967.1
3243.13	3919.1
3246.216	3914.1
3249.3	3878.1
3252.382	3866.1
3255.46	3856.1
3258.537	3884.1
3261.611	3866.1
3264.682	3864.1
3267.751	3837.1
3270.818	3847.1
3273.882	3820.1
3276.943	3805.1
3280.002	3768.1
3283.059	3764.1
3286.113	3700.1
3289.165	3665.1
3292.214	3609.1
3295.261	3523.1
3298.306	3493.1
3301.348	3430.1
3304.387	3367.1
3307.425	3316.1
3310.459	3272.1
3313.492	3222.1
3316.521	3164.1
3319.549	3146.1
3322.574	3112.1
3325.597	3098.1
3328.617	3073.1
3331.635	3036.1
3334.65	3022.1
3337.663	3008.1
3340.674	2959.1
3343.682	2983.1
3346.688	2958.1
3349.691	2972.1
3352.692	2947.1
3355.691	2915.1
3358.687	2905.1
3361.681	2879.1
3364.673	2835.1
3367.662	2785.1
3370.649	2746.1
3373.633	2694.1
3376.615	2662.1
3379.595	2621.1
3382.572	2610.1
3385.547	2543.1
3388.52	2503.1
3391.49	2470.1
3394.458	2425.1
3397.424	2421.1
3400.387	2394.1
3403.348	2334.1
3406.307	2311.1
3409.263	2299.1
3412.217	2273.1
3415.168	2242.1
3418.118	2222.1
3421.065	2202.1
3424.009	2155.1
3426.951	2123.1
3429.891	2104.1
3432.829	2014.1
3435.764	1995.1
3438.697	1941.1
3441.628	1885.1
3444.557	1832.1
3447.483	1785.1
3450.407	1719.1
3453.328	1672.1
3456.247	1629.1
3459.164	1557.1
3462.079	1496.1
3464.991	1427.1
3467.902	1382.1
3470.809	1356.1
3473.715	1292.1
3476.618	1249.1
3479.519	1205.1
3482.418	1188.1
3485.315	1120.1
3488.209	1092.1
3491.101	1048.1
3493.99	1015.1
3496.878	971.1
3499.763	936.1
3502.646	905.1
3505.527	868.1
3508.405	818.1
3511.281	773.1
3514.155	738.1
3517.027	698.1
3519.897	670.1
3522.764	607.1
3525.629	576.1
3528.492	512.1
3531.352	480.1
3534.211	439.1
3537.067	391.1
3539.921	351.1
3542.773	319.1
3545.622	278.1
3548.469	253.1
3551.315	225.1
3554.157	205.1
3556.998	164.1
3559.837	155.1
3562.673	111.1
3565.507	100.1
3568.339	71.1
3571.169	54.1
3573.996	26.1
3576.822	10.1
3579.645	-24.9
3582.466	-28.9
3585.285	-57.9
3588.101	-71.9
3590.916	-107.9
3593.728	-123.9
3596.538	-139.9
3599.346	-160.9
3602.152	-181.9
3604.956	-200.9
3607.757	-208.9
3610.556	-228.9
3613.354	-243.9
3616.149	-264.9
3618.942	-260.9
3621.732	-281.9
3624.521	-296.9
3627.307	-304.9
3630.092	-319.9
3632.874	-323.9
3635.654	-334.9
3638.432	-351.9
3641.208	-356.9
3643.982	-367.9
3646.753	-377.9
3649.523	-394.9
3652.29	-397.9
3655.055	-406.9
3657.818	-420.9
3660.579	-417.9
3663.338	-441.9
3666.095	-445.9
3668.849	-457.9
3671.602	-464.9
3674.352	-469.9
3677.101	-478.9
3679.847	-484.9
3682.591	-499.9
3685.333	-506.9
3688.073	-507.9
3690.811	-523.9
3693.547	-525.9
3696.281	-530.9
3699.013	-536.9
3701.742	-536.9
3704.47	-545.9
3707.195	-550.9
3709.919	-552.9
3712.64	-556.9
3715.359	-556.9
3718.076	-563.9
3720.792	-563.9
3723.505	-562.9
3726.216	-579.9
3728.925	-578.9
3731.632	-584.9
3734.336	-585.9
3737.039	-585.9
3739.74	-580.9
3742.439	-584.9
3745.136	-585.9
3747.83	-599.9
3750.523	-599.9
3753.213	-578.9
3755.902	-601.9
3758.589	-601.9
3761.273	-607.9
3763.956	-614.9
3766.636	-610.9
3769.315	-612.9
3771.991	-616.9
3774.665	-619.9
3777.338	-618.9
3780.008	-620.9
3782.677	-625.9
3785.343	-615.9
3788.007	-621.9
3790.67	-625.9
3793.33	-623.9
3795.989	-627.9
3798.645	-625.9
3801.299	-622.9
3803.952	-635.9
3806.602	-637.9
3809.251	-639.9
3811.897	-638.9
3814.542	-640.9
3817.184	-637.9
3819.825	-642.9
3822.463	-634.9
3825.1	-638.9
3827.735	-636.9
3830.367	-636.9
3832.998	-644.9
3835.627	-643.9
3838.253	-643.9
3840.878	-648.9
3843.501	-638.9
3846.122	-645.9
3848.741	-644.9
3851.358	-645.9
3853.973	-642.9
3856.586	-650.9
3859.197	-650.9
3861.806	-653.9
3864.414	-645.9
3867.019	-641.9
3869.622	-645.9
3872.224	-641.9
3874.823	-621.9
3877.421	-605.9
3880.016	-588.9
3882.61	-566.9
3885.202	-567.9
3887.792	-580.9
3890.38	-611.9
3892.966	-639.9
3895.55	-643.9
3898.132	-665.9
3900.713	-664.9
3903.291	-661.9
3905.868	-661.9
3908.442	-655.9
3911.015	-660.9
3913.586	-655.9
3916.155	-656.9
3918.722	-658.9
3921.287	-660.9
3923.85	-663.9
3926.411	-664.9
3928.971	-668.9
3931.528	-664.9
3934.084	-666.9
3936.638	-666.9
3939.19	-670.9
3941.74	-660.9
3944.288	-667.9
3946.834	-662.9
3949.378	-661.9
3951.921	-665.9
3954.462	-671.9
3957	-663.9
3959.537	-664.9
3962.072	-659.9
3964.606	-664.9
3967.137	-666.9
3969.667	-664.9
3972.194	-661.9
3974.72	-663.9
3977.244	-651.9
3979.766	-650.9
3982.286	-653.9
3984.805	-651.9
3987.321	-652.9
3989.836	-656.9
3992.349	-646.9
3994.86	-651.9
3997.369	-653.9
3999.877	-646.9
4002.382	-647.9
4004.886	-647.9
4007.388	-648.9
4009.888	-645.9
4012.386	-653.9
4014.883	-648.9
4017.377	-653.9
4019.87	-653.9
4022.361	-649.9
4024.85	-651.9
4027.338	-652.9
4029.823	-652.9
4032.307	-657.9
4034.789	-648.9
4037.269	-645.9
4039.747	-653.9
4042.224	-653.9
4044.699	-657.9
4047.172	-653.9
4049.643	-655.9
4052.112	-659.9
4054.58	-656.9
4057.046	-659.9
4059.51	-651.9
4061.972	-657.9
4064.432	-658.9
4066.891	-655.9
4069.348	-654.9
4071.803	-645.9
4074.256	-653.9
4076.708	-652.9
4079.158	-655.9
4081.606	-656.9
4084.052	-656.9
4086.497	-654.9
4088.939	-653.9
4091.38	-650.9
4093.819	-650.9
4096.257	-687.9
4098.693	-687.9
4101.127	-690.9
4103.559	-686.9
4105.989	-393.9
4108.418	-372.9
4110.845	-344.9
4113.27	-323.9
4115.694	-283.9
4118.115	-246.9
4120.535	-647.9
4122.954	-650.9
4125.37	-643.9
4127.785	-654.9
4130.198	-652.9
4132.609	-654.9
4135.019	-693.9
4137.427	-691.9
4139.833	-689.9
4142.237	-689.9
