Data from 2018-2-14_conc=0_n=3_RamanShift_05.txt Node
Date: Wed Feb 14 10:34:26 IST 2018
User: aro
Spectrometer: QEPB0276
Trigger mode: 0
Integration Time (sec): 3.000000E1
Scans to average: 1
Electric dark correction enabled: true
Nonlinearity correction enabled: false
Boxcar width: 0
XAxis mode: Raman Shifts
Number of Pixels in Spectrum: 1044
>>>>>Begin Spectral Data<<<<<
160.701	-137.9
166.742	38.1
172.777	540.1
178.805	2088.1
184.826	5807.1
190.841	12187.1
196.849	19600.1
202.85	24782.1
208.845	26394.1
214.833	25971.1
220.815	25507.1
226.789	25220.1
232.758	25076.1
238.719	24787.1
244.674	24467.1
250.623	23948.1
256.565	23399.1
262.5	22853.1
268.429	22366.1
274.351	22050.1
280.267	21620.1
286.176	21379.1
292.079	21065.1
297.975	20873.1
303.865	20633.1
309.748	20491.1
315.625	20289.1
321.495	20148.1
327.359	20107.1
333.217	20094.1
339.068	20077.1
344.912	19911.1
350.751	19957.1
356.583	19959.1
362.408	19958.1
368.227	19901.1
374.04	19954.1
379.847	19963.1
385.647	20089.1
391.44	20189.1
397.228	20275.1
403.009	20281.1
408.784	20359.1
414.553	20378.1
420.315	20490.1
426.071	20470.1
431.821	20511.1
437.565	20538.1
443.302	20476.1
449.033	20374.1
454.758	20356.1
460.477	20287.1
466.189	20247.1
471.896	20251.1
477.596	20226.1
483.29	20142.1
488.978	20053.1
494.66	19992.1
500.335	19849.1
506.005	19613.1
511.668	19372.1
517.325	19218.1
522.977	19047.1
528.622	18836.1
534.261	18650.1
539.894	18580.1
545.521	18495.1
551.141	18523.1
556.756	18394.1
562.365	18326.1
567.968	18280.1
573.565	18175.1
579.155	18094.1
584.74	18007.1
590.319	17930.1
595.892	17901.1
601.459	17797.1
607.02	17775.1
612.575	17644.1
618.124	17488.1
623.667	17440.1
629.204	17301.1
634.735	17258.1
640.261	17182.1
645.781	17134.1
651.294	17075.1
656.802	17066.1
662.304	17049.1
667.8	16949.1
673.29	16985.1
678.775	16976.1
684.254	16902.1
689.726	16853.1
695.193	16810.1
700.655	16755.1
706.11	16675.1
711.56	16578.1
717.004	16479.1
722.442	16353.1
727.874	16295.1
733.301	16275.1
738.722	16286.1
744.137	16228.1
749.547	16233.1
754.951	16119.1
760.349	16203.1
765.741	16208.1
771.128	16196.1
776.509	16234.1
781.885	16253.1
787.254	16194.1
792.618	16152.1
797.977	16056.1
803.33	15902.1
808.677	15830.1
814.019	15716.1
819.355	15681.1
824.686	15645.1
830.011	15522.1
835.33	15546.1
840.644	15553.1
845.952	15624.1
851.255	15607.1
856.552	15632.1
861.844	15633.1
867.13	15579.1
872.41	15480.1
877.686	15411.1
882.955	15350.1
888.219	15205.1
893.478	15053.1
898.731	14890.1
903.979	14673.1
909.221	14613.1
914.458	14490.1
919.69	14547.1
924.916	14578.1
930.136	14644.1
935.351	14609.1
940.561	14655.1
945.766	14639.1
950.965	14557.1
956.158	14387.1
961.347	14303.1
966.529	14056.1
971.707	13914.1
976.879	13757.1
982.046	13660.1
987.208	13613.1
992.364	13598.1
997.515	13728.1
1002.66	13823.1
1007.801	13960.1
1012.936	14099.1
1018.066	14067.1
1023.19	14085.1
1028.309	14082.1
1033.423	14029.1
1038.532	14013.1
1043.636	13848.1
1048.734	13747.1
1053.827	13504.1
1058.915	13411.1
1063.998	13288.1
1069.075	13244.1
1074.147	13289.1
1079.214	13364.1
1084.276	13393.1
1089.333	13506.1
1094.385	13568.1
1099.431	13637.1
1104.472	13614.1
1109.509	13537.1
1114.54	13350.1
1119.565	13224.1
1124.586	12966.1
1129.602	12918.1
1134.613	12836.1
1139.618	12753.1
1144.619	12703.1
1149.614	12744.1
1154.604	12734.1
1159.589	12765.1
1164.57	12794.1
1169.545	12835.1
1174.515	12807.1
1179.48	12762.1
1184.44	12659.1
1189.395	12521.1
1194.345	12515.1
1199.29	12462.1
1204.23	12466.1
1209.165	12485.1
1214.095	12544.1
1219.021	12618.1
1223.941	12693.1
1228.856	12749.1
1233.766	12816.1
1238.672	12787.1
1243.572	12801.1
1248.467	12717.1
1253.358	12599.1
1258.244	12379.1
1263.124	12217.1
1268	12070.1
1272.871	11921.1
1277.737	11783.1
1282.599	11805.1
1287.455	11730.1
1292.306	11808.1
1297.153	11878.1
1301.995	11917.1
1306.832	11947.1
1311.664	12001.1
1316.491	11972.1
1321.314	11869.1
1326.132	11678.1
1330.945	11399.1
1335.753	11112.1
1340.556	10794.1
1345.354	10556.1
1350.148	10337.1
1354.937	10276.1
1359.722	10312.1
1364.501	10450.1
1369.276	10650.1
1374.046	10873.1
1378.811	11080.1
1383.572	11216.1
1388.327	11148.1
1393.079	11148.1
1397.825	10993.1
1402.567	10748.1
1407.304	10627.1
1412.036	10479.1
1416.764	10407.1
1421.487	10355.1
1426.205	10311.1
1430.919	10268.1
1435.628	10246.1
1440.333	10236.1
1445.032	10311.1
1449.727	10380.1
1454.418	10311.1
1459.104	10205.1
1463.785	9957.1
1468.462	9824.1
1473.134	9608.1
1477.802	9441.1
1482.465	9267.1
1487.123	9151.1
1491.777	9165.1
1496.426	9237.1
1501.071	9398.1
1505.711	9566.1
1510.347	9735.1
1514.978	9959.1
1519.604	10033.1
1524.226	10176.1
1528.844	10189.1
1533.457	10176.1
1538.065	10119.1
1542.669	10051.1
1547.269	9938.1
1551.864	9876.1
1556.454	9904.1
1561.041	9835.1
1565.622	9852.1
1570.199	9899.1
1574.772	9841.1
1579.34	9972.1
1583.904	10022.1
1588.464	10052.1
1593.019	10036.1
1597.569	9984.1
1602.115	10007.1
1606.657	9949.1
1611.195	9885.1
1615.728	9808.1
1620.256	9771.1
1624.78	9799.1
1629.3	9804.1
1633.816	9842.1
1638.327	9890.1
1642.834	9926.1
1647.336	9993.1
1651.834	10012.1
1656.328	9996.1
1660.817	10032.1
1665.302	9864.1
1669.783	9709.1
1674.259	9544.1
1678.732	9242.1
1683.199	8911.1
1687.663	8562.1
1692.122	8344.1
1696.577	8223.1
1701.028	8169.1
1705.474	8374.1
1709.917	8490.1
1714.355	8521.1
1718.788	8402.1
1723.218	8212.1
1727.643	8076.1
1732.064	7896.1
1736.481	7740.1
1740.893	7509.1
1745.301	7341.1
1749.705	7151.1
1754.105	6951.1
1758.501	6734.1
1762.893	6582.1
1767.28	6407.1
1771.663	6248.1
1776.042	6170.1
1780.417	6146.1
1784.787	6151.1
1789.154	6226.1
1793.516	6369.1
1797.874	6542.1
1802.228	6669.1
1806.578	6722.1
1810.924	6701.1
1815.266	6668.1
1819.603	6540.1
1823.937	6414.1
1828.266	6322.1
1832.591	6224.1
1836.913	6106.1
1841.23	6045.1
1845.543	6012.1
1849.852	5923.1
1854.156	5937.1
1858.457	5922.1
1862.754	5922.1
1867.047	5912.1
1871.335	5919.1
1875.62	5929.1
1879.9	5931.1
1884.177	5900.1
1888.449	5833.1
1892.718	5771.1
1896.982	5684.1
1901.243	5650.1
1905.499	5638.1
1909.752	5647.1
1914	5625.1
1918.245	5668.1
1922.485	5713.1
1926.722	5785.1
1930.954	5865.1
1935.183	5918.1
1939.408	5993.1
1943.628	6010.1
1947.845	6031.1
1952.058	6004.1
1956.267	5952.1
1960.472	5885.1
1964.673	5832.1
1968.87	5690.1
1973.063	5614.1
1977.252	5552.1
1981.438	5507.1
1985.619	5415.1
1989.797	5439.1
1993.971	5388.1
1998.14	5347.1
2002.306	5335.1
2006.469	5337.1
2010.627	5301.1
2014.781	5262.1
2018.932	5229.1
2023.078	5181.1
2027.221	5135.1
2031.36	5057.1
2035.495	4978.1
2039.627	4894.1
2043.754	4852.1
2047.878	4778.1
2051.998	4785.1
2056.114	4742.1
2060.226	4771.1
2064.334	4760.1
2068.439	4824.1
2072.54	4821.1
2076.637	4876.1
2080.73	4905.1
2084.82	4916.1
2088.906	4954.1
2092.988	4959.1
2097.066	4921.1
2101.14	4901.1
2105.211	4886.1
2109.278	4868.1
2113.342	4851.1
2117.401	4801.1
2121.457	4743.1
2125.509	4748.1
2129.558	4728.1
2133.602	4711.1
2137.643	4668.1
2141.681	4655.1
2145.714	4660.1
2149.744	4601.1
2153.77	4568.1
2157.793	4538.1
2161.812	4440.1
2165.827	4424.1
2169.838	4351.1
2173.846	4288.1
2177.851	4197.1
2181.851	4121.1
2185.848	4070.1
2189.841	4051.1
2193.831	3990.1
2197.817	3975.1
2201.799	3978.1
2205.778	3934.1
2209.753	3931.1
2213.725	3897.1
2217.693	3923.1
2221.657	3925.1
2225.618	3884.1
2229.575	3879.1
2233.529	3829.1
2237.479	3804.1
2241.425	3769.1
2245.368	3734.1
2249.307	3657.1
2253.243	3672.1
2257.175	3598.1
2261.104	3533.1
2265.029	3517.1
2268.95	3482.1
2272.868	3424.1
2276.783	3387.1
2280.694	3364.1
2284.601	3363.1
2288.505	3336.1
2292.405	3284.1
2296.302	3231.1
2300.195	3197.1
2304.085	3201.1
2307.971	3133.1
2311.854	3116.1
2315.734	3061.1
2319.609	2986.1
2323.482	2953.1
2327.351	2897.1
2331.216	2921.1
2335.078	2923.1
2338.937	2876.1
2342.792	2838.1
2346.643	2834.1
2350.492	2832.1
2354.336	2828.1
2358.178	2830.1
2362.015	2836.1
2365.85	2857.1
2369.681	2841.1
2373.508	2826.1
2377.333	2835.1
2381.153	2820.1
2384.971	2772.1
2388.785	2776.1
2392.595	2770.1
2396.402	2731.1
2400.206	2711.1
2404.007	2674.1
2407.804	2672.1
2411.597	2643.1
2415.388	2629.1
2419.174	2612.1
2422.958	2609.1
2426.738	2585.1
2430.515	2570.1
2434.289	2551.1
2438.059	2552.1
2441.825	2512.1
2445.589	2489.1
2449.349	2452.1
2453.106	2418.1
2456.859	2406.1
2460.61	2380.1
2464.356	2357.1
2468.1	2315.1
2471.84	2292.1
2475.577	2269.1
2479.311	2287.1
2483.041	2269.1
2486.768	2275.1
2490.492	2241.1
2494.213	2242.1
2497.93	2226.1
2501.644	2231.1
2505.355	2212.1
2509.062	2212.1
2512.766	2213.1
2516.467	2208.1
2520.165	2174.1
2523.859	2139.1
2527.551	2148.1
2531.239	2145.1
2534.923	2151.1
2538.605	2107.1
2542.283	2119.1
2545.958	2112.1
2549.63	2130.1
2553.299	2127.1
2556.964	2115.1
2560.626	2108.1
2564.285	2101.1
2567.941	2099.1
2571.594	2081.1
2575.243	2072.1
2578.89	2055.1
2582.533	2045.1
2586.173	2008.1
2589.809	1997.1
2593.443	1957.1
2597.073	1970.1
2600.701	1949.1
2604.325	1923.1
2607.946	1914.1
2611.564	1898.1
2615.178	1915.1
2618.79	1873.1
2622.398	1860.1
2626.004	1855.1
2629.606	1833.1
2633.205	1794.1
2636.801	1791.1
2640.394	1787.1
2643.983	1725.1
2647.57	1718.1
2651.153	1679.1
2654.734	1651.1
2658.311	1642.1
2661.885	1624.1
2665.456	1581.1
2669.025	1569.1
2672.589	1549.1
2676.151	1543.1
2679.71	1528.1
2683.266	1516.1
2686.819	1467.1
2690.368	1446.1
2693.915	1420.1
2697.458	1381.1
2700.999	1337.1
2704.536	1337.1
2708.071	1312.1
2711.602	1282.1
2715.13	1240.1
2718.656	1221.1
2722.178	1216.1
2725.697	1199.1
2729.214	1195.1
2732.727	1183.1
2736.237	1165.1
2739.744	1209.1
2743.249	1199.1
2746.75	1201.1
2750.248	1215.1
2753.743	1242.1
2757.236	1268.1
2760.725	1263.1
2764.211	1265.1
2767.695	1269.1
2771.175	1260.1
2774.652	1260.1
2778.127	1241.1
2781.598	1258.1
2785.067	1245.1
2788.532	1231.1
2791.995	1211.1
2795.455	1229.1
2798.911	1223.1
2802.365	1224.1
2805.816	1218.1
2809.264	1218.1
2812.709	1245.1
2816.151	1214.1
2819.59	1229.1
2823.026	1206.1
2826.46	1214.1
2829.89	1217.1
2833.318	1216.1
2836.742	1237.1
2840.164	1230.1
2843.583	1219.1
2846.999	1231.1
2850.412	1249.1
2853.822	1258.1
2857.229	1289.1
2860.634	1298.1
2864.035	1324.1
2867.434	1319.1
2870.83	1367.1
2874.223	1379.1
2877.613	1398.1
2881	1399.1
2884.385	1431.1
2887.766	1409.1
2891.145	1422.1
2894.521	1417.1
2897.894	1421.1
2901.264	1414.1
2904.631	1404.1
2907.996	1411.1
2911.358	1433.1
2914.717	1432.1
2918.073	1432.1
2921.426	1472.1
2924.777	1474.1
2928.124	1497.1
2931.469	1527.1
2934.811	1541.1
2938.15	1549.1
2941.487	1554.1
2944.821	1573.1
2948.152	1566.1
2951.48	1590.1
2954.805	1543.1
2958.128	1525.1
2961.447	1519.1
2964.765	1529.1
2968.079	1519.1
2971.39	1541.1
2974.699	1555.1
2978.005	1576.1
2981.308	1616.1
2984.609	1642.1
2987.907	1653.1
2991.202	1695.1
2994.494	1742.1
2997.784	1757.1
3001.07	1805.1
3004.355	1809.1
3007.636	1863.1
3010.915	1846.1
3014.191	1896.1
3017.464	1861.1
3020.734	1900.1
3024.002	1886.1
3027.267	1910.1
3030.53	1917.1
3033.789	1959.1
3037.046	1980.1
3040.301	2008.1
3043.552	2043.1
3046.801	2074.1
3050.048	2112.1
3053.291	2184.1
3056.532	2210.1
3059.771	2257.1
3063.006	2346.1
3066.239	2390.1
3069.469	2466.1
3072.697	2517.1
3075.922	2625.1
3079.144	2642.1
3082.364	2701.1
3085.581	2739.1
3088.795	2834.1
3092.007	2861.1
3095.216	2938.1
3098.423	2982.1
3101.627	3070.1
3104.828	3106.1
3108.026	3173.1
3111.222	3256.1
3114.416	3331.1
3117.607	3366.1
3120.795	3457.1
3123.98	3567.1
3127.163	3637.1
3130.344	3754.1
3133.521	3801.1
3136.696	3885.1
3139.869	3968.1
3143.039	4005.1
3146.206	4088.1
3149.371	4117.1
3152.533	4157.1
3155.693	4178.1
3158.85	4198.1
3162.005	4231.1
3165.157	4268.1
3168.306	4242.1
3171.453	4261.1
3174.597	4248.1
3177.739	4294.1
3180.878	4300.1
3184.014	4327.1
3187.149	4246.1
3190.28	4287.1
3193.409	4272.1
3196.536	4312.1
3199.659	4290.1
3202.781	4313.1
3205.9	4338.1
3209.016	4303.1
3212.13	4250.1
3215.241	4259.1
3218.35	4205.1
3221.456	4183.1
3224.56	4147.1
3227.661	4095.1
3230.76	4042.1
3233.856	4025.1
3236.95	3972.1
3240.041	3955.1
3243.13	3912.1
3246.216	3939.1
3249.3	3877.1
3252.382	3872.1
3255.46	3847.1
3258.537	3856.1
3261.611	3854.1
3264.682	3833.1
3267.751	3823.1
3270.818	3836.1
3273.882	3808.1
3276.943	3779.1
3280.002	3761.1
3283.059	3749.1
3286.113	3695.1
3289.165	3646.1
3292.214	3568.1
3295.261	3528.1
3298.306	3487.1
3301.348	3410.1
3304.387	3354.1
3307.425	3299.1
3310.459	3242.1
3313.492	3215.1
3316.521	3174.1
3319.549	3141.1
3322.574	3109.1
3325.597	3084.1
3328.617	3064.1
3331.635	3024.1
3334.65	3019.1
3337.663	2992.1
3340.674	2974.1
3343.682	2985.1
3346.688	2974.1
3349.691	2929.1
3352.692	2925.1
3355.691	2896.1
3358.687	2873.1
3361.681	2856.1
3364.673	2808.1
3367.662	2773.1
3370.649	2756.1
3373.633	2719.1
3376.615	2666.1
3379.595	2630.1
3382.572	2610.1
3385.547	2564.1
3388.52	2512.1
3391.49	2472.1
3394.458	2435.1
3397.424	2385.1
3400.387	2381.1
3403.348	2353.1
3406.307	2328.1
3409.263	2289.1
3412.217	2282.1
3415.168	2235.1
3418.118	2236.1
3421.065	2193.1
3424.009	2191.1
3426.951	2123.1
3429.891	2091.1
3432.829	2051.1
3435.764	2004.1
3438.697	1961.1
3441.628	1909.1
3444.557	1859.1
3447.483	1807.1
3450.407	1742.1
3453.328	1700.1
3456.247	1620.1
3459.164	1574.1
3462.079	1539.1
3464.991	1448.1
3467.902	1442.1
3470.809	1387.1
3473.715	1346.1
3476.618	1287.1
3479.519	1215.1
3482.418	1213.1
3485.315	1157.1
3488.209	1130.1
3491.101	1099.1
3493.99	1043.1
3496.878	993.1
3499.763	975.1
3502.646	927.1
3505.527	888.1
3508.405	864.1
3511.281	800.1
3514.155	780.1
3517.027	729.1
3519.897	687.1
3522.764	634.1
3525.629	615.1
3528.492	549.1
3531.352	525.1
3534.211	475.1
3537.067	430.1
3539.921	399.1
3542.773	368.1
3545.622	346.1
3548.469	291.1
3551.315	269.1
3554.157	247.1
3556.998	204.1
3559.837	197.1
3562.673	167.1
3565.507	135.1
3568.339	113.1
3571.169	101.1
3573.996	80.1
3576.822	56.1
3579.645	31.1
3582.466	9.1
3585.285	-5.9
3588.101	-30.9
3590.916	-43.9
3593.728	-81.9
3596.538	-93.9
3599.346	-111.9
3602.152	-136.9
3604.956	-154.9
3607.757	-156.9
3610.556	-185.9
3613.354	-193.9
3616.149	-207.9
3618.942	-218.9
3621.732	-231.9
3624.521	-252.9
3627.307	-256.9
3630.092	-261.9
3632.874	-269.9
3635.654	-293.9
3638.432	-299.9
3641.208	-306.9
3643.982	-324.9
3646.753	-323.9
3649.523	-339.9
3652.29	-343.9
3655.055	-346.9
3657.818	-368.9
3660.579	-367.9
3663.338	-387.9
3666.095	-396.9
3668.849	-416.9
3671.602	-417.9
3674.352	-421.9
3677.101	-429.9
3679.847	-429.9
3682.591	-448.9
3685.333	-450.9
3688.073	-459.9
3690.811	-463.9
3693.547	-467.9
3696.281	-470.9
3699.013	-470.9
3701.742	-482.9
3704.47	-491.9
3707.195	-492.9
3709.919	-496.9
3712.64	-503.9
3715.359	-499.9
3718.076	-505.9
3720.792	-505.9
3723.505	-508.9
3726.216	-519.9
3728.925	-519.9
3731.632	-525.9
3734.336	-523.9
3737.039	-534.9
3739.74	-527.9
3742.439	-537.9
3745.136	-542.9
3747.83	-540.9
3750.523	-542.9
3753.213	-529.9
3755.902	-548.9
3758.589	-544.9
3761.273	-554.9
3763.956	-551.9
3766.636	-557.9
3769.315	-556.9
3771.991	-553.9
3774.665	-561.9
3777.338	-560.9
3780.008	-564.9
3782.677	-568.9
3785.343	-564.9
3788.007	-568.9
3790.67	-564.9
3793.33	-565.9
3795.989	-569.9
3798.645	-572.9
3801.299	-570.9
3803.952	-576.9
3806.602	-580.9
3809.251	-578.9
3811.897	-578.9
3814.542	-587.9
3817.184	-577.9
3819.825	-574.9
3822.463	-575.9
3825.1	-586.9
3827.735	-582.9
3830.367	-577.9
3832.998	-581.9
3835.627	-587.9
3838.253	-588.9
3840.878	-597.9
3843.501	-590.9
3846.122	-583.9
3848.741	-589.9
3851.358	-587.9
3853.973	-589.9
3856.586	-593.9
3859.197	-592.9
3861.806	-598.9
3864.414	-592.9
3867.019	-588.9
3869.622	-592.9
3872.224	-589.9
3874.823	-572.9
3877.421	-562.9
3880.016	-550.9
3882.61	-519.9
3885.202	-521.9
3887.792	-542.9
3890.38	-574.9
3892.966	-585.9
3895.55	-591.9
3898.132	-605.9
3900.713	-608.9
3903.291	-606.9
3905.868	-605.9
3908.442	-600.9
3911.015	-606.9
3913.586	-602.9
3916.155	-601.9
3918.722	-607.9
3921.287	-603.9
3923.85	-611.9
3926.411	-608.9
3928.971	-608.9
3931.528	-612.9
3934.084	-608.9
3936.638	-605.9
3939.19	-608.9
3941.74	-602.9
3944.288	-608.9
3946.834	-602.9
3949.378	-609.9
3951.921	-606.9
3954.462	-617.9
3957	-609.9
3959.537	-610.9
3962.072	-609.9
3964.606	-612.9
3967.137	-606.9
3969.667	-608.9
3972.194	-605.9
3974.72	-603.9
3977.244	-594.9
3979.766	-598.9
3982.286	-596.9
3984.805	-594.9
3987.321	-598.9
3989.836	-599.9
3992.349	-599.9
3994.86	-598.9
3997.369	-599.9
3999.877	-593.9
4002.382	-596.9
4004.886	-591.9
4007.388	-592.9
4009.888	-591.9
4012.386	-595.9
4014.883	-596.9
4017.377	-592.9
4019.87	-593.9
4022.361	-597.9
4024.85	-594.9
4027.338	-598.9
4029.823	-599.9
4032.307	-602.9
4034.789	-597.9
4037.269	-595.9
4039.747	-599.9
4042.224	-598.9
4044.699	-597.9
4047.172	-599.9
4049.643	-590.9
4052.112	-601.9
4054.58	-600.9
4057.046	-597.9
4059.51	-603.9
4061.972	-603.9
4064.432	-600.9
4066.891	-603.9
4069.348	-600.9
4071.803	-591.9
4074.256	-599.9
4076.708	-597.9
4079.158	-598.9
4081.606	-597.9
4084.052	-600.9
4086.497	-598.9
4088.939	-591.9
4091.38	-603.9
4093.819	-597.9
4096.257	-633.9
4098.693	-635.9
4101.127	-632.9
4103.559	-631.9
4105.989	-364.9
4108.418	-336.9
4110.845	-310.9
4113.27	-294.9
4115.694	-267.9
4118.115	-218.9
4120.535	-601.9
4122.954	-603.9
4125.37	-590.9
4127.785	-597.9
4130.198	-599.9
4132.609	-600.9
4135.019	-632.9
4137.427	-632.9
4139.833	-631.9
4142.237	-630.9
