Data from 2018-2-14_conc=4_n=6_RamanShift_03.txt Node
Date: Wed Feb 14 13:44:25 IST 2018
User: aro
Spectrometer: QEPB0276
Trigger mode: 0
Integration Time (sec): 3.000000E1
Scans to average: 1
Electric dark correction enabled: true
Nonlinearity correction enabled: false
Boxcar width: 0
XAxis mode: Raman Shifts
Number of Pixels in Spectrum: 1044
>>>>>Begin Spectral Data<<<<<
160.701	-145.8
166.742	34.2
172.777	568.2
178.805	2218.2
184.826	6065.2
190.841	12766.2
196.849	20491.2
202.85	25877.2
208.845	27675.2
214.833	27320.2
220.815	26878.2
226.789	26629.2
232.758	26556.2
238.719	26375.2
244.674	25919.2
250.623	25411.2
256.565	24928.2
262.5	24343.2
268.429	23944.2
274.351	23497.2
280.267	23202.2
286.176	22881.2
292.079	22708.2
297.975	22479.2
303.865	22301.2
309.748	22081.2
315.625	21942.2
321.495	21832.2
327.359	21766.2
333.217	21668.2
339.068	21694.2
344.912	21614.2
350.751	21664.2
356.583	21508.2
362.408	21513.2
368.227	21597.2
374.04	21581.2
379.847	21652.2
385.647	21749.2
391.44	21772.2
397.228	21842.2
403.009	21928.2
408.784	21993.2
414.553	22069.2
420.315	22119.2
426.071	22155.2
431.821	22157.2
437.565	22082.2
443.302	22059.2
449.033	22041.2
454.758	22001.2
460.477	21969.2
466.189	21862.2
471.896	21820.2
477.596	21708.2
483.29	21703.2
488.978	21708.2
494.66	21603.2
500.335	21486.2
506.005	21265.2
511.668	21012.2
517.325	20784.2
522.977	20599.2
528.622	20464.2
534.261	20331.2
539.894	20243.2
545.521	20114.2
551.141	20110.2
556.756	19997.2
562.365	19964.2
567.968	19894.2
573.565	19762.2
579.155	19652.2
584.74	19616.2
590.319	19552.2
595.892	19492.2
601.459	19414.2
607.02	19354.2
612.575	19165.2
618.124	19080.2
623.667	18986.2
629.204	18883.2
634.735	18819.2
640.261	18681.2
645.781	18633.2
651.294	18587.2
656.802	18548.2
662.304	18573.2
667.8	18537.2
673.29	18395.2
678.775	18414.2
684.254	18393.2
689.726	18324.2
695.193	18249.2
700.655	18224.2
706.11	18123.2
711.56	17937.2
717.004	17921.2
722.442	17818.2
727.874	17684.2
733.301	17664.2
738.722	17664.2
744.137	17594.2
749.547	17615.2
754.951	17579.2
760.349	17636.2
765.741	17609.2
771.128	17624.2
776.509	17646.2
781.885	17600.2
787.254	17569.2
792.618	17470.2
797.977	17361.2
803.33	17275.2
808.677	17195.2
814.019	17065.2
819.355	17004.2
824.686	16887.2
830.011	16847.2
835.33	16873.2
840.644	16857.2
845.952	16899.2
851.255	16917.2
856.552	17011.2
861.844	16936.2
867.13	16931.2
872.41	16820.2
877.686	16747.2
882.955	16565.2
888.219	16415.2
893.478	16328.2
898.731	16105.2
903.979	15954.2
909.221	15782.2
914.458	15720.2
919.69	15782.2
924.916	15768.2
930.136	15801.2
935.351	15843.2
940.561	15837.2
945.766	15817.2
950.965	15733.2
956.158	15648.2
961.347	15482.2
966.529	15275.2
971.707	15053.2
976.879	14923.2
982.046	14739.2
987.208	14700.2
992.364	14740.2
997.515	14810.2
1002.66	14989.2
1007.801	15118.2
1012.936	15212.2
1018.066	15198.2
1023.19	15235.2
1028.309	15222.2
1033.423	15155.2
1038.532	15082.2
1043.636	14991.2
1048.734	14769.2
1053.827	14561.2
1058.915	14449.2
1063.998	14347.2
1069.075	14282.2
1074.147	14319.2
1079.214	14362.2
1084.276	14419.2
1089.333	14546.2
1094.385	14555.2
1099.431	14665.2
1104.472	14617.2
1109.509	14489.2
1114.54	14393.2
1119.565	14238.2
1124.586	14014.2
1129.602	13877.2
1134.613	13718.2
1139.618	13683.2
1144.619	13712.2
1149.614	13648.2
1154.604	13644.2
1159.589	13736.2
1164.57	13736.2
1169.545	13746.2
1174.515	13730.2
1179.48	13714.2
1184.44	13541.2
1189.395	13486.2
1194.345	13409.2
1199.29	13340.2
1204.23	13336.2
1209.165	13411.2
1214.095	13433.2
1219.021	13561.2
1223.941	13559.2
1228.856	13686.2
1233.766	13731.2
1238.672	13714.2
1243.572	13686.2
1248.467	13582.2
1253.358	13451.2
1258.244	13262.2
1263.124	13026.2
1268	12906.2
1272.871	12722.2
1277.737	12612.2
1282.599	12526.2
1287.455	12557.2
1292.306	12604.2
1297.153	12588.2
1301.995	12672.2
1306.832	12734.2
1311.664	12758.2
1316.491	12718.2
1321.314	12613.2
1326.132	12374.2
1330.945	12117.2
1335.753	11876.2
1340.556	11540.2
1345.354	11321.2
1350.148	11089.2
1354.937	11020.2
1359.722	11021.2
1364.501	11017.2
1369.276	11216.2
1374.046	11344.2
1378.811	11545.2
1383.572	11720.2
1388.327	11731.2
1393.079	11671.2
1397.825	11491.2
1402.567	11356.2
1407.304	11205.2
1412.036	11069.2
1416.764	10976.2
1421.487	10942.2
1426.205	10871.2
1430.919	10820.2
1435.628	10830.2
1440.333	10843.2
1445.032	10854.2
1449.727	10899.2
1454.418	10904.2
1459.104	10747.2
1463.785	10552.2
1468.462	10347.2
1473.134	10122.2
1477.802	9884.2
1482.465	9784.2
1487.123	9609.2
1491.777	9565.2
1496.426	9628.2
1501.071	9764.2
1505.711	9935.2
1510.347	10111.2
1514.978	10317.2
1519.604	10468.2
1524.226	10554.2
1528.844	10592.2
1533.457	10514.2
1538.065	10479.2
1542.669	10418.2
1547.269	10370.2
1551.864	10308.2
1556.454	10194.2
1561.041	10249.2
1565.622	10220.2
1570.199	10214.2
1574.772	10289.2
1579.34	10351.2
1583.904	10459.2
1588.464	10424.2
1593.019	10413.2
1597.569	10413.2
1602.115	10367.2
1606.657	10290.2
1611.195	10218.2
1615.728	10151.2
1620.256	10128.2
1624.78	10089.2
1629.3	10174.2
1633.816	10142.2
1638.327	10202.2
1642.834	10297.2
1647.336	10302.2
1651.834	10356.2
1656.328	10338.2
1660.817	10217.2
1665.302	10159.2
1669.783	9966.2
1674.259	9791.2
1678.732	9499.2
1683.199	9144.2
1687.663	8865.2
1692.122	8564.2
1696.577	8433.2
1701.028	8406.2
1705.474	8480.2
1709.917	8554.2
1714.355	8658.2
1718.788	8571.2
1723.218	8460.2
1727.643	8279.2
1732.064	8115.2
1736.481	7982.2
1740.893	7750.2
1745.301	7551.2
1749.705	7320.2
1754.105	7133.2
1758.501	6930.2
1762.893	6707.2
1767.28	6576.2
1771.663	6432.2
1776.042	6257.2
1780.417	6232.2
1784.787	6226.2
1789.154	6263.2
1793.516	6415.2
1797.874	6549.2
1802.228	6666.2
1806.578	6767.2
1810.924	6809.2
1815.266	6677.2
1819.603	6640.2
1823.937	6519.2
1828.266	6389.2
1832.591	6256.2
1836.913	6204.2
1841.23	6140.2
1845.543	6082.2
1849.852	6049.2
1854.156	6037.2
1858.457	5991.2
1862.754	5981.2
1867.047	5989.2
1871.335	5982.2
1875.62	5955.2
1879.9	5941.2
1884.177	5901.2
1888.449	5851.2
1892.718	5791.2
1896.982	5737.2
1901.243	5681.2
1905.499	5610.2
1909.752	5609.2
1914	5640.2
1918.245	5653.2
1922.485	5680.2
1926.722	5722.2
1930.954	5827.2
1935.183	5902.2
1939.408	5973.2
1943.628	6004.2
1947.845	6043.2
1952.058	6012.2
1956.267	5957.2
1960.472	5902.2
1964.673	5802.2
1968.87	5678.2
1973.063	5608.2
1977.252	5539.2
1981.438	5504.2
1985.619	5386.2
1989.797	5368.2
1993.971	5360.2
1998.14	5311.2
2002.306	5283.2
2006.469	5249.2
2010.627	5236.2
2014.781	5195.2
2018.932	5155.2
2023.078	5129.2
2027.221	5043.2
2031.36	4956.2
2035.495	4885.2
2039.627	4821.2
2043.754	4784.2
2047.878	4696.2
2051.998	4680.2
2056.114	4685.2
2060.226	4692.2
2064.334	4665.2
2068.439	4696.2
2072.54	4703.2
2076.637	4754.2
2080.73	4761.2
2084.82	4797.2
2088.906	4816.2
2092.988	4839.2
2097.066	4793.2
2101.14	4785.2
2105.211	4774.2
2109.278	4718.2
2113.342	4692.2
2117.401	4682.2
2121.457	4658.2
2125.509	4627.2
2129.558	4618.2
2133.602	4593.2
2137.643	4532.2
2141.681	4549.2
2145.714	4529.2
2149.744	4459.2
2153.77	4471.2
2157.793	4403.2
2161.812	4368.2
2165.827	4256.2
2169.838	4203.2
2173.846	4126.2
2177.851	4047.2
2181.851	4028.2
2185.848	3956.2
2189.841	3911.2
2193.831	3883.2
2197.817	3848.2
2201.799	3819.2
2205.778	3791.2
2209.753	3807.2
2213.725	3795.2
2217.693	3760.2
2221.657	3791.2
2225.618	3753.2
2229.575	3716.2
2233.529	3693.2
2237.479	3693.2
2241.425	3592.2
2245.368	3573.2
2249.307	3506.2
2253.243	3455.2
2257.175	3409.2
2261.104	3379.2
2265.029	3327.2
2268.95	3323.2
2272.868	3266.2
2276.783	3223.2
2280.694	3203.2
2284.601	3163.2
2288.505	3163.2
2292.405	3084.2
2296.302	3084.2
2300.195	3050.2
2304.085	3009.2
2307.971	2958.2
2311.854	2931.2
2315.734	2872.2
2319.609	2836.2
2323.482	2811.2
2327.351	2768.2
2331.216	2723.2
2335.078	2763.2
2338.937	2736.2
2342.792	2717.2
2346.643	2697.2
2350.492	2705.2
2354.336	2718.2
2358.178	2713.2
2362.015	2712.2
2365.85	2729.2
2369.681	2730.2
2373.508	2719.2
2377.333	2710.2
2381.153	2712.2
2384.971	2675.2
2388.785	2670.2
2392.595	2646.2
2396.402	2616.2
2400.206	2593.2
2404.007	2575.2
2407.804	2570.2
2411.597	2565.2
2415.388	2555.2
2419.174	2530.2
2422.958	2505.2
2426.738	2496.2
2430.515	2457.2
2434.289	2435.2
2438.059	2419.2
2441.825	2410.2
2445.589	2381.2
2449.349	2375.2
2453.106	2321.2
2456.859	2290.2
2460.61	2261.2
2464.356	2252.2
2468.1	2231.2
2471.84	2204.2
2475.577	2180.2
2479.311	2168.2
2483.041	2147.2
2486.768	2140.2
2490.492	2135.2
2494.213	2141.2
2497.93	2105.2
2501.644	2108.2
2505.355	2107.2
2509.062	2114.2
2512.766	2076.2
2516.467	2079.2
2520.165	2064.2
2523.859	2039.2
2527.551	2012.2
2531.239	2015.2
2534.923	1994.2
2538.605	1992.2
2542.283	1995.2
2545.958	1968.2
2549.63	2007.2
2553.299	1987.2
2556.964	1969.2
2560.626	1973.2
2564.285	1957.2
2567.941	1940.2
2571.594	1916.2
2575.243	1930.2
2578.89	1902.2
2582.533	1892.2
2586.173	1886.2
2589.809	1885.2
2593.443	1864.2
2597.073	1802.2
2600.701	1822.2
2604.325	1806.2
2607.946	1779.2
2611.564	1750.2
2615.178	1775.2
2618.79	1773.2
2622.398	1736.2
2626.004	1736.2
2629.606	1715.2
2633.205	1695.2
2636.801	1671.2
2640.394	1647.2
2643.983	1606.2
2647.57	1604.2
2651.153	1583.2
2654.734	1570.2
2658.311	1519.2
2661.885	1502.2
2665.456	1481.2
2669.025	1455.2
2672.589	1438.2
2676.151	1423.2
2679.71	1415.2
2683.266	1402.2
2686.819	1374.2
2690.368	1328.2
2693.915	1330.2
2697.458	1273.2
2700.999	1270.2
2704.536	1235.2
2708.071	1205.2
2711.602	1176.2
2715.13	1144.2
2718.656	1108.2
2722.178	1107.2
2725.697	1059.2
2729.214	1056.2
2732.727	1059.2
2736.237	1053.2
2739.744	1022.2
2743.249	1054.2
2746.75	1063.2
2750.248	1071.2
2753.743	1079.2
2757.236	1114.2
2760.725	1114.2
2764.211	1114.2
2767.695	1128.2
2771.175	1128.2
2774.652	1128.2
2778.127	1119.2
2781.598	1097.2
2785.067	1108.2
2788.532	1108.2
2791.995	1102.2
2795.455	1097.2
2798.911	1100.2
2802.365	1097.2
2805.816	1100.2
2809.264	1086.2
2812.709	1086.2
2816.151	1107.2
2819.59	1063.2
2823.026	1078.2
2826.46	1096.2
2829.89	1097.2
2833.318	1108.2
2836.742	1106.2
2840.164	1128.2
2843.583	1125.2
2846.999	1136.2
2850.412	1131.2
2853.822	1155.2
2857.229	1153.2
2860.634	1209.2
2864.035	1194.2
2867.434	1234.2
2870.83	1240.2
2874.223	1257.2
2877.613	1294.2
2881	1294.2
2884.385	1303.2
2887.766	1296.2
2891.145	1307.2
2894.521	1302.2
2897.894	1305.2
2901.264	1297.2
2904.631	1284.2
2907.996	1316.2
2911.358	1320.2
2914.717	1325.2
2918.073	1351.2
2921.426	1338.2
2924.777	1358.2
2928.124	1379.2
2931.469	1393.2
2934.811	1417.2
2938.15	1449.2
2941.487	1445.2
2944.821	1454.2
2948.152	1449.2
2951.48	1461.2
2954.805	1435.2
2958.128	1423.2
2961.447	1398.2
2964.765	1408.2
2968.079	1398.2
2971.39	1417.2
2974.699	1442.2
2978.005	1458.2
2981.308	1475.2
2984.609	1504.2
2987.907	1548.2
2991.202	1557.2
2994.494	1611.2
2997.784	1644.2
3001.07	1664.2
3004.355	1682.2
3007.636	1707.2
3010.915	1742.2
3014.191	1764.2
3017.464	1748.2
3020.734	1792.2
3024.002	1788.2
3027.267	1797.2
3030.53	1800.2
3033.789	1804.2
3037.046	1828.2
3040.301	1889.2
3043.552	1904.2
3046.801	1938.2
3050.048	1976.2
3053.291	2031.2
3056.532	2081.2
3059.771	2124.2
3063.006	2188.2
3066.239	2272.2
3069.469	2320.2
3072.697	2393.2
3075.922	2458.2
3079.144	2514.2
3082.364	2564.2
3085.581	2615.2
3088.795	2675.2
3092.007	2741.2
3095.216	2775.2
3098.423	2833.2
3101.627	2911.2
3104.828	2976.2
3108.026	3066.2
3111.222	3110.2
3114.416	3173.2
3117.607	3251.2
3120.795	3316.2
3123.98	3381.2
3127.163	3439.2
3130.344	3545.2
3133.521	3634.2
3136.696	3714.2
3139.869	3796.2
3143.039	3868.2
3146.206	3898.2
3149.371	3966.2
3152.533	3999.2
3155.693	4036.2
3158.85	4037.2
3162.005	4075.2
3165.157	4110.2
3168.306	4086.2
3171.453	4127.2
3174.597	4109.2
3177.739	4107.2
3180.878	4125.2
3184.014	4107.2
3187.149	4124.2
3190.28	4136.2
3193.409	4117.2
3196.536	4138.2
3199.659	4142.2
3202.781	4163.2
3205.9	4172.2
3209.016	4149.2
3212.13	4148.2
3215.241	4089.2
3218.35	4081.2
3221.456	4018.2
3224.56	3983.2
3227.661	3950.2
3230.76	3888.2
3233.856	3881.2
3236.95	3853.2
3240.041	3796.2
3243.13	3775.2
3246.216	3750.2
3249.3	3747.2
3252.382	3726.2
3255.46	3716.2
3258.537	3678.2
3261.611	3723.2
3264.682	3724.2
3267.751	3700.2
3270.818	3676.2
3273.882	3690.2
3276.943	3655.2
3280.002	3663.2
3283.059	3597.2
3286.113	3568.2
3289.165	3514.2
3292.214	3462.2
3295.261	3388.2
3298.306	3331.2
3301.348	3258.2
3304.387	3226.2
3307.425	3177.2
3310.459	3157.2
3313.492	3077.2
3316.521	3060.2
3319.549	3018.2
3322.574	2994.2
3325.597	2962.2
3328.617	2962.2
3331.635	2921.2
3334.65	2919.2
3337.663	2883.2
3340.674	2853.2
3343.682	2864.2
3346.688	2852.2
3349.691	2837.2
3352.692	2794.2
3355.691	2802.2
3358.687	2781.2
3361.681	2734.2
3364.673	2692.2
3367.662	2671.2
3370.649	2646.2
3373.633	2600.2
3376.615	2558.2
3379.595	2517.2
3382.572	2493.2
3385.547	2453.2
3388.52	2398.2
3391.49	2385.2
3394.458	2333.2
3397.424	2329.2
3400.387	2264.2
3403.348	2240.2
3406.307	2225.2
3409.263	2193.2
3412.217	2204.2
3415.168	2151.2
3418.118	2136.2
3421.065	2096.2
3424.009	2074.2
3426.951	2019.2
3429.891	2000.2
3432.829	1972.2
3435.764	1934.2
3438.697	1872.2
3441.628	1809.2
3444.557	1762.2
3447.483	1690.2
3450.407	1658.2
3453.328	1596.2
3456.247	1534.2
3459.164	1484.2
3462.079	1433.2
3464.991	1397.2
3467.902	1335.2
3470.809	1293.2
3473.715	1263.2
3476.618	1195.2
3479.519	1178.2
3482.418	1120.2
3485.315	1104.2
3488.209	1057.2
3491.101	1003.2
3493.99	973.2
3496.878	934.2
3499.763	908.2
3502.646	870.2
3505.527	834.2
3508.405	784.2
3511.281	749.2
3514.155	701.2
3517.027	667.2
3519.897	624.2
3522.764	586.2
3525.629	535.2
3528.492	487.2
3531.352	470.2
3534.211	421.2
3537.067	370.2
3539.921	349.2
3542.773	310.2
3545.622	277.2
3548.469	246.2
3551.315	207.2
3554.157	188.2
3556.998	157.2
3559.837	135.2
3562.673	108.2
3565.507	91.2
3568.339	64.2
3571.169	47.2
3573.996	20.2
3576.822	8.2
3579.645	-21.8
3582.466	-47.8
3585.285	-61.8
3588.101	-87.8
3590.916	-105.8
3593.728	-132.8
3596.538	-142.8
3599.346	-174.8
3602.152	-176.8
3604.956	-199.8
3607.757	-203.8
3610.556	-226.8
3613.354	-238.8
3616.149	-249.8
3618.942	-266.8
3621.732	-278.8
3624.521	-297.8
3627.307	-307.8
3630.092	-309.8
3632.874	-308.8
3635.654	-333.8
3638.432	-342.8
3641.208	-349.8
3643.982	-359.8
3646.753	-369.8
3649.523	-373.8
3652.29	-380.8
3655.055	-394.8
3657.818	-405.8
3660.579	-419.8
3663.338	-437.8
3666.095	-437.8
3668.849	-445.8
3671.602	-452.8
3674.352	-456.8
3677.101	-463.8
3679.847	-480.8
3682.591	-479.8
3685.333	-480.8
3688.073	-496.8
3690.811	-502.8
3693.547	-508.8
3696.281	-505.8
3699.013	-508.8
3701.742	-522.8
3704.47	-527.8
3707.195	-540.8
3709.919	-533.8
3712.64	-543.8
3715.359	-544.8
3718.076	-543.8
3720.792	-548.8
3723.505	-549.8
3726.216	-555.8
3728.925	-557.8
3731.632	-560.8
3734.336	-568.8
3737.039	-565.8
3739.74	-564.8
3742.439	-562.8
3745.136	-573.8
3747.83	-571.8
3750.523	-575.8
3753.213	-571.8
3755.902	-586.8
3758.589	-588.8
3761.273	-588.8
3763.956	-589.8
3766.636	-587.8
3769.315	-591.8
3771.991	-590.8
3774.665	-600.8
3777.338	-599.8
3780.008	-607.8
3782.677	-605.8
3785.343	-599.8
3788.007	-599.8
3790.67	-604.8
3793.33	-605.8
3795.989	-608.8
3798.645	-604.8
3801.299	-609.8
3803.952	-609.8
3806.602	-617.8
3809.251	-617.8
3811.897	-616.8
3814.542	-614.8
3817.184	-616.8
3819.825	-615.8
3822.463	-611.8
3825.1	-614.8
3827.735	-610.8
3830.367	-617.8
3832.998	-620.8
3835.627	-622.8
3838.253	-625.8
3840.878	-631.8
3843.501	-622.8
3846.122	-620.8
3848.741	-623.8
3851.358	-627.8
3853.973	-625.8
3856.586	-625.8
3859.197	-632.8
3861.806	-632.8
3864.414	-626.8
3867.019	-626.8
3869.622	-630.8
3872.224	-626.8
3874.823	-603.8
3877.421	-596.8
3880.016	-579.8
3882.61	-564.8
3885.202	-559.8
3887.792	-578.8
3890.38	-601.8
3892.966	-617.8
3895.55	-625.8
3898.132	-644.8
3900.713	-644.8
3903.291	-639.8
3905.868	-638.8
3908.442	-643.8
3911.015	-640.8
3913.586	-639.8
3916.155	-637.8
3918.722	-645.8
3921.287	-641.8
3923.85	-646.8
3926.411	-644.8
3928.971	-655.8
3931.528	-645.8
3934.084	-645.8
3936.638	-640.8
3939.19	-647.8
3941.74	-646.8
3944.288	-645.8
3946.834	-641.8
3949.378	-643.8
3951.921	-647.8
3954.462	-647.8
3957	-640.8
3959.537	-644.8
3962.072	-646.8
3964.606	-642.8
3967.137	-640.8
3969.667	-647.8
3972.194	-638.8
3974.72	-642.8
3977.244	-632.8
3979.766	-628.8
3982.286	-636.8
3984.805	-632.8
3987.321	-634.8
3989.836	-634.8
3992.349	-630.8
3994.86	-629.8
3997.369	-644.8
3999.877	-631.8
4002.382	-626.8
4004.886	-628.8
4007.388	-623.8
4009.888	-626.8
4012.386	-627.8
4014.883	-626.8
4017.377	-628.8
4019.87	-622.8
4022.361	-632.8
4024.85	-626.8
4027.338	-637.8
4029.823	-628.8
4032.307	-633.8
4034.789	-630.8
4037.269	-625.8
4039.747	-636.8
4042.224	-631.8
4044.699	-633.8
4047.172	-633.8
4049.643	-633.8
4052.112	-643.8
4054.58	-636.8
4057.046	-635.8
4059.51	-635.8
4061.972	-635.8
4064.432	-645.8
4066.891	-633.8
4069.348	-632.8
4071.803	-628.8
4074.256	-631.8
4076.708	-634.8
4079.158	-635.8
4081.606	-633.8
4084.052	-639.8
4086.497	-636.8
4088.939	-628.8
4091.38	-631.8
4093.819	-626.8
4096.257	-666.8
4098.693	-664.8
4101.127	-667.8
4103.559	-665.8
4105.989	-383.8
4108.418	-360.8
4110.845	-343.8
4113.27	-312.8
4115.694	-276.8
4118.115	-239.8
4120.535	-629.8
4122.954	-635.8
4125.37	-620.8
4127.785	-633.8
4130.198	-631.8
4132.609	-641.8
4135.019	-667.8
4137.427	-667.8
4139.833	-672.8
4142.237	-666.8
