Data from 2018-2-14_conc=5_n=4_RamanShift_01.txt Node
Date: Wed Feb 14 14:14:25 IST 2018
User: aro
Spectrometer: QEPB0276
Trigger mode: 0
Integration Time (sec): 3.000000E1
Scans to average: 1
Electric dark correction enabled: true
Nonlinearity correction enabled: false
Boxcar width: 0
XAxis mode: Raman Shifts
Number of Pixels in Spectrum: 1044
>>>>>Begin Spectral Data<<<<<
160.701	-150.2
166.742	39.8
172.777	578.8
178.805	2246.8
184.826	6208.8
190.841	12945.8
196.849	20877.8
202.85	26419.8
208.845	28250.8
214.833	28010.8
220.815	27383.8
226.789	27164.8
232.758	26972.8
238.719	26799.8
244.674	26296.8
250.623	25750.8
256.565	25161.8
262.5	24575.8
268.429	24095.8
274.351	23694.8
280.267	23377.8
286.176	22955.8
292.079	22762.8
297.975	22557.8
303.865	22319.8
309.748	22068.8
315.625	21979.8
321.495	21825.8
327.359	21798.8
333.217	21641.8
339.068	21658.8
344.912	21591.8
350.751	21595.8
356.583	21536.8
362.408	21531.8
368.227	21553.8
374.04	21545.8
379.847	21583.8
385.647	21735.8
391.44	21759.8
397.228	21856.8
403.009	21978.8
408.784	22062.8
414.553	22075.8
420.315	22181.8
426.071	22169.8
431.821	22167.8
437.565	22076.8
443.302	22055.8
449.033	22080.8
454.758	21987.8
460.477	21922.8
466.189	21862.8
471.896	21756.8
477.596	21722.8
483.29	21666.8
488.978	21649.8
494.66	21557.8
500.335	21456.8
506.005	21222.8
511.668	20890.8
517.325	20632.8
522.977	20476.8
528.622	20260.8
534.261	20126.8
539.894	20079.8
545.521	19954.8
551.141	19903.8
556.756	19775.8
562.365	19678.8
567.968	19656.8
573.565	19574.8
579.155	19500.8
584.74	19345.8
590.319	19308.8
595.892	19267.8
601.459	19175.8
607.02	19116.8
612.575	18902.8
618.124	18793.8
623.667	18780.8
629.204	18695.8
634.735	18554.8
640.261	18450.8
645.781	18439.8
651.294	18343.8
656.802	18392.8
662.304	18286.8
667.8	18262.8
673.29	18209.8
678.775	18217.8
684.254	18114.8
689.726	18050.8
695.193	18019.8
700.655	17932.8
706.11	17818.8
711.56	17741.8
717.004	17671.8
722.442	17532.8
727.874	17488.8
733.301	17381.8
738.722	17312.8
744.137	17306.8
749.547	17350.8
754.951	17340.8
760.349	17320.8
765.741	17303.8
771.128	17316.8
776.509	17390.8
781.885	17396.8
787.254	17331.8
792.618	17226.8
797.977	17114.8
803.33	17016.8
808.677	16945.8
814.019	16849.8
819.355	16757.8
824.686	16660.8
830.011	16623.8
835.33	16604.8
840.644	16652.8
845.952	16656.8
851.255	16709.8
856.552	16667.8
861.844	16571.8
867.13	16578.8
872.41	16516.8
877.686	16475.8
882.955	16262.8
888.219	16190.8
893.478	16009.8
898.731	15797.8
903.979	15616.8
909.221	15491.8
914.458	15406.8
919.69	15454.8
924.916	15492.8
930.136	15531.8
935.351	15561.8
940.561	15515.8
945.766	15546.8
950.965	15399.8
956.158	15324.8
961.347	15140.8
966.529	14971.8
971.707	14775.8
976.879	14565.8
982.046	14422.8
987.208	14420.8
992.364	14452.8
997.515	14475.8
1002.66	14632.8
1007.801	14830.8
1012.936	14887.8
1018.066	14895.8
1023.19	14838.8
1028.309	14929.8
1033.423	14818.8
1038.532	14766.8
1043.636	14642.8
1048.734	14475.8
1053.827	14259.8
1058.915	14130.8
1063.998	14021.8
1069.075	13974.8
1074.147	14021.8
1079.214	14091.8
1084.276	14159.8
1089.333	14217.8
1094.385	14307.8
1099.431	14369.8
1104.472	14325.8
1109.509	14231.8
1114.54	14040.8
1119.565	13813.8
1124.586	13760.8
1129.602	13576.8
1134.613	13471.8
1139.618	13387.8
1144.619	13355.8
1149.614	13372.8
1154.604	13323.8
1159.589	13440.8
1164.57	13464.8
1169.545	13503.8
1174.515	13463.8
1179.48	13377.8
1184.44	13310.8
1189.395	13210.8
1194.345	13067.8
1199.29	13050.8
1204.23	13039.8
1209.165	13128.8
1214.095	13149.8
1219.021	13236.8
1223.941	13299.8
1228.856	13376.8
1233.766	13410.8
1238.672	13412.8
1243.572	13430.8
1248.467	13292.8
1253.358	13218.8
1258.244	13035.8
1263.124	12749.8
1268	12610.8
1272.871	12452.8
1277.737	12331.8
1282.599	12291.8
1287.455	12269.8
1292.306	12287.8
1297.153	12371.8
1301.995	12394.8
1306.832	12465.8
1311.664	12441.8
1316.491	12454.8
1321.314	12357.8
1326.132	12188.8
1330.945	11896.8
1335.753	11553.8
1340.556	11313.8
1345.354	11108.8
1350.148	10968.8
1354.937	10816.8
1359.722	10814.8
1364.501	10890.8
1369.276	10955.8
1374.046	11146.8
1378.811	11280.8
1383.572	11373.8
1388.327	11463.8
1393.079	11395.8
1397.825	11259.8
1402.567	11129.8
1407.304	10958.8
1412.036	10842.8
1416.764	10823.8
1421.487	10694.8
1426.205	10648.8
1430.919	10625.8
1435.628	10622.8
1440.333	10591.8
1445.032	10667.8
1449.727	10714.8
1454.418	10732.8
1459.104	10565.8
1463.785	10347.8
1468.462	10136.8
1473.134	9956.8
1477.802	9743.8
1482.465	9589.8
1487.123	9466.8
1491.777	9451.8
1496.426	9524.8
1501.071	9608.8
1505.711	9742.8
1510.347	9983.8
1514.978	10152.8
1519.604	10268.8
1524.226	10402.8
1528.844	10368.8
1533.457	10383.8
1538.065	10321.8
1542.669	10216.8
1547.269	10192.8
1551.864	10157.8
1556.454	10120.8
1561.041	10059.8
1565.622	10098.8
1570.199	10046.8
1574.772	10123.8
1579.34	10176.8
1583.904	10244.8
1588.464	10271.8
1593.019	10305.8
1597.569	10290.8
1602.115	10208.8
1606.657	10209.8
1611.195	10153.8
1615.728	10108.8
1620.256	10045.8
1624.78	10087.8
1629.3	10080.8
1633.816	10103.8
1638.327	10182.8
1642.834	10214.8
1647.336	10273.8
1651.834	10286.8
1656.328	10264.8
1660.817	10239.8
1665.302	10112.8
1669.783	9975.8
1674.259	9711.8
1678.732	9428.8
1683.199	9117.8
1687.663	8825.8
1692.122	8552.8
1696.577	8391.8
1701.028	8330.8
1705.474	8413.8
1709.917	8456.8
1714.355	8518.8
1718.788	8447.8
1723.218	8297.8
1727.643	8158.8
1732.064	7945.8
1736.481	7768.8
1740.893	7571.8
1745.301	7374.8
1749.705	7189.8
1754.105	6941.8
1758.501	6728.8
1762.893	6586.8
1767.28	6424.8
1771.663	6323.8
1776.042	6202.8
1780.417	6123.8
1784.787	6107.8
1789.154	6206.8
1793.516	6314.8
1797.874	6378.8
1802.228	6527.8
1806.578	6570.8
1810.924	6580.8
1815.266	6524.8
1819.603	6403.8
1823.937	6346.8
1828.266	6228.8
1832.591	6129.8
1836.913	6027.8
1841.23	5958.8
1845.543	5934.8
1849.852	5906.8
1854.156	5930.8
1858.457	5875.8
1862.754	5878.8
1867.047	5870.8
1871.335	5860.8
1875.62	5841.8
1879.9	5828.8
1884.177	5814.8
1888.449	5750.8
1892.718	5660.8
1896.982	5651.8
1901.243	5602.8
1905.499	5538.8
1909.752	5536.8
1914	5541.8
1918.245	5566.8
1922.485	5588.8
1926.722	5675.8
1930.954	5689.8
1935.183	5769.8
1939.408	5832.8
1943.628	5863.8
1947.845	5908.8
1952.058	5894.8
1956.267	5812.8
1960.472	5766.8
1964.673	5700.8
1968.87	5593.8
1973.063	5476.8
1977.252	5416.8
1981.438	5356.8
1985.619	5320.8
1989.797	5265.8
1993.971	5223.8
1998.14	5214.8
2002.306	5179.8
2006.469	5202.8
2010.627	5180.8
2014.781	5142.8
2018.932	5129.8
2023.078	5046.8
2027.221	4957.8
2031.36	4916.8
2035.495	4825.8
2039.627	4736.8
2043.754	4695.8
2047.878	4643.8
2051.998	4657.8
2056.114	4607.8
2060.226	4613.8
2064.334	4626.8
2068.439	4633.8
2072.54	4684.8
2076.637	4690.8
2080.73	4719.8
2084.82	4748.8
2088.906	4802.8
2092.988	4754.8
2097.066	4766.8
2101.14	4740.8
2105.211	4718.8
2109.278	4695.8
2113.342	4639.8
2117.401	4600.8
2121.457	4622.8
2125.509	4565.8
2129.558	4568.8
2133.602	4537.8
2137.643	4504.8
2141.681	4463.8
2145.714	4449.8
2149.744	4414.8
2153.77	4387.8
2157.793	4326.8
2161.812	4292.8
2165.827	4247.8
2169.838	4170.8
2173.846	4088.8
2177.851	4025.8
2181.851	3964.8
2185.848	3905.8
2189.841	3868.8
2193.831	3815.8
2197.817	3808.8
2201.799	3763.8
2205.778	3766.8
2209.753	3755.8
2213.725	3739.8
2217.693	3741.8
2221.657	3727.8
2225.618	3724.8
2229.575	3679.8
2233.529	3650.8
2237.479	3604.8
2241.425	3577.8
2245.368	3555.8
2249.307	3486.8
2253.243	3420.8
2257.175	3382.8
2261.104	3326.8
2265.029	3299.8
2268.95	3291.8
2272.868	3218.8
2276.783	3201.8
2280.694	3188.8
2284.601	3121.8
2288.505	3109.8
2292.405	3084.8
2296.302	3044.8
2300.195	2996.8
2304.085	2981.8
2307.971	2910.8
2311.854	2885.8
2315.734	2829.8
2319.609	2793.8
2323.482	2746.8
2327.351	2732.8
2331.216	2718.8
2335.078	2701.8
2338.937	2666.8
2342.792	2652.8
2346.643	2637.8
2350.492	2633.8
2354.336	2663.8
2358.178	2676.8
2362.015	2650.8
2365.85	2664.8
2369.681	2647.8
2373.508	2660.8
2377.333	2665.8
2381.153	2643.8
2384.971	2627.8
2388.785	2611.8
2392.595	2564.8
2396.402	2566.8
2400.206	2529.8
2404.007	2517.8
2407.804	2505.8
2411.597	2475.8
2415.388	2461.8
2419.174	2450.8
2422.958	2422.8
2426.738	2414.8
2430.515	2392.8
2434.289	2374.8
2438.059	2375.8
2441.825	2322.8
2445.589	2295.8
2449.349	2277.8
2453.106	2255.8
2456.859	2244.8
2460.61	2212.8
2464.356	2185.8
2468.1	2161.8
2471.84	2164.8
2475.577	2109.8
2479.311	2097.8
2483.041	2116.8
2486.768	2101.8
2490.492	2084.8
2494.213	2068.8
2497.93	2056.8
2501.644	2050.8
2505.355	2062.8
2509.062	2049.8
2512.766	2019.8
2516.467	2013.8
2520.165	2003.8
2523.859	1992.8
2527.551	1976.8
2531.239	1958.8
2534.923	1962.8
2538.605	1945.8
2542.283	1931.8
2545.958	1938.8
2549.63	1954.8
2553.299	1948.8
2556.964	1914.8
2560.626	1926.8
2564.285	1921.8
2567.941	1899.8
2571.594	1882.8
2575.243	1868.8
2578.89	1858.8
2582.533	1867.8
2586.173	1855.8
2589.809	1801.8
2593.443	1805.8
2597.073	1788.8
2600.701	1766.8
2604.325	1760.8
2607.946	1746.8
2611.564	1721.8
2615.178	1741.8
2618.79	1698.8
2622.398	1719.8
2626.004	1682.8
2629.606	1652.8
2633.205	1639.8
2636.801	1619.8
2640.394	1611.8
2643.983	1558.8
2647.57	1538.8
2651.153	1539.8
2654.734	1496.8
2658.311	1481.8
2661.885	1439.8
2665.456	1401.8
2669.025	1419.8
2672.589	1399.8
2676.151	1379.8
2679.71	1376.8
2683.266	1356.8
2686.819	1305.8
2690.368	1291.8
2693.915	1261.8
2697.458	1228.8
2700.999	1205.8
2704.536	1190.8
2708.071	1160.8
2711.602	1136.8
2715.13	1105.8
2718.656	1093.8
2722.178	1093.8
2725.697	1062.8
2729.214	1055.8
2732.727	1045.8
2736.237	1041.8
2739.744	1029.8
2743.249	1057.8
2746.75	1059.8
2750.248	1072.8
2753.743	1067.8
2757.236	1088.8
2760.725	1101.8
2764.211	1109.8
2767.695	1116.8
2771.175	1090.8
2774.652	1100.8
2778.127	1109.8
2781.598	1085.8
2785.067	1083.8
2788.532	1076.8
2791.995	1066.8
2795.455	1065.8
2798.911	1079.8
2802.365	1091.8
2805.816	1097.8
2809.264	1081.8
2812.709	1073.8
2816.151	1067.8
2819.59	1079.8
2823.026	1091.8
2826.46	1079.8
2829.89	1081.8
2833.318	1092.8
2836.742	1100.8
2840.164	1117.8
2843.583	1119.8
2846.999	1132.8
2850.412	1136.8
2853.822	1132.8
2857.229	1143.8
2860.634	1172.8
2864.035	1190.8
2867.434	1244.8
2870.83	1250.8
2874.223	1274.8
2877.613	1296.8
2881	1322.8
2884.385	1329.8
2887.766	1305.8
2891.145	1321.8
2894.521	1318.8
2897.894	1317.8
2901.264	1321.8
2904.631	1331.8
2907.996	1335.8
2911.358	1356.8
2914.717	1343.8
2918.073	1365.8
2921.426	1386.8
2924.777	1393.8
2928.124	1419.8
2931.469	1443.8
2934.811	1474.8
2938.15	1497.8
2941.487	1494.8
2944.821	1512.8
2948.152	1511.8
2951.48	1494.8
2954.805	1494.8
2958.128	1479.8
2961.447	1482.8
2964.765	1461.8
2968.079	1474.8
2971.39	1482.8
2974.699	1522.8
2978.005	1531.8
2981.308	1564.8
2984.609	1589.8
2987.907	1617.8
2991.202	1651.8
2994.494	1686.8
2997.784	1717.8
3001.07	1765.8
3004.355	1776.8
3007.636	1805.8
3010.915	1823.8
3014.191	1841.8
3017.464	1837.8
3020.734	1855.8
3024.002	1863.8
3027.267	1897.8
3030.53	1898.8
3033.789	1936.8
3037.046	1948.8
3040.301	1981.8
3043.552	2015.8
3046.801	2085.8
3050.048	2121.8
3053.291	2154.8
3056.532	2209.8
3059.771	2277.8
3063.006	2353.8
3066.239	2421.8
3069.469	2492.8
3072.697	2549.8
3075.922	2619.8
3079.144	2673.8
3082.364	2739.8
3085.581	2832.8
3088.795	2857.8
3092.007	2962.8
3095.216	2974.8
3098.423	3064.8
3101.627	3141.8
3104.828	3214.8
3108.026	3253.8
3111.222	3356.8
3114.416	3406.8
3117.607	3477.8
3120.795	3571.8
3123.98	3644.8
3127.163	3764.8
3130.344	3822.8
3133.521	3923.8
3136.696	4009.8
3139.869	4080.8
3143.039	4128.8
3146.206	4228.8
3149.371	4278.8
3152.533	4314.8
3155.693	4322.8
3158.85	4363.8
3162.005	4385.8
3165.157	4400.8
3168.306	4423.8
3171.453	4439.8
3174.597	4448.8
3177.739	4448.8
3180.878	4465.8
3184.014	4468.8
3187.149	4455.8
3190.28	4489.8
3193.409	4471.8
3196.536	4481.8
3199.659	4515.8
3202.781	4499.8
3205.9	4512.8
3209.016	4498.8
3212.13	4489.8
3215.241	4449.8
3218.35	4423.8
3221.456	4379.8
3224.56	4325.8
3227.661	4270.8
3230.76	4212.8
3233.856	4216.8
3236.95	4157.8
3240.041	4103.8
3243.13	4119.8
3246.216	4071.8
3249.3	4072.8
3252.382	4045.8
3255.46	4038.8
3258.537	4001.8
3261.611	4017.8
3264.682	4015.8
3267.751	4034.8
3270.818	3997.8
3273.882	3986.8
3276.943	3955.8
3280.002	3927.8
3283.059	3886.8
3286.113	3842.8
3289.165	3804.8
3292.214	3752.8
3295.261	3694.8
3298.306	3646.8
3301.348	3582.8
3304.387	3519.8
3307.425	3448.8
3310.459	3397.8
3313.492	3344.8
3316.521	3308.8
3319.549	3286.8
3322.574	3241.8
3325.597	3212.8
3328.617	3183.8
3331.635	3175.8
3334.65	3160.8
3337.663	3150.8
3340.674	3118.8
3343.682	3099.8
3346.688	3102.8
3349.691	3085.8
3352.692	3085.8
3355.691	3018.8
3358.687	3029.8
3361.681	2975.8
3364.673	2945.8
3367.662	2889.8
3370.649	2853.8
3373.633	2836.8
3376.615	2764.8
3379.595	2722.8
3382.572	2716.8
3385.547	2687.8
3388.52	2633.8
3391.49	2586.8
3394.458	2555.8
3397.424	2530.8
3400.387	2480.8
3403.348	2464.8
3406.307	2428.8
3409.263	2406.8
3412.217	2373.8
3415.168	2352.8
3418.118	2340.8
3421.065	2295.8
3424.009	2271.8
3426.951	2230.8
3429.891	2201.8
3432.829	2151.8
3435.764	2092.8
3438.697	2047.8
3441.628	1988.8
3444.557	1947.8
3447.483	1889.8
3450.407	1817.8
3453.328	1772.8
3456.247	1715.8
3459.164	1651.8
3462.079	1599.8
3464.991	1536.8
3467.902	1480.8
3470.809	1429.8
3473.715	1383.8
3476.618	1345.8
3479.519	1289.8
3482.418	1265.8
3485.315	1211.8
3488.209	1166.8
3491.101	1129.8
3493.99	1097.8
3496.878	1051.8
3499.763	1020.8
3502.646	987.8
3505.527	931.8
3508.405	901.8
3511.281	850.8
3514.155	797.8
3517.027	759.8
3519.897	730.8
3522.764	674.8
3525.629	637.8
3528.492	584.8
3531.352	539.8
3534.211	486.8
3537.067	455.8
3539.921	405.8
3542.773	390.8
3545.622	333.8
3548.469	310.8
3551.315	282.8
3554.157	241.8
3556.998	213.8
3559.837	186.8
3562.673	172.8
3565.507	133.8
3568.339	103.8
3571.169	90.8
3573.996	67.8
3576.822	51.8
3579.645	30.8
3582.466	-5.2
3585.285	-12.2
3588.101	-42.2
3590.916	-68.2
3593.728	-96.2
3596.538	-116.2
3599.346	-126.2
3602.152	-154.2
3604.956	-169.2
3607.757	-190.2
3610.556	-207.2
3613.354	-208.2
3616.149	-233.2
3618.942	-251.2
3621.732	-252.2
3624.521	-279.2
3627.307	-288.2
3630.092	-285.2
3632.874	-307.2
3635.654	-317.2
3638.432	-316.2
3641.208	-328.2
3643.982	-344.2
3646.753	-351.2
3649.523	-368.2
3652.29	-373.2
3655.055	-382.2
3657.818	-399.2
3660.579	-411.2
3663.338	-417.2
3666.095	-430.2
3668.849	-441.2
3671.602	-446.2
3674.352	-461.2
3677.101	-463.2
3679.847	-477.2
3682.591	-489.2
3685.333	-493.2
3688.073	-491.2
3690.811	-504.2
3693.547	-512.2
3696.281	-514.2
3699.013	-519.2
3701.742	-528.2
3704.47	-522.2
3707.195	-532.2
3709.919	-543.2
3712.64	-545.2
3715.359	-542.2
3718.076	-546.2
3720.792	-555.2
3723.505	-551.2
3726.216	-565.2
3728.925	-554.2
3731.632	-572.2
3734.336	-569.2
3737.039	-574.2
3739.74	-573.2
3742.439	-576.2
3745.136	-580.2
3747.83	-589.2
3750.523	-586.2
3753.213	-581.2
3755.902	-589.2
3758.589	-585.2
3761.273	-591.2
3763.956	-599.2
3766.636	-597.2
3769.315	-599.2
3771.991	-602.2
3774.665	-608.2
3777.338	-602.2
3780.008	-604.2
3782.677	-614.2
3785.343	-610.2
3788.007	-607.2
3790.67	-608.2
3793.33	-609.2
3795.989	-616.2
3798.645	-614.2
3801.299	-613.2
3803.952	-621.2
3806.602	-628.2
3809.251	-631.2
3811.897	-621.2
3814.542	-625.2
3817.184	-622.2
3819.825	-624.2
3822.463	-622.2
3825.1	-628.2
3827.735	-624.2
3830.367	-627.2
3832.998	-631.2
3835.627	-634.2
3838.253	-638.2
3840.878	-636.2
3843.501	-630.2
3846.122	-630.2
3848.741	-631.2
3851.358	-631.2
3853.973	-637.2
3856.586	-634.2
3859.197	-638.2
3861.806	-637.2
3864.414	-640.2
3867.019	-633.2
3869.622	-640.2
3872.224	-636.2
3874.823	-618.2
3877.421	-597.2
3880.016	-580.2
3882.61	-552.2
3885.202	-545.2
3887.792	-567.2
3890.38	-606.2
3892.966	-623.2
3895.55	-631.2
3898.132	-652.2
3900.713	-650.2
3903.291	-646.2
3905.868	-645.2
3908.442	-649.2
3911.015	-654.2
3913.586	-646.2
3916.155	-646.2
3918.722	-651.2
3921.287	-647.2
3923.85	-653.2
3926.411	-657.2
3928.971	-660.2
3931.528	-657.2
3934.084	-652.2
3936.638	-653.2
3939.19	-654.2
3941.74	-654.2
3944.288	-654.2
3946.834	-646.2
3949.378	-654.2
3951.921	-653.2
3954.462	-655.2
3957	-646.2
3959.537	-653.2
3962.072	-648.2
3964.606	-649.2
3967.137	-651.2
3969.667	-654.2
3972.194	-642.2
3974.72	-646.2
3977.244	-641.2
3979.766	-641.2
3982.286	-646.2
3984.805	-642.2
3987.321	-637.2
3989.836	-646.2
3992.349	-636.2
3994.86	-638.2
3997.369	-649.2
3999.877	-633.2
4002.382	-638.2
4004.886	-637.2
4007.388	-635.2
4009.888	-637.2
4012.386	-640.2
4014.883	-632.2
4017.377	-635.2
4019.87	-635.2
4022.361	-634.2
4024.85	-632.2
4027.338	-640.2
4029.823	-638.2
4032.307	-648.2
4034.789	-638.2
4037.269	-643.2
4039.747	-639.2
4042.224	-648.2
4044.699	-642.2
4047.172	-641.2
4049.643	-640.2
4052.112	-642.2
4054.58	-642.2
4057.046	-643.2
4059.51	-645.2
4061.972	-647.2
4064.432	-652.2
4066.891	-641.2
4069.348	-642.2
4071.803	-635.2
4074.256	-643.2
4076.708	-638.2
4079.158	-643.2
4081.606	-641.2
4084.052	-646.2
4086.497	-642.2
4088.939	-637.2
4091.38	-638.2
4093.819	-638.2
4096.257	-676.2
4098.693	-677.2
4101.127	-677.2
4103.559	-671.2
4105.989	-386.2
4108.418	-358.2
4110.845	-344.2
4113.27	-317.2
4115.694	-273.2
4118.115	-233.2
4120.535	-637.2
4122.954	-643.2
4125.37	-631.2
4127.785	-643.2
4130.198	-643.2
4132.609	-647.2
4135.019	-680.2
4137.427	-681.2
4139.833	-681.2
4142.237	-672.2
