Data from 2018-2-14_conc=3_n=4_RamanShift_03.txt Node
Date: Wed Feb 14 11:52:56 IST 2018
User: aro
Spectrometer: QEPB0276
Trigger mode: 0
Integration Time (sec): 3.000000E1
Scans to average: 1
Electric dark correction enabled: true
Nonlinearity correction enabled: false
Boxcar width: 0
XAxis mode: Raman Shifts
Number of Pixels in Spectrum: 1044
>>>>>Begin Spectral Data<<<<<
160.701	-144
166.742	55
172.777	621
178.805	2350
184.826	6503
190.841	13671
196.849	22070
202.85	28119
208.845	30096
214.833	29918
220.815	29450
226.789	29274
232.758	29296
238.719	29112
244.674	28731
250.623	28304
256.565	27833
262.5	27312
268.429	26841
274.351	26548
280.267	26143
286.176	25969
292.079	25723
297.975	25534
303.865	25346
309.748	25199
315.625	25074
321.495	25013
327.359	24943
333.217	24883
339.068	24856
344.912	24837
350.751	24802
356.583	24783
362.408	24727
368.227	24751
374.04	24802
379.847	24837
385.647	24952
391.44	25102
397.228	25163
403.009	25255
408.784	25323
414.553	25427
420.315	25564
426.071	25512
431.821	25487
437.565	25503
443.302	25528
449.033	25442
454.758	25367
460.477	25284
466.189	25303
471.896	25244
477.596	25198
483.29	25114
488.978	25109
494.66	25044
500.335	24877
506.005	24712
511.668	24442
517.325	24208
522.977	24033
528.622	23839
534.261	23686
539.894	23661
545.521	23543
551.141	23417
556.756	23407
562.365	23370
567.968	23242
573.565	23168
579.155	23094
584.74	22947
590.319	22930
595.892	22850
601.459	22717
607.02	22650
612.575	22542
618.124	22409
623.667	22275
629.204	22231
634.735	22132
640.261	22027
645.781	21890
651.294	21892
656.802	21972
662.304	21902
667.8	21833
673.29	21797
678.775	21751
684.254	21705
689.726	21663
695.193	21566
700.655	21543
706.11	21457
711.56	21298
717.004	21237
722.442	21144
727.874	20986
733.301	20971
738.722	20905
744.137	20937
749.547	20912
754.951	20875
760.349	20927
765.741	20868
771.128	20905
776.509	20859
781.885	20925
787.254	20927
792.618	20791
797.977	20663
803.33	20480
808.677	20443
814.019	20332
819.355	20248
824.686	20146
830.011	20162
835.33	20086
840.644	20132
845.952	20157
851.255	20247
856.552	20263
861.844	20243
867.13	20177
872.41	20130
877.686	20080
882.955	19885
888.219	19707
893.478	19504
898.731	19293
903.979	19146
909.221	18999
914.458	18877
919.69	18962
924.916	19047
930.136	19034
935.351	19104
940.561	19029
945.766	19046
950.965	18936
956.158	18842
961.347	18646
966.529	18436
971.707	18192
976.879	18059
982.046	17867
987.208	17837
992.364	17799
997.515	17926
1002.66	18137
1007.801	18186
1012.936	18388
1018.066	18391
1023.19	18424
1028.309	18424
1033.423	18409
1038.532	18300
1043.636	18184
1048.734	17946
1053.827	17736
1058.915	17554
1063.998	17485
1069.075	17427
1074.147	17327
1079.214	17481
1084.276	17571
1089.333	17716
1094.385	17800
1099.431	17832
1104.472	17846
1109.509	17737
1114.54	17601
1119.565	17309
1124.586	17077
1129.602	16931
1134.613	16841
1139.618	16717
1144.619	16674
1149.614	16759
1154.604	16702
1159.589	16805
1164.57	16834
1169.545	16885
1174.515	16883
1179.48	16812
1184.44	16687
1189.395	16589
1194.345	16399
1199.29	16322
1204.23	16337
1209.165	16423
1214.095	16570
1219.021	16637
1223.941	16698
1228.856	16817
1233.766	16824
1238.672	16896
1243.572	16784
1248.467	16755
1253.358	16529
1258.244	16362
1263.124	16057
1268	15877
1272.871	15733
1277.737	15542
1282.599	15490
1287.455	15554
1292.306	15498
1297.153	15592
1301.995	15677
1306.832	15719
1311.664	15753
1316.491	15739
1321.314	15621
1326.132	15382
1330.945	15111
1335.753	14738
1340.556	14316
1345.354	13928
1350.148	13690
1354.937	13600
1359.722	13517
1364.501	13534
1369.276	13595
1374.046	13741
1378.811	14037
1383.572	14136
1388.327	14148
1393.079	14179
1397.825	14045
1402.567	13843
1407.304	13727
1412.036	13600
1416.764	13552
1421.487	13483
1426.205	13443
1430.919	13424
1435.628	13371
1440.333	13468
1445.032	13440
1449.727	13541
1454.418	13524
1459.104	13254
1463.785	13024
1468.462	12795
1473.134	12515
1477.802	12195
1482.465	11932
1487.123	11790
1491.777	11726
1496.426	11650
1501.071	11808
1505.711	11876
1510.347	12078
1514.978	12261
1519.604	12421
1524.226	12490
1528.844	12515
1533.457	12521
1538.065	12510
1542.669	12487
1547.269	12372
1551.864	12333
1556.454	12332
1561.041	12395
1565.622	12338
1570.199	12396
1574.772	12468
1579.34	12589
1583.904	12640
1588.464	12762
1593.019	12676
1597.569	12627
1602.115	12592
1606.657	12460
1611.195	12401
1615.728	12274
1620.256	12205
1624.78	12210
1629.3	12154
1633.816	12128
1638.327	12287
1642.834	12323
1647.336	12318
1651.834	12334
1656.328	12321
1660.817	12237
1665.302	12100
1669.783	11876
1674.259	11604
1678.732	11221
1683.199	10901
1687.663	10463
1692.122	10054
1696.577	9824
1701.028	9717
1705.474	9776
1709.917	9872
1714.355	9925
1718.788	9897
1723.218	9793
1727.643	9635
1732.064	9515
1736.481	9357
1740.893	9155
1745.301	8936
1749.705	8692
1754.105	8521
1758.501	8265
1762.893	8056
1767.28	7870
1771.663	7655
1776.042	7497
1780.417	7445
1784.787	7349
1789.154	7386
1793.516	7445
1797.874	7552
1802.228	7671
1806.578	7775
1810.924	7790
1815.266	7765
1819.603	7679
1823.937	7583
1828.266	7542
1832.591	7430
1836.913	7341
1841.23	7338
1845.543	7259
1849.852	7256
1854.156	7243
1858.457	7201
1862.754	7206
1867.047	7190
1871.335	7150
1875.62	7133
1879.9	7090
1884.177	7030
1888.449	6914
1892.718	6821
1896.982	6743
1901.243	6653
1905.499	6569
1909.752	6483
1914	6486
1918.245	6443
1922.485	6394
1926.722	6491
1930.954	6517
1935.183	6597
1939.408	6600
1943.628	6645
1947.845	6662
1952.058	6636
1956.267	6641
1960.472	6541
1964.673	6484
1968.87	6414
1973.063	6388
1977.252	6300
1981.438	6242
1985.619	6228
1989.797	6219
1993.971	6198
1998.14	6182
2002.306	6153
2006.469	6146
2010.627	6143
2014.781	6115
2018.932	6070
2023.078	6045
2027.221	5933
2031.36	5841
2035.495	5720
2039.627	5672
2043.754	5613
2047.878	5512
2051.998	5457
2056.114	5414
2060.226	5403
2064.334	5400
2068.439	5399
2072.54	5401
2076.637	5422
2080.73	5436
2084.82	5447
2088.906	5426
2092.988	5417
2097.066	5408
2101.14	5347
2105.211	5331
2109.278	5328
2113.342	5275
2117.401	5253
2121.457	5240
2125.509	5262
2129.558	5208
2133.602	5193
2137.643	5157
2141.681	5193
2145.714	5161
2149.744	5142
2153.77	5098
2157.793	5086
2161.812	5008
2165.827	4949
2169.838	4903
2173.846	4829
2177.851	4780
2181.851	4711
2185.848	4632
2189.841	4611
2193.831	4539
2197.817	4549
2201.799	4511
2205.778	4497
2209.753	4503
2213.725	4474
2217.693	4456
2221.657	4465
2225.618	4464
2229.575	4384
2233.529	4401
2237.479	4358
2241.425	4309
2245.368	4252
2249.307	4193
2253.243	4126
2257.175	4077
2261.104	4025
2265.029	3998
2268.95	3981
2272.868	3926
2276.783	3905
2280.694	3890
2284.601	3849
2288.505	3822
2292.405	3763
2296.302	3745
2300.195	3707
2304.085	3683
2307.971	3607
2311.854	3582
2315.734	3553
2319.609	3525
2323.482	3456
2327.351	3440
2331.216	3441
2335.078	3424
2338.937	3392
2342.792	3405
2346.643	3386
2350.492	3440
2354.336	3411
2358.178	3433
2362.015	3433
2365.85	3473
2369.681	3462
2373.508	3465
2377.333	3488
2381.153	3468
2384.971	3446
2388.785	3433
2392.595	3427
2396.402	3389
2400.206	3342
2404.007	3320
2407.804	3328
2411.597	3286
2415.388	3301
2419.174	3244
2422.958	3269
2426.738	3209
2430.515	3205
2434.289	3175
2438.059	3161
2441.825	3125
2445.589	3088
2449.349	3042
2453.106	3045
2456.859	2991
2460.61	2966
2464.356	2922
2468.1	2889
2471.84	2860
2475.577	2818
2479.311	2795
2483.041	2786
2486.768	2778
2490.492	2778
2494.213	2742
2497.93	2741
2501.644	2701
2505.355	2712
2509.062	2672
2512.766	2661
2516.467	2625
2520.165	2614
2523.859	2582
2527.551	2552
2531.239	2543
2534.923	2508
2538.605	2492
2542.283	2492
2545.958	2460
2549.63	2495
2553.299	2438
2556.964	2469
2560.626	2419
2564.285	2391
2567.941	2400
2571.594	2389
2575.243	2355
2578.89	2342
2582.533	2341
2586.173	2298
2589.809	2287
2593.443	2281
2597.073	2249
2600.701	2257
2604.325	2236
2607.946	2220
2611.564	2192
2615.178	2197
2618.79	2207
2622.398	2190
2626.004	2159
2629.606	2137
2633.205	2121
2636.801	2125
2640.394	2083
2643.983	2037
2647.57	2020
2651.153	2017
2654.734	1981
2658.311	1959
2661.885	1933
2665.456	1900
2669.025	1895
2672.589	1840
2676.151	1858
2679.71	1814
2683.266	1812
2686.819	1759
2690.368	1730
2693.915	1714
2697.458	1673
2700.999	1651
2704.536	1601
2708.071	1570
2711.602	1548
2715.13	1494
2718.656	1441
2722.178	1423
2725.697	1412
2729.214	1393
2732.727	1353
2736.237	1354
2739.744	1354
2743.249	1324
2746.75	1313
2750.248	1320
2753.743	1329
2757.236	1327
2760.725	1309
2764.211	1337
2767.695	1324
2771.175	1310
2774.652	1321
2778.127	1302
2781.598	1321
2785.067	1288
2788.532	1309
2791.995	1302
2795.455	1303
2798.911	1301
2802.365	1322
2805.816	1319
2809.264	1320
2812.709	1312
2816.151	1300
2819.59	1315
2823.026	1321
2826.46	1300
2829.89	1292
2833.318	1307
2836.742	1294
2840.164	1309
2843.583	1306
2846.999	1336
2850.412	1345
2853.822	1351
2857.229	1363
2860.634	1379
2864.035	1416
2867.434	1410
2870.83	1445
2874.223	1469
2877.613	1487
2881	1492
2884.385	1511
2887.766	1505
2891.145	1492
2894.521	1490
2897.894	1478
2901.264	1489
2904.631	1504
2907.996	1501
2911.358	1509
2914.717	1501
2918.073	1544
2921.426	1518
2924.777	1530
2928.124	1561
2931.469	1581
2934.811	1602
2938.15	1609
2941.487	1626
2944.821	1620
2948.152	1634
2951.48	1607
2954.805	1581
2958.128	1597
2961.447	1563
2964.765	1560
2968.079	1544
2971.39	1562
2974.699	1572
2978.005	1577
2981.308	1613
2984.609	1639
2987.907	1667
2991.202	1676
2994.494	1694
2997.784	1753
3001.07	1770
3004.355	1784
3007.636	1822
3010.915	1838
3014.191	1840
3017.464	1842
3020.734	1875
3024.002	1873
3027.267	1904
3030.53	1910
3033.789	1935
3037.046	1962
3040.301	1975
3043.552	2013
3046.801	2055
3050.048	2107
3053.291	2150
3056.532	2215
3059.771	2257
3063.006	2327
3066.239	2387
3069.469	2432
3072.697	2494
3075.922	2574
3079.144	2618
3082.364	2681
3085.581	2753
3088.795	2787
3092.007	2830
3095.216	2881
3098.423	2966
3101.627	3012
3104.828	3073
3108.026	3151
3111.222	3221
3114.416	3272
3117.607	3338
3120.795	3413
3123.98	3499
3127.163	3586
3130.344	3684
3133.521	3763
3136.696	3822
3139.869	3887
3143.039	3946
3146.206	3996
3149.371	4036
3152.533	4127
3155.693	4136
3158.85	4142
3162.005	4160
3165.157	4174
3168.306	4190
3171.453	4199
3174.597	4199
3177.739	4237
3180.878	4216
3184.014	4213
3187.149	4208
3190.28	4216
3193.409	4211
3196.536	4241
3199.659	4252
3202.781	4246
3205.9	4229
3209.016	4238
3212.13	4220
3215.241	4208
3218.35	4168
3221.456	4113
3224.56	4081
3227.661	4045
3230.76	3957
3233.856	3921
3236.95	3911
3240.041	3874
3243.13	3814
3246.216	3810
3249.3	3808
3252.382	3777
3255.46	3742
3258.537	3750
3261.611	3746
3264.682	3735
3267.751	3736
3270.818	3724
3273.882	3710
3276.943	3712
3280.002	3658
3283.059	3626
3286.113	3571
3289.165	3547
3292.214	3471
3295.261	3429
3298.306	3386
3301.348	3326
3304.387	3272
3307.425	3213
3310.459	3191
3313.492	3093
3316.521	3087
3319.549	3043
3322.574	3004
3325.597	3006
3328.617	2972
3331.635	2949
3334.65	2909
3337.663	2888
3340.674	2891
3343.682	2873
3346.688	2899
3349.691	2860
3352.692	2844
3355.691	2813
3358.687	2792
3361.681	2756
3364.673	2700
3367.662	2666
3370.649	2647
3373.633	2596
3376.615	2560
3379.595	2500
3382.572	2483
3385.547	2433
3388.52	2414
3391.49	2383
3394.458	2325
3397.424	2297
3400.387	2263
3403.348	2255
3406.307	2205
3409.263	2212
3412.217	2167
3415.168	2149
3418.118	2101
3421.065	2076
3424.009	2037
3426.951	2034
3429.891	1998
3432.829	1965
3435.764	1921
3438.697	1838
3441.628	1808
3444.557	1747
3447.483	1674
3450.407	1640
3453.328	1594
3456.247	1539
3459.164	1482
3462.079	1425
3464.991	1375
3467.902	1317
3470.809	1272
3473.715	1207
3476.618	1172
3479.519	1113
3482.418	1097
3485.315	1049
3488.209	1014
3491.101	980
3493.99	942
3496.878	915
3499.763	874
3502.646	852
3505.527	791
3508.405	751
3511.281	718
3514.155	671
3517.027	622
3519.897	584
3522.764	540
3525.629	495
3528.492	450
3531.352	422
3534.211	383
3537.067	348
3539.921	319
3542.773	268
3545.622	232
3548.469	203
3551.315	186
3554.157	150
3556.998	105
3559.837	90
3562.673	63
3565.507	40
3568.339	17
3571.169	3
3573.996	-24
3576.822	-43
3579.645	-67
3582.466	-98
3585.285	-107
3588.101	-133
3590.916	-146
3593.728	-168
3596.538	-180
3599.346	-208
3602.152	-221
3604.956	-235
3607.757	-252
3610.556	-267
3613.354	-288
3616.149	-303
3618.942	-308
3621.732	-320
3624.521	-348
3627.307	-350
3630.092	-362
3632.874	-376
3635.654	-386
3638.432	-386
3641.208	-398
3643.982	-410
3646.753	-408
3649.523	-430
3652.29	-430
3655.055	-436
3657.818	-449
3660.579	-461
3663.338	-473
3666.095	-480
3668.849	-490
3671.602	-505
3674.352	-513
3677.101	-518
3679.847	-525
3682.591	-536
3685.333	-536
3688.073	-545
3690.811	-551
3693.547	-551
3696.281	-557
3699.013	-563
3701.742	-566
3704.47	-570
3707.195	-575
3709.919	-578
3712.64	-577
3715.359	-579
3718.076	-599
3720.792	-592
3723.505	-597
3726.216	-604
3728.925	-599
3731.632	-608
3734.336	-607
3737.039	-617
3739.74	-614
3742.439	-614
3745.136	-622
3747.83	-628
3750.523	-620
3753.213	-610
3755.902	-630
3758.589	-634
3761.273	-630
3763.956	-632
3766.636	-637
3769.315	-640
3771.991	-637
3774.665	-647
3777.338	-641
3780.008	-649
3782.677	-650
3785.343	-649
3788.007	-652
3790.67	-651
3793.33	-655
3795.989	-656
3798.645	-654
3801.299	-650
3803.952	-664
3806.602	-666
3809.251	-665
3811.897	-660
3814.542	-661
3817.184	-657
3819.825	-659
3822.463	-657
3825.1	-667
3827.735	-664
3830.367	-661
3832.998	-673
3835.627	-676
3838.253	-672
3840.878	-672
3843.501	-674
3846.122	-666
3848.741	-672
3851.358	-670
3853.973	-673
3856.586	-677
3859.197	-679
3861.806	-681
3864.414	-675
3867.019	-667
3869.622	-667
3872.224	-671
3874.823	-652
3877.421	-638
3880.016	-625
3882.61	-604
3885.202	-599
3887.792	-618
3890.38	-648
3892.966	-665
3895.55	-679
3898.132	-693
3900.713	-688
3903.291	-682
3905.868	-686
3908.442	-687
3911.015	-691
3913.586	-686
3916.155	-688
3918.722	-690
3921.287	-691
3923.85	-698
3926.411	-691
3928.971	-700
3931.528	-694
3934.084	-694
3936.638	-694
3939.19	-698
3941.74	-687
3944.288	-697
3946.834	-689
3949.378	-694
3951.921	-695
3954.462	-703
3957	-691
3959.537	-694
3962.072	-691
3964.606	-691
3967.137	-688
3969.667	-698
3972.194	-684
3974.72	-684
3977.244	-681
3979.766	-677
3982.286	-686
3984.805	-680
3987.321	-681
3989.836	-682
3992.349	-681
3994.86	-681
3997.369	-683
3999.877	-676
4002.382	-680
4004.886	-675
4007.388	-676
4009.888	-674
4012.386	-684
4014.883	-677
4017.377	-680
4019.87	-675
4022.361	-675
4024.85	-677
4027.338	-682
4029.823	-679
4032.307	-680
4034.789	-679
4037.269	-675
4039.747	-681
4042.224	-686
4044.699	-686
4047.172	-682
4049.643	-679
4052.112	-689
4054.58	-686
4057.046	-688
4059.51	-686
4061.972	-683
4064.432	-686
4066.891	-683
4069.348	-676
4071.803	-682
4074.256	-678
4076.708	-679
4079.158	-683
4081.606	-679
4084.052	-683
4086.497	-680
4088.939	-675
4091.38	-679
4093.819	-674
4096.257	-719
4098.693	-718
4101.127	-719
4103.559	-717
4105.989	-415
4108.418	-392
4110.845	-366
4113.27	-330
4115.694	-290
4118.115	-230
4120.535	-678
4122.954	-678
4125.37	-673
4127.785	-682
4130.198	-684
4132.609	-684
4135.019	-721
4137.427	-724
4139.833	-721
4142.237	-716
