Data from 2018-2-14_conc=6_n=6_RamanShift_01.txt Node
Date: Wed Feb 14 15:01:55 IST 2018
User: aro
Spectrometer: QEPB0276
Trigger mode: 0
Integration Time (sec): 3.000000E1
Scans to average: 1
Electric dark correction enabled: true
Nonlinearity correction enabled: false
Boxcar width: 0
XAxis mode: Raman Shifts
Number of Pixels in Spectrum: 1044
>>>>>Begin Spectral Data<<<<<
160.701	-147.9
166.742	51.1
172.777	581.1
178.805	2191.1
184.826	6132.1
190.841	12874.1
196.849	20718.1
202.85	26284.1
208.845	28125.1
214.833	27788.1
220.815	27287.1
226.789	27008.1
232.758	26768.1
238.719	26610.1
244.674	26193.1
250.623	25709.1
256.565	25176.1
262.5	24542.1
268.429	24038.1
274.351	23677.1
280.267	23305.1
286.176	23002.1
292.079	22722.1
297.975	22474.1
303.865	22248.1
309.748	22166.1
315.625	21959.1
321.495	21829.1
327.359	21643.1
333.217	21671.1
339.068	21658.1
344.912	21655.1
350.751	21611.1
356.583	21606.1
362.408	21550.1
368.227	21537.1
374.04	21578.1
379.847	21606.1
385.647	21659.1
391.44	21743.1
397.228	21868.1
403.009	21960.1
408.784	22000.1
414.553	22075.1
420.315	22110.1
426.071	22098.1
431.821	22106.1
437.565	22143.1
443.302	22076.1
449.033	21984.1
454.758	21978.1
460.477	21869.1
466.189	21920.1
471.896	21750.1
477.596	21743.1
483.29	21712.1
488.978	21664.1
494.66	21564.1
500.335	21439.1
506.005	21195.1
511.668	20904.1
517.325	20780.1
522.977	20464.1
528.622	20398.1
534.261	20240.1
539.894	20139.1
545.521	20003.1
551.141	19949.1
556.756	19863.1
562.365	19835.1
567.968	19783.1
573.565	19608.1
579.155	19564.1
584.74	19504.1
590.319	19410.1
595.892	19289.1
601.459	19232.1
607.02	19170.1
612.575	19052.1
618.124	18941.1
623.667	18822.1
629.204	18723.1
634.735	18621.1
640.261	18531.1
645.781	18503.1
651.294	18448.1
656.802	18415.1
662.304	18375.1
667.8	18299.1
673.29	18297.1
678.775	18281.1
684.254	18281.1
689.726	18126.1
695.193	18101.1
700.655	17949.1
706.11	17893.1
711.56	17835.1
717.004	17692.1
722.442	17653.1
727.874	17548.1
733.301	17494.1
738.722	17469.1
744.137	17411.1
749.547	17391.1
754.951	17393.1
760.349	17420.1
765.741	17389.1
771.128	17379.1
776.509	17470.1
781.885	17451.1
787.254	17324.1
792.618	17268.1
797.977	17207.1
803.33	17102.1
808.677	16951.1
814.019	16869.1
819.355	16740.1
824.686	16686.1
830.011	16702.1
835.33	16621.1
840.644	16649.1
845.952	16720.1
851.255	16735.1
856.552	16724.1
861.844	16714.1
867.13	16628.1
872.41	16559.1
877.686	16477.1
882.955	16326.1
888.219	16184.1
893.478	16022.1
898.731	15781.1
903.979	15662.1
909.221	15542.1
914.458	15511.1
919.69	15467.1
924.916	15543.1
930.136	15570.1
935.351	15612.1
940.561	15540.1
945.766	15556.1
950.965	15435.1
956.158	15314.1
961.347	15167.1
966.529	14989.1
971.707	14811.1
976.879	14591.1
982.046	14445.1
987.208	14454.1
992.364	14448.1
997.515	14549.1
1002.66	14674.1
1007.801	14840.1
1012.936	14966.1
1018.066	14953.1
1023.19	14891.1
1028.309	14979.1
1033.423	14867.1
1038.532	14779.1
1043.636	14663.1
1048.734	14478.1
1053.827	14302.1
1058.915	14159.1
1063.998	14075.1
1069.075	14022.1
1074.147	14003.1
1079.214	14077.1
1084.276	14116.1
1089.333	14267.1
1094.385	14300.1
1099.431	14334.1
1104.472	14358.1
1109.509	14289.1
1114.54	14089.1
1119.565	13886.1
1124.586	13721.1
1129.602	13594.1
1134.613	13517.1
1139.618	13464.1
1144.619	13328.1
1149.614	13356.1
1154.604	13407.1
1159.589	13403.1
1164.57	13446.1
1169.545	13511.1
1174.515	13421.1
1179.48	13408.1
1184.44	13320.1
1189.395	13181.1
1194.345	13137.1
1199.29	13065.1
1204.23	13069.1
1209.165	13110.1
1214.095	13137.1
1219.021	13239.1
1223.941	13277.1
1228.856	13359.1
1233.766	13398.1
1238.672	13402.1
1243.572	13384.1
1248.467	13298.1
1253.358	13174.1
1258.244	12966.1
1263.124	12820.1
1268	12565.1
1272.871	12458.1
1277.737	12343.1
1282.599	12230.1
1287.455	12277.1
1292.306	12326.1
1297.153	12319.1
1301.995	12387.1
1306.832	12456.1
1311.664	12440.1
1316.491	12468.1
1321.314	12319.1
1326.132	12124.1
1330.945	11877.1
1335.753	11588.1
1340.556	11319.1
1345.354	11084.1
1350.148	10902.1
1354.937	10809.1
1359.722	10790.1
1364.501	10794.1
1369.276	10888.1
1374.046	11049.1
1378.811	11200.1
1383.572	11344.1
1388.327	11410.1
1393.079	11323.1
1397.825	11207.1
1402.567	11032.1
1407.304	10893.1
1412.036	10790.1
1416.764	10755.1
1421.487	10662.1
1426.205	10583.1
1430.919	10521.1
1435.628	10550.1
1440.333	10589.1
1445.032	10622.1
1449.727	10673.1
1454.418	10610.1
1459.104	10496.1
1463.785	10312.1
1468.462	10137.1
1473.134	9861.1
1477.802	9675.1
1482.465	9507.1
1487.123	9383.1
1491.777	9371.1
1496.426	9415.1
1501.071	9483.1
1505.711	9609.1
1510.347	9784.1
1514.978	9942.1
1519.604	10120.1
1524.226	10200.1
1528.844	10237.1
1533.457	10223.1
1538.065	10176.1
1542.669	10068.1
1547.269	10049.1
1551.864	9965.1
1556.454	9951.1
1561.041	9964.1
1565.622	9909.1
1570.199	9942.1
1574.772	10001.1
1579.34	10102.1
1583.904	10116.1
1588.464	10215.1
1593.019	10239.1
1597.569	10202.1
1602.115	10140.1
1606.657	10111.1
1611.195	9975.1
1615.728	9953.1
1620.256	9922.1
1624.78	9909.1
1629.3	9920.1
1633.816	9986.1
1638.327	10051.1
1642.834	10088.1
1647.336	10130.1
1651.834	10175.1
1656.328	10112.1
1660.817	10020.1
1665.302	9962.1
1669.783	9783.1
1674.259	9515.1
1678.732	9315.1
1683.199	8977.1
1687.663	8655.1
1692.122	8379.1
1696.577	8196.1
1701.028	8167.1
1705.474	8226.1
1709.917	8251.1
1714.355	8306.1
1718.788	8277.1
1723.218	8100.1
1727.643	7999.1
1732.064	7839.1
1736.481	7664.1
1740.893	7478.1
1745.301	7275.1
1749.705	7062.1
1754.105	6846.1
1758.501	6634.1
1762.893	6451.1
1767.28	6355.1
1771.663	6175.1
1776.042	6061.1
1780.417	6001.1
1784.787	6008.1
1789.154	6071.1
1793.516	6171.1
1797.874	6253.1
1802.228	6397.1
1806.578	6448.1
1810.924	6452.1
1815.266	6391.1
1819.603	6304.1
1823.937	6179.1
1828.266	6116.1
1832.591	6006.1
1836.913	5929.1
1841.23	5829.1
1845.543	5809.1
1849.852	5802.1
1854.156	5804.1
1858.457	5766.1
1862.754	5751.1
1867.047	5713.1
1871.335	5744.1
1875.62	5713.1
1879.9	5711.1
1884.177	5681.1
1888.449	5606.1
1892.718	5550.1
1896.982	5495.1
1901.243	5438.1
1905.499	5408.1
1909.752	5414.1
1914	5347.1
1918.245	5408.1
1922.485	5472.1
1926.722	5506.1
1930.954	5575.1
1935.183	5640.1
1939.408	5702.1
1943.628	5751.1
1947.845	5779.1
1952.058	5746.1
1956.267	5698.1
1960.472	5649.1
1964.673	5552.1
1968.87	5472.1
1973.063	5368.1
1977.252	5277.1
1981.438	5242.1
1985.619	5212.1
1989.797	5156.1
1993.971	5129.1
1998.14	5127.1
2002.306	5079.1
2006.469	5050.1
2010.627	5022.1
2014.781	4980.1
2018.932	4949.1
2023.078	4905.1
2027.221	4880.1
2031.36	4785.1
2035.495	4672.1
2039.627	4640.1
2043.754	4585.1
2047.878	4543.1
2051.998	4497.1
2056.114	4478.1
2060.226	4472.1
2064.334	4493.1
2068.439	4527.1
2072.54	4558.1
2076.637	4570.1
2080.73	4608.1
2084.82	4635.1
2088.906	4648.1
2092.988	4669.1
2097.066	4635.1
2101.14	4609.1
2105.211	4610.1
2109.278	4560.1
2113.342	4523.1
2117.401	4539.1
2121.457	4499.1
2125.509	4468.1
2129.558	4405.1
2133.602	4403.1
2137.643	4378.1
2141.681	4374.1
2145.714	4342.1
2149.744	4293.1
2153.77	4279.1
2157.793	4221.1
2161.812	4186.1
2165.827	4091.1
2169.838	4031.1
2173.846	3997.1
2177.851	3883.1
2181.851	3853.1
2185.848	3809.1
2189.841	3766.1
2193.831	3703.1
2197.817	3669.1
2201.799	3670.1
2205.778	3647.1
2209.753	3629.1
2213.725	3607.1
2217.693	3615.1
2221.657	3604.1
2225.618	3614.1
2229.575	3557.1
2233.529	3535.1
2237.479	3515.1
2241.425	3460.1
2245.368	3399.1
2249.307	3373.1
2253.243	3335.1
2257.175	3270.1
2261.104	3230.1
2265.029	3173.1
2268.95	3147.1
2272.868	3133.1
2276.783	3113.1
2280.694	3040.1
2284.601	3027.1
2288.505	2988.1
2292.405	2975.1
2296.302	2934.1
2300.195	2886.1
2304.085	2864.1
2307.971	2817.1
2311.854	2790.1
2315.734	2734.1
2319.609	2707.1
2323.482	2658.1
2327.351	2626.1
2331.216	2608.1
2335.078	2616.1
2338.937	2581.1
2342.792	2570.1
2346.643	2569.1
2350.492	2551.1
2354.336	2579.1
2358.178	2566.1
2362.015	2580.1
2365.85	2589.1
2369.681	2571.1
2373.508	2591.1
2377.333	2592.1
2381.153	2566.1
2384.971	2530.1
2388.785	2535.1
2392.595	2494.1
2396.402	2473.1
2400.206	2468.1
2404.007	2431.1
2407.804	2436.1
2411.597	2404.1
2415.388	2414.1
2419.174	2372.1
2422.958	2350.1
2426.738	2371.1
2430.515	2336.1
2434.289	2316.1
2438.059	2268.1
2441.825	2254.1
2445.589	2246.1
2449.349	2201.1
2453.106	2210.1
2456.859	2164.1
2460.61	2125.1
2464.356	2139.1
2468.1	2087.1
2471.84	2060.1
2475.577	2050.1
2479.311	2027.1
2483.041	2029.1
2486.768	2008.1
2490.492	1996.1
2494.213	2005.1
2497.93	1994.1
2501.644	1984.1
2505.355	1983.1
2509.062	1986.1
2512.766	1939.1
2516.467	1948.1
2520.165	1920.1
2523.859	1896.1
2527.551	1928.1
2531.239	1888.1
2534.923	1863.1
2538.605	1853.1
2542.283	1873.1
2545.958	1856.1
2549.63	1869.1
2553.299	1865.1
2556.964	1861.1
2560.626	1844.1
2564.285	1832.1
2567.941	1824.1
2571.594	1823.1
2575.243	1795.1
2578.89	1802.1
2582.533	1757.1
2586.173	1776.1
2589.809	1745.1
2593.443	1731.1
2597.073	1721.1
2600.701	1693.1
2604.325	1681.1
2607.946	1694.1
2611.564	1670.1
2615.178	1666.1
2618.79	1643.1
2622.398	1620.1
2626.004	1612.1
2629.606	1593.1
2633.205	1578.1
2636.801	1557.1
2640.394	1533.1
2643.983	1505.1
2647.57	1482.1
2651.153	1447.1
2654.734	1426.1
2658.311	1399.1
2661.885	1389.1
2665.456	1360.1
2669.025	1370.1
2672.589	1343.1
2676.151	1329.1
2679.71	1300.1
2683.266	1288.1
2686.819	1277.1
2690.368	1238.1
2693.915	1214.1
2697.458	1203.1
2700.999	1159.1
2704.536	1144.1
2708.071	1114.1
2711.602	1101.1
2715.13	1072.1
2718.656	1050.1
2722.178	1015.1
2725.697	1020.1
2729.214	1016.1
2732.727	1015.1
2736.237	978.1
2739.744	987.1
2743.249	1015.1
2746.75	1010.1
2750.248	996.1
2753.743	1024.1
2757.236	1043.1
2760.725	1058.1
2764.211	1055.1
2767.695	1046.1
2771.175	1056.1
2774.652	1055.1
2778.127	1057.1
2781.598	1029.1
2785.067	1033.1
2788.532	1033.1
2791.995	1014.1
2795.455	1022.1
2798.911	1032.1
2802.365	1040.1
2805.816	1033.1
2809.264	1028.1
2812.709	1029.1
2816.151	1037.1
2819.59	1024.1
2823.026	1033.1
2826.46	1038.1
2829.89	1034.1
2833.318	1047.1
2836.742	1040.1
2840.164	1038.1
2843.583	1079.1
2846.999	1078.1
2850.412	1079.1
2853.822	1085.1
2857.229	1094.1
2860.634	1129.1
2864.035	1126.1
2867.434	1158.1
2870.83	1191.1
2874.223	1220.1
2877.613	1246.1
2881	1252.1
2884.385	1274.1
2887.766	1275.1
2891.145	1271.1
2894.521	1257.1
2897.894	1269.1
2901.264	1255.1
2904.631	1263.1
2907.996	1270.1
2911.358	1276.1
2914.717	1287.1
2918.073	1310.1
2921.426	1319.1
2924.777	1331.1
2928.124	1362.1
2931.469	1376.1
2934.811	1419.1
2938.15	1435.1
2941.487	1437.1
2944.821	1474.1
2948.152	1465.1
2951.48	1447.1
2954.805	1419.1
2958.128	1422.1
2961.447	1433.1
2964.765	1429.1
2968.079	1427.1
2971.39	1429.1
2974.699	1463.1
2978.005	1476.1
2981.308	1501.1
2984.609	1523.1
2987.907	1567.1
2991.202	1577.1
2994.494	1617.1
2997.784	1667.1
3001.07	1695.1
3004.355	1705.1
3007.636	1759.1
3010.915	1757.1
3014.191	1776.1
3017.464	1797.1
3020.734	1819.1
3024.002	1824.1
3027.267	1826.1
3030.53	1827.1
3033.789	1883.1
3037.046	1907.1
3040.301	1920.1
3043.552	1944.1
3046.801	1987.1
3050.048	2035.1
3053.291	2116.1
3056.532	2163.1
3059.771	2208.1
3063.006	2249.1
3066.239	2341.1
3069.469	2402.1
3072.697	2458.1
3075.922	2515.1
3079.144	2605.1
3082.364	2658.1
3085.581	2706.1
3088.795	2777.1
3092.007	2840.1
3095.216	2887.1
3098.423	2958.1
3101.627	3039.1
3104.828	3082.1
3108.026	3143.1
3111.222	3219.1
3114.416	3291.1
3117.607	3366.1
3120.795	3425.1
3123.98	3554.1
3127.163	3601.1
3130.344	3738.1
3133.521	3799.1
3136.696	3889.1
3139.869	3975.1
3143.039	4032.1
3146.206	4073.1
3149.371	4132.1
3152.533	4166.1
3155.693	4211.1
3158.85	4226.1
3162.005	4272.1
3165.157	4245.1
3168.306	4279.1
3171.453	4285.1
3174.597	4295.1
3177.739	4313.1
3180.878	4312.1
3184.014	4315.1
3187.149	4300.1
3190.28	4321.1
3193.409	4331.1
3196.536	4348.1
3199.659	4366.1
3202.781	4351.1
3205.9	4359.1
3209.016	4405.1
3212.13	4341.1
3215.241	4325.1
3218.35	4279.1
3221.456	4215.1
3224.56	4199.1
3227.661	4135.1
3230.76	4088.1
3233.856	4072.1
3236.95	4014.1
3240.041	4004.1
3243.13	3951.1
3246.216	3976.1
3249.3	3945.1
3252.382	3930.1
3255.46	3906.1
3258.537	3894.1
3261.611	3913.1
3264.682	3908.1
3267.751	3883.1
3270.818	3861.1
3273.882	3864.1
3276.943	3890.1
3280.002	3840.1
3283.059	3761.1
3286.113	3734.1
3289.165	3689.1
3292.214	3648.1
3295.261	3586.1
3298.306	3521.1
3301.348	3479.1
3304.387	3420.1
3307.425	3362.1
3310.459	3288.1
3313.492	3257.1
3316.521	3232.1
3319.549	3182.1
3322.574	3150.1
3325.597	3103.1
3328.617	3108.1
3331.635	3094.1
3334.65	3063.1
3337.663	3039.1
3340.674	3028.1
3343.682	2994.1
3346.688	3000.1
3349.691	3005.1
3352.692	2983.1
3355.691	2948.1
3358.687	2949.1
3361.681	2878.1
3364.673	2872.1
3367.662	2828.1
3370.649	2749.1
3373.633	2729.1
3376.615	2705.1
3379.595	2668.1
3382.572	2632.1
3385.547	2587.1
3388.52	2538.1
3391.49	2519.1
3394.458	2488.1
3397.424	2448.1
3400.387	2406.1
3403.348	2374.1
3406.307	2346.1
3409.263	2339.1
3412.217	2315.1
3415.168	2308.1
3418.118	2264.1
3421.065	2225.1
3424.009	2226.1
3426.951	2162.1
3429.891	2138.1
3432.829	2079.1
3435.764	2020.1
3438.697	1998.1
3441.628	1935.1
3444.557	1873.1
3447.483	1802.1
3450.407	1763.1
3453.328	1715.1
3456.247	1659.1
3459.164	1603.1
3462.079	1550.1
3464.991	1494.1
3467.902	1438.1
3470.809	1386.1
3473.715	1335.1
3476.618	1279.1
3479.519	1238.1
3482.418	1220.1
3485.315	1174.1
3488.209	1110.1
3491.101	1082.1
3493.99	1052.1
3496.878	1001.1
3499.763	970.1
3502.646	947.1
3505.527	901.1
3508.405	852.1
3511.281	814.1
3514.155	778.1
3517.027	730.1
3519.897	696.1
3522.764	634.1
3525.629	608.1
3528.492	542.1
3531.352	510.1
3534.211	472.1
3537.067	442.1
3539.921	400.1
3542.773	344.1
3545.622	322.1
3548.469	281.1
3551.315	257.1
3554.157	242.1
3556.998	194.1
3559.837	167.1
3562.673	144.1
3565.507	106.1
3568.339	88.1
3571.169	73.1
3573.996	56.1
3576.822	42.1
3579.645	15.1
3582.466	-6.9
3585.285	-29.9
3588.101	-54.9
3590.916	-77.9
3593.728	-99.9
3596.538	-109.9
3599.346	-140.9
3602.152	-156.9
3604.956	-171.9
3607.757	-191.9
3610.556	-200.9
3613.354	-225.9
3616.149	-235.9
3618.942	-250.9
3621.732	-264.9
3624.521	-274.9
3627.307	-291.9
3630.092	-294.9
3632.874	-297.9
3635.654	-322.9
3638.432	-322.9
3641.208	-340.9
3643.982	-354.9
3646.753	-353.9
3649.523	-363.9
3652.29	-376.9
3655.055	-376.9
3657.818	-390.9
3660.579	-401.9
3663.338	-420.9
3666.095	-426.9
3668.849	-447.9
3671.602	-447.9
3674.352	-462.9
3677.101	-467.9
3679.847	-473.9
3682.591	-478.9
3685.333	-481.9
3688.073	-488.9
3690.811	-498.9
3693.547	-502.9
3696.281	-509.9
3699.013	-511.9
3701.742	-524.9
3704.47	-521.9
3707.195	-529.9
3709.919	-537.9
3712.64	-544.9
3715.359	-535.9
3718.076	-546.9
3720.792	-547.9
3723.505	-543.9
3726.216	-555.9
3728.925	-554.9
3731.632	-566.9
3734.336	-564.9
3737.039	-567.9
3739.74	-563.9
3742.439	-569.9
3745.136	-569.9
3747.83	-577.9
3750.523	-581.9
3753.213	-581.9
3755.902	-582.9
3758.589	-585.9
3761.273	-584.9
3763.956	-589.9
3766.636	-593.9
3769.315	-598.9
3771.991	-600.9
3774.665	-597.9
3777.338	-599.9
3780.008	-593.9
3782.677	-607.9
3785.343	-600.9
3788.007	-604.9
3790.67	-605.9
3793.33	-605.9
3795.989	-608.9
3798.645	-609.9
3801.299	-608.9
3803.952	-615.9
3806.602	-618.9
3809.251	-621.9
3811.897	-619.9
3814.542	-618.9
3817.184	-614.9
3819.825	-615.9
3822.463	-613.9
3825.1	-618.9
3827.735	-616.9
3830.367	-615.9
3832.998	-625.9
3835.627	-629.9
3838.253	-624.9
3840.878	-624.9
3843.501	-618.9
3846.122	-621.9
3848.741	-621.9
3851.358	-627.9
3853.973	-627.9
3856.586	-636.9
3859.197	-630.9
3861.806	-635.9
3864.414	-628.9
3867.019	-627.9
3869.622	-628.9
3872.224	-622.9
3874.823	-609.9
3877.421	-592.9
3880.016	-573.9
3882.61	-550.9
3885.202	-548.9
3887.792	-564.9
3890.38	-594.9
3892.966	-613.9
3895.55	-623.9
3898.132	-642.9
3900.713	-644.9
3903.291	-643.9
3905.868	-640.9
3908.442	-645.9
3911.015	-645.9
3913.586	-638.9
3916.155	-642.9
3918.722	-643.9
3921.287	-639.9
3923.85	-646.9
3926.411	-643.9
3928.971	-653.9
3931.528	-646.9
3934.084	-647.9
3936.638	-647.9
3939.19	-644.9
3941.74	-642.9
3944.288	-643.9
3946.834	-636.9
3949.378	-642.9
3951.921	-643.9
3954.462	-647.9
3957	-645.9
3959.537	-647.9
3962.072	-642.9
3964.606	-645.9
3967.137	-652.9
3969.667	-648.9
3972.194	-637.9
3974.72	-643.9
3977.244	-637.9
3979.766	-633.9
3982.286	-639.9
3984.805	-638.9
3987.321	-634.9
3989.836	-640.9
3992.349	-625.9
3994.86	-629.9
3997.369	-639.9
3999.877	-626.9
4002.382	-629.9
4004.886	-624.9
4007.388	-621.9
4009.888	-625.9
4012.386	-631.9
4014.883	-628.9
4017.377	-626.9
4019.87	-625.9
4022.361	-626.9
4024.85	-629.9
4027.338	-632.9
4029.823	-630.9
4032.307	-633.9
4034.789	-631.9
4037.269	-629.9
4039.747	-635.9
4042.224	-637.9
4044.699	-639.9
4047.172	-630.9
4049.643	-633.9
4052.112	-640.9
4054.58	-636.9
4057.046	-637.9
4059.51	-635.9
4061.972	-634.9
4064.432	-642.9
4066.891	-631.9
4069.348	-626.9
4071.803	-631.9
4074.256	-625.9
4076.708	-631.9
4079.158	-632.9
4081.606	-636.9
4084.052	-638.9
4086.497	-637.9
4088.939	-629.9
4091.38	-635.9
4093.819	-632.9
4096.257	-663.9
4098.693	-665.9
4101.127	-666.9
4103.559	-663.9
4105.989	-387.9
4108.418	-356.9
4110.845	-337.9
4113.27	-315.9
4115.694	-270.9
4118.115	-226.9
4120.535	-630.9
4122.954	-635.9
4125.37	-626.9
4127.785	-637.9
4130.198	-637.9
4132.609	-637.9
4135.019	-670.9
4137.427	-671.9
4139.833	-668.9
4142.237	-663.9
