Data from 2018-2-14_conc=3_n=1_RamanShift_05.txt Node
Date: Wed Feb 14 11:44:26 IST 2018
User: aro
Spectrometer: QEPB0276
Trigger mode: 0
Integration Time (sec): 3.000000E1
Scans to average: 1
Electric dark correction enabled: true
Nonlinearity correction enabled: false
Boxcar width: 0
XAxis mode: Raman Shifts
Number of Pixels in Spectrum: 1044
>>>>>Begin Spectral Data<<<<<
160.701	-130.2
166.742	37.8
172.777	517.8
178.805	1990.8
184.826	5467.8
190.841	11425.8
196.849	18309.8
202.85	23162.8
208.845	24851.8
214.833	24647.8
220.815	24148.8
226.789	24009.8
232.758	23903.8
238.719	23693.8
244.674	23395.8
250.623	22933.8
256.565	22552.8
262.5	21980.8
268.429	21562.8
274.351	21268.8
280.267	20973.8
286.176	20750.8
292.079	20510.8
297.975	20367.8
303.865	20145.8
309.748	20104.8
315.625	19921.8
321.495	19829.8
327.359	19716.8
333.217	19725.8
339.068	19682.8
344.912	19698.8
350.751	19632.8
356.583	19630.8
362.408	19591.8
368.227	19665.8
374.04	19573.8
379.847	19672.8
385.647	19798.8
391.44	19792.8
397.228	20018.8
403.009	19953.8
408.784	19984.8
414.553	20159.8
420.315	20137.8
426.071	20175.8
431.821	20126.8
437.565	20119.8
443.302	20116.8
449.033	20091.8
454.758	20055.8
460.477	19983.8
466.189	19908.8
471.896	19849.8
477.596	19843.8
483.29	19757.8
488.978	19751.8
494.66	19643.8
500.335	19585.8
506.005	19356.8
511.668	18990.8
517.325	18772.8
522.977	18592.8
528.622	18424.8
534.261	18312.8
539.894	18205.8
545.521	18104.8
551.141	18019.8
556.756	17936.8
562.365	17909.8
567.968	17828.8
573.565	17762.8
579.155	17671.8
584.74	17604.8
590.319	17504.8
595.892	17492.8
601.459	17415.8
607.02	17319.8
612.575	17182.8
618.124	17084.8
623.667	16997.8
629.204	16910.8
634.735	16824.8
640.261	16751.8
645.781	16697.8
651.294	16700.8
656.802	16594.8
662.304	16588.8
667.8	16530.8
673.29	16459.8
678.775	16478.8
684.254	16406.8
689.726	16371.8
695.193	16373.8
700.655	16251.8
706.11	16060.8
711.56	16025.8
717.004	15959.8
722.442	15919.8
727.874	15797.8
733.301	15767.8
738.722	15695.8
744.137	15694.8
749.547	15664.8
754.951	15688.8
760.349	15671.8
765.741	15658.8
771.128	15747.8
776.509	15707.8
781.885	15731.8
787.254	15663.8
792.618	15540.8
797.977	15511.8
803.33	15346.8
808.677	15345.8
814.019	15242.8
819.355	15166.8
824.686	15058.8
830.011	15026.8
835.33	14979.8
840.644	15030.8
845.952	15019.8
851.255	15041.8
856.552	15047.8
861.844	15013.8
867.13	14962.8
872.41	14901.8
877.686	14824.8
882.955	14693.8
888.219	14589.8
893.478	14436.8
898.731	14217.8
903.979	14114.8
909.221	13980.8
914.458	13937.8
919.69	13916.8
924.916	13946.8
930.136	14005.8
935.351	14041.8
940.561	14023.8
945.766	13971.8
950.965	13873.8
956.158	13803.8
961.347	13651.8
966.529	13427.8
971.707	13293.8
976.879	13153.8
982.046	12998.8
987.208	12971.8
992.364	12994.8
997.515	13041.8
1002.66	13191.8
1007.801	13318.8
1012.936	13399.8
1018.066	13364.8
1023.19	13397.8
1028.309	13403.8
1033.423	13348.8
1038.532	13270.8
1043.636	13199.8
1048.734	12988.8
1053.827	12872.8
1058.915	12718.8
1063.998	12625.8
1069.075	12561.8
1074.147	12530.8
1079.214	12606.8
1084.276	12684.8
1089.333	12785.8
1094.385	12791.8
1099.431	12862.8
1104.472	12820.8
1109.509	12727.8
1114.54	12611.8
1119.565	12447.8
1124.586	12256.8
1129.602	12154.8
1134.613	12046.8
1139.618	11950.8
1144.619	11941.8
1149.614	11982.8
1154.604	11975.8
1159.589	11985.8
1164.57	12020.8
1169.545	12056.8
1174.515	12069.8
1179.48	11955.8
1184.44	11860.8
1189.395	11760.8
1194.345	11683.8
1199.29	11663.8
1204.23	11630.8
1209.165	11650.8
1214.095	11739.8
1219.021	11790.8
1223.941	11801.8
1228.856	11920.8
1233.766	11971.8
1238.672	11940.8
1243.572	11898.8
1248.467	11869.8
1253.358	11699.8
1258.244	11566.8
1263.124	11398.8
1268	11213.8
1272.871	11087.8
1277.737	10996.8
1282.599	10923.8
1287.455	10940.8
1292.306	10874.8
1297.153	10905.8
1301.995	11049.8
1306.832	11048.8
1311.664	11011.8
1316.491	11033.8
1321.314	10955.8
1326.132	10777.8
1330.945	10575.8
1335.753	10327.8
1340.556	10048.8
1345.354	9898.8
1350.148	9700.8
1354.937	9626.8
1359.722	9560.8
1364.501	9529.8
1369.276	9626.8
1374.046	9726.8
1378.811	9815.8
1383.572	9912.8
1388.327	9937.8
1393.079	9909.8
1397.825	9843.8
1402.567	9711.8
1407.304	9577.8
1412.036	9572.8
1416.764	9449.8
1421.487	9395.8
1426.205	9308.8
1430.919	9337.8
1435.628	9336.8
1440.333	9320.8
1445.032	9363.8
1449.727	9363.8
1454.418	9390.8
1459.104	9274.8
1463.785	9126.8
1468.462	8920.8
1473.134	8752.8
1477.802	8532.8
1482.465	8381.8
1487.123	8284.8
1491.777	8241.8
1496.426	8262.8
1501.071	8314.8
1505.711	8414.8
1510.347	8537.8
1514.978	8687.8
1519.604	8835.8
1524.226	8886.8
1528.844	8907.8
1533.457	8886.8
1538.065	8858.8
1542.669	8786.8
1547.269	8729.8
1551.864	8696.8
1556.454	8662.8
1561.041	8690.8
1565.622	8653.8
1570.199	8672.8
1574.772	8711.8
1579.34	8834.8
1583.904	8843.8
1588.464	8869.8
1593.019	8886.8
1597.569	8809.8
1602.115	8828.8
1606.657	8748.8
1611.195	8741.8
1615.728	8696.8
1620.256	8578.8
1624.78	8587.8
1629.3	8628.8
1633.816	8672.8
1638.327	8675.8
1642.834	8763.8
1647.336	8812.8
1651.834	8784.8
1656.328	8756.8
1660.817	8700.8
1665.302	8623.8
1669.783	8441.8
1674.259	8275.8
1678.732	8006.8
1683.199	7790.8
1687.663	7489.8
1692.122	7255.8
1696.577	7068.8
1701.028	7056.8
1705.474	7057.8
1709.917	7024.8
1714.355	7107.8
1718.788	7066.8
1723.218	6977.8
1727.643	6832.8
1732.064	6726.8
1736.481	6575.8
1740.893	6389.8
1745.301	6237.8
1749.705	6082.8
1754.105	5906.8
1758.501	5730.8
1762.893	5601.8
1767.28	5431.8
1771.663	5334.8
1776.042	5240.8
1780.417	5202.8
1784.787	5136.8
1789.154	5203.8
1793.516	5269.8
1797.874	5316.8
1802.228	5413.8
1806.578	5476.8
1810.924	5464.8
1815.266	5486.8
1819.603	5348.8
1823.937	5259.8
1828.266	5185.8
1832.591	5093.8
1836.913	5058.8
1841.23	5026.8
1845.543	4978.8
1849.852	4937.8
1854.156	4911.8
1858.457	4951.8
1862.754	4927.8
1867.047	4878.8
1871.335	4895.8
1875.62	4889.8
1879.9	4900.8
1884.177	4832.8
1888.449	4785.8
1892.718	4753.8
1896.982	4693.8
1901.243	4664.8
1905.499	4609.8
1909.752	4597.8
1914	4582.8
1918.245	4568.8
1922.485	4590.8
1926.722	4632.8
1930.954	4682.8
1935.183	4729.8
1939.408	4767.8
1943.628	4845.8
1947.845	4861.8
1952.058	4824.8
1956.267	4789.8
1960.472	4731.8
1964.673	4643.8
1968.87	4570.8
1973.063	4505.8
1977.252	4454.8
1981.438	4399.8
1985.619	4357.8
1989.797	4318.8
1993.971	4318.8
1998.14	4304.8
2002.306	4261.8
2006.469	4236.8
2010.627	4236.8
2014.781	4198.8
2018.932	4144.8
2023.078	4145.8
2027.221	4064.8
2031.36	4022.8
2035.495	3969.8
2039.627	3900.8
2043.754	3815.8
2047.878	3792.8
2051.998	3769.8
2056.114	3748.8
2060.226	3759.8
2064.334	3755.8
2068.439	3756.8
2072.54	3765.8
2076.637	3790.8
2080.73	3818.8
2084.82	3841.8
2088.906	3877.8
2092.988	3865.8
2097.066	3864.8
2101.14	3809.8
2105.211	3831.8
2109.278	3756.8
2113.342	3743.8
2117.401	3709.8
2121.457	3701.8
2125.509	3702.8
2129.558	3678.8
2133.602	3624.8
2137.643	3602.8
2141.681	3586.8
2145.714	3579.8
2149.744	3575.8
2153.77	3538.8
2157.793	3493.8
2161.812	3442.8
2165.827	3410.8
2169.838	3318.8
2173.846	3297.8
2177.851	3245.8
2181.851	3191.8
2185.848	3137.8
2189.841	3098.8
2193.831	3091.8
2197.817	3056.8
2201.799	3021.8
2205.778	3017.8
2209.753	3019.8
2213.725	2983.8
2217.693	2986.8
2221.657	2981.8
2225.618	2988.8
2229.575	2953.8
2233.529	2922.8
2237.479	2908.8
2241.425	2864.8
2245.368	2828.8
2249.307	2747.8
2253.243	2731.8
2257.175	2692.8
2261.104	2656.8
2265.029	2626.8
2268.95	2605.8
2272.868	2573.8
2276.783	2537.8
2280.694	2524.8
2284.601	2505.8
2288.505	2469.8
2292.405	2439.8
2296.302	2451.8
2300.195	2386.8
2304.085	2365.8
2307.971	2345.8
2311.854	2291.8
2315.734	2260.8
2319.609	2215.8
2323.482	2180.8
2327.351	2191.8
2331.216	2142.8
2335.078	2156.8
2338.937	2142.8
2342.792	2117.8
2346.643	2115.8
2350.492	2110.8
2354.336	2097.8
2358.178	2128.8
2362.015	2139.8
2365.85	2128.8
2369.681	2149.8
2373.508	2157.8
2377.333	2147.8
2381.153	2124.8
2384.971	2103.8
2388.785	2113.8
2392.595	2090.8
2396.402	2045.8
2400.206	2058.8
2404.007	2029.8
2407.804	2009.8
2411.597	1995.8
2415.388	2003.8
2419.174	1987.8
2422.958	1951.8
2426.738	1939.8
2430.515	1930.8
2434.289	1923.8
2438.059	1911.8
2441.825	1874.8
2445.589	1868.8
2449.349	1844.8
2453.106	1814.8
2456.859	1793.8
2460.61	1765.8
2464.356	1763.8
2468.1	1717.8
2471.84	1705.8
2475.577	1687.8
2479.311	1684.8
2483.041	1676.8
2486.768	1650.8
2490.492	1635.8
2494.213	1640.8
2497.93	1647.8
2501.644	1620.8
2505.355	1613.8
2509.062	1604.8
2512.766	1599.8
2516.467	1590.8
2520.165	1569.8
2523.859	1561.8
2527.551	1537.8
2531.239	1537.8
2534.923	1520.8
2538.605	1510.8
2542.283	1525.8
2545.958	1500.8
2549.63	1521.8
2553.299	1499.8
2556.964	1504.8
2560.626	1471.8
2564.285	1486.8
2567.941	1473.8
2571.594	1460.8
2575.243	1452.8
2578.89	1435.8
2582.533	1426.8
2586.173	1407.8
2589.809	1418.8
2593.443	1393.8
2597.073	1390.8
2600.701	1361.8
2604.325	1359.8
2607.946	1347.8
2611.564	1309.8
2615.178	1326.8
2618.79	1325.8
2622.398	1299.8
2626.004	1277.8
2629.606	1271.8
2633.205	1260.8
2636.801	1225.8
2640.394	1223.8
2643.983	1191.8
2647.57	1186.8
2651.153	1173.8
2654.734	1146.8
2658.311	1117.8
2661.885	1108.8
2665.456	1084.8
2669.025	1086.8
2672.589	1057.8
2676.151	1059.8
2679.71	1047.8
2683.266	1017.8
2686.819	998.8
2690.368	970.8
2693.915	961.8
2697.458	945.8
2700.999	911.8
2704.536	890.8
2708.071	877.8
2711.602	861.8
2715.13	826.8
2718.656	814.8
2722.178	813.8
2725.697	803.8
2729.214	782.8
2732.727	772.8
2736.237	772.8
2739.744	751.8
2743.249	760.8
2746.75	761.8
2750.248	759.8
2753.743	762.8
2757.236	780.8
2760.725	808.8
2764.211	788.8
2767.695	788.8
2771.175	794.8
2774.652	789.8
2778.127	777.8
2781.598	787.8
2785.067	777.8
2788.532	775.8
2791.995	770.8
2795.455	759.8
2798.911	780.8
2802.365	782.8
2805.816	782.8
2809.264	781.8
2812.709	786.8
2816.151	795.8
2819.59	790.8
2823.026	791.8
2826.46	788.8
2829.89	792.8
2833.318	781.8
2836.742	801.8
2840.164	795.8
2843.583	793.8
2846.999	822.8
2850.412	832.8
2853.822	846.8
2857.229	841.8
2860.634	883.8
2864.035	881.8
2867.434	922.8
2870.83	927.8
2874.223	922.8
2877.613	965.8
2881	972.8
2884.385	975.8
2887.766	984.8
2891.145	972.8
2894.521	975.8
2897.894	970.8
2901.264	993.8
2904.631	981.8
2907.996	991.8
2911.358	1001.8
2914.717	1006.8
2918.073	1029.8
2921.426	1016.8
2924.777	1053.8
2928.124	1048.8
2931.469	1079.8
2934.811	1111.8
2938.15	1124.8
2941.487	1130.8
2944.821	1121.8
2948.152	1143.8
2951.48	1131.8
2954.805	1112.8
2958.128	1117.8
2961.447	1097.8
2964.765	1114.8
2968.079	1107.8
2971.39	1101.8
2974.699	1125.8
2978.005	1151.8
2981.308	1178.8
2984.609	1188.8
2987.907	1219.8
2991.202	1245.8
2994.494	1262.8
2997.784	1280.8
3001.07	1314.8
3004.355	1321.8
3007.636	1361.8
3010.915	1400.8
3014.191	1393.8
3017.464	1401.8
3020.734	1424.8
3024.002	1418.8
3027.267	1441.8
3030.53	1456.8
3033.789	1459.8
3037.046	1502.8
3040.301	1521.8
3043.552	1548.8
3046.801	1597.8
3050.048	1636.8
3053.291	1651.8
3056.532	1704.8
3059.771	1770.8
3063.006	1814.8
3066.239	1881.8
3069.469	1932.8
3072.697	1971.8
3075.922	2044.8
3079.144	2093.8
3082.364	2146.8
3085.581	2188.8
3088.795	2226.8
3092.007	2279.8
3095.216	2329.8
3098.423	2395.8
3101.627	2459.8
3104.828	2516.8
3108.026	2541.8
3111.222	2602.8
3114.416	2676.8
3117.607	2745.8
3120.795	2798.8
3123.98	2889.8
3127.163	2959.8
3130.344	3007.8
3133.521	3103.8
3136.696	3149.8
3139.869	3248.8
3143.039	3310.8
3146.206	3334.8
3149.371	3390.8
3152.533	3407.8
3155.693	3420.8
3158.85	3447.8
3162.005	3462.8
3165.157	3478.8
3168.306	3477.8
3171.453	3484.8
3174.597	3503.8
3177.739	3514.8
3180.878	3515.8
3184.014	3527.8
3187.149	3502.8
3190.28	3528.8
3193.409	3512.8
3196.536	3521.8
3199.659	3565.8
3202.781	3541.8
3205.9	3520.8
3209.016	3540.8
3212.13	3512.8
3215.241	3487.8
3218.35	3462.8
3221.456	3432.8
3224.56	3386.8
3227.661	3340.8
3230.76	3321.8
3233.856	3285.8
3236.95	3237.8
3240.041	3221.8
3243.13	3191.8
3246.216	3165.8
3249.3	3160.8
3252.382	3148.8
3255.46	3144.8
3258.537	3132.8
3261.611	3141.8
3264.682	3139.8
3267.751	3120.8
3270.818	3119.8
3273.882	3113.8
3276.943	3079.8
3280.002	3054.8
3283.059	3046.8
3286.113	3009.8
3289.165	2991.8
3292.214	2927.8
3295.261	2874.8
3298.306	2820.8
3301.348	2779.8
3304.387	2744.8
3307.425	2681.8
3310.459	2627.8
3313.492	2599.8
3316.521	2589.8
3319.549	2525.8
3322.574	2531.8
3325.597	2503.8
3328.617	2494.8
3331.635	2460.8
3334.65	2444.8
3337.663	2446.8
3340.674	2420.8
3343.682	2421.8
3346.688	2410.8
3349.691	2418.8
3352.692	2372.8
3355.691	2369.8
3358.687	2346.8
3361.681	2322.8
3364.673	2279.8
3367.662	2266.8
3370.649	2226.8
3373.633	2198.8
3376.615	2156.8
3379.595	2121.8
3382.572	2095.8
3385.547	2059.8
3388.52	2029.8
3391.49	2008.8
3394.458	1955.8
3397.424	1951.8
3400.387	1911.8
3403.348	1894.8
3406.307	1863.8
3409.263	1853.8
3412.217	1831.8
3415.168	1811.8
3418.118	1767.8
3421.065	1756.8
3424.009	1742.8
3426.951	1687.8
3429.891	1681.8
3432.829	1651.8
3435.764	1599.8
3438.697	1543.8
3441.628	1497.8
3444.557	1475.8
3447.483	1413.8
3450.407	1390.8
3453.328	1344.8
3456.247	1304.8
3459.164	1235.8
3462.079	1193.8
3464.991	1140.8
3467.902	1111.8
3470.809	1078.8
3473.715	1033.8
3476.618	998.8
3479.519	959.8
3482.418	922.8
3485.315	898.8
3488.209	869.8
3491.101	843.8
3493.99	801.8
3496.878	774.8
3499.763	741.8
3502.646	699.8
3505.527	669.8
3508.405	630.8
3511.281	590.8
3514.155	559.8
3517.027	523.8
3519.897	516.8
3522.764	458.8
3525.629	412.8
3528.492	381.8
3531.352	362.8
3534.211	319.8
3537.067	289.8
3539.921	265.8
3542.773	216.8
3545.622	187.8
3548.469	166.8
3551.315	139.8
3554.157	135.8
3556.998	87.8
3559.837	70.8
3562.673	56.8
3565.507	36.8
3568.339	5.8
3571.169	0.8
3573.996	-25.2
3576.822	-33.2
3579.645	-55.2
3582.466	-66.2
3585.285	-82.2
3588.101	-104.2
3590.916	-130.2
3593.728	-151.2
3596.538	-162.2
3599.346	-180.2
3602.152	-197.2
3604.956	-199.2
3607.757	-213.2
3610.556	-235.2
3613.354	-240.2
3616.149	-259.2
3618.942	-271.2
3621.732	-274.2
3624.521	-292.2
3627.307	-302.2
3630.092	-308.2
3632.874	-318.2
3635.654	-329.2
3638.432	-321.2
3641.208	-331.2
3643.982	-342.2
3646.753	-356.2
3649.523	-363.2
3652.29	-363.2
3655.055	-373.2
3657.818	-386.2
3660.579	-390.2
3663.338	-402.2
3666.095	-408.2
3668.849	-413.2
3671.602	-425.2
3674.352	-430.2
3677.101	-439.2
3679.847	-448.2
3682.591	-457.2
3685.333	-454.2
3688.073	-461.2
3690.811	-462.2
3693.547	-467.2
3696.281	-477.2
3699.013	-475.2
3701.742	-482.2
3704.47	-481.2
3707.195	-493.2
3709.919	-493.2
3712.64	-495.2
3715.359	-496.2
3718.076	-504.2
3720.792	-504.2
3723.505	-501.2
3726.216	-515.2
3728.925	-510.2
3731.632	-524.2
3734.336	-523.2
3737.039	-527.2
3739.74	-519.2
3742.439	-529.2
3745.136	-528.2
3747.83	-532.2
3750.523	-533.2
3753.213	-508.2
3755.902	-534.2
3758.589	-536.2
3761.273	-545.2
3763.956	-538.2
3766.636	-537.2
3769.315	-552.2
3771.991	-545.2
3774.665	-547.2
3777.338	-547.2
3780.008	-550.2
3782.677	-551.2
3785.343	-550.2
3788.007	-552.2
3790.67	-552.2
3793.33	-556.2
3795.989	-555.2
3798.645	-552.2
3801.299	-560.2
3803.952	-561.2
3806.602	-568.2
3809.251	-570.2
3811.897	-565.2
3814.542	-565.2
3817.184	-562.2
3819.825	-565.2
3822.463	-558.2
3825.1	-564.2
3827.735	-563.2
3830.367	-561.2
3832.998	-571.2
3835.627	-570.2
3838.253	-573.2
3840.878	-575.2
3843.501	-567.2
3846.122	-566.2
3848.741	-561.2
3851.358	-566.2
3853.973	-572.2
3856.586	-575.2
3859.197	-578.2
3861.806	-576.2
3864.414	-572.2
3867.019	-576.2
3869.622	-574.2
3872.224	-569.2
3874.823	-560.2
3877.421	-548.2
3880.016	-525.2
3882.61	-506.2
3885.202	-510.2
3887.792	-517.2
3890.38	-542.2
3892.966	-566.2
3895.55	-567.2
3898.132	-585.2
3900.713	-582.2
3903.291	-573.2
3905.868	-581.2
3908.442	-583.2
3911.015	-581.2
3913.586	-577.2
3916.155	-580.2
3918.722	-590.2
3921.287	-584.2
3923.85	-591.2
3926.411	-588.2
3928.971	-594.2
3931.528	-588.2
3934.084	-588.2
3936.638	-586.2
3939.19	-589.2
3941.74	-590.2
3944.288	-592.2
3946.834	-583.2
3949.378	-588.2
3951.921	-589.2
3954.462	-592.2
3957	-583.2
3959.537	-586.2
3962.072	-581.2
3964.606	-587.2
3967.137	-579.2
3969.667	-593.2
3972.194	-580.2
3974.72	-585.2
3977.244	-576.2
3979.766	-577.2
3982.286	-584.2
3984.805	-577.2
3987.321	-576.2
3989.836	-578.2
3992.349	-570.2
3994.86	-570.2
3997.369	-577.2
3999.877	-573.2
4002.382	-568.2
4004.886	-566.2
4007.388	-569.2
4009.888	-567.2
4012.386	-573.2
4014.883	-569.2
4017.377	-574.2
4019.87	-570.2
4022.361	-571.2
4024.85	-573.2
4027.338	-579.2
4029.823	-576.2
4032.307	-580.2
4034.789	-577.2
4037.269	-579.2
4039.747	-574.2
4042.224	-574.2
4044.699	-577.2
4047.172	-572.2
4049.643	-571.2
4052.112	-578.2
4054.58	-576.2
4057.046	-572.2
4059.51	-580.2
4061.972	-583.2
4064.432	-576.2
4066.891	-572.2
4069.348	-569.2
4071.803	-572.2
4074.256	-578.2
4076.708	-572.2
4079.158	-577.2
4081.606	-580.2
4084.052	-583.2
4086.497	-581.2
4088.939	-572.2
4091.38	-578.2
4093.819	-575.2
4096.257	-606.2
4098.693	-605.2
4101.127	-608.2
4103.559	-603.2
4105.989	-339.2
4108.418	-332.2
4110.845	-303.2
4113.27	-278.2
4115.694	-251.2
4118.115	-216.2
4120.535	-575.2
4122.954	-579.2
4125.37	-566.2
4127.785	-577.2
4130.198	-577.2
4132.609	-574.2
4135.019	-604.2
4137.427	-606.2
4139.833	-605.2
4142.237	-600.2
