Data from 2018-2-14_conc=2_n=4_RamanShift_02.txt Node
Date: Wed Feb 14 11:10:26 IST 2018
User: aro
Spectrometer: QEPB0276
Trigger mode: 0
Integration Time (sec): 3.000000E1
Scans to average: 1
Electric dark correction enabled: true
Nonlinearity correction enabled: false
Boxcar width: 0
XAxis mode: Raman Shifts
Number of Pixels in Spectrum: 1044
>>>>>Begin Spectral Data<<<<<
160.701	-148
166.742	59
172.777	615
178.805	2328
184.826	6510
190.841	13609
196.849	21936
202.85	27754
208.845	29785
214.833	29440
220.815	28914
226.789	28616
232.758	28499
238.719	28178
244.674	27845
250.623	27276
256.565	26628
262.5	26080
268.429	25592
274.351	25120
280.267	24813
286.176	24494
292.079	24258
297.975	24047
303.865	23755
309.748	23601
315.625	23434
321.495	23398
327.359	23166
333.217	23154
339.068	23093
344.912	23027
350.751	23052
356.583	23034
362.408	23102
368.227	23056
374.04	23073
379.847	23046
385.647	23193
391.44	23262
397.228	23364
403.009	23463
408.784	23508
414.553	23624
420.315	23697
426.071	23680
431.821	23694
437.565	23668
443.302	23649
449.033	23625
454.758	23552
460.477	23431
466.189	23424
471.896	23363
477.596	23269
483.29	23223
488.978	23195
494.66	23114
500.335	22960
506.005	22666
511.668	22390
517.325	22132
522.977	21963
528.622	21822
534.261	21615
539.894	21533
545.521	21493
551.141	21330
556.756	21352
562.365	21137
567.968	21137
573.565	21039
579.155	20919
584.74	20823
590.319	20786
595.892	20665
601.459	20623
607.02	20470
612.575	20347
618.124	20237
623.667	20109
629.204	20014
634.735	19944
640.261	19847
645.781	19814
651.294	19748
656.802	19724
662.304	19698
667.8	19631
673.29	19550
678.775	19567
684.254	19483
689.726	19412
695.193	19333
700.655	19171
706.11	19113
711.56	19062
717.004	18978
722.442	18877
727.874	18830
733.301	18705
738.722	18654
744.137	18645
749.547	18647
754.951	18619
760.349	18632
765.741	18641
771.128	18600
776.509	18681
781.885	18672
787.254	18610
792.618	18469
797.977	18394
803.33	18268
808.677	18216
814.019	18064
819.355	17999
824.686	17945
830.011	17855
835.33	17886
840.644	17823
845.952	17836
851.255	17923
856.552	17914
861.844	17879
867.13	17752
872.41	17749
877.686	17653
882.955	17511
888.219	17304
893.478	17147
898.731	16893
903.979	16775
909.221	16653
914.458	16573
919.69	16621
924.916	16598
930.136	16694
935.351	16717
940.561	16666
945.766	16625
950.965	16556
956.158	16460
961.347	16265
966.529	16034
971.707	15814
976.879	15664
982.046	15549
987.208	15482
992.364	15496
997.515	15564
1002.66	15708
1007.801	15840
1012.936	15946
1018.066	15983
1023.19	16003
1028.309	15973
1033.423	15943
1038.532	15886
1043.636	15722
1048.734	15512
1053.827	15349
1058.915	15186
1063.998	15109
1069.075	14965
1074.147	15027
1079.214	15112
1084.276	15179
1089.333	15234
1094.385	15341
1099.431	15382
1104.472	15347
1109.509	15314
1114.54	15116
1119.565	14924
1124.586	14682
1129.602	14629
1134.613	14423
1139.618	14377
1144.619	14336
1149.614	14271
1154.604	14344
1159.589	14444
1164.57	14439
1169.545	14442
1174.515	14424
1179.48	14400
1184.44	14217
1189.395	14139
1194.345	14084
1199.29	13949
1204.23	13942
1209.165	14050
1214.095	14116
1219.021	14172
1223.941	14231
1228.856	14335
1233.766	14404
1238.672	14380
1243.572	14319
1248.467	14268
1253.358	14090
1258.244	13918
1263.124	13698
1268	13487
1272.871	13314
1277.737	13221
1282.599	13149
1287.455	13159
1292.306	13183
1297.153	13204
1301.995	13278
1306.832	13290
1311.664	13319
1316.491	13303
1321.314	13177
1326.132	12957
1330.945	12703
1335.753	12364
1340.556	12059
1345.354	11853
1350.148	11718
1354.937	11640
1359.722	11610
1364.501	11679
1369.276	11770
1374.046	11970
1378.811	12111
1383.572	12197
1388.327	12248
1393.079	12192
1397.825	12043
1402.567	11874
1407.304	11726
1412.036	11562
1416.764	11494
1421.487	11447
1426.205	11359
1430.919	11288
1435.628	11290
1440.333	11362
1445.032	11329
1449.727	11383
1454.418	11387
1459.104	11266
1463.785	11082
1468.462	10842
1473.134	10672
1477.802	10414
1482.465	10266
1487.123	10127
1491.777	10150
1496.426	10193
1501.071	10338
1505.711	10481
1510.347	10646
1514.978	10787
1519.604	10950
1524.226	11076
1528.844	11086
1533.457	11032
1538.065	10979
1542.669	10939
1547.269	10817
1551.864	10747
1556.454	10676
1561.041	10714
1565.622	10671
1570.199	10727
1574.772	10725
1579.34	10832
1583.904	10895
1588.464	10935
1593.019	10965
1597.569	10956
1602.115	10846
1606.657	10789
1611.195	10752
1615.728	10681
1620.256	10657
1624.78	10648
1629.3	10676
1633.816	10658
1638.327	10746
1642.834	10794
1647.336	10862
1651.834	10909
1656.328	10884
1660.817	10805
1665.302	10727
1669.783	10509
1674.259	10321
1678.732	9971
1683.199	9655
1687.663	9366
1692.122	9082
1696.577	8907
1701.028	8920
1705.474	8977
1709.917	9064
1714.355	9024
1718.788	8959
1723.218	8808
1727.643	8600
1732.064	8460
1736.481	8272
1740.893	8078
1745.301	7863
1749.705	7611
1754.105	7404
1758.501	7228
1762.893	7014
1767.28	6829
1771.663	6712
1776.042	6628
1780.417	6568
1784.787	6564
1789.154	6658
1793.516	6743
1797.874	6897
1802.228	6990
1806.578	7074
1810.924	7047
1815.266	6966
1819.603	6859
1823.937	6725
1828.266	6641
1832.591	6554
1836.913	6458
1841.23	6366
1845.543	6322
1849.852	6332
1854.156	6285
1858.457	6261
1862.754	6306
1867.047	6300
1871.335	6235
1875.62	6277
1879.9	6214
1884.177	6172
1888.449	6122
1892.718	6095
1896.982	6021
1901.243	6009
1905.499	5916
1909.752	5899
1914	5945
1918.245	5948
1922.485	5995
1926.722	6050
1930.954	6134
1935.183	6201
1939.408	6307
1943.628	6307
1947.845	6304
1952.058	6262
1956.267	6219
1960.472	6143
1964.673	6060
1968.87	5933
1973.063	5822
1977.252	5766
1981.438	5699
1985.619	5663
1989.797	5601
1993.971	5576
1998.14	5542
2002.306	5508
2006.469	5504
2010.627	5455
2014.781	5425
2018.932	5393
2023.078	5359
2027.221	5240
2031.36	5188
2035.495	5127
2039.627	5017
2043.754	4979
2047.878	4937
2051.998	4912
2056.114	4908
2060.226	4905
2064.334	4933
2068.439	4930
2072.54	4991
2076.637	4980
2080.73	5038
2084.82	5064
2088.906	5077
2092.988	5088
2097.066	5079
2101.14	5039
2105.211	4966
2109.278	4971
2113.342	4904
2117.401	4888
2121.457	4845
2125.509	4845
2129.558	4765
2133.602	4743
2137.643	4769
2141.681	4723
2145.714	4688
2149.744	4641
2153.77	4614
2157.793	4610
2161.812	4519
2165.827	4439
2169.838	4392
2173.846	4320
2177.851	4228
2181.851	4180
2185.848	4130
2189.841	4082
2193.831	4032
2197.817	4011
2201.799	3951
2205.778	3947
2209.753	3929
2213.725	3944
2217.693	3922
2221.657	3891
2225.618	3892
2229.575	3881
2233.529	3834
2237.479	3786
2241.425	3750
2245.368	3704
2249.307	3623
2253.243	3618
2257.175	3535
2261.104	3493
2265.029	3467
2268.95	3408
2272.868	3374
2276.783	3344
2280.694	3328
2284.601	3275
2288.505	3242
2292.405	3237
2296.302	3166
2300.195	3128
2304.085	3115
2307.971	3058
2311.854	3006
2315.734	2947
2319.609	2910
2323.482	2873
2327.351	2841
2331.216	2823
2335.078	2804
2338.937	2771
2342.792	2751
2346.643	2757
2350.492	2741
2354.336	2754
2358.178	2771
2362.015	2747
2365.85	2771
2369.681	2749
2373.508	2780
2377.333	2750
2381.153	2745
2384.971	2712
2388.785	2701
2392.595	2676
2396.402	2638
2400.206	2646
2404.007	2596
2407.804	2586
2411.597	2579
2415.388	2559
2419.174	2531
2422.958	2507
2426.738	2500
2430.515	2484
2434.289	2447
2438.059	2435
2441.825	2419
2445.589	2385
2449.349	2351
2453.106	2346
2456.859	2343
2460.61	2277
2464.356	2247
2468.1	2241
2471.84	2199
2475.577	2182
2479.311	2192
2483.041	2172
2486.768	2167
2490.492	2132
2494.213	2154
2497.93	2136
2501.644	2123
2505.355	2113
2509.062	2112
2512.766	2112
2516.467	2110
2520.165	2093
2523.859	2060
2527.551	2044
2531.239	2046
2534.923	2016
2538.605	2015
2542.283	2032
2545.958	1981
2549.63	2018
2553.299	2028
2556.964	1994
2560.626	1993
2564.285	1985
2567.941	1954
2571.594	1974
2575.243	1924
2578.89	1913
2582.533	1893
2586.173	1886
2589.809	1870
2593.443	1848
2597.073	1840
2600.701	1815
2604.325	1817
2607.946	1779
2611.564	1780
2615.178	1775
2618.79	1740
2622.398	1732
2626.004	1727
2629.606	1701
2633.205	1672
2636.801	1647
2640.394	1647
2643.983	1610
2647.57	1586
2651.153	1538
2654.734	1510
2658.311	1483
2661.885	1500
2665.456	1453
2669.025	1436
2672.589	1438
2676.151	1422
2679.71	1383
2683.266	1394
2686.819	1342
2690.368	1300
2693.915	1291
2697.458	1251
2700.999	1220
2704.536	1223
2708.071	1193
2711.602	1165
2715.13	1130
2718.656	1124
2722.178	1111
2725.697	1090
2729.214	1087
2732.727	1075
2736.237	1075
2739.744	1062
2743.249	1077
2746.75	1108
2750.248	1098
2753.743	1113
2757.236	1151
2760.725	1122
2764.211	1131
2767.695	1145
2771.175	1117
2774.652	1128
2778.127	1112
2781.598	1104
2785.067	1101
2788.532	1095
2791.995	1085
2795.455	1124
2798.911	1087
2802.365	1104
2805.816	1090
2809.264	1075
2812.709	1108
2816.151	1109
2819.59	1108
2823.026	1108
2826.46	1098
2829.89	1117
2833.318	1103
2836.742	1120
2840.164	1118
2843.583	1119
2846.999	1124
2850.412	1151
2853.822	1157
2857.229	1151
2860.634	1190
2864.035	1225
2867.434	1238
2870.83	1251
2874.223	1279
2877.613	1322
2881	1326
2884.385	1331
2887.766	1340
2891.145	1326
2894.521	1334
2897.894	1334
2901.264	1311
2904.631	1345
2907.996	1350
2911.358	1350
2914.717	1371
2918.073	1392
2921.426	1378
2924.777	1397
2928.124	1427
2931.469	1462
2934.811	1481
2938.15	1491
2941.487	1510
2944.821	1541
2948.152	1524
2951.48	1531
2954.805	1499
2958.128	1487
2961.447	1489
2964.765	1484
2968.079	1481
2971.39	1495
2974.699	1523
2978.005	1560
2981.308	1576
2984.609	1611
2987.907	1628
2991.202	1668
2994.494	1687
2997.784	1738
3001.07	1777
3004.355	1790
3007.636	1829
3010.915	1853
3014.191	1857
3017.464	1864
3020.734	1889
3024.002	1873
3027.267	1915
3030.53	1926
3033.789	1958
3037.046	1962
3040.301	2004
3043.552	2076
3046.801	2093
3050.048	2136
3053.291	2171
3056.532	2247
3059.771	2313
3063.006	2384
3066.239	2467
3069.469	2521
3072.697	2615
3075.922	2651
3079.144	2737
3082.364	2802
3085.581	2866
3088.795	2896
3092.007	2950
3095.216	3024
3098.423	3088
3101.627	3167
3104.828	3230
3108.026	3298
3111.222	3383
3114.416	3450
3117.607	3517
3120.795	3611
3123.98	3686
3127.163	3804
3130.344	3851
3133.521	3971
3136.696	4057
3139.869	4149
3143.039	4194
3146.206	4281
3149.371	4326
3152.533	4343
3155.693	4393
3158.85	4421
3162.005	4450
3165.157	4455
3168.306	4478
3171.453	4476
3174.597	4489
3177.739	4472
3180.878	4504
3184.014	4507
3187.149	4512
3190.28	4511
3193.409	4539
3196.536	4525
3199.659	4523
3202.781	4561
3205.9	4551
3209.016	4533
3212.13	4487
3215.241	4518
3218.35	4433
3221.456	4424
3224.56	4356
3227.661	4276
3230.76	4265
3233.856	4224
3236.95	4209
3240.041	4166
3243.13	4114
3246.216	4086
3249.3	4068
3252.382	4073
3255.46	4052
3258.537	4058
3261.611	4031
3264.682	4027
3267.751	4024
3270.818	3997
3273.882	4003
3276.943	4001
3280.002	3957
3283.059	3891
3286.113	3873
3289.165	3836
3292.214	3775
3295.261	3709
3298.306	3644
3301.348	3618
3304.387	3540
3307.425	3488
3310.459	3436
3313.492	3360
3316.521	3302
3319.549	3280
3322.574	3265
3325.597	3232
3328.617	3204
3331.635	3187
3334.65	3157
3337.663	3164
3340.674	3127
3343.682	3134
3346.688	3099
3349.691	3112
3352.692	3077
3355.691	3039
3358.687	3078
3361.681	3012
3364.673	2977
3367.662	2893
3370.649	2871
3373.633	2853
3376.615	2813
3379.595	2775
3382.572	2738
3385.547	2686
3388.52	2663
3391.49	2607
3394.458	2571
3397.424	2545
3400.387	2509
3403.348	2473
3406.307	2457
3409.263	2403
3412.217	2386
3415.168	2352
3418.118	2311
3421.065	2296
3424.009	2273
3426.951	2232
3429.891	2189
3432.829	2121
3435.764	2094
3438.697	2039
3441.628	1987
3444.557	1941
3447.483	1866
3450.407	1820
3453.328	1750
3456.247	1697
3459.164	1649
3462.079	1578
3464.991	1525
3467.902	1471
3470.809	1433
3473.715	1364
3476.618	1329
3479.519	1258
3482.418	1234
3485.315	1215
3488.209	1149
3491.101	1121
3493.99	1069
3496.878	1031
3499.763	997
3502.646	949
3505.527	896
3508.405	866
3511.281	805
3514.155	770
3517.027	741
3519.897	681
3522.764	633
3525.629	594
3528.492	560
3531.352	518
3534.211	461
3537.067	422
3539.921	387
3542.773	344
3545.622	294
3548.469	278
3551.315	257
3554.157	209
3556.998	186
3559.837	163
3562.673	127
3565.507	106
3568.339	80
3571.169	51
3573.996	34
3576.822	33
3579.645	-6
3582.466	-33
3585.285	-48
3588.101	-82
3590.916	-100
3593.728	-134
3596.538	-146
3599.346	-157
3602.152	-178
3604.956	-198
3607.757	-208
3610.556	-233
3613.354	-244
3616.149	-255
3618.942	-282
3621.732	-285
3624.521	-304
3627.307	-308
3630.092	-317
3632.874	-337
3635.654	-346
3638.432	-348
3641.208	-367
3643.982	-383
3646.753	-386
3649.523	-396
3652.29	-406
3655.055	-412
3657.818	-434
3660.579	-447
3663.338	-455
3666.095	-456
3668.849	-472
3671.602	-483
3674.352	-493
3677.101	-493
3679.847	-508
3682.591	-517
3685.333	-521
3688.073	-521
3690.811	-527
3693.547	-540
3696.281	-544
3699.013	-548
3701.742	-551
3704.47	-560
3707.195	-564
3709.919	-564
3712.64	-574
3715.359	-582
3718.076	-587
3720.792	-584
3723.505	-582
3726.216	-603
3728.925	-595
3731.632	-605
3734.336	-599
3737.039	-610
3739.74	-598
3742.439	-608
3745.136	-614
3747.83	-620
3750.523	-619
3753.213	-610
3755.902	-621
3758.589	-624
3761.273	-627
3763.956	-631
3766.636	-640
3769.315	-636
3771.991	-638
3774.665	-643
3777.338	-634
3780.008	-643
3782.677	-645
3785.343	-640
3788.007	-641
3790.67	-644
3793.33	-643
3795.989	-650
3798.645	-652
3801.299	-647
3803.952	-657
3806.602	-664
3809.251	-663
3811.897	-656
3814.542	-662
3817.184	-658
3819.825	-657
3822.463	-652
3825.1	-657
3827.735	-655
3830.367	-658
3832.998	-664
3835.627	-672
3838.253	-666
3840.878	-666
3843.501	-665
3846.122	-668
3848.741	-666
3851.358	-664
3853.973	-671
3856.586	-671
3859.197	-676
3861.806	-672
3864.414	-662
3867.019	-662
3869.622	-669
3872.224	-662
3874.823	-647
3877.421	-626
3880.016	-610
3882.61	-590
3885.202	-590
3887.792	-606
3890.38	-635
3892.966	-656
3895.55	-670
3898.132	-685
3900.713	-687
3903.291	-677
3905.868	-685
3908.442	-679
3911.015	-683
3913.586	-673
3916.155	-679
3918.722	-684
3921.287	-685
3923.85	-689
3926.411	-688
3928.971	-695
3931.528	-693
3934.084	-688
3936.638	-683
3939.19	-689
3941.74	-690
3944.288	-685
3946.834	-686
3949.378	-687
3951.921	-686
3954.462	-693
3957	-683
3959.537	-690
3962.072	-690
3964.606	-688
3967.137	-688
3969.667	-686
3972.194	-683
3974.72	-684
3977.244	-676
3979.766	-673
3982.286	-678
3984.805	-669
3987.321	-676
3989.836	-676
3992.349	-665
3994.86	-667
3997.369	-678
3999.877	-669
4002.382	-675
4004.886	-671
4007.388	-676
4009.888	-669
4012.386	-675
4014.883	-664
4017.377	-671
4019.87	-664
4022.361	-670
4024.85	-672
4027.338	-670
4029.823	-676
4032.307	-680
4034.789	-671
4037.269	-671
4039.747	-673
4042.224	-670
4044.699	-676
4047.172	-677
4049.643	-675
4052.112	-676
4054.58	-681
4057.046	-679
4059.51	-680
4061.972	-684
4064.432	-680
4066.891	-671
4069.348	-674
4071.803	-672
4074.256	-675
4076.708	-672
4079.158	-679
4081.606	-678
4084.052	-679
4086.497	-678
4088.939	-671
4091.38	-671
4093.819	-669
4096.257	-708
4098.693	-711
4101.127	-711
4103.559	-707
4105.989	-411
4108.418	-381
4110.845	-358
4113.27	-332
4115.694	-301
4118.115	-241
4120.535	-675
4122.954	-675
4125.37	-667
4127.785	-679
4130.198	-674
4132.609	-675
4135.019	-717
4137.427	-712
4139.833	-716
4142.237	-709
