Data from 2018-2-14_conc=5_n=8_RamanShift_02.txt Node
Date: Wed Feb 14 14:28:25 IST 2018
User: aro
Spectrometer: QEPB0276
Trigger mode: 0
Integration Time (sec): 3.000000E1
Scans to average: 1
Electric dark correction enabled: true
Nonlinearity correction enabled: false
Boxcar width: 0
XAxis mode: Raman Shifts
Number of Pixels in Spectrum: 1044
>>>>>Begin Spectral Data<<<<<
160.701	-163.1
166.742	47.9
172.777	645.9
178.805	2442.9
184.826	6689.9
190.841	14225.9
196.849	22873.9
202.85	29025.9
208.845	31166.9
214.833	30798.9
220.815	30346.9
226.789	30098.9
232.758	29952.9
238.719	29814.9
244.674	29476.9
250.623	28873.9
256.565	28395.9
262.5	27772.9
268.429	27289.9
274.351	26873.9
280.267	26520.9
286.176	26256.9
292.079	26054.9
297.975	25812.9
303.865	25595.9
309.748	25456.9
315.625	25299.9
321.495	25130.9
327.359	25069.9
333.217	25050.9
339.068	24975.9
344.912	25010.9
350.751	24964.9
356.583	24952.9
362.408	24909.9
368.227	24868.9
374.04	24899.9
379.847	24927.9
385.647	25072.9
391.44	25135.9
397.228	25279.9
403.009	25402.9
408.784	25469.9
414.553	25474.9
420.315	25529.9
426.071	25597.9
431.821	25541.9
437.565	25565.9
443.302	25535.9
449.033	25423.9
454.758	25410.9
460.477	25383.9
466.189	25392.9
471.896	25249.9
477.596	25195.9
483.29	25123.9
488.978	25133.9
494.66	25047.9
500.335	24855.9
506.005	24615.9
511.668	24330.9
517.325	24062.9
522.977	23844.9
528.622	23690.9
534.261	23660.9
539.894	23487.9
545.521	23282.9
551.141	23272.9
556.756	23155.9
562.365	23049.9
567.968	23001.9
573.565	22947.9
579.155	22820.9
584.74	22743.9
590.319	22655.9
595.892	22604.9
601.459	22500.9
607.02	22407.9
612.575	22201.9
618.124	22100.9
623.667	21971.9
629.204	21842.9
634.735	21827.9
640.261	21650.9
645.781	21623.9
651.294	21597.9
656.802	21488.9
662.304	21556.9
667.8	21439.9
673.29	21422.9
678.775	21431.9
684.254	21314.9
689.726	21222.9
695.193	21190.9
700.655	21094.9
706.11	20977.9
711.56	20904.9
717.004	20756.9
722.442	20664.9
727.874	20610.9
733.301	20539.9
738.722	20432.9
744.137	20431.9
749.547	20422.9
754.951	20462.9
760.349	20451.9
765.741	20424.9
771.128	20486.9
776.509	20500.9
781.885	20522.9
787.254	20402.9
792.618	20339.9
797.977	20205.9
803.33	20025.9
808.677	19902.9
814.019	19878.9
819.355	19703.9
824.686	19681.9
830.011	19539.9
835.33	19597.9
840.644	19620.9
845.952	19566.9
851.255	19655.9
856.552	19703.9
861.844	19619.9
867.13	19607.9
872.41	19572.9
877.686	19423.9
882.955	19266.9
888.219	19090.9
893.478	18886.9
898.731	18621.9
903.979	18479.9
909.221	18334.9
914.458	18267.9
919.69	18312.9
924.916	18303.9
930.136	18391.9
935.351	18417.9
940.561	18332.9
945.766	18401.9
950.965	18239.9
956.158	18172.9
961.347	17917.9
966.529	17702.9
971.707	17483.9
976.879	17310.9
982.046	17212.9
987.208	17094.9
992.364	17052.9
997.515	17171.9
1002.66	17360.9
1007.801	17550.9
1012.936	17691.9
1018.066	17646.9
1023.19	17664.9
1028.309	17716.9
1033.423	17635.9
1038.532	17572.9
1043.636	17393.9
1048.734	17173.9
1053.827	16953.9
1058.915	16810.9
1063.998	16628.9
1069.075	16592.9
1074.147	16599.9
1079.214	16659.9
1084.276	16738.9
1089.333	16901.9
1094.385	16991.9
1099.431	17051.9
1104.472	16990.9
1109.509	16833.9
1114.54	16690.9
1119.565	16507.9
1124.586	16305.9
1129.602	16127.9
1134.613	15942.9
1139.618	15884.9
1144.619	15884.9
1149.614	15858.9
1154.604	15902.9
1159.589	15940.9
1164.57	15997.9
1169.545	15991.9
1174.515	15954.9
1179.48	15871.9
1184.44	15768.9
1189.395	15663.9
1194.345	15581.9
1199.29	15448.9
1204.23	15481.9
1209.165	15555.9
1214.095	15579.9
1219.021	15666.9
1223.941	15788.9
1228.856	15799.9
1233.766	15915.9
1238.672	15868.9
1243.572	15929.9
1248.467	15827.9
1253.358	15595.9
1258.244	15437.9
1263.124	15226.9
1268	14905.9
1272.871	14714.9
1277.737	14622.9
1282.599	14559.9
1287.455	14585.9
1292.306	14579.9
1297.153	14603.9
1301.995	14726.9
1306.832	14789.9
1311.664	14736.9
1316.491	14710.9
1321.314	14629.9
1326.132	14412.9
1330.945	14067.9
1335.753	13737.9
1340.556	13384.9
1345.354	13078.9
1350.148	12848.9
1354.937	12744.9
1359.722	12699.9
1364.501	12768.9
1369.276	12919.9
1374.046	13094.9
1378.811	13325.9
1383.572	13512.9
1388.327	13631.9
1393.079	13509.9
1397.825	13340.9
1402.567	13179.9
1407.304	12997.9
1412.036	12894.9
1416.764	12757.9
1421.487	12637.9
1426.205	12609.9
1430.919	12499.9
1435.628	12610.9
1440.333	12545.9
1445.032	12568.9
1449.727	12647.9
1454.418	12592.9
1459.104	12484.9
1463.785	12223.9
1468.462	11962.9
1473.134	11699.9
1477.802	11488.9
1482.465	11238.9
1487.123	11092.9
1491.777	11080.9
1496.426	11130.9
1501.071	11248.9
1505.711	11405.9
1510.347	11634.9
1514.978	11885.9
1519.604	12032.9
1524.226	12159.9
1528.844	12220.9
1533.457	12217.9
1538.065	12121.9
1542.669	12109.9
1547.269	11940.9
1551.864	11867.9
1556.454	11838.9
1561.041	11842.9
1565.622	11801.9
1570.199	11825.9
1574.772	11852.9
1579.34	11955.9
1583.904	12043.9
1588.464	12055.9
1593.019	12031.9
1597.569	11973.9
1602.115	11899.9
1606.657	11836.9
1611.195	11763.9
1615.728	11669.9
1620.256	11658.9
1624.78	11576.9
1629.3	11617.9
1633.816	11648.9
1638.327	11716.9
1642.834	11767.9
1647.336	11807.9
1651.834	11832.9
1656.328	11794.9
1660.817	11770.9
1665.302	11613.9
1669.783	11429.9
1674.259	11192.9
1678.732	10852.9
1683.199	10466.9
1687.663	10110.9
1692.122	9811.9
1696.577	9648.9
1701.028	9639.9
1705.474	9724.9
1709.917	9801.9
1714.355	9842.9
1718.788	9841.9
1723.218	9697.9
1727.643	9512.9
1732.064	9335.9
1736.481	9108.9
1740.893	8884.9
1745.301	8667.9
1749.705	8453.9
1754.105	8215.9
1758.501	7942.9
1762.893	7750.9
1767.28	7579.9
1771.663	7422.9
1776.042	7210.9
1780.417	7203.9
1784.787	7167.9
1789.154	7230.9
1793.516	7333.9
1797.874	7493.9
1802.228	7652.9
1806.578	7724.9
1810.924	7729.9
1815.266	7658.9
1819.603	7541.9
1823.937	7454.9
1828.266	7317.9
1832.591	7207.9
1836.913	7103.9
1841.23	7036.9
1845.543	6999.9
1849.852	6995.9
1854.156	6938.9
1858.457	6931.9
1862.754	6866.9
1867.047	6865.9
1871.335	6861.9
1875.62	6848.9
1879.9	6850.9
1884.177	6803.9
1888.449	6733.9
1892.718	6642.9
1896.982	6598.9
1901.243	6512.9
1905.499	6488.9
1909.752	6421.9
1914	6460.9
1918.245	6431.9
1922.485	6498.9
1926.722	6597.9
1930.954	6672.9
1935.183	6757.9
1939.408	6779.9
1943.628	6809.9
1947.845	6845.9
1952.058	6865.9
1956.267	6735.9
1960.472	6699.9
1964.673	6624.9
1968.87	6504.9
1973.063	6425.9
1977.252	6322.9
1981.438	6270.9
1985.619	6193.9
1989.797	6139.9
1993.971	6081.9
1998.14	6075.9
2002.306	6079.9
2006.469	6019.9
2010.627	5973.9
2014.781	5944.9
2018.932	5926.9
2023.078	5804.9
2027.221	5755.9
2031.36	5687.9
2035.495	5602.9
2039.627	5498.9
2043.754	5450.9
2047.878	5385.9
2051.998	5375.9
2056.114	5344.9
2060.226	5325.9
2064.334	5329.9
2068.439	5378.9
2072.54	5354.9
2076.637	5460.9
2080.73	5463.9
2084.82	5464.9
2088.906	5480.9
2092.988	5489.9
2097.066	5428.9
2101.14	5436.9
2105.211	5350.9
2109.278	5363.9
2113.342	5329.9
2117.401	5319.9
2121.457	5315.9
2125.509	5252.9
2129.558	5194.9
2133.602	5219.9
2137.643	5161.9
2141.681	5166.9
2145.714	5070.9
2149.744	5087.9
2153.77	5031.9
2157.793	4966.9
2161.812	4922.9
2165.827	4862.9
2169.838	4754.9
2173.846	4685.9
2177.851	4621.9
2181.851	4558.9
2185.848	4492.9
2189.841	4454.9
2193.831	4392.9
2197.817	4390.9
2201.799	4365.9
2205.778	4338.9
2209.753	4324.9
2213.725	4303.9
2217.693	4271.9
2221.657	4273.9
2225.618	4268.9
2229.575	4229.9
2233.529	4189.9
2237.479	4171.9
2241.425	4124.9
2245.368	4073.9
2249.307	4006.9
2253.243	3929.9
2257.175	3885.9
2261.104	3831.9
2265.029	3784.9
2268.95	3749.9
2272.868	3711.9
2276.783	3661.9
2280.694	3641.9
2284.601	3590.9
2288.505	3595.9
2292.405	3561.9
2296.302	3474.9
2300.195	3440.9
2304.085	3402.9
2307.971	3394.9
2311.854	3312.9
2315.734	3245.9
2319.609	3220.9
2323.482	3158.9
2327.351	3137.9
2331.216	3115.9
2335.078	3116.9
2338.937	3080.9
2342.792	3058.9
2346.643	3052.9
2350.492	3044.9
2354.336	3062.9
2358.178	3056.9
2362.015	3057.9
2365.85	3069.9
2369.681	3063.9
2373.508	3075.9
2377.333	3080.9
2381.153	3033.9
2384.971	3075.9
2388.785	3011.9
2392.595	2985.9
2396.402	2961.9
2400.206	2968.9
2404.007	2908.9
2407.804	2885.9
2411.597	2858.9
2415.388	2855.9
2419.174	2827.9
2422.958	2825.9
2426.738	2786.9
2430.515	2772.9
2434.289	2758.9
2438.059	2723.9
2441.825	2719.9
2445.589	2687.9
2449.349	2627.9
2453.106	2605.9
2456.859	2567.9
2460.61	2537.9
2464.356	2524.9
2468.1	2490.9
2471.84	2460.9
2475.577	2457.9
2479.311	2438.9
2483.041	2427.9
2486.768	2400.9
2490.492	2402.9
2494.213	2378.9
2497.93	2352.9
2501.644	2360.9
2505.355	2328.9
2509.062	2343.9
2512.766	2306.9
2516.467	2330.9
2520.165	2304.9
2523.859	2271.9
2527.551	2277.9
2531.239	2246.9
2534.923	2226.9
2538.605	2235.9
2542.283	2217.9
2545.958	2204.9
2549.63	2212.9
2553.299	2208.9
2556.964	2196.9
2560.626	2205.9
2564.285	2184.9
2567.941	2169.9
2571.594	2172.9
2575.243	2147.9
2578.89	2133.9
2582.533	2132.9
2586.173	2102.9
2589.809	2102.9
2593.443	2064.9
2597.073	2039.9
2600.701	2035.9
2604.325	1995.9
2607.946	2016.9
2611.564	1983.9
2615.178	1974.9
2618.79	1973.9
2622.398	1942.9
2626.004	1927.9
2629.606	1897.9
2633.205	1902.9
2636.801	1836.9
2640.394	1833.9
2643.983	1805.9
2647.57	1759.9
2651.153	1752.9
2654.734	1715.9
2658.311	1708.9
2661.885	1672.9
2665.456	1647.9
2669.025	1618.9
2672.589	1597.9
2676.151	1572.9
2679.71	1565.9
2683.266	1563.9
2686.819	1499.9
2690.368	1482.9
2693.915	1470.9
2697.458	1429.9
2700.999	1396.9
2704.536	1342.9
2708.071	1333.9
2711.602	1295.9
2715.13	1280.9
2718.656	1243.9
2722.178	1247.9
2725.697	1203.9
2729.214	1226.9
2732.727	1189.9
2736.237	1183.9
2739.744	1168.9
2743.249	1163.9
2746.75	1178.9
2750.248	1192.9
2753.743	1196.9
2757.236	1227.9
2760.725	1217.9
2764.211	1230.9
2767.695	1245.9
2771.175	1232.9
2774.652	1223.9
2778.127	1229.9
2781.598	1222.9
2785.067	1201.9
2788.532	1208.9
2791.995	1212.9
2795.455	1196.9
2798.911	1200.9
2802.365	1218.9
2805.816	1203.9
2809.264	1192.9
2812.709	1202.9
2816.151	1191.9
2819.59	1206.9
2823.026	1205.9
2826.46	1197.9
2829.89	1198.9
2833.318	1221.9
2836.742	1227.9
2840.164	1228.9
2843.583	1221.9
2846.999	1246.9
2850.412	1268.9
2853.822	1244.9
2857.229	1260.9
2860.634	1303.9
2864.035	1309.9
2867.434	1331.9
2870.83	1356.9
2874.223	1374.9
2877.613	1415.9
2881	1412.9
2884.385	1429.9
2887.766	1415.9
2891.145	1413.9
2894.521	1398.9
2897.894	1422.9
2901.264	1423.9
2904.631	1406.9
2907.996	1438.9
2911.358	1439.9
2914.717	1461.9
2918.073	1449.9
2921.426	1483.9
2924.777	1482.9
2928.124	1497.9
2931.469	1565.9
2934.811	1559.9
2938.15	1572.9
2941.487	1566.9
2944.821	1595.9
2948.152	1581.9
2951.48	1573.9
2954.805	1552.9
2958.128	1539.9
2961.447	1540.9
2964.765	1532.9
2968.079	1545.9
2971.39	1552.9
2974.699	1561.9
2978.005	1594.9
2981.308	1633.9
2984.609	1664.9
2987.907	1685.9
2991.202	1732.9
2994.494	1770.9
2997.784	1786.9
3001.07	1843.9
3004.355	1846.9
3007.636	1875.9
3010.915	1884.9
3014.191	1908.9
3017.464	1913.9
3020.734	1936.9
3024.002	1968.9
3027.267	1937.9
3030.53	1933.9
3033.789	1990.9
3037.046	2010.9
3040.301	2038.9
3043.552	2068.9
3046.801	2117.9
3050.048	2146.9
3053.291	2200.9
3056.532	2282.9
3059.771	2332.9
3063.006	2422.9
3066.239	2477.9
3069.469	2553.9
3072.697	2618.9
3075.922	2691.9
3079.144	2731.9
3082.364	2805.9
3085.581	2873.9
3088.795	2919.9
3092.007	2999.9
3095.216	3055.9
3098.423	3114.9
3101.627	3173.9
3104.828	3270.9
3108.026	3310.9
3111.222	3374.9
3114.416	3461.9
3117.607	3558.9
3120.795	3652.9
3123.98	3719.9
3127.163	3803.9
3130.344	3881.9
3133.521	3986.9
3136.696	4071.9
3139.869	4169.9
3143.039	4216.9
3146.206	4296.9
3149.371	4342.9
3152.533	4382.9
3155.693	4417.9
3158.85	4440.9
3162.005	4459.9
3165.157	4454.9
3168.306	4471.9
3171.453	4510.9
3174.597	4496.9
3177.739	4522.9
3180.878	4502.9
3184.014	4514.9
3187.149	4516.9
3190.28	4518.9
3193.409	4530.9
3196.536	4522.9
3199.659	4543.9
3202.781	4545.9
3205.9	4561.9
3209.016	4555.9
3212.13	4545.9
3215.241	4486.9
3218.35	4453.9
3221.456	4445.9
3224.56	4353.9
3227.661	4331.9
3230.76	4256.9
3233.856	4223.9
3236.95	4186.9
3240.041	4176.9
3243.13	4142.9
3246.216	4143.9
3249.3	4109.9
3252.382	4090.9
3255.46	4072.9
3258.537	4040.9
3261.611	4026.9
3264.682	4028.9
3267.751	4048.9
3270.818	4028.9
3273.882	4039.9
3276.943	3999.9
3280.002	3981.9
3283.059	3941.9
3286.113	3875.9
3289.165	3818.9
3292.214	3785.9
3295.261	3700.9
3298.306	3680.9
3301.348	3597.9
3304.387	3533.9
3307.425	3474.9
3310.459	3436.9
3313.492	3400.9
3316.521	3328.9
3319.549	3326.9
3322.574	3299.9
3325.597	3239.9
3328.617	3192.9
3331.635	3171.9
3334.65	3171.9
3337.663	3167.9
3340.674	3125.9
3343.682	3123.9
3346.688	3128.9
3349.691	3116.9
3352.692	3102.9
3355.691	3054.9
3358.687	3031.9
3361.681	3014.9
3364.673	2960.9
3367.662	2912.9
3370.649	2864.9
3373.633	2824.9
3376.615	2815.9
3379.595	2735.9
3382.572	2753.9
3385.547	2688.9
3388.52	2626.9
3391.49	2623.9
3394.458	2579.9
3397.424	2541.9
3400.387	2480.9
3403.348	2462.9
3406.307	2449.9
3409.263	2414.9
3412.217	2381.9
3415.168	2336.9
3418.118	2332.9
3421.065	2300.9
3424.009	2260.9
3426.951	2239.9
3429.891	2199.9
3432.829	2134.9
3435.764	2091.9
3438.697	2034.9
3441.628	2021.9
3444.557	1931.9
3447.483	1863.9
3450.407	1816.9
3453.328	1760.9
3456.247	1700.9
3459.164	1661.9
3462.079	1562.9
3464.991	1515.9
3467.902	1472.9
3470.809	1418.9
3473.715	1348.9
3476.618	1323.9
3479.519	1255.9
3482.418	1222.9
3485.315	1194.9
3488.209	1149.9
3491.101	1091.9
3493.99	1069.9
3496.878	1032.9
3499.763	961.9
3502.646	944.9
3505.527	899.9
3508.405	855.9
3511.281	798.9
3514.155	778.9
3517.027	715.9
3519.897	680.9
3522.764	618.9
3525.629	582.9
3528.492	535.9
3531.352	485.9
3534.211	443.9
3537.067	409.9
3539.921	385.9
3542.773	330.9
3545.622	294.9
3548.469	266.9
3551.315	239.9
3554.157	204.9
3556.998	155.9
3559.837	131.9
3562.673	104.9
3565.507	79.9
3568.339	55.9
3571.169	32.9
3573.996	12.9
3576.822	-11.1
3579.645	-35.1
3582.466	-63.1
3585.285	-75.1
3588.101	-99.1
3590.916	-132.1
3593.728	-140.1
3596.538	-166.1
3599.346	-193.1
3602.152	-205.1
3604.956	-211.1
3607.757	-249.1
3610.556	-253.1
3613.354	-279.1
3616.149	-290.1
3618.942	-295.1
3621.732	-313.1
3624.521	-329.1
3627.307	-343.1
3630.092	-354.1
3632.874	-366.1
3635.654	-383.1
3638.432	-383.1
3641.208	-391.1
3643.982	-404.1
3646.753	-409.1
3649.523	-436.1
3652.29	-437.1
3655.055	-447.1
3657.818	-457.1
3660.579	-473.1
3663.338	-492.1
3666.095	-496.1
3668.849	-510.1
3671.602	-518.1
3674.352	-522.1
3677.101	-532.1
3679.847	-543.1
3682.591	-542.1
3685.333	-545.1
3688.073	-556.1
3690.811	-562.1
3693.547	-568.1
3696.281	-572.1
3699.013	-575.1
3701.742	-584.1
3704.47	-581.1
3707.195	-602.1
3709.919	-595.1
3712.64	-606.1
3715.359	-611.1
3718.076	-612.1
3720.792	-614.1
3723.505	-617.1
3726.216	-625.1
3728.925	-622.1
3731.632	-629.1
3734.336	-629.1
3737.039	-635.1
3739.74	-639.1
3742.439	-645.1
3745.136	-644.1
3747.83	-654.1
3750.523	-646.1
3753.213	-649.1
3755.902	-657.1
3758.589	-656.1
3761.273	-652.1
3763.956	-661.1
3766.636	-661.1
3769.315	-665.1
3771.991	-666.1
3774.665	-671.1
3777.338	-668.1
3780.008	-673.1
3782.677	-670.1
3785.343	-670.1
3788.007	-670.1
3790.67	-675.1
3793.33	-679.1
3795.989	-680.1
3798.645	-674.1
3801.299	-680.1
3803.952	-689.1
3806.602	-693.1
3809.251	-696.1
3811.897	-687.1
3814.542	-691.1
3817.184	-689.1
3819.825	-690.1
3822.463	-686.1
3825.1	-694.1
3827.735	-686.1
3830.367	-683.1
3832.998	-697.1
3835.627	-696.1
3838.253	-701.1
3840.878	-698.1
3843.501	-699.1
3846.122	-692.1
3848.741	-693.1
3851.358	-699.1
3853.973	-694.1
3856.586	-698.1
3859.197	-700.1
3861.806	-706.1
3864.414	-703.1
3867.019	-700.1
3869.622	-704.1
3872.224	-698.1
3874.823	-689.1
3877.421	-669.1
3880.016	-646.1
3882.61	-624.1
3885.202	-616.1
3887.792	-639.1
3890.38	-668.1
3892.966	-693.1
3895.55	-700.1
3898.132	-717.1
3900.713	-717.1
3903.291	-712.1
3905.868	-715.1
3908.442	-716.1
3911.015	-712.1
3913.586	-710.1
3916.155	-711.1
3918.722	-716.1
3921.287	-716.1
3923.85	-718.1
3926.411	-719.1
3928.971	-727.1
3931.528	-720.1
3934.084	-719.1
3936.638	-718.1
3939.19	-721.1
3941.74	-720.1
3944.288	-724.1
3946.834	-719.1
3949.378	-722.1
3951.921	-722.1
3954.462	-725.1
3957	-720.1
3959.537	-715.1
3962.072	-716.1
3964.606	-725.1
3967.137	-717.1
3969.667	-720.1
3972.194	-711.1
3974.72	-715.1
3977.244	-709.1
3979.766	-705.1
3982.286	-706.1
3984.805	-705.1
3987.321	-702.1
3989.836	-708.1
3992.349	-698.1
3994.86	-700.1
3997.369	-713.1
3999.877	-697.1
4002.382	-701.1
4004.886	-697.1
4007.388	-702.1
4009.888	-699.1
4012.386	-707.1
4014.883	-706.1
4017.377	-706.1
4019.87	-702.1
4022.361	-706.1
4024.85	-705.1
4027.338	-705.1
4029.823	-709.1
4032.307	-712.1
4034.789	-703.1
4037.269	-704.1
4039.747	-707.1
4042.224	-707.1
4044.699	-707.1
4047.172	-704.1
4049.643	-701.1
4052.112	-715.1
4054.58	-707.1
4057.046	-708.1
4059.51	-706.1
4061.972	-708.1
4064.432	-709.1
4066.891	-705.1
4069.348	-707.1
4071.803	-707.1
4074.256	-704.1
4076.708	-707.1
4079.158	-702.1
4081.606	-706.1
4084.052	-709.1
4086.497	-707.1
4088.939	-706.1
4091.38	-707.1
4093.819	-702.1
4096.257	-744.1
4098.693	-747.1
4101.127	-747.1
4103.559	-744.1
4105.989	-430.1
4108.418	-397.1
4110.845	-387.1
4113.27	-346.1
4115.694	-301.1
4118.115	-253.1
4120.535	-704.1
4122.954	-707.1
4125.37	-696.1
4127.785	-707.1
4130.198	-705.1
4132.609	-710.1
4135.019	-744.1
4137.427	-742.1
4139.833	-747.1
4142.237	-740.1
