Data from 2018-2-14_conc=2_n=8_RamanShift_03.txt Node
Date: Wed Feb 14 11:26:26 IST 2018
User: aro
Spectrometer: QEPB0276
Trigger mode: 0
Integration Time (sec): 3.000000E1
Scans to average: 1
Electric dark correction enabled: true
Nonlinearity correction enabled: false
Boxcar width: 0
XAxis mode: Raman Shifts
Number of Pixels in Spectrum: 1044
>>>>>Begin Spectral Data<<<<<
160.701	-138.6
166.742	43.4
172.777	573.4
178.805	2182.4
184.826	6009.4
190.841	12545.4
196.849	20197.4
202.85	25549.4
208.845	27308.4
214.833	27057.4
220.815	26692.4
226.789	26371.4
232.758	26420.4
238.719	26124.4
244.674	25805.4
250.623	25391.4
256.565	24949.4
262.5	24413.4
268.429	23964.4
274.351	23613.4
280.267	23369.4
286.176	23147.4
292.079	22959.4
297.975	22775.4
303.865	22560.4
309.748	22451.4
315.625	22247.4
321.495	22137.4
327.359	22097.4
333.217	22098.4
339.068	22066.4
344.912	22048.4
350.751	22005.4
356.583	22015.4
362.408	21987.4
368.227	21962.4
374.04	21929.4
379.847	22060.4
385.647	22189.4
391.44	22211.4
397.228	22289.4
403.009	22362.4
408.784	22379.4
414.553	22568.4
420.315	22584.4
426.071	22620.4
431.821	22586.4
437.565	22607.4
443.302	22553.4
449.033	22492.4
454.758	22440.4
460.477	22448.4
466.189	22336.4
471.896	22378.4
477.596	22299.4
483.29	22182.4
488.978	22189.4
494.66	22079.4
500.335	21955.4
506.005	21726.4
511.668	21492.4
517.325	21287.4
522.977	21072.4
528.622	20851.4
534.261	20778.4
539.894	20640.4
545.521	20582.4
551.141	20509.4
556.756	20459.4
562.365	20386.4
567.968	20289.4
573.565	20237.4
579.155	20195.4
584.74	20045.4
590.319	19990.4
595.892	19921.4
601.459	19880.4
607.02	19764.4
612.575	19641.4
618.124	19581.4
623.667	19427.4
629.204	19375.4
634.735	19260.4
640.261	19102.4
645.781	19108.4
651.294	19095.4
656.802	18994.4
662.304	18989.4
667.8	19001.4
673.29	18970.4
678.775	18892.4
684.254	18783.4
689.726	18767.4
695.193	18720.4
700.655	18671.4
706.11	18563.4
711.56	18468.4
717.004	18347.4
722.442	18324.4
727.874	18186.4
733.301	18178.4
738.722	18077.4
744.137	18071.4
749.547	18057.4
754.951	18027.4
760.349	18038.4
765.741	18078.4
771.128	18104.4
776.509	18074.4
781.885	18108.4
787.254	18018.4
792.618	17980.4
797.977	17846.4
803.33	17774.4
808.677	17637.4
814.019	17502.4
819.355	17430.4
824.686	17397.4
830.011	17351.4
835.33	17359.4
840.644	17336.4
845.952	17405.4
851.255	17365.4
856.552	17399.4
861.844	17478.4
867.13	17354.4
872.41	17288.4
877.686	17242.4
882.955	17092.4
888.219	16940.4
893.478	16811.4
898.731	16539.4
903.979	16368.4
909.221	16288.4
914.458	16200.4
919.69	16196.4
924.916	16274.4
930.136	16284.4
935.351	16336.4
940.561	16358.4
945.766	16357.4
950.965	16172.4
956.158	16086.4
961.347	15922.4
966.529	15784.4
971.707	15552.4
976.879	15367.4
982.046	15201.4
987.208	15204.4
992.364	15185.4
997.515	15337.4
1002.66	15450.4
1007.801	15620.4
1012.936	15705.4
1018.066	15695.4
1023.19	15740.4
1028.309	15728.4
1033.423	15676.4
1038.532	15583.4
1043.636	15444.4
1048.734	15238.4
1053.827	15075.4
1058.915	14921.4
1063.998	14788.4
1069.075	14744.4
1074.147	14785.4
1079.214	14834.4
1084.276	14932.4
1089.333	15018.4
1094.385	15064.4
1099.431	15136.4
1104.472	15146.4
1109.509	15035.4
1114.54	14864.4
1119.565	14667.4
1124.586	14494.4
1129.602	14372.4
1134.613	14250.4
1139.618	14190.4
1144.619	14107.4
1149.614	14137.4
1154.604	14163.4
1159.589	14216.4
1164.57	14235.4
1169.545	14230.4
1174.515	14266.4
1179.48	14197.4
1184.44	14087.4
1189.395	13952.4
1194.345	13884.4
1199.29	13761.4
1204.23	13796.4
1209.165	13871.4
1214.095	13956.4
1219.021	13984.4
1223.941	14092.4
1228.856	14147.4
1233.766	14157.4
1238.672	14206.4
1243.572	14143.4
1248.467	14120.4
1253.358	13973.4
1258.244	13702.4
1263.124	13563.4
1268	13386.4
1272.871	13178.4
1277.737	13065.4
1282.599	12977.4
1287.455	12986.4
1292.306	13038.4
1297.153	13112.4
1301.995	13156.4
1306.832	13187.4
1311.664	13186.4
1316.491	13141.4
1321.314	13022.4
1326.132	12825.4
1330.945	12546.4
1335.753	12238.4
1340.556	11907.4
1345.354	11675.4
1350.148	11482.4
1354.937	11401.4
1359.722	11435.4
1364.501	11530.4
1369.276	11668.4
1374.046	11860.4
1378.811	12031.4
1383.572	12182.4
1388.327	12223.4
1393.079	12150.4
1397.825	12026.4
1402.567	11788.4
1407.304	11660.4
1412.036	11500.4
1416.764	11424.4
1421.487	11308.4
1426.205	11293.4
1430.919	11249.4
1435.628	11216.4
1440.333	11185.4
1445.032	11250.4
1449.727	11305.4
1454.418	11244.4
1459.104	11139.4
1463.785	10890.4
1468.462	10735.4
1473.134	10491.4
1477.802	10280.4
1482.465	10141.4
1487.123	10012.4
1491.777	10008.4
1496.426	10108.4
1501.071	10221.4
1505.711	10396.4
1510.347	10575.4
1514.978	10778.4
1519.604	10908.4
1524.226	11048.4
1528.844	11035.4
1533.457	11021.4
1538.065	10953.4
1542.669	10878.4
1547.269	10762.4
1551.864	10727.4
1556.454	10669.4
1561.041	10652.4
1565.622	10616.4
1570.199	10623.4
1574.772	10732.4
1579.34	10732.4
1583.904	10800.4
1588.464	10823.4
1593.019	10765.4
1597.569	10742.4
1602.115	10670.4
1606.657	10641.4
1611.195	10496.4
1615.728	10468.4
1620.256	10408.4
1624.78	10391.4
1629.3	10409.4
1633.816	10457.4
1638.327	10494.4
1642.834	10565.4
1647.336	10608.4
1651.834	10633.4
1656.328	10594.4
1660.817	10586.4
1665.302	10418.4
1669.783	10301.4
1674.259	10057.4
1678.732	9751.4
1683.199	9479.4
1687.663	9138.4
1692.122	8877.4
1696.577	8744.4
1701.028	8758.4
1705.474	8857.4
1709.917	8978.4
1714.355	9030.4
1718.788	8965.4
1723.218	8811.4
1727.643	8667.4
1732.064	8459.4
1736.481	8318.4
1740.893	8081.4
1745.301	7859.4
1749.705	7707.4
1754.105	7463.4
1758.501	7241.4
1762.893	7041.4
1767.28	6857.4
1771.663	6678.4
1776.042	6594.4
1780.417	6530.4
1784.787	6532.4
1789.154	6566.4
1793.516	6743.4
1797.874	6879.4
1802.228	7026.4
1806.578	7123.4
1810.924	7111.4
1815.266	7066.4
1819.603	6904.4
1823.937	6820.4
1828.266	6691.4
1832.591	6603.4
1836.913	6471.4
1841.23	6426.4
1845.543	6371.4
1849.852	6360.4
1854.156	6289.4
1858.457	6325.4
1862.754	6312.4
1867.047	6319.4
1871.335	6273.4
1875.62	6273.4
1879.9	6253.4
1884.177	6220.4
1888.449	6132.4
1892.718	6064.4
1896.982	6029.4
1901.243	5978.4
1905.499	5919.4
1909.752	5920.4
1914	5914.4
1918.245	5963.4
1922.485	5963.4
1926.722	6084.4
1930.954	6086.4
1935.183	6243.4
1939.408	6246.4
1943.628	6314.4
1947.845	6335.4
1952.058	6306.4
1956.267	6248.4
1960.472	6198.4
1964.673	6061.4
1968.87	5980.4
1973.063	5882.4
1977.252	5803.4
1981.438	5740.4
1985.619	5695.4
1989.797	5617.4
1993.971	5575.4
1998.14	5568.4
2002.306	5549.4
2006.469	5491.4
2010.627	5486.4
2014.781	5444.4
2018.932	5374.4
2023.078	5353.4
2027.221	5259.4
2031.36	5177.4
2035.495	5126.4
2039.627	5003.4
2043.754	4982.4
2047.878	4898.4
2051.998	4867.4
2056.114	4858.4
2060.226	4839.4
2064.334	4876.4
2068.439	4884.4
2072.54	4903.4
2076.637	4935.4
2080.73	4981.4
2084.82	5003.4
2088.906	5023.4
2092.988	5044.4
2097.066	5004.4
2101.14	5023.4
2105.211	4967.4
2109.278	4961.4
2113.342	4900.4
2117.401	4888.4
2121.457	4853.4
2125.509	4836.4
2129.558	4795.4
2133.602	4754.4
2137.643	4739.4
2141.681	4707.4
2145.714	4684.4
2149.744	4633.4
2153.77	4613.4
2157.793	4573.4
2161.812	4524.4
2165.827	4453.4
2169.838	4344.4
2173.846	4317.4
2177.851	4241.4
2181.851	4147.4
2185.848	4131.4
2189.841	4062.4
2193.831	4026.4
2197.817	3986.4
2201.799	3980.4
2205.778	3939.4
2209.753	3917.4
2213.725	3936.4
2217.693	3889.4
2221.657	3913.4
2225.618	3911.4
2229.575	3884.4
2233.529	3842.4
2237.479	3815.4
2241.425	3782.4
2245.368	3700.4
2249.307	3638.4
2253.243	3588.4
2257.175	3566.4
2261.104	3487.4
2265.029	3459.4
2268.95	3455.4
2272.868	3404.4
2276.783	3365.4
2280.694	3318.4
2284.601	3291.4
2288.505	3267.4
2292.405	3221.4
2296.302	3202.4
2300.195	3144.4
2304.085	3106.4
2307.971	3114.4
2311.854	3046.4
2315.734	3009.4
2319.609	2969.4
2323.482	2903.4
2327.351	2898.4
2331.216	2855.4
2335.078	2848.4
2338.937	2813.4
2342.792	2807.4
2346.643	2813.4
2350.492	2789.4
2354.336	2802.4
2358.178	2805.4
2362.015	2835.4
2365.85	2840.4
2369.681	2839.4
2373.508	2827.4
2377.333	2818.4
2381.153	2786.4
2384.971	2773.4
2388.785	2739.4
2392.595	2713.4
2396.402	2718.4
2400.206	2681.4
2404.007	2646.4
2407.804	2666.4
2411.597	2620.4
2415.388	2615.4
2419.174	2623.4
2422.958	2581.4
2426.738	2564.4
2430.515	2544.4
2434.289	2528.4
2438.059	2518.4
2441.825	2473.4
2445.589	2469.4
2449.349	2430.4
2453.106	2407.4
2456.859	2362.4
2460.61	2335.4
2464.356	2320.4
2468.1	2304.4
2471.84	2293.4
2475.577	2239.4
2479.311	2228.4
2483.041	2216.4
2486.768	2220.4
2490.492	2201.4
2494.213	2212.4
2497.93	2199.4
2501.644	2184.4
2505.355	2176.4
2509.062	2164.4
2512.766	2131.4
2516.467	2133.4
2520.165	2109.4
2523.859	2085.4
2527.551	2110.4
2531.239	2076.4
2534.923	2093.4
2538.605	2068.4
2542.283	2076.4
2545.958	2038.4
2549.63	2077.4
2553.299	2051.4
2556.964	2041.4
2560.626	2032.4
2564.285	2055.4
2567.941	2024.4
2571.594	2012.4
2575.243	2002.4
2578.89	1980.4
2582.533	1979.4
2586.173	1945.4
2589.809	1937.4
2593.443	1925.4
2597.073	1923.4
2600.701	1881.4
2604.325	1854.4
2607.946	1849.4
2611.564	1854.4
2615.178	1841.4
2618.79	1809.4
2622.398	1809.4
2626.004	1782.4
2629.606	1748.4
2633.205	1739.4
2636.801	1704.4
2640.394	1683.4
2643.983	1642.4
2647.57	1643.4
2651.153	1599.4
2654.734	1563.4
2658.311	1558.4
2661.885	1531.4
2665.456	1517.4
2669.025	1491.4
2672.589	1487.4
2676.151	1482.4
2679.71	1464.4
2683.266	1427.4
2686.819	1393.4
2690.368	1350.4
2693.915	1337.4
2697.458	1300.4
2700.999	1287.4
2704.536	1266.4
2708.071	1233.4
2711.602	1200.4
2715.13	1153.4
2718.656	1153.4
2722.178	1119.4
2725.697	1118.4
2729.214	1102.4
2732.727	1084.4
2736.237	1066.4
2739.744	1075.4
2743.249	1087.4
2746.75	1099.4
2750.248	1112.4
2753.743	1120.4
2757.236	1126.4
2760.725	1134.4
2764.211	1143.4
2767.695	1148.4
2771.175	1142.4
2774.652	1153.4
2778.127	1143.4
2781.598	1134.4
2785.067	1141.4
2788.532	1114.4
2791.995	1126.4
2795.455	1118.4
2798.911	1107.4
2802.365	1110.4
2805.816	1099.4
2809.264	1120.4
2812.709	1127.4
2816.151	1099.4
2819.59	1108.4
2823.026	1121.4
2826.46	1110.4
2829.89	1128.4
2833.318	1116.4
2836.742	1117.4
2840.164	1137.4
2843.583	1132.4
2846.999	1143.4
2850.412	1134.4
2853.822	1158.4
2857.229	1173.4
2860.634	1185.4
2864.035	1207.4
2867.434	1213.4
2870.83	1242.4
2874.223	1249.4
2877.613	1290.4
2881	1289.4
2884.385	1292.4
2887.766	1297.4
2891.145	1293.4
2894.521	1275.4
2897.894	1274.4
2901.264	1256.4
2904.631	1276.4
2907.996	1265.4
2911.358	1281.4
2914.717	1312.4
2918.073	1303.4
2921.426	1309.4
2924.777	1320.4
2928.124	1346.4
2931.469	1371.4
2934.811	1370.4
2938.15	1391.4
2941.487	1401.4
2944.821	1416.4
2948.152	1411.4
2951.48	1398.4
2954.805	1399.4
2958.128	1356.4
2961.447	1364.4
2964.765	1367.4
2968.079	1366.4
2971.39	1361.4
2974.699	1360.4
2978.005	1403.4
2981.308	1443.4
2984.609	1444.4
2987.907	1468.4
2991.202	1480.4
2994.494	1543.4
2997.784	1567.4
3001.07	1619.4
3004.355	1618.4
3007.636	1644.4
3010.915	1663.4
3014.191	1672.4
3017.464	1682.4
3020.734	1683.4
3024.002	1700.4
3027.267	1715.4
3030.53	1695.4
3033.789	1733.4
3037.046	1743.4
3040.301	1782.4
3043.552	1837.4
3046.801	1842.4
3050.048	1871.4
3053.291	1919.4
3056.532	1980.4
3059.771	2043.4
3063.006	2099.4
3066.239	2158.4
3069.469	2233.4
3072.697	2256.4
3075.922	2316.4
3079.144	2358.4
3082.364	2427.4
3085.581	2478.4
3088.795	2549.4
3092.007	2572.4
3095.216	2651.4
3098.423	2678.4
3101.627	2772.4
3104.828	2811.4
3108.026	2880.4
3111.222	2948.4
3114.416	3008.4
3117.607	3053.4
3120.795	3131.4
3123.98	3224.4
3127.163	3302.4
3130.344	3365.4
3133.521	3440.4
3136.696	3519.4
3139.869	3583.4
3143.039	3662.4
3146.206	3708.4
3149.371	3740.4
3152.533	3788.4
3155.693	3810.4
3158.85	3815.4
3162.005	3880.4
3165.157	3873.4
3168.306	3862.4
3171.453	3891.4
3174.597	3885.4
3177.739	3893.4
3180.878	3874.4
3184.014	3912.4
3187.149	3898.4
3190.28	3896.4
3193.409	3873.4
3196.536	3906.4
3199.659	3915.4
3202.781	3936.4
3205.9	3924.4
3209.016	3928.4
3212.13	3886.4
3215.241	3878.4
3218.35	3807.4
3221.456	3795.4
3224.56	3757.4
3227.661	3717.4
3230.76	3678.4
3233.856	3660.4
3236.95	3582.4
3240.041	3585.4
3243.13	3535.4
3246.216	3544.4
3249.3	3525.4
3252.382	3502.4
3255.46	3498.4
3258.537	3479.4
3261.611	3494.4
3264.682	3486.4
3267.751	3448.4
3270.818	3463.4
3273.882	3486.4
3276.943	3441.4
3280.002	3422.4
3283.059	3387.4
3286.113	3324.4
3289.165	3300.4
3292.214	3223.4
3295.261	3183.4
3298.306	3139.4
3301.348	3063.4
3304.387	3046.4
3307.425	2989.4
3310.459	2954.4
3313.492	2904.4
3316.521	2852.4
3319.549	2847.4
3322.574	2815.4
3325.597	2753.4
3328.617	2740.4
3331.635	2723.4
3334.65	2720.4
3337.663	2700.4
3340.674	2697.4
3343.682	2648.4
3346.688	2657.4
3349.691	2654.4
3352.692	2630.4
3355.691	2622.4
3358.687	2599.4
3361.681	2579.4
3364.673	2522.4
3367.662	2489.4
3370.649	2446.4
3373.633	2421.4
3376.615	2385.4
3379.595	2322.4
3382.572	2329.4
3385.547	2297.4
3388.52	2255.4
3391.49	2221.4
3394.458	2186.4
3397.424	2155.4
3400.387	2141.4
3403.348	2088.4
3406.307	2071.4
3409.263	2036.4
3412.217	2011.4
3415.168	1990.4
3418.118	1981.4
3421.065	1953.4
3424.009	1934.4
3426.951	1885.4
3429.891	1852.4
3432.829	1834.4
3435.764	1765.4
3438.697	1730.4
3441.628	1689.4
3444.557	1665.4
3447.483	1591.4
3450.407	1536.4
3453.328	1480.4
3456.247	1430.4
3459.164	1375.4
3462.079	1331.4
3464.991	1280.4
3467.902	1256.4
3470.809	1188.4
3473.715	1163.4
3476.618	1114.4
3479.519	1079.4
3482.418	1043.4
3485.315	1004.4
3488.209	961.4
3491.101	921.4
3493.99	896.4
3496.878	860.4
3499.763	837.4
3502.646	790.4
3505.527	750.4
3508.405	714.4
3511.281	676.4
3514.155	634.4
3517.027	593.4
3519.897	547.4
3522.764	537.4
3525.629	480.4
3528.492	459.4
3531.352	410.4
3534.211	365.4
3537.067	329.4
3539.921	300.4
3542.773	257.4
3545.622	224.4
3548.469	196.4
3551.315	182.4
3554.157	152.4
3556.998	117.4
3559.837	107.4
3562.673	78.4
3565.507	46.4
3568.339	35.4
3571.169	10.4
3573.996	1.4
3576.822	-19.6
3579.645	-55.6
3582.466	-58.6
3585.285	-96.6
3588.101	-98.6
3590.916	-120.6
3593.728	-150.6
3596.538	-164.6
3599.346	-178.6
3602.152	-200.6
3604.956	-201.6
3607.757	-234.6
3610.556	-239.6
3613.354	-252.6
3616.149	-265.6
3618.942	-279.6
3621.732	-286.6
3624.521	-306.6
3627.307	-311.6
3630.092	-321.6
3632.874	-330.6
3635.654	-338.6
3638.432	-345.6
3641.208	-356.6
3643.982	-376.6
3646.753	-379.6
3649.523	-382.6
3652.29	-391.6
3655.055	-399.6
3657.818	-413.6
3660.579	-429.6
3663.338	-441.6
3666.095	-447.6
3668.849	-450.6
3671.602	-456.6
3674.352	-460.6
3677.101	-468.6
3679.847	-472.6
3682.591	-487.6
3685.333	-492.6
3688.073	-497.6
3690.811	-499.6
3693.547	-510.6
3696.281	-511.6
3699.013	-514.6
3701.742	-522.6
3704.47	-524.6
3707.195	-531.6
3709.919	-534.6
3712.64	-536.6
3715.359	-540.6
3718.076	-548.6
3720.792	-543.6
3723.505	-543.6
3726.216	-560.6
3728.925	-548.6
3731.632	-556.6
3734.336	-559.6
3737.039	-565.6
3739.74	-561.6
3742.439	-567.6
3745.136	-575.6
3747.83	-578.6
3750.523	-574.6
3753.213	-564.6
3755.902	-578.6
3758.589	-576.6
3761.273	-581.6
3763.956	-584.6
3766.636	-585.6
3769.315	-593.6
3771.991	-590.6
3774.665	-596.6
3777.338	-594.6
3780.008	-595.6
3782.677	-604.6
3785.343	-593.6
3788.007	-595.6
3790.67	-601.6
3793.33	-605.6
3795.989	-603.6
3798.645	-602.6
3801.299	-599.6
3803.952	-609.6
3806.602	-610.6
3809.251	-611.6
3811.897	-608.6
3814.542	-607.6
3817.184	-611.6
3819.825	-610.6
3822.463	-607.6
3825.1	-616.6
3827.735	-613.6
3830.367	-612.6
3832.998	-618.6
3835.627	-621.6
3838.253	-622.6
3840.878	-626.6
3843.501	-618.6
3846.122	-612.6
3848.741	-623.6
3851.358	-619.6
3853.973	-618.6
3856.586	-625.6
3859.197	-625.6
3861.806	-624.6
3864.414	-623.6
3867.019	-623.6
3869.622	-622.6
3872.224	-615.6
3874.823	-607.6
3877.421	-595.6
3880.016	-577.6
3882.61	-557.6
3885.202	-548.6
3887.792	-562.6
3890.38	-587.6
3892.966	-611.6
3895.55	-620.6
3898.132	-633.6
3900.713	-630.6
3903.291	-623.6
3905.868	-633.6
3908.442	-632.6
3911.015	-635.6
3913.586	-632.6
3916.155	-630.6
3918.722	-644.6
3921.287	-633.6
3923.85	-643.6
3926.411	-637.6
3928.971	-644.6
3931.528	-637.6
3934.084	-639.6
3936.638	-636.6
3939.19	-638.6
3941.74	-636.6
3944.288	-637.6
3946.834	-634.6
3949.378	-638.6
3951.921	-637.6
3954.462	-641.6
3957	-639.6
3959.537	-639.6
3962.072	-633.6
3964.606	-642.6
3967.137	-640.6
3969.667	-644.6
3972.194	-630.6
3974.72	-637.6
3977.244	-626.6
3979.766	-627.6
3982.286	-627.6
3984.805	-626.6
3987.321	-627.6
3989.836	-634.6
3992.349	-618.6
3994.86	-621.6
3997.369	-633.6
3999.877	-621.6
4002.382	-625.6
4004.886	-627.6
4007.388	-622.6
4009.888	-621.6
4012.386	-628.6
4014.883	-621.6
4017.377	-619.6
4019.87	-620.6
4022.361	-624.6
4024.85	-624.6
4027.338	-621.6
4029.823	-628.6
4032.307	-628.6
4034.789	-619.6
4037.269	-624.6
4039.747	-632.6
4042.224	-631.6
4044.699	-627.6
4047.172	-626.6
4049.643	-621.6
4052.112	-632.6
4054.58	-630.6
4057.046	-630.6
4059.51	-621.6
4061.972	-625.6
4064.432	-629.6
4066.891	-625.6
4069.348	-625.6
4071.803	-624.6
4074.256	-628.6
4076.708	-628.6
4079.158	-625.6
4081.606	-633.6
4084.052	-636.6
4086.497	-628.6
4088.939	-626.6
4091.38	-625.6
4093.819	-625.6
4096.257	-664.6
4098.693	-662.6
4101.127	-665.6
4103.559	-660.6
4105.989	-376.6
4108.418	-354.6
4110.845	-338.6
4113.27	-301.6
4115.694	-264.6
4118.115	-226.6
4120.535	-622.6
4122.954	-620.6
4125.37	-618.6
4127.785	-622.6
4130.198	-627.6
4132.609	-629.6
4135.019	-665.6
4137.427	-664.6
4139.833	-666.6
4142.237	-663.6
