Data from 2018-2-14_conc=0_n=1_RamanShift_01.txt Node
Date: Wed Feb 14 10:25:56 IST 2018
User: aro
Spectrometer: QEPB0276
Trigger mode: 0
Integration Time (sec): 3.000000E1
Scans to average: 1
Electric dark correction enabled: true
Nonlinearity correction enabled: false
Boxcar width: 0
XAxis mode: Raman Shifts
Number of Pixels in Spectrum: 1044
>>>>>Begin Spectral Data<<<<<
160.701	-164.2
166.742	35.8
172.777	601.8
178.805	2352.8
184.826	6379.8
190.841	13195.8
196.849	20965.8
202.85	26270.8
208.845	27966.8
214.833	27513.8
220.815	27053.8
226.789	26927.8
232.758	26751.8
238.719	26600.8
244.674	26169.8
250.623	25679.8
256.565	25199.8
262.5	24625.8
268.429	24196.8
274.351	23847.8
280.267	23464.8
286.176	23191.8
292.079	22925.8
297.975	22714.8
303.865	22520.8
309.748	22432.8
315.625	22274.8
321.495	22045.8
327.359	21977.8
333.217	21920.8
339.068	21918.8
344.912	21901.8
350.751	21879.8
356.583	21877.8
362.408	21824.8
368.227	21913.8
374.04	21907.8
379.847	21927.8
385.647	22023.8
391.44	22124.8
397.228	22190.8
403.009	22308.8
408.784	22385.8
414.553	22390.8
420.315	22428.8
426.071	22497.8
431.821	22470.8
437.565	22382.8
443.302	22408.8
449.033	22385.8
454.758	22381.8
460.477	22329.8
466.189	22207.8
471.896	22147.8
477.596	22109.8
483.29	22064.8
488.978	22011.8
494.66	21954.8
500.335	21851.8
506.005	21544.8
511.668	21252.8
517.325	21060.8
522.977	20888.8
528.622	20712.8
534.261	20585.8
539.894	20478.8
545.521	20393.8
551.141	20272.8
556.756	20157.8
562.365	20125.8
567.968	20034.8
573.565	20012.8
579.155	19910.8
584.74	19870.8
590.319	19691.8
595.892	19692.8
601.459	19599.8
607.02	19463.8
612.575	19430.8
618.124	19272.8
623.667	19201.8
629.204	19071.8
634.735	19009.8
640.261	18905.8
645.781	18872.8
651.294	18793.8
656.802	18790.8
662.304	18753.8
667.8	18699.8
673.29	18666.8
678.775	18672.8
684.254	18540.8
689.726	18507.8
695.193	18421.8
700.655	18405.8
706.11	18311.8
711.56	18190.8
717.004	18138.8
722.442	18065.8
727.874	17952.8
733.301	17899.8
738.722	17855.8
744.137	17797.8
749.547	17813.8
754.951	17747.8
760.349	17792.8
765.741	17821.8
771.128	17833.8
776.509	17860.8
781.885	17867.8
787.254	17798.8
792.618	17700.8
797.977	17665.8
803.33	17537.8
808.677	17417.8
814.019	17354.8
819.355	17221.8
824.686	17154.8
830.011	17060.8
835.33	17091.8
840.644	17090.8
845.952	17167.8
851.255	17156.8
856.552	17215.8
861.844	17177.8
867.13	17111.8
872.41	17068.8
877.686	16973.8
882.955	16793.8
888.219	16687.8
893.478	16532.8
898.731	16278.8
903.979	16115.8
909.221	16032.8
914.458	15917.8
919.69	16001.8
924.916	15977.8
930.136	16023.8
935.351	16062.8
940.561	15997.8
945.766	16033.8
950.965	15939.8
956.158	15850.8
961.347	15684.8
966.529	15509.8
971.707	15233.8
976.879	15140.8
982.046	14953.8
987.208	14970.8
992.364	14964.8
997.515	15004.8
1002.66	15166.8
1007.801	15355.8
1012.936	15450.8
1018.066	15436.8
1023.19	15430.8
1028.309	15452.8
1033.423	15412.8
1038.532	15339.8
1043.636	15175.8
1048.734	15024.8
1053.827	14826.8
1058.915	14624.8
1063.998	14561.8
1069.075	14562.8
1074.147	14605.8
1079.214	14608.8
1084.276	14687.8
1089.333	14772.8
1094.385	14845.8
1099.431	14866.8
1104.472	14899.8
1109.509	14804.8
1114.54	14611.8
1119.565	14364.8
1124.586	14223.8
1129.602	14081.8
1134.613	14011.8
1139.618	13950.8
1144.619	13915.8
1149.614	13878.8
1154.604	13886.8
1159.589	13979.8
1164.57	13985.8
1169.545	13992.8
1174.515	13996.8
1179.48	13931.8
1184.44	13783.8
1189.395	13723.8
1194.345	13645.8
1199.29	13612.8
1204.23	13559.8
1209.165	13670.8
1214.095	13668.8
1219.021	13771.8
1223.941	13826.8
1228.856	13878.8
1233.766	13961.8
1238.672	14027.8
1243.572	13976.8
1248.467	13853.8
1253.358	13709.8
1258.244	13479.8
1263.124	13318.8
1268	13120.8
1272.871	12958.8
1277.737	12865.8
1282.599	12817.8
1287.455	12784.8
1292.306	12831.8
1297.153	12830.8
1301.995	12925.8
1306.832	12948.8
1311.664	12962.8
1316.491	12937.8
1321.314	12828.8
1326.132	12602.8
1330.945	12335.8
1335.753	11976.8
1340.556	11715.8
1345.354	11520.8
1350.148	11335.8
1354.937	11241.8
1359.722	11227.8
1364.501	11261.8
1369.276	11390.8
1374.046	11519.8
1378.811	11726.8
1383.572	11827.8
1388.327	11883.8
1393.079	11844.8
1397.825	11667.8
1402.567	11534.8
1407.304	11379.8
1412.036	11280.8
1416.764	11210.8
1421.487	11154.8
1426.205	11083.8
1430.919	11005.8
1435.628	11027.8
1440.333	11024.8
1445.032	11056.8
1449.727	11075.8
1454.418	11034.8
1459.104	10930.8
1463.785	10744.8
1468.462	10529.8
1473.134	10280.8
1477.802	10071.8
1482.465	9910.8
1487.123	9720.8
1491.777	9696.8
1496.426	9822.8
1501.071	9931.8
1505.711	10113.8
1510.347	10265.8
1514.978	10477.8
1519.604	10514.8
1524.226	10681.8
1528.844	10703.8
1533.457	10687.8
1538.065	10663.8
1542.669	10618.8
1547.269	10491.8
1551.864	10412.8
1556.454	10403.8
1561.041	10369.8
1565.622	10370.8
1570.199	10390.8
1574.772	10437.8
1579.34	10543.8
1583.904	10549.8
1588.464	10588.8
1593.019	10570.8
1597.569	10548.8
1602.115	10481.8
1606.657	10432.8
1611.195	10340.8
1615.728	10287.8
1620.256	10212.8
1624.78	10228.8
1629.3	10276.8
1633.816	10333.8
1638.327	10359.8
1642.834	10372.8
1647.336	10400.8
1651.834	10404.8
1656.328	10400.8
1660.817	10368.8
1665.302	10250.8
1669.783	10048.8
1674.259	9857.8
1678.732	9537.8
1683.199	9224.8
1687.663	8936.8
1692.122	8684.8
1696.577	8527.8
1701.028	8510.8
1705.474	8569.8
1709.917	8664.8
1714.355	8699.8
1718.788	8616.8
1723.218	8504.8
1727.643	8387.8
1732.064	8204.8
1736.481	8003.8
1740.893	7834.8
1745.301	7596.8
1749.705	7404.8
1754.105	7204.8
1758.501	7028.8
1762.893	6771.8
1767.28	6601.8
1771.663	6461.8
1776.042	6326.8
1780.417	6289.8
1784.787	6302.8
1789.154	6359.8
1793.516	6486.8
1797.874	6597.8
1802.228	6744.8
1806.578	6822.8
1810.924	6796.8
1815.266	6749.8
1819.603	6652.8
1823.937	6553.8
1828.266	6398.8
1832.591	6289.8
1836.913	6231.8
1841.23	6156.8
1845.543	6126.8
1849.852	6111.8
1854.156	6120.8
1858.457	6049.8
1862.754	6038.8
1867.047	6029.8
1871.335	6004.8
1875.62	6053.8
1879.9	6057.8
1884.177	5930.8
1888.449	5916.8
1892.718	5861.8
1896.982	5779.8
1901.243	5727.8
1905.499	5681.8
1909.752	5660.8
1914	5674.8
1918.245	5661.8
1922.485	5738.8
1926.722	5777.8
1930.954	5875.8
1935.183	5953.8
1939.408	6010.8
1943.628	6064.8
1947.845	6064.8
1952.058	6048.8
1956.267	5983.8
1960.472	5916.8
1964.673	5846.8
1968.87	5752.8
1973.063	5610.8
1977.252	5536.8
1981.438	5492.8
1985.619	5438.8
1989.797	5401.8
1993.971	5349.8
1998.14	5339.8
2002.306	5330.8
2006.469	5287.8
2010.627	5294.8
2014.781	5248.8
2018.932	5194.8
2023.078	5167.8
2027.221	5070.8
2031.36	5004.8
2035.495	4912.8
2039.627	4864.8
2043.754	4771.8
2047.878	4733.8
2051.998	4699.8
2056.114	4715.8
2060.226	4678.8
2064.334	4732.8
2068.439	4717.8
2072.54	4737.8
2076.637	4731.8
2080.73	4795.8
2084.82	4839.8
2088.906	4849.8
2092.988	4858.8
2097.066	4819.8
2101.14	4794.8
2105.211	4764.8
2109.278	4771.8
2113.342	4758.8
2117.401	4698.8
2121.457	4668.8
2125.509	4658.8
2129.558	4617.8
2133.602	4596.8
2137.643	4584.8
2141.681	4546.8
2145.714	4534.8
2149.744	4464.8
2153.77	4486.8
2157.793	4409.8
2161.812	4365.8
2165.827	4270.8
2169.838	4224.8
2173.846	4139.8
2177.851	4097.8
2181.851	4117.8
2185.848	3986.8
2189.841	3939.8
2193.831	3908.8
2197.817	3860.8
2201.799	3839.8
2205.778	3816.8
2209.753	3832.8
2213.725	3768.8
2217.693	3785.8
2221.657	3755.8
2225.618	3752.8
2229.575	3743.8
2233.529	3713.8
2237.479	3675.8
2241.425	3610.8
2245.368	3596.8
2249.307	3529.8
2253.243	3481.8
2257.175	3425.8
2261.104	3379.8
2265.029	3340.8
2268.95	3346.8
2272.868	3276.8
2276.783	3238.8
2280.694	3209.8
2284.601	3162.8
2288.505	3150.8
2292.405	3100.8
2296.302	3109.8
2300.195	3077.8
2304.085	3028.8
2307.971	3008.8
2311.854	2968.8
2315.734	2887.8
2319.609	2843.8
2323.482	2808.8
2327.351	2760.8
2331.216	2779.8
2335.078	2746.8
2338.937	2733.8
2342.792	2700.8
2346.643	2723.8
2350.492	2702.8
2354.336	2706.8
2358.178	2727.8
2362.015	2743.8
2365.85	2749.8
2369.681	2758.8
2373.508	2727.8
2377.333	2734.8
2381.153	2710.8
2384.971	2684.8
2388.785	2691.8
2392.595	2677.8
2396.402	2667.8
2400.206	2605.8
2404.007	2602.8
2407.804	2575.8
2411.597	2551.8
2415.388	2539.8
2419.174	2531.8
2422.958	2513.8
2426.738	2496.8
2430.515	2475.8
2434.289	2440.8
2438.059	2439.8
2441.825	2413.8
2445.589	2396.8
2449.349	2371.8
2453.106	2350.8
2456.859	2306.8
2460.61	2277.8
2464.356	2261.8
2468.1	2221.8
2471.84	2220.8
2475.577	2173.8
2479.311	2176.8
2483.041	2148.8
2486.768	2136.8
2490.492	2144.8
2494.213	2138.8
2497.93	2112.8
2501.644	2100.8
2505.355	2087.8
2509.062	2099.8
2512.766	2064.8
2516.467	2058.8
2520.165	2047.8
2523.859	2026.8
2527.551	2019.8
2531.239	2018.8
2534.923	1977.8
2538.605	2000.8
2542.283	1996.8
2545.958	1990.8
2549.63	1990.8
2553.299	1973.8
2556.964	1964.8
2560.626	1965.8
2564.285	1938.8
2567.941	1944.8
2571.594	1938.8
2575.243	1910.8
2578.89	1908.8
2582.533	1879.8
2586.173	1882.8
2589.809	1872.8
2593.443	1857.8
2597.073	1834.8
2600.701	1812.8
2604.325	1785.8
2607.946	1806.8
2611.564	1776.8
2615.178	1787.8
2618.79	1755.8
2622.398	1748.8
2626.004	1726.8
2629.606	1673.8
2633.205	1679.8
2636.801	1639.8
2640.394	1629.8
2643.983	1608.8
2647.57	1594.8
2651.153	1564.8
2654.734	1540.8
2658.311	1509.8
2661.885	1491.8
2665.456	1452.8
2669.025	1424.8
2672.589	1415.8
2676.151	1431.8
2679.71	1405.8
2683.266	1370.8
2686.819	1359.8
2690.368	1305.8
2693.915	1297.8
2697.458	1232.8
2700.999	1247.8
2704.536	1199.8
2708.071	1190.8
2711.602	1147.8
2715.13	1136.8
2718.656	1097.8
2722.178	1078.8
2725.697	1060.8
2729.214	1054.8
2732.727	1056.8
2736.237	1029.8
2739.744	1031.8
2743.249	1073.8
2746.75	1242.8
2750.248	1224.8
2753.743	1190.8
2757.236	1078.8
2760.725	1098.8
2764.211	1102.8
2767.695	1100.8
2771.175	1093.8
2774.652	1087.8
2778.127	1078.8
2781.598	1111.8
2785.067	1073.8
2788.532	1056.8
2791.995	1067.8
2795.455	1071.8
2798.911	1072.8
2802.365	1081.8
2805.816	1076.8
2809.264	1055.8
2812.709	1078.8
2816.151	1056.8
2819.59	1085.8
2823.026	1075.8
2826.46	1070.8
2829.89	1086.8
2833.318	1087.8
2836.742	1088.8
2840.164	1096.8
2843.583	1095.8
2846.999	1109.8
2850.412	1118.8
2853.822	1136.8
2857.229	1151.8
2860.634	1175.8
2864.035	1188.8
2867.434	1202.8
2870.83	1224.8
2874.223	1248.8
2877.613	1245.8
2881	1265.8
2884.385	1305.8
2887.766	1308.8
2891.145	1281.8
2894.521	1278.8
2897.894	1289.8
2901.264	1283.8
2904.631	1270.8
2907.996	1268.8
2911.358	1285.8
2914.717	1292.8
2918.073	1302.8
2921.426	1335.8
2924.777	1345.8
2928.124	1357.8
2931.469	1377.8
2934.811	1400.8
2938.15	1417.8
2941.487	1440.8
2944.821	1411.8
2948.152	1421.8
2951.48	1435.8
2954.805	1399.8
2958.128	1402.8
2961.447	1387.8
2964.765	1385.8
2968.079	1379.8
2971.39	1389.8
2974.699	1425.8
2978.005	1445.8
2981.308	1477.8
2984.609	1496.8
2987.907	1525.8
2991.202	1538.8
2994.494	1573.8
2997.784	1611.8
3001.07	1652.8
3004.355	1657.8
3007.636	1693.8
3010.915	1692.8
3014.191	1709.8
3017.464	1719.8
3020.734	1741.8
3024.002	1754.8
3027.267	1780.8
3030.53	1779.8
3033.789	1790.8
3037.046	1806.8
3040.301	1859.8
3043.552	1894.8
3046.801	1936.8
3050.048	1972.8
3053.291	2014.8
3056.532	2069.8
3059.771	2107.8
3063.006	2201.8
3066.239	2281.8
3069.469	2328.8
3072.697	2383.8
3075.922	2451.8
3079.144	2503.8
3082.364	2541.8
3085.581	2628.8
3088.795	2663.8
3092.007	2735.8
3095.216	2784.8
3098.423	2829.8
3101.627	2930.8
3104.828	2967.8
3108.026	3058.8
3111.222	3108.8
3114.416	3193.8
3117.607	3210.8
3120.795	3300.8
3123.98	3397.8
3127.163	3486.8
3130.344	3566.8
3133.521	3628.8
3136.696	3745.8
3139.869	3800.8
3143.039	3888.8
3146.206	3906.8
3149.371	3963.8
3152.533	3999.8
3155.693	4057.8
3158.85	4086.8
3162.005	4066.8
3165.157	4084.8
3168.306	4108.8
3171.453	4096.8
3174.597	4109.8
3177.739	4131.8
3180.878	4103.8
3184.014	4146.8
3187.149	4120.8
3190.28	4132.8
3193.409	4156.8
3196.536	4158.8
3199.659	4163.8
3202.781	4156.8
3205.9	4156.8
3209.016	4153.8
3212.13	4122.8
3215.241	4087.8
3218.35	4051.8
3221.456	4021.8
3224.56	4003.8
3227.661	3903.8
3230.76	3861.8
3233.856	3868.8
3236.95	3805.8
3240.041	3792.8
3243.13	3740.8
3246.216	3735.8
3249.3	3696.8
3252.382	3709.8
3255.46	3665.8
3258.537	3677.8
3261.611	3702.8
3264.682	3668.8
3267.751	3642.8
3270.818	3637.8
3273.882	3640.8
3276.943	3629.8
3280.002	3593.8
3283.059	3554.8
3286.113	3518.8
3289.165	3502.8
3292.214	3407.8
3295.261	3328.8
3298.306	3323.8
3301.348	3265.8
3304.387	3186.8
3307.425	3146.8
3310.459	3086.8
3313.492	3052.8
3316.521	3017.8
3319.549	2956.8
3322.574	2929.8
3325.597	2914.8
3328.617	2878.8
3331.635	2860.8
3334.65	2858.8
3337.663	2857.8
3340.674	2810.8
3343.682	2801.8
3346.688	2801.8
3349.691	2809.8
3352.692	2766.8
3355.691	2724.8
3358.687	2730.8
3361.681	2691.8
3364.673	2644.8
3367.662	2604.8
3370.649	2564.8
3373.633	2538.8
3376.615	2489.8
3379.595	2468.8
3382.572	2411.8
3385.547	2410.8
3388.52	2383.8
3391.49	2321.8
3394.458	2262.8
3397.424	2251.8
3400.387	2216.8
3403.348	2212.8
3406.307	2175.8
3409.263	2159.8
3412.217	2123.8
3415.168	2108.8
3418.118	2080.8
3421.065	2037.8
3424.009	1986.8
3426.951	1982.8
3429.891	1951.8
3432.829	1881.8
3435.764	1892.8
3438.697	1805.8
3441.628	1762.8
3444.557	1705.8
3447.483	1663.8
3450.407	1595.8
3453.328	1570.8
3456.247	1486.8
3459.164	1422.8
3462.079	1401.8
3464.991	1347.8
3467.902	1293.8
3470.809	1249.8
3473.715	1194.8
3476.618	1157.8
3479.519	1101.8
3482.418	1070.8
3485.315	1051.8
3488.209	995.8
3491.101	960.8
3493.99	914.8
3496.878	876.8
3499.763	851.8
3502.646	817.8
3505.527	769.8
3508.405	755.8
3511.281	704.8
3514.155	663.8
3517.027	624.8
3519.897	569.8
3522.764	537.8
3525.629	493.8
3528.492	448.8
3531.352	414.8
3534.211	378.8
3537.067	343.8
3539.921	300.8
3542.773	259.8
3545.622	233.8
3548.469	186.8
3551.315	170.8
3554.157	160.8
3556.998	117.8
3559.837	79.8
3562.673	69.8
3565.507	39.8
3568.339	31.8
3571.169	7.8
3573.996	-17.2
3576.822	-37.2
3579.645	-63.2
3582.466	-86.2
3585.285	-103.2
3588.101	-120.2
3590.916	-143.2
3593.728	-165.2
3596.538	-187.2
3599.346	-200.2
3602.152	-218.2
3604.956	-229.2
3607.757	-253.2
3610.556	-264.2
3613.354	-271.2
3616.149	-292.2
3618.942	-308.2
3621.732	-317.2
3624.521	-318.2
3627.307	-337.2
3630.092	-348.2
3632.874	-362.2
3635.654	-377.2
3638.432	-380.2
3641.208	-380.2
3643.982	-399.2
3646.753	-403.2
3649.523	-418.2
3652.29	-417.2
3655.055	-427.2
3657.818	-446.2
3660.579	-457.2
3663.338	-471.2
3666.095	-476.2
3668.849	-488.2
3671.602	-496.2
3674.352	-500.2
3677.101	-502.2
3679.847	-514.2
3682.591	-517.2
3685.333	-529.2
3688.073	-530.2
3690.811	-537.2
3693.547	-544.2
3696.281	-547.2
3699.013	-554.2
3701.742	-553.2
3704.47	-562.2
3707.195	-573.2
3709.919	-570.2
3712.64	-576.2
3715.359	-575.2
3718.076	-579.2
3720.792	-587.2
3723.505	-584.2
3726.216	-598.2
3728.925	-589.2
3731.632	-601.2
3734.336	-602.2
3737.039	-601.2
3739.74	-601.2
3742.439	-606.2
3745.136	-611.2
3747.83	-615.2
3750.523	-614.2
3753.213	-598.2
3755.902	-618.2
3758.589	-618.2
3761.273	-617.2
3763.956	-623.2
3766.636	-631.2
3769.315	-629.2
3771.991	-632.2
3774.665	-640.2
3777.338	-636.2
3780.008	-637.2
3782.677	-639.2
3785.343	-634.2
3788.007	-636.2
3790.67	-636.2
3793.33	-639.2
3795.989	-644.2
3798.645	-644.2
3801.299	-643.2
3803.952	-655.2
3806.602	-657.2
3809.251	-652.2
3811.897	-654.2
3814.542	-655.2
3817.184	-645.2
3819.825	-647.2
3822.463	-649.2
3825.1	-653.2
3827.735	-651.2
3830.367	-648.2
3832.998	-662.2
3835.627	-666.2
3838.253	-659.2
3840.878	-669.2
3843.501	-660.2
3846.122	-662.2
3848.741	-659.2
3851.358	-662.2
3853.973	-657.2
3856.586	-663.2
3859.197	-666.2
3861.806	-664.2
3864.414	-661.2
3867.019	-661.2
3869.622	-663.2
3872.224	-664.2
3874.823	-649.2
3877.421	-630.2
3880.016	-628.2
3882.61	-603.2
3885.202	-597.2
3887.792	-603.2
3890.38	-629.2
3892.966	-651.2
3895.55	-662.2
3898.132	-675.2
3900.713	-675.2
3903.291	-676.2
3905.868	-675.2
3908.442	-683.2
3911.015	-679.2
3913.586	-674.2
3916.155	-675.2
3918.722	-680.2
3921.287	-673.2
3923.85	-683.2
3926.411	-677.2
3928.971	-682.2
3931.528	-681.2
3934.084	-682.2
3936.638	-682.2
3939.19	-682.2
3941.74	-679.2
3944.288	-684.2
3946.834	-678.2
3949.378	-680.2
3951.921	-678.2
3954.462	-684.2
3957	-678.2
3959.537	-679.2
3962.072	-674.2
3964.606	-677.2
3967.137	-681.2
3969.667	-679.2
3972.194	-672.2
3974.72	-680.2
3977.244	-667.2
3979.766	-666.2
3982.286	-669.2
3984.805	-670.2
3987.321	-666.2
3989.836	-667.2
3992.349	-661.2
3994.86	-663.2
3997.369	-667.2
3999.877	-662.2
4002.382	-664.2
4004.886	-662.2
4007.388	-664.2
4009.888	-665.2
4012.386	-670.2
4014.883	-662.2
4017.377	-661.2
4019.87	-662.2
4022.361	-660.2
4024.85	-664.2
4027.338	-665.2
4029.823	-667.2
4032.307	-666.2
4034.789	-665.2
4037.269	-665.2
4039.747	-668.2
4042.224	-672.2
4044.699	-676.2
4047.172	-672.2
4049.643	-665.2
4052.112	-671.2
4054.58	-673.2
4057.046	-671.2
4059.51	-672.2
4061.972	-674.2
4064.432	-676.2
4066.891	-666.2
4069.348	-666.2
4071.803	-663.2
4074.256	-665.2
4076.708	-666.2
4079.158	-670.2
4081.606	-672.2
4084.052	-669.2
4086.497	-671.2
4088.939	-661.2
4091.38	-670.2
4093.819	-663.2
4096.257	-701.2
4098.693	-707.2
4101.127	-703.2
4103.559	-704.2
4105.989	-421.2
4108.418	-392.2
4110.845	-370.2
4113.27	-340.2
4115.694	-306.2
4118.115	-256.2
4120.535	-666.2
4122.954	-667.2
4125.37	-660.2
4127.785	-668.2
4130.198	-671.2
4132.609	-670.2
4135.019	-706.2
4137.427	-706.2
4139.833	-708.2
4142.237	-705.2
