Data from 2018-2-14_conc=2_n=4_RamanShift_03.txt Node
Date: Wed Feb 14 11:10:56 IST 2018
User: aro
Spectrometer: QEPB0276
Trigger mode: 0
Integration Time (sec): 3.000000E1
Scans to average: 1
Electric dark correction enabled: true
Nonlinearity correction enabled: false
Boxcar width: 0
XAxis mode: Raman Shifts
Number of Pixels in Spectrum: 1044
>>>>>Begin Spectral Data<<<<<
160.701	-131.8
166.742	49.2
172.777	562.2
178.805	2116.2
184.826	5868.2
190.841	12240.2
196.849	19667.2
202.85	24943.2
208.845	26667.2
214.833	26408.2
220.815	25908.2
226.789	25750.2
232.758	25628.2
238.719	25418.2
244.674	25148.2
250.623	24752.2
256.565	24238.2
262.5	23744.2
268.429	23260.2
274.351	22938.2
280.267	22605.2
286.176	22366.2
292.079	22181.2
297.975	21957.2
303.865	21790.2
309.748	21612.2
315.625	21556.2
321.495	21349.2
327.359	21253.2
333.217	21164.2
339.068	21199.2
344.912	21223.2
350.751	21210.2
356.583	21134.2
362.408	21188.2
368.227	21162.2
374.04	21180.2
379.847	21216.2
385.647	21361.2
391.44	21464.2
397.228	21507.2
403.009	21611.2
408.784	21574.2
414.553	21668.2
420.315	21772.2
426.071	21758.2
431.821	21717.2
437.565	21738.2
443.302	21695.2
449.033	21624.2
454.758	21624.2
460.477	21513.2
466.189	21507.2
471.896	21488.2
477.596	21407.2
483.29	21337.2
488.978	21301.2
494.66	21246.2
500.335	21103.2
506.005	20883.2
511.668	20616.2
517.325	20368.2
522.977	20121.2
528.622	20023.2
534.261	19843.2
539.894	19749.2
545.521	19688.2
551.141	19609.2
556.756	19548.2
562.365	19436.2
567.968	19402.2
573.565	19314.2
579.155	19204.2
584.74	19111.2
590.319	19087.2
595.892	19003.2
601.459	18923.2
607.02	18865.2
612.575	18714.2
618.124	18603.2
623.667	18507.2
629.204	18425.2
634.735	18279.2
640.261	18221.2
645.781	18145.2
651.294	18116.2
656.802	18095.2
662.304	18052.2
667.8	18038.2
673.29	17948.2
678.775	17897.2
684.254	17921.2
689.726	17816.2
695.193	17770.2
700.655	17632.2
706.11	17592.2
711.56	17525.2
717.004	17418.2
722.442	17359.2
727.874	17245.2
733.301	17200.2
738.722	17160.2
744.137	17142.2
749.547	17072.2
754.951	17106.2
760.349	17129.2
765.741	17120.2
771.128	17138.2
776.509	17139.2
781.885	17155.2
787.254	17108.2
792.618	17056.2
797.977	16893.2
803.33	16820.2
808.677	16760.2
814.019	16642.2
819.355	16571.2
824.686	16421.2
830.011	16392.2
835.33	16399.2
840.644	16378.2
845.952	16420.2
851.255	16469.2
856.552	16455.2
861.844	16437.2
867.13	16411.2
872.41	16295.2
877.686	16264.2
882.955	16140.2
888.219	15950.2
893.478	15864.2
898.731	15599.2
903.979	15441.2
909.221	15331.2
914.458	15266.2
919.69	15254.2
924.916	15318.2
930.136	15329.2
935.351	15365.2
940.561	15362.2
945.766	15289.2
950.965	15280.2
956.158	15124.2
961.347	14946.2
966.529	14794.2
971.707	14617.2
976.879	14450.2
982.046	14300.2
987.208	14279.2
992.364	14229.2
997.515	14286.2
1002.66	14436.2
1007.801	14606.2
1012.936	14727.2
1018.066	14717.2
1023.19	14732.2
1028.309	14724.2
1033.423	14654.2
1038.532	14635.2
1043.636	14501.2
1048.734	14282.2
1053.827	14197.2
1058.915	13943.2
1063.998	13902.2
1069.075	13863.2
1074.147	13833.2
1079.214	13892.2
1084.276	14002.2
1089.333	13974.2
1094.385	14166.2
1099.431	14103.2
1104.472	14171.2
1109.509	14057.2
1114.54	13909.2
1119.565	13681.2
1124.586	13526.2
1129.602	13429.2
1134.613	13356.2
1139.618	13238.2
1144.619	13223.2
1149.614	13198.2
1154.604	13222.2
1159.589	13254.2
1164.57	13214.2
1169.545	13304.2
1174.515	13277.2
1179.48	13270.2
1184.44	13145.2
1189.395	12979.2
1194.345	12934.2
1199.29	12888.2
1204.23	12819.2
1209.165	12936.2
1214.095	12949.2
1219.021	13005.2
1223.941	13129.2
1228.856	13175.2
1233.766	13188.2
1238.672	13228.2
1243.572	13200.2
1248.467	13155.2
1253.358	12952.2
1258.244	12792.2
1263.124	12586.2
1268	12361.2
1272.871	12258.2
1277.737	12165.2
1282.599	12098.2
1287.455	12012.2
1292.306	12074.2
1297.153	12158.2
1301.995	12186.2
1306.832	12249.2
1311.664	12304.2
1316.491	12206.2
1321.314	12087.2
1326.132	11910.2
1330.945	11668.2
1335.753	11375.2
1340.556	11115.2
1345.354	10878.2
1350.148	10732.2
1354.937	10643.2
1359.722	10655.2
1364.501	10675.2
1369.276	10746.2
1374.046	10884.2
1378.811	11032.2
1383.572	11142.2
1388.327	11181.2
1393.079	11116.2
1397.825	10986.2
1402.567	10847.2
1407.304	10684.2
1412.036	10586.2
1416.764	10554.2
1421.487	10454.2
1426.205	10392.2
1430.919	10403.2
1435.628	10344.2
1440.333	10397.2
1445.032	10414.2
1449.727	10472.2
1454.418	10434.2
1459.104	10298.2
1463.785	10132.2
1468.462	9910.2
1473.134	9709.2
1477.802	9507.2
1482.465	9359.2
1487.123	9239.2
1491.777	9274.2
1496.426	9257.2
1501.071	9332.2
1505.711	9479.2
1510.347	9653.2
1514.978	9833.2
1519.604	9928.2
1524.226	10014.2
1528.844	10024.2
1533.457	10009.2
1538.065	10009.2
1542.669	9915.2
1547.269	9813.2
1551.864	9736.2
1556.454	9757.2
1561.041	9709.2
1565.622	9673.2
1570.199	9701.2
1574.772	9760.2
1579.34	9857.2
1583.904	9906.2
1588.464	9952.2
1593.019	9953.2
1597.569	9891.2
1602.115	9821.2
1606.657	9792.2
1611.195	9733.2
1615.728	9684.2
1620.256	9608.2
1624.78	9584.2
1629.3	9649.2
1633.816	9672.2
1638.327	9684.2
1642.834	9713.2
1647.336	9758.2
1651.834	9830.2
1656.328	9798.2
1660.817	9754.2
1665.302	9673.2
1669.783	9492.2
1674.259	9230.2
1678.732	9017.2
1683.199	8703.2
1687.663	8434.2
1692.122	8185.2
1696.577	8022.2
1701.028	7964.2
1705.474	8008.2
1709.917	8108.2
1714.355	8107.2
1718.788	8048.2
1723.218	7953.2
1727.643	7797.2
1732.064	7676.2
1736.481	7508.2
1740.893	7312.2
1745.301	7114.2
1749.705	6932.2
1754.105	6708.2
1758.501	6559.2
1762.893	6351.2
1767.28	6213.2
1771.663	6093.2
1776.042	5951.2
1780.417	5907.2
1784.787	5880.2
1789.154	5937.2
1793.516	6052.2
1797.874	6156.2
1802.228	6247.2
1806.578	6281.2
1810.924	6312.2
1815.266	6260.2
1819.603	6207.2
1823.937	6073.2
1828.266	5972.2
1832.591	5913.2
1836.913	5828.2
1841.23	5774.2
1845.543	5698.2
1849.852	5699.2
1854.156	5673.2
1858.457	5665.2
1862.754	5640.2
1867.047	5625.2
1871.335	5649.2
1875.62	5612.2
1879.9	5616.2
1884.177	5572.2
1888.449	5511.2
1892.718	5477.2
1896.982	5414.2
1901.243	5384.2
1905.499	5306.2
1909.752	5295.2
1914	5252.2
1918.245	5288.2
1922.485	5333.2
1926.722	5386.2
1930.954	5473.2
1935.183	5534.2
1939.408	5600.2
1943.628	5600.2
1947.845	5615.2
1952.058	5602.2
1956.267	5552.2
1960.472	5469.2
1964.673	5414.2
1968.87	5324.2
1973.063	5232.2
1977.252	5147.2
1981.438	5105.2
1985.619	5034.2
1989.797	5023.2
1993.971	4968.2
1998.14	4956.2
2002.306	4938.2
2006.469	4917.2
2010.627	4896.2
2014.781	4859.2
2018.932	4809.2
2023.078	4752.2
2027.221	4690.2
2031.36	4622.2
2035.495	4560.2
2039.627	4482.2
2043.754	4431.2
2047.878	4372.2
2051.998	4366.2
2056.114	4347.2
2060.226	4353.2
2064.334	4346.2
2068.439	4356.2
2072.54	4370.2
2076.637	4406.2
2080.73	4442.2
2084.82	4449.2
2088.906	4444.2
2092.988	4499.2
2097.066	4480.2
2101.14	4435.2
2105.211	4404.2
2109.278	4393.2
2113.342	4351.2
2117.401	4330.2
2121.457	4309.2
2125.509	4276.2
2129.558	4287.2
2133.602	4239.2
2137.643	4205.2
2141.681	4162.2
2145.714	4170.2
2149.744	4126.2
2153.77	4118.2
2157.793	4079.2
2161.812	4008.2
2165.827	3958.2
2169.838	3898.2
2173.846	3816.2
2177.851	3754.2
2181.851	3716.2
2185.848	3651.2
2189.841	3649.2
2193.831	3586.2
2197.817	3584.2
2201.799	3527.2
2205.778	3518.2
2209.753	3503.2
2213.725	3483.2
2217.693	3466.2
2221.657	3487.2
2225.618	3464.2
2229.575	3438.2
2233.529	3413.2
2237.479	3367.2
2241.425	3327.2
2245.368	3282.2
2249.307	3256.2
2253.243	3200.2
2257.175	3151.2
2261.104	3119.2
2265.029	3069.2
2268.95	3071.2
2272.868	2995.2
2276.783	2973.2
2280.694	2955.2
2284.601	2887.2
2288.505	2890.2
2292.405	2850.2
2296.302	2841.2
2300.195	2790.2
2304.085	2768.2
2307.971	2727.2
2311.854	2679.2
2315.734	2635.2
2319.609	2607.2
2323.482	2572.2
2327.351	2538.2
2331.216	2525.2
2335.078	2527.2
2338.937	2495.2
2342.792	2512.2
2346.643	2482.2
2350.492	2481.2
2354.336	2489.2
2358.178	2477.2
2362.015	2487.2
2365.85	2487.2
2369.681	2471.2
2373.508	2498.2
2377.333	2501.2
2381.153	2470.2
2384.971	2452.2
2388.785	2477.2
2392.595	2410.2
2396.402	2403.2
2400.206	2394.2
2404.007	2386.2
2407.804	2354.2
2411.597	2343.2
2415.388	2309.2
2419.174	2282.2
2422.958	2308.2
2426.738	2258.2
2430.515	2265.2
2434.289	2232.2
2438.059	2200.2
2441.825	2193.2
2445.589	2173.2
2449.349	2155.2
2453.106	2137.2
2456.859	2100.2
2460.61	2080.2
2464.356	2041.2
2468.1	2053.2
2471.84	2021.2
2475.577	1974.2
2479.311	1975.2
2483.041	1965.2
2486.768	1932.2
2490.492	1941.2
2494.213	1937.2
2497.93	1933.2
2501.644	1895.2
2505.355	1915.2
2509.062	1888.2
2512.766	1896.2
2516.467	1886.2
2520.165	1862.2
2523.859	1846.2
2527.551	1834.2
2531.239	1814.2
2534.923	1820.2
2538.605	1811.2
2542.283	1790.2
2545.958	1784.2
2549.63	1786.2
2553.299	1803.2
2556.964	1808.2
2560.626	1773.2
2564.285	1771.2
2567.941	1776.2
2571.594	1751.2
2575.243	1755.2
2578.89	1726.2
2582.533	1717.2
2586.173	1718.2
2589.809	1671.2
2593.443	1661.2
2597.073	1659.2
2600.701	1634.2
2604.325	1628.2
2607.946	1616.2
2611.564	1588.2
2615.178	1590.2
2618.79	1597.2
2622.398	1563.2
2626.004	1549.2
2629.606	1534.2
2633.205	1497.2
2636.801	1477.2
2640.394	1478.2
2643.983	1451.2
2647.57	1429.2
2651.153	1384.2
2654.734	1368.2
2658.311	1353.2
2661.885	1327.2
2665.456	1302.2
2669.025	1293.2
2672.589	1290.2
2676.151	1267.2
2679.71	1243.2
2683.266	1246.2
2686.819	1209.2
2690.368	1197.2
2693.915	1155.2
2697.458	1139.2
2700.999	1094.2
2704.536	1088.2
2708.071	1052.2
2711.602	1037.2
2715.13	1008.2
2718.656	1012.2
2722.178	982.2
2725.697	955.2
2729.214	945.2
2732.727	957.2
2736.237	940.2
2739.744	936.2
2743.249	941.2
2746.75	935.2
2750.248	945.2
2753.743	948.2
2757.236	976.2
2760.725	987.2
2764.211	998.2
2767.695	998.2
2771.175	983.2
2774.652	973.2
2778.127	975.2
2781.598	963.2
2785.067	969.2
2788.532	955.2
2791.995	959.2
2795.455	962.2
2798.911	955.2
2802.365	935.2
2805.816	968.2
2809.264	970.2
2812.709	972.2
2816.151	966.2
2819.59	970.2
2823.026	959.2
2826.46	971.2
2829.89	974.2
2833.318	980.2
2836.742	967.2
2840.164	967.2
2843.583	976.2
2846.999	999.2
2850.412	1017.2
2853.822	1014.2
2857.229	1017.2
2860.634	1062.2
2864.035	1071.2
2867.434	1081.2
2870.83	1091.2
2874.223	1121.2
2877.613	1132.2
2881	1154.2
2884.385	1159.2
2887.766	1176.2
2891.145	1148.2
2894.521	1154.2
2897.894	1164.2
2901.264	1158.2
2904.631	1160.2
2907.996	1156.2
2911.358	1164.2
2914.717	1190.2
2918.073	1207.2
2921.426	1198.2
2924.777	1203.2
2928.124	1210.2
2931.469	1252.2
2934.811	1281.2
2938.15	1287.2
2941.487	1283.2
2944.821	1314.2
2948.152	1319.2
2951.48	1294.2
2954.805	1290.2
2958.128	1286.2
2961.447	1289.2
2964.765	1277.2
2968.079	1261.2
2971.39	1283.2
2974.699	1291.2
2978.005	1320.2
2981.308	1326.2
2984.609	1352.2
2987.907	1376.2
2991.202	1410.2
2994.494	1425.2
2997.784	1474.2
3001.07	1504.2
3004.355	1513.2
3007.636	1544.2
3010.915	1559.2
3014.191	1580.2
3017.464	1587.2
3020.734	1600.2
3024.002	1606.2
3027.267	1632.2
3030.53	1641.2
3033.789	1652.2
3037.046	1686.2
3040.301	1700.2
3043.552	1742.2
3046.801	1765.2
3050.048	1808.2
3053.291	1852.2
3056.532	1914.2
3059.771	1952.2
3063.006	2009.2
3066.239	2090.2
3069.469	2153.2
3072.697	2208.2
3075.922	2256.2
3079.144	2302.2
3082.364	2366.2
3085.581	2428.2
3088.795	2453.2
3092.007	2520.2
3095.216	2577.2
3098.423	2611.2
3101.627	2697.2
3104.828	2742.2
3108.026	2799.2
3111.222	2850.2
3114.416	2927.2
3117.607	3005.2
3120.795	3076.2
3123.98	3131.2
3127.163	3232.2
3130.344	3288.2
3133.521	3362.2
3136.696	3462.2
3139.869	3524.2
3143.039	3576.2
3146.206	3628.2
3149.371	3686.2
3152.533	3748.2
3155.693	3749.2
3158.85	3759.2
3162.005	3777.2
3165.157	3786.2
3168.306	3797.2
3171.453	3797.2
3174.597	3820.2
3177.739	3836.2
3180.878	3830.2
3184.014	3836.2
3187.149	3856.2
3190.28	3834.2
3193.409	3846.2
3196.536	3846.2
3199.659	3869.2
3202.781	3875.2
3205.9	3871.2
3209.016	3857.2
3212.13	3835.2
3215.241	3773.2
3218.35	3762.2
3221.456	3723.2
3224.56	3705.2
3227.661	3650.2
3230.76	3623.2
3233.856	3579.2
3236.95	3540.2
3240.041	3514.2
3243.13	3496.2
3246.216	3458.2
3249.3	3452.2
3252.382	3430.2
3255.46	3423.2
3258.537	3397.2
3261.611	3399.2
3264.682	3406.2
3267.751	3394.2
3270.818	3408.2
3273.882	3396.2
3276.943	3373.2
3280.002	3360.2
3283.059	3310.2
3286.113	3295.2
3289.165	3214.2
3292.214	3155.2
3295.261	3093.2
3298.306	3077.2
3301.348	3016.2
3304.387	3014.2
3307.425	2948.2
3310.459	2876.2
3313.492	2857.2
3316.521	2803.2
3319.549	2793.2
3322.574	2757.2
3325.597	2744.2
3328.617	2709.2
3331.635	2685.2
3334.65	2671.2
3337.663	2662.2
3340.674	2661.2
3343.682	2644.2
3346.688	2624.2
3349.691	2625.2
3352.692	2608.2
3355.691	2574.2
3358.687	2548.2
3361.681	2550.2
3364.673	2483.2
3367.662	2469.2
3370.649	2431.2
3373.633	2390.2
3376.615	2356.2
3379.595	2323.2
3382.572	2333.2
3385.547	2255.2
3388.52	2215.2
3391.49	2168.2
3394.458	2157.2
3397.424	2109.2
3400.387	2089.2
3403.348	2072.2
3406.307	2038.2
3409.263	2021.2
3412.217	2003.2
3415.168	1973.2
3418.118	1957.2
3421.065	1915.2
3424.009	1904.2
3426.951	1856.2
3429.891	1834.2
3432.829	1787.2
3435.764	1757.2
3438.697	1709.2
3441.628	1652.2
3444.557	1621.2
3447.483	1561.2
3450.407	1519.2
3453.328	1457.2
3456.247	1425.2
3459.164	1344.2
3462.079	1309.2
3464.991	1257.2
3467.902	1236.2
3470.809	1169.2
3473.715	1117.2
3476.618	1101.2
3479.519	1042.2
3482.418	1032.2
3485.315	997.2
3488.209	954.2
3491.101	906.2
3493.99	880.2
3496.878	827.2
3499.763	819.2
3502.646	787.2
3505.527	745.2
3508.405	704.2
3511.281	657.2
3514.155	625.2
3517.027	595.2
3519.897	554.2
3522.764	496.2
3525.629	481.2
3528.492	430.2
3531.352	390.2
3534.211	355.2
3537.067	319.2
3539.921	293.2
3542.773	241.2
3545.622	213.2
3548.469	191.2
3551.315	166.2
3554.157	149.2
3556.998	121.2
3559.837	104.2
3562.673	82.2
3565.507	43.2
3568.339	15.2
3571.169	16.2
3573.996	-12.8
3576.822	-23.8
3579.645	-40.8
3582.466	-67.8
3585.285	-87.8
3588.101	-110.8
3590.916	-132.8
3593.728	-150.8
3596.538	-161.8
3599.346	-185.8
3602.152	-195.8
3604.956	-207.8
3607.757	-218.8
3610.556	-244.8
3613.354	-260.8
3616.149	-256.8
3618.942	-271.8
3621.732	-280.8
3624.521	-307.8
3627.307	-307.8
3630.092	-310.8
3632.874	-328.8
3635.654	-332.8
3638.432	-336.8
3641.208	-346.8
3643.982	-363.8
3646.753	-370.8
3649.523	-376.8
3652.29	-390.8
3655.055	-392.8
3657.818	-402.8
3660.579	-412.8
3663.338	-426.8
3666.095	-430.8
3668.849	-447.8
3671.602	-449.8
3674.352	-461.8
3677.101	-465.8
3679.847	-471.8
3682.591	-479.8
3685.333	-484.8
3688.073	-487.8
3690.811	-492.8
3693.547	-492.8
3696.281	-506.8
3699.013	-506.8
3701.742	-507.8
3704.47	-521.8
3707.195	-520.8
3709.919	-526.8
3712.64	-535.8
3715.359	-533.8
3718.076	-541.8
3720.792	-537.8
3723.505	-542.8
3726.216	-544.8
3728.925	-544.8
3731.632	-549.8
3734.336	-548.8
3737.039	-551.8
3739.74	-555.8
3742.439	-554.8
3745.136	-567.8
3747.83	-566.8
3750.523	-566.8
3753.213	-548.8
3755.902	-574.8
3758.589	-571.8
3761.273	-575.8
3763.956	-583.8
3766.636	-577.8
3769.315	-574.8
3771.991	-579.8
3774.665	-584.8
3777.338	-584.8
3780.008	-585.8
3782.677	-587.8
3785.343	-579.8
3788.007	-587.8
3790.67	-587.8
3793.33	-590.8
3795.989	-594.8
3798.645	-589.8
3801.299	-588.8
3803.952	-601.8
3806.602	-608.8
3809.251	-598.8
3811.897	-601.8
3814.542	-603.8
3817.184	-601.8
3819.825	-598.8
3822.463	-591.8
3825.1	-602.8
3827.735	-597.8
3830.367	-599.8
3832.998	-608.8
3835.627	-609.8
3838.253	-611.8
3840.878	-615.8
3843.501	-609.8
3846.122	-611.8
3848.741	-606.8
3851.358	-608.8
3853.973	-612.8
3856.586	-607.8
3859.197	-613.8
3861.806	-620.8
3864.414	-609.8
3867.019	-612.8
3869.622	-607.8
3872.224	-606.8
3874.823	-591.8
3877.421	-578.8
3880.016	-561.8
3882.61	-538.8
3885.202	-541.8
3887.792	-553.8
3890.38	-583.8
3892.966	-597.8
3895.55	-611.8
3898.132	-628.8
3900.713	-623.8
3903.291	-622.8
3905.868	-620.8
3908.442	-625.8
3911.015	-625.8
3913.586	-616.8
3916.155	-622.8
3918.722	-623.8
3921.287	-624.8
3923.85	-625.8
3926.411	-624.8
3928.971	-635.8
3931.528	-629.8
3934.084	-624.8
3936.638	-627.8
3939.19	-628.8
3941.74	-628.8
3944.288	-632.8
3946.834	-625.8
3949.378	-630.8
3951.921	-627.8
3954.462	-630.8
3957	-622.8
3959.537	-622.8
3962.072	-621.8
3964.606	-630.8
3967.137	-624.8
3969.667	-631.8
3972.194	-619.8
3974.72	-624.8
3977.244	-618.8
3979.766	-615.8
3982.286	-622.8
3984.805	-614.8
3987.321	-611.8
3989.836	-619.8
3992.349	-606.8
3994.86	-610.8
3997.369	-616.8
3999.877	-614.8
4002.382	-615.8
4004.886	-607.8
4007.388	-608.8
4009.888	-615.8
4012.386	-614.8
4014.883	-611.8
4017.377	-613.8
4019.87	-611.8
4022.361	-611.8
4024.85	-613.8
4027.338	-618.8
4029.823	-615.8
4032.307	-615.8
4034.789	-608.8
4037.269	-606.8
4039.747	-615.8
4042.224	-613.8
4044.699	-615.8
4047.172	-614.8
4049.643	-618.8
4052.112	-621.8
4054.58	-623.8
4057.046	-618.8
4059.51	-615.8
4061.972	-621.8
4064.432	-617.8
4066.891	-616.8
4069.348	-613.8
4071.803	-609.8
4074.256	-616.8
4076.708	-615.8
4079.158	-614.8
4081.606	-616.8
4084.052	-625.8
4086.497	-616.8
4088.939	-608.8
4091.38	-611.8
4093.819	-606.8
4096.257	-646.8
4098.693	-650.8
4101.127	-646.8
4103.559	-649.8
4105.989	-363.8
4108.418	-349.8
4110.845	-336.8
4113.27	-303.8
4115.694	-261.8
4118.115	-220.8
4120.535	-611.8
4122.954	-615.8
4125.37	-607.8
4127.785	-619.8
4130.198	-617.8
4132.609	-620.8
4135.019	-648.8
4137.427	-653.8
4139.833	-647.8
4142.237	-645.8
