Data from 2018-2-14_conc=5_n=7_RamanShift_01.txt Node
Date: Wed Feb 14 14:24:25 IST 2018
User: aro
Spectrometer: QEPB0276
Trigger mode: 0
Integration Time (sec): 3.000000E1
Scans to average: 1
Electric dark correction enabled: true
Nonlinearity correction enabled: false
Boxcar width: 0
XAxis mode: Raman Shifts
Number of Pixels in Spectrum: 1044
>>>>>Begin Spectral Data<<<<<
160.701	-148
166.742	44
172.777	607
178.805	2292
184.826	6390
190.841	13425
196.849	21547
202.85	27379
208.845	29202
214.833	28913
220.815	28435
226.789	28308
232.758	28113
238.719	27908
244.674	27487
250.623	26983
256.565	26474
262.5	25880
268.429	25457
274.351	25047
280.267	24653
286.176	24432
292.079	24175
297.975	23955
303.865	23701
309.748	23523
315.625	23396
321.495	23260
327.359	23170
333.217	23135
339.068	23131
344.912	23120
350.751	23060
356.583	23033
362.408	23016
368.227	23022
374.04	23016
379.847	23105
385.647	23186
391.44	23276
397.228	23319
403.009	23438
408.784	23457
414.553	23607
420.315	23609
426.071	23634
431.821	23657
437.565	23680
443.302	23563
449.033	23483
454.758	23480
460.477	23523
466.189	23394
471.896	23315
477.596	23271
483.29	23196
488.978	23157
494.66	23079
500.335	22940
506.005	22719
511.668	22423
517.325	22205
522.977	21961
528.622	21778
534.261	21686
539.894	21625
545.521	21540
551.141	21391
556.756	21337
562.365	21218
567.968	21190
573.565	21068
579.155	20995
584.74	20873
590.319	20863
595.892	20810
601.459	20692
607.02	20623
612.575	20482
618.124	20322
623.667	20212
629.204	20095
634.735	20027
640.261	19901
645.781	19902
651.294	19875
656.802	19798
662.304	19806
667.8	19760
673.29	19686
678.775	19620
684.254	19557
689.726	19599
695.193	19417
700.655	19369
706.11	19295
711.56	19214
717.004	19077
722.442	18979
727.874	18933
733.301	18868
738.722	18850
744.137	18755
749.547	18786
754.951	18793
760.349	18787
765.741	18767
771.128	18767
776.509	18791
781.885	18855
787.254	18811
792.618	18672
797.977	18530
803.33	18404
808.677	18236
814.019	18198
819.355	18122
824.686	18037
830.011	17998
835.33	18006
840.644	17978
845.952	18013
851.255	18017
856.552	18076
861.844	18043
867.13	18045
872.41	17917
877.686	17800
882.955	17697
888.219	17567
893.478	17307
898.731	17144
903.979	16963
909.221	16884
914.458	16803
919.69	16834
924.916	16825
930.136	16916
935.351	16889
940.561	16886
945.766	16862
950.965	16764
956.158	16624
961.347	16479
966.529	16256
971.707	16102
976.879	15870
982.046	15712
987.208	15700
992.364	15691
997.515	15767
1002.66	15995
1007.801	16044
1012.936	16217
1018.066	16232
1023.19	16223
1028.309	16204
1033.423	16158
1038.532	16061
1043.636	15922
1048.734	15750
1053.827	15592
1058.915	15401
1063.998	15269
1069.075	15240
1074.147	15203
1079.214	15269
1084.276	15425
1089.333	15456
1094.385	15584
1099.431	15566
1104.472	15595
1109.509	15474
1114.54	15313
1119.565	15100
1124.586	14923
1129.602	14736
1134.613	14684
1139.618	14570
1144.619	14496
1149.614	14514
1154.604	14587
1159.589	14642
1164.57	14673
1169.545	14663
1174.515	14652
1179.48	14574
1184.44	14466
1189.395	14385
1194.345	14291
1199.29	14188
1204.23	14183
1209.165	14263
1214.095	14270
1219.021	14389
1223.941	14435
1228.856	14575
1233.766	14559
1238.672	14618
1243.572	14578
1248.467	14476
1253.358	14304
1258.244	14103
1263.124	13857
1268	13656
1272.871	13528
1277.737	13374
1282.599	13359
1287.455	13342
1292.306	13412
1297.153	13438
1301.995	13449
1306.832	13526
1311.664	13526
1316.491	13540
1321.314	13417
1326.132	13235
1330.945	12955
1335.753	12617
1340.556	12256
1345.354	11962
1350.148	11788
1354.937	11675
1359.722	11665
1364.501	11791
1369.276	11971
1374.046	12170
1378.811	12342
1383.572	12498
1388.327	12525
1393.079	12411
1397.825	12267
1402.567	12063
1407.304	11900
1412.036	11834
1416.764	11669
1421.487	11615
1426.205	11534
1430.919	11503
1435.628	11537
1440.333	11536
1445.032	11555
1449.727	11593
1454.418	11578
1459.104	11423
1463.785	11243
1468.462	10987
1473.134	10774
1477.802	10555
1482.465	10387
1487.123	10302
1491.777	10258
1496.426	10333
1501.071	10446
1505.711	10621
1510.347	10842
1514.978	11032
1519.604	11193
1524.226	11291
1528.844	11388
1533.457	11286
1538.065	11210
1542.669	11127
1547.269	11023
1551.864	10921
1556.454	10953
1561.041	10934
1565.622	10914
1570.199	10887
1574.772	10957
1579.34	11024
1583.904	11092
1588.464	11152
1593.019	11107
1597.569	11091
1602.115	11038
1606.657	10944
1611.195	10887
1615.728	10797
1620.256	10773
1624.78	10772
1629.3	10809
1633.816	10798
1638.327	10891
1642.834	10905
1647.336	10971
1651.834	11032
1656.328	10967
1660.817	10954
1665.302	10858
1669.783	10655
1674.259	10431
1678.732	10137
1683.199	9846
1687.663	9456
1692.122	9197
1696.577	9030
1701.028	9042
1705.474	9080
1709.917	9222
1714.355	9253
1718.788	9167
1723.218	8998
1727.643	8867
1732.064	8680
1736.481	8483
1740.893	8272
1745.301	8061
1749.705	7825
1754.105	7596
1758.501	7398
1762.893	7202
1767.28	7006
1771.663	6873
1776.042	6777
1780.417	6696
1784.787	6694
1789.154	6752
1793.516	6893
1797.874	7049
1802.228	7196
1806.578	7247
1810.924	7262
1815.266	7151
1819.603	7066
1823.937	6951
1828.266	6795
1832.591	6693
1836.913	6608
1841.23	6547
1845.543	6533
1849.852	6481
1854.156	6449
1858.457	6457
1862.754	6411
1867.047	6397
1871.335	6443
1875.62	6420
1879.9	6425
1884.177	6364
1888.449	6293
1892.718	6253
1896.982	6181
1901.243	6143
1905.499	6068
1909.752	6041
1914	6085
1918.245	6099
1922.485	6128
1926.722	6214
1930.954	6276
1935.183	6385
1939.408	6403
1943.628	6482
1947.845	6464
1952.058	6457
1956.267	6384
1960.472	6312
1964.673	6213
1968.87	6110
1973.063	5991
1977.252	5949
1981.438	5861
1985.619	5800
1989.797	5764
1993.971	5741
1998.14	5699
2002.306	5672
2006.469	5679
2010.627	5630
2014.781	5612
2018.932	5534
2023.078	5514
2027.221	5443
2031.36	5342
2035.495	5228
2039.627	5144
2043.754	5125
2047.878	5071
2051.998	5025
2056.114	5035
2060.226	5026
2064.334	5013
2068.439	5043
2072.54	5077
2076.637	5146
2080.73	5142
2084.82	5192
2088.906	5191
2092.988	5197
2097.066	5187
2101.14	5152
2105.211	5106
2109.278	5086
2113.342	5052
2117.401	5041
2121.457	5015
2125.509	4988
2129.558	4946
2133.602	4906
2137.643	4876
2141.681	4852
2145.714	4856
2149.744	4767
2153.77	4749
2157.793	4717
2161.812	4655
2165.827	4576
2169.838	4525
2173.846	4450
2177.851	4370
2181.851	4319
2185.848	4258
2189.841	4175
2193.831	4136
2197.817	4134
2201.799	4080
2205.778	4069
2209.753	4057
2213.725	4058
2217.693	4017
2221.657	4034
2225.618	4017
2229.575	4014
2233.529	3948
2237.479	3938
2241.425	3861
2245.368	3827
2249.307	3770
2253.243	3715
2257.175	3656
2261.104	3623
2265.029	3587
2268.95	3535
2272.868	3490
2276.783	3444
2280.694	3422
2284.601	3400
2288.505	3365
2292.405	3313
2296.302	3261
2300.195	3266
2304.085	3217
2307.971	3163
2311.854	3126
2315.734	3080
2319.609	3035
2323.482	2998
2327.351	2949
2331.216	2912
2335.078	2918
2338.937	2904
2342.792	2880
2346.643	2861
2350.492	2858
2354.336	2867
2358.178	2879
2362.015	2892
2365.85	2896
2369.681	2887
2373.508	2909
2377.333	2878
2381.153	2850
2384.971	2848
2388.785	2816
2392.595	2777
2396.402	2764
2400.206	2753
2404.007	2739
2407.804	2746
2411.597	2688
2415.388	2662
2419.174	2641
2422.958	2637
2426.738	2618
2430.515	2608
2434.289	2573
2438.059	2569
2441.825	2516
2445.589	2506
2449.349	2488
2453.106	2470
2456.859	2414
2460.61	2404
2464.356	2362
2468.1	2376
2471.84	2301
2475.577	2294
2479.311	2278
2483.041	2268
2486.768	2259
2490.492	2238
2494.213	2251
2497.93	2227
2501.644	2217
2505.355	2215
2509.062	2199
2512.766	2179
2516.467	2175
2520.165	2171
2523.859	2148
2527.551	2155
2531.239	2141
2534.923	2117
2538.605	2092
2542.283	2104
2545.958	2108
2549.63	2109
2553.299	2088
2556.964	2097
2560.626	2080
2564.285	2068
2567.941	2078
2571.594	2056
2575.243	2044
2578.89	2016
2582.533	2012
2586.173	1975
2589.809	1967
2593.443	1959
2597.073	1945
2600.701	1925
2604.325	1894
2607.946	1877
2611.564	1885
2615.178	1873
2618.79	1870
2622.398	1853
2626.004	1833
2629.606	1798
2633.205	1774
2636.801	1741
2640.394	1737
2643.983	1700
2647.57	1681
2651.153	1673
2654.734	1622
2658.311	1622
2661.885	1585
2665.456	1547
2669.025	1543
2672.589	1508
2676.151	1494
2679.71	1473
2683.266	1463
2686.819	1428
2690.368	1393
2693.915	1375
2697.458	1349
2700.999	1303
2704.536	1289
2708.071	1248
2711.602	1226
2715.13	1220
2718.656	1181
2722.178	1164
2725.697	1174
2729.214	1140
2732.727	1123
2736.237	1120
2739.744	1127
2743.249	1141
2746.75	1142
2750.248	1149
2753.743	1170
2757.236	1184
2760.725	1200
2764.211	1184
2767.695	1205
2771.175	1194
2774.652	1181
2778.127	1182
2781.598	1175
2785.067	1160
2788.532	1185
2791.995	1149
2795.455	1150
2798.911	1159
2802.365	1157
2805.816	1154
2809.264	1152
2812.709	1153
2816.151	1151
2819.59	1174
2823.026	1161
2826.46	1167
2829.89	1167
2833.318	1162
2836.742	1185
2840.164	1186
2843.583	1197
2846.999	1207
2850.412	1213
2853.822	1216
2857.229	1242
2860.634	1255
2864.035	1259
2867.434	1308
2870.83	1329
2874.223	1339
2877.613	1353
2881	1377
2884.385	1376
2887.766	1394
2891.145	1374
2894.521	1379
2897.894	1366
2901.264	1377
2904.631	1373
2907.996	1368
2911.358	1369
2914.717	1404
2918.073	1396
2921.426	1426
2924.777	1427
2928.124	1466
2931.469	1475
2934.811	1525
2938.15	1507
2941.487	1549
2944.821	1537
2948.152	1552
2951.48	1535
2954.805	1530
2958.128	1507
2961.447	1513
2964.765	1500
2968.079	1506
2971.39	1539
2974.699	1557
2978.005	1564
2981.308	1581
2984.609	1609
2987.907	1657
2991.202	1678
2994.494	1701
2997.784	1756
3001.07	1782
3004.355	1791
3007.636	1836
3010.915	1869
3014.191	1841
3017.464	1882
3020.734	1898
3024.002	1896
3027.267	1925
3030.53	1929
3033.789	1929
3037.046	1958
3040.301	1999
3043.552	2027
3046.801	2055
3050.048	2108
3053.291	2175
3056.532	2226
3059.771	2291
3063.006	2343
3066.239	2410
3069.469	2500
3072.697	2540
3075.922	2609
3079.144	2686
3082.364	2753
3085.581	2808
3088.795	2862
3092.007	2916
3095.216	2979
3098.423	3044
3101.627	3119
3104.828	3166
3108.026	3257
3111.222	3335
3114.416	3382
3117.607	3477
3120.795	3546
3123.98	3640
3127.163	3742
3130.344	3843
3133.521	3904
3136.696	4000
3139.869	4070
3143.039	4178
3146.206	4173
3149.371	4242
3152.533	4297
3155.693	4315
3158.85	4325
3162.005	4365
3165.157	4378
3168.306	4366
3171.453	4382
3174.597	4409
3177.739	4422
3180.878	4417
3184.014	4420
3187.149	4420
3190.28	4446
3193.409	4436
3196.536	4435
3199.659	4464
3202.781	4460
3205.9	4483
3209.016	4459
3212.13	4429
3215.241	4408
3218.35	4383
3221.456	4336
3224.56	4282
3227.661	4230
3230.76	4217
3233.856	4200
3236.95	4104
3240.041	4089
3243.13	4059
3246.216	4059
3249.3	4008
3252.382	4006
3255.46	3992
3258.537	3967
3261.611	3979
3264.682	3987
3267.751	3975
3270.818	3979
3273.882	3961
3276.943	3925
3280.002	3919
3283.059	3845
3286.113	3813
3289.165	3753
3292.214	3703
3295.261	3625
3298.306	3590
3301.348	3517
3304.387	3472
3307.425	3418
3310.459	3375
3313.492	3330
3316.521	3283
3319.549	3253
3322.574	3206
3325.597	3191
3328.617	3149
3331.635	3124
3334.65	3112
3337.663	3116
3340.674	3047
3343.682	3037
3346.688	3067
3349.691	3046
3352.692	3021
3355.691	3000
3358.687	2976
3361.681	2954
3364.673	2906
3367.662	2877
3370.649	2837
3373.633	2796
3376.615	2758
3379.595	2699
3382.572	2696
3385.547	2620
3388.52	2576
3391.49	2547
3394.458	2512
3397.424	2479
3400.387	2458
3403.348	2418
3406.307	2398
3409.263	2384
3412.217	2347
3415.168	2336
3418.118	2284
3421.065	2275
3424.009	2224
3426.951	2195
3429.891	2153
3432.829	2131
3435.764	2054
3438.697	2016
3441.628	1943
3444.557	1915
3447.483	1841
3450.407	1796
3453.328	1758
3456.247	1677
3459.164	1625
3462.079	1574
3464.991	1504
3467.902	1455
3470.809	1393
3473.715	1333
3476.618	1321
3479.519	1268
3482.418	1219
3485.315	1198
3488.209	1145
3491.101	1106
3493.99	1061
3496.878	1028
3499.763	1001
3502.646	964
3505.527	918
3508.405	876
3511.281	813
3514.155	791
3517.027	739
3519.897	703
3522.764	631
3525.629	603
3528.492	558
3531.352	516
3534.211	479
3537.067	416
3539.921	382
3542.773	359
3545.622	318
3548.469	284
3551.315	264
3554.157	227
3556.998	188
3559.837	157
3562.673	142
3565.507	109
3568.339	83
3571.169	73
3573.996	47
3576.822	28
3579.645	-3
3582.466	-23
3585.285	-46
3588.101	-63
3590.916	-81
3593.728	-117
3596.538	-127
3599.346	-159
3602.152	-175
3604.956	-182
3607.757	-213
3610.556	-228
3613.354	-243
3616.149	-252
3618.942	-263
3621.732	-281
3624.521	-302
3627.307	-304
3630.092	-321
3632.874	-329
3635.654	-344
3638.432	-340
3641.208	-359
3643.982	-366
3646.753	-376
3649.523	-390
3652.29	-395
3655.055	-407
3657.818	-414
3660.579	-424
3663.338	-440
3666.095	-453
3668.849	-468
3671.602	-474
3674.352	-489
3677.101	-486
3679.847	-501
3682.591	-501
3685.333	-511
3688.073	-513
3690.811	-521
3693.547	-521
3696.281	-537
3699.013	-543
3701.742	-544
3704.47	-550
3707.195	-547
3709.919	-561
3712.64	-563
3715.359	-559
3718.076	-570
3720.792	-570
3723.505	-573
3726.216	-579
3728.925	-578
3731.632	-589
3734.336	-591
3737.039	-597
3739.74	-589
3742.439	-597
3745.136	-598
3747.83	-608
3750.523	-602
3753.213	-607
3755.902	-618
3758.589	-613
3761.273	-616
3763.956	-625
3766.636	-618
3769.315	-621
3771.991	-619
3774.665	-630
3777.338	-620
3780.008	-631
3782.677	-632
3785.343	-630
3788.007	-625
3790.67	-626
3793.33	-637
3795.989	-631
3798.645	-633
3801.299	-633
3803.952	-642
3806.602	-641
3809.251	-649
3811.897	-642
3814.542	-646
3817.184	-644
3819.825	-642
3822.463	-641
3825.1	-656
3827.735	-643
3830.367	-647
3832.998	-656
3835.627	-652
3838.253	-650
3840.878	-655
3843.501	-653
3846.122	-645
3848.741	-650
3851.358	-649
3853.973	-647
3856.586	-655
3859.197	-658
3861.806	-660
3864.414	-654
3867.019	-653
3869.622	-653
3872.224	-655
3874.823	-634
3877.421	-620
3880.016	-605
3882.61	-585
3885.202	-580
3887.792	-592
3890.38	-631
3892.966	-639
3895.55	-655
3898.132	-669
3900.713	-670
3903.291	-664
3905.868	-666
3908.442	-668
3911.015	-672
3913.586	-663
3916.155	-663
3918.722	-673
3921.287	-670
3923.85	-671
3926.411	-674
3928.971	-681
3931.528	-675
3934.084	-674
3936.638	-676
3939.19	-672
3941.74	-674
3944.288	-679
3946.834	-674
3949.378	-679
3951.921	-679
3954.462	-685
3957	-671
3959.537	-674
3962.072	-674
3964.606	-672
3967.137	-672
3969.667	-672
3972.194	-667
3974.72	-672
3977.244	-664
3979.766	-663
3982.286	-667
3984.805	-664
3987.321	-660
3989.836	-663
3992.349	-656
3994.86	-654
3997.369	-666
3999.877	-653
4002.382	-660
4004.886	-656
4007.388	-652
4009.888	-655
4012.386	-665
4014.883	-660
4017.377	-660
4019.87	-657
4022.361	-662
4024.85	-660
4027.338	-659
4029.823	-655
4032.307	-666
4034.789	-658
4037.269	-655
4039.747	-661
4042.224	-668
4044.699	-664
4047.172	-661
4049.643	-657
4052.112	-667
4054.58	-664
4057.046	-662
4059.51	-665
4061.972	-663
4064.432	-667
4066.891	-663
4069.348	-662
4071.803	-649
4074.256	-660
4076.708	-655
4079.158	-662
4081.606	-663
4084.052	-672
4086.497	-664
4088.939	-661
4091.38	-661
4093.819	-661
4096.257	-696
4098.693	-697
4101.127	-700
4103.559	-699
4105.989	-398
4108.418	-384
4110.845	-358
4113.27	-330
4115.694	-286
4118.115	-236
4120.535	-664
4122.954	-663
4125.37	-653
4127.785	-662
4130.198	-664
4132.609	-667
4135.019	-701
4137.427	-701
4139.833	-699
4142.237	-694
