Data from 2018-2-14_conc=0_n=6_RamanShift_03.txt Node
Date: Wed Feb 14 10:43:56 IST 2018
User: aro
Spectrometer: QEPB0276
Trigger mode: 0
Integration Time (sec): 3.000000E1
Scans to average: 1
Electric dark correction enabled: true
Nonlinearity correction enabled: false
Boxcar width: 0
XAxis mode: Raman Shifts
Number of Pixels in Spectrum: 1044
>>>>>Begin Spectral Data<<<<<
160.701	-139.9
166.742	45.1
172.777	563.1
178.805	2183.1
184.826	6031.1
190.841	12590.1
196.849	20244.1
202.85	25677.1
208.845	27495.1
214.833	27092.1
220.815	26658.1
226.789	26454.1
232.758	26333.1
238.719	26129.1
244.674	25735.1
250.623	25269.1
256.565	24788.1
262.5	24188.1
268.429	23827.1
274.351	23410.1
280.267	23074.1
286.176	22813.1
292.079	22601.1
297.975	22355.1
303.865	22148.1
309.748	22030.1
315.625	21874.1
321.495	21775.1
327.359	21643.1
333.217	21608.1
339.068	21554.1
344.912	21546.1
350.751	21520.1
356.583	21437.1
362.408	21398.1
368.227	21460.1
374.04	21442.1
379.847	21459.1
385.647	21614.1
391.44	21650.1
397.228	21843.1
403.009	21861.1
408.784	21930.1
414.553	21995.1
420.315	22026.1
426.071	22078.1
431.821	22039.1
437.565	22022.1
443.302	22041.1
449.033	21963.1
454.758	21918.1
460.477	21861.1
466.189	21849.1
471.896	21823.1
477.596	21674.1
483.29	21589.1
488.978	21665.1
494.66	21576.1
500.335	21456.1
506.005	21215.1
511.668	20970.1
517.325	20696.1
522.977	20504.1
528.622	20401.1
534.261	20235.1
539.894	20187.1
545.521	20083.1
551.141	19993.1
556.756	19968.1
562.365	19885.1
567.968	19761.1
573.565	19706.1
579.155	19642.1
584.74	19556.1
590.319	19451.1
595.892	19340.1
601.459	19294.1
607.02	19239.1
612.575	19143.1
618.124	19061.1
623.667	18871.1
629.204	18803.1
634.735	18750.1
640.261	18631.1
645.781	18529.1
651.294	18518.1
656.802	18487.1
662.304	18489.1
667.8	18431.1
673.29	18369.1
678.775	18389.1
684.254	18244.1
689.726	18224.1
695.193	18179.1
700.655	18066.1
706.11	17974.1
711.56	17946.1
717.004	17858.1
722.442	17754.1
727.874	17691.1
733.301	17671.1
738.722	17572.1
744.137	17509.1
749.547	17581.1
754.951	17565.1
760.349	17550.1
765.741	17530.1
771.128	17546.1
776.509	17578.1
781.885	17495.1
787.254	17451.1
792.618	17380.1
797.977	17260.1
803.33	17220.1
808.677	17063.1
814.019	17013.1
819.355	16942.1
824.686	16891.1
830.011	16792.1
835.33	16818.1
840.644	16803.1
845.952	16841.1
851.255	16875.1
856.552	16876.1
861.844	16877.1
867.13	16836.1
872.41	16711.1
877.686	16683.1
882.955	16486.1
888.219	16316.1
893.478	16229.1
898.731	15971.1
903.979	15853.1
909.221	15699.1
914.458	15643.1
919.69	15593.1
924.916	15735.1
930.136	15735.1
935.351	15774.1
940.561	15777.1
945.766	15702.1
950.965	15620.1
956.158	15571.1
961.347	15416.1
966.529	15176.1
971.707	14991.1
976.879	14842.1
982.046	14725.1
987.208	14642.1
992.364	14629.1
997.515	14723.1
1002.66	14868.1
1007.801	14980.1
1012.936	15130.1
1018.066	15155.1
1023.19	15115.1
1028.309	15104.1
1033.423	15083.1
1038.532	15011.1
1043.636	14840.1
1048.734	14693.1
1053.827	14515.1
1058.915	14384.1
1063.998	14265.1
1069.075	14215.1
1074.147	14179.1
1079.214	14233.1
1084.276	14338.1
1089.333	14426.1
1094.385	14492.1
1099.431	14545.1
1104.472	14588.1
1109.509	14475.1
1114.54	14298.1
1119.565	14158.1
1124.586	13944.1
1129.602	13779.1
1134.613	13678.1
1139.618	13588.1
1144.619	13563.1
1149.614	13578.1
1154.604	13611.1
1159.589	13585.1
1164.57	13630.1
1169.545	13697.1
1174.515	13686.1
1179.48	13627.1
1184.44	13500.1
1189.395	13365.1
1194.345	13312.1
1199.29	13219.1
1204.23	13223.1
1209.165	13283.1
1214.095	13352.1
1219.021	13417.1
1223.941	13493.1
1228.856	13547.1
1233.766	13577.1
1238.672	13647.1
1243.572	13548.1
1248.467	13504.1
1253.358	13394.1
1258.244	13166.1
1263.124	12957.1
1268	12764.1
1272.871	12662.1
1277.737	12541.1
1282.599	12482.1
1287.455	12467.1
1292.306	12453.1
1297.153	12511.1
1301.995	12555.1
1306.832	12626.1
1311.664	12651.1
1316.491	12623.1
1321.314	12514.1
1326.132	12337.1
1330.945	12022.1
1335.753	11725.1
1340.556	11433.1
1345.354	11236.1
1350.148	11053.1
1354.937	10946.1
1359.722	10986.1
1364.501	11016.1
1369.276	11155.1
1374.046	11328.1
1378.811	11440.1
1383.572	11575.1
1388.327	11609.1
1393.079	11584.1
1397.825	11451.1
1402.567	11260.1
1407.304	11112.1
1412.036	10971.1
1416.764	10878.1
1421.487	10828.1
1426.205	10793.1
1430.919	10725.1
1435.628	10763.1
1440.333	10722.1
1445.032	10768.1
1449.727	10803.1
1454.418	10770.1
1459.104	10688.1
1463.785	10491.1
1468.462	10278.1
1473.134	10066.1
1477.802	9865.1
1482.465	9714.1
1487.123	9585.1
1491.777	9611.1
1496.426	9607.1
1501.071	9748.1
1505.711	9927.1
1510.347	10078.1
1514.978	10287.1
1519.604	10413.1
1524.226	10493.1
1528.844	10484.1
1533.457	10445.1
1538.065	10420.1
1542.669	10338.1
1547.269	10289.1
1551.864	10221.1
1556.454	10199.1
1561.041	10130.1
1565.622	10136.1
1570.199	10125.1
1574.772	10197.1
1579.34	10283.1
1583.904	10315.1
1588.464	10355.1
1593.019	10358.1
1597.569	10336.1
1602.115	10257.1
1606.657	10230.1
1611.195	10134.1
1615.728	10076.1
1620.256	9978.1
1624.78	10011.1
1629.3	10080.1
1633.816	10081.1
1638.327	10130.1
1642.834	10197.1
1647.336	10224.1
1651.834	10235.1
1656.328	10246.1
1660.817	10190.1
1665.302	10075.1
1669.783	9920.1
1674.259	9769.1
1678.732	9445.1
1683.199	9156.1
1687.663	8804.1
1692.122	8560.1
1696.577	8483.1
1701.028	8441.1
1705.474	8504.1
1709.917	8603.1
1714.355	8581.1
1718.788	8550.1
1723.218	8388.1
1727.643	8215.1
1732.064	8120.1
1736.481	7869.1
1740.893	7681.1
1745.301	7469.1
1749.705	7274.1
1754.105	7061.1
1758.501	6883.1
1762.893	6674.1
1767.28	6531.1
1771.663	6415.1
1776.042	6305.1
1780.417	6212.1
1784.787	6276.1
1789.154	6312.1
1793.516	6472.1
1797.874	6549.1
1802.228	6692.1
1806.578	6742.1
1810.924	6760.1
1815.266	6673.1
1819.603	6553.1
1823.937	6471.1
1828.266	6375.1
1832.591	6243.1
1836.913	6140.1
1841.23	6118.1
1845.543	6065.1
1849.852	6037.1
1854.156	6025.1
1858.457	6017.1
1862.754	6028.1
1867.047	5983.1
1871.335	5969.1
1875.62	5960.1
1879.9	5949.1
1884.177	5950.1
1888.449	5853.1
1892.718	5801.1
1896.982	5759.1
1901.243	5703.1
1905.499	5659.1
1909.752	5649.1
1914	5650.1
1918.245	5636.1
1922.485	5733.1
1926.722	5771.1
1930.954	5886.1
1935.183	5916.1
1939.408	5979.1
1943.628	6018.1
1947.845	5997.1
1952.058	5979.1
1956.267	5970.1
1960.472	5896.1
1964.673	5796.1
1968.87	5693.1
1973.063	5602.1
1977.252	5513.1
1981.438	5476.1
1985.619	5412.1
1989.797	5334.1
1993.971	5325.1
1998.14	5325.1
2002.306	5227.1
2006.469	5255.1
2010.627	5218.1
2014.781	5188.1
2018.932	5196.1
2023.078	5137.1
2027.221	5042.1
2031.36	4976.1
2035.495	4902.1
2039.627	4841.1
2043.754	4745.1
2047.878	4725.1
2051.998	4703.1
2056.114	4653.1
2060.226	4685.1
2064.334	4703.1
2068.439	4675.1
2072.54	4734.1
2076.637	4775.1
2080.73	4828.1
2084.82	4817.1
2088.906	4842.1
2092.988	4835.1
2097.066	4853.1
2101.14	4794.1
2105.211	4773.1
2109.278	4742.1
2113.342	4713.1
2117.401	4699.1
2121.457	4638.1
2125.509	4640.1
2129.558	4635.1
2133.602	4537.1
2137.643	4547.1
2141.681	4512.1
2145.714	4486.1
2149.744	4431.1
2153.77	4445.1
2157.793	4404.1
2161.812	4323.1
2165.827	4249.1
2169.838	4199.1
2173.846	4122.1
2177.851	4046.1
2181.851	4002.1
2185.848	3922.1
2189.841	3896.1
2193.831	3868.1
2197.817	3794.1
2201.799	3794.1
2205.778	3782.1
2209.753	3774.1
2213.725	3740.1
2217.693	3759.1
2221.657	3746.1
2225.618	3750.1
2229.575	3698.1
2233.529	3659.1
2237.479	3622.1
2241.425	3615.1
2245.368	3543.1
2249.307	3485.1
2253.243	3462.1
2257.175	3375.1
2261.104	3325.1
2265.029	3338.1
2268.95	3297.1
2272.868	3247.1
2276.783	3232.1
2280.694	3185.1
2284.601	3136.1
2288.505	3120.1
2292.405	3080.1
2296.302	3057.1
2300.195	3005.1
2304.085	2976.1
2307.971	2941.1
2311.854	2899.1
2315.734	2846.1
2319.609	2797.1
2323.482	2780.1
2327.351	2738.1
2331.216	2738.1
2335.078	2686.1
2338.937	2649.1
2342.792	2660.1
2346.643	2634.1
2350.492	2668.1
2354.336	2665.1
2358.178	2659.1
2362.015	2667.1
2365.85	2662.1
2369.681	2647.1
2373.508	2694.1
2377.333	2642.1
2381.153	2629.1
2384.971	2619.1
2388.785	2621.1
2392.595	2580.1
2396.402	2562.1
2400.206	2535.1
2404.007	2518.1
2407.804	2515.1
2411.597	2501.1
2415.388	2483.1
2419.174	2460.1
2422.958	2458.1
2426.738	2441.1
2430.515	2397.1
2434.289	2390.1
2438.059	2393.1
2441.825	2334.1
2445.589	2324.1
2449.349	2294.1
2453.106	2280.1
2456.859	2252.1
2460.61	2222.1
2464.356	2207.1
2468.1	2176.1
2471.84	2110.1
2475.577	2141.1
2479.311	2106.1
2483.041	2100.1
2486.768	2101.1
2490.492	2085.1
2494.213	2080.1
2497.93	2062.1
2501.644	2070.1
2505.355	2054.1
2509.062	2041.1
2512.766	2017.1
2516.467	2020.1
2520.165	2013.1
2523.859	1978.1
2527.551	1989.1
2531.239	1958.1
2534.923	1959.1
2538.605	1953.1
2542.283	1923.1
2545.958	1919.1
2549.63	1962.1
2553.299	1966.1
2556.964	1922.1
2560.626	1919.1
2564.285	1900.1
2567.941	1899.1
2571.594	1887.1
2575.243	1881.1
2578.89	1883.1
2582.533	1869.1
2586.173	1847.1
2589.809	1810.1
2593.443	1798.1
2597.073	1793.1
2600.701	1783.1
2604.325	1758.1
2607.946	1748.1
2611.564	1723.1
2615.178	1745.1
2618.79	1725.1
2622.398	1697.1
2626.004	1669.1
2629.606	1654.1
2633.205	1630.1
2636.801	1617.1
2640.394	1613.1
2643.983	1550.1
2647.57	1550.1
2651.153	1520.1
2654.734	1499.1
2658.311	1456.1
2661.885	1457.1
2665.456	1435.1
2669.025	1410.1
2672.589	1393.1
2676.151	1392.1
2679.71	1370.1
2683.266	1356.1
2686.819	1322.1
2690.368	1308.1
2693.915	1278.1
2697.458	1250.1
2700.999	1218.1
2704.536	1181.1
2708.071	1157.1
2711.602	1131.1
2715.13	1104.1
2718.656	1093.1
2722.178	1064.1
2725.697	1053.1
2729.214	1060.1
2732.727	1045.1
2736.237	1036.1
2739.744	1032.1
2743.249	1042.1
2746.75	1062.1
2750.248	1070.1
2753.743	1068.1
2757.236	1096.1
2760.725	1103.1
2764.211	1106.1
2767.695	1115.1
2771.175	1105.1
2774.652	1109.1
2778.127	1076.1
2781.598	1090.1
2785.067	1068.1
2788.532	1062.1
2791.995	1059.1
2795.455	1074.1
2798.911	1077.1
2802.365	1090.1
2805.816	1053.1
2809.264	1080.1
2812.709	1060.1
2816.151	1070.1
2819.59	1075.1
2823.026	1066.1
2826.46	1059.1
2829.89	1056.1
2833.318	1058.1
2836.742	1092.1
2840.164	1074.1
2843.583	1110.1
2846.999	1088.1
2850.412	1109.1
2853.822	1128.1
2857.229	1138.1
2860.634	1159.1
2864.035	1160.1
2867.434	1202.1
2870.83	1218.1
2874.223	1247.1
2877.613	1230.1
2881	1270.1
2884.385	1289.1
2887.766	1274.1
2891.145	1286.1
2894.521	1261.1
2897.894	1267.1
2901.264	1272.1
2904.631	1272.1
2907.996	1275.1
2911.358	1287.1
2914.717	1280.1
2918.073	1298.1
2921.426	1327.1
2924.777	1328.1
2928.124	1343.1
2931.469	1377.1
2934.811	1407.1
2938.15	1406.1
2941.487	1425.1
2944.821	1441.1
2948.152	1423.1
2951.48	1433.1
2954.805	1423.1
2958.128	1384.1
2961.447	1409.1
2964.765	1392.1
2968.079	1402.1
2971.39	1394.1
2974.699	1419.1
2978.005	1452.1
2981.308	1460.1
2984.609	1506.1
2987.907	1522.1
2991.202	1550.1
2994.494	1588.1
2997.784	1635.1
3001.07	1653.1
3004.355	1662.1
3007.636	1691.1
3010.915	1706.1
3014.191	1729.1
3017.464	1730.1
3020.734	1741.1
3024.002	1765.1
3027.267	1779.1
3030.53	1765.1
3033.789	1790.1
3037.046	1812.1
3040.301	1846.1
3043.552	1897.1
3046.801	1920.1
3050.048	1965.1
3053.291	2034.1
3056.532	2070.1
3059.771	2139.1
3063.006	2185.1
3066.239	2261.1
3069.469	2327.1
3072.697	2383.1
3075.922	2435.1
3079.144	2483.1
3082.364	2524.1
3085.581	2610.1
3088.795	2652.1
3092.007	2705.1
3095.216	2774.1
3098.423	2827.1
3101.627	2889.1
3104.828	2965.1
3108.026	3002.1
3111.222	3069.1
3114.416	3160.1
3117.607	3242.1
3120.795	3321.1
3123.98	3375.1
3127.163	3469.1
3130.344	3507.1
3133.521	3615.1
3136.696	3704.1
3139.869	3737.1
3143.039	3829.1
3146.206	3902.1
3149.371	3950.1
3152.533	3974.1
3155.693	3988.1
3158.85	4017.1
3162.005	4029.1
3165.157	4029.1
3168.306	4053.1
3171.453	4052.1
3174.597	4070.1
3177.739	4127.1
3180.878	4084.1
3184.014	4098.1
3187.149	4108.1
3190.28	4119.1
3193.409	4100.1
3196.536	4132.1
3199.659	4152.1
3202.781	4160.1
3205.9	4171.1
3209.016	4124.1
3212.13	4123.1
3215.241	4097.1
3218.35	4053.1
3221.456	4025.1
3224.56	3958.1
3227.661	3918.1
3230.76	3882.1
3233.856	3869.1
3236.95	3808.1
3240.041	3790.1
3243.13	3772.1
3246.216	3750.1
3249.3	3744.1
3252.382	3713.1
3255.46	3704.1
3258.537	3719.1
3261.611	3694.1
3264.682	3686.1
3267.751	3693.1
3270.818	3666.1
3273.882	3643.1
3276.943	3662.1
3280.002	3592.1
3283.059	3552.1
3286.113	3542.1
3289.165	3465.1
3292.214	3419.1
3295.261	3354.1
3298.306	3324.1
3301.348	3289.1
3304.387	3230.1
3307.425	3143.1
3310.459	3120.1
3313.492	3064.1
3316.521	3032.1
3319.549	2999.1
3322.574	2965.1
3325.597	2949.1
3328.617	2915.1
3331.635	2918.1
3334.65	2869.1
3337.663	2860.1
3340.674	2825.1
3343.682	2849.1
3346.688	2815.1
3349.691	2812.1
3352.692	2811.1
3355.691	2770.1
3358.687	2792.1
3361.681	2706.1
3364.673	2689.1
3367.662	2652.1
3370.649	2604.1
3373.633	2572.1
3376.615	2533.1
3379.595	2474.1
3382.572	2478.1
3385.547	2441.1
3388.52	2403.1
3391.49	2364.1
3394.458	2323.1
3397.424	2317.1
3400.387	2277.1
3403.348	2240.1
3406.307	2193.1
3409.263	2167.1
3412.217	2163.1
3415.168	2146.1
3418.118	2097.1
3421.065	2085.1
3424.009	2044.1
3426.951	2023.1
3429.891	1990.1
3432.829	1968.1
3435.764	1899.1
3438.697	1862.1
3441.628	1780.1
3444.557	1768.1
3447.483	1697.1
3450.407	1642.1
3453.328	1584.1
3456.247	1545.1
3459.164	1483.1
3462.079	1422.1
3464.991	1367.1
3467.902	1334.1
3470.809	1287.1
3473.715	1252.1
3476.618	1191.1
3479.519	1152.1
3482.418	1109.1
3485.315	1093.1
3488.209	1037.1
3491.101	1028.1
3493.99	967.1
3496.878	933.1
3499.763	894.1
3502.646	861.1
3505.527	818.1
3508.405	793.1
3511.281	727.1
3514.155	693.1
3517.027	666.1
3519.897	626.1
3522.764	581.1
3525.629	538.1
3528.492	483.1
3531.352	459.1
3534.211	413.1
3537.067	373.1
3539.921	345.1
3542.773	308.1
3545.622	271.1
3548.469	243.1
3551.315	220.1
3554.157	179.1
3556.998	152.1
3559.837	131.1
3562.673	104.1
3565.507	83.1
3568.339	55.1
3571.169	45.1
3573.996	17.1
3576.822	8.1
3579.645	-11.9
3582.466	-44.9
3585.285	-57.9
3588.101	-73.9
3590.916	-106.9
3593.728	-129.9
3596.538	-146.9
3599.346	-156.9
3602.152	-189.9
3604.956	-189.9
3607.757	-207.9
3610.556	-225.9
3613.354	-234.9
3616.149	-246.9
3618.942	-262.9
3621.732	-275.9
3624.521	-287.9
3627.307	-292.9
3630.092	-305.9
3632.874	-322.9
3635.654	-329.9
3638.432	-337.9
3641.208	-346.9
3643.982	-359.9
3646.753	-373.9
3649.523	-372.9
3652.29	-385.9
3655.055	-391.9
3657.818	-416.9
3660.579	-414.9
3663.338	-432.9
3666.095	-434.9
3668.849	-440.9
3671.602	-453.9
3674.352	-459.9
3677.101	-463.9
3679.847	-470.9
3682.591	-486.9
3685.333	-483.9
3688.073	-489.9
3690.811	-502.9
3693.547	-504.9
3696.281	-506.9
3699.013	-509.9
3701.742	-521.9
3704.47	-519.9
3707.195	-523.9
3709.919	-526.9
3712.64	-533.9
3715.359	-536.9
3718.076	-541.9
3720.792	-541.9
3723.505	-542.9
3726.216	-559.9
3728.925	-550.9
3731.632	-558.9
3734.336	-557.9
3737.039	-571.9
3739.74	-566.9
3742.439	-572.9
3745.136	-565.9
3747.83	-574.9
3750.523	-577.9
3753.213	-545.9
3755.902	-578.9
3758.589	-573.9
3761.273	-586.9
3763.956	-588.9
3766.636	-591.9
3769.315	-589.9
3771.991	-588.9
3774.665	-594.9
3777.338	-591.9
3780.008	-601.9
3782.677	-598.9
3785.343	-598.9
3788.007	-595.9
3790.67	-594.9
3793.33	-597.9
3795.989	-603.9
3798.645	-598.9
3801.299	-603.9
3803.952	-609.9
3806.602	-611.9
3809.251	-615.9
3811.897	-611.9
3814.542	-613.9
3817.184	-611.9
3819.825	-610.9
3822.463	-606.9
3825.1	-608.9
3827.735	-607.9
3830.367	-611.9
3832.998	-615.9
3835.627	-618.9
3838.253	-620.9
3840.878	-624.9
3843.501	-620.9
3846.122	-614.9
3848.741	-614.9
3851.358	-617.9
3853.973	-615.9
3856.586	-625.9
3859.197	-623.9
3861.806	-627.9
3864.414	-628.9
3867.019	-618.9
3869.622	-617.9
3872.224	-613.9
3874.823	-600.9
3877.421	-587.9
3880.016	-575.9
3882.61	-557.9
3885.202	-546.9
3887.792	-559.9
3890.38	-593.9
3892.966	-615.9
3895.55	-623.9
3898.132	-634.9
3900.713	-633.9
3903.291	-628.9
3905.868	-634.9
3908.442	-631.9
3911.015	-631.9
3913.586	-629.9
3916.155	-628.9
3918.722	-635.9
3921.287	-631.9
3923.85	-638.9
3926.411	-635.9
3928.971	-645.9
3931.528	-641.9
3934.084	-639.9
3936.638	-633.9
3939.19	-638.9
3941.74	-635.9
3944.288	-637.9
3946.834	-636.9
3949.378	-636.9
3951.921	-639.9
3954.462	-641.9
3957	-632.9
3959.537	-640.9
3962.072	-638.9
3964.606	-641.9
3967.137	-638.9
3969.667	-637.9
3972.194	-628.9
3974.72	-635.9
3977.244	-630.9
3979.766	-628.9
3982.286	-628.9
3984.805	-623.9
3987.321	-621.9
3989.836	-626.9
3992.349	-624.9
3994.86	-621.9
3997.369	-629.9
3999.877	-622.9
4002.382	-626.9
4004.886	-625.9
4007.388	-619.9
4009.888	-619.9
4012.386	-626.9
4014.883	-619.9
4017.377	-625.9
4019.87	-616.9
4022.361	-623.9
4024.85	-623.9
4027.338	-624.9
4029.823	-630.9
4032.307	-630.9
4034.789	-620.9
4037.269	-626.9
4039.747	-627.9
4042.224	-629.9
4044.699	-629.9
4047.172	-617.9
4049.643	-623.9
4052.112	-630.9
4054.58	-627.9
4057.046	-623.9
4059.51	-633.9
4061.972	-630.9
4064.432	-630.9
4066.891	-627.9
4069.348	-627.9
4071.803	-628.9
4074.256	-634.9
4076.708	-627.9
4079.158	-623.9
4081.606	-628.9
4084.052	-632.9
4086.497	-625.9
4088.939	-618.9
4091.38	-625.9
4093.819	-623.9
4096.257	-661.9
4098.693	-663.9
4101.127	-659.9
4103.559	-660.9
4105.989	-377.9
4108.418	-357.9
4110.845	-339.9
4113.27	-306.9
4115.694	-275.9
4118.115	-231.9
4120.535	-624.9
4122.954	-628.9
4125.37	-618.9
4127.785	-629.9
4130.198	-634.9
4132.609	-635.9
4135.019	-663.9
4137.427	-661.9
4139.833	-665.9
4142.237	-659.9
