Data from 2018-2-14_ethanol_n=1_RamanShift_01.txt Node
Date: Wed Feb 14 10:21:56 IST 2018
User: aro
Spectrometer: QEPB0276
Trigger mode: 0
Integration Time (sec): 3.000000E1
Scans to average: 1
Electric dark correction enabled: true
Nonlinearity correction enabled: false
Boxcar width: 0
XAxis mode: Raman Shifts
Number of Pixels in Spectrum: 1044
>>>>>Begin Spectral Data<<<<<
160.701	-40.9
166.742	47.1
172.777	238.1
178.805	881.1
184.826	2360.1
190.841	4720.1
196.849	7357.1
202.85	9038.1
208.845	9450.1
214.833	9311.1
220.815	9040.1
226.789	8935.1
232.758	8873.1
238.719	8780.1
244.674	8754.1
250.623	8648.1
256.565	8609.1
262.5	8574.1
268.429	8571.1
274.351	8508.1
280.267	8404.1
286.176	8246.1
292.079	8017.1
297.975	7765.1
303.865	7509.1
309.748	7251.1
315.625	7030.1
321.495	6808.1
327.359	6703.1
333.217	6614.1
339.068	6566.1
344.912	6546.1
350.751	6526.1
356.583	6557.1
362.408	6600.1
368.227	6671.1
374.04	6785.1
379.847	6975.1
385.647	7212.1
391.44	7492.1
397.228	7891.1
403.009	8451.1
408.784	9260.1
414.553	10646.1
420.315	12828.1
426.071	16055.1
431.821	19661.1
437.565	22043.1
443.302	21986.1
449.033	19587.1
454.758	16428.1
460.477	13529.1
466.189	11381.1
471.896	9848.1
477.596	8727.1
483.29	7994.1
488.978	7499.1
494.66	7119.1
500.335	6731.1
506.005	6359.1
511.668	6028.1
517.325	5739.1
522.977	5490.1
528.622	5318.1
534.261	5168.1
539.894	5096.1
545.521	5017.1
551.141	4945.1
556.756	4894.1
562.365	4852.1
567.968	4856.1
573.565	4805.1
579.155	4811.1
584.74	4817.1
590.319	4792.1
595.892	4821.1
601.459	4826.1
607.02	4847.1
612.575	4807.1
618.124	4792.1
623.667	4736.1
629.204	4715.1
634.735	4698.1
640.261	4685.1
645.781	4682.1
651.294	4652.1
656.802	4656.1
662.304	4670.1
667.8	4631.1
673.29	4643.1
678.775	4631.1
684.254	4631.1
689.726	4605.1
695.193	4618.1
700.655	4574.1
706.11	4538.1
711.56	4528.1
717.004	4557.1
722.442	4554.1
727.874	4553.1
733.301	4563.1
738.722	4568.1
744.137	4606.1
749.547	4652.1
754.951	4715.1
760.349	4811.1
765.741	4881.1
771.128	4978.1
776.509	5163.1
781.885	5287.1
787.254	5490.1
792.618	5670.1
797.977	5937.1
803.33	6225.1
808.677	6574.1
814.019	6824.1
819.355	7020.1
824.686	7135.1
830.011	7283.1
835.33	7688.1
840.644	8253.1
845.952	9138.1
851.255	10387.1
856.552	12418.1
861.844	15879.1
867.13	22720.1
872.41	37346.1
877.686	62796.1
882.955	62796.1
888.219	62794.1
893.478	62793.1
898.731	62799.1
903.979	46542.1
909.221	22364.1
914.458	15453.1
919.69	12072.1
924.916	10108.1
930.136	8820.1
935.351	8014.1
940.561	7408.1
945.766	6971.1
950.965	6661.1
956.158	6432.1
961.347	6268.1
966.529	6155.1
971.707	6032.1
976.879	6084.1
982.046	6202.1
987.208	6434.1
992.364	6692.1
997.515	7150.1
1002.66	7809.1
1007.801	8667.1
1012.936	9923.1
1018.066	11646.1
1023.19	14076.1
1028.309	17368.1
1033.423	21748.1
1038.532	27253.1
1043.636	33817.1
1048.734	41358.1
1053.827	47536.1
1058.915	48335.1
1063.998	42658.1
1069.075	34851.1
1074.147	30126.1
1079.214	29810.1
1084.276	32855.1
1089.333	38672.1
1094.385	45727.1
1099.431	50226.1
1104.472	48070.1
1109.509	39813.1
1114.54	30938.1
1119.565	25120.1
1124.586	21671.1
1129.602	19172.1
1134.613	16400.1
1139.618	13852.1
1144.619	11787.1
1149.614	10382.1
1154.604	9454.1
1159.589	8707.1
1164.57	8131.1
1169.545	7513.1
1174.515	6999.1
1179.48	6524.1
1184.44	6199.1
1189.395	5950.1
1194.345	5855.1
1199.29	5723.1
1204.23	5697.1
1209.165	5750.1
1214.095	5867.1
1219.021	6021.1
1223.941	6255.1
1228.856	6659.1
1233.766	7044.1
1238.672	7552.1
1243.572	8075.1
1248.467	8678.1
1253.358	9365.1
1258.244	10411.1
1263.124	11999.1
1268	14687.1
1272.871	18539.1
1277.737	22422.1
1282.599	23958.1
1287.455	21856.1
1292.306	17815.1
1297.153	14314.1
1301.995	12089.1
1306.832	10777.1
1311.664	9973.1
1316.491	9397.1
1321.314	8990.1
1326.132	8709.1
1330.945	8403.1
1335.753	8243.1
1340.556	8135.1
1345.354	8052.1
1350.148	8077.1
1354.937	8152.1
1359.722	8466.1
1364.501	8821.1
1369.276	9345.1
1374.046	10100.1
1378.811	11141.1
1383.572	12171.1
1388.327	13040.1
1393.079	13560.1
1397.825	13846.1
1402.567	14185.1
1407.304	14824.1
1412.036	15792.1
1416.764	17078.1
1421.487	18481.1
1426.205	20200.1
1430.919	22338.1
1435.628	25292.1
1440.333	29479.1
1445.032	35873.1
1449.727	44429.1
1454.418	53129.1
1459.104	57912.1
1463.785	54916.1
1468.462	46105.1
1473.134	36843.1
1477.802	31043.1
1482.465	28474.1
1487.123	27151.1
1491.777	25156.1
1496.426	21932.1
1501.071	18679.1
1505.711	15932.1
1510.347	14047.1
1514.978	12769.1
1519.604	11662.1
1524.226	10766.1
1528.844	9916.1
1533.457	9204.1
1538.065	8544.1
1542.669	7972.1
1547.269	7423.1
1551.864	6961.1
1556.454	6551.1
1561.041	6176.1
1565.622	5874.1
1570.199	5514.1
1574.772	5275.1
1579.34	5076.1
1583.904	4860.1
1588.464	4653.1
1593.019	4474.1
1597.569	4346.1
1602.115	4190.1
1606.657	4111.1
1611.195	4036.1
1615.728	4053.1
1620.256	4019.1
1624.78	3938.1
1629.3	3782.1
1633.816	3634.1
1638.327	3513.1
1642.834	3400.1
1647.336	3298.1
1651.834	3250.1
1656.328	3184.1
1660.817	3154.1
1665.302	3147.1
1669.783	3090.1
1674.259	3070.1
1678.732	3050.1
1683.199	3016.1
1687.663	2979.1
1692.122	2951.1
1696.577	2959.1
1701.028	2976.1
1705.474	3011.1
1709.917	3036.1
1714.355	3050.1
1718.788	3011.1
1723.218	2944.1
1727.643	2878.1
1732.064	2784.1
1736.481	2694.1
1740.893	2568.1
1745.301	2476.1
1749.705	2404.1
1754.105	2316.1
1758.501	2234.1
1762.893	2152.1
1767.28	2080.1
1771.663	2021.1
1776.042	1980.1
1780.417	1953.1
1784.787	1951.1
1789.154	1974.1
1793.516	1985.1
1797.874	2000.1
1802.228	2023.1
1806.578	2027.1
1810.924	2024.1
1815.266	1983.1
1819.603	1952.1
1823.937	1897.1
1828.266	1877.1
1832.591	1838.1
1836.913	1798.1
1841.23	1778.1
1845.543	1780.1
1849.852	1796.1
1854.156	1771.1
1858.457	1764.1
1862.754	1775.1
1867.047	1797.1
1871.335	1808.1
1875.62	1813.1
1879.9	1833.1
1884.177	1846.1
1888.449	1849.1
1892.718	1834.1
1896.982	1807.1
1901.243	1806.1
1905.499	1804.1
1909.752	1804.1
1914	1821.1
1918.245	1829.1
1922.485	1827.1
1926.722	1859.1
1930.954	1877.1
1935.183	1905.1
1939.408	1904.1
1943.628	1890.1
1947.845	1911.1
1952.058	1896.1
1956.267	1881.1
1960.472	1842.1
1964.673	1834.1
1968.87	1809.1
1973.063	1771.1
1977.252	1746.1
1981.438	1709.1
1985.619	1680.1
1989.797	1641.1
1993.971	1637.1
1998.14	1613.1
2002.306	1582.1
2006.469	1558.1
2010.627	1552.1
2014.781	1536.1
2018.932	1519.1
2023.078	1514.1
2027.221	1505.1
2031.36	1485.1
2035.495	1447.1
2039.627	1428.1
2043.754	1424.1
2047.878	1408.1
2051.998	1410.1
2056.114	1412.1
2060.226	1446.1
2064.334	1454.1
2068.439	1506.1
2072.54	1519.1
2076.637	1563.1
2080.73	1634.1
2084.82	1666.1
2088.906	1715.1
2092.988	1733.1
2097.066	1734.1
2101.14	1726.1
2105.211	1711.1
2109.278	1660.1
2113.342	1626.1
2117.401	1608.1
2121.457	1572.1
2125.509	1581.1
2129.558	1581.1
2133.602	1553.1
2137.643	1562.1
2141.681	1556.1
2145.714	1560.1
2149.744	1529.1
2153.77	1526.1
2157.793	1507.1
2161.812	1498.1
2165.827	1502.1
2169.838	1510.1
2173.846	1481.1
2177.851	1481.1
2181.851	1472.1
2185.848	1472.1
2189.841	1454.1
2193.831	1430.1
2197.817	1428.1
2201.799	1437.1
2205.778	1408.1
2209.753	1421.1
2213.725	1424.1
2217.693	1452.1
2221.657	1468.1
2225.618	1481.1
2229.575	1471.1
2233.529	1496.1
2237.479	1505.1
2241.425	1562.1
2245.368	1557.1
2249.307	1593.1
2253.243	1606.1
2257.175	1617.1
2261.104	1625.1
2265.029	1596.1
2268.95	1599.1
2272.868	1604.1
2276.783	1600.1
2280.694	1625.1
2284.601	1630.1
2288.505	1625.1
2292.405	1570.1
2296.302	1552.1
2300.195	1514.1
2304.085	1472.1
2307.971	1435.1
2311.854	1392.1
2315.734	1357.1
2319.609	1335.1
2323.482	1302.1
2327.351	1312.1
2331.216	1310.1
2335.078	1316.1
2338.937	1284.1
2342.792	1259.1
2346.643	1249.1
2350.492	1248.1
2354.336	1232.1
2358.178	1240.1
2362.015	1239.1
2365.85	1243.1
2369.681	1245.1
2373.508	1237.1
2377.333	1221.1
2381.153	1206.1
2384.971	1193.1
2388.785	1199.1
2392.595	1205.1
2396.402	1198.1
2400.206	1194.1
2404.007	1202.1
2407.804	1209.1
2411.597	1233.1
2415.388	1242.1
2419.174	1252.1
2422.958	1239.1
2426.738	1285.1
2430.515	1271.1
2434.289	1278.1
2438.059	1313.1
2441.825	1299.1
2445.589	1299.1
2449.349	1312.1
2453.106	1333.1
2456.859	1341.1
2460.61	1351.1
2464.356	1359.1
2468.1	1373.1
2471.84	1376.1
2475.577	1365.1
2479.311	1380.1
2483.041	1380.1
2486.768	1393.1
2490.492	1392.1
2494.213	1386.1
2497.93	1391.1
2501.644	1406.1
2505.355	1429.1
2509.062	1453.1
2512.766	1489.1
2516.467	1515.1
2520.165	1541.1
2523.859	1593.1
2527.551	1636.1
2531.239	1704.1
2534.923	1789.1
2538.605	1891.1
2542.283	1991.1
2545.958	2067.1
2549.63	2149.1
2553.299	2178.1
2556.964	2160.1
2560.626	2097.1
2564.285	2068.1
2567.941	2039.1
2571.594	2006.1
2575.243	1993.1
2578.89	2000.1
2582.533	1978.1
2586.173	1987.1
2589.809	1985.1
2593.443	1991.1
2597.073	2005.1
2600.701	2020.1
2604.325	1993.1
2607.946	2026.1
2611.564	2010.1
2615.178	1995.1
2618.79	1990.1
2622.398	1981.1
2626.004	1995.1
2629.606	1982.1
2633.205	1971.1
2636.801	1987.1
2640.394	2012.1
2643.983	2030.1
2647.57	2085.1
2651.153	2118.1
2654.734	2135.1
2658.311	2178.1
2661.885	2219.1
2665.456	2265.1
2669.025	2340.1
2672.589	2392.1
2676.151	2516.1
2679.71	2657.1
2683.266	2785.1
2686.819	2977.1
2690.368	3198.1
2693.915	3478.1
2697.458	3817.1
2700.999	4219.1
2704.536	4692.1
2708.071	5158.1
2711.602	5632.1
2715.13	6034.1
2718.656	6267.1
2722.178	6357.1
2725.697	6323.1
2729.214	6194.1
2732.727	6014.1
2736.237	5804.1
2739.744	5658.1
2743.249	5642.1
2746.75	5706.1
2750.248	5840.1
2753.743	5900.1
2757.236	5915.1
2760.725	5770.1
2764.211	5604.1
2767.695	5427.1
2771.175	5249.1
2774.652	5182.1
2778.127	5155.1
2781.598	5188.1
2785.067	5254.1
2788.532	5394.1
2791.995	5561.1
2795.455	5846.1
2798.911	6148.1
2802.365	6534.1
2805.816	6969.1
2809.264	7497.1
2812.709	8101.1
2816.151	8770.1
2819.59	9580.1
2823.026	10509.1
2826.46	11611.1
2829.89	12785.1
2833.318	14020.1
2836.742	15189.1
2840.164	16175.1
2843.583	17015.1
2846.999	17842.1
2850.412	18810.1
2853.822	19958.1
2857.229	21455.1
2860.634	23428.1
2864.035	25869.1
2867.434	28994.1
2870.83	32729.1
2874.223	36865.1
2877.613	40584.1
2881	43272.1
2884.385	44217.1
2887.766	43789.1
2891.145	42550.1
2894.521	41039.1
2897.894	39440.1
2901.264	37785.1
2904.631	36660.1
2907.996	35684.1
2911.358	35418.1
2914.717	35940.1
2918.073	37439.1
2921.426	40311.1
2924.777	44457.1
2928.124	49179.1
2931.469	52840.1
2934.811	53286.1
2938.15	50256.1
2941.487	45342.1
2944.821	39959.1
2948.152	35140.1
2951.48	31112.1
2954.805	27819.1
2958.128	25440.1
2961.447	24000.1
2964.765	23451.1
2968.079	23554.1
2971.39	24113.1
2974.699	24478.1
2978.005	24232.1
2981.308	23249.1
2984.609	21412.1
2987.907	19145.1
2991.202	16738.1
2994.494	14622.1
2997.784	12831.1
3001.07	11298.1
3004.355	10061.1
3007.636	9047.1
3010.915	8147.1
3014.191	7370.1
3017.464	6728.1
3020.734	6166.1
3024.002	5602.1
3027.267	5156.1
3030.53	4775.1
3033.789	4397.1
3037.046	4123.1
3040.301	3821.1
3043.552	3598.1
3046.801	3366.1
3050.048	3179.1
3053.291	3017.1
3056.532	2872.1
3059.771	2714.1
3063.006	2614.1
3066.239	2522.1
3069.469	2406.1
3072.697	2281.1
3075.922	2185.1
3079.144	2077.1
3082.364	2015.1
3085.581	1920.1
3088.795	1821.1
3092.007	1772.1
3095.216	1711.1
3098.423	1629.1
3101.627	1601.1
3104.828	1548.1
3108.026	1488.1
3111.222	1458.1
3114.416	1421.1
3117.607	1373.1
3120.795	1369.1
3123.98	1320.1
3127.163	1311.1
3130.344	1316.1
3133.521	1279.1
3136.696	1274.1
3139.869	1268.1
3143.039	1252.1
3146.206	1241.1
3149.371	1218.1
3152.533	1199.1
3155.693	1197.1
3158.85	1202.1
3162.005	1185.1
3165.157	1162.1
3168.306	1156.1
3171.453	1144.1
3174.597	1133.1
3177.739	1131.1
3180.878	1132.1
3184.014	1121.1
3187.149	1113.1
3190.28	1112.1
3193.409	1125.1
3196.536	1121.1
3199.659	1117.1
3202.781	1140.1
3205.9	1129.1
3209.016	1147.1
3212.13	1139.1
3215.241	1141.1
3218.35	1141.1
3221.456	1126.1
3224.56	1116.1
3227.661	1105.1
3230.76	1103.1
3233.856	1094.1
3236.95	1097.1
3240.041	1099.1
3243.13	1084.1
3246.216	1088.1
3249.3	1093.1
3252.382	1073.1
3255.46	1083.1
3258.537	1078.1
3261.611	1073.1
3264.682	1067.1
3267.751	1061.1
3270.818	1074.1
3273.882	1054.1
3276.943	1051.1
3280.002	1054.1
3283.059	1041.1
3286.113	1024.1
3289.165	1008.1
3292.214	987.1
3295.261	974.1
3298.306	969.1
3301.348	961.1
3304.387	935.1
3307.425	932.1
3310.459	905.1
3313.492	889.1
3316.521	868.1
3319.549	857.1
3322.574	847.1
3325.597	824.1
3328.617	835.1
3331.635	818.1
3334.65	817.1
3337.663	813.1
3340.674	810.1
3343.682	804.1
3346.688	808.1
3349.691	805.1
3352.692	798.1
3355.691	769.1
3358.687	762.1
3361.681	745.1
3364.673	734.1
3367.662	715.1
3370.649	702.1
3373.633	692.1
3376.615	683.1
3379.595	652.1
3382.572	646.1
3385.547	638.1
3388.52	623.1
3391.49	602.1
3394.458	584.1
3397.424	580.1
3400.387	560.1
3403.348	541.1
3406.307	539.1
3409.263	525.1
3412.217	511.1
3415.168	495.1
3418.118	489.1
3421.065	473.1
3424.009	461.1
3426.951	439.1
3429.891	431.1
3432.829	409.1
3435.764	397.1
3438.697	389.1
3441.628	368.1
3444.557	357.1
3447.483	339.1
3450.407	333.1
3453.328	301.1
3456.247	278.1
3459.164	266.1
3462.079	251.1
3464.991	227.1
3467.902	204.1
3470.809	199.1
3473.715	184.1
3476.618	166.1
3479.519	154.1
3482.418	158.1
3485.315	139.1
3488.209	130.1
3491.101	112.1
3493.99	106.1
3496.878	85.1
3499.763	78.1
3502.646	77.1
3505.527	55.1
3508.405	48.1
3511.281	48.1
3514.155	31.1
3517.027	27.1
3519.897	17.1
3522.764	-2.9
3525.629	-7.9
3528.492	-27.9
3531.352	-23.9
3534.211	-38.9
3537.067	-44.9
3539.921	-51.9
3542.773	-71.9
3545.622	-71.9
3548.469	-79.9
3551.315	-83.9
3554.157	-89.9
3556.998	-97.9
3559.837	-102.9
3562.673	-110.9
3565.507	-117.9
3568.339	-126.9
3571.169	-129.9
3573.996	-131.9
3576.822	-135.9
3579.645	-139.9
3582.466	-147.9
3585.285	-146.9
3588.101	-151.9
3590.916	-159.9
3593.728	-162.9
3596.538	-165.9
3599.346	-172.9
3602.152	-177.9
3604.956	-175.9
3607.757	-181.9
3610.556	-187.9
3613.354	-187.9
3616.149	-189.9
3618.942	-191.9
3621.732	-191.9
3624.521	-198.9
3627.307	-199.9
3630.092	-198.9
3632.874	-200.9
3635.654	-204.9
3638.432	-198.9
3641.208	-207.9
3643.982	-217.9
3646.753	-206.9
3649.523	-211.9
3652.29	-210.9
3655.055	-213.9
3657.818	-211.9
3660.579	-223.9
3663.338	-222.9
3666.095	-217.9
3668.849	-223.9
3671.602	-232.9
3674.352	-232.9
3677.101	-226.9
3679.847	-228.9
3682.591	-228.9
3685.333	-231.9
3688.073	-226.9
3690.811	-224.9
3693.547	-225.9
3696.281	-233.9
3699.013	-225.9
3701.742	-229.9
3704.47	-229.9
3707.195	-239.9
3709.919	-237.9
3712.64	-237.9
3715.359	-238.9
3718.076	-236.9
3720.792	-236.9
3723.505	-239.9
3726.216	-238.9
3728.925	-231.9
3731.632	-237.9
3734.336	-237.9
3737.039	-246.9
3739.74	-233.9
3742.439	-239.9
3745.136	-238.9
3747.83	-244.9
3750.523	-240.9
3753.213	-237.9
3755.902	-241.9
3758.589	-240.9
3761.273	-247.9
3763.956	-247.9
3766.636	-245.9
3769.315	-244.9
3771.991	-245.9
3774.665	-248.9
3777.338	-244.9
3780.008	-242.9
3782.677	-253.9
3785.343	-244.9
3788.007	-243.9
3790.67	-243.9
3793.33	-247.9
3795.989	-240.9
3798.645	-246.9
3801.299	-239.9
3803.952	-254.9
3806.602	-254.9
3809.251	-255.9
3811.897	-251.9
3814.542	-252.9
3817.184	-247.9
3819.825	-249.9
3822.463	-245.9
3825.1	-255.9
3827.735	-242.9
3830.367	-250.9
3832.998	-252.9
3835.627	-254.9
3838.253	-257.9
3840.878	-258.9
3843.501	-254.9
3846.122	-247.9
3848.741	-258.9
3851.358	-252.9
3853.973	-257.9
3856.586	-253.9
3859.197	-247.9
3861.806	-255.9
3864.414	-253.9
3867.019	-246.9
3869.622	-251.9
3872.224	-241.9
3874.823	-230.9
3877.421	-214.9
3880.016	-199.9
3882.61	-175.9
3885.202	-169.9
3887.792	-178.9
3890.38	-218.9
3892.966	-233.9
3895.55	-248.9
3898.132	-259.9
3900.713	-268.9
3903.291	-257.9
3905.868	-258.9
3908.442	-267.9
3911.015	-261.9
3913.586	-260.9
3916.155	-256.9
3918.722	-263.9
3921.287	-258.9
3923.85	-265.9
3926.411	-260.9
3928.971	-266.9
3931.528	-264.9
3934.084	-264.9
3936.638	-262.9
3939.19	-264.9
3941.74	-263.9
3944.288	-264.9
3946.834	-257.9
3949.378	-264.9
3951.921	-261.9
3954.462	-265.9
3957	-255.9
3959.537	-263.9
3962.072	-258.9
3964.606	-259.9
3967.137	-258.9
3969.667	-261.9
3972.194	-254.9
3974.72	-265.9
3977.244	-252.9
3979.766	-260.9
3982.286	-257.9
3984.805	-258.9
3987.321	-262.9
3989.836	-259.9
3992.349	-254.9
3994.86	-255.9
3997.369	-263.9
3999.877	-258.9
4002.382	-258.9
4004.886	-260.9
4007.388	-259.9
4009.888	-255.9
4012.386	-258.9
4014.883	-258.9
4017.377	-253.9
4019.87	-253.9
4022.361	-257.9
4024.85	-253.9
4027.338	-260.9
4029.823	-256.9
4032.307	-262.9
4034.789	-259.9
4037.269	-256.9
4039.747	-255.9
4042.224	-259.9
4044.699	-263.9
4047.172	-256.9
4049.643	-256.9
4052.112	-262.9
4054.58	-264.9
4057.046	-258.9
4059.51	-256.9
4061.972	-262.9
4064.432	-259.9
4066.891	-265.9
4069.348	-256.9
4071.803	-256.9
4074.256	-254.9
4076.708	-256.9
4079.158	-257.9
4081.606	-256.9
4084.052	-260.9
4086.497	-251.9
4088.939	-247.9
4091.38	-248.9
4093.819	-248.9
4096.257	-277.9
4098.693	-278.9
4101.127	-282.9
4103.559	-285.9
4105.989	-113.9
4108.418	-102.9
4110.845	-103.9
4113.27	-98.9
4115.694	-87.9
4118.115	-81.9
4120.535	-252.9
4122.954	-252.9
4125.37	-246.9
4127.785	-258.9
4130.198	-258.9
4132.609	-256.9
4135.019	-283.9
4137.427	-281.9
4139.833	-281.9
4142.237	-277.9
