Data from 2018-2-14_conc=6_n=7_RamanShift_03.txt Node
Date: Wed Feb 14 15:05:55 IST 2018
User: aro
Spectrometer: QEPB0276
Trigger mode: 0
Integration Time (sec): 3.000000E1
Scans to average: 1
Electric dark correction enabled: true
Nonlinearity correction enabled: false
Boxcar width: 0
XAxis mode: Raman Shifts
Number of Pixels in Spectrum: 1044
>>>>>Begin Spectral Data<<<<<
160.701	-148.8
166.742	54.2
172.777	597.2
178.805	2275.2
184.826	6329.2
190.841	13276.2
196.849	21431.2
202.85	27211.2
208.845	29128.2
214.833	28830.2
220.815	28322.2
226.789	28195.2
232.758	28014.2
238.719	27793.2
244.674	27362.2
250.623	26905.2
256.565	26307.2
262.5	25760.2
268.429	25311.2
274.351	24892.2
280.267	24563.2
286.176	24331.2
292.079	24042.2
297.975	23813.2
303.865	23592.2
309.748	23503.2
315.625	23319.2
321.495	23193.2
327.359	23071.2
333.217	23008.2
339.068	23077.2
344.912	23009.2
350.751	22943.2
356.583	22922.2
362.408	22943.2
368.227	22949.2
374.04	22965.2
379.847	23030.2
385.647	23082.2
391.44	23211.2
397.228	23294.2
403.009	23358.2
408.784	23477.2
414.553	23505.2
420.315	23554.2
426.071	23619.2
431.821	23523.2
437.565	23457.2
443.302	23474.2
449.033	23483.2
454.758	23371.2
460.477	23383.2
466.189	23250.2
471.896	23140.2
477.596	23129.2
483.29	23067.2
488.978	23121.2
494.66	22933.2
500.335	22833.2
506.005	22590.2
511.668	22290.2
517.325	21940.2
522.977	21770.2
528.622	21634.2
534.261	21451.2
539.894	21370.2
545.521	21265.2
551.141	21183.2
556.756	21083.2
562.365	21060.2
567.968	20924.2
573.565	20883.2
579.155	20729.2
584.74	20609.2
590.319	20597.2
595.892	20478.2
601.459	20365.2
607.02	20368.2
612.575	20217.2
618.124	20072.2
623.667	19873.2
629.204	19884.2
634.735	19725.2
640.261	19672.2
645.781	19599.2
651.294	19538.2
656.802	19526.2
662.304	19491.2
667.8	19459.2
673.29	19445.2
678.775	19339.2
684.254	19286.2
689.726	19236.2
695.193	19187.2
700.655	19072.2
706.11	18988.2
711.56	18883.2
717.004	18820.2
722.442	18725.2
727.874	18626.2
733.301	18510.2
738.722	18520.2
744.137	18392.2
749.547	18463.2
754.951	18442.2
760.349	18429.2
765.741	18443.2
771.128	18469.2
776.509	18424.2
781.885	18457.2
787.254	18384.2
792.618	18324.2
797.977	18194.2
803.33	18099.2
808.677	17961.2
814.019	17893.2
819.355	17827.2
824.686	17703.2
830.011	17690.2
835.33	17607.2
840.644	17672.2
845.952	17643.2
851.255	17746.2
856.552	17752.2
861.844	17708.2
867.13	17667.2
872.41	17565.2
877.686	17420.2
882.955	17308.2
888.219	17127.2
893.478	16969.2
898.731	16812.2
903.979	16609.2
909.221	16483.2
914.458	16414.2
919.69	16373.2
924.916	16460.2
930.136	16449.2
935.351	16489.2
940.561	16538.2
945.766	16453.2
950.965	16390.2
956.158	16224.2
961.347	16105.2
966.529	15855.2
971.707	15642.2
976.879	15478.2
982.046	15331.2
987.208	15314.2
992.364	15286.2
997.515	15399.2
1002.66	15519.2
1007.801	15703.2
1012.936	15810.2
1018.066	15847.2
1023.19	15792.2
1028.309	15816.2
1033.423	15744.2
1038.532	15674.2
1043.636	15526.2
1048.734	15351.2
1053.827	15137.2
1058.915	14964.2
1063.998	14903.2
1069.075	14833.2
1074.147	14820.2
1079.214	14859.2
1084.276	14941.2
1089.333	15012.2
1094.385	15109.2
1099.431	15211.2
1104.472	15143.2
1109.509	15077.2
1114.54	14910.2
1119.565	14722.2
1124.586	14499.2
1129.602	14342.2
1134.613	14313.2
1139.618	14127.2
1144.619	14127.2
1149.614	14136.2
1154.604	14121.2
1159.589	14159.2
1164.57	14233.2
1169.545	14270.2
1174.515	14267.2
1179.48	14168.2
1184.44	14054.2
1189.395	13977.2
1194.345	13862.2
1199.29	13798.2
1204.23	13794.2
1209.165	13812.2
1214.095	13869.2
1219.021	13936.2
1223.941	14065.2
1228.856	14159.2
1233.766	14121.2
1238.672	14199.2
1243.572	14121.2
1248.467	14029.2
1253.358	13852.2
1258.244	13701.2
1263.124	13480.2
1268	13209.2
1272.871	13109.2
1277.737	13026.2
1282.599	12940.2
1287.455	12921.2
1292.306	12944.2
1297.153	12975.2
1301.995	13096.2
1306.832	13084.2
1311.664	13130.2
1316.491	13069.2
1321.314	12956.2
1326.132	12759.2
1330.945	12456.2
1335.753	12169.2
1340.556	11925.2
1345.354	11648.2
1350.148	11478.2
1354.937	11367.2
1359.722	11333.2
1364.501	11308.2
1369.276	11425.2
1374.046	11517.2
1378.811	11700.2
1383.572	11815.2
1388.327	11845.2
1393.079	11824.2
1397.825	11715.2
1402.567	11553.2
1407.304	11432.2
1412.036	11302.2
1416.764	11233.2
1421.487	11206.2
1426.205	11096.2
1430.919	11052.2
1435.628	11100.2
1440.333	11059.2
1445.032	11124.2
1449.727	11125.2
1454.418	11111.2
1459.104	10971.2
1463.785	10752.2
1468.462	10577.2
1473.134	10325.2
1477.802	10100.2
1482.465	9943.2
1487.123	9753.2
1491.777	9725.2
1496.426	9753.2
1501.071	9856.2
1505.711	9985.2
1510.347	10135.2
1514.978	10322.2
1519.604	10458.2
1524.226	10537.2
1528.844	10579.2
1533.457	10525.2
1538.065	10541.2
1542.669	10483.2
1547.269	10374.2
1551.864	10329.2
1556.454	10294.2
1561.041	10310.2
1565.622	10306.2
1570.199	10352.2
1574.772	10411.2
1579.34	10421.2
1583.904	10552.2
1588.464	10569.2
1593.019	10588.2
1597.569	10550.2
1602.115	10516.2
1606.657	10435.2
1611.195	10389.2
1615.728	10316.2
1620.256	10256.2
1624.78	10277.2
1629.3	10225.2
1633.816	10248.2
1638.327	10297.2
1642.834	10364.2
1647.336	10430.2
1651.834	10452.2
1656.328	10323.2
1660.817	10305.2
1665.302	10182.2
1669.783	9980.2
1674.259	9787.2
1678.732	9462.2
1683.199	9157.2
1687.663	8877.2
1692.122	8565.2
1696.577	8404.2
1701.028	8320.2
1705.474	8345.2
1709.917	8416.2
1714.355	8488.2
1718.788	8428.2
1723.218	8292.2
1727.643	8161.2
1732.064	8013.2
1736.481	7858.2
1740.893	7634.2
1745.301	7461.2
1749.705	7256.2
1754.105	7029.2
1758.501	6830.2
1762.893	6642.2
1767.28	6468.2
1771.663	6333.2
1776.042	6233.2
1780.417	6150.2
1784.787	6104.2
1789.154	6154.2
1793.516	6264.2
1797.874	6348.2
1802.228	6498.2
1806.578	6561.2
1810.924	6529.2
1815.266	6469.2
1819.603	6395.2
1823.937	6313.2
1828.266	6237.2
1832.591	6148.2
1836.913	6012.2
1841.23	6022.2
1845.543	5930.2
1849.852	5935.2
1854.156	5934.2
1858.457	5904.2
1862.754	5890.2
1867.047	5857.2
1871.335	5900.2
1875.62	5827.2
1879.9	5814.2
1884.177	5747.2
1888.449	5725.2
1892.718	5628.2
1896.982	5555.2
1901.243	5554.2
1905.499	5469.2
1909.752	5450.2
1914	5433.2
1918.245	5433.2
1922.485	5486.2
1926.722	5515.2
1930.954	5632.2
1935.183	5624.2
1939.408	5721.2
1943.628	5712.2
1947.845	5781.2
1952.058	5759.2
1956.267	5720.2
1960.472	5650.2
1964.673	5583.2
1968.87	5500.2
1973.063	5378.2
1977.252	5336.2
1981.438	5261.2
1985.619	5237.2
1989.797	5206.2
1993.971	5146.2
1998.14	5125.2
2002.306	5097.2
2006.469	5087.2
2010.627	5062.2
2014.781	5015.2
2018.932	4993.2
2023.078	4969.2
2027.221	4878.2
2031.36	4802.2
2035.495	4714.2
2039.627	4666.2
2043.754	4605.2
2047.878	4538.2
2051.998	4500.2
2056.114	4506.2
2060.226	4499.2
2064.334	4496.2
2068.439	4511.2
2072.54	4538.2
2076.637	4562.2
2080.73	4585.2
2084.82	4592.2
2088.906	4630.2
2092.988	4590.2
2097.066	4583.2
2101.14	4582.2
2105.211	4542.2
2109.278	4538.2
2113.342	4489.2
2117.401	4465.2
2121.457	4438.2
2125.509	4427.2
2129.558	4390.2
2133.602	4364.2
2137.643	4343.2
2141.681	4326.2
2145.714	4313.2
2149.744	4250.2
2153.77	4223.2
2157.793	4186.2
2161.812	4139.2
2165.827	4083.2
2169.838	4040.2
2173.846	3954.2
2177.851	3882.2
2181.851	3824.2
2185.848	3772.2
2189.841	3763.2
2193.831	3722.2
2197.817	3694.2
2201.799	3648.2
2205.778	3621.2
2209.753	3623.2
2213.725	3602.2
2217.693	3611.2
2221.657	3629.2
2225.618	3579.2
2229.575	3586.2
2233.529	3533.2
2237.479	3510.2
2241.425	3443.2
2245.368	3419.2
2249.307	3337.2
2253.243	3320.2
2257.175	3261.2
2261.104	3218.2
2265.029	3191.2
2268.95	3138.2
2272.868	3113.2
2276.783	3068.2
2280.694	3037.2
2284.601	2995.2
2288.505	2980.2
2292.405	2969.2
2296.302	2948.2
2300.195	2893.2
2304.085	2828.2
2307.971	2807.2
2311.854	2779.2
2315.734	2715.2
2319.609	2694.2
2323.482	2665.2
2327.351	2629.2
2331.216	2640.2
2335.078	2607.2
2338.937	2579.2
2342.792	2581.2
2346.643	2576.2
2350.492	2573.2
2354.336	2562.2
2358.178	2578.2
2362.015	2606.2
2365.85	2581.2
2369.681	2598.2
2373.508	2609.2
2377.333	2582.2
2381.153	2562.2
2384.971	2540.2
2388.785	2533.2
2392.595	2516.2
2396.402	2496.2
2400.206	2474.2
2404.007	2443.2
2407.804	2471.2
2411.597	2440.2
2415.388	2424.2
2419.174	2414.2
2422.958	2390.2
2426.738	2359.2
2430.515	2343.2
2434.289	2295.2
2438.059	2312.2
2441.825	2290.2
2445.589	2244.2
2449.349	2232.2
2453.106	2216.2
2456.859	2174.2
2460.61	2128.2
2464.356	2113.2
2468.1	2081.2
2471.84	2088.2
2475.577	2025.2
2479.311	2035.2
2483.041	2024.2
2486.768	2017.2
2490.492	2003.2
2494.213	2000.2
2497.93	1997.2
2501.644	1982.2
2505.355	1956.2
2509.062	1972.2
2512.766	1933.2
2516.467	1933.2
2520.165	1896.2
2523.859	1889.2
2527.551	1883.2
2531.239	1884.2
2534.923	1860.2
2538.605	1840.2
2542.283	1850.2
2545.958	1823.2
2549.63	1821.2
2553.299	1814.2
2556.964	1822.2
2560.626	1812.2
2564.285	1796.2
2567.941	1802.2
2571.594	1817.2
2575.243	1789.2
2578.89	1749.2
2582.533	1760.2
2586.173	1736.2
2589.809	1720.2
2593.443	1700.2
2597.073	1687.2
2600.701	1673.2
2604.325	1638.2
2607.946	1648.2
2611.564	1657.2
2615.178	1612.2
2618.79	1625.2
2622.398	1600.2
2626.004	1598.2
2629.606	1546.2
2633.205	1552.2
2636.801	1527.2
2640.394	1500.2
2643.983	1486.2
2647.57	1448.2
2651.153	1426.2
2654.734	1402.2
2658.311	1389.2
2661.885	1370.2
2665.456	1344.2
2669.025	1334.2
2672.589	1319.2
2676.151	1317.2
2679.71	1291.2
2683.266	1278.2
2686.819	1255.2
2690.368	1203.2
2693.915	1200.2
2697.458	1177.2
2700.999	1134.2
2704.536	1108.2
2708.071	1096.2
2711.602	1074.2
2715.13	1037.2
2718.656	1012.2
2722.178	997.2
2725.697	978.2
2729.214	968.2
2732.727	957.2
2736.237	954.2
2739.744	922.2
2743.249	960.2
2746.75	949.2
2750.248	958.2
2753.743	952.2
2757.236	989.2
2760.725	984.2
2764.211	989.2
2767.695	1001.2
2771.175	985.2
2774.652	995.2
2778.127	987.2
2781.598	977.2
2785.067	987.2
2788.532	967.2
2791.995	965.2
2795.455	978.2
2798.911	973.2
2802.365	967.2
2805.816	982.2
2809.264	985.2
2812.709	962.2
2816.151	980.2
2819.59	981.2
2823.026	984.2
2826.46	974.2
2829.89	982.2
2833.318	975.2
2836.742	986.2
2840.164	1009.2
2843.583	1003.2
2846.999	1015.2
2850.412	1048.2
2853.822	1043.2
2857.229	1048.2
2860.634	1072.2
2864.035	1090.2
2867.434	1116.2
2870.83	1130.2
2874.223	1151.2
2877.613	1180.2
2881	1189.2
2884.385	1199.2
2887.766	1215.2
2891.145	1207.2
2894.521	1197.2
2897.894	1201.2
2901.264	1196.2
2904.631	1211.2
2907.996	1221.2
2911.358	1231.2
2914.717	1226.2
2918.073	1256.2
2921.426	1261.2
2924.777	1280.2
2928.124	1301.2
2931.469	1342.2
2934.811	1347.2
2938.15	1358.2
2941.487	1387.2
2944.821	1386.2
2948.152	1399.2
2951.48	1381.2
2954.805	1357.2
2958.128	1351.2
2961.447	1337.2
2964.765	1334.2
2968.079	1348.2
2971.39	1359.2
2974.699	1376.2
2978.005	1396.2
2981.308	1422.2
2984.609	1433.2
2987.907	1460.2
2991.202	1489.2
2994.494	1514.2
2997.784	1554.2
3001.07	1600.2
3004.355	1603.2
3007.636	1645.2
3010.915	1654.2
3014.191	1685.2
3017.464	1699.2
3020.734	1713.2
3024.002	1725.2
3027.267	1735.2
3030.53	1750.2
3033.789	1790.2
3037.046	1798.2
3040.301	1826.2
3043.552	1882.2
3046.801	1911.2
3050.048	1947.2
3053.291	1989.2
3056.532	2053.2
3059.771	2103.2
3063.006	2163.2
3066.239	2246.2
3069.469	2301.2
3072.697	2323.2
3075.922	2404.2
3079.144	2469.2
3082.364	2535.2
3085.581	2601.2
3088.795	2649.2
3092.007	2690.2
3095.216	2759.2
3098.423	2822.2
3101.627	2913.2
3104.828	2946.2
3108.026	3004.2
3111.222	3084.2
3114.416	3169.2
3117.607	3230.2
3120.795	3305.2
3123.98	3393.2
3127.163	3468.2
3130.344	3548.2
3133.521	3658.2
3136.696	3727.2
3139.869	3799.2
3143.039	3871.2
3146.206	3916.2
3149.371	3972.2
3152.533	3979.2
3155.693	4023.2
3158.85	4063.2
3162.005	4073.2
3165.157	4092.2
3168.306	4101.2
3171.453	4118.2
3174.597	4127.2
3177.739	4152.2
3180.878	4125.2
3184.014	4145.2
3187.149	4142.2
3190.28	4181.2
3193.409	4153.2
3196.536	4198.2
3199.659	4195.2
3202.781	4181.2
3205.9	4172.2
3209.016	4141.2
3212.13	4162.2
3215.241	4136.2
3218.35	4101.2
3221.456	4031.2
3224.56	4020.2
3227.661	3968.2
3230.76	3909.2
3233.856	3891.2
3236.95	3849.2
3240.041	3797.2
3243.13	3767.2
3246.216	3777.2
3249.3	3733.2
3252.382	3716.2
3255.46	3685.2
3258.537	3654.2
3261.611	3702.2
3264.682	3700.2
3267.751	3693.2
3270.818	3678.2
3273.882	3683.2
3276.943	3671.2
3280.002	3634.2
3283.059	3599.2
3286.113	3585.2
3289.165	3531.2
3292.214	3493.2
3295.261	3430.2
3298.306	3377.2
3301.348	3282.2
3304.387	3245.2
3307.425	3187.2
3310.459	3162.2
3313.492	3104.2
3316.521	3055.2
3319.549	3041.2
3322.574	3018.2
3325.597	2989.2
3328.617	2948.2
3331.635	2933.2
3334.65	2904.2
3337.663	2895.2
3340.674	2899.2
3343.682	2861.2
3346.688	2861.2
3349.691	2840.2
3352.692	2862.2
3355.691	2846.2
3358.687	2834.2
3361.681	2768.2
3364.673	2729.2
3367.662	2685.2
3370.649	2668.2
3373.633	2623.2
3376.615	2562.2
3379.595	2539.2
3382.572	2511.2
3385.547	2474.2
3388.52	2445.2
3391.49	2413.2
3394.458	2359.2
3397.424	2313.2
3400.387	2291.2
3403.348	2250.2
3406.307	2245.2
3409.263	2217.2
3412.217	2201.2
3415.168	2163.2
3418.118	2129.2
3421.065	2096.2
3424.009	2073.2
3426.951	2049.2
3429.891	1993.2
3432.829	1973.2
3435.764	1925.2
3438.697	1863.2
3441.628	1808.2
3444.557	1781.2
3447.483	1685.2
3450.407	1684.2
3453.328	1592.2
3456.247	1559.2
3459.164	1508.2
3462.079	1413.2
3464.991	1390.2
3467.902	1342.2
3470.809	1278.2
3473.715	1246.2
3476.618	1199.2
3479.519	1156.2
3482.418	1105.2
3485.315	1077.2
3488.209	1030.2
3491.101	1004.2
3493.99	954.2
3496.878	912.2
3499.763	884.2
3502.646	845.2
3505.527	800.2
3508.405	780.2
3511.281	725.2
3514.155	687.2
3517.027	648.2
3519.897	630.2
3522.764	560.2
3525.629	531.2
3528.492	487.2
3531.352	432.2
3534.211	395.2
3537.067	356.2
3539.921	326.2
3542.773	295.2
3545.622	253.2
3548.469	222.2
3551.315	180.2
3554.157	170.2
3556.998	123.2
3559.837	110.2
3562.673	91.2
3565.507	69.2
3568.339	31.2
3571.169	15.2
3573.996	1.2
3576.822	-15.8
3579.645	-34.8
3582.466	-52.8
3585.285	-85.8
3588.101	-106.8
3590.916	-126.8
3593.728	-144.8
3596.538	-162.8
3599.346	-177.8
3602.152	-199.8
3604.956	-214.8
3607.757	-234.8
3610.556	-255.8
3613.354	-264.8
3616.149	-292.8
3618.942	-285.8
3621.732	-310.8
3624.521	-316.8
3627.307	-319.8
3630.092	-336.8
3632.874	-353.8
3635.654	-355.8
3638.432	-354.8
3641.208	-373.8
3643.982	-384.8
3646.753	-389.8
3649.523	-405.8
3652.29	-409.8
3655.055	-416.8
3657.818	-428.8
3660.579	-443.8
3663.338	-459.8
3666.095	-460.8
3668.849	-479.8
3671.602	-476.8
3674.352	-482.8
3677.101	-491.8
3679.847	-506.8
3682.591	-522.8
3685.333	-520.8
3688.073	-520.8
3690.811	-533.8
3693.547	-534.8
3696.281	-538.8
3699.013	-544.8
3701.742	-549.8
3704.47	-554.8
3707.195	-560.8
3709.919	-555.8
3712.64	-561.8
3715.359	-565.8
3718.076	-571.8
3720.792	-575.8
3723.505	-571.8
3726.216	-586.8
3728.925	-584.8
3731.632	-588.8
3734.336	-589.8
3737.039	-594.8
3739.74	-589.8
3742.439	-603.8
3745.136	-602.8
3747.83	-604.8
3750.523	-611.8
3753.213	-616.8
3755.902	-618.8
3758.589	-610.8
3761.273	-616.8
3763.956	-620.8
3766.636	-621.8
3769.315	-624.8
3771.991	-624.8
3774.665	-629.8
3777.338	-624.8
3780.008	-623.8
3782.677	-629.8
3785.343	-628.8
3788.007	-630.8
3790.67	-634.8
3793.33	-633.8
3795.989	-629.8
3798.645	-633.8
3801.299	-627.8
3803.952	-642.8
3806.602	-644.8
3809.251	-649.8
3811.897	-643.8
3814.542	-646.8
3817.184	-645.8
3819.825	-644.8
3822.463	-642.8
3825.1	-649.8
3827.735	-639.8
3830.367	-646.8
3832.998	-651.8
3835.627	-650.8
3838.253	-647.8
3840.878	-654.8
3843.501	-651.8
3846.122	-641.8
3848.741	-653.8
3851.358	-650.8
3853.973	-652.8
3856.586	-653.8
3859.197	-652.8
3861.806	-661.8
3864.414	-649.8
3867.019	-654.8
3869.622	-652.8
3872.224	-650.8
3874.823	-638.8
3877.421	-625.8
3880.016	-606.8
3882.61	-578.8
3885.202	-572.8
3887.792	-591.8
3890.38	-619.8
3892.966	-643.8
3895.55	-653.8
3898.132	-668.8
3900.713	-670.8
3903.291	-662.8
3905.868	-664.8
3908.442	-667.8
3911.015	-664.8
3913.586	-662.8
3916.155	-662.8
3918.722	-673.8
3921.287	-668.8
3923.85	-671.8
3926.411	-671.8
3928.971	-680.8
3931.528	-673.8
3934.084	-671.8
3936.638	-667.8
3939.19	-670.8
3941.74	-669.8
3944.288	-676.8
3946.834	-666.8
3949.378	-669.8
3951.921	-671.8
3954.462	-670.8
3957	-667.8
3959.537	-665.8
3962.072	-667.8
3964.606	-666.8
3967.137	-665.8
3969.667	-671.8
3972.194	-661.8
3974.72	-668.8
3977.244	-654.8
3979.766	-660.8
3982.286	-656.8
3984.805	-659.8
3987.321	-659.8
3989.836	-659.8
3992.349	-651.8
3994.86	-651.8
3997.369	-665.8
3999.877	-651.8
4002.382	-653.8
4004.886	-657.8
4007.388	-655.8
4009.888	-654.8
4012.386	-656.8
4014.883	-656.8
4017.377	-654.8
4019.87	-648.8
4022.361	-652.8
4024.85	-652.8
4027.338	-654.8
4029.823	-655.8
4032.307	-656.8
4034.789	-653.8
4037.269	-654.8
4039.747	-655.8
4042.224	-654.8
4044.699	-661.8
4047.172	-656.8
4049.643	-659.8
4052.112	-664.8
4054.58	-664.8
4057.046	-661.8
4059.51	-660.8
4061.972	-666.8
4064.432	-661.8
4066.891	-657.8
4069.348	-659.8
4071.803	-655.8
4074.256	-656.8
4076.708	-657.8
4079.158	-660.8
4081.606	-662.8
4084.052	-660.8
4086.497	-657.8
4088.939	-654.8
4091.38	-653.8
4093.819	-655.8
4096.257	-694.8
4098.693	-695.8
4101.127	-696.8
4103.559	-695.8
4105.989	-404.8
4108.418	-377.8
4110.845	-354.8
4113.27	-329.8
4115.694	-282.8
4118.115	-236.8
4120.535	-654.8
4122.954	-656.8
4125.37	-648.8
4127.785	-659.8
4130.198	-657.8
4132.609	-663.8
4135.019	-693.8
4137.427	-695.8
4139.833	-696.8
4142.237	-691.8
