Data from 2018-2-14_conc=2_n=9_RamanShift_01.txt Node
Date: Wed Feb 14 11:29:26 IST 2018
User: aro
Spectrometer: QEPB0276
Trigger mode: 0
Integration Time (sec): 3.000000E1
Scans to average: 1
Electric dark correction enabled: true
Nonlinearity correction enabled: false
Boxcar width: 0
XAxis mode: Raman Shifts
Number of Pixels in Spectrum: 1044
>>>>>Begin Spectral Data<<<<<
160.701	-138.9
166.742	39.1
172.777	584.1
178.805	2209.1
184.826	6138.1
190.841	12834.1
196.849	20612.1
202.85	26101.1
208.845	27933.1
214.833	27583.1
220.815	27112.1
226.789	26868.1
232.758	26780.1
238.719	26541.1
244.674	26172.1
250.623	25716.1
256.565	25129.1
262.5	24568.1
268.429	24066.1
274.351	23779.1
280.267	23426.1
286.176	23152.1
292.079	22973.1
297.975	22722.1
303.865	22476.1
309.748	22327.1
315.625	22217.1
321.495	22073.1
327.359	21930.1
333.217	21937.1
339.068	21912.1
344.912	21926.1
350.751	21863.1
356.583	21888.1
362.408	21824.1
368.227	21807.1
374.04	21848.1
379.847	21889.1
385.647	21994.1
391.44	22099.1
397.228	22154.1
403.009	22257.1
408.784	22276.1
414.553	22409.1
420.315	22440.1
426.071	22458.1
431.821	22468.1
437.565	22456.1
443.302	22460.1
449.033	22249.1
454.758	22318.1
460.477	22286.1
466.189	22201.1
471.896	22134.1
477.596	22110.1
483.29	22039.1
488.978	22025.1
494.66	21879.1
500.335	21708.1
506.005	21544.1
511.668	21223.1
517.325	21028.1
522.977	20767.1
528.622	20707.1
534.261	20610.1
539.894	20400.1
545.521	20387.1
551.141	20291.1
556.756	20198.1
562.365	20129.1
567.968	20064.1
573.565	19975.1
579.155	19801.1
584.74	19816.1
590.319	19728.1
595.892	19641.1
601.459	19580.1
607.02	19472.1
612.575	19366.1
618.124	19241.1
623.667	19146.1
629.204	19030.1
634.735	18943.1
640.261	18839.1
645.781	18834.1
651.294	18734.1
656.802	18802.1
662.304	18686.1
667.8	18697.1
673.29	18594.1
678.775	18593.1
684.254	18489.1
689.726	18457.1
695.193	18406.1
700.655	18360.1
706.11	18251.1
711.56	18148.1
717.004	18022.1
722.442	17960.1
727.874	17869.1
733.301	17879.1
738.722	17777.1
744.137	17737.1
749.547	17688.1
754.951	17777.1
760.349	17743.1
765.741	17725.1
771.128	17701.1
776.509	17807.1
781.885	17794.1
787.254	17738.1
792.618	17690.1
797.977	17571.1
803.33	17392.1
808.677	17329.1
814.019	17263.1
819.355	17044.1
824.686	17098.1
830.011	16996.1
835.33	17034.1
840.644	17060.1
845.952	17028.1
851.255	17073.1
856.552	17112.1
861.844	17061.1
867.13	17020.1
872.41	16923.1
877.686	16814.1
882.955	16699.1
888.219	16578.1
893.478	16394.1
898.731	16166.1
903.979	15983.1
909.221	15912.1
914.458	15886.1
919.69	15864.1
924.916	15879.1
930.136	15932.1
935.351	15979.1
940.561	15949.1
945.766	15922.1
950.965	15863.1
956.158	15739.1
961.347	15606.1
966.529	15366.1
971.707	15173.1
976.879	14987.1
982.046	14863.1
987.208	14858.1
992.364	14845.1
997.515	14905.1
1002.66	15062.1
1007.801	15174.1
1012.936	15364.1
1018.066	15311.1
1023.19	15329.1
1028.309	15279.1
1033.423	15268.1
1038.532	15133.1
1043.636	15090.1
1048.734	14862.1
1053.827	14682.1
1058.915	14555.1
1063.998	14416.1
1069.075	14454.1
1074.147	14386.1
1079.214	14467.1
1084.276	14549.1
1089.333	14655.1
1094.385	14669.1
1099.431	14731.1
1104.472	14718.1
1109.509	14661.1
1114.54	14474.1
1119.565	14301.1
1124.586	14126.1
1129.602	13943.1
1134.613	13856.1
1139.618	13784.1
1144.619	13767.1
1149.614	13757.1
1154.604	13820.1
1159.589	13865.1
1164.57	13873.1
1169.545	13851.1
1174.515	13872.1
1179.48	13777.1
1184.44	13679.1
1189.395	13576.1
1194.345	13473.1
1199.29	13406.1
1204.23	13415.1
1209.165	13470.1
1214.095	13547.1
1219.021	13598.1
1223.941	13654.1
1228.856	13790.1
1233.766	13746.1
1238.672	13841.1
1243.572	13791.1
1248.467	13744.1
1253.358	13567.1
1258.244	13364.1
1263.124	13181.1
1268	12990.1
1272.871	12815.1
1277.737	12714.1
1282.599	12653.1
1287.455	12690.1
1292.306	12617.1
1297.153	12711.1
1301.995	12761.1
1306.832	12786.1
1311.664	12853.1
1316.491	12821.1
1321.314	12701.1
1326.132	12508.1
1330.945	12247.1
1335.753	11946.1
1340.556	11627.1
1345.354	11387.1
1350.148	11236.1
1354.937	11108.1
1359.722	11150.1
1364.501	11219.1
1369.276	11336.1
1374.046	11462.1
1378.811	11670.1
1383.572	11815.1
1388.327	11812.1
1393.079	11777.1
1397.825	11603.1
1402.567	11436.1
1407.304	11288.1
1412.036	11168.1
1416.764	11058.1
1421.487	11025.1
1426.205	10992.1
1430.919	10888.1
1435.628	10882.1
1440.333	10923.1
1445.032	10951.1
1449.727	10951.1
1454.418	10972.1
1459.104	10830.1
1463.785	10646.1
1468.462	10442.1
1473.134	10203.1
1477.802	10041.1
1482.465	9847.1
1487.123	9730.1
1491.777	9715.1
1496.426	9776.1
1501.071	9916.1
1505.711	10040.1
1510.347	10266.1
1514.978	10423.1
1519.604	10566.1
1524.226	10655.1
1528.844	10664.1
1533.457	10693.1
1538.065	10601.1
1542.669	10530.1
1547.269	10452.1
1551.864	10417.1
1556.454	10372.1
1561.041	10350.1
1565.622	10331.1
1570.199	10338.1
1574.772	10407.1
1579.34	10476.1
1583.904	10537.1
1588.464	10523.1
1593.019	10561.1
1597.569	10537.1
1602.115	10422.1
1606.657	10392.1
1611.195	10331.1
1615.728	10244.1
1620.256	10257.1
1624.78	10252.1
1629.3	10237.1
1633.816	10301.1
1638.327	10302.1
1642.834	10370.1
1647.336	10427.1
1651.834	10400.1
1656.328	10402.1
1660.817	10364.1
1665.302	10286.1
1669.783	10078.1
1674.259	9892.1
1678.732	9575.1
1683.199	9301.1
1687.663	8951.1
1692.122	8664.1
1696.577	8558.1
1701.028	8520.1
1705.474	8598.1
1709.917	8680.1
1714.355	8701.1
1718.788	8668.1
1723.218	8497.1
1727.643	8342.1
1732.064	8135.1
1736.481	8009.1
1740.893	7801.1
1745.301	7623.1
1749.705	7391.1
1754.105	7188.1
1758.501	6962.1
1762.893	6752.1
1767.28	6595.1
1771.663	6453.1
1776.042	6353.1
1780.417	6247.1
1784.787	6307.1
1789.154	6343.1
1793.516	6445.1
1797.874	6590.1
1802.228	6744.1
1806.578	6797.1
1810.924	6791.1
1815.266	6757.1
1819.603	6627.1
1823.937	6480.1
1828.266	6410.1
1832.591	6326.1
1836.913	6245.1
1841.23	6166.1
1845.543	6098.1
1849.852	6079.1
1854.156	6079.1
1858.457	6008.1
1862.754	6033.1
1867.047	6001.1
1871.335	5990.1
1875.62	6018.1
1879.9	6009.1
1884.177	5952.1
1888.449	5905.1
1892.718	5825.1
1896.982	5774.1
1901.243	5724.1
1905.499	5686.1
1909.752	5672.1
1914	5648.1
1918.245	5704.1
1922.485	5766.1
1926.722	5820.1
1930.954	5880.1
1935.183	5916.1
1939.408	5965.1
1943.628	6028.1
1947.845	6043.1
1952.058	6014.1
1956.267	5946.1
1960.472	5949.1
1964.673	5843.1
1968.87	5730.1
1973.063	5653.1
1977.252	5547.1
1981.438	5470.1
1985.619	5430.1
1989.797	5418.1
1993.971	5381.1
1998.14	5369.1
2002.306	5302.1
2006.469	5313.1
2010.627	5269.1
2014.781	5236.1
2018.932	5181.1
2023.078	5140.1
2027.221	5073.1
2031.36	5001.1
2035.495	4927.1
2039.627	4849.1
2043.754	4807.1
2047.878	4746.1
2051.998	4696.1
2056.114	4719.1
2060.226	4682.1
2064.334	4691.1
2068.439	4720.1
2072.54	4751.1
2076.637	4780.1
2080.73	4785.1
2084.82	4853.1
2088.906	4844.1
2092.988	4841.1
2097.066	4812.1
2101.14	4805.1
2105.211	4795.1
2109.278	4735.1
2113.342	4712.1
2117.401	4704.1
2121.457	4675.1
2125.509	4656.1
2129.558	4631.1
2133.602	4571.1
2137.643	4575.1
2141.681	4551.1
2145.714	4519.1
2149.744	4507.1
2153.77	4405.1
2157.793	4406.1
2161.812	4347.1
2165.827	4276.1
2169.838	4217.1
2173.846	4167.1
2177.851	4080.1
2181.851	4001.1
2185.848	3938.1
2189.841	3901.1
2193.831	3884.1
2197.817	3854.1
2201.799	3839.1
2205.778	3787.1
2209.753	3789.1
2213.725	3765.1
2217.693	3788.1
2221.657	3778.1
2225.618	3754.1
2229.575	3722.1
2233.529	3712.1
2237.479	3672.1
2241.425	3601.1
2245.368	3577.1
2249.307	3518.1
2253.243	3446.1
2257.175	3431.1
2261.104	3385.1
2265.029	3343.1
2268.95	3305.1
2272.868	3283.1
2276.783	3212.1
2280.694	3194.1
2284.601	3188.1
2288.505	3134.1
2292.405	3077.1
2296.302	3075.1
2300.195	3023.1
2304.085	2988.1
2307.971	2957.1
2311.854	2922.1
2315.734	2849.1
2319.609	2831.1
2323.482	2808.1
2327.351	2752.1
2331.216	2741.1
2335.078	2750.1
2338.937	2703.1
2342.792	2696.1
2346.643	2652.1
2350.492	2663.1
2354.336	2673.1
2358.178	2687.1
2362.015	2685.1
2365.85	2699.1
2369.681	2693.1
2373.508	2688.1
2377.333	2685.1
2381.153	2654.1
2384.971	2647.1
2388.785	2629.1
2392.595	2610.1
2396.402	2602.1
2400.206	2577.1
2404.007	2548.1
2407.804	2524.1
2411.597	2536.1
2415.388	2509.1
2419.174	2475.1
2422.958	2474.1
2426.738	2439.1
2430.515	2414.1
2434.289	2386.1
2438.059	2401.1
2441.825	2387.1
2445.589	2341.1
2449.349	2304.1
2453.106	2281.1
2456.859	2241.1
2460.61	2218.1
2464.356	2204.1
2468.1	2167.1
2471.84	2159.1
2475.577	2138.1
2479.311	2120.1
2483.041	2115.1
2486.768	2122.1
2490.492	2071.1
2494.213	2103.1
2497.93	2075.1
2501.644	2069.1
2505.355	2059.1
2509.062	2056.1
2512.766	2049.1
2516.467	2036.1
2520.165	1995.1
2523.859	1988.1
2527.551	1993.1
2531.239	1981.1
2534.923	1949.1
2538.605	1950.1
2542.283	1970.1
2545.958	1930.1
2549.63	1958.1
2553.299	1960.1
2556.964	1955.1
2560.626	1930.1
2564.285	1931.1
2567.941	1922.1
2571.594	1910.1
2575.243	1888.1
2578.89	1875.1
2582.533	1850.1
2586.173	1859.1
2589.809	1840.1
2593.443	1824.1
2597.073	1782.1
2600.701	1776.1
2604.325	1792.1
2607.946	1763.1
2611.564	1755.1
2615.178	1749.1
2618.79	1742.1
2622.398	1713.1
2626.004	1682.1
2629.606	1658.1
2633.205	1653.1
2636.801	1628.1
2640.394	1612.1
2643.983	1572.1
2647.57	1567.1
2651.153	1514.1
2654.734	1519.1
2658.311	1481.1
2661.885	1429.1
2665.456	1446.1
2669.025	1427.1
2672.589	1398.1
2676.151	1387.1
2679.71	1383.1
2683.266	1347.1
2686.819	1321.1
2690.368	1275.1
2693.915	1273.1
2697.458	1246.1
2700.999	1214.1
2704.536	1183.1
2708.071	1157.1
2711.602	1123.1
2715.13	1120.1
2718.656	1095.1
2722.178	1080.1
2725.697	1065.1
2729.214	1042.1
2732.727	1049.1
2736.237	1044.1
2739.744	1037.1
2743.249	1048.1
2746.75	1046.1
2750.248	1052.1
2753.743	1066.1
2757.236	1078.1
2760.725	1072.1
2764.211	1087.1
2767.695	1111.1
2771.175	1097.1
2774.652	1099.1
2778.127	1083.1
2781.598	1086.1
2785.067	1067.1
2788.532	1072.1
2791.995	1058.1
2795.455	1072.1
2798.911	1067.1
2802.365	1074.1
2805.816	1060.1
2809.264	1071.1
2812.709	1073.1
2816.151	1065.1
2819.59	1081.1
2823.026	1079.1
2826.46	1061.1
2829.89	1082.1
2833.318	1084.1
2836.742	1060.1
2840.164	1101.1
2843.583	1090.1
2846.999	1101.1
2850.412	1119.1
2853.822	1112.1
2857.229	1156.1
2860.634	1171.1
2864.035	1183.1
2867.434	1201.1
2870.83	1231.1
2874.223	1233.1
2877.613	1260.1
2881	1266.1
2884.385	1292.1
2887.766	1277.1
2891.145	1295.1
2894.521	1276.1
2897.894	1273.1
2901.264	1285.1
2904.631	1276.1
2907.996	1279.1
2911.358	1284.1
2914.717	1295.1
2918.073	1330.1
2921.426	1333.1
2924.777	1351.1
2928.124	1355.1
2931.469	1392.1
2934.811	1406.1
2938.15	1429.1
2941.487	1459.1
2944.821	1440.1
2948.152	1466.1
2951.48	1438.1
2954.805	1438.1
2958.128	1410.1
2961.447	1424.1
2964.765	1401.1
2968.079	1420.1
2971.39	1438.1
2974.699	1443.1
2978.005	1453.1
2981.308	1495.1
2984.609	1509.1
2987.907	1542.1
2991.202	1589.1
2994.494	1602.1
2997.784	1634.1
3001.07	1661.1
3004.355	1690.1
3007.636	1732.1
3010.915	1727.1
3014.191	1757.1
3017.464	1771.1
3020.734	1787.1
3024.002	1788.1
3027.267	1802.1
3030.53	1814.1
3033.789	1831.1
3037.046	1857.1
3040.301	1884.1
3043.552	1909.1
3046.801	1981.1
3050.048	2006.1
3053.291	2051.1
3056.532	2084.1
3059.771	2161.1
3063.006	2223.1
3066.239	2314.1
3069.469	2357.1
3072.697	2416.1
3075.922	2498.1
3079.144	2525.1
3082.364	2616.1
3085.581	2670.1
3088.795	2699.1
3092.007	2799.1
3095.216	2820.1
3098.423	2899.1
3101.627	2989.1
3104.828	3026.1
3108.026	3084.1
3111.222	3172.1
3114.416	3246.1
3117.607	3300.1
3120.795	3396.1
3123.98	3467.1
3127.163	3547.1
3130.344	3630.1
3133.521	3677.1
3136.696	3818.1
3139.869	3870.1
3143.039	3923.1
3146.206	3980.1
3149.371	4046.1
3152.533	4093.1
3155.693	4096.1
3158.85	4136.1
3162.005	4160.1
3165.157	4176.1
3168.306	4161.1
3171.453	4179.1
3174.597	4194.1
3177.739	4212.1
3180.878	4194.1
3184.014	4217.1
3187.149	4248.1
3190.28	4247.1
3193.409	4211.1
3196.536	4230.1
3199.659	4233.1
3202.781	4251.1
3205.9	4247.1
3209.016	4248.1
3212.13	4210.1
3215.241	4203.1
3218.35	4182.1
3221.456	4140.1
3224.56	4094.1
3227.661	4047.1
3230.76	4012.1
3233.856	3961.1
3236.95	3933.1
3240.041	3886.1
3243.13	3858.1
3246.216	3852.1
3249.3	3830.1
3252.382	3794.1
3255.46	3822.1
3258.537	3803.1
3261.611	3796.1
3264.682	3807.1
3267.751	3787.1
3270.818	3789.1
3273.882	3774.1
3276.943	3769.1
3280.002	3726.1
3283.059	3694.1
3286.113	3646.1
3289.165	3630.1
3292.214	3543.1
3295.261	3488.1
3298.306	3421.1
3301.348	3396.1
3304.387	3326.1
3307.425	3274.1
3310.459	3216.1
3313.492	3168.1
3316.521	3121.1
3319.549	3079.1
3322.574	3059.1
3325.597	3014.1
3328.617	3030.1
3331.635	2985.1
3334.65	2966.1
3337.663	2958.1
3340.674	2958.1
3343.682	2947.1
3346.688	2902.1
3349.691	2909.1
3352.692	2858.1
3355.691	2863.1
3358.687	2837.1
3361.681	2822.1
3364.673	2763.1
3367.662	2738.1
3370.649	2696.1
3373.633	2642.1
3376.615	2623.1
3379.595	2570.1
3382.572	2554.1
3385.547	2517.1
3388.52	2456.1
3391.49	2425.1
3394.458	2392.1
3397.424	2362.1
3400.387	2343.1
3403.348	2307.1
3406.307	2287.1
3409.263	2258.1
3412.217	2237.1
3415.168	2216.1
3418.118	2206.1
3421.065	2154.1
3424.009	2129.1
3426.951	2093.1
3429.891	2059.1
3432.829	2034.1
3435.764	1961.1
3438.697	1908.1
3441.628	1864.1
3444.557	1801.1
3447.483	1746.1
3450.407	1723.1
3453.328	1651.1
3456.247	1602.1
3459.164	1550.1
3462.079	1488.1
3464.991	1441.1
3467.902	1410.1
3470.809	1360.1
3473.715	1291.1
3476.618	1239.1
3479.519	1199.1
3482.418	1176.1
3485.315	1134.1
3488.209	1087.1
3491.101	1066.1
3493.99	1029.1
3496.878	976.1
3499.763	947.1
3502.646	902.1
3505.527	854.1
3508.405	839.1
3511.281	794.1
3514.155	750.1
3517.027	705.1
3519.897	661.1
3522.764	615.1
3525.629	567.1
3528.492	525.1
3531.352	492.1
3534.211	457.1
3537.067	396.1
3539.921	383.1
3542.773	319.1
3545.622	294.1
3548.469	268.1
3551.315	236.1
3554.157	204.1
3556.998	180.1
3559.837	161.1
3562.673	121.1
3565.507	108.1
3568.339	76.1
3571.169	56.1
3573.996	38.1
3576.822	21.1
3579.645	6.1
3582.466	-26.9
3585.285	-43.9
3588.101	-63.9
3590.916	-81.9
3593.728	-114.9
3596.538	-133.9
3599.346	-150.9
3602.152	-159.9
3604.956	-184.9
3607.757	-194.9
3610.556	-214.9
3613.354	-228.9
3616.149	-241.9
3618.942	-252.9
3621.732	-263.9
3624.521	-289.9
3627.307	-296.9
3630.092	-306.9
3632.874	-315.9
3635.654	-330.9
3638.432	-328.9
3641.208	-348.9
3643.982	-356.9
3646.753	-361.9
3649.523	-373.9
3652.29	-379.9
3655.055	-393.9
3657.818	-403.9
3660.579	-406.9
3663.338	-430.9
3666.095	-434.9
3668.849	-439.9
3671.602	-449.9
3674.352	-460.9
3677.101	-471.9
3679.847	-478.9
3682.591	-481.9
3685.333	-493.9
3688.073	-495.9
3690.811	-515.9
3693.547	-510.9
3696.281	-515.9
3699.013	-518.9
3701.742	-523.9
3704.47	-530.9
3707.195	-538.9
3709.919	-532.9
3712.64	-541.9
3715.359	-544.9
3718.076	-545.9
3720.792	-545.9
3723.505	-554.9
3726.216	-570.9
3728.925	-557.9
3731.632	-565.9
3734.336	-566.9
3737.039	-574.9
3739.74	-571.9
3742.439	-578.9
3745.136	-581.9
3747.83	-580.9
3750.523	-580.9
3753.213	-564.9
3755.902	-588.9
3758.589	-582.9
3761.273	-588.9
3763.956	-594.9
3766.636	-594.9
3769.315	-598.9
3771.991	-601.9
3774.665	-603.9
3777.338	-601.9
3780.008	-609.9
3782.677	-604.9
3785.343	-607.9
3788.007	-607.9
3790.67	-608.9
3793.33	-609.9
3795.989	-610.9
3798.645	-604.9
3801.299	-607.9
3803.952	-619.9
3806.602	-621.9
3809.251	-626.9
3811.897	-621.9
3814.542	-622.9
3817.184	-621.9
3819.825	-615.9
3822.463	-616.9
3825.1	-624.9
3827.735	-617.9
3830.367	-617.9
3832.998	-631.9
3835.627	-627.9
3838.253	-634.9
3840.878	-632.9
3843.501	-626.9
3846.122	-623.9
3848.741	-624.9
3851.358	-627.9
3853.973	-624.9
3856.586	-633.9
3859.197	-637.9
3861.806	-638.9
3864.414	-628.9
3867.019	-629.9
3869.622	-630.9
3872.224	-634.9
3874.823	-611.9
3877.421	-597.9
3880.016	-577.9
3882.61	-552.9
3885.202	-550.9
3887.792	-565.9
3890.38	-596.9
3892.966	-619.9
3895.55	-632.9
3898.132	-644.9
3900.713	-648.9
3903.291	-645.9
3905.868	-646.9
3908.442	-650.9
3911.015	-647.9
3913.586	-641.9
3916.155	-642.9
3918.722	-648.9
3921.287	-646.9
3923.85	-655.9
3926.411	-645.9
3928.971	-658.9
3931.528	-651.9
3934.084	-652.9
3936.638	-643.9
3939.19	-646.9
3941.74	-644.9
3944.288	-648.9
3946.834	-647.9
3949.378	-647.9
3951.921	-649.9
3954.462	-655.9
3957	-646.9
3959.537	-648.9
3962.072	-650.9
3964.606	-651.9
3967.137	-650.9
3969.667	-650.9
3972.194	-640.9
3974.72	-647.9
3977.244	-638.9
3979.766	-639.9
3982.286	-641.9
3984.805	-640.9
3987.321	-639.9
3989.836	-640.9
3992.349	-632.9
3994.86	-634.9
3997.369	-639.9
3999.877	-631.9
4002.382	-630.9
4004.886	-631.9
4007.388	-634.9
4009.888	-629.9
4012.386	-635.9
4014.883	-639.9
4017.377	-630.9
4019.87	-625.9
4022.361	-630.9
4024.85	-640.9
4027.338	-630.9
4029.823	-643.9
4032.307	-635.9
4034.789	-636.9
4037.269	-634.9
4039.747	-637.9
4042.224	-639.9
4044.699	-640.9
4047.172	-633.9
4049.643	-641.9
4052.112	-641.9
4054.58	-650.9
4057.046	-642.9
4059.51	-642.9
4061.972	-641.9
4064.432	-642.9
4066.891	-642.9
4069.348	-638.9
4071.803	-635.9
4074.256	-638.9
4076.708	-638.9
4079.158	-638.9
4081.606	-640.9
4084.052	-641.9
4086.497	-643.9
4088.939	-635.9
4091.38	-638.9
4093.819	-633.9
4096.257	-672.9
4098.693	-675.9
4101.127	-677.9
4103.559	-675.9
4105.989	-378.9
4108.418	-356.9
4110.845	-342.9
4113.27	-308.9
4115.694	-277.9
4118.115	-228.9
4120.535	-640.9
4122.954	-640.9
4125.37	-629.9
4127.785	-643.9
4130.198	-639.9
4132.609	-638.9
4135.019	-673.9
4137.427	-671.9
4139.833	-676.9
4142.237	-670.9
