Data from 2018-2-14_conc=2_n=5_RamanShift_02.txt Node
Date: Wed Feb 14 11:14:56 IST 2018
User: aro
Spectrometer: QEPB0276
Trigger mode: 0
Integration Time (sec): 3.000000E1
Scans to average: 1
Electric dark correction enabled: true
Nonlinearity correction enabled: false
Boxcar width: 0
XAxis mode: Raman Shifts
Number of Pixels in Spectrum: 1044
>>>>>Begin Spectral Data<<<<<
160.701	-147.8
166.742	66.2
172.777	594.2
178.805	2297.2
184.826	6411.2
190.841	13476.2
196.849	21648.2
202.85	27537.2
208.845	29525.2
214.833	29162.2
220.815	28708.2
226.789	28432.2
232.758	28349.2
238.719	28117.2
244.674	27721.2
250.623	27231.2
256.565	26716.2
262.5	26113.2
268.429	25668.2
274.351	25285.2
280.267	24950.2
286.176	24672.2
292.079	24446.2
297.975	24207.2
303.865	23960.2
309.748	23808.2
315.625	23669.2
321.495	23444.2
327.359	23439.2
333.217	23372.2
339.068	23283.2
344.912	23397.2
350.751	23269.2
356.583	23300.2
362.408	23239.2
368.227	23285.2
374.04	23253.2
379.847	23345.2
385.647	23369.2
391.44	23531.2
397.228	23632.2
403.009	23707.2
408.784	23749.2
414.553	23777.2
420.315	23822.2
426.071	23878.2
431.821	23841.2
437.565	23843.2
443.302	23835.2
449.033	23790.2
454.758	23710.2
460.477	23699.2
466.189	23658.2
471.896	23544.2
477.596	23483.2
483.29	23479.2
488.978	23410.2
494.66	23328.2
500.335	23217.2
506.005	22930.2
511.668	22669.2
517.325	22394.2
522.977	22243.2
528.622	22047.2
534.261	21892.2
539.894	21767.2
545.521	21678.2
551.141	21584.2
556.756	21568.2
562.365	21497.2
567.968	21394.2
573.565	21286.2
579.155	21235.2
584.74	21128.2
590.319	21010.2
595.892	20983.2
601.459	20878.2
607.02	20783.2
612.575	20611.2
618.124	20523.2
623.667	20366.2
629.204	20319.2
634.735	20272.2
640.261	20163.2
645.781	20042.2
651.294	20024.2
656.802	19978.2
662.304	19967.2
667.8	19927.2
673.29	19936.2
678.775	19835.2
684.254	19819.2
689.726	19697.2
695.193	19659.2
700.655	19591.2
706.11	19515.2
711.56	19397.2
717.004	19261.2
722.442	19176.2
727.874	19098.2
733.301	19056.2
738.722	18991.2
744.137	18983.2
749.547	18960.2
754.951	18969.2
760.349	18963.2
765.741	18987.2
771.128	18989.2
776.509	19028.2
781.885	19084.2
787.254	18902.2
792.618	18875.2
797.977	18765.2
803.33	18601.2
808.677	18445.2
814.019	18441.2
819.355	18296.2
824.686	18233.2
830.011	18202.2
835.33	18162.2
840.644	18163.2
845.952	18174.2
851.255	18268.2
856.552	18276.2
861.844	18239.2
867.13	18177.2
872.41	18105.2
877.686	18039.2
882.955	17888.2
888.219	17785.2
893.478	17519.2
898.731	17325.2
903.979	17098.2
909.221	17017.2
914.458	16947.2
919.69	16932.2
924.916	17001.2
930.136	17066.2
935.351	17011.2
940.561	17021.2
945.766	17012.2
950.965	16927.2
956.158	16757.2
961.347	16623.2
966.529	16428.2
971.707	16212.2
976.879	16021.2
982.046	15983.2
987.208	15885.2
992.364	15829.2
997.515	15938.2
1002.66	16101.2
1007.801	16283.2
1012.936	16406.2
1018.066	16366.2
1023.19	16372.2
1028.309	16401.2
1033.423	16344.2
1038.532	16261.2
1043.636	16092.2
1048.734	15954.2
1053.827	15769.2
1058.915	15569.2
1063.998	15464.2
1069.075	15384.2
1074.147	15390.2
1079.214	15489.2
1084.276	15538.2
1089.333	15608.2
1094.385	15735.2
1099.431	15748.2
1104.472	15734.2
1109.509	15652.2
1114.54	15461.2
1119.565	15303.2
1124.586	15117.2
1129.602	14921.2
1134.613	14826.2
1139.618	14768.2
1144.619	14731.2
1149.614	14671.2
1154.604	14756.2
1159.589	14764.2
1164.57	14858.2
1169.545	14816.2
1174.515	14833.2
1179.48	14757.2
1184.44	14635.2
1189.395	14563.2
1194.345	14466.2
1199.29	14375.2
1204.23	14369.2
1209.165	14400.2
1214.095	14465.2
1219.021	14558.2
1223.941	14636.2
1228.856	14710.2
1233.766	14803.2
1238.672	14769.2
1243.572	14770.2
1248.467	14637.2
1253.358	14529.2
1258.244	14264.2
1263.124	14025.2
1268	13859.2
1272.871	13668.2
1277.737	13625.2
1282.599	13512.2
1287.455	13503.2
1292.306	13535.2
1297.153	13594.2
1301.995	13667.2
1306.832	13690.2
1311.664	13762.2
1316.491	13653.2
1321.314	13556.2
1326.132	13369.2
1330.945	13093.2
1335.753	12769.2
1340.556	12421.2
1345.354	12191.2
1350.148	12021.2
1354.937	11908.2
1359.722	11862.2
1364.501	11945.2
1369.276	12093.2
1374.046	12233.2
1378.811	12413.2
1383.572	12585.2
1388.327	12594.2
1393.079	12562.2
1397.825	12414.2
1402.567	12256.2
1407.304	12067.2
1412.036	11924.2
1416.764	11852.2
1421.487	11729.2
1426.205	11741.2
1430.919	11653.2
1435.628	11649.2
1440.333	11689.2
1445.032	11685.2
1449.727	11776.2
1454.418	11708.2
1459.104	11603.2
1463.785	11357.2
1468.462	11182.2
1473.134	10919.2
1477.802	10715.2
1482.465	10512.2
1487.123	10422.2
1491.777	10376.2
1496.426	10395.2
1501.071	10563.2
1505.711	10714.2
1510.347	10912.2
1514.978	11069.2
1519.604	11280.2
1524.226	11373.2
1528.844	11377.2
1533.457	11341.2
1538.065	11369.2
1542.669	11213.2
1547.269	11153.2
1551.864	11051.2
1556.454	11040.2
1561.041	11010.2
1565.622	11008.2
1570.199	11007.2
1574.772	11040.2
1579.34	11109.2
1583.904	11203.2
1588.464	11247.2
1593.019	11226.2
1597.569	11172.2
1602.115	11142.2
1606.657	11062.2
1611.195	10992.2
1615.728	10917.2
1620.256	10852.2
1624.78	10895.2
1629.3	10886.2
1633.816	10921.2
1638.327	10937.2
1642.834	10995.2
1647.336	11094.2
1651.834	11121.2
1656.328	11056.2
1660.817	11047.2
1665.302	10924.2
1669.783	10735.2
1674.259	10516.2
1678.732	10218.2
1683.199	9855.2
1687.663	9554.2
1692.122	9224.2
1696.577	9076.2
1701.028	9033.2
1705.474	9113.2
1709.917	9264.2
1714.355	9244.2
1718.788	9171.2
1723.218	9078.2
1727.643	8894.2
1732.064	8727.2
1736.481	8494.2
1740.893	8331.2
1745.301	8119.2
1749.705	7913.2
1754.105	7673.2
1758.501	7429.2
1762.893	7258.2
1767.28	7116.2
1771.663	6911.2
1776.042	6800.2
1780.417	6757.2
1784.787	6712.2
1789.154	6818.2
1793.516	6909.2
1797.874	7028.2
1802.228	7176.2
1806.578	7247.2
1810.924	7261.2
1815.266	7229.2
1819.603	7071.2
1823.937	6980.2
1828.266	6799.2
1832.591	6744.2
1836.913	6642.2
1841.23	6565.2
1845.543	6561.2
1849.852	6507.2
1854.156	6489.2
1858.457	6448.2
1862.754	6479.2
1867.047	6463.2
1871.335	6453.2
1875.62	6451.2
1879.9	6396.2
1884.177	6380.2
1888.449	6286.2
1892.718	6277.2
1896.982	6193.2
1901.243	6121.2
1905.499	6074.2
1909.752	6059.2
1914	6042.2
1918.245	6119.2
1922.485	6143.2
1926.722	6192.2
1930.954	6280.2
1935.183	6316.2
1939.408	6406.2
1943.628	6448.2
1947.845	6432.2
1952.058	6417.2
1956.267	6408.2
1960.472	6299.2
1964.673	6216.2
1968.87	6094.2
1973.063	6052.2
1977.252	5951.2
1981.438	5876.2
1985.619	5812.2
1989.797	5772.2
1993.971	5735.2
1998.14	5709.2
2002.306	5719.2
2006.469	5663.2
2010.627	5653.2
2014.781	5595.2
2018.932	5545.2
2023.078	5503.2
2027.221	5425.2
2031.36	5338.2
2035.495	5238.2
2039.627	5168.2
2043.754	5104.2
2047.878	5032.2
2051.998	5026.2
2056.114	5025.2
2060.226	5013.2
2064.334	5011.2
2068.439	5046.2
2072.54	5078.2
2076.637	5084.2
2080.73	5114.2
2084.82	5129.2
2088.906	5153.2
2092.988	5161.2
2097.066	5153.2
2101.14	5124.2
2105.211	5086.2
2109.278	5069.2
2113.342	5045.2
2117.401	4999.2
2121.457	4975.2
2125.509	4977.2
2129.558	4925.2
2133.602	4922.2
2137.643	4853.2
2141.681	4884.2
2145.714	4805.2
2149.744	4783.2
2153.77	4742.2
2157.793	4681.2
2161.812	4644.2
2165.827	4582.2
2169.838	4534.2
2173.846	4429.2
2177.851	4370.2
2181.851	4309.2
2185.848	4261.2
2189.841	4182.2
2193.831	4176.2
2197.817	4136.2
2201.799	4118.2
2205.778	4119.2
2209.753	4063.2
2213.725	4033.2
2217.693	4029.2
2221.657	4002.2
2225.618	4047.2
2229.575	3982.2
2233.529	3941.2
2237.479	3919.2
2241.425	3885.2
2245.368	3800.2
2249.307	3771.2
2253.243	3703.2
2257.175	3648.2
2261.104	3627.2
2265.029	3580.2
2268.95	3555.2
2272.868	3507.2
2276.783	3481.2
2280.694	3449.2
2284.601	3378.2
2288.505	3373.2
2292.405	3332.2
2296.302	3295.2
2300.195	3255.2
2304.085	3195.2
2307.971	3150.2
2311.854	3111.2
2315.734	3092.2
2319.609	3035.2
2323.482	2991.2
2327.351	2974.2
2331.216	2967.2
2335.078	2941.2
2338.937	2897.2
2342.792	2884.2
2346.643	2891.2
2350.492	2900.2
2354.336	2882.2
2358.178	2914.2
2362.015	2898.2
2365.85	2910.2
2369.681	2892.2
2373.508	2921.2
2377.333	2920.2
2381.153	2891.2
2384.971	2882.2
2388.785	2867.2
2392.595	2828.2
2396.402	2816.2
2400.206	2767.2
2404.007	2752.2
2407.804	2742.2
2411.597	2751.2
2415.388	2716.2
2419.174	2668.2
2422.958	2680.2
2426.738	2659.2
2430.515	2605.2
2434.289	2606.2
2438.059	2580.2
2441.825	2542.2
2445.589	2546.2
2449.349	2503.2
2453.106	2479.2
2456.859	2452.2
2460.61	2413.2
2464.356	2401.2
2468.1	2374.2
2471.84	2342.2
2475.577	2314.2
2479.311	2290.2
2483.041	2313.2
2486.768	2279.2
2490.492	2260.2
2494.213	2272.2
2497.93	2269.2
2501.644	2247.2
2505.355	2247.2
2509.062	2253.2
2512.766	2231.2
2516.467	2198.2
2520.165	2195.2
2523.859	2162.2
2527.551	2177.2
2531.239	2158.2
2534.923	2133.2
2538.605	2126.2
2542.283	2109.2
2545.958	2124.2
2549.63	2122.2
2553.299	2106.2
2556.964	2097.2
2560.626	2097.2
2564.285	2085.2
2567.941	2062.2
2571.594	2032.2
2575.243	2044.2
2578.89	2063.2
2582.533	2008.2
2586.173	2005.2
2589.809	1989.2
2593.443	1956.2
2597.073	1956.2
2600.701	1931.2
2604.325	1933.2
2607.946	1904.2
2611.564	1894.2
2615.178	1906.2
2618.79	1886.2
2622.398	1847.2
2626.004	1842.2
2629.606	1812.2
2633.205	1787.2
2636.801	1774.2
2640.394	1748.2
2643.983	1715.2
2647.57	1704.2
2651.153	1650.2
2654.734	1639.2
2658.311	1610.2
2661.885	1580.2
2665.456	1561.2
2669.025	1554.2
2672.589	1512.2
2676.151	1506.2
2679.71	1496.2
2683.266	1478.2
2686.819	1464.2
2690.368	1414.2
2693.915	1412.2
2697.458	1370.2
2700.999	1336.2
2704.536	1298.2
2708.071	1273.2
2711.602	1246.2
2715.13	1217.2
2718.656	1205.2
2722.178	1170.2
2725.697	1147.2
2729.214	1146.2
2732.727	1137.2
2736.237	1151.2
2739.744	1111.2
2743.249	1157.2
2746.75	1163.2
2750.248	1145.2
2753.743	1175.2
2757.236	1179.2
2760.725	1204.2
2764.211	1187.2
2767.695	1199.2
2771.175	1212.2
2774.652	1195.2
2778.127	1192.2
2781.598	1176.2
2785.067	1172.2
2788.532	1169.2
2791.995	1147.2
2795.455	1161.2
2798.911	1156.2
2802.365	1160.2
2805.816	1168.2
2809.264	1169.2
2812.709	1171.2
2816.151	1154.2
2819.59	1149.2
2823.026	1148.2
2826.46	1160.2
2829.89	1167.2
2833.318	1168.2
2836.742	1170.2
2840.164	1181.2
2843.583	1194.2
2846.999	1189.2
2850.412	1213.2
2853.822	1232.2
2857.229	1229.2
2860.634	1250.2
2864.035	1290.2
2867.434	1298.2
2870.83	1313.2
2874.223	1346.2
2877.613	1378.2
2881	1373.2
2884.385	1382.2
2887.766	1377.2
2891.145	1367.2
2894.521	1365.2
2897.894	1379.2
2901.264	1376.2
2904.631	1377.2
2907.996	1375.2
2911.358	1403.2
2914.717	1388.2
2918.073	1399.2
2921.426	1418.2
2924.777	1431.2
2928.124	1455.2
2931.469	1462.2
2934.811	1512.2
2938.15	1531.2
2941.487	1541.2
2944.821	1540.2
2948.152	1535.2
2951.48	1523.2
2954.805	1521.2
2958.128	1508.2
2961.447	1492.2
2964.765	1492.2
2968.079	1496.2
2971.39	1481.2
2974.699	1506.2
2978.005	1538.2
2981.308	1566.2
2984.609	1586.2
2987.907	1633.2
2991.202	1638.2
2994.494	1727.2
2997.784	1721.2
3001.07	1751.2
3004.355	1762.2
3007.636	1821.2
3010.915	1821.2
3014.191	1856.2
3017.464	1854.2
3020.734	1885.2
3024.002	1902.2
3027.267	1902.2
3030.53	1909.2
3033.789	1937.2
3037.046	1944.2
3040.301	1998.2
3043.552	2002.2
3046.801	2037.2
3050.048	2089.2
3053.291	2156.2
3056.532	2207.2
3059.771	2256.2
3063.006	2323.2
3066.239	2406.2
3069.469	2461.2
3072.697	2536.2
3075.922	2622.2
3079.144	2650.2
3082.364	2717.2
3085.581	2784.2
3088.795	2839.2
3092.007	2871.2
3095.216	2957.2
3098.423	3024.2
3101.627	3074.2
3104.828	3142.2
3108.026	3201.2
3111.222	3287.2
3114.416	3355.2
3117.607	3414.2
3120.795	3512.2
3123.98	3605.2
3127.163	3685.2
3130.344	3755.2
3133.521	3857.2
3136.696	3934.2
3139.869	4027.2
3143.039	4090.2
3146.206	4138.2
3149.371	4214.2
3152.533	4244.2
3155.693	4233.2
3158.85	4286.2
3162.005	4320.2
3165.157	4302.2
3168.306	4330.2
3171.453	4308.2
3174.597	4340.2
3177.739	4346.2
3180.878	4332.2
3184.014	4353.2
3187.149	4347.2
3190.28	4372.2
3193.409	4392.2
3196.536	4379.2
3199.659	4393.2
3202.781	4396.2
3205.9	4396.2
3209.016	4371.2
3212.13	4333.2
3215.241	4329.2
3218.35	4286.2
3221.456	4252.2
3224.56	4219.2
3227.661	4137.2
3230.76	4088.2
3233.856	4072.2
3236.95	4042.2
3240.041	4006.2
3243.13	3961.2
3246.216	3978.2
3249.3	3919.2
3252.382	3915.2
3255.46	3908.2
3258.537	3866.2
3261.611	3876.2
3264.682	3913.2
3267.751	3872.2
3270.818	3884.2
3273.882	3893.2
3276.943	3839.2
3280.002	3795.2
3283.059	3786.2
3286.113	3756.2
3289.165	3693.2
3292.214	3642.2
3295.261	3557.2
3298.306	3518.2
3301.348	3447.2
3304.387	3422.2
3307.425	3355.2
3310.459	3314.2
3313.492	3261.2
3316.521	3216.2
3319.549	3195.2
3322.574	3158.2
3325.597	3108.2
3328.617	3073.2
3331.635	3086.2
3334.65	3041.2
3337.663	3034.2
3340.674	2995.2
3343.682	2981.2
3346.688	3006.2
3349.691	2989.2
3352.692	2985.2
3355.691	2929.2
3358.687	2904.2
3361.681	2906.2
3364.673	2835.2
3367.662	2806.2
3370.649	2792.2
3373.633	2743.2
3376.615	2678.2
3379.595	2677.2
3382.572	2633.2
3385.547	2592.2
3388.52	2526.2
3391.49	2493.2
3394.458	2458.2
3397.424	2444.2
3400.387	2396.2
3403.348	2377.2
3406.307	2340.2
3409.263	2346.2
3412.217	2289.2
3415.168	2277.2
3418.118	2229.2
3421.065	2224.2
3424.009	2165.2
3426.951	2143.2
3429.891	2104.2
3432.829	2061.2
3435.764	2018.2
3438.697	1963.2
3441.628	1911.2
3444.557	1863.2
3447.483	1796.2
3450.407	1753.2
3453.328	1675.2
3456.247	1651.2
3459.164	1578.2
3462.079	1526.2
3464.991	1473.2
3467.902	1417.2
3470.809	1334.2
3473.715	1312.2
3476.618	1266.2
3479.519	1210.2
3482.418	1195.2
3485.315	1169.2
3488.209	1100.2
3491.101	1045.2
3493.99	1014.2
3496.878	971.2
3499.763	957.2
3502.646	916.2
3505.527	872.2
3508.405	830.2
3511.281	783.2
3514.155	733.2
3517.027	691.2
3519.897	647.2
3522.764	604.2
3525.629	569.2
3528.492	508.2
3531.352	481.2
3534.211	441.2
3537.067	393.2
3539.921	377.2
3542.773	320.2
3545.622	301.2
3548.469	254.2
3551.315	238.2
3554.157	191.2
3556.998	172.2
3559.837	149.2
3562.673	116.2
3565.507	93.2
3568.339	62.2
3571.169	41.2
3573.996	22.2
3576.822	3.2
3579.645	-13.8
3582.466	-37.8
3585.285	-60.8
3588.101	-85.8
3590.916	-116.8
3593.728	-138.8
3596.538	-142.8
3599.346	-168.8
3602.152	-181.8
3604.956	-203.8
3607.757	-222.8
3610.556	-232.8
3613.354	-253.8
3616.149	-266.8
3618.942	-279.8
3621.732	-287.8
3624.521	-308.8
3627.307	-309.8
3630.092	-327.8
3632.874	-338.8
3635.654	-345.8
3638.432	-355.8
3641.208	-371.8
3643.982	-381.8
3646.753	-380.8
3649.523	-396.8
3652.29	-404.8
3655.055	-407.8
3657.818	-424.8
3660.579	-436.8
3663.338	-449.8
3666.095	-450.8
3668.849	-468.8
3671.602	-471.8
3674.352	-481.8
3677.101	-490.8
3679.847	-506.8
3682.591	-515.8
3685.333	-514.8
3688.073	-520.8
3690.811	-526.8
3693.547	-531.8
3696.281	-543.8
3699.013	-542.8
3701.742	-546.8
3704.47	-548.8
3707.195	-559.8
3709.919	-551.8
3712.64	-558.8
3715.359	-567.8
3718.076	-568.8
3720.792	-570.8
3723.505	-576.8
3726.216	-591.8
3728.925	-592.8
3731.632	-593.8
3734.336	-590.8
3737.039	-598.8
3739.74	-587.8
3742.439	-596.8
3745.136	-605.8
3747.83	-608.8
3750.523	-603.8
3753.213	-597.8
3755.902	-608.8
3758.589	-611.8
3761.273	-619.8
3763.956	-621.8
3766.636	-621.8
3769.315	-630.8
3771.991	-628.8
3774.665	-627.8
3777.338	-629.8
3780.008	-634.8
3782.677	-635.8
3785.343	-632.8
3788.007	-638.8
3790.67	-634.8
3793.33	-634.8
3795.989	-636.8
3798.645	-634.8
3801.299	-630.8
3803.952	-647.8
3806.602	-649.8
3809.251	-652.8
3811.897	-650.8
3814.542	-653.8
3817.184	-646.8
3819.825	-646.8
3822.463	-639.8
3825.1	-652.8
3827.735	-640.8
3830.367	-641.8
3832.998	-650.8
3835.627	-656.8
3838.253	-655.8
3840.878	-656.8
3843.501	-653.8
3846.122	-649.8
3848.741	-659.8
3851.358	-654.8
3853.973	-654.8
3856.586	-661.8
3859.197	-663.8
3861.806	-663.8
3864.414	-657.8
3867.019	-653.8
3869.622	-659.8
3872.224	-653.8
3874.823	-636.8
3877.421	-622.8
3880.016	-604.8
3882.61	-582.8
3885.202	-582.8
3887.792	-595.8
3890.38	-630.8
3892.966	-647.8
3895.55	-658.8
3898.132	-675.8
3900.713	-677.8
3903.291	-668.8
3905.868	-676.8
3908.442	-673.8
3911.015	-677.8
3913.586	-670.8
3916.155	-669.8
3918.722	-673.8
3921.287	-669.8
3923.85	-678.8
3926.411	-678.8
3928.971	-686.8
3931.528	-679.8
3934.084	-679.8
3936.638	-670.8
3939.19	-678.8
3941.74	-678.8
3944.288	-681.8
3946.834	-671.8
3949.378	-678.8
3951.921	-674.8
3954.462	-680.8
3957	-672.8
3959.537	-678.8
3962.072	-673.8
3964.606	-682.8
3967.137	-677.8
3969.667	-679.8
3972.194	-676.8
3974.72	-674.8
3977.244	-668.8
3979.766	-668.8
3982.286	-668.8
3984.805	-666.8
3987.321	-662.8
3989.836	-661.8
3992.349	-659.8
3994.86	-654.8
3997.369	-666.8
3999.877	-660.8
4002.382	-656.8
4004.886	-660.8
4007.388	-658.8
4009.888	-660.8
4012.386	-663.8
4014.883	-660.8
4017.377	-661.8
4019.87	-664.8
4022.361	-657.8
4024.85	-659.8
4027.338	-663.8
4029.823	-660.8
4032.307	-662.8
4034.789	-657.8
4037.269	-658.8
4039.747	-662.8
4042.224	-665.8
4044.699	-668.8
4047.172	-666.8
4049.643	-667.8
4052.112	-670.8
4054.58	-668.8
4057.046	-668.8
4059.51	-665.8
4061.972	-673.8
4064.432	-669.8
4066.891	-664.8
4069.348	-664.8
4071.803	-658.8
4074.256	-660.8
4076.708	-662.8
4079.158	-661.8
4081.606	-665.8
4084.052	-673.8
4086.497	-675.8
4088.939	-661.8
4091.38	-667.8
4093.819	-664.8
4096.257	-705.8
4098.693	-701.8
4101.127	-703.8
4103.559	-698.8
4105.989	-395.8
4108.418	-367.8
4110.845	-349.8
4113.27	-328.8
4115.694	-283.8
4118.115	-237.8
4120.535	-662.8
4122.954	-661.8
4125.37	-656.8
4127.785	-666.8
4130.198	-665.8
4132.609	-668.8
4135.019	-701.8
4137.427	-700.8
4139.833	-704.8
4142.237	-702.8
