Data from 2018-2-14_conc=2_n=9_RamanShift_04.txt Node
Date: Wed Feb 14 11:30:56 IST 2018
User: aro
Spectrometer: QEPB0276
Trigger mode: 0
Integration Time (sec): 3.000000E1
Scans to average: 1
Electric dark correction enabled: true
Nonlinearity correction enabled: false
Boxcar width: 0
XAxis mode: Raman Shifts
Number of Pixels in Spectrum: 1044
>>>>>Begin Spectral Data<<<<<
160.701	-150.4
166.742	45.6
172.777	607.6
178.805	2239.6
184.826	6288.6
190.841	13149.6
196.849	21115.6
202.85	26812.6
208.845	28744.6
214.833	28487.6
220.815	27940.6
226.789	27656.6
232.758	27598.6
238.719	27428.6
244.674	27057.6
250.623	26513.6
256.565	26081.6
262.5	25484.6
268.429	25013.6
274.351	24673.6
280.267	24285.6
286.176	24048.6
292.079	23823.6
297.975	23651.6
303.865	23351.6
309.748	23182.6
315.625	23100.6
321.495	22967.6
327.359	22872.6
333.217	22828.6
339.068	22790.6
344.912	22788.6
350.751	22784.6
356.583	22680.6
362.408	22690.6
368.227	22732.6
374.04	22754.6
379.847	22818.6
385.647	22842.6
391.44	22923.6
397.228	23044.6
403.009	23145.6
408.784	23210.6
414.553	23263.6
420.315	23345.6
426.071	23351.6
431.821	23336.6
437.565	23254.6
443.302	23246.6
449.033	23230.6
454.758	23273.6
460.477	23133.6
466.189	23047.6
471.896	23031.6
477.596	23030.6
483.29	22887.6
488.978	22888.6
494.66	22770.6
500.335	22629.6
506.005	22430.6
511.668	22110.6
517.325	21906.6
522.977	21739.6
528.622	21598.6
534.261	21446.6
539.894	21298.6
545.521	21214.6
551.141	21128.6
556.756	21139.6
562.365	21014.6
567.968	20884.6
573.565	20869.6
579.155	20812.6
584.74	20703.6
590.319	20640.6
595.892	20558.6
601.459	20452.6
607.02	20326.6
612.575	20249.6
618.124	20103.6
623.667	20020.6
629.204	19899.6
634.735	19867.6
640.261	19754.6
645.781	19653.6
651.294	19652.6
656.802	19594.6
662.304	19567.6
667.8	19508.6
673.29	19493.6
678.775	19489.6
684.254	19392.6
689.726	19369.6
695.193	19297.6
700.655	19182.6
706.11	19067.6
711.56	19038.6
717.004	18899.6
722.442	18901.6
727.874	18764.6
733.301	18733.6
738.722	18674.6
744.137	18590.6
749.547	18629.6
754.951	18617.6
760.349	18642.6
765.741	18571.6
771.128	18625.6
776.509	18678.6
781.885	18632.6
787.254	18589.6
792.618	18538.6
797.977	18403.6
803.33	18280.6
808.677	18234.6
814.019	18120.6
819.355	17994.6
824.686	17942.6
830.011	17871.6
835.33	17878.6
840.644	17867.6
845.952	17884.6
851.255	17994.6
856.552	18015.6
861.844	17926.6
867.13	17906.6
872.41	17816.6
877.686	17744.6
882.955	17647.6
888.219	17474.6
893.478	17245.6
898.731	17048.6
903.979	16825.6
909.221	16756.6
914.458	16701.6
919.69	16706.6
924.916	16751.6
930.136	16778.6
935.351	16785.6
940.561	16823.6
945.766	16729.6
950.965	16681.6
956.158	16588.6
961.347	16448.6
966.529	16178.6
971.707	15999.6
976.879	15824.6
982.046	15684.6
987.208	15618.6
992.364	15650.6
997.515	15740.6
1002.66	15845.6
1007.801	16025.6
1012.936	16183.6
1018.066	16191.6
1023.19	16163.6
1028.309	16216.6
1033.423	16153.6
1038.532	16110.6
1043.636	15892.6
1048.734	15706.6
1053.827	15558.6
1058.915	15379.6
1063.998	15211.6
1069.075	15285.6
1074.147	15248.6
1079.214	15300.6
1084.276	15384.6
1089.333	15465.6
1094.385	15543.6
1099.431	15613.6
1104.472	15617.6
1109.509	15502.6
1114.54	15306.6
1119.565	15137.6
1124.586	14924.6
1129.602	14739.6
1134.613	14679.6
1139.618	14639.6
1144.619	14579.6
1149.614	14544.6
1154.604	14624.6
1159.589	14620.6
1164.57	14632.6
1169.545	14679.6
1174.515	14693.6
1179.48	14594.6
1184.44	14493.6
1189.395	14426.6
1194.345	14305.6
1199.29	14172.6
1204.23	14295.6
1209.165	14313.6
1214.095	14386.6
1219.021	14447.6
1223.941	14533.6
1228.856	14609.6
1233.766	14643.6
1238.672	14653.6
1243.572	14633.6
1248.467	14524.6
1253.358	14357.6
1258.244	14193.6
1263.124	13970.6
1268	13727.6
1272.871	13584.6
1277.737	13523.6
1282.599	13425.6
1287.455	13428.6
1292.306	13470.6
1297.153	13499.6
1301.995	13543.6
1306.832	13591.6
1311.664	13635.6
1316.491	13560.6
1321.314	13467.6
1326.132	13257.6
1330.945	12964.6
1335.753	12606.6
1340.556	12319.6
1345.354	12095.6
1350.148	11881.6
1354.937	11837.6
1359.722	11854.6
1364.501	11932.6
1369.276	12002.6
1374.046	12242.6
1378.811	12420.6
1383.572	12585.6
1388.327	12629.6
1393.079	12539.6
1397.825	12398.6
1402.567	12149.6
1407.304	11962.6
1412.036	11887.6
1416.764	11790.6
1421.487	11675.6
1426.205	11673.6
1430.919	11614.6
1435.628	11644.6
1440.333	11595.6
1445.032	11596.6
1449.727	11677.6
1454.418	11639.6
1459.104	11565.6
1463.785	11299.6
1468.462	11104.6
1473.134	10889.6
1477.802	10712.6
1482.465	10508.6
1487.123	10356.6
1491.777	10421.6
1496.426	10449.6
1501.071	10574.6
1505.711	10715.6
1510.347	10931.6
1514.978	11131.6
1519.604	11332.6
1524.226	11433.6
1528.844	11447.6
1533.457	11405.6
1538.065	11402.6
1542.669	11233.6
1547.269	11155.6
1551.864	11096.6
1556.454	11031.6
1561.041	11017.6
1565.622	11031.6
1570.199	11064.6
1574.772	11068.6
1579.34	11135.6
1583.904	11197.6
1588.464	11167.6
1593.019	11210.6
1597.569	11192.6
1602.115	11109.6
1606.657	11032.6
1611.195	10918.6
1615.728	10920.6
1620.256	10822.6
1624.78	10849.6
1629.3	10875.6
1633.816	10895.6
1638.327	10868.6
1642.834	11031.6
1647.336	11044.6
1651.834	11077.6
1656.328	10992.6
1660.817	11006.6
1665.302	10896.6
1669.783	10723.6
1674.259	10525.6
1678.732	10183.6
1683.199	9880.6
1687.663	9542.6
1692.122	9219.6
1696.577	9133.6
1701.028	9104.6
1705.474	9196.6
1709.917	9282.6
1714.355	9364.6
1718.788	9333.6
1723.218	9095.6
1727.643	8937.6
1732.064	8842.6
1736.481	8626.6
1740.893	8435.6
1745.301	8201.6
1749.705	7950.6
1754.105	7738.6
1758.501	7528.6
1762.893	7334.6
1767.28	7122.6
1771.663	6974.6
1776.042	6859.6
1780.417	6787.6
1784.787	6772.6
1789.154	6887.6
1793.516	7002.6
1797.874	7130.6
1802.228	7292.6
1806.578	7387.6
1810.924	7372.6
1815.266	7317.6
1819.603	7177.6
1823.937	7072.6
1828.266	6960.6
1832.591	6847.6
1836.913	6751.6
1841.23	6655.6
1845.543	6623.6
1849.852	6594.6
1854.156	6548.6
1858.457	6539.6
1862.754	6522.6
1867.047	6543.6
1871.335	6556.6
1875.62	6532.6
1879.9	6461.6
1884.177	6466.6
1888.449	6402.6
1892.718	6310.6
1896.982	6248.6
1901.243	6188.6
1905.499	6186.6
1909.752	6163.6
1914	6144.6
1918.245	6173.6
1922.485	6237.6
1926.722	6304.6
1930.954	6377.6
1935.183	6421.6
1939.408	6535.6
1943.628	6578.6
1947.845	6584.6
1952.058	6571.6
1956.267	6514.6
1960.472	6421.6
1964.673	6318.6
1968.87	6212.6
1973.063	6118.6
1977.252	6045.6
1981.438	5970.6
1985.619	5924.6
1989.797	5872.6
1993.971	5796.6
1998.14	5791.6
2002.306	5768.6
2006.469	5733.6
2010.627	5706.6
2014.781	5659.6
2018.932	5631.6
2023.078	5562.6
2027.221	5480.6
2031.36	5391.6
2035.495	5351.6
2039.627	5240.6
2043.754	5143.6
2047.878	5179.6
2051.998	5114.6
2056.114	5098.6
2060.226	5077.6
2064.334	5073.6
2068.439	5131.6
2072.54	5125.6
2076.637	5189.6
2080.73	5235.6
2084.82	5234.6
2088.906	5267.6
2092.988	5285.6
2097.066	5231.6
2101.14	5210.6
2105.211	5180.6
2109.278	5158.6
2113.342	5110.6
2117.401	5119.6
2121.457	5046.6
2125.509	5050.6
2129.558	5002.6
2133.602	4970.6
2137.643	4940.6
2141.681	4915.6
2145.714	4894.6
2149.744	4866.6
2153.77	4821.6
2157.793	4765.6
2161.812	4716.6
2165.827	4644.6
2169.838	4577.6
2173.846	4531.6
2177.851	4434.6
2181.851	4365.6
2185.848	4297.6
2189.841	4256.6
2193.831	4238.6
2197.817	4166.6
2201.799	4164.6
2205.778	4140.6
2209.753	4140.6
2213.725	4100.6
2217.693	4108.6
2221.657	4077.6
2225.618	4092.6
2229.575	4084.6
2233.529	4040.6
2237.479	4002.6
2241.425	3948.6
2245.368	3881.6
2249.307	3849.6
2253.243	3785.6
2257.175	3719.6
2261.104	3682.6
2265.029	3654.6
2268.95	3620.6
2272.868	3591.6
2276.783	3518.6
2280.694	3491.6
2284.601	3450.6
2288.505	3431.6
2292.405	3385.6
2296.302	3362.6
2300.195	3330.6
2304.085	3265.6
2307.971	3243.6
2311.854	3196.6
2315.734	3123.6
2319.609	3085.6
2323.482	3052.6
2327.351	3013.6
2331.216	3015.6
2335.078	3011.6
2338.937	2974.6
2342.792	2970.6
2346.643	2968.6
2350.492	2954.6
2354.336	2932.6
2358.178	2952.6
2362.015	2947.6
2365.85	2974.6
2369.681	2940.6
2373.508	2963.6
2377.333	2965.6
2381.153	2955.6
2384.971	2922.6
2388.785	2909.6
2392.595	2877.6
2396.402	2847.6
2400.206	2845.6
2404.007	2806.6
2407.804	2801.6
2411.597	2790.6
2415.388	2764.6
2419.174	2757.6
2422.958	2736.6
2426.738	2708.6
2430.515	2692.6
2434.289	2647.6
2438.059	2648.6
2441.825	2634.6
2445.589	2597.6
2449.349	2591.6
2453.106	2547.6
2456.859	2510.6
2460.61	2484.6
2464.356	2471.6
2468.1	2424.6
2471.84	2416.6
2475.577	2366.6
2479.311	2360.6
2483.041	2367.6
2486.768	2325.6
2490.492	2333.6
2494.213	2328.6
2497.93	2325.6
2501.644	2323.6
2505.355	2301.6
2509.062	2296.6
2512.766	2276.6
2516.467	2279.6
2520.165	2265.6
2523.859	2241.6
2527.551	2224.6
2531.239	2219.6
2534.923	2212.6
2538.605	2179.6
2542.283	2195.6
2545.958	2163.6
2549.63	2175.6
2553.299	2199.6
2556.964	2187.6
2560.626	2185.6
2564.285	2158.6
2567.941	2154.6
2571.594	2134.6
2575.243	2107.6
2578.89	2104.6
2582.533	2111.6
2586.173	2091.6
2589.809	2057.6
2593.443	2051.6
2597.073	2021.6
2600.701	1984.6
2604.325	1990.6
2607.946	1981.6
2611.564	1986.6
2615.178	1935.6
2618.79	1936.6
2622.398	1923.6
2626.004	1900.6
2629.606	1874.6
2633.205	1856.6
2636.801	1823.6
2640.394	1817.6
2643.983	1777.6
2647.57	1756.6
2651.153	1726.6
2654.734	1692.6
2658.311	1671.6
2661.885	1646.6
2665.456	1628.6
2669.025	1584.6
2672.589	1593.6
2676.151	1562.6
2679.71	1563.6
2683.266	1539.6
2686.819	1498.6
2690.368	1473.6
2693.915	1455.6
2697.458	1409.6
2700.999	1386.6
2704.536	1355.6
2708.071	1320.6
2711.602	1291.6
2715.13	1272.6
2718.656	1237.6
2722.178	1209.6
2725.697	1196.6
2729.214	1196.6
2732.727	1190.6
2736.237	1160.6
2739.744	1177.6
2743.249	1164.6
2746.75	1186.6
2750.248	1200.6
2753.743	1205.6
2757.236	1226.6
2760.725	1243.6
2764.211	1234.6
2767.695	1247.6
2771.175	1238.6
2774.652	1243.6
2778.127	1229.6
2781.598	1222.6
2785.067	1211.6
2788.532	1220.6
2791.995	1198.6
2795.455	1198.6
2798.911	1204.6
2802.365	1210.6
2805.816	1199.6
2809.264	1207.6
2812.709	1209.6
2816.151	1219.6
2819.59	1219.6
2823.026	1205.6
2826.46	1204.6
2829.89	1201.6
2833.318	1191.6
2836.742	1216.6
2840.164	1210.6
2843.583	1225.6
2846.999	1230.6
2850.412	1218.6
2853.822	1257.6
2857.229	1275.6
2860.634	1287.6
2864.035	1300.6
2867.434	1325.6
2870.83	1352.6
2874.223	1378.6
2877.613	1394.6
2881	1409.6
2884.385	1417.6
2887.766	1414.6
2891.145	1413.6
2894.521	1399.6
2897.894	1405.6
2901.264	1403.6
2904.631	1399.6
2907.996	1386.6
2911.358	1397.6
2914.717	1422.6
2918.073	1426.6
2921.426	1434.6
2924.777	1446.6
2928.124	1467.6
2931.469	1479.6
2934.811	1528.6
2938.15	1514.6
2941.487	1544.6
2944.821	1543.6
2948.152	1540.6
2951.48	1543.6
2954.805	1510.6
2958.128	1491.6
2961.447	1505.6
2964.765	1490.6
2968.079	1476.6
2971.39	1496.6
2974.699	1507.6
2978.005	1561.6
2981.308	1554.6
2984.609	1582.6
2987.907	1610.6
2991.202	1633.6
2994.494	1701.6
2997.784	1720.6
3001.07	1728.6
3004.355	1752.6
3007.636	1767.6
3010.915	1803.6
3014.191	1827.6
3017.464	1854.6
3020.734	1870.6
3024.002	1835.6
3027.267	1869.6
3030.53	1873.6
3033.789	1890.6
3037.046	1916.6
3040.301	1958.6
3043.552	1981.6
3046.801	2036.6
3050.048	2085.6
3053.291	2088.6
3056.532	2161.6
3059.771	2213.6
3063.006	2293.6
3066.239	2331.6
3069.469	2431.6
3072.697	2465.6
3075.922	2545.6
3079.144	2585.6
3082.364	2671.6
3085.581	2729.6
3088.795	2756.6
3092.007	2840.6
3095.216	2886.6
3098.423	2942.6
3101.627	3010.6
3104.828	3083.6
3108.026	3131.6
3111.222	3195.6
3114.416	3272.6
3117.607	3336.6
3120.795	3437.6
3123.98	3522.6
3127.163	3603.6
3130.344	3664.6
3133.521	3764.6
3136.696	3818.6
3139.869	3916.6
3143.039	4000.6
3146.206	4041.6
3149.371	4078.6
3152.533	4129.6
3155.693	4150.6
3158.85	4154.6
3162.005	4222.6
3165.157	4195.6
3168.306	4197.6
3171.453	4204.6
3174.597	4199.6
3177.739	4256.6
3180.878	4230.6
3184.014	4247.6
3187.149	4217.6
3190.28	4228.6
3193.409	4250.6
3196.536	4242.6
3199.659	4246.6
3202.781	4268.6
3205.9	4275.6
3209.016	4268.6
3212.13	4251.6
3215.241	4209.6
3218.35	4189.6
3221.456	4157.6
3224.56	4090.6
3227.661	4054.6
3230.76	4013.6
3233.856	3952.6
3236.95	3918.6
3240.041	3887.6
3243.13	3861.6
3246.216	3848.6
3249.3	3818.6
3252.382	3806.6
3255.46	3795.6
3258.537	3768.6
3261.611	3753.6
3264.682	3763.6
3267.751	3791.6
3270.818	3776.6
3273.882	3760.6
3276.943	3757.6
3280.002	3691.6
3283.059	3665.6
3286.113	3625.6
3289.165	3556.6
3292.214	3535.6
3295.261	3478.6
3298.306	3407.6
3301.348	3362.6
3304.387	3304.6
3307.425	3265.6
3310.459	3230.6
3313.492	3171.6
3316.521	3097.6
3319.549	3067.6
3322.574	3057.6
3325.597	3035.6
3328.617	3002.6
3331.635	2976.6
3334.65	2962.6
3337.663	2960.6
3340.674	2922.6
3343.682	2915.6
3346.688	2922.6
3349.691	2889.6
3352.692	2874.6
3355.691	2879.6
3358.687	2852.6
3361.681	2813.6
3364.673	2771.6
3367.662	2730.6
3370.649	2699.6
3373.633	2657.6
3376.615	2647.6
3379.595	2585.6
3382.572	2561.6
3385.547	2495.6
3388.52	2476.6
3391.49	2448.6
3394.458	2386.6
3397.424	2376.6
3400.387	2332.6
3403.348	2293.6
3406.307	2257.6
3409.263	2248.6
3412.217	2223.6
3415.168	2210.6
3418.118	2195.6
3421.065	2152.6
3424.009	2102.6
3426.951	2088.6
3429.891	2055.6
3432.829	1995.6
3435.764	1942.6
3438.697	1900.6
3441.628	1869.6
3444.557	1809.6
3447.483	1743.6
3450.407	1696.6
3453.328	1622.6
3456.247	1598.6
3459.164	1511.6
3462.079	1474.6
3464.991	1438.6
3467.902	1356.6
3470.809	1331.6
3473.715	1271.6
3476.618	1221.6
3479.519	1184.6
3482.418	1165.6
3485.315	1105.6
3488.209	1068.6
3491.101	1033.6
3493.99	998.6
3496.878	966.6
3499.763	924.6
3502.646	883.6
3505.527	836.6
3508.405	832.6
3511.281	766.6
3514.155	720.6
3517.027	695.6
3519.897	621.6
3522.764	584.6
3525.629	551.6
3528.492	506.6
3531.352	467.6
3534.211	422.6
3537.067	376.6
3539.921	357.6
3542.773	307.6
3545.622	273.6
3548.469	246.6
3551.315	229.6
3554.157	199.6
3556.998	160.6
3559.837	133.6
3562.673	112.6
3565.507	92.6
3568.339	68.6
3571.169	47.6
3573.996	30.6
3576.822	7.6
3579.645	-27.4
3582.466	-40.4
3585.285	-56.4
3588.101	-94.4
3590.916	-100.4
3593.728	-122.4
3596.538	-135.4
3599.346	-170.4
3602.152	-176.4
3604.956	-196.4
3607.757	-209.4
3610.556	-228.4
3613.354	-241.4
3616.149	-260.4
3618.942	-271.4
3621.732	-284.4
3624.521	-288.4
3627.307	-304.4
3630.092	-318.4
3632.874	-320.4
3635.654	-341.4
3638.432	-341.4
3641.208	-353.4
3643.982	-372.4
3646.753	-372.4
3649.523	-392.4
3652.29	-393.4
3655.055	-401.4
3657.818	-414.4
3660.579	-427.4
3663.338	-437.4
3666.095	-450.4
3668.849	-455.4
3671.602	-470.4
3674.352	-471.4
3677.101	-479.4
3679.847	-490.4
3682.591	-497.4
3685.333	-509.4
3688.073	-512.4
3690.811	-520.4
3693.547	-522.4
3696.281	-530.4
3699.013	-527.4
3701.742	-537.4
3704.47	-533.4
3707.195	-546.4
3709.919	-546.4
3712.64	-555.4
3715.359	-548.4
3718.076	-558.4
3720.792	-562.4
3723.505	-563.4
3726.216	-573.4
3728.925	-575.4
3731.632	-576.4
3734.336	-581.4
3737.039	-590.4
3739.74	-582.4
3742.439	-589.4
3745.136	-589.4
3747.83	-598.4
3750.523	-595.4
3753.213	-581.4
3755.902	-602.4
3758.589	-603.4
3761.273	-605.4
3763.956	-606.4
3766.636	-602.4
3769.315	-609.4
3771.991	-612.4
3774.665	-613.4
3777.338	-611.4
3780.008	-615.4
3782.677	-622.4
3785.343	-611.4
3788.007	-621.4
3790.67	-623.4
3793.33	-625.4
3795.989	-628.4
3798.645	-624.4
3801.299	-624.4
3803.952	-635.4
3806.602	-636.4
3809.251	-634.4
3811.897	-625.4
3814.542	-631.4
3817.184	-626.4
3819.825	-624.4
3822.463	-626.4
3825.1	-635.4
3827.735	-632.4
3830.367	-631.4
3832.998	-644.4
3835.627	-649.4
3838.253	-650.4
3840.878	-648.4
3843.501	-640.4
3846.122	-639.4
3848.741	-638.4
3851.358	-639.4
3853.973	-640.4
3856.586	-645.4
3859.197	-644.4
3861.806	-649.4
3864.414	-645.4
3867.019	-643.4
3869.622	-642.4
3872.224	-643.4
3874.823	-633.4
3877.421	-612.4
3880.016	-603.4
3882.61	-585.4
3885.202	-578.4
3887.792	-579.4
3890.38	-615.4
3892.966	-634.4
3895.55	-646.4
3898.132	-656.4
3900.713	-658.4
3903.291	-654.4
3905.868	-653.4
3908.442	-656.4
3911.015	-659.4
3913.586	-652.4
3916.155	-662.4
3918.722	-659.4
3921.287	-660.4
3923.85	-668.4
3926.411	-666.4
3928.971	-672.4
3931.528	-667.4
3934.084	-667.4
3936.638	-657.4
3939.19	-666.4
3941.74	-661.4
3944.288	-670.4
3946.834	-660.4
3949.378	-663.4
3951.921	-663.4
3954.462	-669.4
3957	-659.4
3959.537	-662.4
3962.072	-665.4
3964.606	-661.4
3967.137	-665.4
3969.667	-666.4
3972.194	-658.4
3974.72	-666.4
3977.244	-645.4
3979.766	-653.4
3982.286	-657.4
3984.805	-648.4
3987.321	-645.4
3989.836	-650.4
3992.349	-643.4
3994.86	-642.4
3997.369	-653.4
3999.877	-647.4
4002.382	-650.4
4004.886	-650.4
4007.388	-648.4
4009.888	-646.4
4012.386	-647.4
4014.883	-646.4
4017.377	-643.4
4019.87	-647.4
4022.361	-643.4
4024.85	-650.4
4027.338	-644.4
4029.823	-647.4
4032.307	-650.4
4034.789	-643.4
4037.269	-647.4
4039.747	-650.4
4042.224	-647.4
4044.699	-655.4
4047.172	-651.4
4049.643	-647.4
4052.112	-660.4
4054.58	-654.4
4057.046	-651.4
4059.51	-659.4
4061.972	-654.4
4064.432	-652.4
4066.891	-651.4
4069.348	-648.4
4071.803	-646.4
4074.256	-648.4
4076.708	-649.4
4079.158	-650.4
4081.606	-650.4
4084.052	-658.4
4086.497	-657.4
4088.939	-650.4
4091.38	-656.4
4093.819	-651.4
4096.257	-686.4
4098.693	-685.4
4101.127	-690.4
4103.559	-686.4
4105.989	-387.4
4108.418	-358.4
4110.845	-344.4
4113.27	-316.4
4115.694	-274.4
4118.115	-242.4
4120.535	-651.4
4122.954	-652.4
4125.37	-641.4
4127.785	-649.4
4130.198	-650.4
4132.609	-649.4
4135.019	-687.4
4137.427	-684.4
4139.833	-686.4
4142.237	-684.4
