Data from 2018-2-14_conc=5_n=9_RamanShift_02.txt Node
Date: Wed Feb 14 14:31:55 IST 2018
User: aro
Spectrometer: QEPB0276
Trigger mode: 0
Integration Time (sec): 3.000000E1
Scans to average: 1
Electric dark correction enabled: true
Nonlinearity correction enabled: false
Boxcar width: 0
XAxis mode: Raman Shifts
Number of Pixels in Spectrum: 1044
>>>>>Begin Spectral Data<<<<<
160.701	-128.1
166.742	50.9
172.777	547.9
178.805	2133.9
184.826	5993.9
190.841	12608.9
196.849	20348.9
202.85	25871.9
208.845	27643.9
214.833	27326.9
220.815	26845.9
226.789	26641.9
232.758	26542.9
238.719	26285.9
244.674	25977.9
250.623	25406.9
256.565	24876.9
262.5	24350.9
268.429	23906.9
274.351	23550.9
280.267	23245.9
286.176	22921.9
292.079	22662.9
297.975	22394.9
303.865	22224.9
309.748	22091.9
315.625	21957.9
321.495	21809.9
327.359	21723.9
333.217	21702.9
339.068	21681.9
344.912	21653.9
350.751	21587.9
356.583	21621.9
362.408	21554.9
368.227	21563.9
374.04	21602.9
379.847	21576.9
385.647	21724.9
391.44	21809.9
397.228	21878.9
403.009	21987.9
408.784	22056.9
414.553	22150.9
420.315	22182.9
426.071	22260.9
431.821	22175.9
437.565	22174.9
443.302	22142.9
449.033	22104.9
454.758	22008.9
460.477	22053.9
466.189	21922.9
471.896	21870.9
477.596	21819.9
483.29	21785.9
488.978	21704.9
494.66	21647.9
500.335	21511.9
506.005	21312.9
511.668	21019.9
517.325	20779.9
522.977	20530.9
528.622	20375.9
534.261	20269.9
539.894	20155.9
545.521	20020.9
551.141	20009.9
556.756	19924.9
562.365	19881.9
567.968	19707.9
573.565	19694.9
579.155	19654.9
584.74	19540.9
590.319	19498.9
595.892	19399.9
601.459	19394.9
607.02	19294.9
612.575	19111.9
618.124	18965.9
623.667	18889.9
629.204	18787.9
634.735	18754.9
640.261	18636.9
645.781	18579.9
651.294	18596.9
656.802	18566.9
662.304	18541.9
667.8	18392.9
673.29	18437.9
678.775	18376.9
684.254	18321.9
689.726	18270.9
695.193	18242.9
700.655	18118.9
706.11	18086.9
711.56	17937.9
717.004	17866.9
722.442	17825.9
727.874	17681.9
733.301	17660.9
738.722	17620.9
744.137	17584.9
749.547	17587.9
754.951	17603.9
760.349	17630.9
765.741	17608.9
771.128	17618.9
776.509	17701.9
781.885	17609.9
787.254	17583.9
792.618	17491.9
797.977	17421.9
803.33	17275.9
808.677	17190.9
814.019	17149.9
819.355	17045.9
824.686	16942.9
830.011	16943.9
835.33	16928.9
840.644	16904.9
845.952	16927.9
851.255	17014.9
856.552	16930.9
861.844	16966.9
867.13	16944.9
872.41	16835.9
877.686	16731.9
882.955	16675.9
888.219	16475.9
893.478	16354.9
898.731	16105.9
903.979	15955.9
909.221	15883.9
914.458	15806.9
919.69	15757.9
924.916	15801.9
930.136	15868.9
935.351	15936.9
940.561	15894.9
945.766	15922.9
950.965	15788.9
956.158	15645.9
961.347	15529.9
966.529	15340.9
971.707	15142.9
976.879	14953.9
982.046	14826.9
987.208	14827.9
992.364	14800.9
997.515	14906.9
1002.66	15055.9
1007.801	15194.9
1012.936	15329.9
1018.066	15336.9
1023.19	15314.9
1028.309	15333.9
1033.423	15243.9
1038.532	15226.9
1043.636	15099.9
1048.734	14876.9
1053.827	14723.9
1058.915	14533.9
1063.998	14440.9
1069.075	14435.9
1074.147	14448.9
1079.214	14491.9
1084.276	14583.9
1089.333	14652.9
1094.385	14791.9
1099.431	14848.9
1104.472	14795.9
1109.509	14667.9
1114.54	14544.9
1119.565	14317.9
1124.586	14174.9
1129.602	14002.9
1134.613	13964.9
1139.618	13876.9
1144.619	13805.9
1149.614	13812.9
1154.604	13826.9
1159.589	13884.9
1164.57	13932.9
1169.545	13950.9
1174.515	13947.9
1179.48	13866.9
1184.44	13768.9
1189.395	13695.9
1194.345	13556.9
1199.29	13534.9
1204.23	13525.9
1209.165	13561.9
1214.095	13660.9
1219.021	13690.9
1223.941	13798.9
1228.856	13875.9
1233.766	13877.9
1238.672	13912.9
1243.572	13870.9
1248.467	13830.9
1253.358	13682.9
1258.244	13512.9
1263.124	13278.9
1268	13076.9
1272.871	12937.9
1277.737	12862.9
1282.599	12731.9
1287.455	12744.9
1292.306	12797.9
1297.153	12839.9
1301.995	12910.9
1306.832	13025.9
1311.664	12982.9
1316.491	12948.9
1321.314	12898.9
1326.132	12701.9
1330.945	12385.9
1335.753	12077.9
1340.556	11735.9
1345.354	11502.9
1350.148	11234.9
1354.937	11150.9
1359.722	11122.9
1364.501	11266.9
1369.276	11393.9
1374.046	11618.9
1378.811	11910.9
1383.572	12045.9
1388.327	12057.9
1393.079	12010.9
1397.825	11847.9
1402.567	11658.9
1407.304	11470.9
1412.036	11340.9
1416.764	11280.9
1421.487	11202.9
1426.205	11112.9
1430.919	11054.9
1435.628	11136.9
1440.333	11128.9
1445.032	11108.9
1449.727	11182.9
1454.418	11200.9
1459.104	11058.9
1463.785	10867.9
1468.462	10585.9
1473.134	10384.9
1477.802	10172.9
1482.465	9980.9
1487.123	9822.9
1491.777	9873.9
1496.426	9925.9
1501.071	10041.9
1505.711	10191.9
1510.347	10391.9
1514.978	10629.9
1519.604	10811.9
1524.226	10919.9
1528.844	10943.9
1533.457	10935.9
1538.065	10862.9
1542.669	10795.9
1547.269	10675.9
1551.864	10625.9
1556.454	10601.9
1561.041	10594.9
1565.622	10571.9
1570.199	10620.9
1574.772	10654.9
1579.34	10687.9
1583.904	10722.9
1588.464	10805.9
1593.019	10799.9
1597.569	10760.9
1602.115	10733.9
1606.657	10646.9
1611.195	10586.9
1615.728	10513.9
1620.256	10444.9
1624.78	10479.9
1629.3	10482.9
1633.816	10479.9
1638.327	10542.9
1642.834	10642.9
1647.336	10647.9
1651.834	10675.9
1656.328	10630.9
1660.817	10610.9
1665.302	10504.9
1669.783	10310.9
1674.259	10084.9
1678.732	9832.9
1683.199	9463.9
1687.663	9130.9
1692.122	8819.9
1696.577	8687.9
1701.028	8694.9
1705.474	8789.9
1709.917	8973.9
1714.355	9067.9
1718.788	8944.9
1723.218	8799.9
1727.643	8583.9
1732.064	8437.9
1736.481	8259.9
1740.893	8029.9
1745.301	7848.9
1749.705	7653.9
1754.105	7434.9
1758.501	7267.9
1762.893	7044.9
1767.28	6831.9
1771.663	6717.9
1776.042	6588.9
1780.417	6479.9
1784.787	6497.9
1789.154	6554.9
1793.516	6678.9
1797.874	6840.9
1802.228	7021.9
1806.578	7117.9
1810.924	7115.9
1815.266	7056.9
1819.603	6933.9
1823.937	6878.9
1828.266	6728.9
1832.591	6622.9
1836.913	6506.9
1841.23	6468.9
1845.543	6413.9
1849.852	6384.9
1854.156	6349.9
1858.457	6347.9
1862.754	6339.9
1867.047	6321.9
1871.335	6291.9
1875.62	6316.9
1879.9	6261.9
1884.177	6219.9
1888.449	6185.9
1892.718	6112.9
1896.982	6072.9
1901.243	6010.9
1905.499	5935.9
1909.752	5921.9
1914	5946.9
1918.245	5937.9
1922.485	5971.9
1926.722	6087.9
1930.954	6135.9
1935.183	6233.9
1939.408	6329.9
1943.628	6331.9
1947.845	6380.9
1952.058	6365.9
1956.267	6304.9
1960.472	6252.9
1964.673	6184.9
1968.87	6041.9
1973.063	5964.9
1977.252	5850.9
1981.438	5845.9
1985.619	5780.9
1989.797	5740.9
1993.971	5682.9
1998.14	5678.9
2002.306	5616.9
2006.469	5617.9
2010.627	5586.9
2014.781	5547.9
2018.932	5500.9
2023.078	5452.9
2027.221	5389.9
2031.36	5308.9
2035.495	5223.9
2039.627	5152.9
2043.754	5077.9
2047.878	5053.9
2051.998	5041.9
2056.114	5001.9
2060.226	5012.9
2064.334	5010.9
2068.439	5032.9
2072.54	5034.9
2076.637	5055.9
2080.73	5091.9
2084.82	5113.9
2088.906	5161.9
2092.988	5164.9
2097.066	5163.9
2101.14	5120.9
2105.211	5102.9
2109.278	5075.9
2113.342	5024.9
2117.401	5012.9
2121.457	5016.9
2125.509	4977.9
2129.558	4938.9
2133.602	4933.9
2137.643	4893.9
2141.681	4889.9
2145.714	4873.9
2149.744	4814.9
2153.77	4819.9
2157.793	4723.9
2161.812	4667.9
2165.827	4606.9
2169.838	4547.9
2173.846	4503.9
2177.851	4413.9
2181.851	4350.9
2185.848	4337.9
2189.841	4285.9
2193.831	4225.9
2197.817	4204.9
2201.799	4142.9
2205.778	4141.9
2209.753	4140.9
2213.725	4119.9
2217.693	4100.9
2221.657	4088.9
2225.618	4117.9
2229.575	4080.9
2233.529	4049.9
2237.479	4015.9
2241.425	3961.9
2245.368	3914.9
2249.307	3857.9
2253.243	3835.9
2257.175	3768.9
2261.104	3704.9
2265.029	3691.9
2268.95	3640.9
2272.868	3628.9
2276.783	3578.9
2280.694	3561.9
2284.601	3524.9
2288.505	3487.9
2292.405	3456.9
2296.302	3422.9
2300.195	3364.9
2304.085	3360.9
2307.971	3304.9
2311.854	3300.9
2315.734	3222.9
2319.609	3183.9
2323.482	3138.9
2327.351	3087.9
2331.216	3086.9
2335.078	3084.9
2338.937	3048.9
2342.792	3015.9
2346.643	2994.9
2350.492	2998.9
2354.336	3044.9
2358.178	3040.9
2362.015	3026.9
2365.85	3035.9
2369.681	3025.9
2373.508	3052.9
2377.333	3023.9
2381.153	3003.9
2384.971	3000.9
2388.785	2982.9
2392.595	2973.9
2396.402	2947.9
2400.206	2899.9
2404.007	2918.9
2407.804	2871.9
2411.597	2861.9
2415.388	2831.9
2419.174	2840.9
2422.958	2813.9
2426.738	2768.9
2430.515	2759.9
2434.289	2724.9
2438.059	2718.9
2441.825	2693.9
2445.589	2655.9
2449.349	2632.9
2453.106	2606.9
2456.859	2576.9
2460.61	2558.9
2464.356	2549.9
2468.1	2490.9
2471.84	2458.9
2475.577	2447.9
2479.311	2448.9
2483.041	2419.9
2486.768	2411.9
2490.492	2405.9
2494.213	2402.9
2497.93	2396.9
2501.644	2390.9
2505.355	2355.9
2509.062	2355.9
2512.766	2354.9
2516.467	2352.9
2520.165	2322.9
2523.859	2301.9
2527.551	2260.9
2531.239	2273.9
2534.923	2274.9
2538.605	2241.9
2542.283	2254.9
2545.958	2228.9
2549.63	2246.9
2553.299	2245.9
2556.964	2242.9
2560.626	2225.9
2564.285	2206.9
2567.941	2237.9
2571.594	2192.9
2575.243	2195.9
2578.89	2188.9
2582.533	2153.9
2586.173	2147.9
2589.809	2125.9
2593.443	2102.9
2597.073	2088.9
2600.701	2094.9
2604.325	2055.9
2607.946	2029.9
2611.564	2039.9
2615.178	2015.9
2618.79	2009.9
2622.398	1997.9
2626.004	1967.9
2629.606	1950.9
2633.205	1930.9
2636.801	1922.9
2640.394	1891.9
2643.983	1856.9
2647.57	1833.9
2651.153	1819.9
2654.734	1767.9
2658.311	1748.9
2661.885	1740.9
2665.456	1700.9
2669.025	1698.9
2672.589	1661.9
2676.151	1666.9
2679.71	1636.9
2683.266	1622.9
2686.819	1593.9
2690.368	1556.9
2693.915	1517.9
2697.458	1493.9
2700.999	1461.9
2704.536	1442.9
2708.071	1393.9
2711.602	1375.9
2715.13	1338.9
2718.656	1324.9
2722.178	1283.9
2725.697	1258.9
2729.214	1260.9
2732.727	1259.9
2736.237	1240.9
2739.744	1228.9
2743.249	1228.9
2746.75	1236.9
2750.248	1255.9
2753.743	1278.9
2757.236	1296.9
2760.725	1319.9
2764.211	1323.9
2767.695	1327.9
2771.175	1328.9
2774.652	1304.9
2778.127	1319.9
2781.598	1286.9
2785.067	1274.9
2788.532	1269.9
2791.995	1273.9
2795.455	1282.9
2798.911	1282.9
2802.365	1280.9
2805.816	1274.9
2809.264	1260.9
2812.709	1283.9
2816.151	1256.9
2819.59	1273.9
2823.026	1269.9
2826.46	1270.9
2829.89	1263.9
2833.318	1271.9
2836.742	1276.9
2840.164	1283.9
2843.583	1287.9
2846.999	1299.9
2850.412	1307.9
2853.822	1335.9
2857.229	1364.9
2860.634	1350.9
2864.035	1371.9
2867.434	1395.9
2870.83	1421.9
2874.223	1415.9
2877.613	1445.9
2881	1469.9
2884.385	1466.9
2887.766	1484.9
2891.145	1468.9
2894.521	1463.9
2897.894	1464.9
2901.264	1471.9
2904.631	1484.9
2907.996	1466.9
2911.358	1463.9
2914.717	1478.9
2918.073	1495.9
2921.426	1504.9
2924.777	1517.9
2928.124	1542.9
2931.469	1569.9
2934.811	1591.9
2938.15	1613.9
2941.487	1598.9
2944.821	1627.9
2948.152	1619.9
2951.48	1587.9
2954.805	1570.9
2958.128	1558.9
2961.447	1567.9
2964.765	1548.9
2968.079	1540.9
2971.39	1545.9
2974.699	1584.9
2978.005	1605.9
2981.308	1624.9
2984.609	1646.9
2987.907	1684.9
2991.202	1709.9
2994.494	1742.9
2997.784	1794.9
3001.07	1800.9
3004.355	1819.9
3007.636	1855.9
3010.915	1881.9
3014.191	1887.9
3017.464	1892.9
3020.734	1944.9
3024.002	1930.9
3027.267	1937.9
3030.53	1961.9
3033.789	1962.9
3037.046	1994.9
3040.301	2016.9
3043.552	2041.9
3046.801	2080.9
3050.048	2134.9
3053.291	2170.9
3056.532	2228.9
3059.771	2281.9
3063.006	2330.9
3066.239	2416.9
3069.469	2500.9
3072.697	2543.9
3075.922	2582.9
3079.144	2638.9
3082.364	2727.9
3085.581	2769.9
3088.795	2826.9
3092.007	2887.9
3095.216	2922.9
3098.423	3003.9
3101.627	3046.9
3104.828	3132.9
3108.026	3181.9
3111.222	3245.9
3114.416	3323.9
3117.607	3385.9
3120.795	3478.9
3123.98	3552.9
3127.163	3637.9
3130.344	3719.9
3133.521	3795.9
3136.696	3867.9
3139.869	3948.9
3143.039	4036.9
3146.206	4081.9
3149.371	4129.9
3152.533	4160.9
3155.693	4165.9
3158.85	4210.9
3162.005	4246.9
3165.157	4255.9
3168.306	4254.9
3171.453	4271.9
3174.597	4250.9
3177.739	4302.9
3180.878	4283.9
3184.014	4297.9
3187.149	4249.9
3190.28	4305.9
3193.409	4289.9
3196.536	4322.9
3199.659	4338.9
3202.781	4331.9
3205.9	4300.9
3209.016	4300.9
3212.13	4300.9
3215.241	4282.9
3218.35	4193.9
3221.456	4183.9
3224.56	4124.9
3227.661	4075.9
3230.76	4039.9
3233.856	4017.9
3236.95	3953.9
3240.041	3924.9
3243.13	3895.9
3246.216	3896.9
3249.3	3863.9
3252.382	3862.9
3255.46	3856.9
3258.537	3811.9
3261.611	3820.9
3264.682	3830.9
3267.751	3821.9
3270.818	3846.9
3273.882	3823.9
3276.943	3801.9
3280.002	3754.9
3283.059	3730.9
3286.113	3665.9
3289.165	3650.9
3292.214	3581.9
3295.261	3539.9
3298.306	3457.9
3301.348	3432.9
3304.387	3367.9
3307.425	3351.9
3310.459	3255.9
3313.492	3238.9
3316.521	3202.9
3319.549	3127.9
3322.574	3099.9
3325.597	3080.9
3328.617	3062.9
3331.635	3047.9
3334.65	3032.9
3337.663	2999.9
3340.674	2987.9
3343.682	2993.9
3346.688	2973.9
3349.691	2961.9
3352.692	2927.9
3355.691	2939.9
3358.687	2897.9
3361.681	2885.9
3364.673	2802.9
3367.662	2787.9
3370.649	2734.9
3373.633	2710.9
3376.615	2663.9
3379.595	2603.9
3382.572	2613.9
3385.547	2550.9
3388.52	2516.9
3391.49	2496.9
3394.458	2421.9
3397.424	2412.9
3400.387	2377.9
3403.348	2351.9
3406.307	2328.9
3409.263	2308.9
3412.217	2274.9
3415.168	2259.9
3418.118	2228.9
3421.065	2194.9
3424.009	2166.9
3426.951	2131.9
3429.891	2116.9
3432.829	2055.9
3435.764	2002.9
3438.697	1962.9
3441.628	1882.9
3444.557	1850.9
3447.483	1768.9
3450.407	1730.9
3453.328	1695.9
3456.247	1635.9
3459.164	1572.9
3462.079	1527.9
3464.991	1452.9
3467.902	1391.9
3470.809	1360.9
3473.715	1318.9
3476.618	1261.9
3479.519	1229.9
3482.418	1200.9
3485.315	1160.9
3488.209	1136.9
3491.101	1076.9
3493.99	1042.9
3496.878	1009.9
3499.763	975.9
3502.646	930.9
3505.527	900.9
3508.405	864.9
3511.281	811.9
3514.155	764.9
3517.027	734.9
3519.897	686.9
3522.764	636.9
3525.629	595.9
3528.492	554.9
3531.352	516.9
3534.211	475.9
3537.067	428.9
3539.921	415.9
3542.773	360.9
3545.622	335.9
3548.469	302.9
3551.315	276.9
3554.157	236.9
3556.998	201.9
3559.837	184.9
3562.673	158.9
3565.507	144.9
3568.339	110.9
3571.169	88.9
3573.996	63.9
3576.822	41.9
3579.645	32.9
3582.466	6.9
3585.285	-9.1
3588.101	-41.1
3590.916	-60.1
3593.728	-82.1
3596.538	-89.1
3599.346	-121.1
3602.152	-136.1
3604.956	-156.1
3607.757	-178.1
3610.556	-190.1
3613.354	-213.1
3616.149	-226.1
3618.942	-232.1
3621.732	-249.1
3624.521	-255.1
3627.307	-271.1
3630.092	-278.1
3632.874	-284.1
3635.654	-296.1
3638.432	-297.1
3641.208	-307.1
3643.982	-322.1
3646.753	-334.1
3649.523	-337.1
3652.29	-354.1
3655.055	-367.1
3657.818	-381.1
3660.579	-386.1
3663.338	-405.1
3666.095	-408.1
3668.849	-421.1
3671.602	-434.1
3674.352	-427.1
3677.101	-436.1
3679.847	-452.1
3682.591	-461.1
3685.333	-466.1
3688.073	-467.1
3690.811	-480.1
3693.547	-480.1
3696.281	-491.1
3699.013	-490.1
3701.742	-493.1
3704.47	-497.1
3707.195	-514.1
3709.919	-509.1
3712.64	-509.1
3715.359	-514.1
3718.076	-518.1
3720.792	-523.1
3723.505	-526.1
3726.216	-530.1
3728.925	-525.1
3731.632	-537.1
3734.336	-539.1
3737.039	-549.1
3739.74	-546.1
3742.439	-550.1
3745.136	-552.1
3747.83	-558.1
3750.523	-555.1
3753.213	-564.1
3755.902	-562.1
3758.589	-560.1
3761.273	-563.1
3763.956	-572.1
3766.636	-571.1
3769.315	-573.1
3771.991	-571.1
3774.665	-577.1
3777.338	-575.1
3780.008	-577.1
3782.677	-580.1
3785.343	-579.1
3788.007	-578.1
3790.67	-582.1
3793.33	-587.1
3795.989	-586.1
3798.645	-581.1
3801.299	-584.1
3803.952	-596.1
3806.602	-599.1
3809.251	-597.1
3811.897	-597.1
3814.542	-603.1
3817.184	-598.1
3819.825	-593.1
3822.463	-596.1
3825.1	-598.1
3827.735	-593.1
3830.367	-596.1
3832.998	-605.1
3835.627	-600.1
3838.253	-606.1
3840.878	-602.1
3843.501	-602.1
3846.122	-600.1
3848.741	-602.1
3851.358	-604.1
3853.973	-606.1
3856.586	-609.1
3859.197	-614.1
3861.806	-612.1
3864.414	-610.1
3867.019	-605.1
3869.622	-610.1
3872.224	-608.1
3874.823	-593.1
3877.421	-575.1
3880.016	-559.1
3882.61	-536.1
3885.202	-534.1
3887.792	-545.1
3890.38	-578.1
3892.966	-597.1
3895.55	-610.1
3898.132	-617.1
3900.713	-621.1
3903.291	-620.1
3905.868	-615.1
3908.442	-619.1
3911.015	-622.1
3913.586	-616.1
3916.155	-615.1
3918.722	-625.1
3921.287	-617.1
3923.85	-629.1
3926.411	-621.1
3928.971	-630.1
3931.528	-628.1
3934.084	-627.1
3936.638	-623.1
3939.19	-624.1
3941.74	-626.1
3944.288	-631.1
3946.834	-623.1
3949.378	-631.1
3951.921	-626.1
3954.462	-627.1
3957	-626.1
3959.537	-630.1
3962.072	-619.1
3964.606	-623.1
3967.137	-623.1
3969.667	-624.1
3972.194	-616.1
3974.72	-623.1
3977.244	-614.1
3979.766	-612.1
3982.286	-613.1
3984.805	-616.1
3987.321	-611.1
3989.836	-619.1
3992.349	-609.1
3994.86	-614.1
3997.369	-629.1
3999.877	-609.1
4002.382	-613.1
4004.886	-609.1
4007.388	-610.1
4009.888	-606.1
4012.386	-621.1
4014.883	-608.1
4017.377	-610.1
4019.87	-609.1
4022.361	-611.1
4024.85	-612.1
4027.338	-609.1
4029.823	-617.1
4032.307	-616.1
4034.789	-610.1
4037.269	-605.1
4039.747	-617.1
4042.224	-615.1
4044.699	-615.1
4047.172	-616.1
4049.643	-618.1
4052.112	-627.1
4054.58	-619.1
4057.046	-618.1
4059.51	-617.1
4061.972	-622.1
4064.432	-617.1
4066.891	-613.1
4069.348	-613.1
4071.803	-615.1
4074.256	-612.1
4076.708	-612.1
4079.158	-613.1
4081.606	-619.1
4084.052	-614.1
4086.497	-617.1
4088.939	-606.1
4091.38	-609.1
4093.819	-611.1
4096.257	-647.1
4098.693	-650.1
4101.127	-650.1
4103.559	-648.1
4105.989	-367.1
4108.418	-346.1
4110.845	-333.1
4113.27	-297.1
4115.694	-259.1
4118.115	-216.1
4120.535	-613.1
4122.954	-613.1
4125.37	-607.1
4127.785	-613.1
4130.198	-613.1
4132.609	-620.1
4135.019	-653.1
4137.427	-652.1
4139.833	-654.1
4142.237	-645.1
