Data from 2018-2-14_conc=4_n=4_RamanShift_02.txt Node
Date: Wed Feb 14 13:37:25 IST 2018
User: aro
Spectrometer: QEPB0276
Trigger mode: 0
Integration Time (sec): 3.000000E1
Scans to average: 1
Electric dark correction enabled: true
Nonlinearity correction enabled: false
Boxcar width: 0
XAxis mode: Raman Shifts
Number of Pixels in Spectrum: 1044
>>>>>Begin Spectral Data<<<<<
160.701	-146.1
166.742	41.9
172.777	599.9
178.805	2236.9
184.826	6246.9
190.841	13018.9
196.849	20831.9
202.85	26248.9
208.845	28112.9
214.833	27807.9
220.815	27299.9
226.789	27119.9
232.758	26925.9
238.719	26749.9
244.674	26427.9
250.623	25950.9
256.565	25354.9
262.5	24835.9
268.429	24354.9
274.351	23964.9
280.267	23638.9
286.176	23414.9
292.079	23149.9
297.975	22924.9
303.865	22753.9
309.748	22598.9
315.625	22372.9
321.495	22262.9
327.359	22221.9
333.217	22134.9
339.068	22200.9
344.912	22092.9
350.751	22075.9
356.583	22082.9
362.408	22020.9
368.227	22005.9
374.04	22061.9
379.847	22090.9
385.647	22176.9
391.44	22266.9
397.228	22370.9
403.009	22443.9
408.784	22471.9
414.553	22570.9
420.315	22593.9
426.071	22660.9
431.821	22619.9
437.565	22617.9
443.302	22560.9
449.033	22597.9
454.758	22505.9
460.477	22402.9
466.189	22410.9
471.896	22392.9
477.596	22315.9
483.29	22307.9
488.978	22180.9
494.66	22107.9
500.335	22062.9
506.005	21802.9
511.668	21466.9
517.325	21208.9
522.977	21070.9
528.622	20851.9
534.261	20796.9
539.894	20627.9
545.521	20571.9
551.141	20547.9
556.756	20430.9
562.365	20369.9
567.968	20316.9
573.565	20193.9
579.155	20129.9
584.74	20076.9
590.319	19963.9
595.892	19851.9
601.459	19829.9
607.02	19725.9
612.575	19631.9
618.124	19465.9
623.667	19396.9
629.204	19271.9
634.735	19191.9
640.261	19111.9
645.781	19062.9
651.294	18973.9
656.802	19063.9
662.304	18936.9
667.8	18922.9
673.29	18892.9
678.775	18820.9
684.254	18840.9
689.726	18706.9
695.193	18646.9
700.655	18583.9
706.11	18545.9
711.56	18393.9
717.004	18304.9
722.442	18202.9
727.874	18150.9
733.301	18106.9
738.722	18042.9
744.137	18042.9
749.547	18061.9
754.951	17984.9
760.349	18012.9
765.741	18026.9
771.128	18019.9
776.509	18010.9
781.885	17999.9
787.254	17981.9
792.618	17891.9
797.977	17805.9
803.33	17639.9
808.677	17630.9
814.019	17492.9
819.355	17414.9
824.686	17338.9
830.011	17260.9
835.33	17301.9
840.644	17335.9
845.952	17336.9
851.255	17348.9
856.552	17369.9
861.844	17384.9
867.13	17293.9
872.41	17272.9
877.686	17128.9
882.955	17088.9
888.219	16913.9
893.478	16678.9
898.731	16514.9
903.979	16340.9
909.221	16209.9
914.458	16209.9
919.69	16145.9
924.916	16191.9
930.136	16270.9
935.351	16280.9
940.561	16272.9
945.766	16219.9
950.965	16152.9
956.158	16020.9
961.347	15853.9
966.529	15680.9
971.707	15432.9
976.879	15285.9
982.046	15133.9
987.208	15127.9
992.364	15128.9
997.515	15290.9
1002.66	15357.9
1007.801	15549.9
1012.936	15617.9
1018.066	15635.9
1023.19	15663.9
1028.309	15625.9
1033.423	15584.9
1038.532	15500.9
1043.636	15439.9
1048.734	15214.9
1053.827	15000.9
1058.915	14838.9
1063.998	14741.9
1069.075	14695.9
1074.147	14729.9
1079.214	14817.9
1084.276	14872.9
1089.333	15011.9
1094.385	15062.9
1099.431	15060.9
1104.472	15073.9
1109.509	14939.9
1114.54	14787.9
1119.565	14641.9
1124.586	14486.9
1129.602	14332.9
1134.613	14210.9
1139.618	14132.9
1144.619	14050.9
1149.614	14078.9
1154.604	14116.9
1159.589	14132.9
1164.57	14161.9
1169.545	14231.9
1174.515	14125.9
1179.48	14147.9
1184.44	14035.9
1189.395	13922.9
1194.345	13828.9
1199.29	13748.9
1204.23	13761.9
1209.165	13791.9
1214.095	13887.9
1219.021	13971.9
1223.941	14028.9
1228.856	14115.9
1233.766	14109.9
1238.672	14175.9
1243.572	14144.9
1248.467	14051.9
1253.358	13924.9
1258.244	13722.9
1263.124	13490.9
1268	13272.9
1272.871	13160.9
1277.737	13060.9
1282.599	13014.9
1287.455	12947.9
1292.306	13000.9
1297.153	13031.9
1301.995	13113.9
1306.832	13159.9
1311.664	13156.9
1316.491	13169.9
1321.314	13009.9
1326.132	12860.9
1330.945	12599.9
1335.753	12252.9
1340.556	11914.9
1345.354	11673.9
1350.148	11460.9
1354.937	11327.9
1359.722	11359.9
1364.501	11415.9
1369.276	11528.9
1374.046	11757.9
1378.811	11906.9
1383.572	12051.9
1388.327	12096.9
1393.079	12038.9
1397.825	11937.9
1402.567	11712.9
1407.304	11550.9
1412.036	11440.9
1416.764	11394.9
1421.487	11298.9
1426.205	11241.9
1430.919	11195.9
1435.628	11221.9
1440.333	11260.9
1445.032	11284.9
1449.727	11297.9
1454.418	11342.9
1459.104	11122.9
1463.785	10907.9
1468.462	10711.9
1473.134	10468.9
1477.802	10233.9
1482.465	10081.9
1487.123	9936.9
1491.777	9878.9
1496.426	9963.9
1501.071	10073.9
1505.711	10244.9
1510.347	10449.9
1514.978	10631.9
1519.604	10747.9
1524.226	10880.9
1528.844	10890.9
1533.457	10909.9
1538.065	10814.9
1542.669	10797.9
1547.269	10674.9
1551.864	10623.9
1556.454	10581.9
1561.041	10613.9
1565.622	10569.9
1570.199	10580.9
1574.772	10652.9
1579.34	10711.9
1583.904	10796.9
1588.464	10801.9
1593.019	10776.9
1597.569	10781.9
1602.115	10753.9
1606.657	10628.9
1611.195	10609.9
1615.728	10538.9
1620.256	10491.9
1624.78	10425.9
1629.3	10450.9
1633.816	10476.9
1638.327	10560.9
1642.834	10565.9
1647.336	10623.9
1651.834	10611.9
1656.328	10633.9
1660.817	10554.9
1665.302	10461.9
1669.783	10252.9
1674.259	10030.9
1678.732	9738.9
1683.199	9395.9
1687.663	9085.9
1692.122	8810.9
1696.577	8661.9
1701.028	8638.9
1705.474	8762.9
1709.917	8841.9
1714.355	8922.9
1718.788	8824.9
1723.218	8710.9
1727.643	8572.9
1732.064	8397.9
1736.481	8211.9
1740.893	8001.9
1745.301	7756.9
1749.705	7606.9
1754.105	7379.9
1758.501	7154.9
1762.893	6950.9
1767.28	6789.9
1771.663	6636.9
1776.042	6489.9
1780.417	6460.9
1784.787	6451.9
1789.154	6493.9
1793.516	6630.9
1797.874	6797.9
1802.228	6904.9
1806.578	7008.9
1810.924	7011.9
1815.266	6908.9
1819.603	6849.9
1823.937	6680.9
1828.266	6619.9
1832.591	6509.9
1836.913	6415.9
1841.23	6324.9
1845.543	6274.9
1849.852	6266.9
1854.156	6222.9
1858.457	6224.9
1862.754	6220.9
1867.047	6231.9
1871.335	6225.9
1875.62	6169.9
1879.9	6180.9
1884.177	6135.9
1888.449	6065.9
1892.718	5980.9
1896.982	5937.9
1901.243	5889.9
1905.499	5850.9
1909.752	5801.9
1914	5811.9
1918.245	5796.9
1922.485	5900.9
1926.722	5962.9
1930.954	5993.9
1935.183	6084.9
1939.408	6145.9
1943.628	6199.9
1947.845	6195.9
1952.058	6184.9
1956.267	6121.9
1960.472	6049.9
1964.673	5981.9
1968.87	5907.9
1973.063	5802.9
1977.252	5698.9
1981.438	5682.9
1985.619	5620.9
1989.797	5566.9
1993.971	5553.9
1998.14	5510.9
2002.306	5502.9
2006.469	5475.9
2010.627	5476.9
2014.781	5423.9
2018.932	5374.9
2023.078	5309.9
2027.221	5268.9
2031.36	5184.9
2035.495	5068.9
2039.627	5014.9
2043.754	4932.9
2047.878	4915.9
2051.998	4864.9
2056.114	4871.9
2060.226	4836.9
2064.334	4888.9
2068.439	4860.9
2072.54	4911.9
2076.637	4899.9
2080.73	4942.9
2084.82	4942.9
2088.906	5006.9
2092.988	5000.9
2097.066	4995.9
2101.14	4940.9
2105.211	4956.9
2109.278	4888.9
2113.342	4852.9
2117.401	4847.9
2121.457	4816.9
2125.509	4803.9
2129.558	4769.9
2133.602	4749.9
2137.643	4705.9
2141.681	4703.9
2145.714	4715.9
2149.744	4642.9
2153.77	4614.9
2157.793	4559.9
2161.812	4487.9
2165.827	4443.9
2169.838	4394.9
2173.846	4327.9
2177.851	4215.9
2181.851	4168.9
2185.848	4122.9
2189.841	4080.9
2193.831	4044.9
2197.817	3987.9
2201.799	3960.9
2205.778	3981.9
2209.753	3952.9
2213.725	3932.9
2217.693	3918.9
2221.657	3939.9
2225.618	3911.9
2229.575	3913.9
2233.529	3847.9
2237.479	3847.9
2241.425	3780.9
2245.368	3734.9
2249.307	3667.9
2253.243	3633.9
2257.175	3577.9
2261.104	3523.9
2265.029	3509.9
2268.95	3438.9
2272.868	3409.9
2276.783	3399.9
2280.694	3341.9
2284.601	3315.9
2288.505	3277.9
2292.405	3270.9
2296.302	3202.9
2300.195	3191.9
2304.085	3186.9
2307.971	3117.9
2311.854	3065.9
2315.734	3024.9
2319.609	2965.9
2323.482	2944.9
2327.351	2933.9
2331.216	2908.9
2335.078	2876.9
2338.937	2863.9
2342.792	2839.9
2346.643	2822.9
2350.492	2838.9
2354.336	2858.9
2358.178	2822.9
2362.015	2865.9
2365.85	2857.9
2369.681	2852.9
2373.508	2873.9
2377.333	2861.9
2381.153	2846.9
2384.971	2804.9
2388.785	2795.9
2392.595	2747.9
2396.402	2752.9
2400.206	2725.9
2404.007	2736.9
2407.804	2694.9
2411.597	2665.9
2415.388	2654.9
2419.174	2655.9
2422.958	2628.9
2426.738	2597.9
2430.515	2608.9
2434.289	2550.9
2438.059	2545.9
2441.825	2508.9
2445.589	2511.9
2449.349	2479.9
2453.106	2427.9
2456.859	2435.9
2460.61	2390.9
2464.356	2364.9
2468.1	2329.9
2471.84	2314.9
2475.577	2282.9
2479.311	2287.9
2483.041	2331.9
2486.768	2263.9
2490.492	2235.9
2494.213	2227.9
2497.93	2239.9
2501.644	2208.9
2505.355	2182.9
2509.062	2200.9
2512.766	2184.9
2516.467	2178.9
2520.165	2146.9
2523.859	2134.9
2527.551	2100.9
2531.239	2120.9
2534.923	2110.9
2538.605	2082.9
2542.283	2074.9
2545.958	2080.9
2549.63	2083.9
2553.299	2071.9
2556.964	2080.9
2560.626	2057.9
2564.285	2044.9
2567.941	2039.9
2571.594	2022.9
2575.243	2018.9
2578.89	2001.9
2582.533	1998.9
2586.173	1969.9
2589.809	1960.9
2593.443	1955.9
2597.073	1937.9
2600.701	1897.9
2604.325	1897.9
2607.946	1884.9
2611.564	1851.9
2615.178	1847.9
2618.79	1827.9
2622.398	1843.9
2626.004	1829.9
2629.606	1793.9
2633.205	1770.9
2636.801	1749.9
2640.394	1701.9
2643.983	1690.9
2647.57	1673.9
2651.153	1653.9
2654.734	1624.9
2658.311	1613.9
2661.885	1564.9
2665.456	1569.9
2669.025	1545.9
2672.589	1518.9
2676.151	1514.9
2679.71	1474.9
2683.266	1467.9
2686.819	1454.9
2690.368	1397.9
2693.915	1379.9
2697.458	1360.9
2700.999	1314.9
2704.536	1288.9
2708.071	1267.9
2711.602	1258.9
2715.13	1203.9
2718.656	1180.9
2722.178	1166.9
2725.697	1155.9
2729.214	1136.9
2732.727	1128.9
2736.237	1118.9
2739.744	1114.9
2743.249	1106.9
2746.75	1130.9
2750.248	1133.9
2753.743	1140.9
2757.236	1172.9
2760.725	1163.9
2764.211	1163.9
2767.695	1187.9
2771.175	1185.9
2774.652	1176.9
2778.127	1184.9
2781.598	1159.9
2785.067	1170.9
2788.532	1163.9
2791.995	1145.9
2795.455	1137.9
2798.911	1155.9
2802.365	1145.9
2805.816	1144.9
2809.264	1157.9
2812.709	1157.9
2816.151	1121.9
2819.59	1159.9
2823.026	1154.9
2826.46	1154.9
2829.89	1143.9
2833.318	1169.9
2836.742	1163.9
2840.164	1162.9
2843.583	1159.9
2846.999	1174.9
2850.412	1170.9
2853.822	1201.9
2857.229	1211.9
2860.634	1239.9
2864.035	1260.9
2867.434	1282.9
2870.83	1289.9
2874.223	1303.9
2877.613	1339.9
2881	1352.9
2884.385	1365.9
2887.766	1341.9
2891.145	1351.9
2894.521	1330.9
2897.894	1348.9
2901.264	1351.9
2904.631	1371.9
2907.996	1357.9
2911.358	1359.9
2914.717	1366.9
2918.073	1373.9
2921.426	1386.9
2924.777	1387.9
2928.124	1420.9
2931.469	1458.9
2934.811	1474.9
2938.15	1479.9
2941.487	1488.9
2944.821	1494.9
2948.152	1496.9
2951.48	1477.9
2954.805	1483.9
2958.128	1461.9
2961.447	1458.9
2964.765	1438.9
2968.079	1470.9
2971.39	1444.9
2974.699	1467.9
2978.005	1486.9
2981.308	1539.9
2984.609	1542.9
2987.907	1573.9
2991.202	1599.9
2994.494	1634.9
2997.784	1658.9
3001.07	1702.9
3004.355	1713.9
3007.636	1756.9
3010.915	1768.9
3014.191	1767.9
3017.464	1778.9
3020.734	1804.9
3024.002	1827.9
3027.267	1834.9
3030.53	1842.9
3033.789	1849.9
3037.046	1882.9
3040.301	1898.9
3043.552	1936.9
3046.801	1975.9
3050.048	2017.9
3053.291	2072.9
3056.532	2137.9
3059.771	2172.9
3063.006	2216.9
3066.239	2299.9
3069.469	2379.9
3072.697	2435.9
3075.922	2484.9
3079.144	2532.9
3082.364	2604.9
3085.581	2658.9
3088.795	2706.9
3092.007	2773.9
3095.216	2796.9
3098.423	2877.9
3101.627	2932.9
3104.828	2998.9
3108.026	3074.9
3111.222	3142.9
3114.416	3191.9
3117.607	3250.9
3120.795	3354.9
3123.98	3429.9
3127.163	3506.9
3130.344	3606.9
3133.521	3665.9
3136.696	3755.9
3139.869	3841.9
3143.039	3894.9
3146.206	3972.9
3149.371	4006.9
3152.533	4014.9
3155.693	4049.9
3158.85	4082.9
3162.005	4119.9
3165.157	4108.9
3168.306	4101.9
3171.453	4117.9
3174.597	4130.9
3177.739	4160.9
3180.878	4169.9
3184.014	4156.9
3187.149	4173.9
3190.28	4192.9
3193.409	4187.9
3196.536	4184.9
3199.659	4206.9
3202.781	4202.9
3205.9	4209.9
3209.016	4189.9
3212.13	4168.9
3215.241	4115.9
3218.35	4084.9
3221.456	4063.9
3224.56	4049.9
3227.661	3975.9
3230.76	3941.9
3233.856	3884.9
3236.95	3885.9
3240.041	3847.9
3243.13	3822.9
3246.216	3800.9
3249.3	3781.9
3252.382	3759.9
3255.46	3716.9
3258.537	3667.9
3261.611	3717.9
3264.682	3728.9
3267.751	3701.9
3270.818	3699.9
3273.882	3681.9
3276.943	3665.9
3280.002	3645.9
3283.059	3642.9
3286.113	3569.9
3289.165	3537.9
3292.214	3454.9
3295.261	3430.9
3298.306	3346.9
3301.348	3302.9
3304.387	3286.9
3307.425	3209.9
3310.459	3146.9
3313.492	3122.9
3316.521	3085.9
3319.549	3048.9
3322.574	3004.9
3325.597	2958.9
3328.617	2937.9
3331.635	2948.9
3334.65	2915.9
3337.663	2923.9
3340.674	2870.9
3343.682	2839.9
3346.688	2871.9
3349.691	2871.9
3352.692	2849.9
3355.691	2814.9
3358.687	2784.9
3361.681	2756.9
3364.673	2721.9
3367.662	2683.9
3370.649	2635.9
3373.633	2592.9
3376.615	2579.9
3379.595	2523.9
3382.572	2487.9
3385.547	2466.9
3388.52	2415.9
3391.49	2369.9
3394.458	2338.9
3397.424	2310.9
3400.387	2261.9
3403.348	2251.9
3406.307	2259.9
3409.263	2200.9
3412.217	2185.9
3415.168	2154.9
3418.118	2126.9
3421.065	2118.9
3424.009	2080.9
3426.951	2041.9
3429.891	2003.9
3432.829	1939.9
3435.764	1899.9
3438.697	1886.9
3441.628	1831.9
3444.557	1780.9
3447.483	1696.9
3450.407	1655.9
3453.328	1621.9
3456.247	1550.9
3459.164	1517.9
3462.079	1462.9
3464.991	1402.9
3467.902	1347.9
3470.809	1289.9
3473.715	1246.9
3476.618	1188.9
3479.519	1144.9
3482.418	1132.9
3485.315	1080.9
3488.209	1046.9
3491.101	1020.9
3493.99	983.9
3496.878	915.9
3499.763	904.9
3502.646	856.9
3505.527	819.9
3508.405	782.9
3511.281	744.9
3514.155	703.9
3517.027	665.9
3519.897	633.9
3522.764	577.9
3525.629	531.9
3528.492	486.9
3531.352	434.9
3534.211	413.9
3537.067	373.9
3539.921	345.9
3542.773	298.9
3545.622	276.9
3548.469	232.9
3551.315	208.9
3554.157	180.9
3556.998	153.9
3559.837	124.9
3562.673	106.9
3565.507	91.9
3568.339	57.9
3571.169	30.9
3573.996	14.9
3576.822	0.9
3579.645	-20.1
3582.466	-53.1
3585.285	-71.1
3588.101	-90.1
3590.916	-107.1
3593.728	-133.1
3596.538	-148.1
3599.346	-169.1
3602.152	-182.1
3604.956	-206.1
3607.757	-221.1
3610.556	-227.1
3613.354	-246.1
3616.149	-264.1
3618.942	-273.1
3621.732	-288.1
3624.521	-293.1
3627.307	-307.1
3630.092	-320.1
3632.874	-333.1
3635.654	-342.1
3638.432	-354.1
3641.208	-344.1
3643.982	-369.1
3646.753	-374.1
3649.523	-383.1
3652.29	-400.1
3655.055	-397.1
3657.818	-417.1
3660.579	-429.1
3663.338	-444.1
3666.095	-452.1
3668.849	-461.1
3671.602	-466.1
3674.352	-474.1
3677.101	-477.1
3679.847	-494.1
3682.591	-500.1
3685.333	-502.1
3688.073	-507.1
3690.811	-514.1
3693.547	-517.1
3696.281	-523.1
3699.013	-527.1
3701.742	-531.1
3704.47	-535.1
3707.195	-544.1
3709.919	-549.1
3712.64	-553.1
3715.359	-552.1
3718.076	-555.1
3720.792	-559.1
3723.505	-562.1
3726.216	-574.1
3728.925	-568.1
3731.632	-568.1
3734.336	-575.1
3737.039	-577.1
3739.74	-579.1
3742.439	-582.1
3745.136	-588.1
3747.83	-592.1
3750.523	-593.1
3753.213	-591.1
3755.902	-599.1
3758.589	-601.1
3761.273	-603.1
3763.956	-606.1
3766.636	-602.1
3769.315	-608.1
3771.991	-608.1
3774.665	-612.1
3777.338	-607.1
3780.008	-611.1
3782.677	-601.1
3785.343	-610.1
3788.007	-615.1
3790.67	-613.1
3793.33	-613.1
3795.989	-620.1
3798.645	-615.1
3801.299	-623.1
3803.952	-623.1
3806.602	-628.1
3809.251	-630.1
3811.897	-629.1
3814.542	-632.1
3817.184	-626.1
3819.825	-630.1
3822.463	-630.1
3825.1	-632.1
3827.735	-629.1
3830.367	-631.1
3832.998	-632.1
3835.627	-634.1
3838.253	-637.1
3840.878	-638.1
3843.501	-631.1
3846.122	-637.1
3848.741	-638.1
3851.358	-631.1
3853.973	-644.1
3856.586	-638.1
3859.197	-644.1
3861.806	-648.1
3864.414	-640.1
3867.019	-639.1
3869.622	-645.1
3872.224	-634.1
3874.823	-616.1
3877.421	-608.1
3880.016	-595.1
3882.61	-573.1
3885.202	-573.1
3887.792	-584.1
3890.38	-619.1
3892.966	-633.1
3895.55	-645.1
3898.132	-651.1
3900.713	-653.1
3903.291	-649.1
3905.868	-656.1
3908.442	-655.1
3911.015	-657.1
3913.586	-652.1
3916.155	-654.1
3918.722	-656.1
3921.287	-660.1
3923.85	-660.1
3926.411	-654.1
3928.971	-667.1
3931.528	-656.1
3934.084	-655.1
3936.638	-657.1
3939.19	-655.1
3941.74	-656.1
3944.288	-659.1
3946.834	-653.1
3949.378	-661.1
3951.921	-661.1
3954.462	-663.1
3957	-662.1
3959.537	-660.1
3962.072	-657.1
3964.606	-659.1
3967.137	-659.1
3969.667	-666.1
3972.194	-652.1
3974.72	-659.1
3977.244	-643.1
3979.766	-643.1
3982.286	-649.1
3984.805	-641.1
3987.321	-643.1
3989.836	-643.1
3992.349	-640.1
3994.86	-645.1
3997.369	-652.1
3999.877	-639.1
4002.382	-641.1
4004.886	-641.1
4007.388	-644.1
4009.888	-640.1
4012.386	-648.1
4014.883	-644.1
4017.377	-645.1
4019.87	-641.1
4022.361	-643.1
4024.85	-647.1
4027.338	-648.1
4029.823	-650.1
4032.307	-646.1
4034.789	-641.1
4037.269	-642.1
4039.747	-643.1
4042.224	-647.1
4044.699	-645.1
4047.172	-649.1
4049.643	-641.1
4052.112	-652.1
4054.58	-646.1
4057.046	-650.1
4059.51	-651.1
4061.972	-648.1
4064.432	-653.1
4066.891	-649.1
4069.348	-648.1
4071.803	-645.1
4074.256	-646.1
4076.708	-647.1
4079.158	-650.1
4081.606	-649.1
4084.052	-651.1
4086.497	-645.1
4088.939	-640.1
4091.38	-643.1
4093.819	-636.1
4096.257	-680.1
4098.693	-680.1
4101.127	-684.1
4103.559	-678.1
4105.989	-397.1
4108.418	-375.1
4110.845	-347.1
4113.27	-322.1
4115.694	-285.1
4118.115	-235.1
4120.535	-647.1
4122.954	-646.1
4125.37	-634.1
4127.785	-646.1
4130.198	-646.1
4132.609	-646.1
4135.019	-685.1
4137.427	-685.1
4139.833	-682.1
4142.237	-680.1
