Data from 2018-2-14_conc=4_n=5_RamanShift_02.txt Node
Date: Wed Feb 14 13:40:55 IST 2018
User: aro
Spectrometer: QEPB0276
Trigger mode: 0
Integration Time (sec): 3.000000E1
Scans to average: 1
Electric dark correction enabled: true
Nonlinearity correction enabled: false
Boxcar width: 0
XAxis mode: Raman Shifts
Number of Pixels in Spectrum: 1044
>>>>>Begin Spectral Data<<<<<
160.701	-140.8
166.742	47.2
172.777	603.2
178.805	2351.2
184.826	6510.2
190.841	13626.2
196.849	21822.2
202.85	27591.2
208.845	29433.2
214.833	29174.2
220.815	28633.2
226.789	28473.2
232.758	28256.2
238.719	28028.2
244.674	27685.2
250.623	27202.2
256.565	26624.2
262.5	26026.2
268.429	25501.2
274.351	25151.2
280.267	24835.2
286.176	24520.2
292.079	24311.2
297.975	24081.2
303.865	23823.2
309.748	23648.2
315.625	23485.2
321.495	23386.2
327.359	23331.2
333.217	23255.2
339.068	23215.2
344.912	23177.2
350.751	23202.2
356.583	23094.2
362.408	23114.2
368.227	23116.2
374.04	23158.2
379.847	23229.2
385.647	23272.2
391.44	23367.2
397.228	23510.2
403.009	23571.2
408.784	23633.2
414.553	23767.2
420.315	23738.2
426.071	23713.2
431.821	23793.2
437.565	23721.2
443.302	23729.2
449.033	23635.2
454.758	23618.2
460.477	23509.2
466.189	23520.2
471.896	23481.2
477.596	23436.2
483.29	23309.2
488.978	23292.2
494.66	23202.2
500.335	23035.2
506.005	22783.2
511.668	22511.2
517.325	22258.2
522.977	22095.2
528.622	21897.2
534.261	21773.2
539.894	21676.2
545.521	21590.2
551.141	21491.2
556.756	21412.2
562.365	21354.2
567.968	21260.2
573.565	21143.2
579.155	21062.2
584.74	21065.2
590.319	20927.2
595.892	20858.2
601.459	20785.2
607.02	20721.2
612.575	20614.2
618.124	20413.2
623.667	20249.2
629.204	20178.2
634.735	20076.2
640.261	19999.2
645.781	19945.2
651.294	19940.2
656.802	19951.2
662.304	19844.2
667.8	19795.2
673.29	19759.2
678.775	19720.2
684.254	19711.2
689.726	19598.2
695.193	19559.2
700.655	19440.2
706.11	19380.2
711.56	19268.2
717.004	19073.2
722.442	19100.2
727.874	19003.2
733.301	18902.2
738.722	18831.2
744.137	18829.2
749.547	18859.2
754.951	18871.2
760.349	18866.2
765.741	18889.2
771.128	18901.2
776.509	18879.2
781.885	18810.2
787.254	18798.2
792.618	18763.2
797.977	18596.2
803.33	18496.2
808.677	18382.2
814.019	18285.2
819.355	18186.2
824.686	18084.2
830.011	18012.2
835.33	18082.2
840.644	17990.2
845.952	18115.2
851.255	18190.2
856.552	18183.2
861.844	18142.2
867.13	18060.2
872.41	17974.2
877.686	17895.2
882.955	17755.2
888.219	17588.2
893.478	17436.2
898.731	17168.2
903.979	17023.2
909.221	16959.2
914.458	16813.2
919.69	16796.2
924.916	16861.2
930.136	16937.2
935.351	16964.2
940.561	16925.2
945.766	16958.2
950.965	16835.2
956.158	16695.2
961.347	16569.2
966.529	16334.2
971.707	16171.2
976.879	15936.2
982.046	15811.2
987.208	15729.2
992.364	15793.2
997.515	15836.2
1002.66	15968.2
1007.801	16161.2
1012.936	16304.2
1018.066	16311.2
1023.19	16280.2
1028.309	16294.2
1033.423	16236.2
1038.532	16149.2
1043.636	16020.2
1048.734	15785.2
1053.827	15550.2
1058.915	15469.2
1063.998	15351.2
1069.075	15295.2
1074.147	15286.2
1079.214	15375.2
1084.276	15451.2
1089.333	15547.2
1094.385	15590.2
1099.431	15659.2
1104.472	15613.2
1109.509	15527.2
1114.54	15366.2
1119.565	15223.2
1124.586	14995.2
1129.602	14877.2
1134.613	14771.2
1139.618	14671.2
1144.619	14579.2
1149.614	14592.2
1154.604	14613.2
1159.589	14677.2
1164.57	14677.2
1169.545	14762.2
1174.515	14735.2
1179.48	14646.2
1184.44	14523.2
1189.395	14413.2
1194.345	14375.2
1199.29	14241.2
1204.23	14276.2
1209.165	14294.2
1214.095	14443.2
1219.021	14430.2
1223.941	14534.2
1228.856	14591.2
1233.766	14640.2
1238.672	14645.2
1243.572	14727.2
1248.467	14582.2
1253.358	14336.2
1258.244	14233.2
1263.124	13965.2
1268	13774.2
1272.871	13617.2
1277.737	13550.2
1282.599	13427.2
1287.455	13419.2
1292.306	13425.2
1297.153	13504.2
1301.995	13537.2
1306.832	13629.2
1311.664	13641.2
1316.491	13576.2
1321.314	13465.2
1326.132	13232.2
1330.945	13036.2
1335.753	12625.2
1340.556	12298.2
1345.354	12077.2
1350.148	11913.2
1354.937	11817.2
1359.722	11836.2
1364.501	11890.2
1369.276	12046.2
1374.046	12235.2
1378.811	12373.2
1383.572	12562.2
1388.327	12604.2
1393.079	12493.2
1397.825	12299.2
1402.567	12148.2
1407.304	11970.2
1412.036	11889.2
1416.764	11769.2
1421.487	11714.2
1426.205	11606.2
1430.919	11591.2
1435.628	11568.2
1440.333	11627.2
1445.032	11626.2
1449.727	11680.2
1454.418	11677.2
1459.104	11497.2
1463.785	11280.2
1468.462	11075.2
1473.134	10856.2
1477.802	10608.2
1482.465	10458.2
1487.123	10374.2
1491.777	10344.2
1496.426	10407.2
1501.071	10475.2
1505.711	10685.2
1510.347	10873.2
1514.978	11079.2
1519.604	11213.2
1524.226	11350.2
1528.844	11340.2
1533.457	11301.2
1538.065	11259.2
1542.669	11169.2
1547.269	11124.2
1551.864	11010.2
1556.454	10982.2
1561.041	10966.2
1565.622	10949.2
1570.199	10996.2
1574.772	11024.2
1579.34	11102.2
1583.904	11164.2
1588.464	11195.2
1593.019	11172.2
1597.569	11125.2
1602.115	11121.2
1606.657	11010.2
1611.195	10958.2
1615.728	10888.2
1620.256	10823.2
1624.78	10818.2
1629.3	10880.2
1633.816	10853.2
1638.327	10908.2
1642.834	10993.2
1647.336	11046.2
1651.834	11069.2
1656.328	11030.2
1660.817	11010.2
1665.302	10862.2
1669.783	10725.2
1674.259	10465.2
1678.732	10143.2
1683.199	9842.2
1687.663	9467.2
1692.122	9243.2
1696.577	9074.2
1701.028	9089.2
1705.474	9168.2
1709.917	9267.2
1714.355	9300.2
1718.788	9219.2
1723.218	9029.2
1727.643	8895.2
1732.064	8707.2
1736.481	8546.2
1740.893	8322.2
1745.301	8074.2
1749.705	7871.2
1754.105	7653.2
1758.501	7456.2
1762.893	7194.2
1767.28	7058.2
1771.663	6886.2
1776.042	6764.2
1780.417	6729.2
1784.787	6737.2
1789.154	6847.2
1793.516	6970.2
1797.874	7116.2
1802.228	7270.2
1806.578	7308.2
1810.924	7309.2
1815.266	7236.2
1819.603	7123.2
1823.937	6981.2
1828.266	6893.2
1832.591	6766.2
1836.913	6687.2
1841.23	6636.2
1845.543	6564.2
1849.852	6517.2
1854.156	6515.2
1858.457	6466.2
1862.754	6488.2
1867.047	6462.2
1871.335	6485.2
1875.62	6447.2
1879.9	6442.2
1884.177	6363.2
1888.449	6316.2
1892.718	6254.2
1896.982	6190.2
1901.243	6173.2
1905.499	6103.2
1909.752	6105.2
1914	6093.2
1918.245	6111.2
1922.485	6201.2
1926.722	6269.2
1930.954	6333.2
1935.183	6422.2
1939.408	6451.2
1943.628	6515.2
1947.845	6504.2
1952.058	6467.2
1956.267	6446.2
1960.472	6370.2
1964.673	6245.2
1968.87	6138.2
1973.063	6049.2
1977.252	5986.2
1981.438	5919.2
1985.619	5852.2
1989.797	5803.2
1993.971	5739.2
1998.14	5721.2
2002.306	5692.2
2006.469	5695.2
2010.627	5655.2
2014.781	5622.2
2018.932	5553.2
2023.078	5553.2
2027.221	5463.2
2031.36	5350.2
2035.495	5308.2
2039.627	5188.2
2043.754	5181.2
2047.878	5091.2
2051.998	5091.2
2056.114	5074.2
2060.226	5060.2
2064.334	5098.2
2068.439	5080.2
2072.54	5126.2
2076.637	5146.2
2080.73	5185.2
2084.82	5206.2
2088.906	5219.2
2092.988	5245.2
2097.066	5204.2
2101.14	5169.2
2105.211	5142.2
2109.278	5123.2
2113.342	5106.2
2117.401	5054.2
2121.457	5019.2
2125.509	5028.2
2129.558	4971.2
2133.602	4951.2
2137.643	4928.2
2141.681	4932.2
2145.714	4851.2
2149.744	4832.2
2153.77	4799.2
2157.793	4765.2
2161.812	4681.2
2165.827	4585.2
2169.838	4535.2
2173.846	4459.2
2177.851	4374.2
2181.851	4310.2
2185.848	4257.2
2189.841	4208.2
2193.831	4184.2
2197.817	4152.2
2201.799	4115.2
2205.778	4083.2
2209.753	4053.2
2213.725	4075.2
2217.693	4036.2
2221.657	4037.2
2225.618	4058.2
2229.575	4030.2
2233.529	3967.2
2237.479	3940.2
2241.425	3899.2
2245.368	3846.2
2249.307	3794.2
2253.243	3731.2
2257.175	3694.2
2261.104	3636.2
2265.029	3598.2
2268.95	3569.2
2272.868	3500.2
2276.783	3490.2
2280.694	3481.2
2284.601	3402.2
2288.505	3387.2
2292.405	3358.2
2296.302	3321.2
2300.195	3277.2
2304.085	3249.2
2307.971	3202.2
2311.854	3159.2
2315.734	3104.2
2319.609	3044.2
2323.482	3020.2
2327.351	2980.2
2331.216	2934.2
2335.078	2915.2
2338.937	2918.2
2342.792	2893.2
2346.643	2892.2
2350.492	2897.2
2354.336	2876.2
2358.178	2882.2
2362.015	2891.2
2365.85	2897.2
2369.681	2897.2
2373.508	2900.2
2377.333	2871.2
2381.153	2893.2
2384.971	2874.2
2388.785	2829.2
2392.595	2792.2
2396.402	2791.2
2400.206	2758.2
2404.007	2741.2
2407.804	2722.2
2411.597	2716.2
2415.388	2684.2
2419.174	2672.2
2422.958	2649.2
2426.738	2615.2
2430.515	2629.2
2434.289	2563.2
2438.059	2574.2
2441.825	2518.2
2445.589	2515.2
2449.349	2473.2
2453.106	2456.2
2456.859	2443.2
2460.61	2415.2
2464.356	2360.2
2468.1	2354.2
2471.84	2325.2
2475.577	2290.2
2479.311	2272.2
2483.041	2287.2
2486.768	2284.2
2490.492	2265.2
2494.213	2261.2
2497.93	2229.2
2501.644	2237.2
2505.355	2225.2
2509.062	2226.2
2512.766	2199.2
2516.467	2193.2
2520.165	2192.2
2523.859	2149.2
2527.551	2140.2
2531.239	2152.2
2534.923	2134.2
2538.605	2117.2
2542.283	2106.2
2545.958	2105.2
2549.63	2082.2
2553.299	2095.2
2556.964	2092.2
2560.626	2087.2
2564.285	2078.2
2567.941	2080.2
2571.594	2064.2
2575.243	2059.2
2578.89	2048.2
2582.533	2029.2
2586.173	2022.2
2589.809	1992.2
2593.443	1944.2
2597.073	1941.2
2600.701	1934.2
2604.325	1930.2
2607.946	1906.2
2611.564	1875.2
2615.178	1875.2
2618.79	1865.2
2622.398	1851.2
2626.004	1835.2
2629.606	1806.2
2633.205	1793.2
2636.801	1748.2
2640.394	1730.2
2643.983	1687.2
2647.57	1690.2
2651.153	1640.2
2654.734	1634.2
2658.311	1613.2
2661.885	1580.2
2665.456	1562.2
2669.025	1528.2
2672.589	1522.2
2676.151	1488.2
2679.71	1485.2
2683.266	1444.2
2686.819	1419.2
2690.368	1397.2
2693.915	1375.2
2697.458	1340.2
2700.999	1306.2
2704.536	1284.2
2708.071	1258.2
2711.602	1235.2
2715.13	1208.2
2718.656	1185.2
2722.178	1174.2
2725.697	1164.2
2729.214	1154.2
2732.727	1134.2
2736.237	1143.2
2739.744	1127.2
2743.249	1144.2
2746.75	1158.2
2750.248	1160.2
2753.743	1173.2
2757.236	1195.2
2760.725	1214.2
2764.211	1209.2
2767.695	1205.2
2771.175	1206.2
2774.652	1201.2
2778.127	1186.2
2781.598	1170.2
2785.067	1179.2
2788.532	1175.2
2791.995	1155.2
2795.455	1170.2
2798.911	1143.2
2802.365	1159.2
2805.816	1142.2
2809.264	1156.2
2812.709	1156.2
2816.151	1147.2
2819.59	1153.2
2823.026	1162.2
2826.46	1155.2
2829.89	1154.2
2833.318	1163.2
2836.742	1167.2
2840.164	1177.2
2843.583	1172.2
2846.999	1204.2
2850.412	1225.2
2853.822	1225.2
2857.229	1229.2
2860.634	1265.2
2864.035	1273.2
2867.434	1317.2
2870.83	1314.2
2874.223	1346.2
2877.613	1358.2
2881	1381.2
2884.385	1375.2
2887.766	1378.2
2891.145	1377.2
2894.521	1360.2
2897.894	1377.2
2901.264	1372.2
2904.631	1368.2
2907.996	1384.2
2911.358	1389.2
2914.717	1384.2
2918.073	1411.2
2921.426	1421.2
2924.777	1420.2
2928.124	1431.2
2931.469	1462.2
2934.811	1510.2
2938.15	1523.2
2941.487	1534.2
2944.821	1540.2
2948.152	1558.2
2951.48	1543.2
2954.805	1508.2
2958.128	1499.2
2961.447	1502.2
2964.765	1478.2
2968.079	1497.2
2971.39	1528.2
2974.699	1529.2
2978.005	1548.2
2981.308	1579.2
2984.609	1613.2
2987.907	1628.2
2991.202	1669.2
2994.494	1724.2
2997.784	1732.2
3001.07	1778.2
3004.355	1797.2
3007.636	1828.2
3010.915	1851.2
3014.191	1857.2
3017.464	1861.2
3020.734	1890.2
3024.002	1903.2
3027.267	1882.2
3030.53	1919.2
3033.789	1932.2
3037.046	1974.2
3040.301	1984.2
3043.552	2010.2
3046.801	2049.2
3050.048	2099.2
3053.291	2155.2
3056.532	2192.2
3059.771	2258.2
3063.006	2336.2
3066.239	2412.2
3069.469	2484.2
3072.697	2532.2
3075.922	2606.2
3079.144	2649.2
3082.364	2716.2
3085.581	2763.2
3088.795	2838.2
3092.007	2896.2
3095.216	2980.2
3098.423	3031.2
3101.627	3074.2
3104.828	3171.2
3108.026	3222.2
3111.222	3296.2
3114.416	3373.2
3117.607	3424.2
3120.795	3537.2
3123.98	3590.2
3127.163	3689.2
3130.344	3781.2
3133.521	3856.2
3136.696	3965.2
3139.869	4031.2
3143.039	4104.2
3146.206	4143.2
3149.371	4211.2
3152.533	4248.2
3155.693	4252.2
3158.85	4271.2
3162.005	4322.2
3165.157	4345.2
3168.306	4335.2
3171.453	4375.2
3174.597	4373.2
3177.739	4374.2
3180.878	4351.2
3184.014	4378.2
3187.149	4365.2
3190.28	4386.2
3193.409	4371.2
3196.536	4380.2
3199.659	4419.2
3202.781	4418.2
3205.9	4449.2
3209.016	4434.2
3212.13	4407.2
3215.241	4379.2
3218.35	4339.2
3221.456	4282.2
3224.56	4239.2
3227.661	4213.2
3230.76	4177.2
3233.856	4144.2
3236.95	4093.2
3240.041	4069.2
3243.13	4055.2
3246.216	4021.2
3249.3	3992.2
3252.382	3985.2
3255.46	3958.2
3258.537	3941.2
3261.611	3947.2
3264.682	3938.2
3267.751	3959.2
3270.818	3932.2
3273.882	3938.2
3276.943	3898.2
3280.002	3847.2
3283.059	3826.2
3286.113	3798.2
3289.165	3724.2
3292.214	3689.2
3295.261	3623.2
3298.306	3541.2
3301.348	3518.2
3304.387	3432.2
3307.425	3397.2
3310.459	3362.2
3313.492	3281.2
3316.521	3226.2
3319.549	3216.2
3322.574	3167.2
3325.597	3162.2
3328.617	3120.2
3331.635	3123.2
3334.65	3084.2
3337.663	3084.2
3340.674	3075.2
3343.682	3046.2
3346.688	3038.2
3349.691	3045.2
3352.692	3015.2
3355.691	2979.2
3358.687	2942.2
3361.681	2919.2
3364.673	2872.2
3367.662	2823.2
3370.649	2800.2
3373.633	2766.2
3376.615	2730.2
3379.595	2635.2
3382.572	2717.2
3385.547	2630.2
3388.52	2564.2
3391.49	2523.2
3394.458	2504.2
3397.424	2476.2
3400.387	2431.2
3403.348	2400.2
3406.307	2371.2
3409.263	2340.2
3412.217	2317.2
3415.168	2278.2
3418.118	2249.2
3421.065	2207.2
3424.009	2204.2
3426.951	2153.2
3429.891	2130.2
3432.829	2086.2
3435.764	2035.2
3438.697	1977.2
3441.628	1928.2
3444.557	1861.2
3447.483	1826.2
3450.407	1751.2
3453.328	1719.2
3456.247	1652.2
3459.164	1587.2
3462.079	1541.2
3464.991	1476.2
3467.902	1432.2
3470.809	1371.2
3473.715	1328.2
3476.618	1276.2
3479.519	1228.2
3482.418	1185.2
3485.315	1159.2
3488.209	1107.2
3491.101	1087.2
3493.99	1049.2
3496.878	995.2
3499.763	963.2
3502.646	917.2
3505.527	891.2
3508.405	862.2
3511.281	794.2
3514.155	756.2
3517.027	726.2
3519.897	675.2
3522.764	631.2
3525.629	584.2
3528.492	518.2
3531.352	496.2
3534.211	446.2
3537.067	426.2
3539.921	371.2
3542.773	333.2
3545.622	287.2
3548.469	260.2
3551.315	237.2
3554.157	209.2
3556.998	180.2
3559.837	142.2
3562.673	120.2
3565.507	103.2
3568.339	62.2
3571.169	49.2
3573.996	15.2
3576.822	7.2
3579.645	-21.8
3582.466	-40.8
3585.285	-62.8
3588.101	-88.8
3590.916	-101.8
3593.728	-122.8
3596.538	-147.8
3599.346	-161.8
3602.152	-178.8
3604.956	-209.8
3607.757	-223.8
3610.556	-242.8
3613.354	-250.8
3616.149	-277.8
3618.942	-283.8
3621.732	-295.8
3624.521	-313.8
3627.307	-327.8
3630.092	-340.8
3632.874	-346.8
3635.654	-356.8
3638.432	-354.8
3641.208	-371.8
3643.982	-385.8
3646.753	-394.8
3649.523	-406.8
3652.29	-413.8
3655.055	-407.8
3657.818	-430.8
3660.579	-450.8
3663.338	-459.8
3666.095	-459.8
3668.849	-474.8
3671.602	-490.8
3674.352	-499.8
3677.101	-504.8
3679.847	-520.8
3682.591	-521.8
3685.333	-517.8
3688.073	-536.8
3690.811	-539.8
3693.547	-539.8
3696.281	-547.8
3699.013	-550.8
3701.742	-564.8
3704.47	-564.8
3707.195	-572.8
3709.919	-574.8
3712.64	-571.8
3715.359	-581.8
3718.076	-584.8
3720.792	-589.8
3723.505	-588.8
3726.216	-596.8
3728.925	-598.8
3731.632	-602.8
3734.336	-604.8
3737.039	-608.8
3739.74	-608.8
3742.439	-610.8
3745.136	-609.8
3747.83	-625.8
3750.523	-621.8
3753.213	-608.8
3755.902	-632.8
3758.589	-630.8
3761.273	-634.8
3763.956	-631.8
3766.636	-634.8
3769.315	-641.8
3771.991	-636.8
3774.665	-644.8
3777.338	-643.8
3780.008	-643.8
3782.677	-650.8
3785.343	-641.8
3788.007	-647.8
3790.67	-639.8
3793.33	-649.8
3795.989	-650.8
3798.645	-649.8
3801.299	-653.8
3803.952	-664.8
3806.602	-663.8
3809.251	-663.8
3811.897	-663.8
3814.542	-662.8
3817.184	-661.8
3819.825	-662.8
3822.463	-659.8
3825.1	-665.8
3827.735	-659.8
3830.367	-660.8
3832.998	-672.8
3835.627	-672.8
3838.253	-665.8
3840.878	-674.8
3843.501	-668.8
3846.122	-668.8
3848.741	-667.8
3851.358	-671.8
3853.973	-674.8
3856.586	-672.8
3859.197	-673.8
3861.806	-672.8
3864.414	-671.8
3867.019	-667.8
3869.622	-673.8
3872.224	-670.8
3874.823	-657.8
3877.421	-642.8
3880.016	-625.8
3882.61	-610.8
3885.202	-604.8
3887.792	-615.8
3890.38	-650.8
3892.966	-666.8
3895.55	-675.8
3898.132	-695.8
3900.713	-693.8
3903.291	-683.8
3905.868	-689.8
3908.442	-691.8
3911.015	-687.8
3913.586	-684.8
3916.155	-674.8
3918.722	-685.8
3921.287	-685.8
3923.85	-693.8
3926.411	-689.8
3928.971	-701.8
3931.528	-689.8
3934.084	-693.8
3936.638	-690.8
3939.19	-693.8
3941.74	-695.8
3944.288	-694.8
3946.834	-688.8
3949.378	-695.8
3951.921	-688.8
3954.462	-701.8
3957	-689.8
3959.537	-690.8
3962.072	-697.8
3964.606	-693.8
3967.137	-690.8
3969.667	-693.8
3972.194	-683.8
3974.72	-688.8
3977.244	-670.8
3979.766	-680.8
3982.286	-682.8
3984.805	-677.8
3987.321	-680.8
3989.836	-677.8
3992.349	-671.8
3994.86	-675.8
3997.369	-684.8
3999.877	-672.8
4002.382	-672.8
4004.886	-670.8
4007.388	-673.8
4009.888	-672.8
4012.386	-676.8
4014.883	-678.8
4017.377	-677.8
4019.87	-675.8
4022.361	-675.8
4024.85	-680.8
4027.338	-681.8
4029.823	-673.8
4032.307	-682.8
4034.789	-679.8
4037.269	-674.8
4039.747	-678.8
4042.224	-682.8
4044.699	-681.8
4047.172	-678.8
4049.643	-676.8
4052.112	-682.8
4054.58	-685.8
4057.046	-686.8
4059.51	-684.8
4061.972	-677.8
4064.432	-680.8
4066.891	-679.8
4069.348	-673.8
4071.803	-672.8
4074.256	-674.8
4076.708	-675.8
4079.158	-678.8
4081.606	-679.8
4084.052	-684.8
4086.497	-679.8
4088.939	-674.8
4091.38	-681.8
4093.819	-670.8
4096.257	-710.8
4098.693	-713.8
4101.127	-717.8
4103.559	-715.8
4105.989	-410.8
4108.418	-390.8
4110.845	-363.8
4113.27	-334.8
4115.694	-297.8
4118.115	-249.8
4120.535	-681.8
4122.954	-680.8
4125.37	-670.8
4127.785	-679.8
4130.198	-679.8
4132.609	-679.8
4135.019	-713.8
4137.427	-715.8
4139.833	-718.8
4142.237	-712.8
