Data from 2018-2-14_conc=6_n=7_RamanShift_02.txt Node
Date: Wed Feb 14 15:05:25 IST 2018
User: aro
Spectrometer: QEPB0276
Trigger mode: 0
Integration Time (sec): 3.000000E1
Scans to average: 1
Electric dark correction enabled: true
Nonlinearity correction enabled: false
Boxcar width: 0
XAxis mode: Raman Shifts
Number of Pixels in Spectrum: 1044
>>>>>Begin Spectral Data<<<<<
160.701	-142.6
166.742	44.4
172.777	585.4
178.805	2250.4
184.826	6194.4
190.841	13020.4
196.849	21017.4
202.85	26682.4
208.845	28531.4
214.833	28264.4
220.815	27768.4
226.789	27571.4
232.758	27477.4
238.719	27259.4
244.674	26847.4
250.623	26343.4
256.565	25833.4
262.5	25309.4
268.429	24877.4
274.351	24461.4
280.267	24144.4
286.176	23899.4
292.079	23682.4
297.975	23388.4
303.865	23206.4
309.748	23088.4
315.625	22951.4
321.495	22817.4
327.359	22707.4
333.217	22616.4
339.068	22657.4
344.912	22628.4
350.751	22601.4
356.583	22607.4
362.408	22573.4
368.227	22533.4
374.04	22576.4
379.847	22636.4
385.647	22642.4
391.44	22697.4
397.228	22838.4
403.009	22954.4
408.784	23024.4
414.553	23116.4
420.315	23153.4
426.071	23186.4
431.821	23145.4
437.565	23114.4
443.302	23113.4
449.033	23065.4
454.758	23020.4
460.477	22974.4
466.189	22941.4
471.896	22858.4
477.596	22786.4
483.29	22737.4
488.978	22646.4
494.66	22575.4
500.335	22459.4
506.005	22200.4
511.668	21958.4
517.325	21675.4
522.977	21442.4
528.622	21259.4
534.261	21155.4
539.894	21049.4
545.521	20990.4
551.141	20924.4
556.756	20825.4
562.365	20732.4
567.968	20645.4
573.565	20570.4
579.155	20459.4
584.74	20415.4
590.319	20332.4
595.892	20262.4
601.459	20142.4
607.02	20154.4
612.575	19976.4
618.124	19783.4
623.667	19664.4
629.204	19609.4
634.735	19534.4
640.261	19495.4
645.781	19388.4
651.294	19350.4
656.802	19313.4
662.304	19229.4
667.8	19255.4
673.29	19239.4
678.775	19216.4
684.254	19121.4
689.726	19041.4
695.193	19033.4
700.655	18898.4
706.11	18787.4
711.56	18735.4
717.004	18612.4
722.442	18529.4
727.874	18448.4
733.301	18343.4
738.722	18325.4
744.137	18320.4
749.547	18286.4
754.951	18245.4
760.349	18257.4
765.741	18294.4
771.128	18305.4
776.509	18284.4
781.885	18298.4
787.254	18235.4
792.618	18145.4
797.977	18062.4
803.33	17962.4
808.677	17858.4
814.019	17745.4
819.355	17611.4
824.686	17592.4
830.011	17518.4
835.33	17590.4
840.644	17560.4
845.952	17543.4
851.255	17598.4
856.552	17604.4
861.844	17563.4
867.13	17526.4
872.41	17455.4
877.686	17351.4
882.955	17198.4
888.219	17100.4
893.478	16873.4
898.731	16719.4
903.979	16494.4
909.221	16365.4
914.458	16340.4
919.69	16367.4
924.916	16391.4
930.136	16398.4
935.351	16451.4
940.561	16460.4
945.766	16380.4
950.965	16341.4
956.158	16146.4
961.347	16081.4
966.529	15841.4
971.707	15604.4
976.879	15457.4
982.046	15274.4
987.208	15233.4
992.364	15279.4
997.515	15421.4
1002.66	15515.4
1007.801	15652.4
1012.936	15779.4
1018.066	15796.4
1023.19	15819.4
1028.309	15853.4
1033.423	15710.4
1038.532	15654.4
1043.636	15518.4
1048.734	15325.4
1053.827	15164.4
1058.915	15015.4
1063.998	14884.4
1069.075	14875.4
1074.147	14789.4
1079.214	14902.4
1084.276	14982.4
1089.333	15069.4
1094.385	15146.4
1099.431	15177.4
1104.472	15163.4
1109.509	15008.4
1114.54	14908.4
1119.565	14717.4
1124.586	14484.4
1129.602	14368.4
1134.613	14303.4
1139.618	14183.4
1144.619	14114.4
1149.614	14185.4
1154.604	14224.4
1159.589	14186.4
1164.57	14167.4
1169.545	14225.4
1174.515	14268.4
1179.48	14202.4
1184.44	14093.4
1189.395	13978.4
1194.345	13902.4
1199.29	13837.4
1204.23	13803.4
1209.165	13843.4
1214.095	13914.4
1219.021	14010.4
1223.941	14070.4
1228.856	14118.4
1233.766	14201.4
1238.672	14173.4
1243.572	14184.4
1248.467	14145.4
1253.358	13922.4
1258.244	13756.4
1263.124	13531.4
1268	13363.4
1272.871	13123.4
1277.737	13051.4
1282.599	12989.4
1287.455	12971.4
1292.306	13040.4
1297.153	13079.4
1301.995	13145.4
1306.832	13153.4
1311.664	13182.4
1316.491	13142.4
1321.314	13047.4
1326.132	12838.4
1330.945	12546.4
1335.753	12258.4
1340.556	11981.4
1345.354	11730.4
1350.148	11518.4
1354.937	11394.4
1359.722	11341.4
1364.501	11412.4
1369.276	11532.4
1374.046	11676.4
1378.811	11866.4
1383.572	11981.4
1388.327	12049.4
1393.079	11975.4
1397.825	11868.4
1402.567	11682.4
1407.304	11515.4
1412.036	11443.4
1416.764	11359.4
1421.487	11260.4
1426.205	11244.4
1430.919	11172.4
1435.628	11170.4
1440.333	11171.4
1445.032	11191.4
1449.727	11284.4
1454.418	11256.4
1459.104	11100.4
1463.785	10900.4
1468.462	10679.4
1473.134	10401.4
1477.802	10290.4
1482.465	10057.4
1487.123	9952.4
1491.777	9885.4
1496.426	9921.4
1501.071	10070.4
1505.711	10215.4
1510.347	10359.4
1514.978	10496.4
1519.604	10714.4
1524.226	10806.4
1528.844	10833.4
1533.457	10780.4
1538.065	10718.4
1542.669	10655.4
1547.269	10632.4
1551.864	10543.4
1556.454	10503.4
1561.041	10495.4
1565.622	10460.4
1570.199	10497.4
1574.772	10544.4
1579.34	10632.4
1583.904	10713.4
1588.464	10722.4
1593.019	10727.4
1597.569	10652.4
1602.115	10671.4
1606.657	10581.4
1611.195	10517.4
1615.728	10433.4
1620.256	10375.4
1624.78	10376.4
1629.3	10398.4
1633.816	10429.4
1638.327	10455.4
1642.834	10497.4
1647.336	10579.4
1651.834	10571.4
1656.328	10546.4
1660.817	10491.4
1665.302	10404.4
1669.783	10230.4
1674.259	9975.4
1678.732	9714.4
1683.199	9377.4
1687.663	9085.4
1692.122	8781.4
1696.577	8674.4
1701.028	8579.4
1705.474	8641.4
1709.917	8733.4
1714.355	8747.4
1718.788	8722.4
1723.218	8615.4
1727.643	8432.4
1732.064	8281.4
1736.481	8094.4
1740.893	7932.4
1745.301	7693.4
1749.705	7471.4
1754.105	7302.4
1758.501	7079.4
1762.893	6897.4
1767.28	6710.4
1771.663	6546.4
1776.042	6473.4
1780.417	6375.4
1784.787	6369.4
1789.154	6431.4
1793.516	6514.4
1797.874	6665.4
1802.228	6768.4
1806.578	6871.4
1810.924	6854.4
1815.266	6784.4
1819.603	6694.4
1823.937	6611.4
1828.266	6490.4
1832.591	6386.4
1836.913	6311.4
1841.23	6239.4
1845.543	6205.4
1849.852	6157.4
1854.156	6141.4
1858.457	6128.4
1862.754	6105.4
1867.047	6107.4
1871.335	6106.4
1875.62	6089.4
1879.9	6098.4
1884.177	6011.4
1888.449	5979.4
1892.718	5873.4
1896.982	5846.4
1901.243	5805.4
1905.499	5734.4
1909.752	5694.4
1914	5716.4
1918.245	5731.4
1922.485	5760.4
1926.722	5831.4
1930.954	5893.4
1935.183	5971.4
1939.408	6040.4
1943.628	6072.4
1947.845	6074.4
1952.058	6088.4
1956.267	6012.4
1960.472	5950.4
1964.673	5876.4
1968.87	5784.4
1973.063	5662.4
1977.252	5593.4
1981.438	5556.4
1985.619	5480.4
1989.797	5447.4
1993.971	5402.4
1998.14	5396.4
2002.306	5365.4
2006.469	5353.4
2010.627	5353.4
2014.781	5269.4
2018.932	5237.4
2023.078	5166.4
2027.221	5107.4
2031.36	5042.4
2035.495	4966.4
2039.627	4940.4
2043.754	4857.4
2047.878	4802.4
2051.998	4802.4
2056.114	4741.4
2060.226	4745.4
2064.334	4741.4
2068.439	4769.4
2072.54	4798.4
2076.637	4806.4
2080.73	4837.4
2084.82	4888.4
2088.906	4898.4
2092.988	4869.4
2097.066	4850.4
2101.14	4828.4
2105.211	4807.4
2109.278	4774.4
2113.342	4791.4
2117.401	4714.4
2121.457	4689.4
2125.509	4691.4
2129.558	4654.4
2133.602	4632.4
2137.643	4607.4
2141.681	4563.4
2145.714	4556.4
2149.744	4546.4
2153.77	4503.4
2157.793	4466.4
2161.812	4388.4
2165.827	4325.4
2169.838	4260.4
2173.846	4206.4
2177.851	4103.4
2181.851	4070.4
2185.848	3991.4
2189.841	3975.4
2193.831	3929.4
2197.817	3892.4
2201.799	3888.4
2205.778	3856.4
2209.753	3840.4
2213.725	3841.4
2217.693	3836.4
2221.657	3818.4
2225.618	3813.4
2229.575	3792.4
2233.529	3739.4
2237.479	3713.4
2241.425	3639.4
2245.368	3604.4
2249.307	3538.4
2253.243	3514.4
2257.175	3469.4
2261.104	3411.4
2265.029	3372.4
2268.95	3333.4
2272.868	3295.4
2276.783	3308.4
2280.694	3252.4
2284.601	3213.4
2288.505	3172.4
2292.405	3153.4
2296.302	3122.4
2300.195	3090.4
2304.085	3062.4
2307.971	3026.4
2311.854	2990.4
2315.734	2935.4
2319.609	2908.4
2323.482	2847.4
2327.351	2809.4
2331.216	2794.4
2335.078	2787.4
2338.937	2763.4
2342.792	2721.4
2346.643	2751.4
2350.492	2721.4
2354.336	2751.4
2358.178	2755.4
2362.015	2739.4
2365.85	2772.4
2369.681	2750.4
2373.508	2776.4
2377.333	2753.4
2381.153	2758.4
2384.971	2718.4
2388.785	2716.4
2392.595	2651.4
2396.402	2672.4
2400.206	2651.4
2404.007	2605.4
2407.804	2608.4
2411.597	2579.4
2415.388	2571.4
2419.174	2559.4
2422.958	2527.4
2426.738	2505.4
2430.515	2494.4
2434.289	2458.4
2438.059	2457.4
2441.825	2462.4
2445.589	2375.4
2449.349	2369.4
2453.106	2366.4
2456.859	2318.4
2460.61	2308.4
2464.356	2280.4
2468.1	2241.4
2471.84	2223.4
2475.577	2209.4
2479.311	2174.4
2483.041	2169.4
2486.768	2181.4
2490.492	2150.4
2494.213	2144.4
2497.93	2128.4
2501.644	2142.4
2505.355	2126.4
2509.062	2102.4
2512.766	2093.4
2516.467	2084.4
2520.165	2071.4
2523.859	2054.4
2527.551	2033.4
2531.239	2020.4
2534.923	2017.4
2538.605	1998.4
2542.283	1986.4
2545.958	1989.4
2549.63	1973.4
2553.299	1983.4
2556.964	1963.4
2560.626	1964.4
2564.285	1966.4
2567.941	1948.4
2571.594	1959.4
2575.243	1924.4
2578.89	1922.4
2582.533	1887.4
2586.173	1875.4
2589.809	1876.4
2593.443	1863.4
2597.073	1839.4
2600.701	1839.4
2604.325	1815.4
2607.946	1796.4
2611.564	1780.4
2615.178	1785.4
2618.79	1751.4
2622.398	1761.4
2626.004	1737.4
2629.606	1713.4
2633.205	1676.4
2636.801	1665.4
2640.394	1647.4
2643.983	1604.4
2647.57	1606.4
2651.153	1563.4
2654.734	1566.4
2658.311	1521.4
2661.885	1483.4
2665.456	1493.4
2669.025	1481.4
2672.589	1427.4
2676.151	1429.4
2679.71	1409.4
2683.266	1406.4
2686.819	1366.4
2690.368	1337.4
2693.915	1320.4
2697.458	1291.4
2700.999	1261.4
2704.536	1235.4
2708.071	1205.4
2711.602	1180.4
2715.13	1147.4
2718.656	1121.4
2722.178	1106.4
2725.697	1095.4
2729.214	1080.4
2732.727	1075.4
2736.237	1064.4
2739.744	1048.4
2743.249	1051.4
2746.75	1055.4
2750.248	1064.4
2753.743	1079.4
2757.236	1106.4
2760.725	1097.4
2764.211	1116.4
2767.695	1120.4
2771.175	1123.4
2774.652	1125.4
2778.127	1102.4
2781.598	1107.4
2785.067	1103.4
2788.532	1092.4
2791.995	1095.4
2795.455	1083.4
2798.911	1077.4
2802.365	1083.4
2805.816	1094.4
2809.264	1082.4
2812.709	1086.4
2816.151	1090.4
2819.59	1094.4
2823.026	1087.4
2826.46	1088.4
2829.89	1082.4
2833.318	1091.4
2836.742	1113.4
2840.164	1110.4
2843.583	1111.4
2846.999	1115.4
2850.412	1133.4
2853.822	1149.4
2857.229	1167.4
2860.634	1182.4
2864.035	1205.4
2867.434	1223.4
2870.83	1256.4
2874.223	1264.4
2877.613	1287.4
2881	1287.4
2884.385	1300.4
2887.766	1313.4
2891.145	1305.4
2894.521	1291.4
2897.894	1296.4
2901.264	1304.4
2904.631	1297.4
2907.996	1296.4
2911.358	1299.4
2914.717	1302.4
2918.073	1321.4
2921.426	1346.4
2924.777	1345.4
2928.124	1391.4
2931.469	1416.4
2934.811	1434.4
2938.15	1425.4
2941.487	1459.4
2944.821	1471.4
2948.152	1457.4
2951.48	1435.4
2954.805	1436.4
2958.128	1420.4
2961.447	1407.4
2964.765	1421.4
2968.079	1406.4
2971.39	1442.4
2974.699	1461.4
2978.005	1466.4
2981.308	1493.4
2984.609	1528.4
2987.907	1547.4
2991.202	1564.4
2994.494	1594.4
2997.784	1635.4
3001.07	1659.4
3004.355	1712.4
3007.636	1717.4
3010.915	1733.4
3014.191	1763.4
3017.464	1760.4
3020.734	1783.4
3024.002	1785.4
3027.267	1809.4
3030.53	1815.4
3033.789	1823.4
3037.046	1871.4
3040.301	1879.4
3043.552	1923.4
3046.801	1972.4
3050.048	2012.4
3053.291	2049.4
3056.532	2106.4
3059.771	2158.4
3063.006	2205.4
3066.239	2305.4
3069.469	2364.4
3072.697	2396.4
3075.922	2471.4
3079.144	2504.4
3082.364	2595.4
3085.581	2644.4
3088.795	2687.4
3092.007	2751.4
3095.216	2811.4
3098.423	2881.4
3101.627	2926.4
3104.828	3006.4
3108.026	3061.4
3111.222	3157.4
3114.416	3214.4
3117.607	3284.4
3120.795	3360.4
3123.98	3424.4
3127.163	3531.4
3130.344	3604.4
3133.521	3704.4
3136.696	3772.4
3139.869	3828.4
3143.039	3921.4
3146.206	3954.4
3149.371	4035.4
3152.533	4020.4
3155.693	4083.4
3158.85	4090.4
3162.005	4112.4
3165.157	4127.4
3168.306	4120.4
3171.453	4160.4
3174.597	4199.4
3177.739	4154.4
3180.878	4178.4
3184.014	4186.4
3187.149	4189.4
3190.28	4189.4
3193.409	4183.4
3196.536	4183.4
3199.659	4225.4
3202.781	4205.4
3205.9	4213.4
3209.016	4190.4
3212.13	4198.4
3215.241	4167.4
3218.35	4138.4
3221.456	4105.4
3224.56	4048.4
3227.661	4020.4
3230.76	3935.4
3233.856	3907.4
3236.95	3882.4
3240.041	3845.4
3243.13	3814.4
3246.216	3827.4
3249.3	3787.4
3252.382	3779.4
3255.46	3761.4
3258.537	3725.4
3261.611	3725.4
3264.682	3747.4
3267.751	3735.4
3270.818	3718.4
3273.882	3742.4
3276.943	3709.4
3280.002	3722.4
3283.059	3646.4
3286.113	3596.4
3289.165	3546.4
3292.214	3525.4
3295.261	3466.4
3298.306	3397.4
3301.348	3352.4
3304.387	3266.4
3307.425	3259.4
3310.459	3177.4
3313.492	3127.4
3316.521	3091.4
3319.549	3063.4
3322.574	3033.4
3325.597	2988.4
3328.617	3006.4
3331.635	2965.4
3334.65	2940.4
3337.663	2908.4
3340.674	2909.4
3343.682	2889.4
3346.688	2890.4
3349.691	2861.4
3352.692	2864.4
3355.691	2840.4
3358.687	2812.4
3361.681	2779.4
3364.673	2760.4
3367.662	2704.4
3370.649	2686.4
3373.633	2644.4
3376.615	2616.4
3379.595	2539.4
3382.572	2514.4
3385.547	2486.4
3388.52	2450.4
3391.49	2417.4
3394.458	2374.4
3397.424	2370.4
3400.387	2309.4
3403.348	2273.4
3406.307	2262.4
3409.263	2230.4
3412.217	2192.4
3415.168	2177.4
3418.118	2158.4
3421.065	2130.4
3424.009	2099.4
3426.951	2049.4
3429.891	2022.4
3432.829	1992.4
3435.764	1947.4
3438.697	1878.4
3441.628	1863.4
3444.557	1799.4
3447.483	1725.4
3450.407	1688.4
3453.328	1611.4
3456.247	1568.4
3459.164	1532.4
3462.079	1456.4
3464.991	1419.4
3467.902	1377.4
3470.809	1310.4
3473.715	1247.4
3476.618	1216.4
3479.519	1171.4
3482.418	1121.4
3485.315	1101.4
3488.209	1068.4
3491.101	1029.4
3493.99	979.4
3496.878	966.4
3499.763	908.4
3502.646	879.4
3505.527	834.4
3508.405	814.4
3511.281	743.4
3514.155	716.4
3517.027	660.4
3519.897	643.4
3522.764	582.4
3525.629	568.4
3528.492	507.4
3531.352	464.4
3534.211	422.4
3537.067	384.4
3539.921	336.4
3542.773	301.4
3545.622	265.4
3548.469	243.4
3551.315	208.4
3554.157	197.4
3556.998	155.4
3559.837	135.4
3562.673	101.4
3565.507	63.4
3568.339	61.4
3571.169	44.4
3573.996	23.4
3576.822	1.4
3579.645	-20.6
3582.466	-43.6
3585.285	-59.6
3588.101	-81.6
3590.916	-107.6
3593.728	-129.6
3596.538	-140.6
3599.346	-167.6
3602.152	-193.6
3604.956	-196.6
3607.757	-221.6
3610.556	-232.6
3613.354	-243.6
3616.149	-261.6
3618.942	-268.6
3621.732	-286.6
3624.521	-303.6
3627.307	-303.6
3630.092	-320.6
3632.874	-331.6
3635.654	-337.6
3638.432	-345.6
3641.208	-348.6
3643.982	-371.6
3646.753	-368.6
3649.523	-388.6
3652.29	-393.6
3655.055	-393.6
3657.818	-412.6
3660.579	-432.6
3663.338	-442.6
3666.095	-444.6
3668.849	-461.6
3671.602	-462.6
3674.352	-472.6
3677.101	-480.6
3679.847	-490.6
3682.591	-502.6
3685.333	-503.6
3688.073	-505.6
3690.811	-516.6
3693.547	-510.6
3696.281	-525.6
3699.013	-523.6
3701.742	-532.6
3704.47	-536.6
3707.195	-547.6
3709.919	-537.6
3712.64	-551.6
3715.359	-554.6
3718.076	-556.6
3720.792	-560.6
3723.505	-560.6
3726.216	-570.6
3728.925	-565.6
3731.632	-579.6
3734.336	-579.6
3737.039	-577.6
3739.74	-578.6
3742.439	-590.6
3745.136	-587.6
3747.83	-587.6
3750.523	-598.6
3753.213	-592.6
3755.902	-596.6
3758.589	-602.6
3761.273	-603.6
3763.956	-602.6
3766.636	-602.6
3769.315	-606.6
3771.991	-608.6
3774.665	-612.6
3777.338	-613.6
3780.008	-613.6
3782.677	-614.6
3785.343	-612.6
3788.007	-622.6
3790.67	-617.6
3793.33	-621.6
3795.989	-624.6
3798.645	-620.6
3801.299	-620.6
3803.952	-628.6
3806.602	-640.6
3809.251	-631.6
3811.897	-635.6
3814.542	-631.6
3817.184	-633.6
3819.825	-624.6
3822.463	-625.6
3825.1	-633.6
3827.735	-624.6
3830.367	-633.6
3832.998	-641.6
3835.627	-638.6
3838.253	-633.6
3840.878	-640.6
3843.501	-637.6
3846.122	-638.6
3848.741	-637.6
3851.358	-636.6
3853.973	-639.6
3856.586	-641.6
3859.197	-641.6
3861.806	-646.6
3864.414	-641.6
3867.019	-644.6
3869.622	-641.6
3872.224	-636.6
3874.823	-622.6
3877.421	-600.6
3880.016	-580.6
3882.61	-562.6
3885.202	-552.6
3887.792	-571.6
3890.38	-613.6
3892.966	-629.6
3895.55	-643.6
3898.132	-654.6
3900.713	-658.6
3903.291	-650.6
3905.868	-657.6
3908.442	-655.6
3911.015	-654.6
3913.586	-653.6
3916.155	-652.6
3918.722	-651.6
3921.287	-654.6
3923.85	-661.6
3926.411	-659.6
3928.971	-667.6
3931.528	-662.6
3934.084	-658.6
3936.638	-658.6
3939.19	-662.6
3941.74	-655.6
3944.288	-662.6
3946.834	-652.6
3949.378	-656.6
3951.921	-658.6
3954.462	-660.6
3957	-657.6
3959.537	-660.6
3962.072	-655.6
3964.606	-658.6
3967.137	-660.6
3969.667	-659.6
3972.194	-654.6
3974.72	-653.6
3977.244	-650.6
3979.766	-646.6
3982.286	-650.6
3984.805	-649.6
3987.321	-649.6
3989.836	-650.6
3992.349	-645.6
3994.86	-642.6
3997.369	-651.6
3999.877	-645.6
4002.382	-646.6
4004.886	-641.6
4007.388	-640.6
4009.888	-643.6
4012.386	-646.6
4014.883	-641.6
4017.377	-643.6
4019.87	-642.6
4022.361	-644.6
4024.85	-644.6
4027.338	-648.6
4029.823	-645.6
4032.307	-643.6
4034.789	-642.6
4037.269	-646.6
4039.747	-640.6
4042.224	-654.6
4044.699	-646.6
4047.172	-648.6
4049.643	-647.6
4052.112	-656.6
4054.58	-653.6
4057.046	-651.6
4059.51	-651.6
4061.972	-649.6
4064.432	-652.6
4066.891	-650.6
4069.348	-648.6
4071.803	-643.6
4074.256	-650.6
4076.708	-646.6
4079.158	-641.6
4081.606	-649.6
4084.052	-653.6
4086.497	-650.6
4088.939	-641.6
4091.38	-645.6
4093.819	-641.6
4096.257	-683.6
4098.693	-684.6
4101.127	-686.6
4103.559	-683.6
4105.989	-395.6
4108.418	-375.6
4110.845	-352.6
4113.27	-315.6
4115.694	-273.6
4118.115	-239.6
4120.535	-640.6
4122.954	-646.6
4125.37	-641.6
4127.785	-645.6
4130.198	-649.6
4132.609	-650.6
4135.019	-685.6
4137.427	-685.6
4139.833	-683.6
4142.237	-682.6
