Data from 2018-2-14_conc=3_n=2_RamanShift_05.txt Node
Date: Wed Feb 14 11:47:26 IST 2018
User: aro
Spectrometer: QEPB0276
Trigger mode: 0
Integration Time (sec): 3.000000E1
Scans to average: 1
Electric dark correction enabled: true
Nonlinearity correction enabled: false
Boxcar width: 0
XAxis mode: Raman Shifts
Number of Pixels in Spectrum: 1044
>>>>>Begin Spectral Data<<<<<
160.701	-126.4
166.742	51.6
172.777	532.6
178.805	2039.6
184.826	5623.6
190.841	11743.6
196.849	18826.6
202.85	23931.6
208.845	25654.6
214.833	25383.6
220.815	24988.6
226.789	24775.6
232.758	24729.6
238.719	24539.6
244.674	24212.6
250.623	23889.6
256.565	23324.6
262.5	22874.6
268.429	22473.6
274.351	22165.6
280.267	21893.6
286.176	21594.6
292.079	21466.6
297.975	21222.6
303.865	21115.6
309.748	20997.6
315.625	20858.6
321.495	20778.6
327.359	20700.6
333.217	20660.6
339.068	20608.6
344.912	20539.6
350.751	20665.6
356.583	20569.6
362.408	20546.6
368.227	20565.6
374.04	20611.6
379.847	20640.6
385.647	20683.6
391.44	20833.6
397.228	20943.6
403.009	20942.6
408.784	20969.6
414.553	21058.6
420.315	21150.6
426.071	21146.6
431.821	21133.6
437.565	21114.6
443.302	21106.6
449.033	21029.6
454.758	20985.6
460.477	20962.6
466.189	20932.6
471.896	20815.6
477.596	20823.6
483.29	20763.6
488.978	20704.6
494.66	20571.6
500.335	20485.6
506.005	20243.6
511.668	20009.6
517.325	19674.6
522.977	19524.6
528.622	19330.6
534.261	19178.6
539.894	19127.6
545.521	18997.6
551.141	18957.6
556.756	18828.6
562.365	18815.6
567.968	18696.6
573.565	18635.6
579.155	18557.6
584.74	18484.6
590.319	18434.6
595.892	18295.6
601.459	18248.6
607.02	18182.6
612.575	18078.6
618.124	17978.6
623.667	17907.6
629.204	17778.6
634.735	17638.6
640.261	17621.6
645.781	17518.6
651.294	17498.6
656.802	17499.6
662.304	17475.6
667.8	17427.6
673.29	17357.6
678.775	17314.6
684.254	17285.6
689.726	17215.6
695.193	17166.6
700.655	17074.6
706.11	17028.6
711.56	16896.6
717.004	16789.6
722.442	16796.6
727.874	16690.6
733.301	16613.6
738.722	16577.6
744.137	16556.6
749.547	16504.6
754.951	16540.6
760.349	16543.6
765.741	16527.6
771.128	16602.6
776.509	16500.6
781.885	16560.6
787.254	16553.6
792.618	16448.6
797.977	16341.6
803.33	16268.6
808.677	16170.6
814.019	16033.6
819.355	15947.6
824.686	15939.6
830.011	15822.6
835.33	15842.6
840.644	15876.6
845.952	15902.6
851.255	15915.6
856.552	15919.6
861.844	15863.6
867.13	15835.6
872.41	15791.6
877.686	15633.6
882.955	15529.6
888.219	15435.6
893.478	15197.6
898.731	15065.6
903.979	14912.6
909.221	14806.6
914.458	14764.6
919.69	14676.6
924.916	14789.6
930.136	14786.6
935.351	14780.6
940.561	14831.6
945.766	14814.6
950.965	14643.6
956.158	14620.6
961.347	14472.6
966.529	14290.6
971.707	14105.6
976.879	13891.6
982.046	13817.6
987.208	13763.6
992.364	13775.6
997.515	13833.6
1002.66	13946.6
1007.801	14084.6
1012.936	14159.6
1018.066	14273.6
1023.19	14233.6
1028.309	14216.6
1033.423	14191.6
1038.532	14115.6
1043.636	13965.6
1048.734	13786.6
1053.827	13653.6
1058.915	13471.6
1063.998	13420.6
1069.075	13321.6
1074.147	13349.6
1079.214	13405.6
1084.276	13489.6
1089.333	13579.6
1094.385	13612.6
1099.431	13641.6
1104.472	13648.6
1109.509	13570.6
1114.54	13393.6
1119.565	13268.6
1124.586	13064.6
1129.602	12882.6
1134.613	12827.6
1139.618	12771.6
1144.619	12733.6
1149.614	12729.6
1154.604	12787.6
1159.589	12759.6
1164.57	12811.6
1169.545	12822.6
1174.515	12825.6
1179.48	12713.6
1184.44	12592.6
1189.395	12561.6
1194.345	12454.6
1199.29	12369.6
1204.23	12405.6
1209.165	12418.6
1214.095	12526.6
1219.021	12532.6
1223.941	12647.6
1228.856	12665.6
1233.766	12744.6
1238.672	12767.6
1243.572	12732.6
1248.467	12634.6
1253.358	12479.6
1258.244	12337.6
1263.124	12126.6
1268	11978.6
1272.871	11784.6
1277.737	11713.6
1282.599	11663.6
1287.455	11640.6
1292.306	11655.6
1297.153	11700.6
1301.995	11742.6
1306.832	11722.6
1311.664	11779.6
1316.491	11716.6
1321.314	11631.6
1326.132	11436.6
1330.945	11281.6
1335.753	10982.6
1340.556	10720.6
1345.354	10441.6
1350.148	10295.6
1354.937	10260.6
1359.722	10185.6
1364.501	10239.6
1369.276	10304.6
1374.046	10380.6
1378.811	10490.6
1383.572	10633.6
1388.327	10647.6
1393.079	10623.6
1397.825	10475.6
1402.567	10406.6
1407.304	10230.6
1412.036	10165.6
1416.764	10121.6
1421.487	9987.6
1426.205	9999.6
1430.919	9959.6
1435.628	9964.6
1440.333	9941.6
1445.032	9978.6
1449.727	10007.6
1454.418	9991.6
1459.104	9885.6
1463.785	9721.6
1468.462	9500.6
1473.134	9301.6
1477.802	9120.6
1482.465	8935.6
1487.123	8788.6
1491.777	8815.6
1496.426	8817.6
1501.071	8882.6
1505.711	9012.6
1510.347	9159.6
1514.978	9284.6
1519.604	9439.6
1524.226	9488.6
1528.844	9551.6
1533.457	9503.6
1538.065	9466.6
1542.669	9427.6
1547.269	9331.6
1551.864	9322.6
1556.454	9311.6
1561.041	9241.6
1565.622	9280.6
1570.199	9297.6
1574.772	9306.6
1579.34	9380.6
1583.904	9460.6
1588.464	9416.6
1593.019	9440.6
1597.569	9408.6
1602.115	9367.6
1606.657	9301.6
1611.195	9270.6
1615.728	9193.6
1620.256	9138.6
1624.78	9165.6
1629.3	9195.6
1633.816	9177.6
1638.327	9216.6
1642.834	9243.6
1647.336	9297.6
1651.834	9326.6
1656.328	9290.6
1660.817	9215.6
1665.302	9131.6
1669.783	8952.6
1674.259	8739.6
1678.732	8529.6
1683.199	8211.6
1687.663	7971.6
1692.122	7689.6
1696.577	7568.6
1701.028	7528.6
1705.474	7493.6
1709.917	7635.6
1714.355	7609.6
1718.788	7554.6
1723.218	7463.6
1727.643	7338.6
1732.064	7221.6
1736.481	7051.6
1740.893	6910.6
1745.301	6694.6
1749.705	6573.6
1754.105	6389.6
1758.501	6190.6
1762.893	5990.6
1767.28	5850.6
1771.663	5739.6
1776.042	5619.6
1780.417	5567.6
1784.787	5555.6
1789.154	5566.6
1793.516	5647.6
1797.874	5716.6
1802.228	5816.6
1806.578	5882.6
1810.924	5889.6
1815.266	5873.6
1819.603	5786.6
1823.937	5711.6
1828.266	5602.6
1832.591	5543.6
1836.913	5483.6
1841.23	5418.6
1845.543	5364.6
1849.852	5368.6
1854.156	5324.6
1858.457	5301.6
1862.754	5274.6
1867.047	5318.6
1871.335	5291.6
1875.62	5250.6
1879.9	5226.6
1884.177	5189.6
1888.449	5188.6
1892.718	5101.6
1896.982	5043.6
1901.243	5033.6
1905.499	4965.6
1909.752	4939.6
1914	4926.6
1918.245	4978.6
1922.485	4976.6
1926.722	5010.6
1930.954	5069.6
1935.183	5114.6
1939.408	5167.6
1943.628	5210.6
1947.845	5239.6
1952.058	5192.6
1956.267	5171.6
1960.472	5106.6
1964.673	5034.6
1968.87	4957.6
1973.063	4870.6
1977.252	4804.6
1981.438	4768.6
1985.619	4704.6
1989.797	4688.6
1993.971	4642.6
1998.14	4623.6
2002.306	4602.6
2006.469	4596.6
2010.627	4555.6
2014.781	4529.6
2018.932	4469.6
2023.078	4454.6
2027.221	4392.6
2031.36	4295.6
2035.495	4259.6
2039.627	4177.6
2043.754	4107.6
2047.878	4053.6
2051.998	4076.6
2056.114	4030.6
2060.226	4037.6
2064.334	4033.6
2068.439	4032.6
2072.54	4063.6
2076.637	4110.6
2080.73	4110.6
2084.82	4152.6
2088.906	4172.6
2092.988	4181.6
2097.066	4134.6
2101.14	4106.6
2105.211	4087.6
2109.278	4078.6
2113.342	4024.6
2117.401	4024.6
2121.457	3958.6
2125.509	3964.6
2129.558	3957.6
2133.602	3917.6
2137.643	3914.6
2141.681	3881.6
2145.714	3887.6
2149.744	3857.6
2153.77	3823.6
2157.793	3768.6
2161.812	3733.6
2165.827	3665.6
2169.838	3619.6
2173.846	3548.6
2177.851	3512.6
2181.851	3454.6
2185.848	3434.6
2189.841	3368.6
2193.831	3336.6
2197.817	3326.6
2201.799	3287.6
2205.778	3287.6
2209.753	3245.6
2213.725	3240.6
2217.693	3234.6
2221.657	3232.6
2225.618	3199.6
2229.575	3190.6
2233.529	3154.6
2237.479	3140.6
2241.425	3136.6
2245.368	3056.6
2249.307	3016.6
2253.243	2953.6
2257.175	2922.6
2261.104	2898.6
2265.029	2863.6
2268.95	2849.6
2272.868	2808.6
2276.783	2785.6
2280.694	2729.6
2284.601	2722.6
2288.505	2677.6
2292.405	2677.6
2296.302	2623.6
2300.195	2576.6
2304.085	2572.6
2307.971	2550.6
2311.854	2474.6
2315.734	2472.6
2319.609	2439.6
2323.482	2378.6
2327.351	2378.6
2331.216	2358.6
2335.078	2358.6
2338.937	2324.6
2342.792	2326.6
2346.643	2314.6
2350.492	2326.6
2354.336	2324.6
2358.178	2327.6
2362.015	2329.6
2365.85	2348.6
2369.681	2342.6
2373.508	2357.6
2377.333	2340.6
2381.153	2347.6
2384.971	2322.6
2388.785	2304.6
2392.595	2284.6
2396.402	2252.6
2400.206	2249.6
2404.007	2218.6
2407.804	2228.6
2411.597	2201.6
2415.388	2181.6
2419.174	2160.6
2422.958	2170.6
2426.738	2141.6
2430.515	2126.6
2434.289	2087.6
2438.059	2099.6
2441.825	2073.6
2445.589	2031.6
2449.349	2012.6
2453.106	2005.6
2456.859	1968.6
2460.61	1931.6
2464.356	1924.6
2468.1	1899.6
2471.84	1882.6
2475.577	1852.6
2479.311	1847.6
2483.041	1833.6
2486.768	1812.6
2490.492	1809.6
2494.213	1806.6
2497.93	1802.6
2501.644	1816.6
2505.355	1788.6
2509.062	1778.6
2512.766	1748.6
2516.467	1757.6
2520.165	1749.6
2523.859	1724.6
2527.551	1727.6
2531.239	1714.6
2534.923	1687.6
2538.605	1683.6
2542.283	1673.6
2545.958	1652.6
2549.63	1678.6
2553.299	1681.6
2556.964	1661.6
2560.626	1645.6
2564.285	1657.6
2567.941	1654.6
2571.594	1622.6
2575.243	1604.6
2578.89	1592.6
2582.533	1591.6
2586.173	1595.6
2589.809	1581.6
2593.443	1543.6
2597.073	1531.6
2600.701	1525.6
2604.325	1524.6
2607.946	1503.6
2611.564	1485.6
2615.178	1467.6
2618.79	1455.6
2622.398	1454.6
2626.004	1443.6
2629.606	1420.6
2633.205	1401.6
2636.801	1379.6
2640.394	1363.6
2643.983	1329.6
2647.57	1344.6
2651.153	1294.6
2654.734	1278.6
2658.311	1244.6
2661.885	1243.6
2665.456	1215.6
2669.025	1205.6
2672.589	1200.6
2676.151	1187.6
2679.71	1168.6
2683.266	1143.6
2686.819	1130.6
2690.368	1098.6
2693.915	1075.6
2697.458	1064.6
2700.999	1008.6
2704.536	994.6
2708.071	978.6
2711.602	964.6
2715.13	926.6
2718.656	919.6
2722.178	903.6
2725.697	899.6
2729.214	862.6
2732.727	863.6
2736.237	837.6
2739.744	848.6
2743.249	867.6
2746.75	866.6
2750.248	848.6
2753.743	888.6
2757.236	869.6
2760.725	872.6
2764.211	886.6
2767.695	905.6
2771.175	909.6
2774.652	870.6
2778.127	891.6
2781.598	865.6
2785.067	880.6
2788.532	875.6
2791.995	865.6
2795.455	861.6
2798.911	873.6
2802.365	870.6
2805.816	854.6
2809.264	886.6
2812.709	876.6
2816.151	869.6
2819.59	893.6
2823.026	883.6
2826.46	875.6
2829.89	888.6
2833.318	877.6
2836.742	884.6
2840.164	881.6
2843.583	915.6
2846.999	911.6
2850.412	922.6
2853.822	921.6
2857.229	949.6
2860.634	963.6
2864.035	979.6
2867.434	993.6
2870.83	1004.6
2874.223	1035.6
2877.613	1050.6
2881	1059.6
2884.385	1074.6
2887.766	1084.6
2891.145	1068.6
2894.521	1069.6
2897.894	1066.6
2901.264	1057.6
2904.631	1069.6
2907.996	1069.6
2911.358	1072.6
2914.717	1081.6
2918.073	1103.6
2921.426	1091.6
2924.777	1104.6
2928.124	1125.6
2931.469	1160.6
2934.811	1164.6
2938.15	1186.6
2941.487	1203.6
2944.821	1211.6
2948.152	1207.6
2951.48	1199.6
2954.805	1175.6
2958.128	1159.6
2961.447	1181.6
2964.765	1182.6
2968.079	1155.6
2971.39	1175.6
2974.699	1189.6
2978.005	1208.6
2981.308	1226.6
2984.609	1240.6
2987.907	1268.6
2991.202	1277.6
2994.494	1321.6
2997.784	1342.6
3001.07	1383.6
3004.355	1382.6
3007.636	1406.6
3010.915	1430.6
3014.191	1456.6
3017.464	1458.6
3020.734	1479.6
3024.002	1482.6
3027.267	1501.6
3030.53	1510.6
3033.789	1522.6
3037.046	1548.6
3040.301	1554.6
3043.552	1598.6
3046.801	1622.6
3050.048	1665.6
3053.291	1724.6
3056.532	1758.6
3059.771	1815.6
3063.006	1886.6
3066.239	1940.6
3069.469	1977.6
3072.697	2059.6
3075.922	2118.6
3079.144	2144.6
3082.364	2211.6
3085.581	2267.6
3088.795	2281.6
3092.007	2342.6
3095.216	2384.6
3098.423	2423.6
3101.627	2521.6
3104.828	2567.6
3108.026	2604.6
3111.222	2677.6
3114.416	2729.6
3117.607	2808.6
3120.795	2883.6
3123.98	2913.6
3127.163	3014.6
3130.344	3043.6
3133.521	3160.6
3136.696	3213.6
3139.869	3313.6
3143.039	3342.6
3146.206	3391.6
3149.371	3447.6
3152.533	3453.6
3155.693	3480.6
3158.85	3497.6
3162.005	3535.6
3165.157	3537.6
3168.306	3513.6
3171.453	3564.6
3174.597	3545.6
3177.739	3562.6
3180.878	3574.6
3184.014	3589.6
3187.149	3564.6
3190.28	3583.6
3193.409	3554.6
3196.536	3593.6
3199.659	3589.6
3202.781	3588.6
3205.9	3613.6
3209.016	3624.6
3212.13	3543.6
3215.241	3564.6
3218.35	3533.6
3221.456	3483.6
3224.56	3446.6
3227.661	3387.6
3230.76	3353.6
3233.856	3324.6
3236.95	3285.6
3240.041	3254.6
3243.13	3253.6
3246.216	3215.6
3249.3	3224.6
3252.382	3190.6
3255.46	3147.6
3258.537	3160.6
3261.611	3165.6
3264.682	3170.6
3267.751	3160.6
3270.818	3153.6
3273.882	3121.6
3276.943	3116.6
3280.002	3098.6
3283.059	3050.6
3286.113	3014.6
3289.165	3026.6
3292.214	2957.6
3295.261	2917.6
3298.306	2858.6
3301.348	2824.6
3304.387	2773.6
3307.425	2697.6
3310.459	2664.6
3313.492	2653.6
3316.521	2607.6
3319.549	2555.6
3322.574	2571.6
3325.597	2530.6
3328.617	2516.6
3331.635	2496.6
3334.65	2471.6
3337.663	2473.6
3340.674	2463.6
3343.682	2436.6
3346.688	2436.6
3349.691	2439.6
3352.692	2395.6
3355.691	2394.6
3358.687	2354.6
3361.681	2355.6
3364.673	2338.6
3367.662	2267.6
3370.649	2249.6
3373.633	2205.6
3376.615	2199.6
3379.595	2126.6
3382.572	2110.6
3385.547	2070.6
3388.52	2059.6
3391.49	2010.6
3394.458	1986.6
3397.424	1971.6
3400.387	1960.6
3403.348	1904.6
3406.307	1894.6
3409.263	1860.6
3412.217	1856.6
3415.168	1834.6
3418.118	1805.6
3421.065	1797.6
3424.009	1747.6
3426.951	1711.6
3429.891	1688.6
3432.829	1667.6
3435.764	1632.6
3438.697	1586.6
3441.628	1538.6
3444.557	1506.6
3447.483	1420.6
3450.407	1392.6
3453.328	1335.6
3456.247	1300.6
3459.164	1243.6
3462.079	1211.6
3464.991	1160.6
3467.902	1124.6
3470.809	1060.6
3473.715	1038.6
3476.618	988.6
3479.519	951.6
3482.418	912.6
3485.315	892.6
3488.209	859.6
3491.101	827.6
3493.99	789.6
3496.878	755.6
3499.763	734.6
3502.646	703.6
3505.527	669.6
3508.405	648.6
3511.281	596.6
3514.155	554.6
3517.027	544.6
3519.897	493.6
3522.764	450.6
3525.629	420.6
3528.492	376.6
3531.352	345.6
3534.211	318.6
3537.067	274.6
3539.921	245.6
3542.773	215.6
3545.622	173.6
3548.469	159.6
3551.315	136.6
3554.157	103.6
3556.998	78.6
3559.837	65.6
3562.673	52.6
3565.507	26.6
3568.339	-3.4
3571.169	-5.4
3573.996	-23.4
3576.822	-44.4
3579.645	-70.4
3582.466	-77.4
3585.285	-106.4
3588.101	-114.4
3590.916	-136.4
3593.728	-162.4
3596.538	-176.4
3599.346	-181.4
3602.152	-195.4
3604.956	-220.4
3607.757	-231.4
3610.556	-241.4
3613.354	-252.4
3616.149	-268.4
3618.942	-271.4
3621.732	-281.4
3624.521	-296.4
3627.307	-306.4
3630.092	-314.4
3632.874	-314.4
3635.654	-332.4
3638.432	-340.4
3641.208	-337.4
3643.982	-364.4
3646.753	-365.4
3649.523	-377.4
3652.29	-375.4
3655.055	-385.4
3657.818	-407.4
3660.579	-408.4
3663.338	-421.4
3666.095	-425.4
3668.849	-425.4
3671.602	-436.4
3674.352	-447.4
3677.101	-449.4
3679.847	-465.4
3682.591	-467.4
3685.333	-472.4
3688.073	-469.4
3690.811	-479.4
3693.547	-486.4
3696.281	-486.4
3699.013	-490.4
3701.742	-494.4
3704.47	-496.4
3707.195	-510.4
3709.919	-507.4
3712.64	-512.4
3715.359	-516.4
3718.076	-522.4
3720.792	-518.4
3723.505	-522.4
3726.216	-533.4
3728.925	-526.4
3731.632	-530.4
3734.336	-528.4
3737.039	-539.4
3739.74	-535.4
3742.439	-535.4
3745.136	-542.4
3747.83	-548.4
3750.523	-545.4
3753.213	-523.4
3755.902	-553.4
3758.589	-549.4
3761.273	-553.4
3763.956	-558.4
3766.636	-555.4
3769.315	-563.4
3771.991	-559.4
3774.665	-567.4
3777.338	-564.4
3780.008	-568.4
3782.677	-569.4
3785.343	-562.4
3788.007	-563.4
3790.67	-564.4
3793.33	-572.4
3795.989	-572.4
3798.645	-564.4
3801.299	-567.4
3803.952	-574.4
3806.602	-584.4
3809.251	-584.4
3811.897	-580.4
3814.542	-581.4
3817.184	-575.4
3819.825	-574.4
3822.463	-576.4
3825.1	-585.4
3827.735	-578.4
3830.367	-578.4
3832.998	-583.4
3835.627	-585.4
3838.253	-587.4
3840.878	-589.4
3843.501	-587.4
3846.122	-579.4
3848.741	-584.4
3851.358	-585.4
3853.973	-584.4
3856.586	-588.4
3859.197	-595.4
3861.806	-599.4
3864.414	-589.4
3867.019	-588.4
3869.622	-590.4
3872.224	-582.4
3874.823	-569.4
3877.421	-557.4
3880.016	-542.4
3882.61	-513.4
3885.202	-518.4
3887.792	-528.4
3890.38	-555.4
3892.966	-573.4
3895.55	-582.4
3898.132	-596.4
3900.713	-602.4
3903.291	-598.4
3905.868	-593.4
3908.442	-599.4
3911.015	-604.4
3913.586	-600.4
3916.155	-601.4
3918.722	-605.4
3921.287	-602.4
3923.85	-609.4
3926.411	-602.4
3928.971	-607.4
3931.528	-604.4
3934.084	-603.4
3936.638	-607.4
3939.19	-601.4
3941.74	-605.4
3944.288	-607.4
3946.834	-601.4
3949.378	-602.4
3951.921	-600.4
3954.462	-607.4
3957	-603.4
3959.537	-603.4
3962.072	-604.4
3964.606	-605.4
3967.137	-607.4
3969.667	-605.4
3972.194	-598.4
3974.72	-603.4
3977.244	-592.4
3979.766	-590.4
3982.286	-597.4
3984.805	-589.4
3987.321	-591.4
3989.836	-588.4
3992.349	-584.4
3994.86	-585.4
3997.369	-591.4
3999.877	-587.4
4002.382	-586.4
4004.886	-584.4
4007.388	-591.4
4009.888	-589.4
4012.386	-596.4
4014.883	-590.4
4017.377	-588.4
4019.87	-589.4
4022.361	-592.4
4024.85	-591.4
4027.338	-594.4
4029.823	-590.4
4032.307	-594.4
4034.789	-584.4
4037.269	-589.4
4039.747	-590.4
4042.224	-591.4
4044.699	-588.4
4047.172	-589.4
4049.643	-590.4
4052.112	-597.4
4054.58	-593.4
4057.046	-596.4
4059.51	-596.4
4061.972	-596.4
4064.432	-600.4
4066.891	-590.4
4069.348	-589.4
4071.803	-588.4
4074.256	-591.4
4076.708	-585.4
4079.158	-594.4
4081.606	-591.4
4084.052	-596.4
4086.497	-591.4
4088.939	-584.4
4091.38	-589.4
4093.819	-588.4
4096.257	-620.4
4098.693	-622.4
4101.127	-629.4
4103.559	-622.4
4105.989	-350.4
4108.418	-330.4
4110.845	-317.4
4113.27	-295.4
4115.694	-258.4
4118.115	-214.4
4120.535	-586.4
4122.954	-589.4
4125.37	-581.4
4127.785	-593.4
4130.198	-594.4
4132.609	-594.4
4135.019	-627.4
4137.427	-625.4
4139.833	-624.4
4142.237	-620.4
