Data from 2018-2-14_conc=3_n=10_RamanShift_02.txt Node
Date: Wed Feb 14 12:12:56 IST 2018
User: aro
Spectrometer: QEPB0276
Trigger mode: 0
Integration Time (sec): 3.000000E1
Scans to average: 1
Electric dark correction enabled: true
Nonlinearity correction enabled: false
Boxcar width: 0
XAxis mode: Raman Shifts
Number of Pixels in Spectrum: 1044
>>>>>Begin Spectral Data<<<<<
160.701	-142.6
166.742	35.4
172.777	560.4
178.805	2156.4
184.826	6020.4
190.841	12549.4
196.849	20222.4
202.85	25642.4
208.845	27435.4
214.833	27146.4
220.815	26600.4
226.789	26412.4
232.758	26312.4
238.719	26137.4
244.674	25776.4
250.623	25327.4
256.565	24811.4
262.5	24249.4
268.429	23824.4
274.351	23484.4
280.267	23167.4
286.176	22872.4
292.079	22708.4
297.975	22436.4
303.865	22227.4
309.748	22108.4
315.625	21929.4
321.495	21829.4
327.359	21687.4
333.217	21674.4
339.068	21682.4
344.912	21613.4
350.751	21603.4
356.583	21560.4
362.408	21577.4
368.227	21574.4
374.04	21600.4
379.847	21575.4
385.647	21724.4
391.44	21773.4
397.228	21874.4
403.009	21943.4
408.784	22010.4
414.553	22105.4
420.315	22165.4
426.071	22102.4
431.821	22141.4
437.565	22123.4
443.302	22138.4
449.033	22039.4
454.758	22057.4
460.477	21872.4
466.189	21919.4
471.896	21892.4
477.596	21806.4
483.29	21755.4
488.978	21766.4
494.66	21671.4
500.335	21535.4
506.005	21340.4
511.668	21166.4
517.325	20866.4
522.977	20659.4
528.622	20472.4
534.261	20433.4
539.894	20290.4
545.521	20219.4
551.141	20206.4
556.756	20080.4
562.365	19975.4
567.968	19982.4
573.565	19908.4
579.155	19789.4
584.74	19701.4
590.319	19622.4
595.892	19586.4
601.459	19532.4
607.02	19393.4
612.575	19302.4
618.124	19157.4
623.667	19016.4
629.204	18957.4
634.735	18932.4
640.261	18851.4
645.781	18756.4
651.294	18731.4
656.802	18704.4
662.304	18613.4
667.8	18644.4
673.29	18649.4
678.775	18561.4
684.254	18523.4
689.726	18495.4
695.193	18360.4
700.655	18330.4
706.11	18195.4
711.56	18161.4
717.004	18013.4
722.442	17944.4
727.874	17893.4
733.301	17825.4
738.722	17818.4
744.137	17720.4
749.547	17749.4
754.951	17772.4
760.349	17736.4
765.741	17775.4
771.128	17736.4
776.509	17781.4
781.885	17784.4
787.254	17745.4
792.618	17671.4
797.977	17529.4
803.33	17398.4
808.677	17362.4
814.019	17272.4
819.355	17130.4
824.686	17085.4
830.011	17021.4
835.33	17041.4
840.644	17008.4
845.952	17078.4
851.255	17098.4
856.552	17146.4
861.844	17098.4
867.13	17048.4
872.41	17029.4
877.686	16972.4
882.955	16738.4
888.219	16656.4
893.478	16465.4
898.731	16217.4
903.979	16108.4
909.221	16034.4
914.458	15934.4
919.69	15931.4
924.916	15935.4
930.136	15997.4
935.351	16059.4
940.561	16039.4
945.766	15963.4
950.965	15912.4
956.158	15821.4
961.347	15630.4
966.529	15457.4
971.707	15247.4
976.879	15124.4
982.046	14904.4
987.208	14914.4
992.364	14903.4
997.515	14962.4
1002.66	15138.4
1007.801	15300.4
1012.936	15360.4
1018.066	15401.4
1023.19	15420.4
1028.309	15431.4
1033.423	15373.4
1038.532	15305.4
1043.636	15177.4
1048.734	15013.4
1053.827	14803.4
1058.915	14708.4
1063.998	14535.4
1069.075	14478.4
1074.147	14522.4
1079.214	14526.4
1084.276	14644.4
1089.333	14786.4
1094.385	14802.4
1099.431	14861.4
1104.472	14846.4
1109.509	14801.4
1114.54	14610.4
1119.565	14420.4
1124.586	14242.4
1129.602	14122.4
1134.613	14014.4
1139.618	13906.4
1144.619	13846.4
1149.614	13841.4
1154.604	13891.4
1159.589	13959.4
1164.57	13923.4
1169.545	13969.4
1174.515	14019.4
1179.48	13874.4
1184.44	13810.4
1189.395	13709.4
1194.345	13666.4
1199.29	13585.4
1204.23	13569.4
1209.165	13581.4
1214.095	13655.4
1219.021	13720.4
1223.941	13788.4
1228.856	13874.4
1233.766	13926.4
1238.672	13929.4
1243.572	13939.4
1248.467	13823.4
1253.358	13671.4
1258.244	13503.4
1263.124	13285.4
1268	13094.4
1272.871	13000.4
1277.737	12816.4
1282.599	12784.4
1287.455	12778.4
1292.306	12810.4
1297.153	12829.4
1301.995	12917.4
1306.832	12951.4
1311.664	13036.4
1316.491	12930.4
1321.314	12812.4
1326.132	12643.4
1330.945	12366.4
1335.753	12080.4
1340.556	11775.4
1345.354	11487.4
1350.148	11301.4
1354.937	11220.4
1359.722	11232.4
1364.501	11326.4
1369.276	11394.4
1374.046	11631.4
1378.811	11815.4
1383.572	11961.4
1388.327	12030.4
1393.079	11986.4
1397.825	11765.4
1402.567	11600.4
1407.304	11393.4
1412.036	11292.4
1416.764	11194.4
1421.487	11164.4
1426.205	11074.4
1430.919	11054.4
1435.628	11053.4
1440.333	11046.4
1445.032	11046.4
1449.727	11141.4
1454.418	11113.4
1459.104	11003.4
1463.785	10787.4
1468.462	10591.4
1473.134	10364.4
1477.802	10180.4
1482.465	9956.4
1487.123	9830.4
1491.777	9849.4
1496.426	9945.4
1501.071	10042.4
1505.711	10213.4
1510.347	10376.4
1514.978	10588.4
1519.604	10755.4
1524.226	10864.4
1528.844	10901.4
1533.457	10869.4
1538.065	10769.4
1542.669	10732.4
1547.269	10668.4
1551.864	10539.4
1556.454	10494.4
1561.041	10509.4
1565.622	10450.4
1570.199	10492.4
1574.772	10579.4
1579.34	10596.4
1583.904	10638.4
1588.464	10673.4
1593.019	10661.4
1597.569	10611.4
1602.115	10589.4
1606.657	10503.4
1611.195	10426.4
1615.728	10416.4
1620.256	10320.4
1624.78	10353.4
1629.3	10315.4
1633.816	10330.4
1638.327	10376.4
1642.834	10405.4
1647.336	10510.4
1651.834	10496.4
1656.328	10501.4
1660.817	10445.4
1665.302	10367.4
1669.783	10195.4
1674.259	9962.4
1678.732	9695.4
1683.199	9391.4
1687.663	9018.4
1692.122	8760.4
1696.577	8621.4
1701.028	8634.4
1705.474	8716.4
1709.917	8860.4
1714.355	8939.4
1718.788	8836.4
1723.218	8745.4
1727.643	8557.4
1732.064	8400.4
1736.481	8201.4
1740.893	7986.4
1745.301	7746.4
1749.705	7537.4
1754.105	7361.4
1758.501	7131.4
1762.893	6983.4
1767.28	6810.4
1771.663	6655.4
1776.042	6500.4
1780.417	6427.4
1784.787	6420.4
1789.154	6507.4
1793.516	6665.4
1797.874	6816.4
1802.228	6942.4
1806.578	7035.4
1810.924	7032.4
1815.266	6999.4
1819.603	6833.4
1823.937	6730.4
1828.266	6591.4
1832.591	6566.4
1836.913	6415.4
1841.23	6322.4
1845.543	6309.4
1849.852	6272.4
1854.156	6248.4
1858.457	6239.4
1862.754	6225.4
1867.047	6238.4
1871.335	6208.4
1875.62	6198.4
1879.9	6190.4
1884.177	6152.4
1888.449	6062.4
1892.718	6039.4
1896.982	5955.4
1901.243	5888.4
1905.499	5866.4
1909.752	5858.4
1914	5861.4
1918.245	5866.4
1922.485	5919.4
1926.722	5982.4
1930.954	6068.4
1935.183	6153.4
1939.408	6185.4
1943.628	6247.4
1947.845	6264.4
1952.058	6261.4
1956.267	6234.4
1960.472	6137.4
1964.673	6059.4
1968.87	5896.4
1973.063	5838.4
1977.252	5741.4
1981.438	5710.4
1985.619	5625.4
1989.797	5602.4
1993.971	5580.4
1998.14	5501.4
2002.306	5486.4
2006.469	5459.4
2010.627	5443.4
2014.781	5409.4
2018.932	5372.4
2023.078	5313.4
2027.221	5223.4
2031.36	5157.4
2035.495	5065.4
2039.627	4998.4
2043.754	4971.4
2047.878	4931.4
2051.998	4882.4
2056.114	4847.4
2060.226	4834.4
2064.334	4851.4
2068.439	4870.4
2072.54	4931.4
2076.637	4940.4
2080.73	5001.4
2084.82	4980.4
2088.906	5015.4
2092.988	5026.4
2097.066	5026.4
2101.14	5001.4
2105.211	4962.4
2109.278	4933.4
2113.342	4888.4
2117.401	4873.4
2121.457	4853.4
2125.509	4826.4
2129.558	4818.4
2133.602	4784.4
2137.643	4741.4
2141.681	4723.4
2145.714	4711.4
2149.744	4664.4
2153.77	4609.4
2157.793	4575.4
2161.812	4493.4
2165.827	4475.4
2169.838	4404.4
2173.846	4308.4
2177.851	4227.4
2181.851	4192.4
2185.848	4134.4
2189.841	4085.4
2193.831	4017.4
2197.817	4006.4
2201.799	3968.4
2205.778	3938.4
2209.753	3941.4
2213.725	3956.4
2217.693	3927.4
2221.657	3923.4
2225.618	3918.4
2229.575	3856.4
2233.529	3870.4
2237.479	3831.4
2241.425	3761.4
2245.368	3716.4
2249.307	3658.4
2253.243	3595.4
2257.175	3565.4
2261.104	3546.4
2265.029	3494.4
2268.95	3449.4
2272.868	3403.4
2276.783	3391.4
2280.694	3351.4
2284.601	3317.4
2288.505	3282.4
2292.405	3255.4
2296.302	3235.4
2300.195	3198.4
2304.085	3150.4
2307.971	3119.4
2311.854	3049.4
2315.734	3008.4
2319.609	2970.4
2323.482	2928.4
2327.351	2882.4
2331.216	2875.4
2335.078	2874.4
2338.937	2838.4
2342.792	2824.4
2346.643	2804.4
2350.492	2807.4
2354.336	2836.4
2358.178	2832.4
2362.015	2828.4
2365.85	2844.4
2369.681	2827.4
2373.508	2822.4
2377.333	2836.4
2381.153	2813.4
2384.971	2805.4
2388.785	2789.4
2392.595	2761.4
2396.402	2758.4
2400.206	2716.4
2404.007	2685.4
2407.804	2666.4
2411.597	2666.4
2415.388	2642.4
2419.174	2607.4
2422.958	2615.4
2426.738	2586.4
2430.515	2565.4
2434.289	2526.4
2438.059	2541.4
2441.825	2480.4
2445.589	2476.4
2449.349	2464.4
2453.106	2427.4
2456.859	2381.4
2460.61	2375.4
2464.356	2363.4
2468.1	2307.4
2471.84	2291.4
2475.577	2268.4
2479.311	2261.4
2483.041	2261.4
2486.768	2238.4
2490.492	2253.4
2494.213	2222.4
2497.93	2258.4
2501.644	2204.4
2505.355	2192.4
2509.062	2183.4
2512.766	2179.4
2516.467	2166.4
2520.165	2149.4
2523.859	2146.4
2527.551	2132.4
2531.239	2114.4
2534.923	2106.4
2538.605	2113.4
2542.283	2091.4
2545.958	2080.4
2549.63	2079.4
2553.299	2078.4
2556.964	2073.4
2560.626	2060.4
2564.285	2053.4
2567.941	2050.4
2571.594	2034.4
2575.243	2033.4
2578.89	2000.4
2582.533	2025.4
2586.173	1990.4
2589.809	1977.4
2593.443	1950.4
2597.073	1940.4
2600.701	1941.4
2604.325	1901.4
2607.946	1894.4
2611.564	1869.4
2615.178	1883.4
2618.79	1854.4
2622.398	1837.4
2626.004	1825.4
2629.606	1799.4
2633.205	1766.4
2636.801	1751.4
2640.394	1727.4
2643.983	1693.4
2647.57	1673.4
2651.153	1637.4
2654.734	1606.4
2658.311	1593.4
2661.885	1561.4
2665.456	1554.4
2669.025	1529.4
2672.589	1520.4
2676.151	1528.4
2679.71	1492.4
2683.266	1477.4
2686.819	1456.4
2690.368	1392.4
2693.915	1389.4
2697.458	1354.4
2700.999	1306.4
2704.536	1293.4
2708.071	1278.4
2711.602	1228.4
2715.13	1219.4
2718.656	1194.4
2722.178	1161.4
2725.697	1134.4
2729.214	1131.4
2732.727	1144.4
2736.237	1117.4
2739.744	1115.4
2743.249	1120.4
2746.75	1129.4
2750.248	1162.4
2753.743	1136.4
2757.236	1188.4
2760.725	1197.4
2764.211	1200.4
2767.695	1202.4
2771.175	1186.4
2774.652	1181.4
2778.127	1203.4
2781.598	1164.4
2785.067	1167.4
2788.532	1170.4
2791.995	1146.4
2795.455	1135.4
2798.911	1158.4
2802.365	1173.4
2805.816	1147.4
2809.264	1161.4
2812.709	1165.4
2816.151	1148.4
2819.59	1173.4
2823.026	1144.4
2826.46	1162.4
2829.89	1179.4
2833.318	1161.4
2836.742	1166.4
2840.164	1172.4
2843.583	1173.4
2846.999	1199.4
2850.412	1202.4
2853.822	1200.4
2857.229	1203.4
2860.634	1244.4
2864.035	1251.4
2867.434	1266.4
2870.83	1298.4
2874.223	1323.4
2877.613	1338.4
2881	1359.4
2884.385	1366.4
2887.766	1342.4
2891.145	1356.4
2894.521	1340.4
2897.894	1345.4
2901.264	1339.4
2904.631	1332.4
2907.996	1332.4
2911.358	1349.4
2914.717	1350.4
2918.073	1358.4
2921.426	1361.4
2924.777	1386.4
2928.124	1417.4
2931.469	1449.4
2934.811	1472.4
2938.15	1477.4
2941.487	1460.4
2944.821	1485.4
2948.152	1484.4
2951.48	1478.4
2954.805	1454.4
2958.128	1447.4
2961.447	1444.4
2964.765	1431.4
2968.079	1443.4
2971.39	1461.4
2974.699	1472.4
2978.005	1494.4
2981.308	1518.4
2984.609	1534.4
2987.907	1548.4
2991.202	1603.4
2994.494	1644.4
2997.784	1656.4
3001.07	1690.4
3004.355	1723.4
3007.636	1742.4
3010.915	1751.4
3014.191	1754.4
3017.464	1767.4
3020.734	1800.4
3024.002	1820.4
3027.267	1814.4
3030.53	1807.4
3033.789	1839.4
3037.046	1870.4
3040.301	1883.4
3043.552	1931.4
3046.801	1945.4
3050.048	1978.4
3053.291	2035.4
3056.532	2107.4
3059.771	2160.4
3063.006	2205.4
3066.239	2285.4
3069.469	2352.4
3072.697	2389.4
3075.922	2473.4
3079.144	2511.4
3082.364	2556.4
3085.581	2643.4
3088.795	2661.4
3092.007	2729.4
3095.216	2807.4
3098.423	2843.4
3101.627	2927.4
3104.828	2978.4
3108.026	3049.4
3111.222	3111.4
3114.416	3183.4
3117.607	3245.4
3120.795	3336.4
3123.98	3403.4
3127.163	3495.4
3130.344	3561.4
3133.521	3647.4
3136.696	3716.4
3139.869	3813.4
3143.039	3861.4
3146.206	3934.4
3149.371	3950.4
3152.533	3994.4
3155.693	4029.4
3158.85	4048.4
3162.005	4054.4
3165.157	4055.4
3168.306	4064.4
3171.453	4075.4
3174.597	4119.4
3177.739	4121.4
3180.878	4131.4
3184.014	4136.4
3187.149	4126.4
3190.28	4121.4
3193.409	4112.4
3196.536	4101.4
3199.659	4133.4
3202.781	4163.4
3205.9	4146.4
3209.016	4124.4
3212.13	4115.4
3215.241	4080.4
3218.35	4059.4
3221.456	3984.4
3224.56	4002.4
3227.661	3909.4
3230.76	3867.4
3233.856	3842.4
3236.95	3805.4
3240.041	3791.4
3243.13	3723.4
3246.216	3749.4
3249.3	3717.4
3252.382	3721.4
3255.46	3706.4
3258.537	3674.4
3261.611	3679.4
3264.682	3671.4
3267.751	3661.4
3270.818	3674.4
3273.882	3629.4
3276.943	3640.4
3280.002	3592.4
3283.059	3581.4
3286.113	3550.4
3289.165	3487.4
3292.214	3446.4
3295.261	3368.4
3298.306	3307.4
3301.348	3262.4
3304.387	3213.4
3307.425	3161.4
3310.459	3107.4
3313.492	3059.4
3316.521	3039.4
3319.549	2994.4
3322.574	2952.4
3325.597	2897.4
3328.617	2930.4
3331.635	2918.4
3334.65	2882.4
3337.663	2863.4
3340.674	2809.4
3343.682	2826.4
3346.688	2811.4
3349.691	2817.4
3352.692	2790.4
3355.691	2789.4
3358.687	2756.4
3361.681	2691.4
3364.673	2678.4
3367.662	2643.4
3370.649	2606.4
3373.633	2564.4
3376.615	2542.4
3379.595	2482.4
3382.572	2489.4
3385.547	2434.4
3388.52	2365.4
3391.49	2342.4
3394.458	2314.4
3397.424	2278.4
3400.387	2247.4
3403.348	2231.4
3406.307	2203.4
3409.263	2159.4
3412.217	2162.4
3415.168	2121.4
3418.118	2084.4
3421.065	2070.4
3424.009	2049.4
3426.951	1995.4
3429.891	1984.4
3432.829	1927.4
3435.764	1880.4
3438.697	1836.4
3441.628	1792.4
3444.557	1763.4
3447.483	1681.4
3450.407	1638.4
3453.328	1593.4
3456.247	1528.4
3459.164	1476.4
3462.079	1440.4
3464.991	1375.4
3467.902	1325.4
3470.809	1284.4
3473.715	1255.4
3476.618	1191.4
3479.519	1148.4
3482.418	1126.4
3485.315	1088.4
3488.209	1048.4
3491.101	1009.4
3493.99	959.4
3496.878	938.4
3499.763	908.4
3502.646	861.4
3505.527	834.4
3508.405	790.4
3511.281	745.4
3514.155	726.4
3517.027	679.4
3519.897	652.4
3522.764	577.4
3525.629	559.4
3528.492	500.4
3531.352	456.4
3534.211	414.4
3537.067	396.4
3539.921	357.4
3542.773	310.4
3545.622	280.4
3548.469	239.4
3551.315	228.4
3554.157	207.4
3556.998	150.4
3559.837	122.4
3562.673	117.4
3565.507	82.4
3568.339	67.4
3571.169	61.4
3573.996	36.4
3576.822	12.4
3579.645	-14.6
3582.466	-29.6
3585.285	-64.6
3588.101	-73.6
3590.916	-92.6
3593.728	-118.6
3596.538	-121.6
3599.346	-150.6
3602.152	-173.6
3604.956	-186.6
3607.757	-203.6
3610.556	-227.6
3613.354	-236.6
3616.149	-245.6
3618.942	-262.6
3621.732	-264.6
3624.521	-288.6
3627.307	-289.6
3630.092	-293.6
3632.874	-306.6
3635.654	-313.6
3638.432	-320.6
3641.208	-338.6
3643.982	-349.6
3646.753	-357.6
3649.523	-370.6
3652.29	-379.6
3655.055	-382.6
3657.818	-395.6
3660.579	-399.6
3663.338	-420.6
3666.095	-423.6
3668.849	-435.6
3671.602	-441.6
3674.352	-446.6
3677.101	-458.6
3679.847	-468.6
3682.591	-472.6
3685.333	-473.6
3688.073	-478.6
3690.811	-482.6
3693.547	-491.6
3696.281	-499.6
3699.013	-498.6
3701.742	-503.6
3704.47	-512.6
3707.195	-523.6
3709.919	-518.6
3712.64	-525.6
3715.359	-522.6
3718.076	-528.6
3720.792	-528.6
3723.505	-532.6
3726.216	-545.6
3728.925	-540.6
3731.632	-546.6
3734.336	-554.6
3737.039	-557.6
3739.74	-552.6
3742.439	-555.6
3745.136	-561.6
3747.83	-569.6
3750.523	-566.6
3753.213	-552.6
3755.902	-571.6
3758.589	-572.6
3761.273	-574.6
3763.956	-572.6
3766.636	-572.6
3769.315	-578.6
3771.991	-579.6
3774.665	-584.6
3777.338	-582.6
3780.008	-582.6
3782.677	-586.6
3785.343	-588.6
3788.007	-588.6
3790.67	-583.6
3793.33	-590.6
3795.989	-598.6
3798.645	-592.6
3801.299	-597.6
3803.952	-601.6
3806.602	-603.6
3809.251	-601.6
3811.897	-601.6
3814.542	-601.6
3817.184	-597.6
3819.825	-599.6
3822.463	-596.6
3825.1	-601.6
3827.735	-600.6
3830.367	-601.6
3832.998	-605.6
3835.627	-606.6
3838.253	-610.6
3840.878	-611.6
3843.501	-611.6
3846.122	-601.6
3848.741	-609.6
3851.358	-609.6
3853.973	-616.6
3856.586	-610.6
3859.197	-612.6
3861.806	-614.6
3864.414	-617.6
3867.019	-612.6
3869.622	-612.6
3872.224	-606.6
3874.823	-600.6
3877.421	-579.6
3880.016	-571.6
3882.61	-551.6
3885.202	-557.6
3887.792	-563.6
3890.38	-589.6
3892.966	-605.6
3895.55	-610.6
3898.132	-628.6
3900.713	-633.6
3903.291	-618.6
3905.868	-622.6
3908.442	-631.6
3911.015	-631.6
3913.586	-621.6
3916.155	-624.6
3918.722	-628.6
3921.287	-627.6
3923.85	-635.6
3926.411	-629.6
3928.971	-637.6
3931.528	-629.6
3934.084	-633.6
3936.638	-628.6
3939.19	-630.6
3941.74	-627.6
3944.288	-634.6
3946.834	-625.6
3949.378	-631.6
3951.921	-630.6
3954.462	-636.6
3957	-632.6
3959.537	-627.6
3962.072	-630.6
3964.606	-628.6
3967.137	-632.6
3969.667	-631.6
3972.194	-627.6
3974.72	-628.6
3977.244	-617.6
3979.766	-621.6
3982.286	-622.6
3984.805	-615.6
3987.321	-616.6
3989.836	-620.6
3992.349	-607.6
3994.86	-612.6
3997.369	-620.6
3999.877	-613.6
4002.382	-613.6
4004.886	-611.6
4007.388	-609.6
4009.888	-619.6
4012.386	-624.6
4014.883	-614.6
4017.377	-610.6
4019.87	-609.6
4022.361	-615.6
4024.85	-616.6
4027.338	-619.6
4029.823	-617.6
4032.307	-617.6
4034.789	-616.6
4037.269	-609.6
4039.747	-617.6
4042.224	-617.6
4044.699	-620.6
4047.172	-613.6
4049.643	-619.6
4052.112	-619.6
4054.58	-620.6
4057.046	-619.6
4059.51	-624.6
4061.972	-623.6
4064.432	-624.6
4066.891	-618.6
4069.348	-623.6
4071.803	-615.6
4074.256	-617.6
4076.708	-614.6
4079.158	-620.6
4081.606	-617.6
4084.052	-621.6
4086.497	-616.6
4088.939	-611.6
4091.38	-610.6
4093.819	-612.6
4096.257	-652.6
4098.693	-651.6
4101.127	-653.6
4103.559	-649.6
4105.989	-382.6
4108.418	-348.6
4110.845	-328.6
4113.27	-300.6
4115.694	-268.6
4118.115	-217.6
4120.535	-617.6
4122.954	-619.6
4125.37	-607.6
4127.785	-625.6
4130.198	-625.6
4132.609	-617.6
4135.019	-651.6
4137.427	-654.6
4139.833	-652.6
4142.237	-650.6
