Data from 2018-2-14_conc=0_n=1_RamanShift_03.txt Node
Date: Wed Feb 14 10:26:56 IST 2018
User: aro
Spectrometer: QEPB0276
Trigger mode: 0
Integration Time (sec): 3.000000E1
Scans to average: 1
Electric dark correction enabled: true
Nonlinearity correction enabled: false
Boxcar width: 0
XAxis mode: Raman Shifts
Number of Pixels in Spectrum: 1044
>>>>>Begin Spectral Data<<<<<
160.701	-161.9
166.742	33.1
172.777	582.1
178.805	2274.1
184.826	6223.1
190.841	12862.1
196.849	20462.1
202.85	25685.1
208.845	27326.1
214.833	27000.1
220.815	26398.1
226.789	26270.1
232.758	26095.1
238.719	25887.1
244.674	25462.1
250.623	25062.1
256.565	24465.1
262.5	23891.1
268.429	23511.1
274.351	23089.1
280.267	22739.1
286.176	22542.1
292.079	22253.1
297.975	22030.1
303.865	21826.1
309.748	21629.1
315.625	21512.1
321.495	21342.1
327.359	21264.1
333.217	21159.1
339.068	21158.1
344.912	21161.1
350.751	21122.1
356.583	21104.1
362.408	21114.1
368.227	21094.1
374.04	21125.1
379.847	21205.1
385.647	21294.1
391.44	21294.1
397.228	21359.1
403.009	21524.1
408.784	21590.1
414.553	21570.1
420.315	21713.1
426.071	21700.1
431.821	21745.1
437.565	21716.1
443.302	21652.1
449.033	21667.1
454.758	21586.1
460.477	21496.1
466.189	21488.1
471.896	21387.1
477.596	21352.1
483.29	21281.1
488.978	21202.1
494.66	21193.1
500.335	20981.1
506.005	20853.1
511.668	20475.1
517.325	20287.1
522.977	20101.1
528.622	19887.1
534.261	19778.1
539.894	19691.1
545.521	19604.1
551.141	19561.1
556.756	19460.1
562.365	19391.1
567.968	19324.1
573.565	19235.1
579.155	19165.1
584.74	19078.1
590.319	18973.1
595.892	18937.1
601.459	18791.1
607.02	18776.1
612.575	18699.1
618.124	18550.1
623.667	18455.1
629.204	18394.1
634.735	18213.1
640.261	18244.1
645.781	18130.1
651.294	18027.1
656.802	18010.1
662.304	17996.1
667.8	18054.1
673.29	17994.1
678.775	17866.1
684.254	17832.1
689.726	17752.1
695.193	17735.1
700.655	17662.1
706.11	17606.1
711.56	17452.1
717.004	17458.1
722.442	17314.1
727.874	17246.1
733.301	17175.1
738.722	17218.1
744.137	17099.1
749.547	17086.1
754.951	17101.1
760.349	17148.1
765.741	17138.1
771.128	17136.1
776.509	17137.1
781.885	17189.1
787.254	17117.1
792.618	17082.1
797.977	16968.1
803.33	16867.1
808.677	16725.1
814.019	16670.1
819.355	16525.1
824.686	16489.1
830.011	16455.1
835.33	16461.1
840.644	16493.1
845.952	16475.1
851.255	16516.1
856.552	16535.1
861.844	16535.1
867.13	16456.1
872.41	16424.1
877.686	16307.1
882.955	16160.1
888.219	16048.1
893.478	15915.1
898.731	15681.1
903.979	15509.1
909.221	15383.1
914.458	15391.1
919.69	15344.1
924.916	15423.1
930.136	15435.1
935.351	15426.1
940.561	15448.1
945.766	15360.1
950.965	15324.1
956.158	15184.1
961.347	15095.1
966.529	14890.1
971.707	14672.1
976.879	14510.1
982.046	14422.1
987.208	14348.1
992.364	14391.1
997.515	14434.1
1002.66	14589.1
1007.801	14712.1
1012.936	14844.1
1018.066	14860.1
1023.19	14830.1
1028.309	14867.1
1033.423	14785.1
1038.532	14735.1
1043.636	14623.1
1048.734	14444.1
1053.827	14232.1
1058.915	14082.1
1063.998	13986.1
1069.075	13962.1
1074.147	13974.1
1079.214	14011.1
1084.276	14105.1
1089.333	14209.1
1094.385	14282.1
1099.431	14297.1
1104.472	14286.1
1109.509	14219.1
1114.54	14065.1
1119.565	13826.1
1124.586	13711.1
1129.602	13545.1
1134.613	13465.1
1139.618	13379.1
1144.619	13353.1
1149.614	13344.1
1154.604	13387.1
1159.589	13445.1
1164.57	13445.1
1169.545	13493.1
1174.515	13458.1
1179.48	13405.1
1184.44	13276.1
1189.395	13220.1
1194.345	13100.1
1199.29	13071.1
1204.23	13001.1
1209.165	13118.1
1214.095	13164.1
1219.021	13203.1
1223.941	13317.1
1228.856	13394.1
1233.766	13399.1
1238.672	13420.1
1243.572	13433.1
1248.467	13307.1
1253.358	13179.1
1258.244	13002.1
1263.124	12854.1
1268	12614.1
1272.871	12429.1
1277.737	12396.1
1282.599	12323.1
1287.455	12307.1
1292.306	12334.1
1297.153	12347.1
1301.995	12421.1
1306.832	12487.1
1311.664	12438.1
1316.491	12435.1
1321.314	12326.1
1326.132	12126.1
1330.945	11886.1
1335.753	11601.1
1340.556	11267.1
1345.354	11045.1
1350.148	10887.1
1354.937	10907.1
1359.722	10831.1
1364.501	10905.1
1369.276	11036.1
1374.046	11163.1
1378.811	11298.1
1383.572	11430.1
1388.327	11434.1
1393.079	11357.1
1397.825	11304.1
1402.567	11116.1
1407.304	10951.1
1412.036	10882.1
1416.764	10791.1
1421.487	10701.1
1426.205	10693.1
1430.919	10592.1
1435.628	10615.1
1440.333	10600.1
1445.032	10649.1
1449.727	10702.1
1454.418	10694.1
1459.104	10569.1
1463.785	10368.1
1468.462	10133.1
1473.134	9929.1
1477.802	9734.1
1482.465	9551.1
1487.123	9441.1
1491.777	9424.1
1496.426	9500.1
1501.071	9594.1
1505.711	9737.1
1510.347	9934.1
1514.978	10116.1
1519.604	10213.1
1524.226	10304.1
1528.844	10328.1
1533.457	10323.1
1538.065	10267.1
1542.669	10188.1
1547.269	10141.1
1551.864	10042.1
1556.454	10025.1
1561.041	10050.1
1565.622	9994.1
1570.199	10048.1
1574.772	10088.1
1579.34	10149.1
1583.904	10202.1
1588.464	10257.1
1593.019	10233.1
1597.569	10206.1
1602.115	10175.1
1606.657	10087.1
1611.195	10059.1
1615.728	9948.1
1620.256	9922.1
1624.78	9917.1
1629.3	9942.1
1633.816	9970.1
1638.327	10006.1
1642.834	10072.1
1647.336	10064.1
1651.834	10154.1
1656.328	10096.1
1660.817	10099.1
1665.302	9968.1
1669.783	9755.1
1674.259	9542.1
1678.732	9262.1
1683.199	8922.1
1687.663	8657.1
1692.122	8412.1
1696.577	8294.1
1701.028	8267.1
1705.474	8328.1
1709.917	8416.1
1714.355	8445.1
1718.788	8326.1
1723.218	8258.1
1727.643	8082.1
1732.064	7930.1
1736.481	7779.1
1740.893	7543.1
1745.301	7369.1
1749.705	7177.1
1754.105	6947.1
1758.501	6733.1
1762.893	6556.1
1767.28	6378.1
1771.663	6218.1
1776.042	6148.1
1780.417	6103.1
1784.787	6111.1
1789.154	6180.1
1793.516	6305.1
1797.874	6387.1
1802.228	6528.1
1806.578	6584.1
1810.924	6576.1
1815.266	6505.1
1819.603	6403.1
1823.937	6315.1
1828.266	6182.1
1832.591	6110.1
1836.913	6045.1
1841.23	5963.1
1845.543	5948.1
1849.852	5910.1
1854.156	5884.1
1858.457	5883.1
1862.754	5864.1
1867.047	5841.1
1871.335	5832.1
1875.62	5830.1
1879.9	5798.1
1884.177	5767.1
1888.449	5724.1
1892.718	5651.1
1896.982	5577.1
1901.243	5577.1
1905.499	5488.1
1909.752	5490.1
1914	5499.1
1918.245	5512.1
1922.485	5589.1
1926.722	5637.1
1930.954	5743.1
1935.183	5786.1
1939.408	5825.1
1943.628	5879.1
1947.845	5887.1
1952.058	5872.1
1956.267	5794.1
1960.472	5737.1
1964.673	5653.1
1968.87	5551.1
1973.063	5447.1
1977.252	5413.1
1981.438	5353.1
1985.619	5279.1
1989.797	5221.1
1993.971	5210.1
1998.14	5158.1
2002.306	5159.1
2006.469	5136.1
2010.627	5139.1
2014.781	5077.1
2018.932	5049.1
2023.078	4996.1
2027.221	4958.1
2031.36	4829.1
2035.495	4783.1
2039.627	4705.1
2043.754	4663.1
2047.878	4622.1
2051.998	4568.1
2056.114	4554.1
2060.226	4550.1
2064.334	4597.1
2068.439	4583.1
2072.54	4593.1
2076.637	4628.1
2080.73	4671.1
2084.82	4712.1
2088.906	4730.1
2092.988	4709.1
2097.066	4715.1
2101.14	4694.1
2105.211	4683.1
2109.278	4672.1
2113.342	4607.1
2117.401	4572.1
2121.457	4560.1
2125.509	4526.1
2129.558	4544.1
2133.602	4471.1
2137.643	4439.1
2141.681	4428.1
2145.714	4415.1
2149.744	4369.1
2153.77	4321.1
2157.793	4279.1
2161.812	4261.1
2165.827	4193.1
2169.838	4124.1
2173.846	4046.1
2177.851	3971.1
2181.851	3929.1
2185.848	3885.1
2189.841	3849.1
2193.831	3771.1
2197.817	3756.1
2201.799	3773.1
2205.778	3730.1
2209.753	3725.1
2213.725	3704.1
2217.693	3706.1
2221.657	3698.1
2225.618	3679.1
2229.575	3662.1
2233.529	3638.1
2237.479	3595.1
2241.425	3532.1
2245.368	3488.1
2249.307	3453.1
2253.243	3415.1
2257.175	3348.1
2261.104	3301.1
2265.029	3292.1
2268.95	3227.1
2272.868	3183.1
2276.783	3176.1
2280.694	3123.1
2284.601	3113.1
2288.505	3067.1
2292.405	3039.1
2296.302	3008.1
2300.195	3003.1
2304.085	2956.1
2307.971	2884.1
2311.854	2856.1
2315.734	2806.1
2319.609	2782.1
2323.482	2721.1
2327.351	2713.1
2331.216	2712.1
2335.078	2702.1
2338.937	2662.1
2342.792	2652.1
2346.643	2652.1
2350.492	2636.1
2354.336	2643.1
2358.178	2638.1
2362.015	2682.1
2365.85	2667.1
2369.681	2668.1
2373.508	2703.1
2377.333	2668.1
2381.153	2659.1
2384.971	2642.1
2388.785	2620.1
2392.595	2593.1
2396.402	2575.1
2400.206	2563.1
2404.007	2550.1
2407.804	2504.1
2411.597	2514.1
2415.388	2495.1
2419.174	2464.1
2422.958	2475.1
2426.738	2415.1
2430.515	2427.1
2434.289	2414.1
2438.059	2371.1
2441.825	2346.1
2445.589	2328.1
2449.349	2314.1
2453.106	2289.1
2456.859	2249.1
2460.61	2239.1
2464.356	2209.1
2468.1	2175.1
2471.84	2159.1
2475.577	2125.1
2479.311	2127.1
2483.041	2101.1
2486.768	2088.1
2490.492	2091.1
2494.213	2088.1
2497.93	2064.1
2501.644	2092.1
2505.355	2069.1
2509.062	2051.1
2512.766	2045.1
2516.467	2041.1
2520.165	2003.1
2523.859	1986.1
2527.551	1984.1
2531.239	1952.1
2534.923	1948.1
2538.605	1965.1
2542.283	1951.1
2545.958	1927.1
2549.63	1937.1
2553.299	1936.1
2556.964	1930.1
2560.626	1921.1
2564.285	1933.1
2567.941	1899.1
2571.594	1905.1
2575.243	1899.1
2578.89	1881.1
2582.533	1847.1
2586.173	1866.1
2589.809	1826.1
2593.443	1826.1
2597.073	1787.1
2600.701	1783.1
2604.325	1775.1
2607.946	1751.1
2611.564	1725.1
2615.178	1740.1
2618.79	1727.1
2622.398	1725.1
2626.004	1693.1
2629.606	1676.1
2633.205	1658.1
2636.801	1614.1
2640.394	1605.1
2643.983	1582.1
2647.57	1559.1
2651.153	1518.1
2654.734	1482.1
2658.311	1474.1
2661.885	1440.1
2665.456	1453.1
2669.025	1432.1
2672.589	1410.1
2676.151	1386.1
2679.71	1347.1
2683.266	1348.1
2686.819	1335.1
2690.368	1293.1
2693.915	1286.1
2697.458	1266.1
2700.999	1210.1
2704.536	1183.1
2708.071	1159.1
2711.602	1149.1
2715.13	1102.1
2718.656	1087.1
2722.178	1081.1
2725.697	1061.1
2729.214	1042.1
2732.727	1035.1
2736.237	1025.1
2739.744	1044.1
2743.249	1037.1
2746.75	1047.1
2750.248	1066.1
2753.743	1078.1
2757.236	1084.1
2760.725	1088.1
2764.211	1082.1
2767.695	1100.1
2771.175	1093.1
2774.652	1092.1
2778.127	1083.1
2781.598	1090.1
2785.067	1074.1
2788.532	1049.1
2791.995	1054.1
2795.455	1037.1
2798.911	1067.1
2802.365	1068.1
2805.816	1060.1
2809.264	1079.1
2812.709	1051.1
2816.151	1071.1
2819.59	1060.1
2823.026	1060.1
2826.46	1070.1
2829.89	1063.1
2833.318	1078.1
2836.742	1094.1
2840.164	1080.1
2843.583	1092.1
2846.999	1103.1
2850.412	1111.1
2853.822	1130.1
2857.229	1145.1
2860.634	1166.1
2864.035	1181.1
2867.434	1201.1
2870.83	1226.1
2874.223	1233.1
2877.613	1261.1
2881	1281.1
2884.385	1281.1
2887.766	1284.1
2891.145	1277.1
2894.521	1273.1
2897.894	1278.1
2901.264	1246.1
2904.631	1275.1
2907.996	1269.1
2911.358	1293.1
2914.717	1285.1
2918.073	1308.1
2921.426	1320.1
2924.777	1320.1
2928.124	1355.1
2931.469	1365.1
2934.811	1392.1
2938.15	1430.1
2941.487	1419.1
2944.821	1430.1
2948.152	1426.1
2951.48	1416.1
2954.805	1417.1
2958.128	1397.1
2961.447	1407.1
2964.765	1388.1
2968.079	1380.1
2971.39	1412.1
2974.699	1417.1
2978.005	1437.1
2981.308	1465.1
2984.609	1494.1
2987.907	1521.1
2991.202	1554.1
2994.494	1581.1
2997.784	1612.1
3001.07	1645.1
3004.355	1664.1
3007.636	1690.1
3010.915	1721.1
3014.191	1730.1
3017.464	1736.1
3020.734	1746.1
3024.002	1753.1
3027.267	1751.1
3030.53	1788.1
3033.789	1803.1
3037.046	1811.1
3040.301	1859.1
3043.552	1890.1
3046.801	1917.1
3050.048	1953.1
3053.291	2025.1
3056.532	2076.1
3059.771	2139.1
3063.006	2198.1
3066.239	2268.1
3069.469	2333.1
3072.697	2391.1
3075.922	2443.1
3079.144	2506.1
3082.364	2551.1
3085.581	2635.1
3088.795	2680.1
3092.007	2747.1
3095.216	2776.1
3098.423	2843.1
3101.627	2920.1
3104.828	2960.1
3108.026	3028.1
3111.222	3114.1
3114.416	3183.1
3117.607	3226.1
3120.795	3322.1
3123.98	3391.1
3127.163	3478.1
3130.344	3541.1
3133.521	3636.1
3136.696	3730.1
3139.869	3795.1
3143.039	3884.1
3146.206	3929.1
3149.371	3929.1
3152.533	3968.1
3155.693	4020.1
3158.85	4038.1
3162.005	4068.1
3165.157	4061.1
3168.306	4078.1
3171.453	4067.1
3174.597	4126.1
3177.739	4091.1
3180.878	4108.1
3184.014	4113.1
3187.149	4122.1
3190.28	4122.1
3193.409	4119.1
3196.536	4129.1
3199.659	4112.1
3202.781	4138.1
3205.9	4140.1
3209.016	4133.1
3212.13	4104.1
3215.241	4080.1
3218.35	4053.1
3221.456	3990.1
3224.56	3963.1
3227.661	3931.1
3230.76	3868.1
3233.856	3834.1
3236.95	3804.1
3240.041	3789.1
3243.13	3748.1
3246.216	3707.1
3249.3	3699.1
3252.382	3697.1
3255.46	3668.1
3258.537	3659.1
3261.611	3667.1
3264.682	3654.1
3267.751	3639.1
3270.818	3632.1
3273.882	3634.1
3276.943	3629.1
3280.002	3594.1
3283.059	3539.1
3286.113	3484.1
3289.165	3452.1
3292.214	3408.1
3295.261	3368.1
3298.306	3274.1
3301.348	3248.1
3304.387	3188.1
3307.425	3122.1
3310.459	3076.1
3313.492	3051.1
3316.521	3014.1
3319.549	2959.1
3322.574	2940.1
3325.597	2913.1
3328.617	2881.1
3331.635	2882.1
3334.65	2876.1
3337.663	2847.1
3340.674	2820.1
3343.682	2809.1
3346.688	2810.1
3349.691	2803.1
3352.692	2747.1
3355.691	2765.1
3358.687	2743.1
3361.681	2689.1
3364.673	2636.1
3367.662	2625.1
3370.649	2582.1
3373.633	2545.1
3376.615	2501.1
3379.595	2469.1
3382.572	2430.1
3385.547	2413.1
3388.52	2355.1
3391.49	2332.1
3394.458	2302.1
3397.424	2255.1
3400.387	2239.1
3403.348	2209.1
3406.307	2183.1
3409.263	2146.1
3412.217	2109.1
3415.168	2098.1
3418.118	2063.1
3421.065	2067.1
3424.009	2032.1
3426.951	1994.1
3429.891	1943.1
3432.829	1911.1
3435.764	1862.1
3438.697	1823.1
3441.628	1784.1
3444.557	1721.1
3447.483	1652.1
3450.407	1590.1
3453.328	1575.1
3456.247	1511.1
3459.164	1436.1
3462.079	1401.1
3464.991	1363.1
3467.902	1305.1
3470.809	1247.1
3473.715	1212.1
3476.618	1166.1
3479.519	1109.1
3482.418	1088.1
3485.315	1046.1
3488.209	1000.1
3491.101	987.1
3493.99	943.1
3496.878	897.1
3499.763	850.1
3502.646	841.1
3505.527	794.1
3508.405	753.1
3511.281	698.1
3514.155	675.1
3517.027	637.1
3519.897	595.1
3522.764	558.1
3525.629	526.1
3528.492	473.1
3531.352	429.1
3534.211	378.1
3537.067	355.1
3539.921	317.1
3542.773	273.1
3545.622	252.1
3548.469	209.1
3551.315	188.1
3554.157	160.1
3556.998	121.1
3559.837	112.1
3562.673	84.1
3565.507	67.1
3568.339	34.1
3571.169	22.1
3573.996	3.1
3576.822	-11.9
3579.645	-40.9
3582.466	-61.9
3585.285	-80.9
3588.101	-109.9
3590.916	-130.9
3593.728	-150.9
3596.538	-167.9
3599.346	-183.9
3602.152	-202.9
3604.956	-213.9
3607.757	-221.9
3610.556	-241.9
3613.354	-263.9
3616.149	-265.9
3618.942	-288.9
3621.732	-304.9
3624.521	-302.9
3627.307	-331.9
3630.092	-330.9
3632.874	-337.9
3635.654	-346.9
3638.432	-355.9
3641.208	-362.9
3643.982	-385.9
3646.753	-381.9
3649.523	-400.9
3652.29	-406.9
3655.055	-408.9
3657.818	-427.9
3660.579	-438.9
3663.338	-455.9
3666.095	-457.9
3668.849	-466.9
3671.602	-473.9
3674.352	-486.9
3677.101	-480.9
3679.847	-494.9
3682.591	-505.9
3685.333	-506.9
3688.073	-511.9
3690.811	-519.9
3693.547	-521.9
3696.281	-530.9
3699.013	-533.9
3701.742	-539.9
3704.47	-544.9
3707.195	-551.9
3709.919	-545.9
3712.64	-555.9
3715.359	-556.9
3718.076	-554.9
3720.792	-566.9
3723.505	-567.9
3726.216	-580.9
3728.925	-572.9
3731.632	-580.9
3734.336	-576.9
3737.039	-588.9
3739.74	-580.9
3742.439	-583.9
3745.136	-585.9
3747.83	-593.9
3750.523	-595.9
3753.213	-580.9
3755.902	-602.9
3758.589	-604.9
3761.273	-604.9
3763.956	-609.9
3766.636	-609.9
3769.315	-608.9
3771.991	-612.9
3774.665	-615.9
3777.338	-609.9
3780.008	-616.9
3782.677	-620.9
3785.343	-613.9
3788.007	-613.9
3790.67	-621.9
3793.33	-626.9
3795.989	-628.9
3798.645	-623.9
3801.299	-625.9
3803.952	-630.9
3806.602	-635.9
3809.251	-628.9
3811.897	-629.9
3814.542	-628.9
3817.184	-627.9
3819.825	-628.9
3822.463	-631.9
3825.1	-637.9
3827.735	-635.9
3830.367	-632.9
3832.998	-643.9
3835.627	-642.9
3838.253	-639.9
3840.878	-646.9
3843.501	-638.9
3846.122	-633.9
3848.741	-638.9
3851.358	-640.9
3853.973	-641.9
3856.586	-643.9
3859.197	-652.9
3861.806	-649.9
3864.414	-642.9
3867.019	-640.9
3869.622	-641.9
3872.224	-636.9
3874.823	-618.9
3877.421	-606.9
3880.016	-593.9
3882.61	-577.9
3885.202	-579.9
3887.792	-592.9
3890.38	-612.9
3892.966	-631.9
3895.55	-646.9
3898.132	-660.9
3900.713	-654.9
3903.291	-656.9
3905.868	-655.9
3908.442	-655.9
3911.015	-657.9
3913.586	-649.9
3916.155	-654.9
3918.722	-659.9
3921.287	-657.9
3923.85	-664.9
3926.411	-665.9
3928.971	-666.9
3931.528	-659.9
3934.084	-664.9
3936.638	-656.9
3939.19	-657.9
3941.74	-658.9
3944.288	-662.9
3946.834	-654.9
3949.378	-664.9
3951.921	-657.9
3954.462	-666.9
3957	-654.9
3959.537	-658.9
3962.072	-659.9
3964.606	-664.9
3967.137	-659.9
3969.667	-663.9
3972.194	-656.9
3974.72	-659.9
3977.244	-652.9
3979.766	-649.9
3982.286	-650.9
3984.805	-649.9
3987.321	-643.9
3989.836	-651.9
3992.349	-642.9
3994.86	-642.9
3997.369	-653.9
3999.877	-644.9
4002.382	-645.9
4004.886	-644.9
4007.388	-649.9
4009.888	-645.9
4012.386	-648.9
4014.883	-645.9
4017.377	-641.9
4019.87	-643.9
4022.361	-647.9
4024.85	-642.9
4027.338	-649.9
4029.823	-650.9
4032.307	-649.9
4034.789	-648.9
4037.269	-641.9
4039.747	-650.9
4042.224	-654.9
4044.699	-652.9
4047.172	-650.9
4049.643	-648.9
4052.112	-658.9
4054.58	-648.9
4057.046	-651.9
4059.51	-650.9
4061.972	-654.9
4064.432	-651.9
4066.891	-651.9
4069.348	-645.9
4071.803	-646.9
4074.256	-655.9
4076.708	-652.9
4079.158	-646.9
4081.606	-651.9
4084.052	-652.9
4086.497	-652.9
4088.939	-644.9
4091.38	-648.9
4093.819	-644.9
4096.257	-685.9
4098.693	-679.9
4101.127	-684.9
4103.559	-680.9
4105.989	-401.9
4108.418	-372.9
4110.845	-352.9
4113.27	-326.9
4115.694	-296.9
4118.115	-244.9
4120.535	-649.9
4122.954	-648.9
4125.37	-643.9
4127.785	-647.9
4130.198	-652.9
4132.609	-656.9
4135.019	-682.9
4137.427	-682.9
4139.833	-681.9
4142.237	-679.9
