Data from 2018-2-14_conc=0_n=8_RamanShift_05.txt Node
Date: Wed Feb 14 10:51:56 IST 2018
User: aro
Spectrometer: QEPB0276
Trigger mode: 0
Integration Time (sec): 3.000000E1
Scans to average: 1
Electric dark correction enabled: true
Nonlinearity correction enabled: false
Boxcar width: 0
XAxis mode: Raman Shifts
Number of Pixels in Spectrum: 1044
>>>>>Begin Spectral Data<<<<<
160.701	-139.9
166.742	41.1
172.777	577.1
178.805	2249.1
184.826	6246.1
190.841	12960.1
196.849	20789.1
202.85	26349.1
208.845	28198.1
214.833	27886.1
220.815	27458.1
226.789	27294.1
232.758	27209.1
238.719	27083.1
244.674	26708.1
250.623	26221.1
256.565	25721.1
262.5	25190.1
268.429	24773.1
274.351	24320.1
280.267	24095.1
286.176	23760.1
292.079	23593.1
297.975	23413.1
303.865	23222.1
309.748	23022.1
315.625	22962.1
321.495	22794.1
327.359	22753.1
333.217	22662.1
339.068	22687.1
344.912	22678.1
350.751	22629.1
356.583	22597.1
362.408	22532.1
368.227	22548.1
374.04	22602.1
379.847	22632.1
385.647	22713.1
391.44	22801.1
397.228	22885.1
403.009	22963.1
408.784	23094.1
414.553	23139.1
420.315	23184.1
426.071	23248.1
431.821	23204.1
437.565	23203.1
443.302	23108.1
449.033	23130.1
454.758	23075.1
460.477	22964.1
466.189	22934.1
471.896	22878.1
477.596	22851.1
483.29	22807.1
488.978	22752.1
494.66	22628.1
500.335	22535.1
506.005	22358.1
511.668	22112.1
517.325	21829.1
522.977	21635.1
528.622	21577.1
534.261	21351.1
539.894	21298.1
545.521	21172.1
551.141	21106.1
556.756	21041.1
562.365	20943.1
567.968	20915.1
573.565	20864.1
579.155	20729.1
584.74	20680.1
590.319	20640.1
595.892	20516.1
601.459	20416.1
607.02	20406.1
612.575	20222.1
618.124	20130.1
623.667	20008.1
629.204	19925.1
634.735	19808.1
640.261	19692.1
645.781	19686.1
651.294	19642.1
656.802	19618.1
662.304	19587.1
667.8	19603.1
673.29	19542.1
678.775	19472.1
684.254	19403.1
689.726	19309.1
695.193	19273.1
700.655	19208.1
706.11	19096.1
711.56	19022.1
717.004	18957.1
722.442	18857.1
727.874	18762.1
733.301	18692.1
738.722	18607.1
744.137	18605.1
749.547	18619.1
754.951	18620.1
760.349	18623.1
765.741	18592.1
771.128	18620.1
776.509	18582.1
781.885	18611.1
787.254	18658.1
792.618	18551.1
797.977	18361.1
803.33	18263.1
808.677	18186.1
814.019	18037.1
819.355	18028.1
824.686	17932.1
830.011	17864.1
835.33	17904.1
840.644	17864.1
845.952	17900.1
851.255	17954.1
856.552	17938.1
861.844	17939.1
867.13	17822.1
872.41	17840.1
877.686	17791.1
882.955	17577.1
888.219	17449.1
893.478	17315.1
898.731	17053.1
903.979	16895.1
909.221	16780.1
914.458	16688.1
919.69	16706.1
924.916	16733.1
930.136	16774.1
935.351	16870.1
940.561	16874.1
945.766	16820.1
950.965	16718.1
956.158	16588.1
961.347	16394.1
966.529	16225.1
971.707	16061.1
976.879	15914.1
982.046	15712.1
987.208	15716.1
992.364	15690.1
997.515	15749.1
1002.66	15862.1
1007.801	16074.1
1012.936	16197.1
1018.066	16222.1
1023.19	16199.1
1028.309	16182.1
1033.423	16149.1
1038.532	16053.1
1043.636	15949.1
1048.734	15757.1
1053.827	15517.1
1058.915	15384.1
1063.998	15247.1
1069.075	15245.1
1074.147	15193.1
1079.214	15283.1
1084.276	15392.1
1089.333	15478.1
1094.385	15568.1
1099.431	15608.1
1104.472	15549.1
1109.509	15499.1
1114.54	15364.1
1119.565	15145.1
1124.586	14929.1
1129.602	14765.1
1134.613	14730.1
1139.618	14595.1
1144.619	14617.1
1149.614	14622.1
1154.604	14628.1
1159.589	14678.1
1164.57	14695.1
1169.545	14762.1
1174.515	14691.1
1179.48	14605.1
1184.44	14501.1
1189.395	14389.1
1194.345	14310.1
1199.29	14223.1
1204.23	14238.1
1209.165	14261.1
1214.095	14321.1
1219.021	14428.1
1223.941	14490.1
1228.856	14600.1
1233.766	14633.1
1238.672	14636.1
1243.572	14641.1
1248.467	14554.1
1253.358	14383.1
1258.244	14156.1
1263.124	13932.1
1268	13749.1
1272.871	13621.1
1277.737	13530.1
1282.599	13402.1
1287.455	13420.1
1292.306	13476.1
1297.153	13488.1
1301.995	13540.1
1306.832	13599.1
1311.664	13597.1
1316.491	13566.1
1321.314	13452.1
1326.132	13282.1
1330.945	12942.1
1335.753	12673.1
1340.556	12341.1
1345.354	12114.1
1350.148	11906.1
1354.937	11816.1
1359.722	11843.1
1364.501	11920.1
1369.276	12007.1
1374.046	12222.1
1378.811	12434.1
1383.572	12544.1
1388.327	12642.1
1393.079	12597.1
1397.825	12360.1
1402.567	12147.1
1407.304	12014.1
1412.036	11865.1
1416.764	11801.1
1421.487	11741.1
1426.205	11607.1
1430.919	11619.1
1435.628	11619.1
1440.333	11640.1
1445.032	11625.1
1449.727	11659.1
1454.418	11651.1
1459.104	11548.1
1463.785	11309.1
1468.462	11089.1
1473.134	10881.1
1477.802	10686.1
1482.465	10561.1
1487.123	10436.1
1491.777	10422.1
1496.426	10459.1
1501.071	10585.1
1505.711	10749.1
1510.347	10979.1
1514.978	11188.1
1519.604	11260.1
1524.226	11405.1
1528.844	11454.1
1533.457	11395.1
1538.065	11373.1
1542.669	11225.1
1547.269	11116.1
1551.864	11079.1
1556.454	11011.1
1561.041	10965.1
1565.622	10980.1
1570.199	10993.1
1574.772	11043.1
1579.34	11076.1
1583.904	11165.1
1588.464	11233.1
1593.019	11176.1
1597.569	11114.1
1602.115	11062.1
1606.657	10997.1
1611.195	10956.1
1615.728	10808.1
1620.256	10770.1
1624.78	10761.1
1629.3	10800.1
1633.816	10811.1
1638.327	10914.1
1642.834	10933.1
1647.336	10970.1
1651.834	10985.1
1656.328	10969.1
1660.817	10940.1
1665.302	10835.1
1669.783	10660.1
1674.259	10464.1
1678.732	10139.1
1683.199	9827.1
1687.663	9492.1
1692.122	9275.1
1696.577	9110.1
1701.028	9118.1
1705.474	9205.1
1709.917	9309.1
1714.355	9368.1
1718.788	9270.1
1723.218	9137.1
1727.643	8975.1
1732.064	8758.1
1736.481	8626.1
1740.893	8394.1
1745.301	8157.1
1749.705	7911.1
1754.105	7707.1
1758.501	7495.1
1762.893	7297.1
1767.28	7165.1
1771.663	6986.1
1776.042	6872.1
1780.417	6848.1
1784.787	6861.1
1789.154	6917.1
1793.516	7042.1
1797.874	7222.1
1802.228	7336.1
1806.578	7411.1
1810.924	7396.1
1815.266	7330.1
1819.603	7293.1
1823.937	7103.1
1828.266	6989.1
1832.591	6882.1
1836.913	6774.1
1841.23	6716.1
1845.543	6656.1
1849.852	6586.1
1854.156	6590.1
1858.457	6592.1
1862.754	6566.1
1867.047	6568.1
1871.335	6603.1
1875.62	6520.1
1879.9	6536.1
1884.177	6474.1
1888.449	6417.1
1892.718	6374.1
1896.982	6303.1
1901.243	6286.1
1905.499	6208.1
1909.752	6181.1
1914	6187.1
1918.245	6224.1
1922.485	6309.1
1926.722	6372.1
1930.954	6485.1
1935.183	6516.1
1939.408	6588.1
1943.628	6612.1
1947.845	6619.1
1952.058	6571.1
1956.267	6548.1
1960.472	6425.1
1964.673	6351.1
1968.87	6233.1
1973.063	6142.1
1977.252	6049.1
1981.438	5998.1
1985.619	5953.1
1989.797	5853.1
1993.971	5828.1
1998.14	5815.1
2002.306	5763.1
2006.469	5776.1
2010.627	5742.1
2014.781	5690.1
2018.932	5624.1
2023.078	5586.1
2027.221	5520.1
2031.36	5427.1
2035.495	5348.1
2039.627	5273.1
2043.754	5212.1
2047.878	5143.1
2051.998	5109.1
2056.114	5116.1
2060.226	5099.1
2064.334	5147.1
2068.439	5153.1
2072.54	5179.1
2076.637	5192.1
2080.73	5252.1
2084.82	5269.1
2088.906	5309.1
2092.988	5280.1
2097.066	5241.1
2101.14	5262.1
2105.211	5216.1
2109.278	5177.1
2113.342	5137.1
2117.401	5080.1
2121.457	5104.1
2125.509	5058.1
2129.558	5025.1
2133.602	4989.1
2137.643	4942.1
2141.681	4948.1
2145.714	4901.1
2149.744	4833.1
2153.77	4825.1
2157.793	4787.1
2161.812	4744.1
2165.827	4635.1
2169.838	4586.1
2173.846	4505.1
2177.851	4441.1
2181.851	4378.1
2185.848	4318.1
2189.841	4264.1
2193.831	4235.1
2197.817	4166.1
2201.799	4178.1
2205.778	4141.1
2209.753	4119.1
2213.725	4131.1
2217.693	4097.1
2221.657	4114.1
2225.618	4117.1
2229.575	4029.1
2233.529	3991.1
2237.479	3963.1
2241.425	3938.1
2245.368	3865.1
2249.307	3812.1
2253.243	3769.1
2257.175	3727.1
2261.104	3681.1
2265.029	3653.1
2268.95	3565.1
2272.868	3547.1
2276.783	3525.1
2280.694	3482.1
2284.601	3479.1
2288.505	3429.1
2292.405	3401.1
2296.302	3333.1
2300.195	3331.1
2304.085	3295.1
2307.971	3221.1
2311.854	3182.1
2315.734	3123.1
2319.609	3109.1
2323.482	3056.1
2327.351	3023.1
2331.216	2979.1
2335.078	2964.1
2338.937	2938.1
2342.792	2918.1
2346.643	2938.1
2350.492	2923.1
2354.336	2912.1
2358.178	2937.1
2362.015	2950.1
2365.85	2938.1
2369.681	2945.1
2373.508	2947.1
2377.333	2946.1
2381.153	2942.1
2384.971	2895.1
2388.785	2878.1
2392.595	2848.1
2396.402	2841.1
2400.206	2795.1
2404.007	2783.1
2407.804	2772.1
2411.597	2748.1
2415.388	2760.1
2419.174	2705.1
2422.958	2693.1
2426.738	2668.1
2430.515	2666.1
2434.289	2654.1
2438.059	2637.1
2441.825	2596.1
2445.589	2569.1
2449.349	2544.1
2453.106	2517.1
2456.859	2486.1
2460.61	2464.1
2464.356	2430.1
2468.1	2410.1
2471.84	2369.1
2475.577	2366.1
2479.311	2348.1
2483.041	2321.1
2486.768	2341.1
2490.492	2319.1
2494.213	2305.1
2497.93	2281.1
2501.644	2292.1
2505.355	2256.1
2509.062	2272.1
2512.766	2240.1
2516.467	2234.1
2520.165	2207.1
2523.859	2201.1
2527.551	2186.1
2531.239	2188.1
2534.923	2171.1
2538.605	2158.1
2542.283	2190.1
2545.958	2148.1
2549.63	2184.1
2553.299	2155.1
2556.964	2131.1
2560.626	2151.1
2564.285	2106.1
2567.941	2142.1
2571.594	2102.1
2575.243	2100.1
2578.89	2061.1
2582.533	2064.1
2586.173	2049.1
2589.809	2036.1
2593.443	1997.1
2597.073	2004.1
2600.701	1983.1
2604.325	1958.1
2607.946	1934.1
2611.564	1936.1
2615.178	1933.1
2618.79	1902.1
2622.398	1890.1
2626.004	1860.1
2629.606	1833.1
2633.205	1817.1
2636.801	1800.1
2640.394	1788.1
2643.983	1744.1
2647.57	1721.1
2651.153	1694.1
2654.734	1656.1
2658.311	1642.1
2661.885	1593.1
2665.456	1598.1
2669.025	1586.1
2672.589	1545.1
2676.151	1537.1
2679.71	1530.1
2683.266	1485.1
2686.819	1487.1
2690.368	1432.1
2693.915	1418.1
2697.458	1380.1
2700.999	1350.1
2704.536	1327.1
2708.071	1286.1
2711.602	1298.1
2715.13	1233.1
2718.656	1205.1
2722.178	1198.1
2725.697	1176.1
2729.214	1156.1
2732.727	1165.1
2736.237	1159.1
2739.744	1137.1
2743.249	1162.1
2746.75	1169.1
2750.248	1186.1
2753.743	1191.1
2757.236	1194.1
2760.725	1209.1
2764.211	1214.1
2767.695	1227.1
2771.175	1227.1
2774.652	1199.1
2778.127	1223.1
2781.598	1192.1
2785.067	1193.1
2788.532	1206.1
2791.995	1203.1
2795.455	1189.1
2798.911	1166.1
2802.365	1197.1
2805.816	1171.1
2809.264	1170.1
2812.709	1174.1
2816.151	1179.1
2819.59	1178.1
2823.026	1168.1
2826.46	1178.1
2829.89	1172.1
2833.318	1185.1
2836.742	1185.1
2840.164	1196.1
2843.583	1182.1
2846.999	1224.1
2850.412	1214.1
2853.822	1217.1
2857.229	1219.1
2860.634	1255.1
2864.035	1268.1
2867.434	1293.1
2870.83	1301.1
2874.223	1320.1
2877.613	1341.1
2881	1351.1
2884.385	1380.1
2887.766	1357.1
2891.145	1345.1
2894.521	1341.1
2897.894	1362.1
2901.264	1350.1
2904.631	1370.1
2907.996	1329.1
2911.358	1347.1
2914.717	1357.1
2918.073	1376.1
2921.426	1399.1
2924.777	1381.1
2928.124	1398.1
2931.469	1442.1
2934.811	1458.1
2938.15	1472.1
2941.487	1489.1
2944.821	1488.1
2948.152	1479.1
2951.48	1477.1
2954.805	1464.1
2958.128	1441.1
2961.447	1443.1
2964.765	1443.1
2968.079	1435.1
2971.39	1460.1
2974.699	1460.1
2978.005	1485.1
2981.308	1503.1
2984.609	1540.1
2987.907	1561.1
2991.202	1577.1
2994.494	1644.1
2997.784	1669.1
3001.07	1688.1
3004.355	1742.1
3007.636	1746.1
3010.915	1762.1
3014.191	1770.1
3017.464	1766.1
3020.734	1802.1
3024.002	1816.1
3027.267	1812.1
3030.53	1815.1
3033.789	1828.1
3037.046	1862.1
3040.301	1869.1
3043.552	1909.1
3046.801	1939.1
3050.048	1978.1
3053.291	2026.1
3056.532	2082.1
3059.771	2134.1
3063.006	2205.1
3066.239	2266.1
3069.469	2324.1
3072.697	2392.1
3075.922	2425.1
3079.144	2496.1
3082.364	2566.1
3085.581	2596.1
3088.795	2661.1
3092.007	2719.1
3095.216	2791.1
3098.423	2790.1
3101.627	2896.1
3104.828	2970.1
3108.026	3001.1
3111.222	3069.1
3114.416	3156.1
3117.607	3226.1
3120.795	3311.1
3123.98	3382.1
3127.163	3464.1
3130.344	3527.1
3133.521	3582.1
3136.696	3689.1
3139.869	3779.1
3143.039	3849.1
3146.206	3883.1
3149.371	3920.1
3152.533	3957.1
3155.693	4005.1
3158.85	3999.1
3162.005	4011.1
3165.157	4031.1
3168.306	4059.1
3171.453	4056.1
3174.597	4071.1
3177.739	4075.1
3180.878	4080.1
3184.014	4082.1
3187.149	4059.1
3190.28	4066.1
3193.409	4091.1
3196.536	4119.1
3199.659	4116.1
3202.781	4141.1
3205.9	4119.1
3209.016	4100.1
3212.13	4094.1
3215.241	4063.1
3218.35	3999.1
3221.456	4004.1
3224.56	3951.1
3227.661	3888.1
3230.76	3860.1
3233.856	3831.1
3236.95	3800.1
3240.041	3764.1
3243.13	3725.1
3246.216	3721.1
3249.3	3681.1
3252.382	3680.1
3255.46	3676.1
3258.537	3648.1
3261.611	3647.1
3264.682	3683.1
3267.751	3657.1
3270.818	3642.1
3273.882	3655.1
3276.943	3609.1
3280.002	3592.1
3283.059	3570.1
3286.113	3523.1
3289.165	3462.1
3292.214	3397.1
3295.261	3361.1
3298.306	3316.1
3301.348	3250.1
3304.387	3200.1
3307.425	3156.1
3310.459	3098.1
3313.492	3058.1
3316.521	2999.1
3319.549	2992.1
3322.574	2956.1
3325.597	2921.1
3328.617	2902.1
3331.635	2874.1
3334.65	2851.1
3337.663	2856.1
3340.674	2805.1
3343.682	2803.1
3346.688	2783.1
3349.691	2797.1
3352.692	2768.1
3355.691	2744.1
3358.687	2719.1
3361.681	2669.1
3364.673	2661.1
3367.662	2621.1
3370.649	2577.1
3373.633	2544.1
3376.615	2534.1
3379.595	2455.1
3382.572	2451.1
3385.547	2399.1
3388.52	2370.1
3391.49	2313.1
3394.458	2281.1
3397.424	2255.1
3400.387	2239.1
3403.348	2197.1
3406.307	2184.1
3409.263	2179.1
3412.217	2130.1
3415.168	2102.1
3418.118	2083.1
3421.065	2059.1
3424.009	2019.1
3426.951	1962.1
3429.891	1949.1
3432.829	1910.1
3435.764	1874.1
3438.697	1825.1
3441.628	1763.1
3444.557	1719.1
3447.483	1663.1
3450.407	1621.1
3453.328	1574.1
3456.247	1521.1
3459.164	1460.1
3462.079	1405.1
3464.991	1359.1
3467.902	1297.1
3470.809	1260.1
3473.715	1216.1
3476.618	1195.1
3479.519	1145.1
3482.418	1110.1
3485.315	1047.1
3488.209	1013.1
3491.101	986.1
3493.99	942.1
3496.878	919.1
3499.763	887.1
3502.646	848.1
3505.527	804.1
3508.405	769.1
3511.281	707.1
3514.155	689.1
3517.027	649.1
3519.897	609.1
3522.764	567.1
3525.629	528.1
3528.492	475.1
3531.352	434.1
3534.211	389.1
3537.067	365.1
3539.921	340.1
3542.773	285.1
3545.622	252.1
3548.469	226.1
3551.315	207.1
3554.157	176.1
3556.998	139.1
3559.837	123.1
3562.673	99.1
3565.507	72.1
3568.339	45.1
3571.169	25.1
3573.996	5.1
3576.822	-1.9
3579.645	-37.9
3582.466	-62.9
3585.285	-73.9
3588.101	-94.9
3590.916	-111.9
3593.728	-132.9
3596.538	-155.9
3599.346	-171.9
3602.152	-188.9
3604.956	-200.9
3607.757	-213.9
3610.556	-250.9
3613.354	-250.9
3616.149	-268.9
3618.942	-275.9
3621.732	-288.9
3624.521	-308.9
3627.307	-302.9
3630.092	-323.9
3632.874	-327.9
3635.654	-342.9
3638.432	-349.9
3641.208	-359.9
3643.982	-366.9
3646.753	-377.9
3649.523	-397.9
3652.29	-393.9
3655.055	-408.9
3657.818	-415.9
3660.579	-425.9
3663.338	-434.9
3666.095	-440.9
3668.849	-463.9
3671.602	-467.9
3674.352	-473.9
3677.101	-473.9
3679.847	-486.9
3682.591	-491.9
3685.333	-505.9
3688.073	-505.9
3690.811	-508.9
3693.547	-523.9
3696.281	-518.9
3699.013	-530.9
3701.742	-529.9
3704.47	-537.9
3707.195	-538.9
3709.919	-539.9
3712.64	-541.9
3715.359	-552.9
3718.076	-558.9
3720.792	-557.9
3723.505	-558.9
3726.216	-567.9
3728.925	-566.9
3731.632	-574.9
3734.336	-573.9
3737.039	-583.9
3739.74	-579.9
3742.439	-580.9
3745.136	-580.9
3747.83	-589.9
3750.523	-586.9
3753.213	-573.9
3755.902	-594.9
3758.589	-595.9
3761.273	-590.9
3763.956	-602.9
3766.636	-605.9
3769.315	-602.9
3771.991	-601.9
3774.665	-612.9
3777.338	-607.9
3780.008	-615.9
3782.677	-610.9
3785.343	-617.9
3788.007	-611.9
3790.67	-613.9
3793.33	-612.9
3795.989	-609.9
3798.645	-618.9
3801.299	-612.9
3803.952	-622.9
3806.602	-629.9
3809.251	-626.9
3811.897	-623.9
3814.542	-627.9
3817.184	-621.9
3819.825	-624.9
3822.463	-623.9
3825.1	-629.9
3827.735	-624.9
3830.367	-625.9
3832.998	-635.9
3835.627	-636.9
3838.253	-631.9
3840.878	-639.9
3843.501	-634.9
3846.122	-634.9
3848.741	-624.9
3851.358	-632.9
3853.973	-635.9
3856.586	-634.9
3859.197	-639.9
3861.806	-642.9
3864.414	-635.9
3867.019	-639.9
3869.622	-637.9
3872.224	-630.9
3874.823	-622.9
3877.421	-606.9
3880.016	-582.9
3882.61	-558.9
3885.202	-554.9
3887.792	-576.9
3890.38	-602.9
3892.966	-625.9
3895.55	-638.9
3898.132	-643.9
3900.713	-646.9
3903.291	-645.9
3905.868	-651.9
3908.442	-651.9
3911.015	-653.9
3913.586	-646.9
3916.155	-644.9
3918.722	-653.9
3921.287	-648.9
3923.85	-656.9
3926.411	-651.9
3928.971	-660.9
3931.528	-654.9
3934.084	-651.9
3936.638	-650.9
3939.19	-655.9
3941.74	-652.9
3944.288	-658.9
3946.834	-653.9
3949.378	-658.9
3951.921	-651.9
3954.462	-660.9
3957	-656.9
3959.537	-658.9
3962.072	-652.9
3964.606	-650.9
3967.137	-657.9
3969.667	-648.9
3972.194	-649.9
3974.72	-656.9
3977.244	-641.9
3979.766	-646.9
3982.286	-641.9
3984.805	-646.9
3987.321	-644.9
3989.836	-645.9
3992.349	-638.9
3994.86	-640.9
3997.369	-649.9
3999.877	-635.9
4002.382	-639.9
4004.886	-636.9
4007.388	-632.9
4009.888	-630.9
4012.386	-642.9
4014.883	-635.9
4017.377	-637.9
4019.87	-639.9
4022.361	-638.9
4024.85	-636.9
4027.338	-644.9
4029.823	-644.9
4032.307	-646.9
4034.789	-643.9
4037.269	-640.9
4039.747	-645.9
4042.224	-647.9
4044.699	-641.9
4047.172	-643.9
4049.643	-642.9
4052.112	-642.9
4054.58	-644.9
4057.046	-645.9
4059.51	-649.9
4061.972	-643.9
4064.432	-647.9
4066.891	-647.9
4069.348	-641.9
4071.803	-638.9
4074.256	-645.9
4076.708	-647.9
4079.158	-645.9
4081.606	-644.9
4084.052	-649.9
4086.497	-645.9
4088.939	-638.9
4091.38	-638.9
4093.819	-639.9
4096.257	-676.9
4098.693	-680.9
4101.127	-683.9
4103.559	-678.9
4105.989	-390.9
4108.418	-364.9
4110.845	-342.9
4113.27	-312.9
4115.694	-272.9
4118.115	-229.9
4120.535	-641.9
4122.954	-644.9
4125.37	-633.9
4127.785	-645.9
4130.198	-642.9
4132.609	-647.9
4135.019	-679.9
4137.427	-685.9
4139.833	-681.9
4142.237	-679.9
