Data from 2018-2-14_conc=6_n=8_RamanShift_01.txt Node
Date: Wed Feb 14 15:07:55 IST 2018
User: aro
Spectrometer: QEPB0276
Trigger mode: 0
Integration Time (sec): 3.000000E1
Scans to average: 1
Electric dark correction enabled: true
Nonlinearity correction enabled: false
Boxcar width: 0
XAxis mode: Raman Shifts
Number of Pixels in Spectrum: 1044
>>>>>Begin Spectral Data<<<<<
160.701	-157.4
166.742	48.6
172.777	614.6
178.805	2340.6
184.826	6534.6
190.841	13702.6
196.849	21990.6
202.85	27921.6
208.845	29922.6
214.833	29663.6
220.815	29175.6
226.789	29108.6
232.758	28931.6
238.719	28850.6
244.674	28474.6
250.623	28003.6
256.565	27475.6
262.5	26967.6
268.429	26523.6
274.351	26230.6
280.267	25916.6
286.176	25638.6
292.079	25477.6
297.975	25172.6
303.865	25036.6
309.748	24864.6
315.625	24830.6
321.495	24618.6
327.359	24569.6
333.217	24514.6
339.068	24505.6
344.912	24469.6
350.751	24483.6
356.583	24368.6
362.408	24336.6
368.227	24377.6
374.04	24415.6
379.847	24513.6
385.647	24573.6
391.44	24686.6
397.228	24694.6
403.009	24896.6
408.784	24864.6
414.553	24979.6
420.315	25019.6
426.071	25039.6
431.821	24977.6
437.565	25034.6
443.302	25007.6
449.033	25006.6
454.758	24934.6
460.477	24909.6
466.189	24798.6
471.896	24692.6
477.596	24689.6
483.29	24679.6
488.978	24655.6
494.66	24476.6
500.335	24409.6
506.005	24217.6
511.668	23958.6
517.325	23681.6
522.977	23513.6
528.622	23354.6
534.261	23278.6
539.894	23139.6
545.521	23071.6
551.141	23020.6
556.756	22891.6
562.365	22839.6
567.968	22765.6
573.565	22689.6
579.155	22619.6
584.74	22554.6
590.319	22397.6
595.892	22376.6
601.459	22330.6
607.02	22129.6
612.575	22072.6
618.124	21954.6
623.667	21796.6
629.204	21672.6
634.735	21584.6
640.261	21497.6
645.781	21467.6
651.294	21434.6
656.802	21435.6
662.304	21344.6
667.8	21352.6
673.29	21317.6
678.775	21258.6
684.254	21277.6
689.726	21173.6
695.193	21119.6
700.655	21023.6
706.11	20948.6
711.56	20822.6
717.004	20644.6
722.442	20631.6
727.874	20470.6
733.301	20457.6
738.722	20428.6
744.137	20400.6
749.547	20382.6
754.951	20403.6
760.349	20437.6
765.741	20414.6
771.128	20418.6
776.509	20403.6
781.885	20423.6
787.254	20330.6
792.618	20274.6
797.977	20145.6
803.33	20035.6
808.677	19893.6
814.019	19812.6
819.355	19695.6
824.686	19590.6
830.011	19561.6
835.33	19597.6
840.644	19600.6
845.952	19637.6
851.255	19669.6
856.552	19710.6
861.844	19711.6
867.13	19662.6
872.41	19574.6
877.686	19502.6
882.955	19384.6
888.219	19170.6
893.478	18962.6
898.731	18756.6
903.979	18619.6
909.221	18463.6
914.458	18403.6
919.69	18362.6
924.916	18460.6
930.136	18536.6
935.351	18459.6
940.561	18569.6
945.766	18566.6
950.965	18369.6
956.158	18311.6
961.347	18124.6
966.529	17878.6
971.707	17650.6
976.879	17407.6
982.046	17280.6
987.208	17270.6
992.364	17264.6
997.515	17352.6
1002.66	17514.6
1007.801	17708.6
1012.936	17857.6
1018.066	17843.6
1023.19	17897.6
1028.309	17824.6
1033.423	17797.6
1038.532	17687.6
1043.636	17555.6
1048.734	17370.6
1053.827	17114.6
1058.915	16951.6
1063.998	16859.6
1069.075	16786.6
1074.147	16807.6
1079.214	16926.6
1084.276	16936.6
1089.333	17050.6
1094.385	17151.6
1099.431	17237.6
1104.472	17238.6
1109.509	17094.6
1114.54	16974.6
1119.565	16737.6
1124.586	16512.6
1129.602	16367.6
1134.613	16281.6
1139.618	16156.6
1144.619	16098.6
1149.614	16124.6
1154.604	16152.6
1159.589	16191.6
1164.57	16241.6
1169.545	16257.6
1174.515	16271.6
1179.48	16166.6
1184.44	16042.6
1189.395	15956.6
1194.345	15804.6
1199.29	15768.6
1204.23	15748.6
1209.165	15833.6
1214.095	15896.6
1219.021	16007.6
1223.941	16045.6
1228.856	16124.6
1233.766	16204.6
1238.672	16217.6
1243.572	16202.6
1248.467	16075.6
1253.358	15893.6
1258.244	15697.6
1263.124	15461.6
1268	15180.6
1272.871	15057.6
1277.737	14975.6
1282.599	14890.6
1287.455	14878.6
1292.306	14918.6
1297.153	14907.6
1301.995	15035.6
1306.832	15130.6
1311.664	15094.6
1316.491	15090.6
1321.314	14943.6
1326.132	14779.6
1330.945	14412.6
1335.753	14008.6
1340.556	13637.6
1345.354	13282.6
1350.148	12959.6
1354.937	12880.6
1359.722	12845.6
1364.501	12929.6
1369.276	13057.6
1374.046	13338.6
1378.811	13563.6
1383.572	13816.6
1388.327	13948.6
1393.079	13857.6
1397.825	13701.6
1402.567	13439.6
1407.304	13240.6
1412.036	13133.6
1416.764	13026.6
1421.487	12963.6
1426.205	12874.6
1430.919	12843.6
1435.628	12847.6
1440.333	12894.6
1445.032	12856.6
1449.727	12956.6
1454.418	12845.6
1459.104	12672.6
1463.785	12444.6
1468.462	12150.6
1473.134	11892.6
1477.802	11608.6
1482.465	11367.6
1487.123	11231.6
1491.777	11175.6
1496.426	11244.6
1501.071	11355.6
1505.711	11597.6
1510.347	11824.6
1514.978	12047.6
1519.604	12211.6
1524.226	12408.6
1528.844	12439.6
1533.457	12413.6
1538.065	12370.6
1542.669	12317.6
1547.269	12210.6
1551.864	12130.6
1556.454	12078.6
1561.041	12059.6
1565.622	12060.6
1570.199	12046.6
1574.772	12115.6
1579.34	12187.6
1583.904	12279.6
1588.464	12296.6
1593.019	12263.6
1597.569	12219.6
1602.115	12067.6
1606.657	12016.6
1611.195	11905.6
1615.728	11827.6
1620.256	11797.6
1624.78	11747.6
1629.3	11734.6
1633.816	11732.6
1638.327	11822.6
1642.834	11829.6
1647.336	11860.6
1651.834	11910.6
1656.328	11824.6
1660.817	11807.6
1665.302	11681.6
1669.783	11479.6
1674.259	11195.6
1678.732	10927.6
1683.199	10527.6
1687.663	10138.6
1692.122	9790.6
1696.577	9615.6
1701.028	9537.6
1705.474	9729.6
1709.917	9917.6
1714.355	10043.6
1718.788	10030.6
1723.218	9880.6
1727.643	9708.6
1732.064	9497.6
1736.481	9319.6
1740.893	9126.6
1745.301	8897.6
1749.705	8660.6
1754.105	8443.6
1758.501	8142.6
1762.893	7927.6
1767.28	7726.6
1771.663	7498.6
1776.042	7330.6
1780.417	7213.6
1784.787	7183.6
1789.154	7220.6
1793.516	7373.6
1797.874	7555.6
1802.228	7780.6
1806.578	7927.6
1810.924	7927.6
1815.266	7835.6
1819.603	7766.6
1823.937	7671.6
1828.266	7534.6
1832.591	7405.6
1836.913	7269.6
1841.23	7216.6
1845.543	7163.6
1849.852	7151.6
1854.156	7089.6
1858.457	7063.6
1862.754	7047.6
1867.047	7052.6
1871.335	7006.6
1875.62	7008.6
1879.9	7002.6
1884.177	6924.6
1888.449	6888.6
1892.718	6776.6
1896.982	6660.6
1901.243	6583.6
1905.499	6504.6
1909.752	6491.6
1914	6426.6
1918.245	6471.6
1922.485	6491.6
1926.722	6626.6
1930.954	6725.6
1935.183	6775.6
1939.408	6897.6
1943.628	6964.6
1947.845	6992.6
1952.058	6972.6
1956.267	6946.6
1960.472	6891.6
1964.673	6771.6
1968.87	6660.6
1973.063	6555.6
1977.252	6506.6
1981.438	6435.6
1985.619	6371.6
1989.797	6265.6
1993.971	6268.6
1998.14	6242.6
2002.306	6226.6
2006.469	6182.6
2010.627	6103.6
2014.781	6077.6
2018.932	6037.6
2023.078	5967.6
2027.221	5869.6
2031.36	5800.6
2035.495	5700.6
2039.627	5577.6
2043.754	5516.6
2047.878	5431.6
2051.998	5406.6
2056.114	5370.6
2060.226	5386.6
2064.334	5401.6
2068.439	5379.6
2072.54	5432.6
2076.637	5448.6
2080.73	5466.6
2084.82	5500.6
2088.906	5512.6
2092.988	5553.6
2097.066	5519.6
2101.14	5483.6
2105.211	5492.6
2109.278	5450.6
2113.342	5453.6
2117.401	5392.6
2121.457	5347.6
2125.509	5390.6
2129.558	5341.6
2133.602	5289.6
2137.643	5293.6
2141.681	5239.6
2145.714	5215.6
2149.744	5195.6
2153.77	5148.6
2157.793	5085.6
2161.812	5044.6
2165.827	4975.6
2169.838	4919.6
2173.846	4814.6
2177.851	4737.6
2181.851	4692.6
2185.848	4635.6
2189.841	4564.6
2193.831	4528.6
2197.817	4494.6
2201.799	4471.6
2205.778	4451.6
2209.753	4460.6
2213.725	4419.6
2217.693	4450.6
2221.657	4393.6
2225.618	4371.6
2229.575	4349.6
2233.529	4309.6
2237.479	4268.6
2241.425	4234.6
2245.368	4149.6
2249.307	4113.6
2253.243	4090.6
2257.175	4029.6
2261.104	3976.6
2265.029	3927.6
2268.95	3889.6
2272.868	3836.6
2276.783	3821.6
2280.694	3776.6
2284.601	3772.6
2288.505	3712.6
2292.405	3672.6
2296.302	3638.6
2300.195	3624.6
2304.085	3556.6
2307.971	3512.6
2311.854	3480.6
2315.734	3411.6
2319.609	3385.6
2323.482	3338.6
2327.351	3305.6
2331.216	3307.6
2335.078	3282.6
2338.937	3243.6
2342.792	3240.6
2346.643	3234.6
2350.492	3234.6
2354.336	3254.6
2358.178	3267.6
2362.015	3273.6
2365.85	3300.6
2369.681	3269.6
2373.508	3297.6
2377.333	3285.6
2381.153	3281.6
2384.971	3256.6
2388.785	3235.6
2392.595	3233.6
2396.402	3188.6
2400.206	3181.6
2404.007	3169.6
2407.804	3134.6
2411.597	3112.6
2415.388	3075.6
2419.174	3086.6
2422.958	3069.6
2426.738	3012.6
2430.515	3006.6
2434.289	2994.6
2438.059	2971.6
2441.825	2916.6
2445.589	2905.6
2449.349	2858.6
2453.106	2844.6
2456.859	2797.6
2460.61	2786.6
2464.356	2737.6
2468.1	2698.6
2471.84	2704.6
2475.577	2656.6
2479.311	2659.6
2483.041	2646.6
2486.768	2613.6
2490.492	2594.6
2494.213	2588.6
2497.93	2571.6
2501.644	2566.6
2505.355	2544.6
2509.062	2515.6
2512.766	2505.6
2516.467	2497.6
2520.165	2479.6
2523.859	2463.6
2527.551	2424.6
2531.239	2412.6
2534.923	2397.6
2538.605	2390.6
2542.283	2379.6
2545.958	2387.6
2549.63	2383.6
2553.299	2402.6
2556.964	2368.6
2560.626	2360.6
2564.285	2385.6
2567.941	2347.6
2571.594	2333.6
2575.243	2320.6
2578.89	2306.6
2582.533	2304.6
2586.173	2281.6
2589.809	2248.6
2593.443	2253.6
2597.073	2206.6
2600.701	2196.6
2604.325	2183.6
2607.946	2161.6
2611.564	2167.6
2615.178	2141.6
2618.79	2146.6
2622.398	2133.6
2626.004	2110.6
2629.606	2076.6
2633.205	2062.6
2636.801	2030.6
2640.394	2003.6
2643.983	1963.6
2647.57	1969.6
2651.153	1912.6
2654.734	1872.6
2658.311	1867.6
2661.885	1831.6
2665.456	1799.6
2669.025	1814.6
2672.589	1762.6
2676.151	1764.6
2679.71	1744.6
2683.266	1699.6
2686.819	1684.6
2690.368	1645.6
2693.915	1611.6
2697.458	1580.6
2700.999	1530.6
2704.536	1507.6
2708.071	1475.6
2711.602	1444.6
2715.13	1403.6
2718.656	1372.6
2722.178	1330.6
2725.697	1314.6
2729.214	1297.6
2732.727	1282.6
2736.237	1253.6
2739.744	1241.6
2743.249	1250.6
2746.75	1255.6
2750.248	1259.6
2753.743	1285.6
2757.236	1308.6
2760.725	1323.6
2764.211	1348.6
2767.695	1361.6
2771.175	1338.6
2774.652	1346.6
2778.127	1319.6
2781.598	1343.6
2785.067	1312.6
2788.532	1299.6
2791.995	1295.6
2795.455	1318.6
2798.911	1304.6
2802.365	1309.6
2805.816	1304.6
2809.264	1306.6
2812.709	1287.6
2816.151	1284.6
2819.59	1294.6
2823.026	1296.6
2826.46	1293.6
2829.89	1291.6
2833.318	1300.6
2836.742	1310.6
2840.164	1328.6
2843.583	1308.6
2846.999	1328.6
2850.412	1324.6
2853.822	1358.6
2857.229	1354.6
2860.634	1368.6
2864.035	1404.6
2867.434	1434.6
2870.83	1462.6
2874.223	1458.6
2877.613	1485.6
2881	1493.6
2884.385	1512.6
2887.766	1487.6
2891.145	1469.6
2894.521	1489.6
2897.894	1475.6
2901.264	1470.6
2904.631	1482.6
2907.996	1472.6
2911.358	1472.6
2914.717	1483.6
2918.073	1497.6
2921.426	1518.6
2924.777	1512.6
2928.124	1537.6
2931.469	1564.6
2934.811	1585.6
2938.15	1586.6
2941.487	1613.6
2944.821	1617.6
2948.152	1608.6
2951.48	1589.6
2954.805	1545.6
2958.128	1551.6
2961.447	1521.6
2964.765	1524.6
2968.079	1531.6
2971.39	1531.6
2974.699	1549.6
2978.005	1557.6
2981.308	1594.6
2984.609	1602.6
2987.907	1637.6
2991.202	1656.6
2994.494	1722.6
2997.784	1744.6
3001.07	1768.6
3004.355	1821.6
3007.636	1829.6
3010.915	1854.6
3014.191	1858.6
3017.464	1881.6
3020.734	1899.6
3024.002	1900.6
3027.267	1896.6
3030.53	1936.6
3033.789	1933.6
3037.046	1966.6
3040.301	1980.6
3043.552	2024.6
3046.801	2056.6
3050.048	2092.6
3053.291	2129.6
3056.532	2194.6
3059.771	2260.6
3063.006	2312.6
3066.239	2387.6
3069.469	2465.6
3072.697	2486.6
3075.922	2553.6
3079.144	2587.6
3082.364	2656.6
3085.581	2726.6
3088.795	2770.6
3092.007	2841.6
3095.216	2912.6
3098.423	2948.6
3101.627	3021.6
3104.828	3096.6
3108.026	3157.6
3111.222	3220.6
3114.416	3299.6
3117.607	3366.6
3120.795	3439.6
3123.98	3555.6
3127.163	3601.6
3130.344	3694.6
3133.521	3737.6
3136.696	3863.6
3139.869	3929.6
3143.039	3997.6
3146.206	4018.6
3149.371	4106.6
3152.533	4128.6
3155.693	4170.6
3158.85	4174.6
3162.005	4159.6
3165.157	4196.6
3168.306	4221.6
3171.453	4232.6
3174.597	4220.6
3177.739	4244.6
3180.878	4217.6
3184.014	4255.6
3187.149	4231.6
3190.28	4248.6
3193.409	4248.6
3196.536	4247.6
3199.659	4286.6
3202.781	4273.6
3205.9	4269.6
3209.016	4220.6
3212.13	4225.6
3215.241	4175.6
3218.35	4144.6
3221.456	4097.6
3224.56	4068.6
3227.661	4017.6
3230.76	3995.6
3233.856	3907.6
3236.95	3914.6
3240.041	3853.6
3243.13	3873.6
3246.216	3818.6
3249.3	3786.6
3252.382	3773.6
3255.46	3794.6
3258.537	3749.6
3261.611	3787.6
3264.682	3791.6
3267.751	3773.6
3270.818	3771.6
3273.882	3733.6
3276.943	3726.6
3280.002	3703.6
3283.059	3659.6
3286.113	3621.6
3289.165	3573.6
3292.214	3516.6
3295.261	3475.6
3298.306	3428.6
3301.348	3359.6
3304.387	3290.6
3307.425	3224.6
3310.459	3191.6
3313.492	3141.6
3316.521	3098.6
3319.549	3064.6
3322.574	3040.6
3325.597	3033.6
3328.617	2990.6
3331.635	2999.6
3334.65	2937.6
3337.663	2925.6
3340.674	2936.6
3343.682	2892.6
3346.688	2888.6
3349.691	2871.6
3352.692	2859.6
3355.691	2837.6
3358.687	2824.6
3361.681	2784.6
3364.673	2744.6
3367.662	2700.6
3370.649	2673.6
3373.633	2640.6
3376.615	2584.6
3379.595	2535.6
3382.572	2520.6
3385.547	2479.6
3388.52	2448.6
3391.49	2407.6
3394.458	2386.6
3397.424	2339.6
3400.387	2295.6
3403.348	2269.6
3406.307	2239.6
3409.263	2233.6
3412.217	2206.6
3415.168	2193.6
3418.118	2147.6
3421.065	2129.6
3424.009	2079.6
3426.951	2080.6
3429.891	2043.6
3432.829	1972.6
3435.764	1921.6
3438.697	1895.6
3441.628	1840.6
3444.557	1786.6
3447.483	1718.6
3450.407	1674.6
3453.328	1617.6
3456.247	1558.6
3459.164	1514.6
3462.079	1452.6
3464.991	1389.6
3467.902	1354.6
3470.809	1304.6
3473.715	1254.6
3476.618	1202.6
3479.519	1158.6
3482.418	1123.6
3485.315	1090.6
3488.209	1044.6
3491.101	1004.6
3493.99	973.6
3496.878	925.6
3499.763	904.6
3502.646	857.6
3505.527	824.6
3508.405	779.6
3511.281	755.6
3514.155	696.6
3517.027	653.6
3519.897	606.6
3522.764	555.6
3525.629	545.6
3528.492	483.6
3531.352	442.6
3534.211	409.6
3537.067	376.6
3539.921	331.6
3542.773	295.6
3545.622	255.6
3548.469	229.6
3551.315	196.6
3554.157	171.6
3556.998	124.6
3559.837	120.6
3562.673	91.6
3565.507	56.6
3568.339	46.6
3571.169	19.6
3573.996	6.6
3576.822	-23.4
3579.645	-42.4
3582.466	-67.4
3585.285	-84.4
3588.101	-103.4
3590.916	-119.4
3593.728	-154.4
3596.538	-157.4
3599.346	-183.4
3602.152	-207.4
3604.956	-212.4
3607.757	-236.4
3610.556	-250.4
3613.354	-271.4
3616.149	-289.4
3618.942	-292.4
3621.732	-303.4
3624.521	-323.4
3627.307	-324.4
3630.092	-330.4
3632.874	-349.4
3635.654	-371.4
3638.432	-366.4
3641.208	-386.4
3643.982	-390.4
3646.753	-393.4
3649.523	-411.4
3652.29	-411.4
3655.055	-429.4
3657.818	-448.4
3660.579	-448.4
3663.338	-469.4
3666.095	-468.4
3668.849	-485.4
3671.602	-483.4
3674.352	-502.4
3677.101	-502.4
3679.847	-511.4
3682.591	-523.4
3685.333	-524.4
3688.073	-521.4
3690.811	-538.4
3693.547	-537.4
3696.281	-550.4
3699.013	-545.4
3701.742	-550.4
3704.47	-558.4
3707.195	-560.4
3709.919	-564.4
3712.64	-576.4
3715.359	-571.4
3718.076	-580.4
3720.792	-577.4
3723.505	-590.4
3726.216	-595.4
3728.925	-590.4
3731.632	-592.4
3734.336	-605.4
3737.039	-601.4
3739.74	-606.4
3742.439	-605.4
3745.136	-608.4
3747.83	-612.4
3750.523	-617.4
3753.213	-615.4
3755.902	-624.4
3758.589	-617.4
3761.273	-623.4
3763.956	-622.4
3766.636	-634.4
3769.315	-628.4
3771.991	-627.4
3774.665	-635.4
3777.338	-634.4
3780.008	-636.4
3782.677	-635.4
3785.343	-634.4
3788.007	-640.4
3790.67	-641.4
3793.33	-645.4
3795.989	-646.4
3798.645	-645.4
3801.299	-645.4
3803.952	-652.4
3806.602	-655.4
3809.251	-659.4
3811.897	-653.4
3814.542	-656.4
3817.184	-653.4
3819.825	-657.4
3822.463	-648.4
3825.1	-660.4
3827.735	-648.4
3830.367	-648.4
3832.998	-660.4
3835.627	-668.4
3838.253	-662.4
3840.878	-668.4
3843.501	-667.4
3846.122	-658.4
3848.741	-662.4
3851.358	-661.4
3853.973	-665.4
3856.586	-667.4
3859.197	-670.4
3861.806	-672.4
3864.414	-663.4
3867.019	-662.4
3869.622	-665.4
3872.224	-660.4
3874.823	-641.4
3877.421	-632.4
3880.016	-612.4
3882.61	-590.4
3885.202	-589.4
3887.792	-606.4
3890.38	-640.4
3892.966	-653.4
3895.55	-670.4
3898.132	-682.4
3900.713	-682.4
3903.291	-677.4
3905.868	-680.4
3908.442	-679.4
3911.015	-684.4
3913.586	-675.4
3916.155	-680.4
3918.722	-682.4
3921.287	-683.4
3923.85	-687.4
3926.411	-682.4
3928.971	-695.4
3931.528	-690.4
3934.084	-681.4
3936.638	-684.4
3939.19	-686.4
3941.74	-686.4
3944.288	-682.4
3946.834	-682.4
3949.378	-679.4
3951.921	-684.4
3954.462	-688.4
3957	-680.4
3959.537	-686.4
3962.072	-682.4
3964.606	-683.4
3967.137	-680.4
3969.667	-683.4
3972.194	-677.4
3974.72	-681.4
3977.244	-670.4
3979.766	-670.4
3982.286	-673.4
3984.805	-672.4
3987.321	-669.4
3989.836	-670.4
3992.349	-671.4
3994.86	-668.4
3997.369	-675.4
3999.877	-668.4
4002.382	-663.4
4004.886	-671.4
4007.388	-667.4
4009.888	-667.4
4012.386	-668.4
4014.883	-671.4
4017.377	-668.4
4019.87	-669.4
4022.361	-668.4
4024.85	-673.4
4027.338	-673.4
4029.823	-668.4
4032.307	-667.4
4034.789	-668.4
4037.269	-664.4
4039.747	-669.4
4042.224	-672.4
4044.699	-673.4
4047.172	-669.4
4049.643	-666.4
4052.112	-678.4
4054.58	-676.4
4057.046	-675.4
4059.51	-676.4
4061.972	-674.4
4064.432	-678.4
4066.891	-673.4
4069.348	-674.4
4071.803	-667.4
4074.256	-670.4
4076.708	-672.4
4079.158	-675.4
4081.606	-675.4
4084.052	-674.4
4086.497	-674.4
4088.939	-669.4
4091.38	-669.4
4093.819	-665.4
4096.257	-706.4
4098.693	-711.4
4101.127	-713.4
4103.559	-708.4
4105.989	-404.4
4108.418	-383.4
4110.845	-365.4
4113.27	-337.4
4115.694	-289.4
4118.115	-243.4
4120.535	-666.4
4122.954	-672.4
4125.37	-656.4
4127.785	-669.4
4130.198	-676.4
4132.609	-672.4
4135.019	-713.4
4137.427	-714.4
4139.833	-709.4
4142.237	-709.4
