Data from 2018-2-14_conc=3_n=1_RamanShift_04.txt Node
Date: Wed Feb 14 11:43:56 IST 2018
User: aro
Spectrometer: QEPB0276
Trigger mode: 0
Integration Time (sec): 3.000000E1
Scans to average: 1
Electric dark correction enabled: true
Nonlinearity correction enabled: false
Boxcar width: 0
XAxis mode: Raman Shifts
Number of Pixels in Spectrum: 1044
>>>>>Begin Spectral Data<<<<<
160.701	-138.4
166.742	34.6
172.777	557.6
178.805	2076.6
184.826	5760.6
190.841	12040.6
196.849	19316.6
202.85	24501.6
208.845	26149.6
214.833	25777.6
220.815	25354.6
226.789	25098.6
232.758	25031.6
238.719	24797.6
244.674	24447.6
250.623	24007.6
256.565	23465.6
262.5	22928.6
268.429	22529.6
274.351	22088.6
280.267	21857.6
286.176	21610.6
292.079	21376.6
297.975	21116.6
303.865	20879.6
309.748	20825.6
315.625	20663.6
321.495	20554.6
327.359	20460.6
333.217	20435.6
339.068	20391.6
344.912	20311.6
350.751	20304.6
356.583	20294.6
362.408	20322.6
368.227	20308.6
374.04	20292.6
379.847	20397.6
385.647	20363.6
391.44	20510.6
397.228	20622.6
403.009	20660.6
408.784	20756.6
414.553	20855.6
420.315	20888.6
426.071	20870.6
431.821	20830.6
437.565	20820.6
443.302	20798.6
449.033	20715.6
454.758	20722.6
460.477	20702.6
466.189	20633.6
471.896	20566.6
477.596	20537.6
483.29	20527.6
488.978	20468.6
494.66	20426.6
500.335	20251.6
506.005	20136.6
511.668	19785.6
517.325	19577.6
522.977	19318.6
528.622	19281.6
534.261	19137.6
539.894	19044.6
545.521	18899.6
551.141	18905.6
556.756	18848.6
562.365	18745.6
567.968	18667.6
573.565	18586.6
579.155	18474.6
584.74	18398.6
590.319	18438.6
595.892	18278.6
601.459	18240.6
607.02	18170.6
612.575	18035.6
618.124	17950.6
623.667	17862.6
629.204	17766.6
634.735	17716.6
640.261	17614.6
645.781	17554.6
651.294	17500.6
656.802	17497.6
662.304	17470.6
667.8	17458.6
673.29	17376.6
678.775	17336.6
684.254	17321.6
689.726	17241.6
695.193	17174.6
700.655	17094.6
706.11	17043.6
711.56	16963.6
717.004	16842.6
722.442	16812.6
727.874	16661.6
733.301	16663.6
738.722	16638.6
744.137	16566.6
749.547	16582.6
754.951	16627.6
760.349	16573.6
765.741	16629.6
771.128	16600.6
776.509	16693.6
781.885	16571.6
787.254	16540.6
792.618	16492.6
797.977	16410.6
803.33	16237.6
808.677	16209.6
814.019	16099.6
819.355	16009.6
824.686	15970.6
830.011	15918.6
835.33	15906.6
840.644	15921.6
845.952	15897.6
851.255	16015.6
856.552	16037.6
861.844	15952.6
867.13	15932.6
872.41	15876.6
877.686	15739.6
882.955	15648.6
888.219	15497.6
893.478	15361.6
898.731	15189.6
903.979	15035.6
909.221	14911.6
914.458	14856.6
919.69	14809.6
924.916	14900.6
930.136	14954.6
935.351	14991.6
940.561	14962.6
945.766	14945.6
950.965	14874.6
956.158	14740.6
961.347	14574.6
966.529	14408.6
971.707	14247.6
976.879	14060.6
982.046	13960.6
987.208	13864.6
992.364	13899.6
997.515	13971.6
1002.66	14089.6
1007.801	14239.6
1012.936	14411.6
1018.066	14306.6
1023.19	14375.6
1028.309	14324.6
1033.423	14368.6
1038.532	14293.6
1043.636	14087.6
1048.734	13956.6
1053.827	13801.6
1058.915	13618.6
1063.998	13532.6
1069.075	13538.6
1074.147	13498.6
1079.214	13569.6
1084.276	13651.6
1089.333	13682.6
1094.385	13785.6
1099.431	13879.6
1104.472	13845.6
1109.509	13739.6
1114.54	13611.6
1119.565	13461.6
1124.586	13298.6
1129.602	13112.6
1134.613	13031.6
1139.618	12943.6
1144.619	12921.6
1149.614	12946.6
1154.604	12949.6
1159.589	13022.6
1164.57	12995.6
1169.545	13049.6
1174.515	13021.6
1179.48	12970.6
1184.44	12907.6
1189.395	12805.6
1194.345	12678.6
1199.29	12635.6
1204.23	12630.6
1209.165	12684.6
1214.095	12731.6
1219.021	12767.6
1223.941	12870.6
1228.856	12948.6
1233.766	12986.6
1238.672	12975.6
1243.572	12988.6
1248.467	12890.6
1253.358	12761.6
1258.244	12594.6
1263.124	12374.6
1268	12257.6
1272.871	12038.6
1277.737	11939.6
1282.599	11923.6
1287.455	11909.6
1292.306	11948.6
1297.153	11970.6
1301.995	12029.6
1306.832	12075.6
1311.664	12140.6
1316.491	12058.6
1321.314	11967.6
1326.132	11772.6
1330.945	11547.6
1335.753	11201.6
1340.556	10941.6
1345.354	10738.6
1350.148	10548.6
1354.937	10384.6
1359.722	10403.6
1364.501	10429.6
1369.276	10564.6
1374.046	10706.6
1378.811	10905.6
1383.572	11015.6
1388.327	11036.6
1393.079	11033.6
1397.825	10856.6
1402.567	10776.6
1407.304	10605.6
1412.036	10500.6
1416.764	10357.6
1421.487	10365.6
1426.205	10290.6
1430.919	10277.6
1435.628	10251.6
1440.333	10309.6
1445.032	10301.6
1449.727	10340.6
1454.418	10314.6
1459.104	10168.6
1463.785	10025.6
1468.462	9773.6
1473.134	9569.6
1477.802	9332.6
1482.465	9180.6
1487.123	9103.6
1491.777	9063.6
1496.426	9089.6
1501.071	9153.6
1505.711	9325.6
1510.347	9492.6
1514.978	9647.6
1519.604	9794.6
1524.226	9885.6
1528.844	9949.6
1533.457	9931.6
1538.065	9858.6
1542.669	9807.6
1547.269	9727.6
1551.864	9670.6
1556.454	9627.6
1561.041	9663.6
1565.622	9615.6
1570.199	9679.6
1574.772	9703.6
1579.34	9782.6
1583.904	9889.6
1588.464	9901.6
1593.019	9836.6
1597.569	9845.6
1602.115	9774.6
1606.657	9716.6
1611.195	9674.6
1615.728	9606.6
1620.256	9557.6
1624.78	9547.6
1629.3	9578.6
1633.816	9607.6
1638.327	9664.6
1642.834	9650.6
1647.336	9727.6
1651.834	9757.6
1656.328	9739.6
1660.817	9659.6
1665.302	9515.6
1669.783	9368.6
1674.259	9171.6
1678.732	8917.6
1683.199	8639.6
1687.663	8273.6
1692.122	8040.6
1696.577	7897.6
1701.028	7784.6
1705.474	7858.6
1709.917	8002.6
1714.355	8027.6
1718.788	7979.6
1723.218	7871.6
1727.643	7720.6
1732.064	7601.6
1736.481	7426.6
1740.893	7228.6
1745.301	7072.6
1749.705	6860.6
1754.105	6651.6
1758.501	6471.6
1762.893	6294.6
1767.28	6109.6
1771.663	5978.6
1776.042	5835.6
1780.417	5771.6
1784.787	5777.6
1789.154	5808.6
1793.516	5895.6
1797.874	6030.6
1802.228	6152.6
1806.578	6217.6
1810.924	6220.6
1815.266	6208.6
1819.603	6114.6
1823.937	6010.6
1828.266	5930.6
1832.591	5806.6
1836.913	5710.6
1841.23	5669.6
1845.543	5638.6
1849.852	5620.6
1854.156	5584.6
1858.457	5565.6
1862.754	5568.6
1867.047	5571.6
1871.335	5538.6
1875.62	5550.6
1879.9	5537.6
1884.177	5475.6
1888.449	5420.6
1892.718	5363.6
1896.982	5313.6
1901.243	5235.6
1905.499	5185.6
1909.752	5180.6
1914	5184.6
1918.245	5216.6
1922.485	5197.6
1926.722	5282.6
1930.954	5347.6
1935.183	5419.6
1939.408	5454.6
1943.628	5500.6
1947.845	5491.6
1952.058	5518.6
1956.267	5493.6
1960.472	5412.6
1964.673	5348.6
1968.87	5246.6
1973.063	5155.6
1977.252	5131.6
1981.438	5067.6
1985.619	4998.6
1989.797	4973.6
1993.971	4949.6
1998.14	4907.6
2002.306	4884.6
2006.469	4871.6
2010.627	4871.6
2014.781	4824.6
2018.932	4797.6
2023.078	4734.6
2027.221	4686.6
2031.36	4614.6
2035.495	4549.6
2039.627	4423.6
2043.754	4420.6
2047.878	4355.6
2051.998	4340.6
2056.114	4313.6
2060.226	4314.6
2064.334	4297.6
2068.439	4303.6
2072.54	4333.6
2076.637	4366.6
2080.73	4398.6
2084.82	4426.6
2088.906	4434.6
2092.988	4437.6
2097.066	4458.6
2101.14	4402.6
2105.211	4345.6
2109.278	4350.6
2113.342	4354.6
2117.401	4324.6
2121.457	4281.6
2125.509	4246.6
2129.558	4271.6
2133.602	4232.6
2137.643	4228.6
2141.681	4191.6
2145.714	4133.6
2149.744	4137.6
2153.77	4122.6
2157.793	4058.6
2161.812	4017.6
2165.827	3973.6
2169.838	3901.6
2173.846	3839.6
2177.851	3745.6
2181.851	3702.6
2185.848	3702.6
2189.841	3653.6
2193.831	3631.6
2197.817	3557.6
2201.799	3522.6
2205.778	3516.6
2209.753	3502.6
2213.725	3511.6
2217.693	3473.6
2221.657	3481.6
2225.618	3486.6
2229.575	3453.6
2233.529	3430.6
2237.479	3424.6
2241.425	3363.6
2245.368	3311.6
2249.307	3268.6
2253.243	3227.6
2257.175	3163.6
2261.104	3142.6
2265.029	3119.6
2268.95	3057.6
2272.868	3012.6
2276.783	3010.6
2280.694	2985.6
2284.601	2951.6
2288.505	2921.6
2292.405	2875.6
2296.302	2865.6
2300.195	2821.6
2304.085	2800.6
2307.971	2782.6
2311.854	2723.6
2315.734	2697.6
2319.609	2668.6
2323.482	2615.6
2327.351	2602.6
2331.216	2587.6
2335.078	2582.6
2338.937	2550.6
2342.792	2530.6
2346.643	2520.6
2350.492	2538.6
2354.336	2533.6
2358.178	2543.6
2362.015	2561.6
2365.85	2567.6
2369.681	2555.6
2373.508	2575.6
2377.333	2568.6
2381.153	2535.6
2384.971	2540.6
2388.785	2532.6
2392.595	2495.6
2396.402	2488.6
2400.206	2448.6
2404.007	2404.6
2407.804	2437.6
2411.597	2430.6
2415.388	2407.6
2419.174	2391.6
2422.958	2373.6
2426.738	2347.6
2430.515	2335.6
2434.289	2315.6
2438.059	2294.6
2441.825	2271.6
2445.589	2246.6
2449.349	2233.6
2453.106	2216.6
2456.859	2159.6
2460.61	2144.6
2464.356	2125.6
2468.1	2086.6
2471.84	2066.6
2475.577	2057.6
2479.311	2064.6
2483.041	2035.6
2486.768	2000.6
2490.492	2002.6
2494.213	1995.6
2497.93	1998.6
2501.644	1987.6
2505.355	1964.6
2509.062	1962.6
2512.766	1970.6
2516.467	1943.6
2520.165	1928.6
2523.859	1898.6
2527.551	1883.6
2531.239	1873.6
2534.923	1891.6
2538.605	1885.6
2542.283	1862.6
2545.958	1849.6
2549.63	1827.6
2553.299	1851.6
2556.964	1836.6
2560.626	1828.6
2564.285	1817.6
2567.941	1822.6
2571.594	1808.6
2575.243	1782.6
2578.89	1799.6
2582.533	1771.6
2586.173	1757.6
2589.809	1739.6
2593.443	1724.6
2597.073	1705.6
2600.701	1719.6
2604.325	1687.6
2607.946	1676.6
2611.564	1662.6
2615.178	1665.6
2618.79	1644.6
2622.398	1628.6
2626.004	1628.6
2629.606	1581.6
2633.205	1575.6
2636.801	1546.6
2640.394	1528.6
2643.983	1541.6
2647.57	1503.6
2651.153	1495.6
2654.734	1455.6
2658.311	1421.6
2661.885	1393.6
2665.456	1394.6
2669.025	1368.6
2672.589	1342.6
2676.151	1332.6
2679.71	1331.6
2683.266	1306.6
2686.819	1286.6
2690.368	1245.6
2693.915	1225.6
2697.458	1201.6
2700.999	1141.6
2704.536	1128.6
2708.071	1120.6
2711.602	1085.6
2715.13	1059.6
2718.656	1051.6
2722.178	1026.6
2725.697	1012.6
2729.214	999.6
2732.727	980.6
2736.237	972.6
2739.744	967.6
2743.249	986.6
2746.75	974.6
2750.248	976.6
2753.743	1002.6
2757.236	1019.6
2760.725	1015.6
2764.211	1040.6
2767.695	1044.6
2771.175	1019.6
2774.652	1036.6
2778.127	1014.6
2781.598	1013.6
2785.067	1010.6
2788.532	990.6
2791.995	1001.6
2795.455	1011.6
2798.911	1006.6
2802.365	1003.6
2805.816	1005.6
2809.264	1019.6
2812.709	1023.6
2816.151	1009.6
2819.59	1014.6
2823.026	1012.6
2826.46	1018.6
2829.89	1028.6
2833.318	1022.6
2836.742	1026.6
2840.164	1015.6
2843.583	1019.6
2846.999	1058.6
2850.412	1063.6
2853.822	1064.6
2857.229	1077.6
2860.634	1095.6
2864.035	1128.6
2867.434	1133.6
2870.83	1154.6
2874.223	1189.6
2877.613	1207.6
2881	1203.6
2884.385	1220.6
2887.766	1231.6
2891.145	1208.6
2894.521	1209.6
2897.894	1227.6
2901.264	1217.6
2904.631	1217.6
2907.996	1204.6
2911.358	1243.6
2914.717	1225.6
2918.073	1250.6
2921.426	1257.6
2924.777	1245.6
2928.124	1269.6
2931.469	1292.6
2934.811	1344.6
2938.15	1326.6
2941.487	1368.6
2944.821	1369.6
2948.152	1369.6
2951.48	1365.6
2954.805	1328.6
2958.128	1341.6
2961.447	1331.6
2964.765	1333.6
2968.079	1306.6
2971.39	1326.6
2974.699	1357.6
2978.005	1386.6
2981.308	1405.6
2984.609	1431.6
2987.907	1432.6
2991.202	1470.6
2994.494	1515.6
2997.784	1519.6
3001.07	1573.6
3004.355	1599.6
3007.636	1596.6
3010.915	1627.6
3014.191	1642.6
3017.464	1659.6
3020.734	1664.6
3024.002	1675.6
3027.267	1697.6
3030.53	1704.6
3033.789	1711.6
3037.046	1758.6
3040.301	1759.6
3043.552	1787.6
3046.801	1825.6
3050.048	1860.6
3053.291	1912.6
3056.532	1985.6
3059.771	2031.6
3063.006	2076.6
3066.239	2148.6
3069.469	2235.6
3072.697	2256.6
3075.922	2332.6
3079.144	2389.6
3082.364	2421.6
3085.581	2487.6
3088.795	2566.6
3092.007	2591.6
3095.216	2663.6
3098.423	2729.6
3101.627	2774.6
3104.828	2826.6
3108.026	2929.6
3111.222	2959.6
3114.416	3044.6
3117.607	3111.6
3120.795	3175.6
3123.98	3258.6
3127.163	3337.6
3130.344	3409.6
3133.521	3464.6
3136.696	3553.6
3139.869	3635.6
3143.039	3691.6
3146.206	3768.6
3149.371	3796.6
3152.533	3824.6
3155.693	3832.6
3158.85	3864.6
3162.005	3864.6
3165.157	3869.6
3168.306	3929.6
3171.453	3928.6
3174.597	3944.6
3177.739	3941.6
3180.878	3945.6
3184.014	3944.6
3187.149	3924.6
3190.28	3949.6
3193.409	3955.6
3196.536	3977.6
3199.659	3972.6
3202.781	4000.6
3205.9	3991.6
3209.016	3988.6
3212.13	3950.6
3215.241	3934.6
3218.35	3877.6
3221.456	3863.6
3224.56	3806.6
3227.661	3767.6
3230.76	3738.6
3233.856	3709.6
3236.95	3659.6
3240.041	3640.6
3243.13	3636.6
3246.216	3605.6
3249.3	3588.6
3252.382	3596.6
3255.46	3570.6
3258.537	3549.6
3261.611	3540.6
3264.682	3525.6
3267.751	3533.6
3270.818	3517.6
3273.882	3505.6
3276.943	3519.6
3280.002	3491.6
3283.059	3431.6
3286.113	3396.6
3289.165	3340.6
3292.214	3324.6
3295.261	3244.6
3298.306	3197.6
3301.348	3115.6
3304.387	3101.6
3307.425	3035.6
3310.459	2983.6
3313.492	2923.6
3316.521	2889.6
3319.549	2867.6
3322.574	2847.6
3325.597	2796.6
3328.617	2810.6
3331.635	2784.6
3334.65	2753.6
3337.663	2734.6
3340.674	2733.6
3343.682	2726.6
3346.688	2705.6
3349.691	2711.6
3352.692	2686.6
3355.691	2655.6
3358.687	2640.6
3361.681	2598.6
3364.673	2564.6
3367.662	2538.6
3370.649	2508.6
3373.633	2453.6
3376.615	2446.6
3379.595	2398.6
3382.572	2362.6
3385.547	2331.6
3388.52	2290.6
3391.49	2261.6
3394.458	2225.6
3397.424	2182.6
3400.387	2184.6
3403.348	2143.6
3406.307	2112.6
3409.263	2079.6
3412.217	2064.6
3415.168	2031.6
3418.118	2016.6
3421.065	2025.6
3424.009	1946.6
3426.951	1947.6
3429.891	1910.6
3432.829	1865.6
3435.764	1802.6
3438.697	1784.6
3441.628	1712.6
3444.557	1676.6
3447.483	1619.6
3450.407	1574.6
3453.328	1534.6
3456.247	1480.6
3459.164	1425.6
3462.079	1399.6
3464.991	1318.6
3467.902	1276.6
3470.809	1230.6
3473.715	1192.6
3476.618	1145.6
3479.519	1110.6
3482.418	1088.6
3485.315	1046.6
3488.209	998.6
3491.101	970.6
3493.99	935.6
3496.878	887.6
3499.763	863.6
3502.646	831.6
3505.527	792.6
3508.405	771.6
3511.281	725.6
3514.155	683.6
3517.027	649.6
3519.897	620.6
3522.764	548.6
3525.629	537.6
3528.492	470.6
3531.352	442.6
3534.211	405.6
3537.067	386.6
3539.921	334.6
3542.773	294.6
3545.622	260.6
3548.469	228.6
3551.315	206.6
3554.157	171.6
3556.998	149.6
3559.837	137.6
3562.673	113.6
3565.507	80.6
3568.339	75.6
3571.169	47.6
3573.996	34.6
3576.822	5.6
3579.645	-18.4
3582.466	-39.4
3585.285	-57.4
3588.101	-82.4
3590.916	-102.4
3593.728	-119.4
3596.538	-136.4
3599.346	-147.4
3602.152	-158.4
3604.956	-187.4
3607.757	-199.4
3610.556	-217.4
3613.354	-221.4
3616.149	-235.4
3618.942	-243.4
3621.732	-258.4
3624.521	-272.4
3627.307	-280.4
3630.092	-282.4
3632.874	-302.4
3635.654	-310.4
3638.432	-326.4
3641.208	-327.4
3643.982	-340.4
3646.753	-343.4
3649.523	-344.4
3652.29	-357.4
3655.055	-375.4
3657.818	-385.4
3660.579	-391.4
3663.338	-415.4
3666.095	-412.4
3668.849	-419.4
3671.602	-434.4
3674.352	-443.4
3677.101	-437.4
3679.847	-455.4
3682.591	-456.4
3685.333	-462.4
3688.073	-466.4
3690.811	-471.4
3693.547	-479.4
3696.281	-479.4
3699.013	-492.4
3701.742	-485.4
3704.47	-498.4
3707.195	-503.4
3709.919	-507.4
3712.64	-515.4
3715.359	-507.4
3718.076	-513.4
3720.792	-520.4
3723.505	-523.4
3726.216	-528.4
3728.925	-528.4
3731.632	-535.4
3734.336	-530.4
3737.039	-535.4
3739.74	-530.4
3742.439	-539.4
3745.136	-543.4
3747.83	-551.4
3750.523	-543.4
3753.213	-519.4
3755.902	-555.4
3758.589	-555.4
3761.273	-558.4
3763.956	-560.4
3766.636	-568.4
3769.315	-566.4
3771.991	-562.4
3774.665	-568.4
3777.338	-562.4
3780.008	-572.4
3782.677	-569.4
3785.343	-565.4
3788.007	-570.4
3790.67	-571.4
3793.33	-569.4
3795.989	-573.4
3798.645	-574.4
3801.299	-573.4
3803.952	-578.4
3806.602	-582.4
3809.251	-588.4
3811.897	-584.4
3814.542	-585.4
3817.184	-582.4
3819.825	-581.4
3822.463	-574.4
3825.1	-593.4
3827.735	-584.4
3830.367	-581.4
3832.998	-592.4
3835.627	-589.4
3838.253	-590.4
3840.878	-594.4
3843.501	-591.4
3846.122	-587.4
3848.741	-586.4
3851.358	-588.4
3853.973	-588.4
3856.586	-590.4
3859.197	-598.4
3861.806	-599.4
3864.414	-587.4
3867.019	-592.4
3869.622	-597.4
3872.224	-592.4
3874.823	-583.4
3877.421	-564.4
3880.016	-553.4
3882.61	-539.4
3885.202	-533.4
3887.792	-543.4
3890.38	-564.4
3892.966	-581.4
3895.55	-596.4
3898.132	-606.4
3900.713	-607.4
3903.291	-606.4
3905.868	-604.4
3908.442	-600.4
3911.015	-609.4
3913.586	-603.4
3916.155	-599.4
3918.722	-612.4
3921.287	-609.4
3923.85	-609.4
3926.411	-607.4
3928.971	-620.4
3931.528	-611.4
3934.084	-614.4
3936.638	-609.4
3939.19	-611.4
3941.74	-612.4
3944.288	-614.4
3946.834	-614.4
3949.378	-614.4
3951.921	-618.4
3954.462	-616.4
3957	-611.4
3959.537	-610.4
3962.072	-609.4
3964.606	-611.4
3967.137	-613.4
3969.667	-610.4
3972.194	-601.4
3974.72	-609.4
3977.244	-596.4
3979.766	-597.4
3982.286	-604.4
3984.805	-603.4
3987.321	-601.4
3989.836	-600.4
3992.349	-595.4
3994.86	-597.4
3997.369	-603.4
3999.877	-597.4
4002.382	-596.4
4004.886	-596.4
4007.388	-593.4
4009.888	-592.4
4012.386	-602.4
4014.883	-597.4
4017.377	-597.4
4019.87	-595.4
4022.361	-596.4
4024.85	-595.4
4027.338	-597.4
4029.823	-598.4
4032.307	-598.4
4034.789	-599.4
4037.269	-593.4
4039.747	-598.4
4042.224	-602.4
4044.699	-598.4
4047.172	-599.4
4049.643	-599.4
4052.112	-604.4
4054.58	-603.4
4057.046	-604.4
4059.51	-601.4
4061.972	-606.4
4064.432	-603.4
4066.891	-602.4
4069.348	-599.4
4071.803	-598.4
4074.256	-594.4
4076.708	-595.4
4079.158	-604.4
4081.606	-595.4
4084.052	-603.4
4086.497	-607.4
4088.939	-594.4
4091.38	-597.4
4093.819	-597.4
4096.257	-633.4
4098.693	-634.4
4101.127	-635.4
4103.559	-632.4
4105.989	-358.4
4108.418	-341.4
4110.845	-320.4
4113.27	-299.4
4115.694	-254.4
4118.115	-213.4
4120.535	-597.4
4122.954	-593.4
4125.37	-591.4
4127.785	-597.4
4130.198	-601.4
4132.609	-600.4
4135.019	-635.4
4137.427	-634.4
4139.833	-633.4
4142.237	-627.4
