Data from 2018-2-14_conc=5_n=2_RamanShift_01.txt Node
Date: Wed Feb 14 14:07:25 IST 2018
User: aro
Spectrometer: QEPB0276
Trigger mode: 0
Integration Time (sec): 3.000000E1
Scans to average: 1
Electric dark correction enabled: true
Nonlinearity correction enabled: false
Boxcar width: 0
XAxis mode: Raman Shifts
Number of Pixels in Spectrum: 1044
>>>>>Begin Spectral Data<<<<<
160.701	-140.9
166.742	41.1
172.777	556.1
178.805	2123.1
184.826	5866.1
190.841	12230.1
196.849	19615.1
202.85	24812.1
208.845	26475.1
214.833	26164.1
220.815	25685.1
226.789	25514.1
232.758	25297.1
238.719	25137.1
244.674	24759.1
250.623	24231.1
256.565	23719.1
262.5	23176.1
268.429	22747.1
274.351	22323.1
280.267	22059.1
286.176	21829.1
292.079	21519.1
297.975	21341.1
303.865	21104.1
309.748	20928.1
315.625	20728.1
321.495	20676.1
327.359	20592.1
333.217	20560.1
339.068	20541.1
344.912	20474.1
350.751	20466.1
356.583	20408.1
362.408	20414.1
368.227	20369.1
374.04	20371.1
379.847	20429.1
385.647	20595.1
391.44	20625.1
397.228	20704.1
403.009	20841.1
408.784	20877.1
414.553	20935.1
420.315	20955.1
426.071	20993.1
431.821	20975.1
437.565	20932.1
443.302	20878.1
449.033	20926.1
454.758	20857.1
460.477	20837.1
466.189	20747.1
471.896	20762.1
477.596	20599.1
483.29	20580.1
488.978	20561.1
494.66	20456.1
500.335	20336.1
506.005	20130.1
511.668	19823.1
517.325	19666.1
522.977	19469.1
528.622	19338.1
534.261	19231.1
539.894	19069.1
545.521	18990.1
551.141	18910.1
556.756	18863.1
562.365	18772.1
567.968	18770.1
573.565	18623.1
579.155	18635.1
584.74	18513.1
590.319	18462.1
595.892	18381.1
601.459	18291.1
607.02	18232.1
612.575	18115.1
618.124	17972.1
623.667	17882.1
629.204	17834.1
634.735	17714.1
640.261	17620.1
645.781	17538.1
651.294	17549.1
656.802	17512.1
662.304	17459.1
667.8	17438.1
673.29	17434.1
678.775	17409.1
684.254	17336.1
689.726	17277.1
695.193	17238.1
700.655	17157.1
706.11	17033.1
711.56	16950.1
717.004	16894.1
722.442	16818.1
727.874	16734.1
733.301	16672.1
738.722	16651.1
744.137	16602.1
749.547	16619.1
754.951	16592.1
760.349	16633.1
765.741	16571.1
771.128	16623.1
776.509	16645.1
781.885	16631.1
787.254	16599.1
792.618	16510.1
797.977	16451.1
803.33	16300.1
808.677	16214.1
814.019	16103.1
819.355	16033.1
824.686	15956.1
830.011	15917.1
835.33	15954.1
840.644	15968.1
845.952	15895.1
851.255	15979.1
856.552	16040.1
861.844	15982.1
867.13	15967.1
872.41	15870.1
877.686	15797.1
882.955	15698.1
888.219	15517.1
893.478	15361.1
898.731	15182.1
903.979	15014.1
909.221	14902.1
914.458	14843.1
919.69	14869.1
924.916	14913.1
930.136	14932.1
935.351	14945.1
940.561	14928.1
945.766	14927.1
950.965	14894.1
956.158	14745.1
961.347	14573.1
966.529	14407.1
971.707	14229.1
976.879	14038.1
982.046	13961.1
987.208	13898.1
992.364	13873.1
997.515	13997.1
1002.66	14088.1
1007.801	14282.1
1012.936	14381.1
1018.066	14389.1
1023.19	14327.1
1028.309	14426.1
1033.423	14331.1
1038.532	14326.1
1043.636	14064.1
1048.734	13993.1
1053.827	13804.1
1058.915	13631.1
1063.998	13539.1
1069.075	13471.1
1074.147	13522.1
1079.214	13573.1
1084.276	13675.1
1089.333	13739.1
1094.385	13846.1
1099.431	13813.1
1104.472	13879.1
1109.509	13776.1
1114.54	13591.1
1119.565	13425.1
1124.586	13254.1
1129.602	13144.1
1134.613	13056.1
1139.618	12937.1
1144.619	12922.1
1149.614	12976.1
1154.604	12977.1
1159.589	12989.1
1164.57	13036.1
1169.545	13004.1
1174.515	13039.1
1179.48	12982.1
1184.44	12934.1
1189.395	12774.1
1194.345	12696.1
1199.29	12655.1
1204.23	12599.1
1209.165	12700.1
1214.095	12739.1
1219.021	12869.1
1223.941	12940.1
1228.856	12900.1
1233.766	12996.1
1238.672	12993.1
1243.572	13036.1
1248.467	12940.1
1253.358	12749.1
1258.244	12615.1
1263.124	12400.1
1268	12223.1
1272.871	12110.1
1277.737	12007.1
1282.599	11935.1
1287.455	11961.1
1292.306	11954.1
1297.153	11990.1
1301.995	12016.1
1306.832	12092.1
1311.664	12154.1
1316.491	12063.1
1321.314	11995.1
1326.132	11793.1
1330.945	11538.1
1335.753	11267.1
1340.556	10948.1
1345.354	10766.1
1350.148	10599.1
1354.937	10568.1
1359.722	10580.1
1364.501	10668.1
1369.276	10734.1
1374.046	10942.1
1378.811	11024.1
1383.572	11191.1
1388.327	11197.1
1393.079	11131.1
1397.825	10974.1
1402.567	10779.1
1407.304	10684.1
1412.036	10572.1
1416.764	10469.1
1421.487	10396.1
1426.205	10340.1
1430.919	10334.1
1435.628	10297.1
1440.333	10359.1
1445.032	10310.1
1449.727	10430.1
1454.418	10405.1
1459.104	10287.1
1463.785	10086.1
1468.462	9945.1
1473.134	9714.1
1477.802	9539.1
1482.465	9387.1
1487.123	9312.1
1491.777	9323.1
1496.426	9368.1
1501.071	9448.1
1505.711	9598.1
1510.347	9808.1
1514.978	9969.1
1519.604	10094.1
1524.226	10202.1
1528.844	10202.1
1533.457	10176.1
1538.065	10122.1
1542.669	10050.1
1547.269	9969.1
1551.864	9907.1
1556.454	9826.1
1561.041	9815.1
1565.622	9841.1
1570.199	9827.1
1574.772	9896.1
1579.34	9959.1
1583.904	9981.1
1588.464	10042.1
1593.019	10004.1
1597.569	9990.1
1602.115	9969.1
1606.657	9868.1
1611.195	9841.1
1615.728	9750.1
1620.256	9728.1
1624.78	9762.1
1629.3	9754.1
1633.816	9765.1
1638.327	9846.1
1642.834	9878.1
1647.336	9945.1
1651.834	9958.1
1656.328	9949.1
1660.817	9942.1
1665.302	9842.1
1669.783	9680.1
1674.259	9490.1
1678.732	9194.1
1683.199	8867.1
1687.663	8619.1
1692.122	8363.1
1696.577	8262.1
1701.028	8219.1
1705.474	8308.1
1709.917	8381.1
1714.355	8403.1
1718.788	8346.1
1723.218	8216.1
1727.643	8017.1
1732.064	7863.1
1736.481	7678.1
1740.893	7536.1
1745.301	7283.1
1749.705	7119.1
1754.105	6898.1
1758.501	6703.1
1762.893	6499.1
1767.28	6339.1
1771.663	6241.1
1776.042	6114.1
1780.417	6092.1
1784.787	6119.1
1789.154	6145.1
1793.516	6314.1
1797.874	6440.1
1802.228	6533.1
1806.578	6612.1
1810.924	6579.1
1815.266	6520.1
1819.603	6442.1
1823.937	6297.1
1828.266	6224.1
1832.591	6138.1
1836.913	6048.1
1841.23	5942.1
1845.543	5902.1
1849.852	5894.1
1854.156	5895.1
1858.457	5878.1
1862.754	5871.1
1867.047	5847.1
1871.335	5821.1
1875.62	5859.1
1879.9	5827.1
1884.177	5788.1
1888.449	5754.1
1892.718	5684.1
1896.982	5631.1
1901.243	5586.1
1905.499	5560.1
1909.752	5528.1
1914	5593.1
1918.245	5602.1
1922.485	5624.1
1926.722	5726.1
1930.954	5765.1
1935.183	5845.1
1939.408	5874.1
1943.628	5916.1
1947.845	5944.1
1952.058	5925.1
1956.267	5885.1
1960.472	5819.1
1964.673	5677.1
1968.87	5603.1
1973.063	5513.1
1977.252	5415.1
1981.438	5376.1
1985.619	5294.1
1989.797	5267.1
1993.971	5231.1
1998.14	5220.1
2002.306	5182.1
2006.469	5137.1
2010.627	5140.1
2014.781	5087.1
2018.932	5071.1
2023.078	5025.1
2027.221	4955.1
2031.36	4865.1
2035.495	4810.1
2039.627	4711.1
2043.754	4678.1
2047.878	4625.1
2051.998	4618.1
2056.114	4607.1
2060.226	4607.1
2064.334	4625.1
2068.439	4623.1
2072.54	4654.1
2076.637	4696.1
2080.73	4729.1
2084.82	4777.1
2088.906	4794.1
2092.988	4786.1
2097.066	4782.1
2101.14	4761.1
2105.211	4684.1
2109.278	4655.1
2113.342	4650.1
2117.401	4597.1
2121.457	4596.1
2125.509	4588.1
2129.558	4557.1
2133.602	4507.1
2137.643	4485.1
2141.681	4465.1
2145.714	4436.1
2149.744	4383.1
2153.77	4384.1
2157.793	4323.1
2161.812	4289.1
2165.827	4205.1
2169.838	4144.1
2173.846	4064.1
2177.851	3989.1
2181.851	3963.1
2185.848	3915.1
2189.841	3850.1
2193.831	3822.1
2197.817	3791.1
2201.799	3745.1
2205.778	3726.1
2209.753	3733.1
2213.725	3706.1
2217.693	3706.1
2221.657	3673.1
2225.618	3699.1
2229.575	3676.1
2233.529	3612.1
2237.479	3589.1
2241.425	3566.1
2245.368	3498.1
2249.307	3459.1
2253.243	3392.1
2257.175	3356.1
2261.104	3323.1
2265.029	3274.1
2268.95	3249.1
2272.868	3208.1
2276.783	3179.1
2280.694	3114.1
2284.601	3105.1
2288.505	3079.1
2292.405	3040.1
2296.302	3050.1
2300.195	2999.1
2304.085	2945.1
2307.971	2919.1
2311.854	2866.1
2315.734	2797.1
2319.609	2762.1
2323.482	2744.1
2327.351	2730.1
2331.216	2673.1
2335.078	2683.1
2338.937	2641.1
2342.792	2630.1
2346.643	2603.1
2350.492	2644.1
2354.336	2629.1
2358.178	2645.1
2362.015	2648.1
2365.85	2650.1
2369.681	2658.1
2373.508	2641.1
2377.333	2640.1
2381.153	2632.1
2384.971	2637.1
2388.785	2604.1
2392.595	2546.1
2396.402	2546.1
2400.206	2527.1
2404.007	2507.1
2407.804	2501.1
2411.597	2497.1
2415.388	2440.1
2419.174	2449.1
2422.958	2408.1
2426.738	2415.1
2430.515	2380.1
2434.289	2358.1
2438.059	2362.1
2441.825	2347.1
2445.589	2316.1
2449.349	2270.1
2453.106	2263.1
2456.859	2242.1
2460.61	2203.1
2464.356	2179.1
2468.1	2134.1
2471.84	2146.1
2475.577	2114.1
2479.311	2091.1
2483.041	2117.1
2486.768	2090.1
2490.492	2086.1
2494.213	2074.1
2497.93	2078.1
2501.644	2064.1
2505.355	2059.1
2509.062	2054.1
2512.766	2045.1
2516.467	2051.1
2520.165	2007.1
2523.859	2004.1
2527.551	1991.1
2531.239	1989.1
2534.923	1983.1
2538.605	1964.1
2542.283	1976.1
2545.958	1959.1
2549.63	1960.1
2553.299	1950.1
2556.964	1936.1
2560.626	1945.1
2564.285	1942.1
2567.941	1905.1
2571.594	1896.1
2575.243	1884.1
2578.89	1866.1
2582.533	1868.1
2586.173	1846.1
2589.809	1827.1
2593.443	1808.1
2597.073	1809.1
2600.701	1784.1
2604.325	1770.1
2607.946	1759.1
2611.564	1746.1
2615.178	1733.1
2618.79	1740.1
2622.398	1703.1
2626.004	1702.1
2629.606	1658.1
2633.205	1646.1
2636.801	1621.1
2640.394	1596.1
2643.983	1568.1
2647.57	1561.1
2651.153	1535.1
2654.734	1487.1
2658.311	1484.1
2661.885	1447.1
2665.456	1444.1
2669.025	1446.1
2672.589	1409.1
2676.151	1379.1
2679.71	1383.1
2683.266	1364.1
2686.819	1340.1
2690.368	1308.1
2693.915	1285.1
2697.458	1257.1
2700.999	1233.1
2704.536	1182.1
2708.071	1160.1
2711.602	1144.1
2715.13	1110.1
2718.656	1109.1
2722.178	1092.1
2725.697	1066.1
2729.214	1066.1
2732.727	1058.1
2736.237	1044.1
2739.744	1048.1
2743.249	1068.1
2746.75	1063.1
2750.248	1072.1
2753.743	1089.1
2757.236	1105.1
2760.725	1099.1
2764.211	1119.1
2767.695	1120.1
2771.175	1120.1
2774.652	1125.1
2778.127	1109.1
2781.598	1112.1
2785.067	1091.1
2788.532	1085.1
2791.995	1095.1
2795.455	1091.1
2798.911	1085.1
2802.365	1096.1
2805.816	1096.1
2809.264	1104.1
2812.709	1097.1
2816.151	1094.1
2819.59	1082.1
2823.026	1087.1
2826.46	1081.1
2829.89	1079.1
2833.318	1095.1
2836.742	1092.1
2840.164	1094.1
2843.583	1098.1
2846.999	1127.1
2850.412	1141.1
2853.822	1130.1
2857.229	1142.1
2860.634	1144.1
2864.035	1192.1
2867.434	1214.1
2870.83	1231.1
2874.223	1236.1
2877.613	1256.1
2881	1286.1
2884.385	1267.1
2887.766	1293.1
2891.145	1289.1
2894.521	1268.1
2897.894	1263.1
2901.264	1265.1
2904.631	1277.1
2907.996	1270.1
2911.358	1287.1
2914.717	1293.1
2918.073	1305.1
2921.426	1313.1
2924.777	1313.1
2928.124	1341.1
2931.469	1359.1
2934.811	1394.1
2938.15	1402.1
2941.487	1396.1
2944.821	1433.1
2948.152	1404.1
2951.48	1416.1
2954.805	1396.1
2958.128	1387.1
2961.447	1380.1
2964.765	1384.1
2968.079	1385.1
2971.39	1391.1
2974.699	1417.1
2978.005	1439.1
2981.308	1456.1
2984.609	1486.1
2987.907	1506.1
2991.202	1532.1
2994.494	1581.1
2997.784	1597.1
3001.07	1652.1
3004.355	1652.1
3007.636	1681.1
3010.915	1706.1
3014.191	1707.1
3017.464	1702.1
3020.734	1728.1
3024.002	1752.1
3027.267	1763.1
3030.53	1759.1
3033.789	1782.1
3037.046	1789.1
3040.301	1828.1
3043.552	1861.1
3046.801	1903.1
3050.048	1920.1
3053.291	1985.1
3056.532	2036.1
3059.771	2103.1
3063.006	2170.1
3066.239	2222.1
3069.469	2289.1
3072.697	2338.1
3075.922	2392.1
3079.144	2445.1
3082.364	2497.1
3085.581	2571.1
3088.795	2616.1
3092.007	2674.1
3095.216	2723.1
3098.423	2763.1
3101.627	2828.1
3104.828	2917.1
3108.026	2957.1
3111.222	3045.1
3114.416	3111.1
3117.607	3180.1
3120.795	3280.1
3123.98	3340.1
3127.163	3393.1
3130.344	3466.1
3133.521	3575.1
3136.696	3657.1
3139.869	3711.1
3143.039	3774.1
3146.206	3853.1
3149.371	3889.1
3152.533	3935.1
3155.693	3955.1
3158.85	3945.1
3162.005	3966.1
3165.157	3979.1
3168.306	3988.1
3171.453	4004.1
3174.597	4016.1
3177.739	4048.1
3180.878	4009.1
3184.014	4041.1
3187.149	4029.1
3190.28	4040.1
3193.409	4030.1
3196.536	4059.1
3199.659	4045.1
3202.781	4057.1
3205.9	4055.1
3209.016	4050.1
3212.13	4047.1
3215.241	4016.1
3218.35	3972.1
3221.456	3922.1
3224.56	3889.1
3227.661	3843.1
3230.76	3782.1
3233.856	3782.1
3236.95	3738.1
3240.041	3687.1
3243.13	3677.1
3246.216	3676.1
3249.3	3662.1
3252.382	3648.1
3255.46	3605.1
3258.537	3588.1
3261.611	3600.1
3264.682	3593.1
3267.751	3631.1
3270.818	3618.1
3273.882	3608.1
3276.943	3593.1
3280.002	3546.1
3283.059	3502.1
3286.113	3468.1
3289.165	3403.1
3292.214	3357.1
3295.261	3305.1
3298.306	3264.1
3301.348	3198.1
3304.387	3168.1
3307.425	3098.1
3310.459	3037.1
3313.492	3009.1
3316.521	2964.1
3319.549	2919.1
3322.574	2896.1
3325.597	2849.1
3328.617	2868.1
3331.635	2825.1
3334.65	2821.1
3337.663	2807.1
3340.674	2785.1
3343.682	2786.1
3346.688	2788.1
3349.691	2759.1
3352.692	2736.1
3355.691	2712.1
3358.687	2710.1
3361.681	2661.1
3364.673	2634.1
3367.662	2572.1
3370.649	2535.1
3373.633	2534.1
3376.615	2501.1
3379.595	2441.1
3382.572	2439.1
3385.547	2395.1
3388.52	2356.1
3391.49	2299.1
3394.458	2253.1
3397.424	2225.1
3400.387	2227.1
3403.348	2175.1
3406.307	2165.1
3409.263	2134.1
3412.217	2125.1
3415.168	2112.1
3418.118	2067.1
3421.065	2027.1
3424.009	2010.1
3426.951	1982.1
3429.891	1944.1
3432.829	1906.1
3435.764	1858.1
3438.697	1829.1
3441.628	1772.1
3444.557	1703.1
3447.483	1669.1
3450.407	1621.1
3453.328	1573.1
3456.247	1533.1
3459.164	1448.1
3462.079	1422.1
3464.991	1378.1
3467.902	1304.1
3470.809	1268.1
3473.715	1197.1
3476.618	1165.1
3479.519	1128.1
3482.418	1101.1
3485.315	1065.1
3488.209	1011.1
3491.101	968.1
3493.99	957.1
3496.878	916.1
3499.763	885.1
3502.646	844.1
3505.527	807.1
3508.405	779.1
3511.281	740.1
3514.155	707.1
3517.027	667.1
3519.897	631.1
3522.764	573.1
3525.629	546.1
3528.492	500.1
3531.352	459.1
3534.211	412.1
3537.067	374.1
3539.921	335.1
3542.773	298.1
3545.622	279.1
3548.469	251.1
3551.315	219.1
3554.157	185.1
3556.998	147.1
3559.837	134.1
3562.673	112.1
3565.507	97.1
3568.339	69.1
3571.169	49.1
3573.996	42.1
3576.822	4.1
3579.645	-8.9
3582.466	-34.9
3585.285	-49.9
3588.101	-65.9
3590.916	-91.9
3593.728	-121.9
3596.538	-125.9
3599.346	-143.9
3602.152	-160.9
3604.956	-182.9
3607.757	-200.9
3610.556	-221.9
3613.354	-228.9
3616.149	-241.9
3618.942	-250.9
3621.732	-258.9
3624.521	-273.9
3627.307	-290.9
3630.092	-302.9
3632.874	-308.9
3635.654	-316.9
3638.432	-327.9
3641.208	-330.9
3643.982	-347.9
3646.753	-349.9
3649.523	-360.9
3652.29	-371.9
3655.055	-367.9
3657.818	-383.9
3660.579	-388.9
3663.338	-412.9
3666.095	-418.9
3668.849	-432.9
3671.602	-433.9
3674.352	-443.9
3677.101	-440.9
3679.847	-464.9
3682.591	-459.9
3685.333	-467.9
3688.073	-472.9
3690.811	-481.9
3693.547	-481.9
3696.281	-494.9
3699.013	-493.9
3701.742	-496.9
3704.47	-508.9
3707.195	-517.9
3709.919	-519.9
3712.64	-518.9
3715.359	-513.9
3718.076	-522.9
3720.792	-525.9
3723.505	-529.9
3726.216	-530.9
3728.925	-529.9
3731.632	-540.9
3734.336	-538.9
3737.039	-545.9
3739.74	-543.9
3742.439	-551.9
3745.136	-550.9
3747.83	-551.9
3750.523	-560.9
3753.213	-552.9
3755.902	-554.9
3758.589	-559.9
3761.273	-564.9
3763.956	-566.9
3766.636	-570.9
3769.315	-569.9
3771.991	-572.9
3774.665	-574.9
3777.338	-572.9
3780.008	-578.9
3782.677	-585.9
3785.343	-576.9
3788.007	-580.9
3790.67	-581.9
3793.33	-583.9
3795.989	-582.9
3798.645	-582.9
3801.299	-583.9
3803.952	-589.9
3806.602	-596.9
3809.251	-591.9
3811.897	-588.9
3814.542	-591.9
3817.184	-595.9
3819.825	-588.9
3822.463	-585.9
3825.1	-598.9
3827.735	-587.9
3830.367	-590.9
3832.998	-601.9
3835.627	-602.9
3838.253	-602.9
3840.878	-603.9
3843.501	-597.9
3846.122	-601.9
3848.741	-599.9
3851.358	-598.9
3853.973	-605.9
3856.586	-602.9
3859.197	-606.9
3861.806	-609.9
3864.414	-598.9
3867.019	-599.9
3869.622	-603.9
3872.224	-597.9
3874.823	-586.9
3877.421	-570.9
3880.016	-550.9
3882.61	-537.9
3885.202	-530.9
3887.792	-549.9
3890.38	-577.9
3892.966	-594.9
3895.55	-600.9
3898.132	-615.9
3900.713	-614.9
3903.291	-613.9
3905.868	-615.9
3908.442	-616.9
3911.015	-621.9
3913.586	-614.9
3916.155	-616.9
3918.722	-616.9
3921.287	-617.9
3923.85	-620.9
3926.411	-619.9
3928.971	-621.9
3931.528	-617.9
3934.084	-621.9
3936.638	-620.9
3939.19	-618.9
3941.74	-613.9
3944.288	-618.9
3946.834	-614.9
3949.378	-620.9
3951.921	-619.9
3954.462	-621.9
3957	-616.9
3959.537	-619.9
3962.072	-608.9
3964.606	-621.9
3967.137	-619.9
3969.667	-617.9
3972.194	-609.9
3974.72	-619.9
3977.244	-611.9
3979.766	-609.9
3982.286	-610.9
3984.805	-608.9
3987.321	-610.9
3989.836	-615.9
3992.349	-607.9
3994.86	-603.9
3997.369	-619.9
3999.877	-605.9
4002.382	-602.9
4004.886	-603.9
4007.388	-604.9
4009.888	-604.9
4012.386	-607.9
4014.883	-607.9
4017.377	-601.9
4019.87	-608.9
4022.361	-604.9
4024.85	-610.9
4027.338	-607.9
4029.823	-605.9
4032.307	-605.9
4034.789	-604.9
4037.269	-604.9
4039.747	-611.9
4042.224	-613.9
4044.699	-615.9
4047.172	-609.9
4049.643	-603.9
4052.112	-611.9
4054.58	-621.9
4057.046	-616.9
4059.51	-614.9
4061.972	-614.9
4064.432	-614.9
4066.891	-608.9
4069.348	-600.9
4071.803	-608.9
4074.256	-605.9
4076.708	-609.9
4079.158	-609.9
4081.606	-609.9
4084.052	-615.9
4086.497	-609.9
4088.939	-600.9
4091.38	-608.9
4093.819	-600.9
4096.257	-639.9
4098.693	-642.9
4101.127	-645.9
4103.559	-642.9
4105.989	-370.9
4108.418	-347.9
4110.845	-331.9
4113.27	-302.9
4115.694	-272.9
4118.115	-222.9
4120.535	-606.9
4122.954	-608.9
4125.37	-603.9
4127.785	-610.9
4130.198	-615.9
4132.609	-609.9
4135.019	-645.9
4137.427	-647.9
4139.833	-644.9
4142.237	-640.9
