Data from 2018-2-14_conc=3_n=7_RamanShift_06.txt Node
Date: Wed Feb 14 12:04:56 IST 2018
User: aro
Spectrometer: QEPB0276
Trigger mode: 0
Integration Time (sec): 3.000000E1
Scans to average: 1
Electric dark correction enabled: true
Nonlinearity correction enabled: false
Boxcar width: 0
XAxis mode: Raman Shifts
Number of Pixels in Spectrum: 1044
>>>>>Begin Spectral Data<<<<<
160.701	-136.9
166.742	47.1
172.777	583.1
178.805	2232.1
184.826	6174.1
190.841	13018.1
196.849	21027.1
202.85	26759.1
208.845	28649.1
214.833	28417.1
220.815	27868.1
226.789	27635.1
232.758	27575.1
238.719	27289.1
244.674	26967.1
250.623	26491.1
256.565	25914.1
262.5	25398.1
268.429	24891.1
274.351	24526.1
280.267	24123.1
286.176	23913.1
292.079	23671.1
297.975	23443.1
303.865	23152.1
309.748	23053.1
315.625	22883.1
321.495	22717.1
327.359	22700.1
333.217	22598.1
339.068	22628.1
344.912	22590.1
350.751	22509.1
356.583	22481.1
362.408	22475.1
368.227	22522.1
374.04	22518.1
379.847	22596.1
385.647	22648.1
391.44	22805.1
397.228	22815.1
403.009	22987.1
408.784	23001.1
414.553	23028.1
420.315	23133.1
426.071	23163.1
431.821	23106.1
437.565	23115.1
443.302	23134.1
449.033	23049.1
454.758	22998.1
460.477	22994.1
466.189	22889.1
471.896	22869.1
477.596	22822.1
483.29	22754.1
488.978	22712.1
494.66	22655.1
500.335	22502.1
506.005	22262.1
511.668	21964.1
517.325	21745.1
522.977	21548.1
528.622	21385.1
534.261	21222.1
539.894	21152.1
545.521	21055.1
551.141	20974.1
556.756	20876.1
562.365	20847.1
567.968	20753.1
573.565	20683.1
579.155	20584.1
584.74	20486.1
590.319	20429.1
595.892	20407.1
601.459	20304.1
607.02	20160.1
612.575	20089.1
618.124	19933.1
623.667	19825.1
629.204	19748.1
634.735	19622.1
640.261	19555.1
645.781	19522.1
651.294	19441.1
656.802	19451.1
662.304	19440.1
667.8	19385.1
673.29	19384.1
678.775	19277.1
684.254	19223.1
689.726	19251.1
695.193	19194.1
700.655	19040.1
706.11	19016.1
711.56	18872.1
717.004	18813.1
722.442	18728.1
727.874	18597.1
733.301	18565.1
738.722	18501.1
744.137	18467.1
749.547	18434.1
754.951	18474.1
760.349	18505.1
765.741	18460.1
771.128	18479.1
776.509	18503.1
781.885	18533.1
787.254	18478.1
792.618	18396.1
797.977	18265.1
803.33	18124.1
808.677	18076.1
814.019	17988.1
819.355	17894.1
824.686	17791.1
830.011	17745.1
835.33	17810.1
840.644	17811.1
845.952	17774.1
851.255	17852.1
856.552	17878.1
861.844	17865.1
867.13	17741.1
872.41	17721.1
877.686	17661.1
882.955	17519.1
888.219	17311.1
893.478	17197.1
898.731	17014.1
903.979	16780.1
909.221	16644.1
914.458	16624.1
919.69	16606.1
924.916	16664.1
930.136	16742.1
935.351	16718.1
940.561	16752.1
945.766	16712.1
950.965	16614.1
956.158	16524.1
961.347	16334.1
966.529	16141.1
971.707	15974.1
976.879	15785.1
982.046	15614.1
987.208	15560.1
992.364	15588.1
997.515	15723.1
1002.66	15846.1
1007.801	16003.1
1012.936	16117.1
1018.066	16129.1
1023.19	16128.1
1028.309	16125.1
1033.423	16094.1
1038.532	16019.1
1043.636	15862.1
1048.734	15682.1
1053.827	15457.1
1058.915	15317.1
1063.998	15229.1
1069.075	15173.1
1074.147	15194.1
1079.214	15238.1
1084.276	15307.1
1089.333	15488.1
1094.385	15497.1
1099.431	15577.1
1104.472	15566.1
1109.509	15425.1
1114.54	15314.1
1119.565	15118.1
1124.586	14899.1
1129.602	14772.1
1134.613	14661.1
1139.618	14545.1
1144.619	14586.1
1149.614	14542.1
1154.604	14587.1
1159.589	14627.1
1164.57	14620.1
1169.545	14699.1
1174.515	14676.1
1179.48	14583.1
1184.44	14495.1
1189.395	14350.1
1194.345	14272.1
1199.29	14272.1
1204.23	14234.1
1209.165	14286.1
1214.095	14359.1
1219.021	14404.1
1223.941	14495.1
1228.856	14602.1
1233.766	14657.1
1238.672	14635.1
1243.572	14632.1
1248.467	14583.1
1253.358	14375.1
1258.244	14193.1
1263.124	13978.1
1268	13804.1
1272.871	13622.1
1277.737	13507.1
1282.599	13468.1
1287.455	13477.1
1292.306	13490.1
1297.153	13490.1
1301.995	13597.1
1306.832	13674.1
1311.664	13678.1
1316.491	13655.1
1321.314	13503.1
1326.132	13358.1
1330.945	13026.1
1335.753	12710.1
1340.556	12415.1
1345.354	12137.1
1350.148	11847.1
1354.937	11726.1
1359.722	11712.1
1364.501	11778.1
1369.276	11984.1
1374.046	12190.1
1378.811	12460.1
1383.572	12611.1
1388.327	12645.1
1393.079	12589.1
1397.825	12452.1
1402.567	12230.1
1407.304	12046.1
1412.036	11967.1
1416.764	11793.1
1421.487	11797.1
1426.205	11676.1
1430.919	11681.1
1435.628	11689.1
1440.333	11673.1
1445.032	11720.1
1449.727	11770.1
1454.418	11719.1
1459.104	11608.1
1463.785	11360.1
1468.462	11180.1
1473.134	10903.1
1477.802	10669.1
1482.465	10451.1
1487.123	10359.1
1491.777	10268.1
1496.426	10370.1
1501.071	10474.1
1505.711	10700.1
1510.347	10883.1
1514.978	11077.1
1519.604	11256.1
1524.226	11396.1
1528.844	11457.1
1533.457	11378.1
1538.065	11329.1
1542.669	11271.1
1547.269	11188.1
1551.864	11128.1
1556.454	11060.1
1561.041	11050.1
1565.622	11060.1
1570.199	11051.1
1574.772	11104.1
1579.34	11214.1
1583.904	11203.1
1588.464	11244.1
1593.019	11249.1
1597.569	11260.1
1602.115	11190.1
1606.657	11100.1
1611.195	11029.1
1615.728	10946.1
1620.256	10927.1
1624.78	10901.1
1629.3	10897.1
1633.816	10918.1
1638.327	11018.1
1642.834	11061.1
1647.336	11095.1
1651.834	11095.1
1656.328	11071.1
1660.817	10996.1
1665.302	10921.1
1669.783	10738.1
1674.259	10534.1
1678.732	10227.1
1683.199	9862.1
1687.663	9504.1
1692.122	9156.1
1696.577	8988.1
1701.028	9002.1
1705.474	9094.1
1709.917	9305.1
1714.355	9376.1
1718.788	9244.1
1723.218	9112.1
1727.643	8971.1
1732.064	8778.1
1736.481	8618.1
1740.893	8369.1
1745.301	8136.1
1749.705	7962.1
1754.105	7732.1
1758.501	7518.1
1762.893	7328.1
1767.28	7162.1
1771.663	6973.1
1776.042	6806.1
1780.417	6744.1
1784.787	6709.1
1789.154	6757.1
1793.516	6857.1
1797.874	7045.1
1802.228	7206.1
1806.578	7327.1
1810.924	7361.1
1815.266	7340.1
1819.603	7201.1
1823.937	7035.1
1828.266	6946.1
1832.591	6834.1
1836.913	6704.1
1841.23	6674.1
1845.543	6603.1
1849.852	6581.1
1854.156	6542.1
1858.457	6505.1
1862.754	6527.1
1867.047	6511.1
1871.335	6521.1
1875.62	6499.1
1879.9	6442.1
1884.177	6414.1
1888.449	6339.1
1892.718	6309.1
1896.982	6246.1
1901.243	6163.1
1905.499	6079.1
1909.752	6063.1
1914	6038.1
1918.245	6087.1
1922.485	6125.1
1926.722	6179.1
1930.954	6265.1
1935.183	6386.1
1939.408	6461.1
1943.628	6520.1
1947.845	6548.1
1952.058	6498.1
1956.267	6450.1
1960.472	6385.1
1964.673	6292.1
1968.87	6234.1
1973.063	6127.1
1977.252	6019.1
1981.438	5935.1
1985.619	5880.1
1989.797	5860.1
1993.971	5833.1
1998.14	5811.1
2002.306	5769.1
2006.469	5785.1
2010.627	5704.1
2014.781	5692.1
2018.932	5630.1
2023.078	5603.1
2027.221	5473.1
2031.36	5448.1
2035.495	5359.1
2039.627	5261.1
2043.754	5217.1
2047.878	5110.1
2051.998	5112.1
2056.114	5073.1
2060.226	5070.1
2064.334	5076.1
2068.439	5106.1
2072.54	5142.1
2076.637	5111.1
2080.73	5195.1
2084.82	5239.1
2088.906	5250.1
2092.988	5213.1
2097.066	5197.1
2101.14	5184.1
2105.211	5144.1
2109.278	5142.1
2113.342	5136.1
2117.401	5085.1
2121.457	5076.1
2125.509	5052.1
2129.558	5001.1
2133.602	5006.1
2137.643	4981.1
2141.681	4963.1
2145.714	4946.1
2149.744	4866.1
2153.77	4877.1
2157.793	4807.1
2161.812	4725.1
2165.827	4645.1
2169.838	4612.1
2173.846	4551.1
2177.851	4473.1
2181.851	4423.1
2185.848	4339.1
2189.841	4300.1
2193.831	4244.1
2197.817	4209.1
2201.799	4188.1
2205.778	4181.1
2209.753	4176.1
2213.725	4135.1
2217.693	4150.1
2221.657	4148.1
2225.618	4115.1
2229.575	4085.1
2233.529	4067.1
2237.479	4029.1
2241.425	3962.1
2245.368	3934.1
2249.307	3885.1
2253.243	3820.1
2257.175	3779.1
2261.104	3721.1
2265.029	3704.1
2268.95	3632.1
2272.868	3621.1
2276.783	3571.1
2280.694	3557.1
2284.601	3517.1
2288.505	3483.1
2292.405	3414.1
2296.302	3448.1
2300.195	3352.1
2304.085	3346.1
2307.971	3266.1
2311.854	3218.1
2315.734	3205.1
2319.609	3162.1
2323.482	3135.1
2327.351	3083.1
2331.216	3050.1
2335.078	3031.1
2338.937	3025.1
2342.792	3014.1
2346.643	2995.1
2350.492	3015.1
2354.336	3007.1
2358.178	2994.1
2362.015	3007.1
2365.85	3021.1
2369.681	3017.1
2373.508	3020.1
2377.333	3034.1
2381.153	3004.1
2384.971	2993.1
2388.785	2960.1
2392.595	2955.1
2396.402	2921.1
2400.206	2898.1
2404.007	2845.1
2407.804	2861.1
2411.597	2823.1
2415.388	2829.1
2419.174	2797.1
2422.958	2798.1
2426.738	2762.1
2430.515	2736.1
2434.289	2723.1
2438.059	2687.1
2441.825	2657.1
2445.589	2646.1
2449.349	2629.1
2453.106	2592.1
2456.859	2534.1
2460.61	2548.1
2464.356	2506.1
2468.1	2478.1
2471.84	2448.1
2475.577	2399.1
2479.311	2399.1
2483.041	2401.1
2486.768	2376.1
2490.492	2373.1
2494.213	2396.1
2497.93	2377.1
2501.644	2345.1
2505.355	2338.1
2509.062	2315.1
2512.766	2309.1
2516.467	2300.1
2520.165	2283.1
2523.859	2282.1
2527.551	2245.1
2531.239	2256.1
2534.923	2238.1
2538.605	2218.1
2542.283	2236.1
2545.958	2207.1
2549.63	2198.1
2553.299	2214.1
2556.964	2197.1
2560.626	2198.1
2564.285	2182.1
2567.941	2178.1
2571.594	2160.1
2575.243	2154.1
2578.89	2143.1
2582.533	2131.1
2586.173	2107.1
2589.809	2102.1
2593.443	2085.1
2597.073	2045.1
2600.701	2029.1
2604.325	2026.1
2607.946	2017.1
2611.564	1988.1
2615.178	1981.1
2618.79	1975.1
2622.398	1955.1
2626.004	1951.1
2629.606	1915.1
2633.205	1896.1
2636.801	1870.1
2640.394	1847.1
2643.983	1812.1
2647.57	1804.1
2651.153	1776.1
2654.734	1728.1
2658.311	1724.1
2661.885	1707.1
2665.456	1673.1
2669.025	1647.1
2672.589	1634.1
2676.151	1626.1
2679.71	1604.1
2683.266	1592.1
2686.819	1533.1
2690.368	1499.1
2693.915	1504.1
2697.458	1456.1
2700.999	1413.1
2704.536	1391.1
2708.071	1361.1
2711.602	1313.1
2715.13	1290.1
2718.656	1286.1
2722.178	1257.1
2725.697	1228.1
2729.214	1225.1
2732.727	1195.1
2736.237	1194.1
2739.744	1184.1
2743.249	1173.1
2746.75	1224.1
2750.248	1202.1
2753.743	1224.1
2757.236	1244.1
2760.725	1265.1
2764.211	1259.1
2767.695	1277.1
2771.175	1271.1
2774.652	1265.1
2778.127	1280.1
2781.598	1247.1
2785.067	1248.1
2788.532	1246.1
2791.995	1228.1
2795.455	1225.1
2798.911	1226.1
2802.365	1232.1
2805.816	1232.1
2809.264	1230.1
2812.709	1264.1
2816.151	1236.1
2819.59	1233.1
2823.026	1241.1
2826.46	1237.1
2829.89	1214.1
2833.318	1236.1
2836.742	1257.1
2840.164	1246.1
2843.583	1249.1
2846.999	1269.1
2850.412	1285.1
2853.822	1290.1
2857.229	1302.1
2860.634	1336.1
2864.035	1349.1
2867.434	1388.1
2870.83	1371.1
2874.223	1406.1
2877.613	1424.1
2881	1444.1
2884.385	1435.1
2887.766	1439.1
2891.145	1435.1
2894.521	1440.1
2897.894	1447.1
2901.264	1429.1
2904.631	1429.1
2907.996	1440.1
2911.358	1442.1
2914.717	1454.1
2918.073	1466.1
2921.426	1486.1
2924.777	1477.1
2928.124	1506.1
2931.469	1521.1
2934.811	1553.1
2938.15	1577.1
2941.487	1576.1
2944.821	1596.1
2948.152	1600.1
2951.48	1580.1
2954.805	1559.1
2958.128	1553.1
2961.447	1550.1
2964.765	1525.1
2968.079	1518.1
2971.39	1524.1
2974.699	1568.1
2978.005	1581.1
2981.308	1608.1
2984.609	1647.1
2987.907	1673.1
2991.202	1680.1
2994.494	1747.1
2997.784	1779.1
3001.07	1799.1
3004.355	1799.1
3007.636	1841.1
3010.915	1857.1
3014.191	1902.1
3017.464	1899.1
3020.734	1911.1
3024.002	1934.1
3027.267	1926.1
3030.53	1937.1
3033.789	1964.1
3037.046	1970.1
3040.301	2023.1
3043.552	2037.1
3046.801	2089.1
3050.048	2099.1
3053.291	2182.1
3056.532	2205.1
3059.771	2300.1
3063.006	2328.1
3066.239	2406.1
3069.469	2492.1
3072.697	2545.1
3075.922	2605.1
3079.144	2668.1
3082.364	2729.1
3085.581	2756.1
3088.795	2855.1
3092.007	2910.1
3095.216	2965.1
3098.423	3015.1
3101.627	3080.1
3104.828	3164.1
3108.026	3209.1
3111.222	3274.1
3114.416	3349.1
3117.607	3441.1
3120.795	3498.1
3123.98	3594.1
3127.163	3660.1
3130.344	3771.1
3133.521	3832.1
3136.696	3921.1
3139.869	4022.1
3143.039	4082.1
3146.206	4078.1
3149.371	4170.1
3152.533	4232.1
3155.693	4259.1
3158.85	4273.1
3162.005	4311.1
3165.157	4303.1
3168.306	4303.1
3171.453	4295.1
3174.597	4312.1
3177.739	4341.1
3180.878	4318.1
3184.014	4341.1
3187.149	4349.1
3190.28	4389.1
3193.409	4377.1
3196.536	4359.1
3199.659	4381.1
3202.781	4378.1
3205.9	4389.1
3209.016	4375.1
3212.13	4357.1
3215.241	4329.1
3218.35	4287.1
3221.456	4257.1
3224.56	4207.1
3227.661	4128.1
3230.76	4140.1
3233.856	4088.1
3236.95	4042.1
3240.041	4008.1
3243.13	3970.1
3246.216	3957.1
3249.3	3937.1
3252.382	3928.1
3255.46	3909.1
3258.537	3901.1
3261.611	3905.1
3264.682	3886.1
3267.751	3893.1
3270.818	3882.1
3273.882	3856.1
3276.943	3854.1
3280.002	3823.1
3283.059	3778.1
3286.113	3745.1
3289.165	3713.1
3292.214	3615.1
3295.261	3571.1
3298.306	3529.1
3301.348	3448.1
3304.387	3397.1
3307.425	3359.1
3310.459	3305.1
3313.492	3242.1
3316.521	3216.1
3319.549	3163.1
3322.574	3131.1
3325.597	3121.1
3328.617	3106.1
3331.635	3085.1
3334.65	3054.1
3337.663	3026.1
3340.674	2982.1
3343.682	3003.1
3346.688	3030.1
3349.691	2973.1
3352.692	2972.1
3355.691	2928.1
3358.687	2934.1
3361.681	2883.1
3364.673	2824.1
3367.662	2798.1
3370.649	2765.1
3373.633	2707.1
3376.615	2686.1
3379.595	2637.1
3382.572	2609.1
3385.547	2571.1
3388.52	2545.1
3391.49	2486.1
3394.458	2465.1
3397.424	2441.1
3400.387	2399.1
3403.348	2347.1
3406.307	2340.1
3409.263	2317.1
3412.217	2296.1
3415.168	2272.1
3418.118	2254.1
3421.065	2201.1
3424.009	2185.1
3426.951	2121.1
3429.891	2112.1
3432.829	2049.1
3435.764	2010.1
3438.697	1968.1
3441.628	1923.1
3444.557	1846.1
3447.483	1798.1
3450.407	1739.1
3453.328	1695.1
3456.247	1638.1
3459.164	1588.1
3462.079	1527.1
3464.991	1471.1
3467.902	1427.1
3470.809	1363.1
3473.715	1334.1
3476.618	1270.1
3479.519	1219.1
3482.418	1197.1
3485.315	1155.1
3488.209	1107.1
3491.101	1087.1
3493.99	1048.1
3496.878	1013.1
3499.763	950.1
3502.646	933.1
3505.527	903.1
3508.405	843.1
3511.281	790.1
3514.155	754.1
3517.027	712.1
3519.897	671.1
3522.764	624.1
3525.629	584.1
3528.492	528.1
3531.352	501.1
3534.211	470.1
3537.067	402.1
3539.921	385.1
3542.773	337.1
3545.622	306.1
3548.469	276.1
3551.315	236.1
3554.157	221.1
3556.998	182.1
3559.837	150.1
3562.673	132.1
3565.507	102.1
3568.339	85.1
3571.169	65.1
3573.996	52.1
3576.822	27.1
3579.645	-2.9
3582.466	-21.9
3585.285	-39.9
3588.101	-59.9
3590.916	-83.9
3593.728	-109.9
3596.538	-119.9
3599.346	-139.9
3602.152	-161.9
3604.956	-173.9
3607.757	-206.9
3610.556	-219.9
3613.354	-235.9
3616.149	-250.9
3618.942	-260.9
3621.732	-268.9
3624.521	-272.9
3627.307	-290.9
3630.092	-297.9
3632.874	-321.9
3635.654	-327.9
3638.432	-337.9
3641.208	-342.9
3643.982	-358.9
3646.753	-366.9
3649.523	-380.9
3652.29	-385.9
3655.055	-393.9
3657.818	-409.9
3660.579	-422.9
3663.338	-434.9
3666.095	-444.9
3668.849	-456.9
3671.602	-455.9
3674.352	-463.9
3677.101	-463.9
3679.847	-476.9
3682.591	-491.9
3685.333	-493.9
3688.073	-487.9
3690.811	-503.9
3693.547	-506.9
3696.281	-513.9
3699.013	-512.9
3701.742	-525.9
3704.47	-526.9
3707.195	-540.9
3709.919	-539.9
3712.64	-540.9
3715.359	-545.9
3718.076	-553.9
3720.792	-550.9
3723.505	-558.9
3726.216	-565.9
3728.925	-565.9
3731.632	-572.9
3734.336	-568.9
3737.039	-568.9
3739.74	-571.9
3742.439	-576.9
3745.136	-577.9
3747.83	-584.9
3750.523	-584.9
3753.213	-580.9
3755.902	-588.9
3758.589	-590.9
3761.273	-593.9
3763.956	-598.9
3766.636	-599.9
3769.315	-605.9
3771.991	-602.9
3774.665	-605.9
3777.338	-605.9
3780.008	-606.9
3782.677	-606.9
3785.343	-605.9
3788.007	-607.9
3790.67	-615.9
3793.33	-614.9
3795.989	-612.9
3798.645	-609.9
3801.299	-610.9
3803.952	-618.9
3806.602	-625.9
3809.251	-628.9
3811.897	-621.9
3814.542	-630.9
3817.184	-621.9
3819.825	-624.9
3822.463	-619.9
3825.1	-630.9
3827.735	-621.9
3830.367	-623.9
3832.998	-631.9
3835.627	-632.9
3838.253	-633.9
3840.878	-630.9
3843.501	-633.9
3846.122	-630.9
3848.741	-632.9
3851.358	-637.9
3853.973	-636.9
3856.586	-635.9
3859.197	-640.9
3861.806	-639.9
3864.414	-635.9
3867.019	-636.9
3869.622	-638.9
3872.224	-628.9
3874.823	-613.9
3877.421	-602.9
3880.016	-586.9
3882.61	-575.9
3885.202	-567.9
3887.792	-569.9
3890.38	-602.9
3892.966	-626.9
3895.55	-636.9
3898.132	-646.9
3900.713	-652.9
3903.291	-645.9
3905.868	-649.9
3908.442	-649.9
3911.015	-655.9
3913.586	-648.9
3916.155	-646.9
3918.722	-655.9
3921.287	-643.9
3923.85	-654.9
3926.411	-651.9
3928.971	-655.9
3931.528	-655.9
3934.084	-653.9
3936.638	-648.9
3939.19	-651.9
3941.74	-650.9
3944.288	-652.9
3946.834	-652.9
3949.378	-651.9
3951.921	-653.9
3954.462	-660.9
3957	-650.9
3959.537	-656.9
3962.072	-657.9
3964.606	-657.9
3967.137	-655.9
3969.667	-656.9
3972.194	-650.9
3974.72	-651.9
3977.244	-645.9
3979.766	-645.9
3982.286	-642.9
3984.805	-641.9
3987.321	-638.9
3989.836	-643.9
3992.349	-633.9
3994.86	-636.9
3997.369	-639.9
3999.877	-634.9
4002.382	-638.9
4004.886	-631.9
4007.388	-630.9
4009.888	-630.9
4012.386	-640.9
4014.883	-638.9
4017.377	-636.9
4019.87	-636.9
4022.361	-639.9
4024.85	-641.9
4027.338	-643.9
4029.823	-646.9
4032.307	-646.9
4034.789	-640.9
4037.269	-638.9
4039.747	-636.9
4042.224	-638.9
4044.699	-641.9
4047.172	-635.9
4049.643	-639.9
4052.112	-643.9
4054.58	-643.9
4057.046	-648.9
4059.51	-642.9
4061.972	-649.9
4064.432	-647.9
4066.891	-646.9
4069.348	-643.9
4071.803	-641.9
4074.256	-645.9
4076.708	-638.9
4079.158	-645.9
4081.606	-644.9
4084.052	-647.9
4086.497	-642.9
4088.939	-631.9
4091.38	-641.9
4093.819	-640.9
4096.257	-676.9
4098.693	-677.9
4101.127	-679.9
4103.559	-675.9
4105.989	-382.9
4108.418	-348.9
4110.845	-340.9
4113.27	-315.9
4115.694	-272.9
4118.115	-220.9
4120.535	-640.9
4122.954	-640.9
4125.37	-637.9
4127.785	-641.9
4130.198	-638.9
4132.609	-642.9
4135.019	-680.9
4137.427	-683.9
4139.833	-682.9
4142.237	-677.9
