Data from 2018-2-14_conc=0_n=8_RamanShift_03.txt Node
Date: Wed Feb 14 10:50:56 IST 2018
User: aro
Spectrometer: QEPB0276
Trigger mode: 0
Integration Time (sec): 3.000000E1
Scans to average: 1
Electric dark correction enabled: true
Nonlinearity correction enabled: false
Boxcar width: 0
XAxis mode: Raman Shifts
Number of Pixels in Spectrum: 1044
>>>>>Begin Spectral Data<<<<<
160.701	-138.9
166.742	45.1
172.777	550.1
178.805	2126.1
184.826	5902.1
190.841	12314.1
196.849	19758.1
202.85	24993.1
208.845	26698.1
214.833	26475.1
220.815	26016.1
226.789	25690.1
232.758	25681.1
238.719	25483.1
244.674	25166.1
250.623	24702.1
256.565	24160.1
262.5	23639.1
268.429	23219.1
274.351	22898.1
280.267	22520.1
286.176	22298.1
292.079	22051.1
297.975	21825.1
303.865	21651.1
309.748	21516.1
315.625	21428.1
321.495	21259.1
327.359	21213.1
333.217	21131.1
339.068	21113.1
344.912	21043.1
350.751	21076.1
356.583	20975.1
362.408	21052.1
368.227	21023.1
374.04	21025.1
379.847	21089.1
385.647	21149.1
391.44	21197.1
397.228	21339.1
403.009	21368.1
408.784	21461.1
414.553	21504.1
420.315	21570.1
426.071	21559.1
431.821	21532.1
437.565	21499.1
443.302	21504.1
449.033	21470.1
454.758	21429.1
460.477	21431.1
466.189	21273.1
471.896	21262.1
477.596	21213.1
483.29	21175.1
488.978	21177.1
494.66	21087.1
500.335	20966.1
506.005	20756.1
511.668	20559.1
517.325	20313.1
522.977	20135.1
528.622	19925.1
534.261	19897.1
539.894	19817.1
545.521	19748.1
551.141	19661.1
556.756	19597.1
562.365	19497.1
567.968	19409.1
573.565	19346.1
579.155	19285.1
584.74	19236.1
590.319	19120.1
595.892	19042.1
601.459	18994.1
607.02	18893.1
612.575	18813.1
618.124	18695.1
623.667	18597.1
629.204	18538.1
634.735	18420.1
640.261	18349.1
645.781	18261.1
651.294	18237.1
656.802	18214.1
662.304	18175.1
667.8	18146.1
673.29	18133.1
678.775	18038.1
684.254	18027.1
689.726	17965.1
695.193	17859.1
700.655	17757.1
706.11	17769.1
711.56	17607.1
717.004	17550.1
722.442	17533.1
727.874	17406.1
733.301	17380.1
738.722	17307.1
744.137	17264.1
749.547	17294.1
754.951	17264.1
760.349	17295.1
765.741	17342.1
771.128	17286.1
776.509	17266.1
781.885	17292.1
787.254	17250.1
792.618	17203.1
797.977	17054.1
803.33	16890.1
808.677	16915.1
814.019	16797.1
819.355	16692.1
824.686	16611.1
830.011	16579.1
835.33	16621.1
840.644	16560.1
845.952	16608.1
851.255	16693.1
856.552	16650.1
861.844	16703.1
867.13	16619.1
872.41	16527.1
877.686	16503.1
882.955	16338.1
888.219	16223.1
893.478	16015.1
898.731	15836.1
903.979	15713.1
909.221	15525.1
914.458	15550.1
919.69	15534.1
924.916	15530.1
930.136	15576.1
935.351	15604.1
940.561	15639.1
945.766	15588.1
950.965	15532.1
956.158	15388.1
961.347	15271.1
966.529	15098.1
971.707	14912.1
976.879	14723.1
982.046	14604.1
987.208	14517.1
992.364	14532.1
997.515	14661.1
1002.66	14773.1
1007.801	14912.1
1012.936	15028.1
1018.066	15031.1
1023.19	15020.1
1028.309	15027.1
1033.423	15002.1
1038.532	14859.1
1043.636	14726.1
1048.734	14604.1
1053.827	14393.1
1058.915	14298.1
1063.998	14180.1
1069.075	14168.1
1074.147	14094.1
1079.214	14171.1
1084.276	14258.1
1089.333	14330.1
1094.385	14454.1
1099.431	14455.1
1104.472	14486.1
1109.509	14393.1
1114.54	14211.1
1119.565	14059.1
1124.586	13903.1
1129.602	13730.1
1134.613	13641.1
1139.618	13618.1
1144.619	13542.1
1149.614	13549.1
1154.604	13609.1
1159.589	13612.1
1164.57	13599.1
1169.545	13646.1
1174.515	13669.1
1179.48	13555.1
1184.44	13483.1
1189.395	13371.1
1194.345	13277.1
1199.29	13250.1
1204.23	13206.1
1209.165	13290.1
1214.095	13306.1
1219.021	13387.1
1223.941	13453.1
1228.856	13574.1
1233.766	13602.1
1238.672	13603.1
1243.572	13621.1
1248.467	13456.1
1253.358	13359.1
1258.244	13147.1
1263.124	12929.1
1268	12801.1
1272.871	12618.1
1277.737	12566.1
1282.599	12468.1
1287.455	12496.1
1292.306	12474.1
1297.153	12505.1
1301.995	12569.1
1306.832	12602.1
1311.664	12660.1
1316.491	12614.1
1321.314	12533.1
1326.132	12377.1
1330.945	12080.1
1335.753	11796.1
1340.556	11437.1
1345.354	11234.1
1350.148	11019.1
1354.937	10946.1
1359.722	10949.1
1364.501	10990.1
1369.276	11101.1
1374.046	11256.1
1378.811	11436.1
1383.572	11663.1
1388.327	11624.1
1393.079	11590.1
1397.825	11472.1
1402.567	11297.1
1407.304	11134.1
1412.036	11056.1
1416.764	10925.1
1421.487	10889.1
1426.205	10780.1
1430.919	10764.1
1435.628	10805.1
1440.333	10775.1
1445.032	10820.1
1449.727	10849.1
1454.418	10816.1
1459.104	10710.1
1463.785	10463.1
1468.462	10336.1
1473.134	10077.1
1477.802	9837.1
1482.465	9703.1
1487.123	9579.1
1491.777	9594.1
1496.426	9604.1
1501.071	9701.1
1505.711	9882.1
1510.347	10046.1
1514.978	10280.1
1519.604	10379.1
1524.226	10486.1
1528.844	10490.1
1533.457	10480.1
1538.065	10425.1
1542.669	10375.1
1547.269	10298.1
1551.864	10250.1
1556.454	10177.1
1561.041	10213.1
1565.622	10171.1
1570.199	10199.1
1574.772	10247.1
1579.34	10332.1
1583.904	10367.1
1588.464	10370.1
1593.019	10375.1
1597.569	10346.1
1602.115	10316.1
1606.657	10206.1
1611.195	10141.1
1615.728	10083.1
1620.256	10066.1
1624.78	10023.1
1629.3	10051.1
1633.816	10063.1
1638.327	10085.1
1642.834	10158.1
1647.336	10213.1
1651.834	10235.1
1656.328	10241.1
1660.817	10167.1
1665.302	10057.1
1669.783	9880.1
1674.259	9696.1
1678.732	9406.1
1683.199	9092.1
1687.663	8742.1
1692.122	8469.1
1696.577	8332.1
1701.028	8320.1
1705.474	8418.1
1709.917	8536.1
1714.355	8593.1
1718.788	8590.1
1723.218	8368.1
1727.643	8277.1
1732.064	8078.1
1736.481	7924.1
1740.893	7692.1
1745.301	7511.1
1749.705	7316.1
1754.105	7126.1
1758.501	6885.1
1762.893	6736.1
1767.28	6545.1
1771.663	6358.1
1776.042	6273.1
1780.417	6215.1
1784.787	6234.1
1789.154	6252.1
1793.516	6384.1
1797.874	6532.1
1802.228	6623.1
1806.578	6726.1
1810.924	6779.1
1815.266	6661.1
1819.603	6590.1
1823.937	6480.1
1828.266	6387.1
1832.591	6254.1
1836.913	6166.1
1841.23	6121.1
1845.543	6095.1
1849.852	6022.1
1854.156	6029.1
1858.457	6038.1
1862.754	6044.1
1867.047	5979.1
1871.335	5994.1
1875.62	5962.1
1879.9	5945.1
1884.177	5888.1
1888.449	5860.1
1892.718	5779.1
1896.982	5747.1
1901.243	5682.1
1905.499	5635.1
1909.752	5609.1
1914	5568.1
1918.245	5617.1
1922.485	5706.1
1926.722	5758.1
1930.954	5810.1
1935.183	5867.1
1939.408	5973.1
1943.628	5997.1
1947.845	6010.1
1952.058	6003.1
1956.267	5929.1
1960.472	5878.1
1964.673	5812.1
1968.87	5681.1
1973.063	5615.1
1977.252	5553.1
1981.438	5461.1
1985.619	5434.1
1989.797	5371.1
1993.971	5342.1
1998.14	5306.1
2002.306	5270.1
2006.469	5292.1
2010.627	5251.1
2014.781	5212.1
2018.932	5167.1
2023.078	5127.1
2027.221	5052.1
2031.36	4964.1
2035.495	4890.1
2039.627	4851.1
2043.754	4753.1
2047.878	4731.1
2051.998	4688.1
2056.114	4689.1
2060.226	4660.1
2064.334	4661.1
2068.439	4703.1
2072.54	4694.1
2076.637	4764.1
2080.73	4783.1
2084.82	4803.1
2088.906	4812.1
2092.988	4835.1
2097.066	4815.1
2101.14	4792.1
2105.211	4765.1
2109.278	4711.1
2113.342	4674.1
2117.401	4657.1
2121.457	4648.1
2125.509	4629.1
2129.558	4606.1
2133.602	4549.1
2137.643	4509.1
2141.681	4505.1
2145.714	4509.1
2149.744	4485.1
2153.77	4420.1
2157.793	4396.1
2161.812	4332.1
2165.827	4261.1
2169.838	4219.1
2173.846	4137.1
2177.851	4074.1
2181.851	4015.1
2185.848	3955.1
2189.841	3897.1
2193.831	3891.1
2197.817	3851.1
2201.799	3838.1
2205.778	3834.1
2209.753	3814.1
2213.725	3805.1
2217.693	3799.1
2221.657	3782.1
2225.618	3770.1
2229.575	3738.1
2233.529	3723.1
2237.479	3695.1
2241.425	3639.1
2245.368	3575.1
2249.307	3548.1
2253.243	3512.1
2257.175	3416.1
2261.104	3393.1
2265.029	3381.1
2268.95	3318.1
2272.868	3300.1
2276.783	3256.1
2280.694	3212.1
2284.601	3196.1
2288.505	3159.1
2292.405	3141.1
2296.302	3082.1
2300.195	3072.1
2304.085	3052.1
2307.971	2977.1
2311.854	2931.1
2315.734	2928.1
2319.609	2881.1
2323.482	2851.1
2327.351	2808.1
2331.216	2791.1
2335.078	2768.1
2338.937	2741.1
2342.792	2769.1
2346.643	2719.1
2350.492	2739.1
2354.336	2740.1
2358.178	2752.1
2362.015	2752.1
2365.85	2774.1
2369.681	2760.1
2373.508	2791.1
2377.333	2754.1
2381.153	2760.1
2384.971	2739.1
2388.785	2692.1
2392.595	2705.1
2396.402	2691.1
2400.206	2644.1
2404.007	2622.1
2407.804	2627.1
2411.597	2605.1
2415.388	2590.1
2419.174	2567.1
2422.958	2555.1
2426.738	2527.1
2430.515	2514.1
2434.289	2494.1
2438.059	2486.1
2441.825	2449.1
2445.589	2441.1
2449.349	2409.1
2453.106	2400.1
2456.859	2356.1
2460.61	2321.1
2464.356	2302.1
2468.1	2274.1
2471.84	2251.1
2475.577	2224.1
2479.311	2211.1
2483.041	2220.1
2486.768	2187.1
2490.492	2209.1
2494.213	2204.1
2497.93	2180.1
2501.644	2173.1
2505.355	2133.1
2509.062	2121.1
2512.766	2127.1
2516.467	2102.1
2520.165	2091.1
2523.859	2061.1
2527.551	2073.1
2531.239	2056.1
2534.923	2031.1
2538.605	2036.1
2542.283	2022.1
2545.958	2029.1
2549.63	2041.1
2553.299	2029.1
2556.964	2020.1
2560.626	1984.1
2564.285	1992.1
2567.941	1986.1
2571.594	1978.1
2575.243	1974.1
2578.89	1948.1
2582.533	1942.1
2586.173	1911.1
2589.809	1915.1
2593.443	1894.1
2597.073	1885.1
2600.701	1852.1
2604.325	1850.1
2607.946	1826.1
2611.564	1823.1
2615.178	1819.1
2618.79	1796.1
2622.398	1786.1
2626.004	1777.1
2629.606	1750.1
2633.205	1730.1
2636.801	1709.1
2640.394	1699.1
2643.983	1661.1
2647.57	1649.1
2651.153	1605.1
2654.734	1585.1
2658.311	1566.1
2661.885	1531.1
2665.456	1522.1
2669.025	1490.1
2672.589	1495.1
2676.151	1485.1
2679.71	1461.1
2683.266	1432.1
2686.819	1417.1
2690.368	1390.1
2693.915	1346.1
2697.458	1337.1
2700.999	1283.1
2704.536	1250.1
2708.071	1238.1
2711.602	1217.1
2715.13	1167.1
2718.656	1162.1
2722.178	1141.1
2725.697	1109.1
2729.214	1115.1
2732.727	1102.1
2736.237	1064.1
2739.744	1070.1
2743.249	1078.1
2746.75	1105.1
2750.248	1105.1
2753.743	1110.1
2757.236	1128.1
2760.725	1153.1
2764.211	1144.1
2767.695	1149.1
2771.175	1152.1
2774.652	1149.1
2778.127	1134.1
2781.598	1127.1
2785.067	1120.1
2788.532	1139.1
2791.995	1110.1
2795.455	1123.1
2798.911	1108.1
2802.365	1121.1
2805.816	1126.1
2809.264	1108.1
2812.709	1124.1
2816.151	1119.1
2819.59	1131.1
2823.026	1110.1
2826.46	1132.1
2829.89	1114.1
2833.318	1112.1
2836.742	1137.1
2840.164	1115.1
2843.583	1123.1
2846.999	1141.1
2850.412	1179.1
2853.822	1182.1
2857.229	1174.1
2860.634	1205.1
2864.035	1219.1
2867.434	1237.1
2870.83	1249.1
2874.223	1269.1
2877.613	1313.1
2881	1309.1
2884.385	1304.1
2887.766	1326.1
2891.145	1313.1
2894.521	1312.1
2897.894	1308.1
2901.264	1299.1
2904.631	1292.1
2907.996	1304.1
2911.358	1318.1
2914.717	1309.1
2918.073	1326.1
2921.426	1334.1
2924.777	1359.1
2928.124	1377.1
2931.469	1402.1
2934.811	1411.1
2938.15	1433.1
2941.487	1441.1
2944.821	1440.1
2948.152	1452.1
2951.48	1435.1
2954.805	1404.1
2958.128	1412.1
2961.447	1406.1
2964.765	1374.1
2968.079	1388.1
2971.39	1403.1
2974.699	1428.1
2978.005	1438.1
2981.308	1454.1
2984.609	1515.1
2987.907	1521.1
2991.202	1544.1
2994.494	1586.1
2997.784	1624.1
3001.07	1648.1
3004.355	1686.1
3007.636	1681.1
3010.915	1697.1
3014.191	1712.1
3017.464	1735.1
3020.734	1745.1
3024.002	1762.1
3027.267	1760.1
3030.53	1772.1
3033.789	1780.1
3037.046	1825.1
3040.301	1828.1
3043.552	1856.1
3046.801	1903.1
3050.048	1940.1
3053.291	1985.1
3056.532	2015.1
3059.771	2079.1
3063.006	2134.1
3066.239	2218.1
3069.469	2269.1
3072.697	2342.1
3075.922	2386.1
3079.144	2458.1
3082.364	2496.1
3085.581	2541.1
3088.795	2583.1
3092.007	2653.1
3095.216	2699.1
3098.423	2751.1
3101.627	2840.1
3104.828	2886.1
3108.026	2975.1
3111.222	3003.1
3114.416	3091.1
3117.607	3150.1
3120.795	3207.1
3123.98	3282.1
3127.163	3373.1
3130.344	3427.1
3133.521	3511.1
3136.696	3573.1
3139.869	3664.1
3143.039	3743.1
3146.206	3783.1
3149.371	3835.1
3152.533	3859.1
3155.693	3884.1
3158.85	3928.1
3162.005	3909.1
3165.157	3949.1
3168.306	3965.1
3171.453	3969.1
3174.597	3960.1
3177.739	3961.1
3180.878	3952.1
3184.014	3997.1
3187.149	3948.1
3190.28	3999.1
3193.409	3982.1
3196.536	3978.1
3199.659	4016.1
3202.781	3976.1
3205.9	4003.1
3209.016	3991.1
3212.13	3970.1
3215.241	3957.1
3218.35	3925.1
3221.456	3884.1
3224.56	3824.1
3227.661	3779.1
3230.76	3756.1
3233.856	3716.1
3236.95	3689.1
3240.041	3632.1
3243.13	3624.1
3246.216	3639.1
3249.3	3610.1
3252.382	3559.1
3255.46	3573.1
3258.537	3567.1
3261.611	3572.1
3264.682	3559.1
3267.751	3538.1
3270.818	3565.1
3273.882	3559.1
3276.943	3542.1
3280.002	3492.1
3283.059	3436.1
3286.113	3407.1
3289.165	3386.1
3292.214	3307.1
3295.261	3296.1
3298.306	3176.1
3301.348	3157.1
3304.387	3103.1
3307.425	3060.1
3310.459	3022.1
3313.492	2964.1
3316.521	2936.1
3319.549	2892.1
3322.574	2848.1
3325.597	2847.1
3328.617	2824.1
3331.635	2817.1
3334.65	2776.1
3337.663	2765.1
3340.674	2759.1
3343.682	2737.1
3346.688	2737.1
3349.691	2720.1
3352.692	2703.1
3355.691	2678.1
3358.687	2672.1
3361.681	2615.1
3364.673	2604.1
3367.662	2564.1
3370.649	2518.1
3373.633	2490.1
3376.615	2467.1
3379.595	2431.1
3382.572	2383.1
3385.547	2353.1
3388.52	2334.1
3391.49	2258.1
3394.458	2253.1
3397.424	2200.1
3400.387	2188.1
3403.348	2161.1
3406.307	2126.1
3409.263	2113.1
3412.217	2089.1
3415.168	2056.1
3418.118	2040.1
3421.065	2006.1
3424.009	1988.1
3426.951	1950.1
3429.891	1913.1
3432.829	1868.1
3435.764	1843.1
3438.697	1798.1
3441.628	1736.1
3444.557	1681.1
3447.483	1627.1
3450.407	1591.1
3453.328	1527.1
3456.247	1490.1
3459.164	1442.1
3462.079	1374.1
3464.991	1351.1
3467.902	1276.1
3470.809	1238.1
3473.715	1194.1
3476.618	1128.1
3479.519	1114.1
3482.418	1082.1
3485.315	1019.1
3488.209	1000.1
3491.101	981.1
3493.99	929.1
3496.878	896.1
3499.763	857.1
3502.646	841.1
3505.527	801.1
3508.405	769.1
3511.281	709.1
3514.155	682.1
3517.027	638.1
3519.897	603.1
3522.764	545.1
3525.629	524.1
3528.492	476.1
3531.352	439.1
3534.211	399.1
3537.067	350.1
3539.921	338.1
3542.773	297.1
3545.622	256.1
3548.469	248.1
3551.315	218.1
3554.157	185.1
3556.998	154.1
3559.837	147.1
3562.673	102.1
3565.507	84.1
3568.339	53.1
3571.169	47.1
3573.996	14.1
3576.822	5.1
3579.645	-26.9
3582.466	-47.9
3585.285	-62.9
3588.101	-82.9
3590.916	-103.9
3593.728	-108.9
3596.538	-133.9
3599.346	-142.9
3602.152	-171.9
3604.956	-191.9
3607.757	-204.9
3610.556	-218.9
3613.354	-229.9
3616.149	-247.9
3618.942	-254.9
3621.732	-275.9
3624.521	-280.9
3627.307	-295.9
3630.092	-305.9
3632.874	-317.9
3635.654	-328.9
3638.432	-318.9
3641.208	-330.9
3643.982	-343.9
3646.753	-348.9
3649.523	-358.9
3652.29	-371.9
3655.055	-373.9
3657.818	-392.9
3660.579	-398.9
3663.338	-418.9
3666.095	-417.9
3668.849	-431.9
3671.602	-435.9
3674.352	-454.9
3677.101	-450.9
3679.847	-451.9
3682.591	-467.9
3685.333	-469.9
3688.073	-470.9
3690.811	-478.9
3693.547	-487.9
3696.281	-487.9
3699.013	-494.9
3701.742	-498.9
3704.47	-502.9
3707.195	-507.9
3709.919	-509.9
3712.64	-516.9
3715.359	-517.9
3718.076	-524.9
3720.792	-532.9
3723.505	-527.9
3726.216	-537.9
3728.925	-536.9
3731.632	-538.9
3734.336	-543.9
3737.039	-544.9
3739.74	-541.9
3742.439	-543.9
3745.136	-552.9
3747.83	-558.9
3750.523	-554.9
3753.213	-546.9
3755.902	-565.9
3758.589	-558.9
3761.273	-562.9
3763.956	-572.9
3766.636	-575.9
3769.315	-570.9
3771.991	-573.9
3774.665	-573.9
3777.338	-567.9
3780.008	-576.9
3782.677	-579.9
3785.343	-579.9
3788.007	-573.9
3790.67	-577.9
3793.33	-586.9
3795.989	-579.9
3798.645	-584.9
3801.299	-582.9
3803.952	-590.9
3806.602	-599.9
3809.251	-592.9
3811.897	-594.9
3814.542	-595.9
3817.184	-592.9
3819.825	-590.9
3822.463	-590.9
3825.1	-594.9
3827.735	-588.9
3830.367	-595.9
3832.998	-599.9
3835.627	-600.9
3838.253	-599.9
3840.878	-603.9
3843.501	-598.9
3846.122	-595.9
3848.741	-599.9
3851.358	-600.9
3853.973	-600.9
3856.586	-605.9
3859.197	-601.9
3861.806	-608.9
3864.414	-604.9
3867.019	-603.9
3869.622	-601.9
3872.224	-598.9
3874.823	-587.9
3877.421	-567.9
3880.016	-559.9
3882.61	-525.9
3885.202	-515.9
3887.792	-527.9
3890.38	-568.9
3892.966	-592.9
3895.55	-604.9
3898.132	-618.9
3900.713	-611.9
3903.291	-616.9
3905.868	-612.9
3908.442	-616.9
3911.015	-622.9
3913.586	-615.9
3916.155	-611.9
3918.722	-620.9
3921.287	-620.9
3923.85	-625.9
3926.411	-621.9
3928.971	-633.9
3931.528	-622.9
3934.084	-617.9
3936.638	-619.9
3939.19	-621.9
3941.74	-620.9
3944.288	-624.9
3946.834	-612.9
3949.378	-621.9
3951.921	-621.9
3954.462	-631.9
3957	-616.9
3959.537	-618.9
3962.072	-618.9
3964.606	-623.9
3967.137	-616.9
3969.667	-624.9
3972.194	-615.9
3974.72	-619.9
3977.244	-602.9
3979.766	-609.9
3982.286	-606.9
3984.805	-605.9
3987.321	-603.9
3989.836	-608.9
3992.349	-605.9
3994.86	-601.9
3997.369	-615.9
3999.877	-602.9
4002.382	-607.9
4004.886	-608.9
4007.388	-607.9
4009.888	-608.9
4012.386	-611.9
4014.883	-605.9
4017.377	-612.9
4019.87	-601.9
4022.361	-602.9
4024.85	-609.9
4027.338	-607.9
4029.823	-611.9
4032.307	-610.9
4034.789	-605.9
4037.269	-605.9
4039.747	-610.9
4042.224	-613.9
4044.699	-608.9
4047.172	-612.9
4049.643	-607.9
4052.112	-622.9
4054.58	-614.9
4057.046	-610.9
4059.51	-613.9
4061.972	-608.9
4064.432	-611.9
4066.891	-611.9
4069.348	-612.9
4071.803	-601.9
4074.256	-608.9
4076.708	-609.9
4079.158	-610.9
4081.606	-612.9
4084.052	-613.9
4086.497	-612.9
4088.939	-604.9
4091.38	-615.9
4093.819	-607.9
4096.257	-644.9
4098.693	-639.9
4101.127	-644.9
4103.559	-641.9
4105.989	-363.9
4108.418	-346.9
4110.845	-325.9
4113.27	-303.9
4115.694	-260.9
4118.115	-217.9
4120.535	-607.9
4122.954	-610.9
4125.37	-598.9
4127.785	-608.9
4130.198	-609.9
4132.609	-610.9
4135.019	-643.9
4137.427	-644.9
4139.833	-649.9
4142.237	-643.9
