Data from 2018-2-14_conc=3_n=7_RamanShift_07.txt Node
Date: Wed Feb 14 12:05:26 IST 2018
User: aro
Spectrometer: QEPB0276
Trigger mode: 0
Integration Time (sec): 3.000000E1
Scans to average: 1
Electric dark correction enabled: true
Nonlinearity correction enabled: false
Boxcar width: 0
XAxis mode: Raman Shifts
Number of Pixels in Spectrum: 1044
>>>>>Begin Spectral Data<<<<<
160.701	-38.8
166.742	64.2
172.777	321.2
178.805	1095.2
184.826	2961.2
190.841	6140.2
196.849	9996.2
202.85	12963.2
208.845	14305.2
214.833	14618.2
220.815	14759.2
226.789	15096.2
232.758	15605.2
238.719	16737.2
244.674	19130.2
250.623	23091.2
256.565	26986.2
262.5	29505.2
268.429	29376.2
274.351	23820.2
280.267	17653.2
286.176	16573.2
292.079	16771.2
297.975	17027.2
303.865	17231.2
309.748	17372.2
315.625	17472.2
321.495	17598.2
327.359	17704.2
333.217	17720.2
339.068	17590.2
344.912	17435.2
350.751	17293.2
356.583	17235.2
362.408	17212.2
368.227	17179.2
374.04	17173.2
379.847	17363.2
385.647	18442.2
391.44	22225.2
397.228	29388.2
403.009	37905.2
408.784	45819.2
414.553	58262.2
420.315	62723.2
426.071	62698.2
431.821	34255.2
437.565	18208.2
443.302	16294.2
449.033	15533.2
454.758	15229.2
460.477	15016.2
466.189	14637.2
471.896	14346.2
477.596	14222.2
483.29	14098.2
488.978	13793.2
494.66	13588.2
500.335	13820.2
506.005	14209.2
511.668	14044.2
517.325	13750.2
522.977	13988.2
528.622	14364.2
534.261	14444.2
539.894	14552.2
545.521	14877.2
551.141	15717.2
556.756	16517.2
562.365	16588.2
567.968	16231.2
573.565	15675.2
579.155	14639.2
584.74	13164.2
590.319	12293.2
595.892	12811.2
601.459	14344.2
607.02	15451.2
612.575	15867.2
618.124	16174.2
623.667	16432.2
629.204	16992.2
634.735	19432.2
640.261	23588.2
645.781	24635.2
651.294	20315.2
656.802	15748.2
662.304	14834.2
667.8	15007.2
673.29	15235.2
678.775	15180.2
684.254	15270.2
689.726	15507.2
695.193	15571.2
700.655	15540.2
706.11	15607.2
711.56	15724.2
717.004	15487.2
722.442	15323.2
727.874	15464.2
733.301	15631.2
738.722	15597.2
744.137	15551.2
749.547	15797.2
754.951	16180.2
760.349	16491.2
765.741	16717.2
771.128	16727.2
776.509	16769.2
781.885	16866.2
787.254	16992.2
792.618	17107.2
797.977	17220.2
803.33	17160.2
808.677	17209.2
814.019	17262.2
819.355	17237.2
824.686	17522.2
830.011	18004.2
835.33	19315.2
840.644	24140.2
845.952	32971.2
851.255	37692.2
856.552	31628.2
861.844	27316.2
867.13	37862.2
872.41	51255.2
877.686	45530.2
882.955	27611.2
888.219	19102.2
893.478	18113.2
898.731	17875.2
903.979	17886.2
909.221	17820.2
914.458	17913.2
919.69	17976.2
924.916	17928.2
930.136	17946.2
935.351	17949.2
940.561	18116.2
945.766	18159.2
950.965	18175.2
956.158	18141.2
961.347	17982.2
966.529	17396.2
971.707	16590.2
976.879	16170.2
982.046	16617.2
987.208	17328.2
992.364	17670.2
997.515	19218.2
1002.66	23565.2
1007.801	27626.2
1012.936	25307.2
1018.066	19928.2
1023.19	17635.2
1028.309	16342.2
1033.423	14911.2
1038.532	14648.2
1043.636	15765.2
1048.734	16832.2
1053.827	17035.2
1058.915	17182.2
1063.998	17256.2
1069.075	17309.2
1074.147	17343.2
1079.214	17409.2
1084.276	17582.2
1089.333	17626.2
1094.385	17785.2
1099.431	17959.2
1104.472	17940.2
1109.509	17748.2
1114.54	17738.2
1119.565	17658.2
1124.586	17490.2
1129.602	17242.2
1134.613	17264.2
1139.618	17326.2
1144.619	17554.2
1149.614	17712.2
1154.604	17852.2
1159.589	17903.2
1164.57	17851.2
1169.545	17793.2
1174.515	17525.2
1179.48	17267.2
1184.44	16951.2
1189.395	16395.2
1194.345	15183.2
1199.29	15367.2
1204.23	17451.2
1209.165	18607.2
1214.095	17765.2
1219.021	17156.2
1223.941	17222.2
1228.856	17262.2
1233.766	17240.2
1238.672	17421.2
1243.572	17525.2
1248.467	17464.2
1253.358	17375.2
1258.244	17105.2
1263.124	16931.2
1268	17029.2
1272.871	17039.2
1277.737	16771.2
1282.599	16420.2
1287.455	16299.2
1292.306	16360.2
1297.153	16355.2
1301.995	16519.2
1306.832	16609.2
1311.664	16726.2
1316.491	16727.2
1321.314	16824.2
1326.132	16910.2
1330.945	16773.2
1335.753	16518.2
1340.556	16337.2
1345.354	16220.2
1350.148	16190.2
1354.937	16327.2
1359.722	16287.2
1364.501	16150.2
1369.276	16115.2
1374.046	16254.2
1378.811	16408.2
1383.572	16030.2
1388.327	15711.2
1393.079	15842.2
1397.825	16073.2
1402.567	15930.2
1407.304	15605.2
1412.036	15544.2
1416.764	15578.2
1421.487	15585.2
1426.205	15591.2
1430.919	15685.2
1435.628	15879.2
1440.333	16022.2
1445.032	16186.2
1449.727	16223.2
1454.418	16061.2
1459.104	15872.2
1463.785	15771.2
1468.462	15853.2
1473.134	15925.2
1477.802	15822.2
1482.465	15609.2
1487.123	15578.2
1491.777	15596.2
1496.426	15457.2
1501.071	15326.2
1505.711	15283.2
1510.347	15283.2
1514.978	15331.2
1519.604	15318.2
1524.226	15234.2
1528.844	15175.2
1533.457	15077.2
1538.065	14870.2
1542.669	14466.2
1547.269	14475.2
1551.864	14673.2
1556.454	14593.2
1561.041	14135.2
1565.622	13727.2
1570.199	13324.2
1574.772	13149.2
1579.34	13176.2
1583.904	12690.2
1588.464	12072.2
1593.019	12092.2
1597.569	11977.2
1602.115	12095.2
1606.657	12282.2
1611.195	11589.2
1615.728	9999.2
1620.256	9410.2
1624.78	10843.2
1629.3	11399.2
1633.816	10741.2
1638.327	10523.2
1642.834	10752.2
1647.336	11028.2
1651.834	11164.2
1656.328	11247.2
1660.817	11315.2
1665.302	11727.2
1669.783	12598.2
1674.259	13345.2
1678.732	13446.2
1683.199	12922.2
1687.663	12759.2
1692.122	12583.2
1696.577	12287.2
1701.028	12106.2
1705.474	11380.2
1709.917	10812.2
1714.355	10431.2
1718.788	9937.2
1723.218	9987.2
1727.643	9823.2
1732.064	9764.2
1736.481	9737.2
1740.893	9677.2
1745.301	9748.2
1749.705	9851.2
1754.105	10056.2
1758.501	10157.2
1762.893	10763.2
1767.28	12122.2
1771.663	14625.2
1776.042	28214.2
1780.417	47502.2
1784.787	41830.2
1789.154	18888.2
1793.516	10980.2
1797.874	10343.2
1802.228	10913.2
1806.578	11325.2
1810.924	10804.2
1815.266	9557.2
1819.603	8924.2
1823.937	9757.2
1828.266	10623.2
1832.591	10660.2
1836.913	10004.2
1841.23	8979.2
1845.543	9002.2
1849.852	9824.2
1854.156	10297.2
1858.457	10761.2
1862.754	11004.2
1867.047	10999.2
1871.335	11419.2
1875.62	11806.2
1879.9	11545.2
1884.177	11160.2
1888.449	10950.2
1892.718	11385.2
1896.982	14793.2
1901.243	18646.2
1905.499	16768.2
1909.752	11911.2
1914	10313.2
1918.245	9996.2
1922.485	9907.2
1926.722	9823.2
1930.954	9660.2
1935.183	9665.2
1939.408	9491.2
1943.628	9390.2
1947.845	9620.2
1952.058	9895.2
1956.267	9594.2
1960.472	8920.2
1964.673	8202.2
1968.87	7786.2
1973.063	7663.2
1977.252	7637.2
1981.438	7418.2
1985.619	6785.2
1989.797	6396.2
1993.971	6296.2
1998.14	5894.2
2002.306	5540.2
2006.469	4947.2
2010.627	4318.2
2014.781	3946.2
2018.932	3872.2
2023.078	3963.2
2027.221	3579.2
2031.36	2941.2
2035.495	2737.2
2039.627	2755.2
2043.754	3649.2
2047.878	4497.2
2051.998	4160.2
2056.114	3627.2
2060.226	3726.2
2064.334	3571.2
2068.439	2938.2
2072.54	3054.2
2076.637	3222.2
2080.73	3160.2
2084.82	3603.2
2088.906	4602.2
2092.988	5503.2
2097.066	6042.2
2101.14	5623.2
2105.211	4983.2
2109.278	4800.2
2113.342	4659.2
2117.401	4623.2
2121.457	4791.2
2125.509	4899.2
2129.558	4743.2
2133.602	3988.2
2137.643	3856.2
2141.681	4591.2
2145.714	4310.2
2149.744	3309.2
2153.77	3569.2
2157.793	4576.2
2161.812	4690.2
2165.827	4039.2
2169.838	3515.2
2173.846	3813.2
2177.851	4075.2
2181.851	4273.2
2185.848	4350.2
2189.841	4252.2
2193.831	3913.2
2197.817	4114.2
2201.799	4938.2
2205.778	4844.2
2209.753	3960.2
2213.725	3224.2
2217.693	3685.2
2221.657	4941.2
2225.618	5705.2
2229.575	5376.2
2233.529	4316.2
2237.479	3544.2
2241.425	3604.2
2245.368	4023.2
2249.307	4624.2
2253.243	4925.2
2257.175	4867.2
2261.104	4494.2
2265.029	4139.2
2268.95	4342.2
2272.868	4336.2
2276.783	4053.2
2280.694	4328.2
2284.601	4381.2
2288.505	4056.2
2292.405	4467.2
2296.302	5279.2
2300.195	5381.2
2304.085	4866.2
2307.971	4612.2
2311.854	4230.2
2315.734	3706.2
2319.609	3921.2
2323.482	4443.2
2327.351	4638.2
2331.216	4595.2
2335.078	4730.2
2338.937	5100.2
2342.792	5029.2
2346.643	4636.2
2350.492	4451.2
2354.336	4875.2
2358.178	5561.2
2362.015	5591.2
2365.85	5187.2
2369.681	5298.2
2373.508	5614.2
2377.333	5999.2
2381.153	7477.2
2384.971	12077.2
2388.785	13652.2
2392.595	9778.2
2396.402	6425.2
2400.206	6319.2
2404.007	6689.2
2407.804	6858.2
2411.597	6645.2
2415.388	6628.2
2419.174	6875.2
2422.958	6783.2
2426.738	6731.2
2430.515	6516.2
2434.289	6395.2
2438.059	6542.2
2441.825	6710.2
2445.589	6539.2
2449.349	6434.2
2453.106	6383.2
2456.859	6220.2
2460.61	6004.2
2464.356	6063.2
2468.1	5760.2
2471.84	5558.2
2475.577	5753.2
2479.311	6017.2
2483.041	5982.2
2486.768	5840.2
2490.492	5610.2
2494.213	5535.2
2497.93	5473.2
2501.644	5769.2
2505.355	6188.2
2509.062	6286.2
2512.766	6244.2
2516.467	6406.2
2520.165	7173.2
2523.859	7264.2
2527.551	6365.2
2531.239	5960.2
2534.923	6003.2
2538.605	5958.2
2542.283	5995.2
2545.958	6113.2
2549.63	6038.2
2553.299	5905.2
2556.964	5855.2
2560.626	5736.2
2564.285	5574.2
2567.941	5602.2
2571.594	5784.2
2575.243	5918.2
2578.89	5910.2
2582.533	5758.2
2586.173	5671.2
2589.809	5732.2
2593.443	5862.2
2597.073	5975.2
2600.701	6099.2
2604.325	6172.2
2607.946	6200.2
2611.564	6191.2
2615.178	6175.2
2618.79	6200.2
2622.398	6257.2
2626.004	6182.2
2629.606	6162.2
2633.205	6103.2
2636.801	6086.2
2640.394	6075.2
2643.983	6058.2
2647.57	6092.2
2651.153	6079.2
2654.734	6044.2
2658.311	6031.2
2661.885	6031.2
2665.456	6027.2
2669.025	5980.2
2672.589	5926.2
2676.151	5957.2
2679.71	5912.2
2683.266	5861.2
2686.819	5806.2
2690.368	5756.2
2693.915	5699.2
2697.458	5627.2
2700.999	5641.2
2704.536	5674.2
2708.071	5747.2
2711.602	5761.2
2715.13	5686.2
2718.656	5610.2
2722.178	5644.2
2725.697	5639.2
2729.214	5671.2
2732.727	5658.2
2736.237	5653.2
2739.744	5670.2
2743.249	5614.2
2746.75	5491.2
2750.248	5426.2
2753.743	5297.2
2757.236	5217.2
2760.725	5138.2
2764.211	5143.2
2767.695	5167.2
2771.175	5180.2
2774.652	5147.2
2778.127	5145.2
2781.598	5176.2
2785.067	5155.2
2788.532	5159.2
2791.995	5210.2
2795.455	5344.2
2798.911	5483.2
2802.365	5593.2
2805.816	5572.2
2809.264	5539.2
2812.709	5530.2
2816.151	5494.2
2819.59	5472.2
2823.026	5501.2
2826.46	5555.2
2829.89	5581.2
2833.318	5748.2
2836.742	5939.2
2840.164	6166.2
2843.583	6474.2
2846.999	6842.2
2850.412	7253.2
2853.822	7822.2
2857.229	8545.2
2860.634	9499.2
2864.035	10765.2
2867.434	12527.2
2870.83	15732.2
2874.223	27352.2
2877.613	55747.2
2881	62176.2
2884.385	38446.2
2887.766	18405.2
2891.145	13383.2
2894.521	11120.2
2897.894	9704.2
2901.264	8606.2
2904.631	7815.2
2907.996	7204.2
2911.358	6704.2
2914.717	6305.2
2918.073	6034.2
2921.426	5785.2
2924.777	5637.2
2928.124	5542.2
2931.469	5529.2
2934.811	5578.2
2938.15	5695.2
2941.487	5854.2
2944.821	6014.2
2948.152	6104.2
2951.48	6081.2
2954.805	5939.2
2958.128	5726.2
2961.447	5468.2
2964.765	5212.2
2968.079	4981.2
2971.39	4794.2
2974.699	4643.2
2978.005	4562.2
2981.308	4536.2
2984.609	4511.2
2987.907	4600.2
2991.202	4762.2
2994.494	5031.2
2997.784	5402.2
3001.07	5739.2
3004.355	5990.2
3007.636	6055.2
3010.915	5785.2
3014.191	5392.2
3017.464	4864.2
3020.734	4476.2
3024.002	4148.2
3027.267	3903.2
3030.53	3742.2
3033.789	3603.2
3037.046	3493.2
3040.301	3430.2
3043.552	3395.2
3046.801	3412.2
3050.048	3447.2
3053.291	3518.2
3056.532	3645.2
3059.771	3843.2
3063.006	4102.2
3066.239	4382.2
3069.469	4568.2
3072.697	4603.2
3075.922	4440.2
3079.144	4183.2
3082.364	3838.2
3085.581	3528.2
3088.795	3258.2
3092.007	3093.2
3095.216	2910.2
3098.423	2850.2
3101.627	2804.2
3104.828	2795.2
3108.026	2780.2
3111.222	2830.2
3114.416	2871.2
3117.607	3039.2
3120.795	3223.2
3123.98	3489.2
3127.163	3734.2
3130.344	3879.2
3133.521	3879.2
3136.696	3804.2
3139.869	3558.2
3143.039	3373.2
3146.206	3151.2
3149.371	2978.2
3152.533	2911.2
3155.693	2831.2
3158.85	2789.2
3162.005	2803.2
3165.157	2830.2
3168.306	2922.2
3171.453	3040.2
3174.597	3275.2
3177.739	3618.2
3180.878	4062.2
3184.014	4475.2
3187.149	4913.2
3190.28	5139.2
3193.409	4938.2
3196.536	4549.2
3199.659	4100.2
3202.781	3628.2
3205.9	3273.2
3209.016	3029.2
3212.13	2843.2
3215.241	2739.2
3218.35	2652.2
3221.456	2633.2
3224.56	2649.2
3227.661	2677.2
3230.76	2821.2
3233.856	2972.2
3236.95	3176.2
3240.041	3427.2
3243.13	3620.2
3246.216	3724.2
3249.3	3651.2
3252.382	3455.2
3255.46	3102.2
3258.537	2765.2
3261.611	2480.2
3264.682	2255.2
3267.751	2105.2
3270.818	2010.2
3273.882	1916.2
3276.943	1888.2
3280.002	1893.2
3283.059	1912.2
3286.113	1964.2
3289.165	2031.2
3292.214	2152.2
3295.261	2322.2
3298.306	2558.2
3301.348	2841.2
3304.387	3104.2
3307.425	3291.2
3310.459	3342.2
3313.492	3242.2
3316.521	3055.2
3319.549	2800.2
3322.574	2548.2
3325.597	2374.2
3328.617	2199.2
3331.635	2118.2
3334.65	2056.2
3337.663	2046.2
3340.674	2090.2
3343.682	2180.2
3346.688	2356.2
3349.691	2590.2
3352.692	2937.2
3355.691	3384.2
3358.687	3851.2
3361.681	4222.2
3364.673	4458.2
3367.662	4532.2
3370.649	4319.2
3373.633	3694.2
3376.615	2918.2
3379.595	2294.2
3382.572	1904.2
3385.547	1688.2
3388.52	1534.2
3391.49	1432.2
3394.458	1401.2
3397.424	1405.2
3400.387	1431.2
3403.348	1491.2
3406.307	1624.2
3409.263	1828.2
3412.217	2100.2
3415.168	2497.2
3418.118	3013.2
3421.065	3566.2
3424.009	4122.2
3426.951	4520.2
3429.891	4625.2
3432.829	4490.2
3435.764	4270.2
3438.697	3959.2
3441.628	3644.2
3444.557	3336.2
3447.483	3068.2
3450.407	2864.2
3453.328	2830.2
3456.247	2819.2
3459.164	2949.2
3462.079	3219.2
3464.991	3694.2
3467.902	4469.2
3470.809	5720.2
3473.715	7596.2
3476.618	10225.2
3479.519	13694.2
3482.418	17454.2
3485.315	20956.2
3488.209	23316.2
3491.101	23970.2
3493.99	23369.2
3496.878	21915.2
3499.763	20741.2
3502.646	20807.2
3505.527	21800.2
3508.405	22403.2
3511.281	21642.2
3514.155	19971.2
3517.027	18357.2
3519.897	17037.2
3522.764	16196.2
3525.629	16064.2
3528.492	16720.2
3531.352	18284.2
3534.211	20719.2
3537.067	23653.2
3539.921	26568.2
3542.773	28820.2
3545.622	29647.2
3548.469	28509.2
3551.315	25713.2
3554.157	22199.2
3556.998	18742.2
3559.837	15638.2
3562.673	12979.2
3565.507	10873.2
3568.339	9371.2
3571.169	8519.2
3573.996	8198.2
3576.822	8340.2
3579.645	10605.2
3582.466	21686.2
3585.285	33939.2
3588.101	34132.2
3590.916	23230.2
3593.728	16771.2
3596.538	16012.2
3599.346	17566.2
3602.152	19206.2
3604.956	20192.2
3607.757	20167.2
3610.556	19534.2
3613.354	18158.2
3616.149	16495.2
3618.942	14778.2
3621.732	13212.2
3624.521	11760.2
3627.307	10652.2
3630.092	9665.2
3632.874	9023.2
3635.654	8596.2
3638.432	8376.2
3641.208	8373.2
3643.982	8684.2
3646.753	9353.2
3649.523	10096.2
3652.29	10813.2
3655.055	11324.2
3657.818	11471.2
3660.579	11309.2
3663.338	10730.2
3666.095	9865.2
3668.849	8645.2
3671.602	7313.2
3674.352	5998.2
3677.101	4858.2
3679.847	3915.2
3682.591	3150.2
3685.333	2585.2
3688.073	2151.2
3690.811	1846.2
3693.547	1591.2
3696.281	1421.2
3699.013	1315.2
3701.742	1258.2
3704.47	1243.2
3707.195	1254.2
3709.919	1267.2
3712.64	1254.2
3715.359	1267.2
3718.076	1217.2
3720.792	1128.2
3723.505	1030.2
3726.216	914.2
3728.925	809.2
3731.632	687.2
3734.336	577.2
3737.039	495.2
3739.74	415.2
3742.439	358.2
3745.136	316.2
3747.83	303.2
3750.523	284.2
3753.213	291.2
3755.902	300.2
3758.589	313.2
3761.273	351.2
3763.956	414.2
3766.636	500.2
3769.315	564.2
3771.991	669.2
3774.665	760.2
3777.338	854.2
3780.008	924.2
3782.677	988.2
3785.343	1010.2
3788.007	994.2
3790.67	932.2
3793.33	863.2
3795.989	780.2
3798.645	690.2
3801.299	617.2
3803.952	525.2
3806.602	479.2
3809.251	435.2
3811.897	402.2
3814.542	368.2
3817.184	348.2
3819.825	358.2
3822.463	345.2
3825.1	350.2
3827.735	364.2
3830.367	349.2
3832.998	330.2
3835.627	322.2
3838.253	287.2
3840.878	257.2
3843.501	238.2
3846.122	223.2
3848.741	201.2
3851.358	182.2
3853.973	143.2
3856.586	125.2
3859.197	113.2
3861.806	110.2
3864.414	94.2
3867.019	102.2
3869.622	99.2
3872.224	111.2
3874.823	124.2
3877.421	157.2
3880.016	240.2
3882.61	362.2
3885.202	371.2
3887.792	310.2
3890.38	240.2
3892.966	193.2
3895.55	170.2
3898.132	144.2
3900.713	116.2
3903.291	103.2
3905.868	61.2
3908.442	41.2
3911.015	25.2
3913.586	10.2
3916.155	-2.8
3918.722	-13.8
3921.287	-24.8
3923.85	-29.8
3926.411	-24.8
3928.971	-26.8
3931.528	2.2
3934.084	15.2
3936.638	31.2
3939.19	47.2
3941.74	52.2
3944.288	59.2
3946.834	89.2
3949.378	87.2
3951.921	86.2
3954.462	74.2
3957	50.2
3959.537	25.2
3962.072	-5.8
3964.606	-25.8
3967.137	-67.8
3969.667	-85.8
3972.194	-105.8
3974.72	-122.8
3977.244	-127.8
3979.766	-128.8
3982.286	-142.8
3984.805	-138.8
3987.321	-129.8
3989.836	-124.8
3992.349	-98.8
3994.86	-76.8
3997.369	-52.8
3999.877	-23.8
4002.382	9.2
4004.886	35.2
4007.388	50.2
4009.888	57.2
4012.386	39.2
4014.883	21.2
4017.377	-2.8
4019.87	-32.8
4022.361	-66.8
4024.85	-106.8
4027.338	-132.8
4029.823	-151.8
4032.307	-175.8
4034.789	-181.8
4037.269	-186.8
4039.747	-199.8
4042.224	-206.8
4044.699	-205.8
4047.172	-195.8
4049.643	-190.8
4052.112	-191.8
4054.58	-179.8
4057.046	-156.8
4059.51	-130.8
4061.972	-97.8
4064.432	-61.8
4066.891	-16.8
4069.348	60.2
4071.803	317.2
4074.256	1660.2
4076.708	3541.2
4079.158	3938.2
4081.606	2401.2
4084.052	1083.2
4086.497	525.2
4088.939	269.2
4091.38	158.2
4093.819	105.2
4096.257	-354.8
4098.693	-359.8
4101.127	-365.8
4103.559	-360.8
4105.989	-188.8
4108.418	-177.8
4110.845	-158.8
4113.27	-131.8
4115.694	-105.8
4118.115	-82.8
4120.535	67.2
4122.954	36.2
4125.37	43.2
4127.785	154.2
4130.198	902.2
4132.609	1848.2
4135.019	-357.8
4137.427	-362.8
4139.833	-363.8
4142.237	-357.8
