Data from 2018-2-14_conc=2_n=3_RamanShift_01.txt Node
Date: Wed Feb 14 11:06:26 IST 2018
User: aro
Spectrometer: QEPB0276
Trigger mode: 0
Integration Time (sec): 3.000000E1
Scans to average: 1
Electric dark correction enabled: true
Nonlinearity correction enabled: false
Boxcar width: 0
XAxis mode: Raman Shifts
Number of Pixels in Spectrum: 1044
>>>>>Begin Spectral Data<<<<<
160.701	-151.6
166.742	47.4
172.777	583.4
178.805	2198.4
184.826	6089.4
190.841	12807.4
196.849	20476.4
202.85	25953.4
208.845	27709.4
214.833	27420.4
220.815	26814.4
226.789	26545.4
232.758	26363.4
238.719	26162.4
244.674	25697.4
250.623	25221.4
256.565	24584.4
262.5	24049.4
268.429	23584.4
274.351	23146.4
280.267	22808.4
286.176	22539.4
292.079	22285.4
297.975	21956.4
303.865	21696.4
309.748	21552.4
315.625	21409.4
321.495	21181.4
327.359	21183.4
333.217	21126.4
339.068	21102.4
344.912	21060.4
350.751	21039.4
356.583	20991.4
362.408	21003.4
368.227	20970.4
374.04	20984.4
379.847	21030.4
385.647	21112.4
391.44	21177.4
397.228	21363.4
403.009	21385.4
408.784	21512.4
414.553	21528.4
420.315	21595.4
426.071	21618.4
431.821	21594.4
437.565	21569.4
443.302	21498.4
449.033	21450.4
454.758	21417.4
460.477	21378.4
466.189	21348.4
471.896	21238.4
477.596	21214.4
483.29	21183.4
488.978	21105.4
494.66	21033.4
500.335	20836.4
506.005	20728.4
511.668	20370.4
517.325	20185.4
522.977	20007.4
528.622	19796.4
534.261	19648.4
539.894	19650.4
545.521	19511.4
551.141	19482.4
556.756	19351.4
562.365	19241.4
567.968	19214.4
573.565	19176.4
579.155	19005.4
584.74	18917.4
590.319	18846.4
595.892	18789.4
601.459	18715.4
607.02	18658.4
612.575	18507.4
618.124	18407.4
623.667	18292.4
629.204	18217.4
634.735	18072.4
640.261	18023.4
645.781	17966.4
651.294	17933.4
656.802	17968.4
662.304	17832.4
667.8	17834.4
673.29	17816.4
678.775	17797.4
684.254	17655.4
689.726	17578.4
695.193	17538.4
700.655	17447.4
706.11	17391.4
711.56	17314.4
717.004	17212.4
722.442	17155.4
727.874	17062.4
733.301	17041.4
738.722	17053.4
744.137	16924.4
749.547	16916.4
754.951	16919.4
760.349	16937.4
765.741	16915.4
771.128	16954.4
776.509	16985.4
781.885	16915.4
787.254	16913.4
792.618	16828.4
797.977	16740.4
803.33	16565.4
808.677	16482.4
814.019	16400.4
819.355	16358.4
824.686	16230.4
830.011	16279.4
835.33	16227.4
840.644	16249.4
845.952	16261.4
851.255	16293.4
856.552	16288.4
861.844	16293.4
867.13	16134.4
872.41	16132.4
877.686	16041.4
882.955	15904.4
888.219	15778.4
893.478	15609.4
898.731	15401.4
903.979	15207.4
909.221	15107.4
914.458	15042.4
919.69	14971.4
924.916	15113.4
930.136	15105.4
935.351	15161.4
940.561	15177.4
945.766	15100.4
950.965	15037.4
956.158	14907.4
961.347	14798.4
966.529	14594.4
971.707	14372.4
976.879	14253.4
982.046	14068.4
987.208	14003.4
992.364	14062.4
997.515	14161.4
1002.66	14263.4
1007.801	14431.4
1012.936	14492.4
1018.066	14547.4
1023.19	14529.4
1028.309	14566.4
1033.423	14485.4
1038.532	14383.4
1043.636	14275.4
1048.734	14067.4
1053.827	13928.4
1058.915	13777.4
1063.998	13683.4
1069.075	13685.4
1074.147	13652.4
1079.214	13671.4
1084.276	13751.4
1089.333	13867.4
1094.385	13954.4
1099.431	13985.4
1104.472	13999.4
1109.509	13918.4
1114.54	13659.4
1119.565	13520.4
1124.586	13377.4
1129.602	13231.4
1134.613	13152.4
1139.618	13106.4
1144.619	13051.4
1149.614	12983.4
1154.604	13039.4
1159.589	13068.4
1164.57	13065.4
1169.545	13169.4
1174.515	13096.4
1179.48	13057.4
1184.44	12974.4
1189.395	12898.4
1194.345	12784.4
1199.29	12706.4
1204.23	12709.4
1209.165	12733.4
1214.095	12742.4
1219.021	12832.4
1223.941	12943.4
1228.856	12981.4
1233.766	13060.4
1238.672	13076.4
1243.572	13076.4
1248.467	12969.4
1253.358	12833.4
1258.244	12650.4
1263.124	12499.4
1268	12270.4
1272.871	12163.4
1277.737	12065.4
1282.599	11964.4
1287.455	11961.4
1292.306	11943.4
1297.153	12034.4
1301.995	12065.4
1306.832	12148.4
1311.664	12185.4
1316.491	12135.4
1321.314	12028.4
1326.132	11852.4
1330.945	11589.4
1335.753	11294.4
1340.556	11014.4
1345.354	10781.4
1350.148	10682.4
1354.937	10571.4
1359.722	10568.4
1364.501	10670.4
1369.276	10690.4
1374.046	10812.4
1378.811	10942.4
1383.572	11108.4
1388.327	11156.4
1393.079	11129.4
1397.825	10945.4
1402.567	10779.4
1407.304	10664.4
1412.036	10579.4
1416.764	10494.4
1421.487	10441.4
1426.205	10401.4
1430.919	10321.4
1435.628	10339.4
1440.333	10356.4
1445.032	10320.4
1449.727	10364.4
1454.418	10390.4
1459.104	10263.4
1463.785	10099.4
1468.462	9895.4
1473.134	9652.4
1477.802	9477.4
1482.465	9321.4
1487.123	9255.4
1491.777	9211.4
1496.426	9252.4
1501.071	9341.4
1505.711	9515.4
1510.347	9680.4
1514.978	9840.4
1519.604	10014.4
1524.226	10099.4
1528.844	10108.4
1533.457	10047.4
1538.065	9994.4
1542.669	9995.4
1547.269	9848.4
1551.864	9847.4
1556.454	9810.4
1561.041	9793.4
1565.622	9755.4
1570.199	9820.4
1574.772	9852.4
1579.34	9906.4
1583.904	9914.4
1588.464	10042.4
1593.019	10053.4
1597.569	10030.4
1602.115	9938.4
1606.657	9920.4
1611.195	9867.4
1615.728	9758.4
1620.256	9789.4
1624.78	9769.4
1629.3	9820.4
1633.816	9803.4
1638.327	9932.4
1642.834	9944.4
1647.336	10038.4
1651.834	10019.4
1656.328	9964.4
1660.817	9911.4
1665.302	9804.4
1669.783	9645.4
1674.259	9463.4
1678.732	9177.4
1683.199	8854.4
1687.663	8587.4
1692.122	8308.4
1696.577	8209.4
1701.028	8128.4
1705.474	8190.4
1709.917	8272.4
1714.355	8301.4
1718.788	8174.4
1723.218	8062.4
1727.643	7885.4
1732.064	7733.4
1736.481	7530.4
1740.893	7366.4
1745.301	7170.4
1749.705	6958.4
1754.105	6718.4
1758.501	6556.4
1762.893	6404.4
1767.28	6214.4
1771.663	6105.4
1776.042	6009.4
1780.417	5975.4
1784.787	5968.4
1789.154	5994.4
1793.516	6120.4
1797.874	6268.4
1802.228	6378.4
1806.578	6418.4
1810.924	6398.4
1815.266	6323.4
1819.603	6251.4
1823.937	6165.4
1828.266	6038.4
1832.591	5945.4
1836.913	5853.4
1841.23	5816.4
1845.543	5751.4
1849.852	5725.4
1854.156	5708.4
1858.457	5708.4
1862.754	5682.4
1867.047	5713.4
1871.335	5702.4
1875.62	5668.4
1879.9	5682.4
1884.177	5624.4
1888.449	5525.4
1892.718	5500.4
1896.982	5479.4
1901.243	5415.4
1905.499	5379.4
1909.752	5407.4
1914	5361.4
1918.245	5397.4
1922.485	5454.4
1926.722	5526.4
1930.954	5563.4
1935.183	5650.4
1939.408	5706.4
1943.628	5753.4
1947.845	5717.4
1952.058	5709.4
1956.267	5653.4
1960.472	5583.4
1964.673	5531.4
1968.87	5419.4
1973.063	5332.4
1977.252	5304.4
1981.438	5228.4
1985.619	5148.4
1989.797	5086.4
1993.971	5068.4
1998.14	5033.4
2002.306	5002.4
2006.469	4993.4
2010.627	4989.4
2014.781	4947.4
2018.932	4909.4
2023.078	4867.4
2027.221	4795.4
2031.36	4727.4
2035.495	4658.4
2039.627	4573.4
2043.754	4556.4
2047.878	4500.4
2051.998	4495.4
2056.114	4464.4
2060.226	4450.4
2064.334	4476.4
2068.439	4515.4
2072.54	4548.4
2076.637	4554.4
2080.73	4612.4
2084.82	4615.4
2088.906	4636.4
2092.988	4625.4
2097.066	4631.4
2101.14	4590.4
2105.211	4576.4
2109.278	4566.4
2113.342	4492.4
2117.401	4480.4
2121.457	4436.4
2125.509	4434.4
2129.558	4403.4
2133.602	4325.4
2137.643	4366.4
2141.681	4352.4
2145.714	4304.4
2149.744	4255.4
2153.77	4230.4
2157.793	4183.4
2161.812	4123.4
2165.827	4090.4
2169.838	4029.4
2173.846	3930.4
2177.851	3877.4
2181.851	3803.4
2185.848	3762.4
2189.841	3729.4
2193.831	3686.4
2197.817	3651.4
2201.799	3657.4
2205.778	3617.4
2209.753	3593.4
2213.725	3578.4
2217.693	3559.4
2221.657	3571.4
2225.618	3576.4
2229.575	3569.4
2233.529	3493.4
2237.479	3464.4
2241.425	3409.4
2245.368	3372.4
2249.307	3325.4
2253.243	3296.4
2257.175	3238.4
2261.104	3196.4
2265.029	3160.4
2268.95	3133.4
2272.868	3097.4
2276.783	3077.4
2280.694	3026.4
2284.601	3003.4
2288.505	2959.4
2292.405	2939.4
2296.302	2905.4
2300.195	2861.4
2304.085	2836.4
2307.971	2784.4
2311.854	2771.4
2315.734	2703.4
2319.609	2670.4
2323.482	2619.4
2327.351	2587.4
2331.216	2565.4
2335.078	2548.4
2338.937	2557.4
2342.792	2524.4
2346.643	2513.4
2350.492	2502.4
2354.336	2518.4
2358.178	2517.4
2362.015	2516.4
2365.85	2535.4
2369.681	2514.4
2373.508	2520.4
2377.333	2537.4
2381.153	2514.4
2384.971	2511.4
2388.785	2496.4
2392.595	2458.4
2396.402	2446.4
2400.206	2410.4
2404.007	2389.4
2407.804	2366.4
2411.597	2377.4
2415.388	2338.4
2419.174	2354.4
2422.958	2336.4
2426.738	2278.4
2430.515	2257.4
2434.289	2233.4
2438.059	2246.4
2441.825	2205.4
2445.589	2202.4
2449.349	2172.4
2453.106	2158.4
2456.859	2121.4
2460.61	2092.4
2464.356	2059.4
2468.1	2040.4
2471.84	2022.4
2475.577	2017.4
2479.311	1995.4
2483.041	1973.4
2486.768	1970.4
2490.492	1957.4
2494.213	1958.4
2497.93	1946.4
2501.644	1943.4
2505.355	1947.4
2509.062	1919.4
2512.766	1911.4
2516.467	1932.4
2520.165	1916.4
2523.859	1916.4
2527.551	1868.4
2531.239	1869.4
2534.923	1849.4
2538.605	1838.4
2542.283	1833.4
2545.958	1843.4
2549.63	1823.4
2553.299	1815.4
2556.964	1830.4
2560.626	1826.4
2564.285	1806.4
2567.941	1820.4
2571.594	1799.4
2575.243	1778.4
2578.89	1758.4
2582.533	1757.4
2586.173	1728.4
2589.809	1700.4
2593.443	1701.4
2597.073	1698.4
2600.701	1646.4
2604.325	1672.4
2607.946	1655.4
2611.564	1629.4
2615.178	1632.4
2618.79	1612.4
2622.398	1603.4
2626.004	1573.4
2629.606	1574.4
2633.205	1528.4
2636.801	1536.4
2640.394	1505.4
2643.983	1477.4
2647.57	1465.4
2651.153	1431.4
2654.734	1412.4
2658.311	1380.4
2661.885	1352.4
2665.456	1350.4
2669.025	1326.4
2672.589	1323.4
2676.151	1289.4
2679.71	1283.4
2683.266	1264.4
2686.819	1254.4
2690.368	1200.4
2693.915	1196.4
2697.458	1164.4
2700.999	1130.4
2704.536	1107.4
2708.071	1091.4
2711.602	1066.4
2715.13	1026.4
2718.656	1028.4
2722.178	991.4
2725.697	993.4
2729.214	985.4
2732.727	978.4
2736.237	975.4
2739.744	955.4
2743.249	983.4
2746.75	1007.4
2750.248	1021.4
2753.743	1023.4
2757.236	1033.4
2760.725	1030.4
2764.211	1030.4
2767.695	1050.4
2771.175	1041.4
2774.652	1029.4
2778.127	1037.4
2781.598	1023.4
2785.067	1023.4
2788.532	1025.4
2791.995	1004.4
2795.455	1027.4
2798.911	1018.4
2802.365	1028.4
2805.816	1031.4
2809.264	1032.4
2812.709	1017.4
2816.151	1014.4
2819.59	1005.4
2823.026	1022.4
2826.46	1008.4
2829.89	1022.4
2833.318	1032.4
2836.742	1038.4
2840.164	1029.4
2843.583	1048.4
2846.999	1047.4
2850.412	1065.4
2853.822	1091.4
2857.229	1101.4
2860.634	1114.4
2864.035	1132.4
2867.434	1149.4
2870.83	1180.4
2874.223	1211.4
2877.613	1217.4
2881	1251.4
2884.385	1244.4
2887.766	1264.4
2891.145	1250.4
2894.521	1248.4
2897.894	1256.4
2901.264	1262.4
2904.631	1270.4
2907.996	1257.4
2911.358	1274.4
2914.717	1287.4
2918.073	1320.4
2921.426	1305.4
2924.777	1324.4
2928.124	1350.4
2931.469	1375.4
2934.811	1395.4
2938.15	1412.4
2941.487	1413.4
2944.821	1440.4
2948.152	1415.4
2951.48	1455.4
2954.805	1406.4
2958.128	1416.4
2961.447	1417.4
2964.765	1429.4
2968.079	1401.4
2971.39	1428.4
2974.699	1435.4
2978.005	1471.4
2981.308	1507.4
2984.609	1505.4
2987.907	1543.4
2991.202	1583.4
2994.494	1613.4
2997.784	1653.4
3001.07	1680.4
3004.355	1701.4
3007.636	1727.4
3010.915	1750.4
3014.191	1766.4
3017.464	1775.4
3020.734	1803.4
3024.002	1799.4
3027.267	1837.4
3030.53	1846.4
3033.789	1865.4
3037.046	1882.4
3040.301	1912.4
3043.552	1947.4
3046.801	2001.4
3050.048	2020.4
3053.291	2080.4
3056.532	2129.4
3059.771	2203.4
3063.006	2252.4
3066.239	2347.4
3069.469	2411.4
3072.697	2463.4
3075.922	2536.4
3079.144	2605.4
3082.364	2669.4
3085.581	2710.4
3088.795	2792.4
3092.007	2821.4
3095.216	2896.4
3098.423	2918.4
3101.627	3018.4
3104.828	3096.4
3108.026	3151.4
3111.222	3230.4
3114.416	3312.4
3117.607	3388.4
3120.795	3452.4
3123.98	3540.4
3127.163	3627.4
3130.344	3706.4
3133.521	3806.4
3136.696	3869.4
3139.869	3966.4
3143.039	4035.4
3146.206	4099.4
3149.371	4127.4
3152.533	4187.4
3155.693	4204.4
3158.85	4237.4
3162.005	4255.4
3165.157	4261.4
3168.306	4271.4
3171.453	4271.4
3174.597	4300.4
3177.739	4320.4
3180.878	4291.4
3184.014	4352.4
3187.149	4298.4
3190.28	4336.4
3193.409	4334.4
3196.536	4342.4
3199.659	4356.4
3202.781	4350.4
3205.9	4360.4
3209.016	4359.4
3212.13	4339.4
3215.241	4295.4
3218.35	4282.4
3221.456	4221.4
3224.56	4185.4
3227.661	4111.4
3230.76	4087.4
3233.856	4032.4
3236.95	4005.4
3240.041	4004.4
3243.13	3952.4
3246.216	3952.4
3249.3	3949.4
3252.382	3890.4
3255.46	3846.4
3258.537	3878.4
3261.611	3867.4
3264.682	3873.4
3267.751	3847.4
3270.818	3863.4
3273.882	3872.4
3276.943	3830.4
3280.002	3809.4
3283.059	3751.4
3286.113	3729.4
3289.165	3650.4
3292.214	3628.4
3295.261	3544.4
3298.306	3511.4
3301.348	3449.4
3304.387	3400.4
3307.425	3341.4
3310.459	3293.4
3313.492	3227.4
3316.521	3223.4
3319.549	3172.4
3322.574	3160.4
3325.597	3119.4
3328.617	3062.4
3331.635	3042.4
3334.65	3022.4
3337.663	3030.4
3340.674	2995.4
3343.682	3013.4
3346.688	3019.4
3349.691	2994.4
3352.692	2964.4
3355.691	2951.4
3358.687	2915.4
3361.681	2886.4
3364.673	2840.4
3367.662	2834.4
3370.649	2779.4
3373.633	2714.4
3376.615	2699.4
3379.595	2645.4
3382.572	2652.4
3385.547	2564.4
3388.52	2515.4
3391.49	2518.4
3394.458	2464.4
3397.424	2424.4
3400.387	2380.4
3403.348	2384.4
3406.307	2325.4
3409.263	2300.4
3412.217	2287.4
3415.168	2264.4
3418.118	2234.4
3421.065	2210.4
3424.009	2186.4
3426.951	2131.4
3429.891	2098.4
3432.829	2065.4
3435.764	2006.4
3438.697	1957.4
3441.628	1888.4
3444.557	1846.4
3447.483	1779.4
3450.407	1745.4
3453.328	1689.4
3456.247	1629.4
3459.164	1603.4
3462.079	1527.4
3464.991	1452.4
3467.902	1427.4
3470.809	1359.4
3473.715	1319.4
3476.618	1263.4
3479.519	1232.4
3482.418	1206.4
3485.315	1155.4
3488.209	1122.4
3491.101	1063.4
3493.99	1048.4
3496.878	993.4
3499.763	955.4
3502.646	924.4
3505.527	881.4
3508.405	842.4
3511.281	800.4
3514.155	758.4
3517.027	718.4
3519.897	665.4
3522.764	630.4
3525.629	577.4
3528.492	535.4
3531.352	499.4
3534.211	461.4
3537.067	413.4
3539.921	382.4
3542.773	342.4
3545.622	319.4
3548.469	269.4
3551.315	243.4
3554.157	215.4
3556.998	178.4
3559.837	174.4
3562.673	141.4
3565.507	108.4
3568.339	89.4
3571.169	49.4
3573.996	52.4
3576.822	11.4
3579.645	0.4
3582.466	-26.6
3585.285	-42.6
3588.101	-67.6
3590.916	-82.6
3593.728	-107.6
3596.538	-120.6
3599.346	-141.6
3602.152	-160.6
3604.956	-175.6
3607.757	-201.6
3610.556	-211.6
3613.354	-231.6
3616.149	-242.6
3618.942	-248.6
3621.732	-254.6
3624.521	-274.6
3627.307	-291.6
3630.092	-295.6
3632.874	-302.6
3635.654	-320.6
3638.432	-322.6
3641.208	-334.6
3643.982	-350.6
3646.753	-356.6
3649.523	-368.6
3652.29	-377.6
3655.055	-388.6
3657.818	-406.6
3660.579	-410.6
3663.338	-418.6
3666.095	-435.6
3668.849	-437.6
3671.602	-446.6
3674.352	-459.6
3677.101	-460.6
3679.847	-475.6
3682.591	-479.6
3685.333	-487.6
3688.073	-491.6
3690.811	-493.6
3693.547	-500.6
3696.281	-509.6
3699.013	-514.6
3701.742	-515.6
3704.47	-524.6
3707.195	-522.6
3709.919	-521.6
3712.64	-534.6
3715.359	-532.6
3718.076	-539.6
3720.792	-544.6
3723.505	-547.6
3726.216	-554.6
3728.925	-557.6
3731.632	-563.6
3734.336	-565.6
3737.039	-571.6
3739.74	-571.6
3742.439	-561.6
3745.136	-572.6
3747.83	-579.6
3750.523	-574.6
3753.213	-567.6
3755.902	-573.6
3758.589	-580.6
3761.273	-582.6
3763.956	-592.6
3766.636	-591.6
3769.315	-598.6
3771.991	-597.6
3774.665	-602.6
3777.338	-597.6
3780.008	-598.6
3782.677	-605.6
3785.343	-593.6
3788.007	-600.6
3790.67	-598.6
3793.33	-602.6
3795.989	-603.6
3798.645	-607.6
3801.299	-600.6
3803.952	-610.6
3806.602	-618.6
3809.251	-617.6
3811.897	-620.6
3814.542	-616.6
3817.184	-616.6
3819.825	-614.6
3822.463	-614.6
3825.1	-615.6
3827.735	-610.6
3830.367	-617.6
3832.998	-621.6
3835.627	-623.6
3838.253	-627.6
3840.878	-627.6
3843.501	-628.6
3846.122	-622.6
3848.741	-623.6
3851.358	-624.6
3853.973	-625.6
3856.586	-634.6
3859.197	-630.6
3861.806	-629.6
3864.414	-626.6
3867.019	-622.6
3869.622	-625.6
3872.224	-621.6
3874.823	-607.6
3877.421	-587.6
3880.016	-573.6
3882.61	-550.6
3885.202	-551.6
3887.792	-564.6
3890.38	-592.6
3892.966	-611.6
3895.55	-625.6
3898.132	-640.6
3900.713	-641.6
3903.291	-634.6
3905.868	-640.6
3908.442	-642.6
3911.015	-641.6
3913.586	-631.6
3916.155	-637.6
3918.722	-641.6
3921.287	-644.6
3923.85	-641.6
3926.411	-648.6
3928.971	-649.6
3931.528	-647.6
3934.084	-644.6
3936.638	-643.6
3939.19	-643.6
3941.74	-641.6
3944.288	-645.6
3946.834	-643.6
3949.378	-648.6
3951.921	-642.6
3954.462	-646.6
3957	-639.6
3959.537	-639.6
3962.072	-639.6
3964.606	-636.6
3967.137	-640.6
3969.667	-644.6
3972.194	-641.6
3974.72	-644.6
3977.244	-627.6
3979.766	-630.6
3982.286	-641.6
3984.805	-631.6
3987.321	-628.6
3989.836	-632.6
3992.349	-624.6
3994.86	-627.6
3997.369	-633.6
3999.877	-620.6
4002.382	-621.6
4004.886	-625.6
4007.388	-624.6
4009.888	-629.6
4012.386	-629.6
4014.883	-631.6
4017.377	-628.6
4019.87	-629.6
4022.361	-631.6
4024.85	-632.6
4027.338	-630.6
4029.823	-631.6
4032.307	-634.6
4034.789	-627.6
4037.269	-625.6
4039.747	-627.6
4042.224	-634.6
4044.699	-632.6
4047.172	-635.6
4049.643	-627.6
4052.112	-635.6
4054.58	-637.6
4057.046	-637.6
4059.51	-639.6
4061.972	-634.6
4064.432	-637.6
4066.891	-638.6
4069.348	-628.6
4071.803	-630.6
4074.256	-632.6
4076.708	-629.6
4079.158	-631.6
4081.606	-634.6
4084.052	-635.6
4086.497	-637.6
4088.939	-628.6
4091.38	-624.6
4093.819	-622.6
4096.257	-665.6
4098.693	-667.6
4101.127	-671.6
4103.559	-666.6
4105.989	-384.6
4108.418	-359.6
4110.845	-331.6
4113.27	-313.6
4115.694	-267.6
4118.115	-233.6
4120.535	-632.6
4122.954	-633.6
4125.37	-623.6
4127.785	-634.6
4130.198	-631.6
4132.609	-638.6
4135.019	-670.6
4137.427	-669.6
4139.833	-672.6
4142.237	-664.6
