Data from 2018-2-14_conc=2_n=1_RamanShift_01.txt Node
Date: Wed Feb 14 10:59:56 IST 2018
User: aro
Spectrometer: QEPB0276
Trigger mode: 0
Integration Time (sec): 3.000000E1
Scans to average: 1
Electric dark correction enabled: true
Nonlinearity correction enabled: false
Boxcar width: 0
XAxis mode: Raman Shifts
Number of Pixels in Spectrum: 1044
>>>>>Begin Spectral Data<<<<<
160.701	-155
166.742	49
172.777	611
178.805	2303
184.826	6431
190.841	13482
196.849	21714
202.85	27516
208.845	29368
214.833	29070
220.815	28577
226.789	28165
232.758	28022
238.719	27831
244.674	27383
250.623	26796
256.565	26280
262.5	25605
268.429	25093
274.351	24671
280.267	24278
286.176	23982
292.079	23741
297.975	23400
303.865	23204
309.748	23018
315.625	22835
321.495	22713
327.359	22622
333.217	22611
339.068	22566
344.912	22532
350.751	22473
356.583	22481
362.408	22428
368.227	22455
374.04	22475
379.847	22534
385.647	22561
391.44	22717
397.228	22788
403.009	22872
408.784	22977
414.553	23045
420.315	23143
426.071	23077
431.821	23108
437.565	22992
443.302	23015
449.033	22995
454.758	22885
460.477	22895
466.189	22854
471.896	22742
477.596	22659
483.29	22628
488.978	22595
494.66	22547
500.335	22347
506.005	22127
511.668	21864
517.325	21573
522.977	21411
528.622	21192
534.261	21051
539.894	20929
545.521	20901
551.141	20777
556.756	20707
562.365	20587
567.968	20528
573.565	20400
579.155	20334
584.74	20262
590.319	20171
595.892	20100
601.459	20042
607.02	19945
612.575	19821
618.124	19685
623.667	19552
629.204	19501
634.735	19350
640.261	19271
645.781	19182
651.294	19247
656.802	19155
662.304	19141
667.8	19085
673.29	19062
678.775	19028
684.254	18961
689.726	18854
695.193	18821
700.655	18717
706.11	18626
711.56	18501
717.004	18399
722.442	18353
727.874	18290
733.301	18204
738.722	18133
744.137	18141
749.547	18084
754.951	18128
760.349	18109
765.741	18081
771.128	18155
776.509	18169
781.885	18150
787.254	18071
792.618	18021
797.977	17879
803.33	17772
808.677	17677
814.019	17556
819.355	17481
824.686	17398
830.011	17359
835.33	17375
840.644	17320
845.952	17388
851.255	17401
856.552	17445
861.844	17362
867.13	17248
872.41	17255
877.686	17102
882.955	17027
888.219	16909
893.478	16652
898.731	16423
903.979	16257
909.221	16214
914.458	16126
919.69	16113
924.916	16099
930.136	16162
935.351	16204
940.561	16219
945.766	16152
950.965	16048
956.158	15910
961.347	15796
966.529	15564
971.707	15342
976.879	15231
982.046	15045
987.208	15027
992.364	15038
997.515	15084
1002.66	15268
1007.801	15396
1012.936	15565
1018.066	15521
1023.19	15535
1028.309	15489
1033.423	15526
1038.532	15436
1043.636	15276
1048.734	15084
1053.827	14897
1058.915	14688
1063.998	14615
1069.075	14557
1074.147	14556
1079.214	14624
1084.276	14713
1089.333	14829
1094.385	14887
1099.431	14916
1104.472	14907
1109.509	14830
1114.54	14625
1119.565	14486
1124.586	14287
1129.602	14179
1134.613	14018
1139.618	13995
1144.619	13973
1149.614	13864
1154.604	13861
1159.589	13970
1164.57	14064
1169.545	14026
1174.515	14053
1179.48	13989
1184.44	13809
1189.395	13728
1194.345	13628
1199.29	13567
1204.23	13528
1209.165	13621
1214.095	13690
1219.021	13756
1223.941	13822
1228.856	13941
1233.766	13922
1238.672	13933
1243.572	13971
1248.467	13876
1253.358	13658
1258.244	13515
1263.124	13293
1268	13039
1272.871	12909
1277.737	12835
1282.599	12759
1287.455	12812
1292.306	12807
1297.153	12781
1301.995	12839
1306.832	12928
1311.664	12984
1316.491	12934
1321.314	12828
1326.132	12676
1330.945	12383
1335.753	12095
1340.556	11803
1345.354	11550
1350.148	11394
1354.937	11291
1359.722	11312
1364.501	11289
1369.276	11447
1374.046	11559
1378.811	11714
1383.572	11848
1388.327	11880
1393.079	11774
1397.825	11710
1402.567	11498
1407.304	11399
1412.036	11282
1416.764	11191
1421.487	11096
1426.205	11053
1430.919	10963
1435.628	10953
1440.333	11052
1445.032	11054
1449.727	11118
1454.418	11089
1459.104	10991
1463.785	10813
1468.462	10590
1473.134	10351
1477.802	10133
1482.465	9961
1487.123	9849
1491.777	9845
1496.426	9843
1501.071	9977
1505.711	10138
1510.347	10284
1514.978	10499
1519.604	10629
1524.226	10697
1528.844	10719
1533.457	10687
1538.065	10650
1542.669	10575
1547.269	10494
1551.864	10411
1556.454	10418
1561.041	10386
1565.622	10391
1570.199	10429
1574.772	10460
1579.34	10597
1583.904	10600
1588.464	10674
1593.019	10629
1597.569	10654
1602.115	10608
1606.657	10518
1611.195	10479
1615.728	10448
1620.256	10387
1624.78	10392
1629.3	10440
1633.816	10427
1638.327	10499
1642.834	10546
1647.336	10606
1651.834	10633
1656.328	10642
1660.817	10568
1665.302	10466
1669.783	10275
1674.259	10061
1678.732	9748
1683.199	9422
1687.663	9104
1692.122	8864
1696.577	8655
1701.028	8616
1705.474	8633
1709.917	8697
1714.355	8728
1718.788	8684
1723.218	8498
1727.643	8360
1732.064	8219
1736.481	8037
1740.893	7810
1745.301	7581
1749.705	7400
1754.105	7176
1758.501	6934
1762.893	6799
1767.28	6652
1771.663	6491
1776.042	6377
1780.417	6341
1784.787	6340
1789.154	6403
1793.516	6512
1797.874	6620
1802.228	6719
1806.578	6800
1810.924	6747
1815.266	6737
1819.603	6627
1823.937	6508
1828.266	6423
1832.591	6303
1836.913	6226
1841.23	6184
1845.543	6118
1849.852	6088
1854.156	6024
1858.457	6055
1862.754	6058
1867.047	5996
1871.335	6007
1875.62	6011
1879.9	5994
1884.177	5968
1888.449	5897
1892.718	5841
1896.982	5768
1901.243	5769
1905.499	5695
1909.752	5709
1914	5687
1918.245	5710
1922.485	5734
1926.722	5798
1930.954	5875
1935.183	5937
1939.408	6004
1943.628	6013
1947.845	6033
1952.058	5999
1956.267	5957
1960.472	5904
1964.673	5818
1968.87	5695
1973.063	5632
1977.252	5545
1981.438	5440
1985.619	5443
1989.797	5370
1993.971	5382
1998.14	5354
2002.306	5307
2006.469	5255
2010.627	5276
2014.781	5228
2018.932	5209
2023.078	5158
2027.221	5098
2031.36	5006
2035.495	4917
2039.627	4866
2043.754	4839
2047.878	4765
2051.998	4744
2056.114	4753
2060.226	4702
2064.334	4768
2068.439	4745
2072.54	4780
2076.637	4828
2080.73	4873
2084.82	4896
2088.906	4875
2092.988	4886
2097.066	4841
2101.14	4852
2105.211	4805
2109.278	4803
2113.342	4728
2117.401	4722
2121.457	4705
2125.509	4691
2129.558	4643
2133.602	4632
2137.643	4589
2141.681	4594
2145.714	4546
2149.744	4518
2153.77	4480
2157.793	4412
2161.812	4341
2165.827	4285
2169.838	4211
2173.846	4178
2177.851	4086
2181.851	4034
2185.848	4000
2189.841	3951
2193.831	3904
2197.817	3857
2201.799	3842
2205.778	3819
2209.753	3803
2213.725	3780
2217.693	3779
2221.657	3767
2225.618	3773
2229.575	3763
2233.529	3697
2237.479	3668
2241.425	3613
2245.368	3595
2249.307	3538
2253.243	3468
2257.175	3406
2261.104	3393
2265.029	3304
2268.95	3309
2272.868	3278
2276.783	3239
2280.694	3198
2284.601	3167
2288.505	3129
2292.405	3111
2296.302	3049
2300.195	3029
2304.085	2999
2307.971	2930
2311.854	2916
2315.734	2860
2319.609	2801
2323.482	2782
2327.351	2748
2331.216	2742
2335.078	2742
2338.937	2699
2342.792	2667
2346.643	2631
2350.492	2659
2354.336	2655
2358.178	2676
2362.015	2659
2365.85	2695
2369.681	2662
2373.508	2688
2377.333	2684
2381.153	2645
2384.971	2657
2388.785	2612
2392.595	2597
2396.402	2596
2400.206	2572
2404.007	2528
2407.804	2514
2411.597	2512
2415.388	2486
2419.174	2459
2422.958	2457
2426.738	2414
2430.515	2407
2434.289	2367
2438.059	2346
2441.825	2354
2445.589	2334
2449.349	2294
2453.106	2257
2456.859	2242
2460.61	2221
2464.356	2173
2468.1	2158
2471.84	2151
2475.577	2131
2479.311	2113
2483.041	2108
2486.768	2095
2490.492	2085
2494.213	2098
2497.93	2080
2501.644	2069
2505.355	2052
2509.062	2060
2512.766	2037
2516.467	2042
2520.165	2013
2523.859	2006
2527.551	1980
2531.239	1966
2534.923	1945
2538.605	1952
2542.283	1944
2545.958	1928
2549.63	1936
2553.299	1934
2556.964	1938
2560.626	1927
2564.285	1925
2567.941	1907
2571.594	1886
2575.243	1862
2578.89	1859
2582.533	1831
2586.173	1835
2589.809	1804
2593.443	1816
2597.073	1782
2600.701	1780
2604.325	1738
2607.946	1744
2611.564	1707
2615.178	1708
2618.79	1711
2622.398	1696
2626.004	1670
2629.606	1649
2633.205	1606
2636.801	1613
2640.394	1584
2643.983	1542
2647.57	1531
2651.153	1509
2654.734	1486
2658.311	1453
2661.885	1446
2665.456	1421
2669.025	1396
2672.589	1389
2676.151	1376
2679.71	1350
2683.266	1334
2686.819	1316
2690.368	1278
2693.915	1243
2697.458	1221
2700.999	1209
2704.536	1154
2708.071	1156
2711.602	1137
2715.13	1096
2718.656	1087
2722.178	1076
2725.697	1053
2729.214	1056
2732.727	1052
2736.237	1060
2739.744	1037
2743.249	1036
2746.75	1066
2750.248	1062
2753.743	1075
2757.236	1107
2760.725	1092
2764.211	1095
2767.695	1108
2771.175	1094
2774.652	1084
2778.127	1081
2781.598	1071
2785.067	1081
2788.532	1077
2791.995	1065
2795.455	1071
2798.911	1071
2802.365	1063
2805.816	1079
2809.264	1060
2812.709	1072
2816.151	1071
2819.59	1066
2823.026	1086
2826.46	1080
2829.89	1074
2833.318	1075
2836.742	1093
2840.164	1089
2843.583	1092
2846.999	1121
2850.412	1122
2853.822	1138
2857.229	1151
2860.634	1173
2864.035	1201
2867.434	1185
2870.83	1235
2874.223	1273
2877.613	1285
2881	1315
2884.385	1320
2887.766	1314
2891.145	1313
2894.521	1310
2897.894	1317
2901.264	1313
2904.631	1333
2907.996	1330
2911.358	1345
2914.717	1339
2918.073	1341
2921.426	1381
2924.777	1402
2928.124	1412
2931.469	1447
2934.811	1485
2938.15	1483
2941.487	1500
2944.821	1514
2948.152	1539
2951.48	1526
2954.805	1490
2958.128	1490
2961.447	1476
2964.765	1481
2968.079	1496
2971.39	1510
2974.699	1522
2978.005	1544
2981.308	1571
2984.609	1610
2987.907	1617
2991.202	1657
2994.494	1686
2997.784	1741
3001.07	1754
3004.355	1799
3007.636	1830
3010.915	1844
3014.191	1871
3017.464	1861
3020.734	1891
3024.002	1891
3027.267	1910
3030.53	1936
3033.789	1964
3037.046	1983
3040.301	2011
3043.552	2038
3046.801	2075
3050.048	2154
3053.291	2220
3056.532	2258
3059.771	2332
3063.006	2385
3066.239	2463
3069.469	2536
3072.697	2620
3075.922	2665
3079.144	2760
3082.364	2809
3085.581	2857
3088.795	2921
3092.007	2968
3095.216	3046
3098.423	3103
3101.627	3192
3104.828	3276
3108.026	3336
3111.222	3412
3114.416	3516
3117.607	3571
3120.795	3660
3123.98	3751
3127.163	3811
3130.344	3931
3133.521	4022
3136.696	4084
3139.869	4188
3143.039	4244
3146.206	4310
3149.371	4388
3152.533	4410
3155.693	4444
3158.85	4453
3162.005	4472
3165.157	4488
3168.306	4496
3171.453	4502
3174.597	4549
3177.739	4555
3180.878	4559
3184.014	4561
3187.149	4564
3190.28	4554
3193.409	4574
3196.536	4602
3199.659	4611
3202.781	4568
3205.9	4606
3209.016	4611
3212.13	4568
3215.241	4546
3218.35	4491
3221.456	4462
3224.56	4423
3227.661	4362
3230.76	4308
3233.856	4282
3236.95	4239
3240.041	4194
3243.13	4178
3246.216	4162
3249.3	4154
3252.382	4114
3255.46	4086
3258.537	4068
3261.611	4074
3264.682	4104
3267.751	4081
3270.818	4072
3273.882	4053
3276.943	4059
3280.002	4013
3283.059	3988
3286.113	3920
3289.165	3892
3292.214	3809
3295.261	3745
3298.306	3708
3301.348	3622
3304.387	3575
3307.425	3553
3310.459	3455
3313.492	3434
3316.521	3360
3319.549	3362
3322.574	3314
3325.597	3279
3328.617	3257
3331.635	3230
3334.65	3216
3337.663	3188
3340.674	3158
3343.682	3171
3346.688	3134
3349.691	3167
3352.692	3107
3355.691	3106
3358.687	3078
3361.681	3038
3364.673	3017
3367.662	2959
3370.649	2930
3373.633	2873
3376.615	2845
3379.595	2796
3382.572	2748
3385.547	2701
3388.52	2718
3391.49	2639
3394.458	2603
3397.424	2580
3400.387	2550
3403.348	2502
3406.307	2482
3409.263	2472
3412.217	2425
3415.168	2407
3418.118	2377
3421.065	2331
3424.009	2296
3426.951	2269
3429.891	2236
3432.829	2204
3435.764	2133
3438.697	2087
3441.628	2010
3444.557	1971
3447.483	1921
3450.407	1871
3453.328	1803
3456.247	1735
3459.164	1676
3462.079	1630
3464.991	1543
3467.902	1496
3470.809	1449
3473.715	1406
3476.618	1348
3479.519	1289
3482.418	1262
3485.315	1223
3488.209	1166
3491.101	1135
3493.99	1082
3496.878	1075
3499.763	1028
3502.646	967
3505.527	946
3508.405	911
3511.281	855
3514.155	806
3517.027	771
3519.897	728
3522.764	659
3525.629	632
3528.492	577
3531.352	523
3534.211	480
3537.067	448
3539.921	409
3542.773	365
3545.622	325
3548.469	294
3551.315	271
3554.157	235
3556.998	211
3559.837	173
3562.673	156
3565.507	124
3568.339	104
3571.169	77
3573.996	49
3576.822	44
3579.645	-4
3582.466	-14
3585.285	-34
3588.101	-64
3590.916	-85
3593.728	-110
3596.538	-126
3599.346	-154
3602.152	-162
3604.956	-179
3607.757	-199
3610.556	-221
3613.354	-216
3616.149	-261
3618.942	-262
3621.732	-262
3624.521	-289
3627.307	-292
3630.092	-315
3632.874	-321
3635.654	-345
3638.432	-347
3641.208	-354
3643.982	-367
3646.753	-372
3649.523	-380
3652.29	-394
3655.055	-402
3657.818	-421
3660.579	-427
3663.338	-450
3666.095	-451
3668.849	-463
3671.602	-474
3674.352	-479
3677.101	-495
3679.847	-497
3682.591	-498
3685.333	-513
3688.073	-511
3690.811	-523
3693.547	-527
3696.281	-537
3699.013	-542
3701.742	-547
3704.47	-552
3707.195	-558
3709.919	-561
3712.64	-559
3715.359	-562
3718.076	-576
3720.792	-569
3723.505	-573
3726.216	-588
3728.925	-583
3731.632	-590
3734.336	-596
3737.039	-601
3739.74	-591
3742.439	-603
3745.136	-607
3747.83	-610
3750.523	-602
3753.213	-594
3755.902	-612
3758.589	-610
3761.273	-621
3763.956	-621
3766.636	-626
3769.315	-622
3771.991	-619
3774.665	-631
3777.338	-632
3780.008	-640
3782.677	-632
3785.343	-635
3788.007	-635
3790.67	-635
3793.33	-643
3795.989	-644
3798.645	-637
3801.299	-636
3803.952	-651
3806.602	-646
3809.251	-648
3811.897	-647
3814.542	-650
3817.184	-647
3819.825	-642
3822.463	-645
3825.1	-653
3827.735	-648
3830.367	-651
3832.998	-655
3835.627	-658
3838.253	-660
3840.878	-662
3843.501	-654
3846.122	-658
3848.741	-657
3851.358	-660
3853.973	-661
3856.586	-662
3859.197	-662
3861.806	-665
3864.414	-661
3867.019	-656
3869.622	-658
3872.224	-654
3874.823	-640
3877.421	-623
3880.016	-604
3882.61	-574
3885.202	-572
3887.792	-584
3890.38	-625
3892.966	-647
3895.55	-659
3898.132	-676
3900.713	-674
3903.291	-668
3905.868	-672
3908.442	-675
3911.015	-677
3913.586	-667
3916.155	-671
3918.722	-673
3921.287	-675
3923.85	-683
3926.411	-683
3928.971	-686
3931.528	-677
3934.084	-680
3936.638	-673
3939.19	-677
3941.74	-672
3944.288	-680
3946.834	-672
3949.378	-677
3951.921	-676
3954.462	-687
3957	-677
3959.537	-676
3962.072	-670
3964.606	-676
3967.137	-676
3969.667	-685
3972.194	-674
3974.72	-676
3977.244	-670
3979.766	-661
3982.286	-663
3984.805	-665
3987.321	-663
3989.836	-670
3992.349	-660
3994.86	-664
3997.369	-667
3999.877	-662
4002.382	-666
4004.886	-665
4007.388	-662
4009.888	-661
4012.386	-665
4014.883	-664
4017.377	-659
4019.87	-659
4022.361	-661
4024.85	-667
4027.338	-663
4029.823	-665
4032.307	-665
4034.789	-662
4037.269	-665
4039.747	-670
4042.224	-664
4044.699	-670
4047.172	-667
4049.643	-669
4052.112	-675
4054.58	-673
4057.046	-667
4059.51	-677
4061.972	-670
4064.432	-673
4066.891	-673
4069.348	-662
4071.803	-667
4074.256	-664
4076.708	-663
4079.158	-665
4081.606	-671
4084.052	-673
4086.497	-670
4088.939	-667
4091.38	-667
4093.819	-662
4096.257	-702
4098.693	-702
4101.127	-706
4103.559	-700
4105.989	-407
4108.418	-376
4110.845	-360
4113.27	-336
4115.694	-291
4118.115	-242
4120.535	-669
4122.954	-662
4125.37	-660
4127.785	-667
4130.198	-668
4132.609	-672
4135.019	-700
4137.427	-705
4139.833	-704
4142.237	-699
