Data from 2018-2-14_conc=4_n=4_RamanShift_01.txt Node
Date: Wed Feb 14 13:36:55 IST 2018
User: aro
Spectrometer: QEPB0276
Trigger mode: 0
Integration Time (sec): 3.000000E1
Scans to average: 1
Electric dark correction enabled: true
Nonlinearity correction enabled: false
Boxcar width: 0
XAxis mode: Raman Shifts
Number of Pixels in Spectrum: 1044
>>>>>Begin Spectral Data<<<<<
160.701	-138.2
166.742	41.8
172.777	566.8
178.805	2204.8
184.826	6120.8
190.841	12824.8
196.849	20517.8
202.85	25905.8
208.845	27677.8
214.833	27447.8
220.815	26877.8
226.789	26808.8
232.758	26620.8
238.719	26289.8
244.674	26002.8
250.623	25455.8
256.565	24970.8
262.5	24451.8
268.429	23978.8
274.351	23537.8
280.267	23176.8
286.176	23026.8
292.079	22784.8
297.975	22468.8
303.865	22202.8
309.748	22143.8
315.625	21989.8
321.495	21803.8
327.359	21812.8
333.217	21685.8
339.068	21693.8
344.912	21734.8
350.751	21696.8
356.583	21626.8
362.408	21601.8
368.227	21587.8
374.04	21683.8
379.847	21658.8
385.647	21728.8
391.44	21829.8
397.228	21950.8
403.009	22079.8
408.784	22078.8
414.553	22152.8
420.315	22230.8
426.071	22214.8
431.821	22238.8
437.565	22257.8
443.302	22200.8
449.033	22156.8
454.758	22104.8
460.477	21996.8
466.189	22012.8
471.896	21910.8
477.596	21854.8
483.29	21884.8
488.978	21793.8
494.66	21676.8
500.335	21629.8
506.005	21312.8
511.668	21061.8
517.325	20872.8
522.977	20649.8
528.622	20472.8
534.261	20306.8
539.894	20289.8
545.521	20160.8
551.141	20164.8
556.756	20017.8
562.365	19953.8
567.968	19904.8
573.565	19767.8
579.155	19698.8
584.74	19630.8
590.319	19606.8
595.892	19458.8
601.459	19432.8
607.02	19345.8
612.575	19185.8
618.124	19069.8
623.667	19013.8
629.204	18925.8
634.735	18832.8
640.261	18732.8
645.781	18668.8
651.294	18616.8
656.802	18607.8
662.304	18578.8
667.8	18533.8
673.29	18499.8
678.775	18468.8
684.254	18364.8
689.726	18343.8
695.193	18319.8
700.655	18184.8
706.11	18099.8
711.56	18008.8
717.004	17926.8
722.442	17926.8
727.874	17820.8
733.301	17773.8
738.722	17674.8
744.137	17667.8
749.547	17643.8
754.951	17658.8
760.349	17664.8
765.741	17695.8
771.128	17660.8
776.509	17673.8
781.885	17689.8
787.254	17653.8
792.618	17579.8
797.977	17453.8
803.33	17359.8
808.677	17237.8
814.019	17155.8
819.355	17085.8
824.686	16953.8
830.011	16957.8
835.33	16966.8
840.644	16992.8
845.952	16947.8
851.255	17001.8
856.552	17079.8
861.844	17018.8
867.13	16936.8
872.41	16952.8
877.686	16776.8
882.955	16710.8
888.219	16555.8
893.478	16363.8
898.731	16186.8
903.979	16030.8
909.221	15882.8
914.458	15847.8
919.69	15805.8
924.916	15844.8
930.136	15962.8
935.351	15963.8
940.561	15965.8
945.766	15917.8
950.965	15836.8
956.158	15722.8
961.347	15541.8
966.529	15423.8
971.707	15185.8
976.879	14989.8
982.046	14926.8
987.208	14819.8
992.364	14848.8
997.515	14901.8
1002.66	15086.8
1007.801	15189.8
1012.936	15340.8
1018.066	15309.8
1023.19	15388.8
1028.309	15289.8
1033.423	15311.8
1038.532	15233.8
1043.636	15084.8
1048.734	14931.8
1053.827	14711.8
1058.915	14585.8
1063.998	14443.8
1069.075	14448.8
1074.147	14445.8
1079.214	14509.8
1084.276	14587.8
1089.333	14685.8
1094.385	14742.8
1099.431	14746.8
1104.472	14828.8
1109.509	14693.8
1114.54	14507.8
1119.565	14332.8
1124.586	14139.8
1129.602	14058.8
1134.613	13941.8
1139.618	13844.8
1144.619	13836.8
1149.614	13829.8
1154.604	13848.8
1159.589	13934.8
1164.57	13933.8
1169.545	13947.8
1174.515	13943.8
1179.48	13913.8
1184.44	13780.8
1189.395	13692.8
1194.345	13610.8
1199.29	13517.8
1204.23	13487.8
1209.165	13583.8
1214.095	13672.8
1219.021	13714.8
1223.941	13796.8
1228.856	13894.8
1233.766	13925.8
1238.672	13902.8
1243.572	13893.8
1248.467	13842.8
1253.358	13662.8
1258.244	13464.8
1263.124	13260.8
1268	13065.8
1272.871	12954.8
1277.737	12870.8
1282.599	12810.8
1287.455	12806.8
1292.306	12732.8
1297.153	12885.8
1301.995	12911.8
1306.832	12986.8
1311.664	12958.8
1316.491	12907.8
1321.314	12794.8
1326.132	12653.8
1330.945	12334.8
1335.753	12029.8
1340.556	11708.8
1345.354	11448.8
1350.148	11299.8
1354.937	11169.8
1359.722	11198.8
1364.501	11284.8
1369.276	11420.8
1374.046	11516.8
1378.811	11774.8
1383.572	11894.8
1388.327	11969.8
1393.079	11840.8
1397.825	11701.8
1402.567	11548.8
1407.304	11414.8
1412.036	11253.8
1416.764	11182.8
1421.487	11118.8
1426.205	11057.8
1430.919	11043.8
1435.628	11031.8
1440.333	11059.8
1445.032	11067.8
1449.727	11114.8
1454.418	11084.8
1459.104	10973.8
1463.785	10778.8
1468.462	10564.8
1473.134	10261.8
1477.802	10061.8
1482.465	9889.8
1487.123	9760.8
1491.777	9753.8
1496.426	9755.8
1501.071	9889.8
1505.711	10082.8
1510.347	10253.8
1514.978	10413.8
1519.604	10606.8
1524.226	10702.8
1528.844	10733.8
1533.457	10686.8
1538.065	10643.8
1542.669	10652.8
1547.269	10550.8
1551.864	10475.8
1556.454	10436.8
1561.041	10417.8
1565.622	10420.8
1570.199	10462.8
1574.772	10534.8
1579.34	10561.8
1583.904	10592.8
1588.464	10653.8
1593.019	10651.8
1597.569	10600.8
1602.115	10550.8
1606.657	10519.8
1611.195	10432.8
1615.728	10369.8
1620.256	10301.8
1624.78	10268.8
1629.3	10328.8
1633.816	10349.8
1638.327	10404.8
1642.834	10444.8
1647.336	10460.8
1651.834	10495.8
1656.328	10427.8
1660.817	10405.8
1665.302	10302.8
1669.783	10112.8
1674.259	9905.8
1678.732	9598.8
1683.199	9272.8
1687.663	8931.8
1692.122	8635.8
1696.577	8543.8
1701.028	8546.8
1705.474	8594.8
1709.917	8735.8
1714.355	8791.8
1718.788	8702.8
1723.218	8571.8
1727.643	8397.8
1732.064	8265.8
1736.481	8073.8
1740.893	7846.8
1745.301	7635.8
1749.705	7454.8
1754.105	7244.8
1758.501	7051.8
1762.893	6831.8
1767.28	6693.8
1771.663	6502.8
1776.042	6374.8
1780.417	6286.8
1784.787	6343.8
1789.154	6422.8
1793.516	6535.8
1797.874	6684.8
1802.228	6787.8
1806.578	6873.8
1810.924	6836.8
1815.266	6811.8
1819.603	6740.8
1823.937	6642.8
1828.266	6533.8
1832.591	6413.8
1836.913	6345.8
1841.23	6208.8
1845.543	6193.8
1849.852	6196.8
1854.156	6149.8
1858.457	6122.8
1862.754	6118.8
1867.047	6116.8
1871.335	6079.8
1875.62	6085.8
1879.9	6080.8
1884.177	6026.8
1888.449	5977.8
1892.718	5907.8
1896.982	5823.8
1901.243	5770.8
1905.499	5726.8
1909.752	5705.8
1914	5724.8
1918.245	5718.8
1922.485	5769.8
1926.722	5822.8
1930.954	5932.8
1935.183	5990.8
1939.408	6060.8
1943.628	6089.8
1947.845	6098.8
1952.058	6099.8
1956.267	6059.8
1960.472	5974.8
1964.673	5900.8
1968.87	5822.8
1973.063	5707.8
1977.252	5632.8
1981.438	5611.8
1985.619	5531.8
1989.797	5502.8
1993.971	5448.8
1998.14	5412.8
2002.306	5415.8
2006.469	5387.8
2010.627	5379.8
2014.781	5352.8
2018.932	5283.8
2023.078	5225.8
2027.221	5142.8
2031.36	5109.8
2035.495	4996.8
2039.627	4962.8
2043.754	4875.8
2047.878	4835.8
2051.998	4789.8
2056.114	4767.8
2060.226	4755.8
2064.334	4807.8
2068.439	4774.8
2072.54	4807.8
2076.637	4849.8
2080.73	4849.8
2084.82	4904.8
2088.906	4920.8
2092.988	4941.8
2097.066	4907.8
2101.14	4862.8
2105.211	4846.8
2109.278	4853.8
2113.342	4786.8
2117.401	4762.8
2121.457	4749.8
2125.509	4747.8
2129.558	4684.8
2133.602	4679.8
2137.643	4655.8
2141.681	4667.8
2145.714	4602.8
2149.744	4575.8
2153.77	4540.8
2157.793	4521.8
2161.812	4455.8
2165.827	4362.8
2169.838	4295.8
2173.846	4220.8
2177.851	4196.8
2181.851	4122.8
2185.848	4094.8
2189.841	3997.8
2193.831	3994.8
2197.817	3949.8
2201.799	3902.8
2205.778	3887.8
2209.753	3900.8
2213.725	3879.8
2217.693	3876.8
2221.657	3863.8
2225.618	3873.8
2229.575	3843.8
2233.529	3805.8
2237.479	3773.8
2241.425	3735.8
2245.368	3653.8
2249.307	3633.8
2253.243	3590.8
2257.175	3528.8
2261.104	3471.8
2265.029	3451.8
2268.95	3421.8
2272.868	3357.8
2276.783	3343.8
2280.694	3311.8
2284.601	3267.8
2288.505	3254.8
2292.405	3204.8
2296.302	3173.8
2300.195	3176.8
2304.085	3113.8
2307.971	3083.8
2311.854	3034.8
2315.734	2983.8
2319.609	2945.8
2323.482	2879.8
2327.351	2867.8
2331.216	2855.8
2335.078	2860.8
2338.937	2836.8
2342.792	2801.8
2346.643	2792.8
2350.492	2800.8
2354.336	2786.8
2358.178	2801.8
2362.015	2812.8
2365.85	2833.8
2369.681	2812.8
2373.508	2834.8
2377.333	2847.8
2381.153	2798.8
2384.971	2776.8
2388.785	2769.8
2392.595	2751.8
2396.402	2725.8
2400.206	2698.8
2404.007	2685.8
2407.804	2663.8
2411.597	2631.8
2415.388	2644.8
2419.174	2616.8
2422.958	2593.8
2426.738	2562.8
2430.515	2549.8
2434.289	2541.8
2438.059	2520.8
2441.825	2497.8
2445.589	2468.8
2449.349	2440.8
2453.106	2409.8
2456.859	2370.8
2460.61	2357.8
2464.356	2328.8
2468.1	2298.8
2471.84	2287.8
2475.577	2265.8
2479.311	2259.8
2483.041	2236.8
2486.768	2225.8
2490.492	2204.8
2494.213	2220.8
2497.93	2199.8
2501.644	2190.8
2505.355	2173.8
2509.062	2176.8
2512.766	2162.8
2516.467	2160.8
2520.165	2127.8
2523.859	2128.8
2527.551	2091.8
2531.239	2067.8
2534.923	2065.8
2538.605	2051.8
2542.283	2063.8
2545.958	2063.8
2549.63	2067.8
2553.299	2059.8
2556.964	2058.8
2560.626	2027.8
2564.285	2024.8
2567.941	2007.8
2571.594	2001.8
2575.243	1997.8
2578.89	1972.8
2582.533	1966.8
2586.173	1956.8
2589.809	1922.8
2593.443	1937.8
2597.073	1901.8
2600.701	1913.8
2604.325	1878.8
2607.946	1876.8
2611.564	1856.8
2615.178	1849.8
2618.79	1838.8
2622.398	1823.8
2626.004	1805.8
2629.606	1771.8
2633.205	1757.8
2636.801	1715.8
2640.394	1713.8
2643.983	1682.8
2647.57	1674.8
2651.153	1638.8
2654.734	1615.8
2658.311	1584.8
2661.885	1546.8
2665.456	1550.8
2669.025	1518.8
2672.589	1500.8
2676.151	1489.8
2679.71	1484.8
2683.266	1445.8
2686.819	1415.8
2690.368	1396.8
2693.915	1380.8
2697.458	1342.8
2700.999	1302.8
2704.536	1285.8
2708.071	1260.8
2711.602	1222.8
2715.13	1189.8
2718.656	1166.8
2722.178	1143.8
2725.697	1138.8
2729.214	1132.8
2732.727	1128.8
2736.237	1115.8
2739.744	1092.8
2743.249	1098.8
2746.75	1113.8
2750.248	1140.8
2753.743	1144.8
2757.236	1180.8
2760.725	1154.8
2764.211	1165.8
2767.695	1179.8
2771.175	1162.8
2774.652	1165.8
2778.127	1162.8
2781.598	1168.8
2785.067	1144.8
2788.532	1146.8
2791.995	1127.8
2795.455	1143.8
2798.911	1139.8
2802.365	1153.8
2805.816	1139.8
2809.264	1126.8
2812.709	1127.8
2816.151	1148.8
2819.59	1146.8
2823.026	1136.8
2826.46	1136.8
2829.89	1144.8
2833.318	1159.8
2836.742	1152.8
2840.164	1145.8
2843.583	1171.8
2846.999	1175.8
2850.412	1176.8
2853.822	1195.8
2857.229	1205.8
2860.634	1229.8
2864.035	1236.8
2867.434	1265.8
2870.83	1274.8
2874.223	1304.8
2877.613	1338.8
2881	1327.8
2884.385	1353.8
2887.766	1348.8
2891.145	1339.8
2894.521	1323.8
2897.894	1334.8
2901.264	1326.8
2904.631	1337.8
2907.996	1338.8
2911.358	1338.8
2914.717	1357.8
2918.073	1366.8
2921.426	1369.8
2924.777	1366.8
2928.124	1397.8
2931.469	1438.8
2934.811	1470.8
2938.15	1489.8
2941.487	1489.8
2944.821	1490.8
2948.152	1494.8
2951.48	1485.8
2954.805	1469.8
2958.128	1450.8
2961.447	1437.8
2964.765	1426.8
2968.079	1441.8
2971.39	1449.8
2974.699	1484.8
2978.005	1492.8
2981.308	1520.8
2984.609	1525.8
2987.907	1543.8
2991.202	1587.8
2994.494	1629.8
2997.784	1661.8
3001.07	1686.8
3004.355	1740.8
3007.636	1743.8
3010.915	1734.8
3014.191	1775.8
3017.464	1782.8
3020.734	1806.8
3024.002	1805.8
3027.267	1794.8
3030.53	1821.8
3033.789	1861.8
3037.046	1861.8
3040.301	1878.8
3043.552	1901.8
3046.801	1968.8
3050.048	1989.8
3053.291	2066.8
3056.532	2103.8
3059.771	2156.8
3063.006	2227.8
3066.239	2302.8
3069.469	2372.8
3072.697	2391.8
3075.922	2460.8
3079.144	2483.8
3082.364	2559.8
3085.581	2599.8
3088.795	2691.8
3092.007	2753.8
3095.216	2786.8
3098.423	2840.8
3101.627	2911.8
3104.828	2970.8
3108.026	3037.8
3111.222	3097.8
3114.416	3158.8
3117.607	3250.8
3120.795	3326.8
3123.98	3371.8
3127.163	3474.8
3130.344	3541.8
3133.521	3632.8
3136.696	3731.8
3139.869	3787.8
3143.039	3868.8
3146.206	3893.8
3149.371	3953.8
3152.533	3981.8
3155.693	3992.8
3158.85	4007.8
3162.005	4047.8
3165.157	4061.8
3168.306	4072.8
3171.453	4064.8
3174.597	4082.8
3177.739	4092.8
3180.878	4117.8
3184.014	4107.8
3187.149	4081.8
3190.28	4115.8
3193.409	4135.8
3196.536	4115.8
3199.659	4134.8
3202.781	4150.8
3205.9	4130.8
3209.016	4167.8
3212.13	4121.8
3215.241	4099.8
3218.35	4050.8
3221.456	3986.8
3224.56	3988.8
3227.661	3894.8
3230.76	3888.8
3233.856	3836.8
3236.95	3817.8
3240.041	3760.8
3243.13	3761.8
3246.216	3737.8
3249.3	3724.8
3252.382	3729.8
3255.46	3685.8
3258.537	3658.8
3261.611	3693.8
3264.682	3662.8
3267.751	3666.8
3270.818	3629.8
3273.882	3659.8
3276.943	3626.8
3280.002	3590.8
3283.059	3590.8
3286.113	3507.8
3289.165	3490.8
3292.214	3411.8
3295.261	3354.8
3298.306	3345.8
3301.348	3265.8
3304.387	3214.8
3307.425	3192.8
3310.459	3106.8
3313.492	3063.8
3316.521	3037.8
3319.549	3002.8
3322.574	2966.8
3325.597	2961.8
3328.617	2930.8
3331.635	2896.8
3334.65	2909.8
3337.663	2857.8
3340.674	2852.8
3343.682	2822.8
3346.688	2862.8
3349.691	2833.8
3352.692	2823.8
3355.691	2788.8
3358.687	2764.8
3361.681	2760.8
3364.673	2692.8
3367.662	2650.8
3370.649	2598.8
3373.633	2594.8
3376.615	2539.8
3379.595	2467.8
3382.572	2460.8
3385.547	2455.8
3388.52	2395.8
3391.49	2366.8
3394.458	2321.8
3397.424	2297.8
3400.387	2242.8
3403.348	2244.8
3406.307	2217.8
3409.263	2166.8
3412.217	2142.8
3415.168	2153.8
3418.118	2127.8
3421.065	2098.8
3424.009	2049.8
3426.951	2002.8
3429.891	1983.8
3432.829	1935.8
3435.764	1908.8
3438.697	1852.8
3441.628	1805.8
3444.557	1737.8
3447.483	1689.8
3450.407	1637.8
3453.328	1602.8
3456.247	1526.8
3459.164	1480.8
3462.079	1433.8
3464.991	1377.8
3467.902	1315.8
3470.809	1286.8
3473.715	1220.8
3476.618	1191.8
3479.519	1136.8
3482.418	1100.8
3485.315	1094.8
3488.209	1027.8
3491.101	1003.8
3493.99	964.8
3496.878	915.8
3499.763	895.8
3502.646	859.8
3505.527	832.8
3508.405	782.8
3511.281	730.8
3514.155	714.8
3517.027	644.8
3519.897	610.8
3522.764	561.8
3525.629	532.8
3528.492	479.8
3531.352	440.8
3534.211	403.8
3537.067	375.8
3539.921	340.8
3542.773	297.8
3545.622	252.8
3548.469	232.8
3551.315	208.8
3554.157	177.8
3556.998	150.8
3559.837	128.8
3562.673	102.8
3565.507	77.8
3568.339	67.8
3571.169	40.8
3573.996	25.8
3576.822	9.8
3579.645	-18.2
3582.466	-38.2
3585.285	-63.2
3588.101	-82.2
3590.916	-109.2
3593.728	-134.2
3596.538	-157.2
3599.346	-170.2
3602.152	-177.2
3604.956	-187.2
3607.757	-205.2
3610.556	-233.2
3613.354	-240.2
3616.149	-261.2
3618.942	-268.2
3621.732	-276.2
3624.521	-296.2
3627.307	-302.2
3630.092	-303.2
3632.874	-318.2
3635.654	-335.2
3638.432	-340.2
3641.208	-350.2
3643.982	-360.2
3646.753	-370.2
3649.523	-385.2
3652.29	-379.2
3655.055	-397.2
3657.818	-414.2
3660.579	-416.2
3663.338	-436.2
3666.095	-439.2
3668.849	-450.2
3671.602	-458.2
3674.352	-466.2
3677.101	-472.2
3679.847	-486.2
3682.591	-486.2
3685.333	-494.2
3688.073	-491.2
3690.811	-496.2
3693.547	-504.2
3696.281	-510.2
3699.013	-518.2
3701.742	-520.2
3704.47	-525.2
3707.195	-538.2
3709.919	-532.2
3712.64	-544.2
3715.359	-544.2
3718.076	-548.2
3720.792	-545.2
3723.505	-552.2
3726.216	-563.2
3728.925	-558.2
3731.632	-567.2
3734.336	-569.2
3737.039	-571.2
3739.74	-565.2
3742.439	-575.2
3745.136	-575.2
3747.83	-582.2
3750.523	-577.2
3753.213	-578.2
3755.902	-586.2
3758.589	-588.2
3761.273	-589.2
3763.956	-591.2
3766.636	-589.2
3769.315	-596.2
3771.991	-598.2
3774.665	-600.2
3777.338	-602.2
3780.008	-606.2
3782.677	-603.2
3785.343	-602.2
3788.007	-606.2
3790.67	-604.2
3793.33	-605.2
3795.989	-606.2
3798.645	-605.2
3801.299	-606.2
3803.952	-618.2
3806.602	-622.2
3809.251	-617.2
3811.897	-613.2
3814.542	-620.2
3817.184	-618.2
3819.825	-612.2
3822.463	-614.2
3825.1	-624.2
3827.735	-618.2
3830.367	-622.2
3832.998	-624.2
3835.627	-629.2
3838.253	-623.2
3840.878	-632.2
3843.501	-626.2
3846.122	-624.2
3848.741	-624.2
3851.358	-625.2
3853.973	-624.2
3856.586	-624.2
3859.197	-627.2
3861.806	-630.2
3864.414	-624.2
3867.019	-626.2
3869.622	-626.2
3872.224	-625.2
3874.823	-605.2
3877.421	-600.2
3880.016	-577.2
3882.61	-569.2
3885.202	-569.2
3887.792	-577.2
3890.38	-602.2
3892.966	-615.2
3895.55	-635.2
3898.132	-642.2
3900.713	-641.2
3903.291	-645.2
3905.868	-642.2
3908.442	-643.2
3911.015	-648.2
3913.586	-635.2
3916.155	-633.2
3918.722	-647.2
3921.287	-641.2
3923.85	-647.2
3926.411	-645.2
3928.971	-654.2
3931.528	-647.2
3934.084	-650.2
3936.638	-645.2
3939.19	-649.2
3941.74	-644.2
3944.288	-653.2
3946.834	-644.2
3949.378	-645.2
3951.921	-643.2
3954.462	-652.2
3957	-644.2
3959.537	-648.2
3962.072	-642.2
3964.606	-642.2
3967.137	-643.2
3969.667	-648.2
3972.194	-638.2
3974.72	-641.2
3977.244	-636.2
3979.766	-640.2
3982.286	-633.2
3984.805	-633.2
3987.321	-636.2
3989.836	-642.2
3992.349	-630.2
3994.86	-632.2
3997.369	-644.2
3999.877	-627.2
4002.382	-630.2
4004.886	-629.2
4007.388	-624.2
4009.888	-627.2
4012.386	-630.2
4014.883	-635.2
4017.377	-631.2
4019.87	-630.2
4022.361	-625.2
4024.85	-634.2
4027.338	-634.2
4029.823	-638.2
4032.307	-636.2
4034.789	-635.2
4037.269	-634.2
4039.747	-636.2
4042.224	-640.2
4044.699	-635.2
4047.172	-635.2
4049.643	-633.2
4052.112	-636.2
4054.58	-638.2
4057.046	-638.2
4059.51	-639.2
4061.972	-631.2
4064.432	-643.2
4066.891	-633.2
4069.348	-634.2
4071.803	-632.2
4074.256	-634.2
4076.708	-635.2
4079.158	-634.2
4081.606	-639.2
4084.052	-645.2
4086.497	-638.2
4088.939	-629.2
4091.38	-631.2
4093.819	-628.2
4096.257	-671.2
4098.693	-672.2
4101.127	-674.2
4103.559	-665.2
4105.989	-387.2
4108.418	-367.2
4110.845	-340.2
4113.27	-308.2
4115.694	-273.2
4118.115	-238.2
4120.535	-635.2
4122.954	-631.2
4125.37	-625.2
4127.785	-633.2
4130.198	-632.2
4132.609	-635.2
4135.019	-668.2
4137.427	-670.2
4139.833	-671.2
4142.237	-665.2
