Data from 2018-2-14_conc=5_n=8_RamanShift_00.txt Node
Date: Wed Feb 14 14:27:55 IST 2018
User: aro
Spectrometer: QEPB0276
Trigger mode: 0
Integration Time (sec): 3.000000E1
Scans to average: 1
Electric dark correction enabled: true
Nonlinearity correction enabled: false
Boxcar width: 0
XAxis mode: Raman Shifts
Number of Pixels in Spectrum: 1044
>>>>>Begin Spectral Data<<<<<
160.701	-126.8
166.742	47.2
172.777	554.2
178.805	2112.2
184.826	5947.2
190.841	12447.2
196.849	19988.2
202.85	25393.2
208.845	27113.2
214.833	26789.2
220.815	26377.2
226.789	26249.2
232.758	26058.2
238.719	25983.2
244.674	25619.2
250.623	25167.2
256.565	24663.2
262.5	24146.2
268.429	23686.2
274.351	23377.2
280.267	23009.2
286.176	22751.2
292.079	22593.2
297.975	22368.2
303.865	22141.2
309.748	21952.2
315.625	21847.2
321.495	21795.2
327.359	21698.2
333.217	21672.2
339.068	21630.2
344.912	21640.2
350.751	21537.2
356.583	21553.2
362.408	21526.2
368.227	21554.2
374.04	21546.2
379.847	21583.2
385.647	21760.2
391.44	21806.2
397.228	21846.2
403.009	21934.2
408.784	22014.2
414.553	22074.2
420.315	22154.2
426.071	22132.2
431.821	22129.2
437.565	22120.2
443.302	22104.2
449.033	22056.2
454.758	21980.2
460.477	21886.2
466.189	21901.2
471.896	21855.2
477.596	21790.2
483.29	21751.2
488.978	21735.2
494.66	21660.2
500.335	21451.2
506.005	21215.2
511.668	20999.2
517.325	20781.2
522.977	20624.2
528.622	20525.2
534.261	20259.2
539.894	20197.2
545.521	20122.2
551.141	20089.2
556.756	20049.2
562.365	19921.2
567.968	19861.2
573.565	19738.2
579.155	19617.2
584.74	19590.2
590.319	19531.2
595.892	19459.2
601.459	19376.2
607.02	19273.2
612.575	19157.2
618.124	19042.2
623.667	18964.2
629.204	18853.2
634.735	18746.2
640.261	18677.2
645.781	18650.2
651.294	18618.2
656.802	18567.2
662.304	18546.2
667.8	18494.2
673.29	18469.2
678.775	18403.2
684.254	18360.2
689.726	18328.2
695.193	18197.2
700.655	18056.2
706.11	18014.2
711.56	17926.2
717.004	17837.2
722.442	17768.2
727.874	17719.2
733.301	17676.2
738.722	17602.2
744.137	17620.2
749.547	17591.2
754.951	17576.2
760.349	17579.2
765.741	17559.2
771.128	17532.2
776.509	17634.2
781.885	17594.2
787.254	17526.2
792.618	17447.2
797.977	17344.2
803.33	17205.2
808.677	17129.2
814.019	16992.2
819.355	16910.2
824.686	16851.2
830.011	16837.2
835.33	16818.2
840.644	16823.2
845.952	16848.2
851.255	16907.2
856.552	16893.2
861.844	16852.2
867.13	16822.2
872.41	16787.2
877.686	16701.2
882.955	16539.2
888.219	16421.2
893.478	16183.2
898.731	16056.2
903.979	15825.2
909.221	15729.2
914.458	15731.2
919.69	15632.2
924.916	15740.2
930.136	15770.2
935.351	15774.2
940.561	15772.2
945.766	15743.2
950.965	15617.2
956.158	15563.2
961.347	15401.2
966.529	15197.2
971.707	14986.2
976.879	14863.2
982.046	14684.2
987.208	14670.2
992.364	14624.2
997.515	14705.2
1002.66	14872.2
1007.801	15022.2
1012.936	15151.2
1018.066	15156.2
1023.19	15141.2
1028.309	15158.2
1033.423	15036.2
1038.532	14984.2
1043.636	14858.2
1048.734	14691.2
1053.827	14529.2
1058.915	14349.2
1063.998	14209.2
1069.075	14221.2
1074.147	14179.2
1079.214	14208.2
1084.276	14338.2
1089.333	14450.2
1094.385	14485.2
1099.431	14541.2
1104.472	14529.2
1109.509	14432.2
1114.54	14288.2
1119.565	14070.2
1124.586	13885.2
1129.602	13801.2
1134.613	13669.2
1139.618	13640.2
1144.619	13563.2
1149.614	13540.2
1154.604	13546.2
1159.589	13634.2
1164.57	13649.2
1169.545	13652.2
1174.515	13656.2
1179.48	13501.2
1184.44	13459.2
1189.395	13364.2
1194.345	13305.2
1199.29	13227.2
1204.23	13203.2
1209.165	13279.2
1214.095	13296.2
1219.021	13358.2
1223.941	13425.2
1228.856	13534.2
1233.766	13613.2
1238.672	13581.2
1243.572	13562.2
1248.467	13442.2
1253.358	13282.2
1258.244	13141.2
1263.124	12921.2
1268	12728.2
1272.871	12596.2
1277.737	12486.2
1282.599	12478.2
1287.455	12458.2
1292.306	12400.2
1297.153	12491.2
1301.995	12539.2
1306.832	12585.2
1311.664	12591.2
1316.491	12523.2
1321.314	12406.2
1326.132	12233.2
1330.945	11978.2
1335.753	11675.2
1340.556	11348.2
1345.354	11111.2
1350.148	10914.2
1354.937	10839.2
1359.722	10777.2
1364.501	10857.2
1369.276	11047.2
1374.046	11186.2
1378.811	11389.2
1383.572	11513.2
1388.327	11599.2
1393.079	11476.2
1397.825	11358.2
1402.567	11188.2
1407.304	11057.2
1412.036	10885.2
1416.764	10802.2
1421.487	10781.2
1426.205	10708.2
1430.919	10651.2
1435.628	10658.2
1440.333	10683.2
1445.032	10683.2
1449.727	10718.2
1454.418	10688.2
1459.104	10576.2
1463.785	10369.2
1468.462	10163.2
1473.134	9919.2
1477.802	9714.2
1482.465	9484.2
1487.123	9447.2
1491.777	9393.2
1496.426	9406.2
1501.071	9623.2
1505.711	9715.2
1510.347	9912.2
1514.978	10093.2
1519.604	10270.2
1524.226	10359.2
1528.844	10369.2
1533.457	10338.2
1538.065	10314.2
1542.669	10248.2
1547.269	10199.2
1551.864	10088.2
1556.454	10039.2
1561.041	10035.2
1565.622	10001.2
1570.199	10003.2
1574.772	10078.2
1579.34	10161.2
1583.904	10233.2
1588.464	10218.2
1593.019	10204.2
1597.569	10197.2
1602.115	10135.2
1606.657	10050.2
1611.195	10014.2
1615.728	9939.2
1620.256	9820.2
1624.78	9871.2
1629.3	9862.2
1633.816	9905.2
1638.327	9960.2
1642.834	9987.2
1647.336	10011.2
1651.834	10068.2
1656.328	10079.2
1660.817	9974.2
1665.302	9944.2
1669.783	9682.2
1674.259	9520.2
1678.732	9193.2
1683.199	8906.2
1687.663	8589.2
1692.122	8313.2
1696.577	8188.2
1701.028	8201.2
1705.474	8247.2
1709.917	8387.2
1714.355	8395.2
1718.788	8373.2
1723.218	8222.2
1727.643	8078.2
1732.064	7929.2
1736.481	7727.2
1740.893	7550.2
1745.301	7344.2
1749.705	7155.2
1754.105	6934.2
1758.501	6705.2
1762.893	6564.2
1767.28	6375.2
1771.663	6247.2
1776.042	6130.2
1780.417	6062.2
1784.787	6060.2
1789.154	6118.2
1793.516	6219.2
1797.874	6362.2
1802.228	6512.2
1806.578	6563.2
1810.924	6572.2
1815.266	6482.2
1819.603	6412.2
1823.937	6321.2
1828.266	6201.2
1832.591	6094.2
1836.913	6029.2
1841.23	5956.2
1845.543	5922.2
1849.852	5871.2
1854.156	5855.2
1858.457	5861.2
1862.754	5849.2
1867.047	5820.2
1871.335	5810.2
1875.62	5785.2
1879.9	5767.2
1884.177	5751.2
1888.449	5706.2
1892.718	5612.2
1896.982	5575.2
1901.243	5526.2
1905.499	5460.2
1909.752	5460.2
1914	5454.2
1918.245	5481.2
1922.485	5485.2
1926.722	5572.2
1930.954	5638.2
1935.183	5726.2
1939.408	5778.2
1943.628	5828.2
1947.845	5818.2
1952.058	5815.2
1956.267	5775.2
1960.472	5720.2
1964.673	5604.2
1968.87	5521.2
1973.063	5453.2
1977.252	5317.2
1981.438	5291.2
1985.619	5271.2
1989.797	5228.2
1993.971	5177.2
1998.14	5162.2
2002.306	5089.2
2006.469	5100.2
2010.627	5077.2
2014.781	5033.2
2018.932	4984.2
2023.078	4954.2
2027.221	4884.2
2031.36	4814.2
2035.495	4715.2
2039.627	4663.2
2043.754	4607.2
2047.878	4551.2
2051.998	4521.2
2056.114	4503.2
2060.226	4500.2
2064.334	4527.2
2068.439	4512.2
2072.54	4545.2
2076.637	4582.2
2080.73	4640.2
2084.82	4632.2
2088.906	4624.2
2092.988	4675.2
2097.066	4632.2
2101.14	4615.2
2105.211	4554.2
2109.278	4555.2
2113.342	4525.2
2117.401	4495.2
2121.457	4484.2
2125.509	4456.2
2129.558	4437.2
2133.602	4422.2
2137.643	4379.2
2141.681	4375.2
2145.714	4338.2
2149.744	4270.2
2153.77	4268.2
2157.793	4216.2
2161.812	4205.2
2165.827	4110.2
2169.838	4042.2
2173.846	3979.2
2177.851	3898.2
2181.851	3857.2
2185.848	3827.2
2189.841	3761.2
2193.831	3739.2
2197.817	3673.2
2201.799	3677.2
2205.778	3647.2
2209.753	3647.2
2213.725	3613.2
2217.693	3637.2
2221.657	3603.2
2225.618	3602.2
2229.575	3588.2
2233.529	3578.2
2237.479	3515.2
2241.425	3476.2
2245.368	3433.2
2249.307	3378.2
2253.243	3363.2
2257.175	3287.2
2261.104	3217.2
2265.029	3201.2
2268.95	3178.2
2272.868	3139.2
2276.783	3096.2
2280.694	3059.2
2284.601	3039.2
2288.505	3023.2
2292.405	2985.2
2296.302	2963.2
2300.195	2920.2
2304.085	2880.2
2307.971	2839.2
2311.854	2807.2
2315.734	2757.2
2319.609	2716.2
2323.482	2676.2
2327.351	2632.2
2331.216	2637.2
2335.078	2628.2
2338.937	2579.2
2342.792	2568.2
2346.643	2553.2
2350.492	2567.2
2354.336	2566.2
2358.178	2562.2
2362.015	2562.2
2365.85	2594.2
2369.681	2592.2
2373.508	2572.2
2377.333	2559.2
2381.153	2555.2
2384.971	2551.2
2388.785	2518.2
2392.595	2492.2
2396.402	2510.2
2400.206	2470.2
2404.007	2450.2
2407.804	2422.2
2411.597	2418.2
2415.388	2419.2
2419.174	2372.2
2422.958	2368.2
2426.738	2337.2
2430.515	2324.2
2434.289	2292.2
2438.059	2276.2
2441.825	2266.2
2445.589	2233.2
2449.349	2197.2
2453.106	2212.2
2456.859	2136.2
2460.61	2142.2
2464.356	2106.2
2468.1	2091.2
2471.84	2060.2
2475.577	2056.2
2479.311	2040.2
2483.041	2010.2
2486.768	2017.2
2490.492	2000.2
2494.213	2011.2
2497.93	1978.2
2501.644	1978.2
2505.355	1963.2
2509.062	1959.2
2512.766	1953.2
2516.467	1937.2
2520.165	1933.2
2523.859	1914.2
2527.551	1884.2
2531.239	1869.2
2534.923	1877.2
2538.605	1864.2
2542.283	1877.2
2545.958	1870.2
2549.63	1850.2
2553.299	1844.2
2556.964	1838.2
2560.626	1840.2
2564.285	1830.2
2567.941	1844.2
2571.594	1817.2
2575.243	1799.2
2578.89	1791.2
2582.533	1788.2
2586.173	1738.2
2589.809	1720.2
2593.443	1723.2
2597.073	1705.2
2600.701	1705.2
2604.325	1681.2
2607.946	1667.2
2611.564	1655.2
2615.178	1673.2
2618.79	1627.2
2622.398	1636.2
2626.004	1599.2
2629.606	1587.2
2633.205	1565.2
2636.801	1538.2
2640.394	1532.2
2643.983	1503.2
2647.57	1501.2
2651.153	1449.2
2654.734	1430.2
2658.311	1400.2
2661.885	1371.2
2665.456	1378.2
2669.025	1350.2
2672.589	1325.2
2676.151	1305.2
2679.71	1299.2
2683.266	1301.2
2686.819	1258.2
2690.368	1226.2
2693.915	1198.2
2697.458	1163.2
2700.999	1145.2
2704.536	1124.2
2708.071	1119.2
2711.602	1074.2
2715.13	1037.2
2718.656	1029.2
2722.178	1022.2
2725.697	999.2
2729.214	999.2
2732.727	983.2
2736.237	965.2
2739.744	974.2
2743.249	997.2
2746.75	979.2
2750.248	998.2
2753.743	1000.2
2757.236	1030.2
2760.725	1020.2
2764.211	1032.2
2767.695	1027.2
2771.175	1038.2
2774.652	1035.2
2778.127	1045.2
2781.598	1035.2
2785.067	1033.2
2788.532	1007.2
2791.995	999.2
2795.455	1003.2
2798.911	1015.2
2802.365	1005.2
2805.816	1003.2
2809.264	1008.2
2812.709	998.2
2816.151	996.2
2819.59	998.2
2823.026	1002.2
2826.46	1010.2
2829.89	1024.2
2833.318	1004.2
2836.742	1022.2
2840.164	1039.2
2843.583	1031.2
2846.999	1040.2
2850.412	1066.2
2853.822	1066.2
2857.229	1072.2
2860.634	1108.2
2864.035	1113.2
2867.434	1128.2
2870.83	1134.2
2874.223	1166.2
2877.613	1195.2
2881	1204.2
2884.385	1187.2
2887.766	1208.2
2891.145	1190.2
2894.521	1227.2
2897.894	1220.2
2901.264	1206.2
2904.631	1197.2
2907.996	1215.2
2911.358	1207.2
2914.717	1223.2
2918.073	1232.2
2921.426	1246.2
2924.777	1261.2
2928.124	1285.2
2931.469	1324.2
2934.811	1325.2
2938.15	1344.2
2941.487	1343.2
2944.821	1357.2
2948.152	1342.2
2951.48	1363.2
2954.805	1339.2
2958.128	1309.2
2961.447	1316.2
2964.765	1287.2
2968.079	1317.2
2971.39	1321.2
2974.699	1341.2
2978.005	1357.2
2981.308	1388.2
2984.609	1404.2
2987.907	1430.2
2991.202	1466.2
2994.494	1513.2
2997.784	1544.2
3001.07	1549.2
3004.355	1576.2
3007.636	1615.2
3010.915	1624.2
3014.191	1646.2
3017.464	1636.2
3020.734	1658.2
3024.002	1658.2
3027.267	1654.2
3030.53	1701.2
3033.789	1700.2
3037.046	1721.2
3040.301	1742.2
3043.552	1810.2
3046.801	1809.2
3050.048	1877.2
3053.291	1935.2
3056.532	1957.2
3059.771	2007.2
3063.006	2093.2
3066.239	2157.2
3069.469	2207.2
3072.697	2263.2
3075.922	2322.2
3079.144	2369.2
3082.364	2435.2
3085.581	2460.2
3088.795	2537.2
3092.007	2581.2
3095.216	2630.2
3098.423	2676.2
3101.627	2773.2
3104.828	2789.2
3108.026	2858.2
3111.222	2942.2
3114.416	3014.2
3117.607	3056.2
3120.795	3151.2
3123.98	3229.2
3127.163	3302.2
3130.344	3392.2
3133.521	3440.2
3136.696	3530.2
3139.869	3587.2
3143.039	3690.2
3146.206	3711.2
3149.371	3771.2
3152.533	3797.2
3155.693	3811.2
3158.85	3844.2
3162.005	3857.2
3165.157	3894.2
3168.306	3918.2
3171.453	3906.2
3174.597	3890.2
3177.739	3928.2
3180.878	3908.2
3184.014	3896.2
3187.149	3902.2
3190.28	3945.2
3193.409	3908.2
3196.536	3949.2
3199.659	3964.2
3202.781	3966.2
3205.9	3963.2
3209.016	3954.2
3212.13	3945.2
3215.241	3903.2
3218.35	3896.2
3221.456	3826.2
3224.56	3781.2
3227.661	3737.2
3230.76	3721.2
3233.856	3682.2
3236.95	3642.2
3240.041	3601.2
3243.13	3588.2
3246.216	3566.2
3249.3	3540.2
3252.382	3527.2
3255.46	3514.2
3258.537	3476.2
3261.611	3514.2
3264.682	3506.2
3267.751	3502.2
3270.818	3517.2
3273.882	3508.2
3276.943	3470.2
3280.002	3453.2
3283.059	3428.2
3286.113	3397.2
3289.165	3326.2
3292.214	3289.2
3295.261	3231.2
3298.306	3170.2
3301.348	3136.2
3304.387	3089.2
3307.425	3022.2
3310.459	2994.2
3313.492	2939.2
3316.521	2884.2
3319.549	2862.2
3322.574	2847.2
3325.597	2795.2
3328.617	2786.2
3331.635	2765.2
3334.65	2756.2
3337.663	2749.2
3340.674	2722.2
3343.682	2717.2
3346.688	2708.2
3349.691	2677.2
3352.692	2671.2
3355.691	2666.2
3358.687	2639.2
3361.681	2612.2
3364.673	2564.2
3367.662	2528.2
3370.649	2512.2
3373.633	2463.2
3376.615	2441.2
3379.595	2396.2
3382.572	2351.2
3385.547	2343.2
3388.52	2291.2
3391.49	2264.2
3394.458	2206.2
3397.424	2219.2
3400.387	2174.2
3403.348	2144.2
3406.307	2132.2
3409.263	2073.2
3412.217	2055.2
3415.168	2046.2
3418.118	1992.2
3421.065	1980.2
3424.009	1964.2
3426.951	1931.2
3429.891	1910.2
3432.829	1850.2
3435.764	1809.2
3438.697	1738.2
3441.628	1720.2
3444.557	1665.2
3447.483	1610.2
3450.407	1573.2
3453.328	1524.2
3456.247	1479.2
3459.164	1403.2
3462.079	1368.2
3464.991	1322.2
3467.902	1272.2
3470.809	1224.2
3473.715	1166.2
3476.618	1126.2
3479.519	1105.2
3482.418	1068.2
3485.315	1019.2
3488.209	989.2
3491.101	954.2
3493.99	922.2
3496.878	872.2
3499.763	848.2
3502.646	818.2
3505.527	774.2
3508.405	754.2
3511.281	693.2
3514.155	657.2
3517.027	634.2
3519.897	593.2
3522.764	545.2
3525.629	514.2
3528.492	460.2
3531.352	417.2
3534.211	385.2
3537.067	346.2
3539.921	314.2
3542.773	275.2
3545.622	249.2
3548.469	223.2
3551.315	207.2
3554.157	175.2
3556.998	142.2
3559.837	123.2
3562.673	108.2
3565.507	64.2
3568.339	39.2
3571.169	32.2
3573.996	14.2
3576.822	-9.8
3579.645	-30.8
3582.466	-48.8
3585.285	-68.8
3588.101	-90.8
3590.916	-115.8
3593.728	-137.8
3596.538	-156.8
3599.346	-161.8
3602.152	-184.8
3604.956	-193.8
3607.757	-221.8
3610.556	-227.8
3613.354	-243.8
3616.149	-253.8
3618.942	-264.8
3621.732	-278.8
3624.521	-290.8
3627.307	-295.8
3630.092	-299.8
3632.874	-322.8
3635.654	-326.8
3638.432	-325.8
3641.208	-342.8
3643.982	-359.8
3646.753	-353.8
3649.523	-367.8
3652.29	-375.8
3655.055	-386.8
3657.818	-398.8
3660.579	-409.8
3663.338	-421.8
3666.095	-432.8
3668.849	-442.8
3671.602	-436.8
3674.352	-451.8
3677.101	-462.8
3679.847	-471.8
3682.591	-474.8
3685.333	-479.8
3688.073	-478.8
3690.811	-488.8
3693.547	-489.8
3696.281	-494.8
3699.013	-496.8
3701.742	-506.8
3704.47	-509.8
3707.195	-515.8
3709.919	-522.8
3712.64	-527.8
3715.359	-521.8
3718.076	-535.8
3720.792	-530.8
3723.505	-530.8
3726.216	-541.8
3728.925	-541.8
3731.632	-549.8
3734.336	-553.8
3737.039	-548.8
3739.74	-551.8
3742.439	-560.8
3745.136	-562.8
3747.83	-567.8
3750.523	-559.8
3753.213	-564.8
3755.902	-573.8
3758.589	-564.8
3761.273	-572.8
3763.956	-575.8
3766.636	-567.8
3769.315	-580.8
3771.991	-577.8
3774.665	-585.8
3777.338	-575.8
3780.008	-584.8
3782.677	-589.8
3785.343	-580.8
3788.007	-583.8
3790.67	-581.8
3793.33	-590.8
3795.989	-586.8
3798.645	-589.8
3801.299	-591.8
3803.952	-598.8
3806.602	-604.8
3809.251	-598.8
3811.897	-601.8
3814.542	-597.8
3817.184	-602.8
3819.825	-594.8
3822.463	-595.8
3825.1	-604.8
3827.735	-594.8
3830.367	-595.8
3832.998	-601.8
3835.627	-606.8
3838.253	-608.8
3840.878	-602.8
3843.501	-606.8
3846.122	-599.8
3848.741	-604.8
3851.358	-599.8
3853.973	-606.8
3856.586	-606.8
3859.197	-608.8
3861.806	-610.8
3864.414	-602.8
3867.019	-603.8
3869.622	-608.8
3872.224	-604.8
3874.823	-590.8
3877.421	-581.8
3880.016	-557.8
3882.61	-537.8
3885.202	-539.8
3887.792	-549.8
3890.38	-578.8
3892.966	-603.8
3895.55	-606.8
3898.132	-622.8
3900.713	-618.8
3903.291	-618.8
3905.868	-620.8
3908.442	-623.8
3911.015	-626.8
3913.586	-611.8
3916.155	-611.8
3918.722	-625.8
3921.287	-621.8
3923.85	-629.8
3926.411	-624.8
3928.971	-631.8
3931.528	-625.8
3934.084	-625.8
3936.638	-619.8
3939.19	-622.8
3941.74	-620.8
3944.288	-628.8
3946.834	-617.8
3949.378	-627.8
3951.921	-626.8
3954.462	-629.8
3957	-624.8
3959.537	-626.8
3962.072	-622.8
3964.606	-621.8
3967.137	-620.8
3969.667	-623.8
3972.194	-618.8
3974.72	-621.8
3977.244	-614.8
3979.766	-607.8
3982.286	-618.8
3984.805	-609.8
3987.321	-615.8
3989.836	-616.8
3992.349	-605.8
3994.86	-608.8
3997.369	-616.8
3999.877	-605.8
4002.382	-610.8
4004.886	-608.8
4007.388	-608.8
4009.888	-606.8
4012.386	-614.8
4014.883	-605.8
4017.377	-616.8
4019.87	-608.8
4022.361	-611.8
4024.85	-609.8
4027.338	-609.8
4029.823	-612.8
4032.307	-610.8
4034.789	-608.8
4037.269	-607.8
4039.747	-613.8
4042.224	-614.8
4044.699	-612.8
4047.172	-610.8
4049.643	-604.8
4052.112	-613.8
4054.58	-613.8
4057.046	-617.8
4059.51	-615.8
4061.972	-615.8
4064.432	-616.8
4066.891	-615.8
4069.348	-614.8
4071.803	-608.8
4074.256	-613.8
4076.708	-609.8
4079.158	-612.8
4081.606	-612.8
4084.052	-618.8
4086.497	-613.8
4088.939	-613.8
4091.38	-603.8
4093.819	-606.8
4096.257	-643.8
4098.693	-644.8
4101.127	-645.8
4103.559	-641.8
4105.989	-365.8
4108.418	-353.8
4110.845	-319.8
4113.27	-296.8
4115.694	-265.8
4118.115	-218.8
4120.535	-607.8
4122.954	-606.8
4125.37	-603.8
4127.785	-608.8
4130.198	-611.8
4132.609	-611.8
4135.019	-645.8
4137.427	-648.8
4139.833	-647.8
4142.237	-644.8
