Data from 2018-2-14_conc=0_n=3_RamanShift_03.txt Node
Date: Wed Feb 14 10:33:26 IST 2018
User: aro
Spectrometer: QEPB0276
Trigger mode: 0
Integration Time (sec): 3.000000E1
Scans to average: 1
Electric dark correction enabled: true
Nonlinearity correction enabled: false
Boxcar width: 0
XAxis mode: Raman Shifts
Number of Pixels in Spectrum: 1044
>>>>>Begin Spectral Data<<<<<
160.701	-137.9
166.742	37.1
172.777	561.1
178.805	2132.1
184.826	5869.1
190.841	12318.1
196.849	19721.1
202.85	24872.1
208.845	26605.1
214.833	26278.1
220.815	25827.1
226.789	25695.1
232.758	25532.1
238.719	25417.1
244.674	25173.1
250.623	24660.1
256.565	24133.1
262.5	23737.1
268.429	23250.1
274.351	22915.1
280.267	22655.1
286.176	22402.1
292.079	22239.1
297.975	21950.1
303.865	21815.1
309.748	21608.1
315.625	21500.1
321.495	21378.1
327.359	21315.1
333.217	21236.1
339.068	21234.1
344.912	21224.1
350.751	21182.1
356.583	21177.1
362.408	21150.1
368.227	21164.1
374.04	21200.1
379.847	21163.1
385.647	21328.1
391.44	21431.1
397.228	21498.1
403.009	21523.1
408.784	21644.1
414.553	21742.1
420.315	21712.1
426.071	21749.1
431.821	21751.1
437.565	21773.1
443.302	21740.1
449.033	21711.1
454.758	21667.1
460.477	21580.1
466.189	21544.1
471.896	21540.1
477.596	21473.1
483.29	21404.1
488.978	21403.1
494.66	21315.1
500.335	21227.1
506.005	20959.1
511.668	20699.1
517.325	20427.1
522.977	20312.1
528.622	20191.1
534.261	19971.1
539.894	19948.1
545.521	19914.1
551.141	19829.1
556.756	19739.1
562.365	19654.1
567.968	19621.1
573.565	19508.1
579.155	19437.1
584.74	19397.1
590.319	19321.1
595.892	19255.1
601.459	19217.1
607.02	19149.1
612.575	19012.1
618.124	18882.1
623.667	18783.1
629.204	18698.1
634.735	18616.1
640.261	18550.1
645.781	18479.1
651.294	18460.1
656.802	18450.1
662.304	18399.1
667.8	18433.1
673.29	18371.1
678.775	18325.1
684.254	18289.1
689.726	18212.1
695.193	18115.1
700.655	18076.1
706.11	17968.1
711.56	17913.1
717.004	17829.1
722.442	17758.1
727.874	17745.1
733.301	17665.1
738.722	17562.1
744.137	17573.1
749.547	17560.1
754.951	17541.1
760.349	17622.1
765.741	17553.1
771.128	17639.1
776.509	17647.1
781.885	17647.1
787.254	17598.1
792.618	17461.1
797.977	17399.1
803.33	17314.1
808.677	17234.1
814.019	17095.1
819.355	17037.1
824.686	16935.1
830.011	16886.1
835.33	16875.1
840.644	16914.1
845.952	16977.1
851.255	16999.1
856.552	17055.1
861.844	17021.1
867.13	16965.1
872.41	16883.1
877.686	16802.1
882.955	16757.1
888.219	16527.1
893.478	16398.1
898.731	16190.1
903.979	15991.1
909.221	15914.1
914.458	15920.1
919.69	15852.1
924.916	15935.1
930.136	16000.1
935.351	15982.1
940.561	16019.1
945.766	15995.1
950.965	15902.1
956.158	15805.1
961.347	15634.1
966.529	15446.1
971.707	15256.1
976.879	15077.1
982.046	14986.1
987.208	14939.1
992.364	14960.1
997.515	15030.1
1002.66	15120.1
1007.801	15339.1
1012.936	15444.1
1018.066	15456.1
1023.19	15450.1
1028.309	15444.1
1033.423	15406.1
1038.532	15383.1
1043.636	15209.1
1048.734	15022.1
1053.827	14853.1
1058.915	14696.1
1063.998	14636.1
1069.075	14584.1
1074.147	14570.1
1079.214	14625.1
1084.276	14670.1
1089.333	14804.1
1094.385	14890.1
1099.431	14937.1
1104.472	14931.1
1109.509	14853.1
1114.54	14670.1
1119.565	14454.1
1124.586	14309.1
1129.602	14180.1
1134.613	14093.1
1139.618	13993.1
1144.619	13963.1
1149.614	14014.1
1154.604	14027.1
1159.589	14051.1
1164.57	14100.1
1169.545	14165.1
1174.515	14058.1
1179.48	14022.1
1184.44	13944.1
1189.395	13818.1
1194.345	13728.1
1199.29	13703.1
1204.23	13672.1
1209.165	13724.1
1214.095	13826.1
1219.021	13873.1
1223.941	13952.1
1228.856	14064.1
1233.766	14087.1
1238.672	14079.1
1243.572	14098.1
1248.467	13989.1
1253.358	13878.1
1258.244	13674.1
1263.124	13447.1
1268	13274.1
1272.871	13108.1
1277.737	13046.1
1282.599	12990.1
1287.455	12952.1
1292.306	13018.1
1297.153	13046.1
1301.995	13102.1
1306.832	13183.1
1311.664	13165.1
1316.491	13186.1
1321.314	13057.1
1326.132	12861.1
1330.945	12603.1
1335.753	12260.1
1340.556	11945.1
1345.354	11694.1
1350.148	11434.1
1354.937	11311.1
1359.722	11298.1
1364.501	11438.1
1369.276	11696.1
1374.046	11958.1
1378.811	12138.1
1383.572	12292.1
1388.327	12327.1
1393.079	12319.1
1397.825	12163.1
1402.567	11888.1
1407.304	11679.1
1412.036	11581.1
1416.764	11488.1
1421.487	11349.1
1426.205	11349.1
1430.919	11313.1
1435.628	11299.1
1440.333	11303.1
1445.032	11375.1
1449.727	11376.1
1454.418	11364.1
1459.104	11208.1
1463.785	11037.1
1468.462	10776.1
1473.134	10583.1
1477.802	10380.1
1482.465	10217.1
1487.123	10087.1
1491.777	10104.1
1496.426	10144.1
1501.071	10279.1
1505.711	10479.1
1510.347	10676.1
1514.978	10911.1
1519.604	11066.1
1524.226	11172.1
1528.844	11264.1
1533.457	11182.1
1538.065	11140.1
1542.669	11048.1
1547.269	10929.1
1551.864	10884.1
1556.454	10845.1
1561.041	10803.1
1565.622	10787.1
1570.199	10755.1
1574.772	10849.1
1579.34	10877.1
1583.904	10915.1
1588.464	10941.1
1593.019	10964.1
1597.569	10937.1
1602.115	10867.1
1606.657	10766.1
1611.195	10656.1
1615.728	10600.1
1620.256	10540.1
1624.78	10533.1
1629.3	10553.1
1633.816	10548.1
1638.327	10615.1
1642.834	10708.1
1647.336	10705.1
1651.834	10742.1
1656.328	10766.1
1660.817	10729.1
1665.302	10584.1
1669.783	10408.1
1674.259	10258.1
1678.732	10002.1
1683.199	9609.1
1687.663	9308.1
1692.122	9007.1
1696.577	8831.1
1701.028	8863.1
1705.474	9026.1
1709.917	9151.1
1714.355	9264.1
1718.788	9254.1
1723.218	9063.1
1727.643	8863.1
1732.064	8692.1
1736.481	8501.1
1740.893	8336.1
1745.301	8111.1
1749.705	7897.1
1754.105	7691.1
1758.501	7451.1
1762.893	7262.1
1767.28	7106.1
1771.663	6939.1
1776.042	6764.1
1780.417	6728.1
1784.787	6724.1
1789.154	6794.1
1793.516	6910.1
1797.874	7139.1
1802.228	7285.1
1806.578	7364.1
1810.924	7343.1
1815.266	7345.1
1819.603	7182.1
1823.937	7089.1
1828.266	6970.1
1832.591	6834.1
1836.913	6761.1
1841.23	6654.1
1845.543	6633.1
1849.852	6600.1
1854.156	6567.1
1858.457	6554.1
1862.754	6540.1
1867.047	6516.1
1871.335	6532.1
1875.62	6501.1
1879.9	6501.1
1884.177	6453.1
1888.449	6424.1
1892.718	6308.1
1896.982	6275.1
1901.243	6218.1
1905.499	6205.1
1909.752	6160.1
1914	6162.1
1918.245	6155.1
1922.485	6249.1
1926.722	6272.1
1930.954	6382.1
1935.183	6481.1
1939.408	6542.1
1943.628	6605.1
1947.845	6639.1
1952.058	6617.1
1956.267	6559.1
1960.472	6444.1
1964.673	6387.1
1968.87	6284.1
1973.063	6165.1
1977.252	6074.1
1981.438	6050.1
1985.619	5979.1
1989.797	5913.1
1993.971	5848.1
1998.14	5824.1
2002.306	5786.1
2006.469	5760.1
2010.627	5761.1
2014.781	5724.1
2018.932	5661.1
2023.078	5637.1
2027.221	5557.1
2031.36	5491.1
2035.495	5391.1
2039.627	5307.1
2043.754	5267.1
2047.878	5202.1
2051.998	5162.1
2056.114	5135.1
2060.226	5143.1
2064.334	5163.1
2068.439	5155.1
2072.54	5191.1
2076.637	5258.1
2080.73	5264.1
2084.82	5304.1
2088.906	5335.1
2092.988	5330.1
2097.066	5311.1
2101.14	5313.1
2105.211	5283.1
2109.278	5223.1
2113.342	5200.1
2117.401	5184.1
2121.457	5147.1
2125.509	5123.1
2129.558	5112.1
2133.602	5053.1
2137.643	5056.1
2141.681	5020.1
2145.714	4966.1
2149.744	4969.1
2153.77	4933.1
2157.793	4899.1
2161.812	4854.1
2165.827	4717.1
2169.838	4716.1
2173.846	4585.1
2177.851	4552.1
2181.851	4499.1
2185.848	4435.1
2189.841	4385.1
2193.831	4287.1
2197.817	4296.1
2201.799	4284.1
2205.778	4243.1
2209.753	4284.1
2213.725	4222.1
2217.693	4207.1
2221.657	4219.1
2225.618	4255.1
2229.575	4174.1
2233.529	4186.1
2237.479	4151.1
2241.425	4088.1
2245.368	4008.1
2249.307	3956.1
2253.243	3952.1
2257.175	3897.1
2261.104	3832.1
2265.029	3811.1
2268.95	3744.1
2272.868	3703.1
2276.783	3692.1
2280.694	3666.1
2284.601	3600.1
2288.505	3582.1
2292.405	3552.1
2296.302	3537.1
2300.195	3487.1
2304.085	3465.1
2307.971	3420.1
2311.854	3355.1
2315.734	3320.1
2319.609	3257.1
2323.482	3219.1
2327.351	3201.1
2331.216	3178.1
2335.078	3149.1
2338.937	3146.1
2342.792	3127.1
2346.643	3092.1
2350.492	3106.1
2354.336	3109.1
2358.178	3125.1
2362.015	3116.1
2365.85	3124.1
2369.681	3120.1
2373.508	3121.1
2377.333	3124.1
2381.153	3096.1
2384.971	3082.1
2388.785	3079.1
2392.595	3030.1
2396.402	3005.1
2400.206	2998.1
2404.007	2978.1
2407.804	2955.1
2411.597	2934.1
2415.388	2928.1
2419.174	2874.1
2422.958	2912.1
2426.738	2838.1
2430.515	2849.1
2434.289	2826.1
2438.059	2786.1
2441.825	2758.1
2445.589	2751.1
2449.349	2723.1
2453.106	2694.1
2456.859	2665.1
2460.61	2635.1
2464.356	2610.1
2468.1	2572.1
2471.84	2535.1
2475.577	2521.1
2479.311	2524.1
2483.041	2490.1
2486.768	2482.1
2490.492	2499.1
2494.213	2480.1
2497.93	2466.1
2501.644	2471.1
2505.355	2443.1
2509.062	2434.1
2512.766	2402.1
2516.467	2436.1
2520.165	2393.1
2523.859	2398.1
2527.551	2372.1
2531.239	2366.1
2534.923	2353.1
2538.605	2335.1
2542.283	2334.1
2545.958	2321.1
2549.63	2334.1
2553.299	2331.1
2556.964	2314.1
2560.626	2299.1
2564.285	2313.1
2567.941	2272.1
2571.594	2274.1
2575.243	2269.1
2578.89	2257.1
2582.533	2216.1
2586.173	2202.1
2589.809	2205.1
2593.443	2190.1
2597.073	2166.1
2600.701	2117.1
2604.325	2110.1
2607.946	2130.1
2611.564	2082.1
2615.178	2105.1
2618.79	2073.1
2622.398	2055.1
2626.004	2039.1
2629.606	2033.1
2633.205	1986.1
2636.801	1968.1
2640.394	1950.1
2643.983	1912.1
2647.57	1876.1
2651.153	1850.1
2654.734	1800.1
2658.311	1791.1
2661.885	1776.1
2665.456	1748.1
2669.025	1731.1
2672.589	1722.1
2676.151	1713.1
2679.71	1676.1
2683.266	1644.1
2686.819	1629.1
2690.368	1582.1
2693.915	1567.1
2697.458	1528.1
2700.999	1491.1
2704.536	1464.1
2708.071	1433.1
2711.602	1399.1
2715.13	1388.1
2718.656	1338.1
2722.178	1332.1
2725.697	1325.1
2729.214	1291.1
2732.727	1283.1
2736.237	1277.1
2739.744	1272.1
2743.249	1287.1
2746.75	1292.1
2750.248	1289.1
2753.743	1310.1
2757.236	1335.1
2760.725	1349.1
2764.211	1338.1
2767.695	1349.1
2771.175	1350.1
2774.652	1332.1
2778.127	1339.1
2781.598	1333.1
2785.067	1321.1
2788.532	1313.1
2791.995	1301.1
2795.455	1310.1
2798.911	1306.1
2802.365	1307.1
2805.816	1306.1
2809.264	1313.1
2812.709	1313.1
2816.151	1294.1
2819.59	1268.1
2823.026	1306.1
2826.46	1299.1
2829.89	1303.1
2833.318	1295.1
2836.742	1306.1
2840.164	1289.1
2843.583	1309.1
2846.999	1309.1
2850.412	1323.1
2853.822	1346.1
2857.229	1351.1
2860.634	1366.1
2864.035	1389.1
2867.434	1385.1
2870.83	1404.1
2874.223	1447.1
2877.613	1460.1
2881	1457.1
2884.385	1457.1
2887.766	1479.1
2891.145	1465.1
2894.521	1444.1
2897.894	1454.1
2901.264	1433.1
2904.631	1429.1
2907.996	1449.1
2911.358	1456.1
2914.717	1457.1
2918.073	1459.1
2921.426	1461.1
2924.777	1490.1
2928.124	1497.1
2931.469	1541.1
2934.811	1537.1
2938.15	1557.1
2941.487	1566.1
2944.821	1575.1
2948.152	1563.1
2951.48	1564.1
2954.805	1521.1
2958.128	1503.1
2961.447	1521.1
2964.765	1508.1
2968.079	1507.1
2971.39	1531.1
2974.699	1529.1
2978.005	1556.1
2981.308	1579.1
2984.609	1594.1
2987.907	1640.1
2991.202	1656.1
2994.494	1690.1
2997.784	1717.1
3001.07	1741.1
3004.355	1770.1
3007.636	1804.1
3010.915	1783.1
3014.191	1820.1
3017.464	1820.1
3020.734	1852.1
3024.002	1846.1
3027.267	1875.1
3030.53	1858.1
3033.789	1873.1
3037.046	1877.1
3040.301	1914.1
3043.552	1954.1
3046.801	1988.1
3050.048	2045.1
3053.291	2071.1
3056.532	2138.1
3059.771	2165.1
3063.006	2225.1
3066.239	2305.1
3069.469	2360.1
3072.697	2403.1
3075.922	2460.1
3079.144	2515.1
3082.364	2584.1
3085.581	2630.1
3088.795	2681.1
3092.007	2717.1
3095.216	2775.1
3098.423	2848.1
3101.627	2900.1
3104.828	2975.1
3108.026	3007.1
3111.222	3063.1
3114.416	3153.1
3117.607	3223.1
3120.795	3275.1
3123.98	3365.1
3127.163	3417.1
3130.344	3529.1
3133.521	3592.1
3136.696	3680.1
3139.869	3735.1
3143.039	3788.1
3146.206	3853.1
3149.371	3928.1
3152.533	3954.1
3155.693	3969.1
3158.85	3970.1
3162.005	4001.1
3165.157	4012.1
3168.306	4045.1
3171.453	4017.1
3174.597	3991.1
3177.739	4036.1
3180.878	4008.1
3184.014	4013.1
3187.149	4038.1
3190.28	4042.1
3193.409	4054.1
3196.536	4040.1
3199.659	4081.1
3202.781	4050.1
3205.9	4034.1
3209.016	4055.1
3212.13	4039.1
3215.241	3993.1
3218.35	3934.1
3221.456	3896.1
3224.56	3885.1
3227.661	3814.1
3230.76	3798.1
3233.856	3733.1
3236.95	3727.1
3240.041	3688.1
3243.13	3673.1
3246.216	3637.1
3249.3	3620.1
3252.382	3614.1
3255.46	3612.1
3258.537	3581.1
3261.611	3576.1
3264.682	3592.1
3267.751	3563.1
3270.818	3601.1
3273.882	3580.1
3276.943	3523.1
3280.002	3527.1
3283.059	3516.1
3286.113	3418.1
3289.165	3392.1
3292.214	3340.1
3295.261	3294.1
3298.306	3238.1
3301.348	3174.1
3304.387	3133.1
3307.425	3080.1
3310.459	3009.1
3313.492	2995.1
3316.521	2978.1
3319.549	2934.1
3322.574	2902.1
3325.597	2859.1
3328.617	2832.1
3331.635	2822.1
3334.65	2779.1
3337.663	2788.1
3340.674	2759.1
3343.682	2752.1
3346.688	2771.1
3349.691	2738.1
3352.692	2697.1
3355.691	2703.1
3358.687	2680.1
3361.681	2648.1
3364.673	2616.1
3367.662	2584.1
3370.649	2528.1
3373.633	2483.1
3376.615	2457.1
3379.595	2425.1
3382.572	2382.1
3385.547	2351.1
3388.52	2310.1
3391.49	2283.1
3394.458	2246.1
3397.424	2206.1
3400.387	2197.1
3403.348	2146.1
3406.307	2153.1
3409.263	2103.1
3412.217	2108.1
3415.168	2066.1
3418.118	2031.1
3421.065	2026.1
3424.009	1975.1
3426.951	1954.1
3429.891	1929.1
3432.829	1865.1
3435.764	1843.1
3438.697	1779.1
3441.628	1751.1
3444.557	1680.1
3447.483	1641.1
3450.407	1565.1
3453.328	1536.1
3456.247	1496.1
3459.164	1439.1
3462.079	1388.1
3464.991	1349.1
3467.902	1283.1
3470.809	1269.1
3473.715	1192.1
3476.618	1161.1
3479.519	1102.1
3482.418	1095.1
3485.315	1041.1
3488.209	1001.1
3491.101	972.1
3493.99	941.1
3496.878	901.1
3499.763	872.1
3502.646	835.1
3505.527	794.1
3508.405	768.1
3511.281	717.1
3514.155	682.1
3517.027	651.1
3519.897	605.1
3522.764	569.1
3525.629	528.1
3528.492	480.1
3531.352	445.1
3534.211	384.1
3537.067	386.1
3539.921	334.1
3542.773	290.1
3545.622	273.1
3548.469	240.1
3551.315	205.1
3554.157	197.1
3556.998	156.1
3559.837	128.1
3562.673	115.1
3565.507	77.1
3568.339	61.1
3571.169	39.1
3573.996	28.1
3576.822	10.1
3579.645	-24.9
3582.466	-34.9
3585.285	-54.9
3588.101	-92.9
3590.916	-103.9
3593.728	-116.9
3596.538	-140.9
3599.346	-155.9
3602.152	-161.9
3604.956	-179.9
3607.757	-193.9
3610.556	-222.9
3613.354	-222.9
3616.149	-239.9
3618.942	-247.9
3621.732	-257.9
3624.521	-276.9
3627.307	-284.9
3630.092	-290.9
3632.874	-306.9
3635.654	-320.9
3638.432	-328.9
3641.208	-329.9
3643.982	-351.9
3646.753	-348.9
3649.523	-364.9
3652.29	-374.9
3655.055	-372.9
3657.818	-389.9
3660.579	-407.9
3663.338	-414.9
3666.095	-413.9
3668.849	-426.9
3671.602	-428.9
3674.352	-442.9
3677.101	-448.9
3679.847	-452.9
3682.591	-466.9
3685.333	-468.9
3688.073	-470.9
3690.811	-484.9
3693.547	-477.9
3696.281	-490.9
3699.013	-493.9
3701.742	-497.9
3704.47	-497.9
3707.195	-505.9
3709.919	-508.9
3712.64	-512.9
3715.359	-517.9
3718.076	-518.9
3720.792	-522.9
3723.505	-526.9
3726.216	-536.9
3728.925	-535.9
3731.632	-543.9
3734.336	-540.9
3737.039	-545.9
3739.74	-543.9
3742.439	-545.9
3745.136	-551.9
3747.83	-548.9
3750.523	-553.9
3753.213	-544.9
3755.902	-556.9
3758.589	-566.9
3761.273	-561.9
3763.956	-567.9
3766.636	-568.9
3769.315	-570.9
3771.991	-571.9
3774.665	-578.9
3777.338	-572.9
3780.008	-571.9
3782.677	-575.9
3785.343	-571.9
3788.007	-576.9
3790.67	-575.9
3793.33	-580.9
3795.989	-583.9
3798.645	-579.9
3801.299	-580.9
3803.952	-587.9
3806.602	-593.9
3809.251	-590.9
3811.897	-588.9
3814.542	-596.9
3817.184	-590.9
3819.825	-588.9
3822.463	-583.9
3825.1	-596.9
3827.735	-585.9
3830.367	-589.9
3832.998	-595.9
3835.627	-598.9
3838.253	-600.9
3840.878	-606.9
3843.501	-605.9
3846.122	-602.9
3848.741	-596.9
3851.358	-605.9
3853.973	-603.9
3856.586	-598.9
3859.197	-602.9
3861.806	-606.9
3864.414	-601.9
3867.019	-597.9
3869.622	-599.9
3872.224	-596.9
3874.823	-583.9
3877.421	-575.9
3880.016	-562.9
3882.61	-541.9
3885.202	-535.9
3887.792	-544.9
3890.38	-577.9
3892.966	-593.9
3895.55	-598.9
3898.132	-614.9
3900.713	-616.9
3903.291	-614.9
3905.868	-616.9
3908.442	-619.9
3911.015	-619.9
3913.586	-616.9
3916.155	-617.9
3918.722	-618.9
3921.287	-617.9
3923.85	-623.9
3926.411	-622.9
3928.971	-621.9
3931.528	-620.9
3934.084	-618.9
3936.638	-615.9
3939.19	-621.9
3941.74	-620.9
3944.288	-619.9
3946.834	-620.9
3949.378	-620.9
3951.921	-624.9
3954.462	-628.9
3957	-618.9
3959.537	-624.9
3962.072	-616.9
3964.606	-623.9
3967.137	-617.9
3969.667	-619.9
3972.194	-612.9
3974.72	-617.9
3977.244	-608.9
3979.766	-609.9
3982.286	-613.9
3984.805	-606.9
3987.321	-608.9
3989.836	-608.9
3992.349	-604.9
3994.86	-603.9
3997.369	-607.9
3999.877	-602.9
4002.382	-605.9
4004.886	-600.9
4007.388	-603.9
4009.888	-601.9
4012.386	-606.9
4014.883	-604.9
4017.377	-604.9
4019.87	-607.9
4022.361	-607.9
4024.85	-606.9
4027.338	-607.9
4029.823	-609.9
4032.307	-607.9
4034.789	-605.9
4037.269	-605.9
4039.747	-607.9
4042.224	-615.9
4044.699	-608.9
4047.172	-612.9
4049.643	-607.9
4052.112	-617.9
4054.58	-615.9
4057.046	-617.9
4059.51	-612.9
4061.972	-612.9
4064.432	-610.9
4066.891	-610.9
4069.348	-608.9
4071.803	-607.9
4074.256	-609.9
4076.708	-614.9
4079.158	-612.9
4081.606	-613.9
4084.052	-615.9
4086.497	-613.9
4088.939	-608.9
4091.38	-606.9
4093.819	-604.9
4096.257	-642.9
4098.693	-642.9
4101.127	-642.9
4103.559	-645.9
4105.989	-366.9
4108.418	-334.9
4110.845	-325.9
4113.27	-302.9
4115.694	-265.9
4118.115	-225.9
4120.535	-606.9
4122.954	-608.9
4125.37	-597.9
4127.785	-605.9
4130.198	-607.9
4132.609	-610.9
4135.019	-650.9
4137.427	-648.9
4139.833	-650.9
4142.237	-641.9
