Data from 2018-2-14_conc=0_n=3_RamanShift_02.txt Node
Date: Wed Feb 14 10:32:56 IST 2018
User: aro
Spectrometer: QEPB0276
Trigger mode: 0
Integration Time (sec): 3.000000E1
Scans to average: 1
Electric dark correction enabled: true
Nonlinearity correction enabled: false
Boxcar width: 0
XAxis mode: Raman Shifts
Number of Pixels in Spectrum: 1044
>>>>>Begin Spectral Data<<<<<
160.701	-124.2
166.742	44.8
172.777	518.8
178.805	2039.8
184.826	5677.8
190.841	11807.8
196.849	18791.8
202.85	23679.8
208.845	25226.8
214.833	24919.8
220.815	24525.8
226.789	24275.8
232.758	24187.8
238.719	24013.8
244.674	23740.8
250.623	23260.8
256.565	22790.8
262.5	22379.8
268.429	21934.8
274.351	21621.8
280.267	21292.8
286.176	21071.8
292.079	20813.8
297.975	20652.8
303.865	20439.8
309.748	20370.8
315.625	20198.8
321.495	20093.8
327.359	20015.8
333.217	19954.8
339.068	19906.8
344.912	19902.8
350.751	19870.8
356.583	19809.8
362.408	19814.8
368.227	19878.8
374.04	19880.8
379.847	19892.8
385.647	19974.8
391.44	20002.8
397.228	20148.8
403.009	20191.8
408.784	20236.8
414.553	20333.8
420.315	20420.8
426.071	20376.8
431.821	20347.8
437.565	20301.8
443.302	20288.8
449.033	20306.8
454.758	20232.8
460.477	20232.8
466.189	20157.8
471.896	20123.8
477.596	20068.8
483.29	19992.8
488.978	19994.8
494.66	19893.8
500.335	19789.8
506.005	19641.8
511.668	19370.8
517.325	19190.8
522.977	19009.8
528.622	18873.8
534.261	18709.8
539.894	18659.8
545.521	18573.8
551.141	18518.8
556.756	18449.8
562.365	18430.8
567.968	18299.8
573.565	18226.8
579.155	18165.8
584.74	18123.8
590.319	18014.8
595.892	17982.8
601.459	17926.8
607.02	17848.8
612.575	17689.8
618.124	17668.8
623.667	17512.8
629.204	17418.8
634.735	17369.8
640.261	17255.8
645.781	17271.8
651.294	17219.8
656.802	17188.8
662.304	17151.8
667.8	17183.8
673.29	17104.8
678.775	17075.8
684.254	17068.8
689.726	16999.8
695.193	16967.8
700.655	16827.8
706.11	16741.8
711.56	16686.8
717.004	16587.8
722.442	16531.8
727.874	16514.8
733.301	16379.8
738.722	16432.8
744.137	16343.8
749.547	16385.8
754.951	16383.8
760.349	16402.8
765.741	16369.8
771.128	16392.8
776.509	16403.8
781.885	16446.8
787.254	16390.8
792.618	16237.8
797.977	16231.8
803.33	16130.8
808.677	15995.8
814.019	15944.8
819.355	15851.8
824.686	15808.8
830.011	15785.8
835.33	15797.8
840.644	15781.8
845.952	15777.8
851.255	15777.8
856.552	15851.8
861.844	15794.8
867.13	15812.8
872.41	15805.8
877.686	15701.8
882.955	15571.8
888.219	15455.8
893.478	15308.8
898.731	15104.8
903.979	14917.8
909.221	14855.8
914.458	14805.8
919.69	14775.8
924.916	14822.8
930.136	14904.8
935.351	14849.8
940.561	14915.8
945.766	14855.8
950.965	14770.8
956.158	14667.8
961.347	14547.8
966.529	14340.8
971.707	14180.8
976.879	14002.8
982.046	13940.8
987.208	13884.8
992.364	13838.8
997.515	13926.8
1002.66	14124.8
1007.801	14238.8
1012.936	14341.8
1018.066	14368.8
1023.19	14313.8
1028.309	14385.8
1033.423	14300.8
1038.532	14295.8
1043.636	14072.8
1048.734	13960.8
1053.827	13808.8
1058.915	13676.8
1063.998	13585.8
1069.075	13495.8
1074.147	13494.8
1079.214	13592.8
1084.276	13643.8
1089.333	13775.8
1094.385	13858.8
1099.431	13896.8
1104.472	13898.8
1109.509	13810.8
1114.54	13657.8
1119.565	13451.8
1124.586	13312.8
1129.602	13142.8
1134.613	13127.8
1139.618	13036.8
1144.619	12987.8
1149.614	12980.8
1154.604	13006.8
1159.589	13036.8
1164.57	13099.8
1169.545	13142.8
1174.515	13112.8
1179.48	13051.8
1184.44	12941.8
1189.395	12841.8
1194.345	12791.8
1199.29	12770.8
1204.23	12763.8
1209.165	12764.8
1214.095	12800.8
1219.021	12889.8
1223.941	12963.8
1228.856	13010.8
1233.766	13107.8
1238.672	13061.8
1243.572	13128.8
1248.467	13019.8
1253.358	12864.8
1258.244	12693.8
1263.124	12483.8
1268	12332.8
1272.871	12148.8
1277.737	12092.8
1282.599	12002.8
1287.455	12043.8
1292.306	12036.8
1297.153	12120.8
1301.995	12197.8
1306.832	12237.8
1311.664	12211.8
1316.491	12204.8
1321.314	12096.8
1326.132	11889.8
1330.945	11642.8
1335.753	11368.8
1340.556	11052.8
1345.354	10780.8
1350.148	10621.8
1354.937	10559.8
1359.722	10555.8
1364.501	10685.8
1369.276	10814.8
1374.046	11099.8
1378.811	11287.8
1383.572	11497.8
1388.327	11470.8
1393.079	11411.8
1397.825	11242.8
1402.567	11040.8
1407.304	10855.8
1412.036	10745.8
1416.764	10645.8
1421.487	10574.8
1426.205	10507.8
1430.919	10491.8
1435.628	10489.8
1440.333	10474.8
1445.032	10527.8
1449.727	10550.8
1454.418	10503.8
1459.104	10402.8
1463.785	10234.8
1468.462	10021.8
1473.134	9833.8
1477.802	9626.8
1482.465	9467.8
1487.123	9429.8
1491.777	9440.8
1496.426	9502.8
1501.071	9610.8
1505.711	9791.8
1510.347	9999.8
1514.978	10206.8
1519.604	10357.8
1524.226	10474.8
1528.844	10470.8
1533.457	10418.8
1538.065	10324.8
1542.669	10273.8
1547.269	10194.8
1551.864	10135.8
1556.454	10104.8
1561.041	10072.8
1565.622	10050.8
1570.199	10040.8
1574.772	10123.8
1579.34	10111.8
1583.904	10189.8
1588.464	10235.8
1593.019	10183.8
1597.569	10172.8
1602.115	10067.8
1606.657	10010.8
1611.195	9980.8
1615.728	9891.8
1620.256	9837.8
1624.78	9820.8
1629.3	9872.8
1633.816	9873.8
1638.327	9942.8
1642.834	9942.8
1647.336	10011.8
1651.834	10050.8
1656.328	10061.8
1660.817	10034.8
1665.302	9892.8
1669.783	9731.8
1674.259	9596.8
1678.732	9338.8
1683.199	9011.8
1687.663	8709.8
1692.122	8439.8
1696.577	8288.8
1701.028	8315.8
1705.474	8436.8
1709.917	8631.8
1714.355	8684.8
1718.788	8637.8
1723.218	8489.8
1727.643	8299.8
1732.064	8142.8
1736.481	7982.8
1740.893	7744.8
1745.301	7544.8
1749.705	7339.8
1754.105	7165.8
1758.501	6949.8
1762.893	6777.8
1767.28	6618.8
1771.663	6460.8
1776.042	6334.8
1780.417	6274.8
1784.787	6325.8
1789.154	6376.8
1793.516	6559.8
1797.874	6672.8
1802.228	6827.8
1806.578	6915.8
1810.924	6886.8
1815.266	6851.8
1819.603	6730.8
1823.937	6644.8
1828.266	6504.8
1832.591	6432.8
1836.913	6325.8
1841.23	6230.8
1845.543	6200.8
1849.852	6160.8
1854.156	6123.8
1858.457	6095.8
1862.754	6115.8
1867.047	6129.8
1871.335	6121.8
1875.62	6101.8
1879.9	6076.8
1884.177	6014.8
1888.449	5985.8
1892.718	5979.8
1896.982	5879.8
1901.243	5832.8
1905.499	5791.8
1909.752	5792.8
1914	5808.8
1918.245	5833.8
1922.485	5893.8
1926.722	5963.8
1930.954	6014.8
1935.183	6079.8
1939.408	6154.8
1943.628	6180.8
1947.845	6214.8
1952.058	6170.8
1956.267	6138.8
1960.472	6087.8
1964.673	5979.8
1968.87	5879.8
1973.063	5776.8
1977.252	5740.8
1981.438	5664.8
1985.619	5592.8
1989.797	5522.8
1993.971	5515.8
1998.14	5501.8
2002.306	5466.8
2006.469	5443.8
2010.627	5413.8
2014.781	5380.8
2018.932	5351.8
2023.078	5283.8
2027.221	5208.8
2031.36	5107.8
2035.495	5067.8
2039.627	4994.8
2043.754	4939.8
2047.878	4899.8
2051.998	4846.8
2056.114	4819.8
2060.226	4850.8
2064.334	4858.8
2068.439	4852.8
2072.54	4899.8
2076.637	4929.8
2080.73	4978.8
2084.82	4996.8
2088.906	5003.8
2092.988	5043.8
2097.066	5011.8
2101.14	4964.8
2105.211	4988.8
2109.278	4958.8
2113.342	4891.8
2117.401	4876.8
2121.457	4855.8
2125.509	4829.8
2129.558	4826.8
2133.602	4778.8
2137.643	4747.8
2141.681	4741.8
2145.714	4697.8
2149.744	4663.8
2153.77	4613.8
2157.793	4607.8
2161.812	4538.8
2165.827	4492.8
2169.838	4416.8
2173.846	4355.8
2177.851	4292.8
2181.851	4237.8
2185.848	4174.8
2189.841	4119.8
2193.831	4079.8
2197.817	4061.8
2201.799	4027.8
2205.778	4001.8
2209.753	3990.8
2213.725	3973.8
2217.693	3951.8
2221.657	3969.8
2225.618	3945.8
2229.575	3945.8
2233.529	3906.8
2237.479	3883.8
2241.425	3833.8
2245.368	3782.8
2249.307	3741.8
2253.243	3673.8
2257.175	3634.8
2261.104	3616.8
2265.029	3581.8
2268.95	3541.8
2272.868	3476.8
2276.783	3470.8
2280.694	3403.8
2284.601	3421.8
2288.505	3364.8
2292.405	3361.8
2296.302	3319.8
2300.195	3260.8
2304.085	3203.8
2307.971	3209.8
2311.854	3156.8
2315.734	3086.8
2319.609	3045.8
2323.482	3033.8
2327.351	2968.8
2331.216	2995.8
2335.078	2986.8
2338.937	2956.8
2342.792	2934.8
2346.643	2922.8
2350.492	2893.8
2354.336	2910.8
2358.178	2910.8
2362.015	2946.8
2365.85	2922.8
2369.681	2929.8
2373.508	2935.8
2377.333	2905.8
2381.153	2918.8
2384.971	2902.8
2388.785	2884.8
2392.595	2862.8
2396.402	2826.8
2400.206	2817.8
2404.007	2800.8
2407.804	2800.8
2411.597	2727.8
2415.388	2748.8
2419.174	2727.8
2422.958	2716.8
2426.738	2659.8
2430.515	2682.8
2434.289	2638.8
2438.059	2633.8
2441.825	2594.8
2445.589	2587.8
2449.349	2576.8
2453.106	2525.8
2456.859	2494.8
2460.61	2450.8
2464.356	2449.8
2468.1	2425.8
2471.84	2390.8
2475.577	2373.8
2479.311	2371.8
2483.041	2369.8
2486.768	2343.8
2490.492	2353.8
2494.213	2334.8
2497.93	2321.8
2501.644	2334.8
2505.355	2308.8
2509.062	2301.8
2512.766	2300.8
2516.467	2293.8
2520.165	2258.8
2523.859	2246.8
2527.551	2261.8
2531.239	2212.8
2534.923	2197.8
2538.605	2184.8
2542.283	2213.8
2545.958	2194.8
2549.63	2193.8
2553.299	2183.8
2556.964	2211.8
2560.626	2185.8
2564.285	2166.8
2567.941	2181.8
2571.594	2148.8
2575.243	2126.8
2578.89	2128.8
2582.533	2105.8
2586.173	2074.8
2589.809	2072.8
2593.443	2056.8
2597.073	2051.8
2600.701	2003.8
2604.325	2020.8
2607.946	1990.8
2611.564	1987.8
2615.178	1974.8
2618.79	1954.8
2622.398	1971.8
2626.004	1912.8
2629.606	1877.8
2633.205	1900.8
2636.801	1853.8
2640.394	1833.8
2643.983	1782.8
2647.57	1778.8
2651.153	1759.8
2654.734	1729.8
2658.311	1683.8
2661.885	1677.8
2665.456	1644.8
2669.025	1639.8
2672.589	1611.8
2676.151	1623.8
2679.71	1586.8
2683.266	1561.8
2686.819	1504.8
2690.368	1502.8
2693.915	1488.8
2697.458	1431.8
2700.999	1411.8
2704.536	1396.8
2708.071	1340.8
2711.602	1337.8
2715.13	1307.8
2718.656	1270.8
2722.178	1257.8
2725.697	1238.8
2729.214	1212.8
2732.727	1229.8
2736.237	1209.8
2739.744	1204.8
2743.249	1189.8
2746.75	1233.8
2750.248	1249.8
2753.743	1260.8
2757.236	1270.8
2760.725	1276.8
2764.211	1301.8
2767.695	1289.8
2771.175	1282.8
2774.652	1295.8
2778.127	1281.8
2781.598	1287.8
2785.067	1261.8
2788.532	1244.8
2791.995	1243.8
2795.455	1229.8
2798.911	1239.8
2802.365	1244.8
2805.816	1257.8
2809.264	1239.8
2812.709	1239.8
2816.151	1222.8
2819.59	1249.8
2823.026	1227.8
2826.46	1226.8
2829.89	1231.8
2833.318	1245.8
2836.742	1230.8
2840.164	1235.8
2843.583	1236.8
2846.999	1244.8
2850.412	1258.8
2853.822	1293.8
2857.229	1293.8
2860.634	1304.8
2864.035	1307.8
2867.434	1331.8
2870.83	1361.8
2874.223	1366.8
2877.613	1389.8
2881	1408.8
2884.385	1403.8
2887.766	1381.8
2891.145	1402.8
2894.521	1396.8
2897.894	1377.8
2901.264	1374.8
2904.631	1373.8
2907.996	1379.8
2911.358	1382.8
2914.717	1399.8
2918.073	1399.8
2921.426	1394.8
2924.777	1415.8
2928.124	1439.8
2931.469	1481.8
2934.811	1471.8
2938.15	1491.8
2941.487	1496.8
2944.821	1493.8
2948.152	1499.8
2951.48	1483.8
2954.805	1461.8
2958.128	1461.8
2961.447	1431.8
2964.765	1448.8
2968.079	1438.8
2971.39	1461.8
2974.699	1482.8
2978.005	1481.8
2981.308	1523.8
2984.609	1539.8
2987.907	1580.8
2991.202	1601.8
2994.494	1635.8
2997.784	1655.8
3001.07	1682.8
3004.355	1699.8
3007.636	1731.8
3010.915	1747.8
3014.191	1750.8
3017.464	1761.8
3020.734	1784.8
3024.002	1781.8
3027.267	1791.8
3030.53	1780.8
3033.789	1828.8
3037.046	1821.8
3040.301	1843.8
3043.552	1869.8
3046.801	1902.8
3050.048	1938.8
3053.291	2002.8
3056.532	2056.8
3059.771	2097.8
3063.006	2137.8
3066.239	2222.8
3069.469	2267.8
3072.697	2314.8
3075.922	2398.8
3079.144	2416.8
3082.364	2482.8
3085.581	2510.8
3088.795	2569.8
3092.007	2646.8
3095.216	2694.8
3098.423	2749.8
3101.627	2808.8
3104.828	2870.8
3108.026	2901.8
3111.222	2962.8
3114.416	3080.8
3117.607	3087.8
3120.795	3186.8
3123.98	3243.8
3127.163	3309.8
3130.344	3396.8
3133.521	3482.8
3136.696	3550.8
3139.869	3588.8
3143.039	3672.8
3146.206	3675.8
3149.371	3750.8
3152.533	3782.8
3155.693	3825.8
3158.85	3842.8
3162.005	3838.8
3165.157	3860.8
3168.306	3838.8
3171.453	3869.8
3174.597	3880.8
3177.739	3881.8
3180.878	3876.8
3184.014	3892.8
3187.149	3881.8
3190.28	3877.8
3193.409	3874.8
3196.536	3878.8
3199.659	3906.8
3202.781	3911.8
3205.9	3904.8
3209.016	3894.8
3212.13	3866.8
3215.241	3841.8
3218.35	3809.8
3221.456	3770.8
3224.56	3738.8
3227.661	3713.8
3230.76	3663.8
3233.856	3616.8
3236.95	3594.8
3240.041	3558.8
3243.13	3525.8
3246.216	3513.8
3249.3	3478.8
3252.382	3500.8
3255.46	3484.8
3258.537	3455.8
3261.611	3470.8
3264.682	3466.8
3267.751	3444.8
3270.818	3432.8
3273.882	3472.8
3276.943	3436.8
3280.002	3409.8
3283.059	3356.8
3286.113	3328.8
3289.165	3264.8
3292.214	3190.8
3295.261	3178.8
3298.306	3108.8
3301.348	3052.8
3304.387	3000.8
3307.425	2990.8
3310.459	2932.8
3313.492	2885.8
3316.521	2839.8
3319.549	2817.8
3322.574	2757.8
3325.597	2755.8
3328.617	2716.8
3331.635	2698.8
3334.65	2702.8
3337.663	2689.8
3340.674	2657.8
3343.682	2645.8
3346.688	2655.8
3349.691	2618.8
3352.692	2611.8
3355.691	2592.8
3358.687	2569.8
3361.681	2552.8
3364.673	2497.8
3367.662	2460.8
3370.649	2427.8
3373.633	2412.8
3376.615	2356.8
3379.595	2348.8
3382.572	2296.8
3385.547	2260.8
3388.52	2224.8
3391.49	2199.8
3394.458	2170.8
3397.424	2131.8
3400.387	2112.8
3403.348	2067.8
3406.307	2059.8
3409.263	2020.8
3412.217	2010.8
3415.168	1968.8
3418.118	1978.8
3421.065	1942.8
3424.009	1931.8
3426.951	1864.8
3429.891	1839.8
3432.829	1809.8
3435.764	1777.8
3438.697	1733.8
3441.628	1662.8
3444.557	1632.8
3447.483	1551.8
3450.407	1545.8
3453.328	1474.8
3456.247	1419.8
3459.164	1381.8
3462.079	1334.8
3464.991	1289.8
3467.902	1251.8
3470.809	1200.8
3473.715	1160.8
3476.618	1111.8
3479.519	1085.8
3482.418	1037.8
3485.315	995.8
3488.209	976.8
3491.101	949.8
3493.99	893.8
3496.878	866.8
3499.763	839.8
3502.646	806.8
3505.527	774.8
3508.405	733.8
3511.281	683.8
3514.155	655.8
3517.027	621.8
3519.897	588.8
3522.764	543.8
3525.629	508.8
3528.492	454.8
3531.352	436.8
3534.211	394.8
3537.067	368.8
3539.921	318.8
3542.773	295.8
3545.622	264.8
3548.469	235.8
3551.315	206.8
3554.157	185.8
3556.998	159.8
3559.837	130.8
3562.673	112.8
3565.507	77.8
3568.339	59.8
3571.169	45.8
3573.996	16.8
3576.822	10.8
3579.645	-14.2
3582.466	-36.2
3585.285	-53.2
3588.101	-72.2
3590.916	-84.2
3593.728	-114.2
3596.538	-121.2
3599.346	-147.2
3602.152	-162.2
3604.956	-177.2
3607.757	-186.2
3610.556	-213.2
3613.354	-214.2
3616.149	-238.2
3618.942	-246.2
3621.732	-247.2
3624.521	-264.2
3627.307	-270.2
3630.092	-282.2
3632.874	-287.2
3635.654	-304.2
3638.432	-306.2
3641.208	-320.2
3643.982	-336.2
3646.753	-340.2
3649.523	-349.2
3652.29	-361.2
3655.055	-356.2
3657.818	-371.2
3660.579	-383.2
3663.338	-387.2
3666.095	-403.2
3668.849	-412.2
3671.602	-418.2
3674.352	-426.2
3677.101	-430.2
3679.847	-438.2
3682.591	-445.2
3685.333	-447.2
3688.073	-447.2
3690.811	-462.2
3693.547	-462.2
3696.281	-459.2
3699.013	-471.2
3701.742	-474.2
3704.47	-479.2
3707.195	-489.2
3709.919	-489.2
3712.64	-495.2
3715.359	-495.2
3718.076	-508.2
3720.792	-504.2
3723.505	-502.2
3726.216	-520.2
3728.925	-506.2
3731.632	-512.2
3734.336	-513.2
3737.039	-519.2
3739.74	-520.2
3742.439	-520.2
3745.136	-527.2
3747.83	-532.2
3750.523	-534.2
3753.213	-520.2
3755.902	-540.2
3758.589	-542.2
3761.273	-539.2
3763.956	-541.2
3766.636	-546.2
3769.315	-548.2
3771.991	-545.2
3774.665	-550.2
3777.338	-541.2
3780.008	-550.2
3782.677	-551.2
3785.343	-549.2
3788.007	-554.2
3790.67	-552.2
3793.33	-554.2
3795.989	-557.2
3798.645	-551.2
3801.299	-556.2
3803.952	-564.2
3806.602	-566.2
3809.251	-572.2
3811.897	-568.2
3814.542	-564.2
3817.184	-561.2
3819.825	-565.2
3822.463	-561.2
3825.1	-571.2
3827.735	-565.2
3830.367	-567.2
3832.998	-573.2
3835.627	-575.2
3838.253	-576.2
3840.878	-577.2
3843.501	-576.2
3846.122	-571.2
3848.741	-569.2
3851.358	-570.2
3853.973	-579.2
3856.586	-576.2
3859.197	-579.2
3861.806	-586.2
3864.414	-580.2
3867.019	-584.2
3869.622	-582.2
3872.224	-577.2
3874.823	-561.2
3877.421	-546.2
3880.016	-540.2
3882.61	-519.2
3885.202	-514.2
3887.792	-525.2
3890.38	-552.2
3892.966	-573.2
3895.55	-576.2
3898.132	-592.2
3900.713	-592.2
3903.291	-591.2
3905.868	-593.2
3908.442	-588.2
3911.015	-593.2
3913.586	-590.2
3916.155	-587.2
3918.722	-593.2
3921.287	-588.2
3923.85	-598.2
3926.411	-595.2
3928.971	-602.2
3931.528	-594.2
3934.084	-596.2
3936.638	-596.2
3939.19	-598.2
3941.74	-596.2
3944.288	-601.2
3946.834	-592.2
3949.378	-594.2
3951.921	-593.2
3954.462	-600.2
3957	-591.2
3959.537	-595.2
3962.072	-592.2
3964.606	-596.2
3967.137	-598.2
3969.667	-596.2
3972.194	-590.2
3974.72	-595.2
3977.244	-589.2
3979.766	-586.2
3982.286	-591.2
3984.805	-584.2
3987.321	-585.2
3989.836	-587.2
3992.349	-579.2
3994.86	-579.2
3997.369	-586.2
3999.877	-581.2
4002.382	-581.2
4004.886	-578.2
4007.388	-580.2
4009.888	-580.2
4012.386	-581.2
4014.883	-585.2
4017.377	-583.2
4019.87	-582.2
4022.361	-583.2
4024.85	-586.2
4027.338	-583.2
4029.823	-584.2
4032.307	-589.2
4034.789	-584.2
4037.269	-577.2
4039.747	-583.2
4042.224	-589.2
4044.699	-589.2
4047.172	-580.2
4049.643	-584.2
4052.112	-588.2
4054.58	-593.2
4057.046	-591.2
4059.51	-590.2
4061.972	-588.2
4064.432	-586.2
4066.891	-587.2
4069.348	-583.2
4071.803	-583.2
4074.256	-580.2
4076.708	-585.2
4079.158	-586.2
4081.606	-588.2
4084.052	-591.2
4086.497	-586.2
4088.939	-581.2
4091.38	-582.2
4093.819	-585.2
4096.257	-617.2
4098.693	-616.2
4101.127	-617.2
4103.559	-617.2
4105.989	-354.2
4108.418	-329.2
4110.845	-309.2
4113.27	-288.2
4115.694	-256.2
4118.115	-207.2
4120.535	-581.2
4122.954	-584.2
4125.37	-571.2
4127.785	-579.2
4130.198	-585.2
4132.609	-591.2
4135.019	-619.2
4137.427	-621.2
4139.833	-622.2
4142.237	-616.2
