Data from 2018-2-14_conc=3_n=9_RamanShift_04.txt Node
Date: Wed Feb 14 12:10:26 IST 2018
User: aro
Spectrometer: QEPB0276
Trigger mode: 0
Integration Time (sec): 3.000000E1
Scans to average: 1
Electric dark correction enabled: true
Nonlinearity correction enabled: false
Boxcar width: 0
XAxis mode: Raman Shifts
Number of Pixels in Spectrum: 1044
>>>>>Begin Spectral Data<<<<<
160.701	-132.4
166.742	49.6
172.777	574.6
178.805	2183.6
184.826	6079.6
190.841	12743.6
196.849	20587.6
202.85	26140.6
208.845	27956.6
214.833	27690.6
220.815	27131.6
226.789	26968.6
232.758	26831.6
238.719	26674.6
244.674	26350.6
250.623	25882.6
256.565	25325.6
262.5	24795.6
268.429	24334.6
274.351	23960.6
280.267	23684.6
286.176	23458.6
292.079	23223.6
297.975	22974.6
303.865	22826.6
309.748	22658.6
315.625	22461.6
321.495	22360.6
327.359	22308.6
333.217	22194.6
339.068	22189.6
344.912	22111.6
350.751	22173.6
356.583	22130.6
362.408	22121.6
368.227	22144.6
374.04	22097.6
379.847	22204.6
385.647	22266.6
391.44	22390.6
397.228	22500.6
403.009	22488.6
408.784	22572.6
414.553	22646.6
420.315	22643.6
426.071	22698.6
431.821	22700.6
437.565	22743.6
443.302	22619.6
449.033	22642.6
454.758	22586.6
460.477	22511.6
466.189	22441.6
471.896	22394.6
477.596	22364.6
483.29	22346.6
488.978	22299.6
494.66	22268.6
500.335	22136.6
506.005	21938.6
511.668	21652.6
517.325	21419.6
522.977	21265.6
528.622	21111.6
534.261	20939.6
539.894	20890.6
545.521	20802.6
551.141	20694.6
556.756	20703.6
562.365	20580.6
567.968	20491.6
573.565	20431.6
579.155	20333.6
584.74	20290.6
590.319	20246.6
595.892	20151.6
601.459	20079.6
607.02	19929.6
612.575	19896.6
618.124	19766.6
623.667	19643.6
629.204	19529.6
634.735	19432.6
640.261	19401.6
645.781	19324.6
651.294	19259.6
656.802	19287.6
662.304	19253.6
667.8	19186.6
673.29	19189.6
678.775	19124.6
684.254	19047.6
689.726	18977.6
695.193	18856.6
700.655	18857.6
706.11	18673.6
711.56	18698.6
717.004	18628.6
722.442	18494.6
727.874	18385.6
733.301	18392.6
738.722	18347.6
744.137	18274.6
749.547	18255.6
754.951	18304.6
760.349	18307.6
765.741	18305.6
771.128	18292.6
776.509	18372.6
781.885	18306.6
787.254	18210.6
792.618	18158.6
797.977	18116.6
803.33	17878.6
808.677	17835.6
814.019	17740.6
819.355	17653.6
824.686	17562.6
830.011	17541.6
835.33	17581.6
840.644	17538.6
845.952	17559.6
851.255	17646.6
856.552	17681.6
861.844	17577.6
867.13	17588.6
872.41	17480.6
877.686	17404.6
882.955	17332.6
888.219	17162.6
893.478	16933.6
898.731	16707.6
903.979	16570.6
909.221	16496.6
914.458	16379.6
919.69	16405.6
924.916	16442.6
930.136	16484.6
935.351	16487.6
940.561	16547.6
945.766	16499.6
950.965	16432.6
956.158	16298.6
961.347	16137.6
966.529	15965.6
971.707	15754.6
976.879	15625.6
982.046	15456.6
987.208	15435.6
992.364	15448.6
997.515	15511.6
1002.66	15658.6
1007.801	15813.6
1012.936	15929.6
1018.066	15935.6
1023.19	15984.6
1028.309	15951.6
1033.423	15873.6
1038.532	15847.6
1043.636	15665.6
1048.734	15530.6
1053.827	15236.6
1058.915	15185.6
1063.998	15060.6
1069.075	14967.6
1074.147	14976.6
1079.214	15004.6
1084.276	15111.6
1089.333	15246.6
1094.385	15258.6
1099.431	15291.6
1104.472	15321.6
1109.509	15256.6
1114.54	15028.6
1119.565	14892.6
1124.586	14661.6
1129.602	14544.6
1134.613	14412.6
1139.618	14346.6
1144.619	14316.6
1149.614	14347.6
1154.604	14373.6
1159.589	14381.6
1164.57	14428.6
1169.545	14480.6
1174.515	14488.6
1179.48	14357.6
1184.44	14267.6
1189.395	14172.6
1194.345	14130.6
1199.29	13981.6
1204.23	14006.6
1209.165	14013.6
1214.095	14118.6
1219.021	14211.6
1223.941	14281.6
1228.856	14332.6
1233.766	14404.6
1238.672	14381.6
1243.572	14357.6
1248.467	14302.6
1253.358	14119.6
1258.244	13946.6
1263.124	13738.6
1268	13508.6
1272.871	13333.6
1277.737	13311.6
1282.599	13213.6
1287.455	13255.6
1292.306	13255.6
1297.153	13327.6
1301.995	13328.6
1306.832	13393.6
1311.664	13420.6
1316.491	13411.6
1321.314	13272.6
1326.132	13098.6
1330.945	12774.6
1335.753	12500.6
1340.556	12112.6
1345.354	11913.6
1350.148	11690.6
1354.937	11601.6
1359.722	11579.6
1364.501	11630.6
1369.276	11801.6
1374.046	11978.6
1378.811	12235.6
1383.572	12371.6
1388.327	12410.6
1393.079	12345.6
1397.825	12206.6
1402.567	11964.6
1407.304	11824.6
1412.036	11767.6
1416.764	11619.6
1421.487	11553.6
1426.205	11456.6
1430.919	11386.6
1435.628	11431.6
1440.333	11424.6
1445.032	11424.6
1449.727	11451.6
1454.418	11460.6
1459.104	11345.6
1463.785	11102.6
1468.462	10946.6
1473.134	10696.6
1477.802	10511.6
1482.465	10297.6
1487.123	10209.6
1491.777	10162.6
1496.426	10237.6
1501.071	10376.6
1505.711	10511.6
1510.347	10775.6
1514.978	10917.6
1519.604	11097.6
1524.226	11227.6
1528.844	11227.6
1533.457	11194.6
1538.065	11218.6
1542.669	11090.6
1547.269	11003.6
1551.864	10903.6
1556.454	10876.6
1561.041	10863.6
1565.622	10858.6
1570.199	10809.6
1574.772	10891.6
1579.34	10956.6
1583.904	11033.6
1588.464	11056.6
1593.019	11014.6
1597.569	10977.6
1602.115	10912.6
1606.657	10798.6
1611.195	10760.6
1615.728	10684.6
1620.256	10640.6
1624.78	10661.6
1629.3	10660.6
1633.816	10730.6
1638.327	10738.6
1642.834	10752.6
1647.336	10801.6
1651.834	10846.6
1656.328	10835.6
1660.817	10761.6
1665.302	10671.6
1669.783	10507.6
1674.259	10321.6
1678.732	10064.6
1683.199	9699.6
1687.663	9380.6
1692.122	9055.6
1696.577	8958.6
1701.028	8963.6
1705.474	9033.6
1709.917	9177.6
1714.355	9225.6
1718.788	9190.6
1723.218	9000.6
1727.643	8837.6
1732.064	8656.6
1736.481	8473.6
1740.893	8235.6
1745.301	8062.6
1749.705	7846.6
1754.105	7639.6
1758.501	7435.6
1762.893	7235.6
1767.28	7047.6
1771.663	6832.6
1776.042	6724.6
1780.417	6679.6
1784.787	6702.6
1789.154	6739.6
1793.516	6865.6
1797.874	7027.6
1802.228	7151.6
1806.578	7277.6
1810.924	7308.6
1815.266	7217.6
1819.603	7090.6
1823.937	6972.6
1828.266	6853.6
1832.591	6756.6
1836.913	6666.6
1841.23	6594.6
1845.543	6564.6
1849.852	6475.6
1854.156	6461.6
1858.457	6464.6
1862.754	6445.6
1867.047	6438.6
1871.335	6441.6
1875.62	6429.6
1879.9	6397.6
1884.177	6347.6
1888.449	6322.6
1892.718	6222.6
1896.982	6197.6
1901.243	6107.6
1905.499	6082.6
1909.752	6064.6
1914	6066.6
1918.245	6069.6
1922.485	6121.6
1926.722	6201.6
1930.954	6292.6
1935.183	6366.6
1939.408	6459.6
1943.628	6511.6
1947.845	6487.6
1952.058	6478.6
1956.267	6436.6
1960.472	6359.6
1964.673	6269.6
1968.87	6158.6
1973.063	6048.6
1977.252	5962.6
1981.438	5908.6
1985.619	5841.6
1989.797	5795.6
1993.971	5773.6
1998.14	5743.6
2002.306	5667.6
2006.469	5643.6
2010.627	5666.6
2014.781	5581.6
2018.932	5568.6
2023.078	5508.6
2027.221	5413.6
2031.36	5354.6
2035.495	5267.6
2039.627	5190.6
2043.754	5093.6
2047.878	5083.6
2051.998	5051.6
2056.114	5040.6
2060.226	5038.6
2064.334	5058.6
2068.439	5089.6
2072.54	5058.6
2076.637	5109.6
2080.73	5156.6
2084.82	5190.6
2088.906	5217.6
2092.988	5194.6
2097.066	5167.6
2101.14	5205.6
2105.211	5151.6
2109.278	5119.6
2113.342	5064.6
2117.401	5057.6
2121.457	5044.6
2125.509	5006.6
2129.558	4983.6
2133.602	4923.6
2137.643	4891.6
2141.681	4872.6
2145.714	4854.6
2149.744	4812.6
2153.77	4768.6
2157.793	4719.6
2161.812	4682.6
2165.827	4587.6
2169.838	4535.6
2173.846	4459.6
2177.851	4390.6
2181.851	4345.6
2185.848	4259.6
2189.841	4200.6
2193.831	4169.6
2197.817	4142.6
2201.799	4117.6
2205.778	4109.6
2209.753	4093.6
2213.725	4066.6
2217.693	4058.6
2221.657	4046.6
2225.618	4052.6
2229.575	4041.6
2233.529	3994.6
2237.479	3967.6
2241.425	3880.6
2245.368	3838.6
2249.307	3766.6
2253.243	3774.6
2257.175	3708.6
2261.104	3687.6
2265.029	3624.6
2268.95	3589.6
2272.868	3560.6
2276.783	3487.6
2280.694	3449.6
2284.601	3448.6
2288.505	3409.6
2292.405	3353.6
2296.302	3329.6
2300.195	3303.6
2304.085	3267.6
2307.971	3206.6
2311.854	3139.6
2315.734	3111.6
2319.609	3089.6
2323.482	3043.6
2327.351	2984.6
2331.216	2984.6
2335.078	2978.6
2338.937	2955.6
2342.792	2910.6
2346.643	2902.6
2350.492	2921.6
2354.336	2941.6
2358.178	2928.6
2362.015	2937.6
2365.85	2932.6
2369.681	2929.6
2373.508	2942.6
2377.333	2919.6
2381.153	2921.6
2384.971	2903.6
2388.785	2890.6
2392.595	2860.6
2396.402	2847.6
2400.206	2787.6
2404.007	2778.6
2407.804	2786.6
2411.597	2772.6
2415.388	2745.6
2419.174	2723.6
2422.958	2701.6
2426.738	2693.6
2430.515	2672.6
2434.289	2626.6
2438.059	2605.6
2441.825	2596.6
2445.589	2567.6
2449.349	2545.6
2453.106	2505.6
2456.859	2499.6
2460.61	2432.6
2464.356	2434.6
2468.1	2401.6
2471.84	2385.6
2475.577	2363.6
2479.311	2344.6
2483.041	2343.6
2486.768	2326.6
2490.492	2313.6
2494.213	2322.6
2497.93	2310.6
2501.644	2289.6
2505.355	2272.6
2509.062	2269.6
2512.766	2260.6
2516.467	2235.6
2520.165	2221.6
2523.859	2201.6
2527.551	2210.6
2531.239	2172.6
2534.923	2179.6
2538.605	2177.6
2542.283	2155.6
2545.958	2149.6
2549.63	2159.6
2553.299	2155.6
2556.964	2140.6
2560.626	2151.6
2564.285	2137.6
2567.941	2110.6
2571.594	2071.6
2575.243	2115.6
2578.89	2086.6
2582.533	2063.6
2586.173	2048.6
2589.809	2054.6
2593.443	2021.6
2597.073	2004.6
2600.701	1971.6
2604.325	1967.6
2607.946	1934.6
2611.564	1942.6
2615.178	1917.6
2618.79	1916.6
2622.398	1908.6
2626.004	1882.6
2629.606	1843.6
2633.205	1843.6
2636.801	1787.6
2640.394	1791.6
2643.983	1747.6
2647.57	1730.6
2651.153	1732.6
2654.734	1681.6
2658.311	1644.6
2661.885	1620.6
2665.456	1618.6
2669.025	1588.6
2672.589	1570.6
2676.151	1563.6
2679.71	1552.6
2683.266	1504.6
2686.819	1499.6
2690.368	1442.6
2693.915	1437.6
2697.458	1381.6
2700.999	1360.6
2704.536	1355.6
2708.071	1313.6
2711.602	1292.6
2715.13	1242.6
2718.656	1228.6
2722.178	1203.6
2725.697	1198.6
2729.214	1168.6
2732.727	1195.6
2736.237	1148.6
2739.744	1149.6
2743.249	1176.6
2746.75	1183.6
2750.248	1174.6
2753.743	1205.6
2757.236	1220.6
2760.725	1225.6
2764.211	1234.6
2767.695	1245.6
2771.175	1239.6
2774.652	1238.6
2778.127	1217.6
2781.598	1223.6
2785.067	1223.6
2788.532	1211.6
2791.995	1201.6
2795.455	1188.6
2798.911	1187.6
2802.365	1214.6
2805.816	1203.6
2809.264	1195.6
2812.709	1190.6
2816.151	1202.6
2819.59	1190.6
2823.026	1181.6
2826.46	1189.6
2829.89	1186.6
2833.318	1182.6
2836.742	1185.6
2840.164	1211.6
2843.583	1212.6
2846.999	1215.6
2850.412	1223.6
2853.822	1240.6
2857.229	1260.6
2860.634	1274.6
2864.035	1285.6
2867.434	1318.6
2870.83	1327.6
2874.223	1341.6
2877.613	1379.6
2881	1392.6
2884.385	1413.6
2887.766	1382.6
2891.145	1386.6
2894.521	1390.6
2897.894	1393.6
2901.264	1377.6
2904.631	1378.6
2907.996	1389.6
2911.358	1380.6
2914.717	1369.6
2918.073	1410.6
2921.426	1416.6
2924.777	1426.6
2928.124	1441.6
2931.469	1464.6
2934.811	1483.6
2938.15	1504.6
2941.487	1509.6
2944.821	1525.6
2948.152	1528.6
2951.48	1502.6
2954.805	1508.6
2958.128	1499.6
2961.447	1481.6
2964.765	1461.6
2968.079	1473.6
2971.39	1488.6
2974.699	1502.6
2978.005	1499.6
2981.308	1549.6
2984.609	1567.6
2987.907	1616.6
2991.202	1635.6
2994.494	1673.6
2997.784	1704.6
3001.07	1728.6
3004.355	1755.6
3007.636	1780.6
3010.915	1809.6
3014.191	1813.6
3017.464	1811.6
3020.734	1837.6
3024.002	1846.6
3027.267	1869.6
3030.53	1863.6
3033.789	1864.6
3037.046	1903.6
3040.301	1933.6
3043.552	1955.6
3046.801	1996.6
3050.048	2064.6
3053.291	2090.6
3056.532	2131.6
3059.771	2179.6
3063.006	2268.6
3066.239	2306.6
3069.469	2377.6
3072.697	2455.6
3075.922	2512.6
3079.144	2544.6
3082.364	2649.6
3085.581	2690.6
3088.795	2752.6
3092.007	2805.6
3095.216	2862.6
3098.423	2892.6
3101.627	2977.6
3104.828	3041.6
3108.026	3107.6
3111.222	3160.6
3114.416	3220.6
3117.607	3299.6
3120.795	3397.6
3123.98	3463.6
3127.163	3557.6
3130.344	3657.6
3133.521	3683.6
3136.696	3771.6
3139.869	3838.6
3143.039	3905.6
3146.206	3963.6
3149.371	4034.6
3152.533	4038.6
3155.693	4105.6
3158.85	4106.6
3162.005	4111.6
3165.157	4136.6
3168.306	4120.6
3171.453	4144.6
3174.597	4185.6
3177.739	4153.6
3180.878	4182.6
3184.014	4189.6
3187.149	4180.6
3190.28	4208.6
3193.409	4211.6
3196.536	4207.6
3199.659	4225.6
3202.781	4211.6
3205.9	4232.6
3209.016	4187.6
3212.13	4215.6
3215.241	4161.6
3218.35	4119.6
3221.456	4101.6
3224.56	4025.6
3227.661	3981.6
3230.76	3958.6
3233.856	3928.6
3236.95	3874.6
3240.041	3844.6
3243.13	3847.6
3246.216	3843.6
3249.3	3792.6
3252.382	3781.6
3255.46	3790.6
3258.537	3779.6
3261.611	3763.6
3264.682	3762.6
3267.751	3758.6
3270.818	3745.6
3273.882	3762.6
3276.943	3694.6
3280.002	3679.6
3283.059	3641.6
3286.113	3582.6
3289.165	3536.6
3292.214	3491.6
3295.261	3426.6
3298.306	3397.6
3301.348	3309.6
3304.387	3281.6
3307.425	3194.6
3310.459	3175.6
3313.492	3106.6
3316.521	3065.6
3319.549	3044.6
3322.574	3015.6
3325.597	2987.6
3328.617	2966.6
3331.635	2956.6
3334.65	2902.6
3337.663	2901.6
3340.674	2884.6
3343.682	2855.6
3346.688	2863.6
3349.691	2838.6
3352.692	2815.6
3355.691	2801.6
3358.687	2812.6
3361.681	2749.6
3364.673	2712.6
3367.662	2694.6
3370.649	2645.6
3373.633	2603.6
3376.615	2565.6
3379.595	2520.6
3382.572	2503.6
3385.547	2457.6
3388.52	2419.6
3391.49	2400.6
3394.458	2355.6
3397.424	2329.6
3400.387	2281.6
3403.348	2253.6
3406.307	2241.6
3409.263	2211.6
3412.217	2201.6
3415.168	2166.6
3418.118	2134.6
3421.065	2116.6
3424.009	2076.6
3426.951	2041.6
3429.891	2013.6
3432.829	1955.6
3435.764	1934.6
3438.697	1885.6
3441.628	1820.6
3444.557	1805.6
3447.483	1724.6
3450.407	1670.6
3453.328	1616.6
3456.247	1566.6
3459.164	1497.6
3462.079	1464.6
3464.991	1417.6
3467.902	1353.6
3470.809	1301.6
3473.715	1256.6
3476.618	1212.6
3479.519	1192.6
3482.418	1133.6
3485.315	1105.6
3488.209	1060.6
3491.101	1024.6
3493.99	972.6
3496.878	950.6
3499.763	926.6
3502.646	889.6
3505.527	847.6
3508.405	808.6
3511.281	747.6
3514.155	727.6
3517.027	692.6
3519.897	646.6
3522.764	582.6
3525.629	564.6
3528.492	515.6
3531.352	463.6
3534.211	410.6
3537.067	396.6
3539.921	349.6
3542.773	311.6
3545.622	278.6
3548.469	250.6
3551.315	217.6
3554.157	201.6
3556.998	169.6
3559.837	149.6
3562.673	120.6
3565.507	90.6
3568.339	64.6
3571.169	40.6
3573.996	30.6
3576.822	15.6
3579.645	-16.4
3582.466	-41.4
3585.285	-59.4
3588.101	-72.4
3590.916	-102.4
3593.728	-120.4
3596.538	-144.4
3599.346	-167.4
3602.152	-177.4
3604.956	-192.4
3607.757	-201.4
3610.556	-213.4
3613.354	-233.4
3616.149	-247.4
3618.942	-256.4
3621.732	-274.4
3624.521	-292.4
3627.307	-306.4
3630.092	-314.4
3632.874	-318.4
3635.654	-331.4
3638.432	-340.4
3641.208	-341.4
3643.982	-359.4
3646.753	-367.4
3649.523	-376.4
3652.29	-384.4
3655.055	-393.4
3657.818	-408.4
3660.579	-412.4
3663.338	-426.4
3666.095	-437.4
3668.849	-443.4
3671.602	-453.4
3674.352	-459.4
3677.101	-459.4
3679.847	-477.4
3682.591	-483.4
3685.333	-484.4
3688.073	-487.4
3690.811	-501.4
3693.547	-511.4
3696.281	-510.4
3699.013	-514.4
3701.742	-520.4
3704.47	-527.4
3707.195	-531.4
3709.919	-530.4
3712.64	-542.4
3715.359	-538.4
3718.076	-543.4
3720.792	-543.4
3723.505	-546.4
3726.216	-553.4
3728.925	-553.4
3731.632	-557.4
3734.336	-566.4
3737.039	-566.4
3739.74	-566.4
3742.439	-571.4
3745.136	-573.4
3747.83	-576.4
3750.523	-577.4
3753.213	-574.4
3755.902	-582.4
3758.589	-581.4
3761.273	-594.4
3763.956	-590.4
3766.636	-592.4
3769.315	-594.4
3771.991	-594.4
3774.665	-596.4
3777.338	-596.4
3780.008	-595.4
3782.677	-600.4
3785.343	-592.4
3788.007	-599.4
3790.67	-597.4
3793.33	-605.4
3795.989	-606.4
3798.645	-605.4
3801.299	-600.4
3803.952	-616.4
3806.602	-620.4
3809.251	-623.4
3811.897	-619.4
3814.542	-617.4
3817.184	-614.4
3819.825	-611.4
3822.463	-610.4
3825.1	-621.4
3827.735	-614.4
3830.367	-611.4
3832.998	-623.4
3835.627	-624.4
3838.253	-625.4
3840.878	-623.4
3843.501	-623.4
3846.122	-611.4
3848.741	-620.4
3851.358	-624.4
3853.973	-623.4
3856.586	-627.4
3859.197	-629.4
3861.806	-636.4
3864.414	-627.4
3867.019	-624.4
3869.622	-628.4
3872.224	-624.4
3874.823	-612.4
3877.421	-601.4
3880.016	-584.4
3882.61	-569.4
3885.202	-558.4
3887.792	-571.4
3890.38	-597.4
3892.966	-616.4
3895.55	-630.4
3898.132	-644.4
3900.713	-638.4
3903.291	-639.4
3905.868	-644.4
3908.442	-639.4
3911.015	-640.4
3913.586	-634.4
3916.155	-642.4
3918.722	-645.4
3921.287	-640.4
3923.85	-650.4
3926.411	-645.4
3928.971	-653.4
3931.528	-642.4
3934.084	-639.4
3936.638	-643.4
3939.19	-648.4
3941.74	-640.4
3944.288	-641.4
3946.834	-642.4
3949.378	-644.4
3951.921	-648.4
3954.462	-653.4
3957	-643.4
3959.537	-645.4
3962.072	-647.4
3964.606	-642.4
3967.137	-645.4
3969.667	-643.4
3972.194	-640.4
3974.72	-638.4
3977.244	-634.4
3979.766	-632.4
3982.286	-636.4
3984.805	-632.4
3987.321	-628.4
3989.836	-636.4
3992.349	-629.4
3994.86	-630.4
3997.369	-634.4
3999.877	-629.4
4002.382	-623.4
4004.886	-629.4
4007.388	-627.4
4009.888	-626.4
4012.386	-626.4
4014.883	-629.4
4017.377	-634.4
4019.87	-625.4
4022.361	-633.4
4024.85	-634.4
4027.338	-635.4
4029.823	-637.4
4032.307	-635.4
4034.789	-626.4
4037.269	-630.4
4039.747	-636.4
4042.224	-633.4
4044.699	-633.4
4047.172	-631.4
4049.643	-629.4
4052.112	-632.4
4054.58	-634.4
4057.046	-638.4
4059.51	-632.4
4061.972	-638.4
4064.432	-638.4
4066.891	-635.4
4069.348	-633.4
4071.803	-627.4
4074.256	-634.4
4076.708	-636.4
4079.158	-638.4
4081.606	-641.4
4084.052	-637.4
4086.497	-633.4
4088.939	-628.4
4091.38	-633.4
4093.819	-628.4
4096.257	-663.4
4098.693	-665.4
4101.127	-671.4
4103.559	-664.4
4105.989	-381.4
4108.418	-360.4
4110.845	-343.4
4113.27	-305.4
4115.694	-270.4
4118.115	-225.4
4120.535	-626.4
4122.954	-631.4
4125.37	-622.4
4127.785	-631.4
4130.198	-635.4
4132.609	-634.4
4135.019	-667.4
4137.427	-670.4
4139.833	-671.4
4142.237	-666.4
