Data from 2018-2-14_conc=2_n=8_RamanShift_02.txt Node
Date: Wed Feb 14 11:25:26 IST 2018
User: aro
Spectrometer: QEPB0276
Trigger mode: 0
Integration Time (sec): 3.000000E1
Scans to average: 1
Electric dark correction enabled: true
Nonlinearity correction enabled: false
Boxcar width: 0
XAxis mode: Raman Shifts
Number of Pixels in Spectrum: 1044
>>>>>Begin Spectral Data<<<<<
160.701	-144.1
166.742	43.9
172.777	590.9
178.805	2208.9
184.826	6164.9
190.841	12961.9
196.849	20800.9
202.85	26285.9
208.845	28138.9
214.833	27871.9
220.815	27366.9
226.789	27031.9
232.758	26980.9
238.719	26771.9
244.674	26393.9
250.623	25960.9
256.565	25362.9
262.5	24857.9
268.429	24368.9
274.351	23952.9
280.267	23680.9
286.176	23387.9
292.079	23177.9
297.975	22919.9
303.865	22785.9
309.748	22590.9
315.625	22415.9
321.495	22284.9
327.359	22243.9
333.217	22178.9
339.068	22164.9
344.912	22088.9
350.751	22033.9
356.583	22025.9
362.408	22047.9
368.227	21993.9
374.04	22076.9
379.847	22126.9
385.647	22184.9
391.44	22276.9
397.228	22364.9
403.009	22442.9
408.784	22574.9
414.553	22568.9
420.315	22658.9
426.071	22684.9
431.821	22588.9
437.565	22594.9
443.302	22606.9
449.033	22554.9
454.758	22448.9
460.477	22463.9
466.189	22365.9
471.896	22387.9
477.596	22269.9
483.29	22230.9
488.978	22204.9
494.66	22099.9
500.335	21953.9
506.005	21812.9
511.668	21511.9
517.325	21284.9
522.977	21187.9
528.622	20984.9
534.261	20810.9
539.894	20690.9
545.521	20617.9
551.141	20518.9
556.756	20557.9
562.365	20427.9
567.968	20350.9
573.565	20232.9
579.155	20133.9
584.74	20085.9
590.319	19985.9
595.892	19944.9
601.459	19872.9
607.02	19783.9
612.575	19696.9
618.124	19496.9
623.667	19500.9
629.204	19361.9
634.735	19251.9
640.261	19127.9
645.781	19082.9
651.294	19065.9
656.802	19076.9
662.304	18982.9
667.8	18953.9
673.29	18963.9
678.775	18918.9
684.254	18868.9
689.726	18755.9
695.193	18685.9
700.655	18619.9
706.11	18471.9
711.56	18440.9
717.004	18382.9
722.442	18260.9
727.874	18150.9
733.301	18169.9
738.722	18112.9
744.137	18083.9
749.547	18036.9
754.951	18052.9
760.349	18027.9
765.741	18043.9
771.128	18052.9
776.509	18113.9
781.885	18070.9
787.254	18010.9
792.618	17936.9
797.977	17838.9
803.33	17738.9
808.677	17565.9
814.019	17532.9
819.355	17410.9
824.686	17364.9
830.011	17262.9
835.33	17309.9
840.644	17335.9
845.952	17315.9
851.255	17393.9
856.552	17444.9
861.844	17337.9
867.13	17270.9
872.41	17250.9
877.686	17179.9
882.955	17106.9
888.219	16856.9
893.478	16754.9
898.731	16486.9
903.979	16345.9
909.221	16246.9
914.458	16228.9
919.69	16202.9
924.916	16185.9
930.136	16283.9
935.351	16281.9
940.561	16270.9
945.766	16213.9
950.965	16132.9
956.158	16066.9
961.347	15921.9
966.529	15687.9
971.707	15505.9
976.879	15275.9
982.046	15155.9
987.208	15106.9
992.364	15141.9
997.515	15269.9
1002.66	15362.9
1007.801	15559.9
1012.936	15624.9
1018.066	15669.9
1023.19	15586.9
1028.309	15618.9
1033.423	15606.9
1038.532	15500.9
1043.636	15381.9
1048.734	15165.9
1053.827	14965.9
1058.915	14837.9
1063.998	14738.9
1069.075	14718.9
1074.147	14681.9
1079.214	14785.9
1084.276	14826.9
1089.333	14877.9
1094.385	14973.9
1099.431	15039.9
1104.472	15054.9
1109.509	14943.9
1114.54	14797.9
1119.565	14581.9
1124.586	14457.9
1129.602	14302.9
1134.613	14148.9
1139.618	14091.9
1144.619	14051.9
1149.614	14048.9
1154.604	14066.9
1159.589	14130.9
1164.57	14093.9
1169.545	14186.9
1174.515	14216.9
1179.48	14116.9
1184.44	13992.9
1189.395	13904.9
1194.345	13747.9
1199.29	13723.9
1204.23	13692.9
1209.165	13782.9
1214.095	13795.9
1219.021	13856.9
1223.941	13973.9
1228.856	14023.9
1233.766	14057.9
1238.672	14047.9
1243.572	14086.9
1248.467	13972.9
1253.358	13860.9
1258.244	13619.9
1263.124	13419.9
1268	13259.9
1272.871	13087.9
1277.737	12992.9
1282.599	12918.9
1287.455	12899.9
1292.306	12912.9
1297.153	12988.9
1301.995	13012.9
1306.832	13065.9
1311.664	13153.9
1316.491	13104.9
1321.314	12988.9
1326.132	12808.9
1330.945	12553.9
1335.753	12202.9
1340.556	11899.9
1345.354	11645.9
1350.148	11418.9
1354.937	11351.9
1359.722	11336.9
1364.501	11445.9
1369.276	11590.9
1374.046	11751.9
1378.811	11943.9
1383.572	12090.9
1388.327	12099.9
1393.079	12012.9
1397.825	11865.9
1402.567	11713.9
1407.304	11520.9
1412.036	11401.9
1416.764	11302.9
1421.487	11278.9
1426.205	11214.9
1430.919	11166.9
1435.628	11172.9
1440.333	11170.9
1445.032	11250.9
1449.727	11229.9
1454.418	11236.9
1459.104	11112.9
1463.785	10905.9
1468.462	10701.9
1473.134	10463.9
1477.802	10251.9
1482.465	10122.9
1487.123	9999.9
1491.777	10026.9
1496.426	10041.9
1501.071	10157.9
1505.711	10295.9
1510.347	10508.9
1514.978	10738.9
1519.604	10911.9
1524.226	10945.9
1528.844	11024.9
1533.457	10926.9
1538.065	10880.9
1542.669	10814.9
1547.269	10746.9
1551.864	10656.9
1556.454	10572.9
1561.041	10611.9
1565.622	10601.9
1570.199	10605.9
1574.772	10617.9
1579.34	10702.9
1583.904	10758.9
1588.464	10783.9
1593.019	10738.9
1597.569	10772.9
1602.115	10704.9
1606.657	10634.9
1611.195	10530.9
1615.728	10497.9
1620.256	10467.9
1624.78	10454.9
1629.3	10455.9
1633.816	10552.9
1638.327	10574.9
1642.834	10595.9
1647.336	10686.9
1651.834	10729.9
1656.328	10664.9
1660.817	10629.9
1665.302	10513.9
1669.783	10336.9
1674.259	10101.9
1678.732	9804.9
1683.199	9491.9
1687.663	9247.9
1692.122	8916.9
1696.577	8758.9
1701.028	8761.9
1705.474	8864.9
1709.917	8942.9
1714.355	9019.9
1718.788	8965.9
1723.218	8829.9
1727.643	8623.9
1732.064	8477.9
1736.481	8247.9
1740.893	8072.9
1745.301	7856.9
1749.705	7651.9
1754.105	7422.9
1758.501	7228.9
1762.893	7021.9
1767.28	6831.9
1771.663	6684.9
1776.042	6594.9
1780.417	6505.9
1784.787	6556.9
1789.154	6580.9
1793.516	6691.9
1797.874	6843.9
1802.228	6948.9
1806.578	7056.9
1810.924	7079.9
1815.266	6987.9
1819.603	6860.9
1823.937	6760.9
1828.266	6662.9
1832.591	6514.9
1836.913	6458.9
1841.23	6389.9
1845.543	6310.9
1849.852	6317.9
1854.156	6306.9
1858.457	6263.9
1862.754	6232.9
1867.047	6284.9
1871.335	6244.9
1875.62	6251.9
1879.9	6204.9
1884.177	6204.9
1888.449	6107.9
1892.718	6069.9
1896.982	6024.9
1901.243	5947.9
1905.499	5906.9
1909.752	5895.9
1914	5903.9
1918.245	5924.9
1922.485	5996.9
1926.722	6054.9
1930.954	6127.9
1935.183	6168.9
1939.408	6272.9
1943.628	6293.9
1947.845	6327.9
1952.058	6267.9
1956.267	6252.9
1960.472	6135.9
1964.673	6033.9
1968.87	5938.9
1973.063	5865.9
1977.252	5806.9
1981.438	5724.9
1985.619	5676.9
1989.797	5621.9
1993.971	5570.9
1998.14	5522.9
2002.306	5517.9
2006.469	5491.9
2010.627	5449.9
2014.781	5438.9
2018.932	5381.9
2023.078	5313.9
2027.221	5260.9
2031.36	5182.9
2035.495	5114.9
2039.627	5055.9
2043.754	4945.9
2047.878	4921.9
2051.998	4915.9
2056.114	4870.9
2060.226	4885.9
2064.334	4901.9
2068.439	4919.9
2072.54	4942.9
2076.637	4980.9
2080.73	4980.9
2084.82	5045.9
2088.906	5012.9
2092.988	5080.9
2097.066	5038.9
2101.14	5016.9
2105.211	4986.9
2109.278	4943.9
2113.342	4915.9
2117.401	4891.9
2121.457	4912.9
2125.509	4844.9
2129.558	4796.9
2133.602	4795.9
2137.643	4734.9
2141.681	4735.9
2145.714	4691.9
2149.744	4664.9
2153.77	4645.9
2157.793	4594.9
2161.812	4535.9
2165.827	4486.9
2169.838	4377.9
2173.846	4319.9
2177.851	4240.9
2181.851	4176.9
2185.848	4129.9
2189.841	4065.9
2193.831	4046.9
2197.817	3978.9
2201.799	3961.9
2205.778	3950.9
2209.753	3946.9
2213.725	3934.9
2217.693	3906.9
2221.657	3939.9
2225.618	3901.9
2229.575	3912.9
2233.529	3862.9
2237.479	3805.9
2241.425	3780.9
2245.368	3700.9
2249.307	3645.9
2253.243	3617.9
2257.175	3585.9
2261.104	3520.9
2265.029	3489.9
2268.95	3447.9
2272.868	3404.9
2276.783	3357.9
2280.694	3327.9
2284.601	3313.9
2288.505	3271.9
2292.405	3238.9
2296.302	3194.9
2300.195	3184.9
2304.085	3132.9
2307.971	3075.9
2311.854	3027.9
2315.734	3001.9
2319.609	2956.9
2323.482	2897.9
2327.351	2870.9
2331.216	2843.9
2335.078	2853.9
2338.937	2817.9
2342.792	2804.9
2346.643	2796.9
2350.492	2793.9
2354.336	2781.9
2358.178	2807.9
2362.015	2801.9
2365.85	2810.9
2369.681	2810.9
2373.508	2814.9
2377.333	2817.9
2381.153	2802.9
2384.971	2771.9
2388.785	2759.9
2392.595	2737.9
2396.402	2709.9
2400.206	2694.9
2404.007	2688.9
2407.804	2651.9
2411.597	2657.9
2415.388	2647.9
2419.174	2590.9
2422.958	2590.9
2426.738	2591.9
2430.515	2541.9
2434.289	2553.9
2438.059	2487.9
2441.825	2481.9
2445.589	2462.9
2449.349	2450.9
2453.106	2398.9
2456.859	2378.9
2460.61	2353.9
2464.356	2337.9
2468.1	2274.9
2471.84	2274.9
2475.577	2263.9
2479.311	2236.9
2483.041	2247.9
2486.768	2201.9
2490.492	2216.9
2494.213	2208.9
2497.93	2201.9
2501.644	2195.9
2505.355	2158.9
2509.062	2160.9
2512.766	2159.9
2516.467	2145.9
2520.165	2129.9
2523.859	2130.9
2527.551	2121.9
2531.239	2103.9
2534.923	2092.9
2538.605	2064.9
2542.283	2052.9
2545.958	2071.9
2549.63	2067.9
2553.299	2064.9
2556.964	2071.9
2560.626	2042.9
2564.285	2032.9
2567.941	2041.9
2571.594	2027.9
2575.243	2000.9
2578.89	1997.9
2582.533	1977.9
2586.173	1952.9
2589.809	1942.9
2593.443	1944.9
2597.073	1908.9
2600.701	1900.9
2604.325	1891.9
2607.946	1860.9
2611.564	1858.9
2615.178	1854.9
2618.79	1822.9
2622.398	1808.9
2626.004	1818.9
2629.606	1777.9
2633.205	1758.9
2636.801	1721.9
2640.394	1690.9
2643.983	1676.9
2647.57	1661.9
2651.153	1640.9
2654.734	1599.9
2658.311	1568.9
2661.885	1544.9
2665.456	1542.9
2669.025	1506.9
2672.589	1510.9
2676.151	1483.9
2679.71	1450.9
2683.266	1442.9
2686.819	1422.9
2690.368	1384.9
2693.915	1360.9
2697.458	1321.9
2700.999	1293.9
2704.536	1263.9
2708.071	1235.9
2711.602	1222.9
2715.13	1193.9
2718.656	1163.9
2722.178	1142.9
2725.697	1110.9
2729.214	1102.9
2732.727	1111.9
2736.237	1104.9
2739.744	1073.9
2743.249	1119.9
2746.75	1134.9
2750.248	1115.9
2753.743	1144.9
2757.236	1153.9
2760.725	1145.9
2764.211	1172.9
2767.695	1180.9
2771.175	1173.9
2774.652	1171.9
2778.127	1163.9
2781.598	1149.9
2785.067	1157.9
2788.532	1132.9
2791.995	1138.9
2795.455	1152.9
2798.911	1132.9
2802.365	1142.9
2805.816	1161.9
2809.264	1138.9
2812.709	1133.9
2816.151	1124.9
2819.59	1137.9
2823.026	1149.9
2826.46	1160.9
2829.89	1133.9
2833.318	1136.9
2836.742	1159.9
2840.164	1153.9
2843.583	1171.9
2846.999	1173.9
2850.412	1181.9
2853.822	1205.9
2857.229	1218.9
2860.634	1226.9
2864.035	1257.9
2867.434	1250.9
2870.83	1298.9
2874.223	1293.9
2877.613	1337.9
2881	1362.9
2884.385	1368.9
2887.766	1338.9
2891.145	1342.9
2894.521	1351.9
2897.894	1351.9
2901.264	1356.9
2904.631	1350.9
2907.996	1345.9
2911.358	1345.9
2914.717	1359.9
2918.073	1385.9
2921.426	1381.9
2924.777	1409.9
2928.124	1420.9
2931.469	1458.9
2934.811	1468.9
2938.15	1477.9
2941.487	1487.9
2944.821	1516.9
2948.152	1525.9
2951.48	1486.9
2954.805	1477.9
2958.128	1477.9
2961.447	1442.9
2964.765	1457.9
2968.079	1465.9
2971.39	1492.9
2974.699	1498.9
2978.005	1522.9
2981.308	1523.9
2984.609	1563.9
2987.907	1591.9
2991.202	1633.9
2994.494	1648.9
2997.784	1699.9
3001.07	1722.9
3004.355	1738.9
3007.636	1775.9
3010.915	1786.9
3014.191	1818.9
3017.464	1824.9
3020.734	1827.9
3024.002	1825.9
3027.267	1863.9
3030.53	1868.9
3033.789	1896.9
3037.046	1910.9
3040.301	1932.9
3043.552	1986.9
3046.801	1991.9
3050.048	2039.9
3053.291	2089.9
3056.532	2166.9
3059.771	2221.9
3063.006	2268.9
3066.239	2316.9
3069.469	2397.9
3072.697	2473.9
3075.922	2528.9
3079.144	2579.9
3082.364	2657.9
3085.581	2718.9
3088.795	2762.9
3092.007	2833.9
3095.216	2910.9
3098.423	2927.9
3101.627	3018.9
3104.828	3076.9
3108.026	3160.9
3111.222	3212.9
3114.416	3281.9
3117.607	3373.9
3120.795	3439.9
3123.98	3519.9
3127.163	3609.9
3130.344	3687.9
3133.521	3762.9
3136.696	3855.9
3139.869	3946.9
3143.039	4025.9
3146.206	4072.9
3149.371	4096.9
3152.533	4136.9
3155.693	4171.9
3158.85	4187.9
3162.005	4191.9
3165.157	4224.9
3168.306	4240.9
3171.453	4241.9
3174.597	4218.9
3177.739	4263.9
3180.878	4263.9
3184.014	4260.9
3187.149	4270.9
3190.28	4286.9
3193.409	4286.9
3196.536	4279.9
3199.659	4299.9
3202.781	4290.9
3205.9	4319.9
3209.016	4284.9
3212.13	4275.9
3215.241	4256.9
3218.35	4221.9
3221.456	4170.9
3224.56	4131.9
3227.661	4102.9
3230.76	4070.9
3233.856	4002.9
3236.95	3995.9
3240.041	3938.9
3243.13	3936.9
3246.216	3908.9
3249.3	3884.9
3252.382	3847.9
3255.46	3863.9
3258.537	3836.9
3261.611	3864.9
3264.682	3846.9
3267.751	3859.9
3270.818	3833.9
3273.882	3835.9
3276.943	3756.9
3280.002	3763.9
3283.059	3720.9
3286.113	3684.9
3289.165	3633.9
3292.214	3577.9
3295.261	3502.9
3298.306	3460.9
3301.348	3415.9
3304.387	3360.9
3307.425	3290.9
3310.459	3249.9
3313.492	3192.9
3316.521	3138.9
3319.549	3102.9
3322.574	3093.9
3325.597	3038.9
3328.617	3026.9
3331.635	3003.9
3334.65	2996.9
3337.663	2989.9
3340.674	2965.9
3343.682	2946.9
3346.688	2960.9
3349.691	2934.9
3352.692	2901.9
3355.691	2881.9
3358.687	2866.9
3361.681	2834.9
3364.673	2810.9
3367.662	2763.9
3370.649	2732.9
3373.633	2686.9
3376.615	2644.9
3379.595	2586.9
3382.572	2593.9
3385.547	2542.9
3388.52	2491.9
3391.49	2451.9
3394.458	2437.9
3397.424	2409.9
3400.387	2364.9
3403.348	2319.9
3406.307	2301.9
3409.263	2269.9
3412.217	2239.9
3415.168	2246.9
3418.118	2212.9
3421.065	2173.9
3424.009	2151.9
3426.951	2126.9
3429.891	2072.9
3432.829	2029.9
3435.764	2004.9
3438.697	1943.9
3441.628	1878.9
3444.557	1831.9
3447.483	1770.9
3450.407	1730.9
3453.328	1688.9
3456.247	1610.9
3459.164	1559.9
3462.079	1492.9
3464.991	1460.9
3467.902	1427.9
3470.809	1346.9
3473.715	1308.9
3476.618	1251.9
3479.519	1209.9
3482.418	1167.9
3485.315	1151.9
3488.209	1103.9
3491.101	1055.9
3493.99	1028.9
3496.878	997.9
3499.763	947.9
3502.646	914.9
3505.527	878.9
3508.405	832.9
3511.281	792.9
3514.155	748.9
3517.027	722.9
3519.897	671.9
3522.764	626.9
3525.629	576.9
3528.492	533.9
3531.352	486.9
3534.211	453.9
3537.067	413.9
3539.921	366.9
3542.773	329.9
3545.622	295.9
3548.469	259.9
3551.315	246.9
3554.157	220.9
3556.998	174.9
3559.837	165.9
3562.673	126.9
3565.507	106.9
3568.339	80.9
3571.169	59.9
3573.996	50.9
3576.822	11.9
3579.645	-0.1
3582.466	-28.1
3585.285	-49.1
3588.101	-72.1
3590.916	-94.1
3593.728	-121.1
3596.538	-130.1
3599.346	-145.1
3602.152	-167.1
3604.956	-191.1
3607.757	-196.1
3610.556	-226.1
3613.354	-232.1
3616.149	-256.1
3618.942	-254.1
3621.732	-268.1
3624.521	-283.1
3627.307	-302.1
3630.092	-305.1
3632.874	-318.1
3635.654	-332.1
3638.432	-331.1
3641.208	-345.1
3643.982	-362.1
3646.753	-359.1
3649.523	-379.1
3652.29	-383.1
3655.055	-396.1
3657.818	-400.1
3660.579	-414.1
3663.338	-423.1
3666.095	-427.1
3668.849	-446.1
3671.602	-461.1
3674.352	-463.1
3677.101	-470.1
3679.847	-480.1
3682.591	-495.1
3685.333	-498.1
3688.073	-494.1
3690.811	-510.1
3693.547	-507.1
3696.281	-510.1
3699.013	-517.1
3701.742	-524.1
3704.47	-520.1
3707.195	-539.1
3709.919	-534.1
3712.64	-541.1
3715.359	-543.1
3718.076	-548.1
3720.792	-553.1
3723.505	-549.1
3726.216	-563.1
3728.925	-559.1
3731.632	-567.1
3734.336	-564.1
3737.039	-577.1
3739.74	-572.1
3742.439	-574.1
3745.136	-577.1
3747.83	-585.1
3750.523	-584.1
3753.213	-567.1
3755.902	-587.1
3758.589	-587.1
3761.273	-586.1
3763.956	-595.1
3766.636	-599.1
3769.315	-600.1
3771.991	-598.1
3774.665	-604.1
3777.338	-602.1
3780.008	-603.1
3782.677	-611.1
3785.343	-603.1
3788.007	-603.1
3790.67	-606.1
3793.33	-614.1
3795.989	-609.1
3798.645	-610.1
3801.299	-610.1
3803.952	-622.1
3806.602	-626.1
3809.251	-628.1
3811.897	-621.1
3814.542	-627.1
3817.184	-616.1
3819.825	-620.1
3822.463	-614.1
3825.1	-629.1
3827.735	-621.1
3830.367	-624.1
3832.998	-626.1
3835.627	-632.1
3838.253	-630.1
3840.878	-635.1
3843.501	-632.1
3846.122	-628.1
3848.741	-626.1
3851.358	-634.1
3853.973	-632.1
3856.586	-638.1
3859.197	-637.1
3861.806	-639.1
3864.414	-636.1
3867.019	-634.1
3869.622	-635.1
3872.224	-627.1
3874.823	-612.1
3877.421	-605.1
3880.016	-589.1
3882.61	-559.1
3885.202	-558.1
3887.792	-580.1
3890.38	-600.1
3892.966	-617.1
3895.55	-634.1
3898.132	-645.1
3900.713	-647.1
3903.291	-646.1
3905.868	-646.1
3908.442	-644.1
3911.015	-648.1
3913.586	-639.1
3916.155	-640.1
3918.722	-651.1
3921.287	-645.1
3923.85	-647.1
3926.411	-647.1
3928.971	-656.1
3931.528	-652.1
3934.084	-653.1
3936.638	-651.1
3939.19	-651.1
3941.74	-655.1
3944.288	-650.1
3946.834	-647.1
3949.378	-648.1
3951.921	-648.1
3954.462	-656.1
3957	-644.1
3959.537	-646.1
3962.072	-648.1
3964.606	-646.1
3967.137	-650.1
3969.667	-649.1
3972.194	-646.1
3974.72	-652.1
3977.244	-638.1
3979.766	-636.1
3982.286	-646.1
3984.805	-640.1
3987.321	-635.1
3989.836	-639.1
3992.349	-634.1
3994.86	-633.1
3997.369	-640.1
3999.877	-630.1
4002.382	-637.1
4004.886	-632.1
4007.388	-634.1
4009.888	-637.1
4012.386	-640.1
4014.883	-636.1
4017.377	-638.1
4019.87	-629.1
4022.361	-637.1
4024.85	-641.1
4027.338	-635.1
4029.823	-641.1
4032.307	-640.1
4034.789	-635.1
4037.269	-638.1
4039.747	-637.1
4042.224	-635.1
4044.699	-642.1
4047.172	-638.1
4049.643	-638.1
4052.112	-643.1
4054.58	-642.1
4057.046	-645.1
4059.51	-644.1
4061.972	-645.1
4064.432	-644.1
4066.891	-640.1
4069.348	-635.1
4071.803	-634.1
4074.256	-640.1
4076.708	-636.1
4079.158	-639.1
4081.606	-643.1
4084.052	-646.1
4086.497	-645.1
4088.939	-633.1
4091.38	-645.1
4093.819	-639.1
4096.257	-671.1
4098.693	-671.1
4101.127	-677.1
4103.559	-671.1
4105.989	-385.1
4108.418	-366.1
4110.845	-346.1
4113.27	-307.1
4115.694	-282.1
4118.115	-229.1
4120.535	-634.1
4122.954	-640.1
4125.37	-636.1
4127.785	-641.1
4130.198	-642.1
4132.609	-638.1
4135.019	-676.1
4137.427	-677.1
4139.833	-673.1
4142.237	-673.1
