Data from 2018-2-14_conc=2_n=9_RamanShift_05.txt Node
Date: Wed Feb 14 11:31:26 IST 2018
User: aro
Spectrometer: QEPB0276
Trigger mode: 0
Integration Time (sec): 3.000000E1
Scans to average: 1
Electric dark correction enabled: true
Nonlinearity correction enabled: false
Boxcar width: 0
XAxis mode: Raman Shifts
Number of Pixels in Spectrum: 1044
>>>>>Begin Spectral Data<<<<<
160.701	-147.2
166.742	45.8
172.777	587.8
178.805	2299.8
184.826	6393.8
190.841	13356.8
196.849	21508.8
202.85	27277.8
208.845	29154.8
214.833	28818.8
220.815	28353.8
226.789	28021.8
232.758	27888.8
238.719	27689.8
244.674	27292.8
250.623	26744.8
256.565	26177.8
262.5	25569.8
268.429	25151.8
274.351	24643.8
280.267	24329.8
286.176	24033.8
292.079	23778.8
297.975	23538.8
303.865	23343.8
309.748	23123.8
315.625	23011.8
321.495	22864.8
327.359	22750.8
333.217	22746.8
339.068	22677.8
344.912	22697.8
350.751	22629.8
356.583	22591.8
362.408	22546.8
368.227	22589.8
374.04	22593.8
379.847	22740.8
385.647	22736.8
391.44	22853.8
397.228	22973.8
403.009	23040.8
408.784	23081.8
414.553	23195.8
420.315	23127.8
426.071	23225.8
431.821	23223.8
437.565	23192.8
443.302	23205.8
449.033	23153.8
454.758	23052.8
460.477	23018.8
466.189	22911.8
471.896	22934.8
477.596	22799.8
483.29	22780.8
488.978	22733.8
494.66	22597.8
500.335	22511.8
506.005	22343.8
511.668	22014.8
517.325	21734.8
522.977	21487.8
528.622	21341.8
534.261	21199.8
539.894	21073.8
545.521	20991.8
551.141	20917.8
556.756	20833.8
562.365	20782.8
567.968	20682.8
573.565	20594.8
579.155	20556.8
584.74	20358.8
590.319	20330.8
595.892	20234.8
601.459	20184.8
607.02	20120.8
612.575	19953.8
618.124	19794.8
623.667	19741.8
629.204	19627.8
634.735	19517.8
640.261	19448.8
645.781	19388.8
651.294	19327.8
656.802	19335.8
662.304	19279.8
667.8	19294.8
673.29	19178.8
678.775	19160.8
684.254	19132.8
689.726	19021.8
695.193	18962.8
700.655	18877.8
706.11	18768.8
711.56	18730.8
717.004	18613.8
722.442	18539.8
727.874	18442.8
733.301	18338.8
738.722	18328.8
744.137	18282.8
749.547	18281.8
754.951	18226.8
760.349	18252.8
765.741	18215.8
771.128	18247.8
776.509	18283.8
781.885	18311.8
787.254	18183.8
792.618	18117.8
797.977	18043.8
803.33	17876.8
808.677	17779.8
814.019	17722.8
819.355	17602.8
824.686	17538.8
830.011	17513.8
835.33	17485.8
840.644	17505.8
845.952	17468.8
851.255	17603.8
856.552	17599.8
861.844	17489.8
867.13	17445.8
872.41	17439.8
877.686	17358.8
882.955	17121.8
888.219	17001.8
893.478	16837.8
898.731	16596.8
903.979	16389.8
909.221	16275.8
914.458	16252.8
919.69	16232.8
924.916	16252.8
930.136	16348.8
935.351	16326.8
940.561	16398.8
945.766	16250.8
950.965	16192.8
956.158	16140.8
961.347	15904.8
966.529	15709.8
971.707	15537.8
976.879	15345.8
982.046	15237.8
987.208	15121.8
992.364	15168.8
997.515	15265.8
1002.66	15350.8
1007.801	15567.8
1012.936	15684.8
1018.066	15711.8
1023.19	15643.8
1028.309	15671.8
1033.423	15628.8
1038.532	15519.8
1043.636	15399.8
1048.734	15192.8
1053.827	14990.8
1058.915	14908.8
1063.998	14781.8
1069.075	14713.8
1074.147	14690.8
1079.214	14765.8
1084.276	14814.8
1089.333	14928.8
1094.385	14990.8
1099.431	15043.8
1104.472	14970.8
1109.509	14972.8
1114.54	14811.8
1119.565	14570.8
1124.586	14424.8
1129.602	14266.8
1134.613	14119.8
1139.618	14050.8
1144.619	13999.8
1149.614	14015.8
1154.604	14082.8
1159.589	14083.8
1164.57	14060.8
1169.545	14115.8
1174.515	14133.8
1179.48	14060.8
1184.44	13922.8
1189.395	13838.8
1194.345	13752.8
1199.29	13628.8
1204.23	13634.8
1209.165	13706.8
1214.095	13777.8
1219.021	13867.8
1223.941	13872.8
1228.856	13949.8
1233.766	14027.8
1238.672	14024.8
1243.572	14063.8
1248.467	13955.8
1253.358	13726.8
1258.244	13603.8
1263.124	13348.8
1268	13217.8
1272.871	13044.8
1277.737	12888.8
1282.599	12842.8
1287.455	12825.8
1292.306	12814.8
1297.153	12884.8
1301.995	12972.8
1306.832	13008.8
1311.664	13036.8
1316.491	12989.8
1321.314	12869.8
1326.132	12677.8
1330.945	12379.8
1335.753	12111.8
1340.556	11831.8
1345.354	11605.8
1350.148	11414.8
1354.937	11342.8
1359.722	11350.8
1364.501	11454.8
1369.276	11555.8
1374.046	11729.8
1378.811	11877.8
1383.572	11991.8
1388.327	11989.8
1393.079	11871.8
1397.825	11781.8
1402.567	11634.8
1407.304	11431.8
1412.036	11345.8
1416.764	11279.8
1421.487	11133.8
1426.205	11071.8
1430.919	11063.8
1435.628	11062.8
1440.333	11080.8
1445.032	11104.8
1449.727	11135.8
1454.418	11157.8
1459.104	11022.8
1463.785	10827.8
1468.462	10563.8
1473.134	10416.8
1477.802	10201.8
1482.465	10056.8
1487.123	9930.8
1491.777	9924.8
1496.426	10008.8
1501.071	10120.8
1505.711	10288.8
1510.347	10459.8
1514.978	10630.8
1519.604	10773.8
1524.226	10906.8
1528.844	10868.8
1533.457	10890.8
1538.065	10784.8
1542.669	10724.8
1547.269	10661.8
1551.864	10551.8
1556.454	10500.8
1561.041	10505.8
1565.622	10483.8
1570.199	10477.8
1574.772	10539.8
1579.34	10614.8
1583.904	10687.8
1588.464	10720.8
1593.019	10738.8
1597.569	10688.8
1602.115	10627.8
1606.657	10568.8
1611.195	10491.8
1615.728	10447.8
1620.256	10394.8
1624.78	10442.8
1629.3	10404.8
1633.816	10456.8
1638.327	10543.8
1642.834	10547.8
1647.336	10588.8
1651.834	10675.8
1656.328	10622.8
1660.817	10603.8
1665.302	10475.8
1669.783	10280.8
1674.259	10086.8
1678.732	9788.8
1683.199	9468.8
1687.663	9131.8
1692.122	8866.8
1696.577	8782.8
1701.028	8737.8
1705.474	8807.8
1709.917	8828.8
1714.355	8900.8
1718.788	8812.8
1723.218	8646.8
1727.643	8463.8
1732.064	8312.8
1736.481	8144.8
1740.893	7928.8
1745.301	7727.8
1749.705	7511.8
1754.105	7266.8
1758.501	7072.8
1762.893	6878.8
1767.28	6743.8
1771.663	6574.8
1776.042	6467.8
1780.417	6426.8
1784.787	6450.8
1789.154	6521.8
1793.516	6623.8
1797.874	6785.8
1802.228	6894.8
1806.578	6933.8
1810.924	6946.8
1815.266	6862.8
1819.603	6729.8
1823.937	6619.8
1828.266	6531.8
1832.591	6447.8
1836.913	6294.8
1841.23	6280.8
1845.543	6207.8
1849.852	6144.8
1854.156	6142.8
1858.457	6145.8
1862.754	6158.8
1867.047	6141.8
1871.335	6118.8
1875.62	6144.8
1879.9	6077.8
1884.177	6063.8
1888.449	5989.8
1892.718	5949.8
1896.982	5888.8
1901.243	5857.8
1905.499	5802.8
1909.752	5823.8
1914	5802.8
1918.245	5837.8
1922.485	5880.8
1926.722	5970.8
1930.954	6026.8
1935.183	6078.8
1939.408	6160.8
1943.628	6161.8
1947.845	6173.8
1952.058	6161.8
1956.267	6101.8
1960.472	6024.8
1964.673	5918.8
1968.87	5846.8
1973.063	5731.8
1977.252	5651.8
1981.438	5579.8
1985.619	5545.8
1989.797	5471.8
1993.971	5439.8
1998.14	5466.8
2002.306	5372.8
2006.469	5378.8
2010.627	5355.8
2014.781	5303.8
2018.932	5285.8
2023.078	5230.8
2027.221	5128.8
2031.36	5092.8
2035.495	4998.8
2039.627	4929.8
2043.754	4872.8
2047.878	4855.8
2051.998	4804.8
2056.114	4785.8
2060.226	4802.8
2064.334	4783.8
2068.439	4849.8
2072.54	4865.8
2076.637	4891.8
2080.73	4891.8
2084.82	4961.8
2088.906	4959.8
2092.988	4956.8
2097.066	4924.8
2101.14	4921.8
2105.211	4883.8
2109.278	4849.8
2113.342	4845.8
2117.401	4772.8
2121.457	4738.8
2125.509	4751.8
2129.558	4702.8
2133.602	4678.8
2137.643	4643.8
2141.681	4613.8
2145.714	4583.8
2149.744	4533.8
2153.77	4538.8
2157.793	4478.8
2161.812	4429.8
2165.827	4353.8
2169.838	4273.8
2173.846	4236.8
2177.851	4111.8
2181.851	4085.8
2185.848	3997.8
2189.841	4001.8
2193.831	3910.8
2197.817	3909.8
2201.799	3886.8
2205.778	3851.8
2209.753	3857.8
2213.725	3857.8
2217.693	3818.8
2221.657	3813.8
2225.618	3803.8
2229.575	3789.8
2233.529	3771.8
2237.479	3711.8
2241.425	3676.8
2245.368	3597.8
2249.307	3536.8
2253.243	3520.8
2257.175	3483.8
2261.104	3417.8
2265.029	3376.8
2268.95	3338.8
2272.868	3307.8
2276.783	3264.8
2280.694	3236.8
2284.601	3204.8
2288.505	3187.8
2292.405	3137.8
2296.302	3072.8
2300.195	3057.8
2304.085	2994.8
2307.971	2982.8
2311.854	2927.8
2315.734	2892.8
2319.609	2865.8
2323.482	2785.8
2327.351	2738.8
2331.216	2744.8
2335.078	2749.8
2338.937	2708.8
2342.792	2670.8
2346.643	2664.8
2350.492	2671.8
2354.336	2664.8
2358.178	2688.8
2362.015	2689.8
2365.85	2687.8
2369.681	2668.8
2373.508	2700.8
2377.333	2658.8
2381.153	2647.8
2384.971	2662.8
2388.785	2610.8
2392.595	2600.8
2396.402	2586.8
2400.206	2545.8
2404.007	2530.8
2407.804	2512.8
2411.597	2493.8
2415.388	2474.8
2419.174	2448.8
2422.958	2455.8
2426.738	2427.8
2430.515	2411.8
2434.289	2403.8
2438.059	2388.8
2441.825	2345.8
2445.589	2318.8
2449.349	2296.8
2453.106	2267.8
2456.859	2220.8
2460.61	2207.8
2464.356	2200.8
2468.1	2168.8
2471.84	2159.8
2475.577	2141.8
2479.311	2110.8
2483.041	2122.8
2486.768	2096.8
2490.492	2099.8
2494.213	2067.8
2497.93	2066.8
2501.644	2080.8
2505.355	2061.8
2509.062	2054.8
2512.766	2030.8
2516.467	2039.8
2520.165	2003.8
2523.859	2009.8
2527.551	2001.8
2531.239	1989.8
2534.923	1976.8
2538.605	1956.8
2542.283	1945.8
2545.958	1940.8
2549.63	1959.8
2553.299	1949.8
2556.964	1941.8
2560.626	1915.8
2564.285	1937.8
2567.941	1909.8
2571.594	1903.8
2575.243	1907.8
2578.89	1850.8
2582.533	1850.8
2586.173	1839.8
2589.809	1828.8
2593.443	1797.8
2597.073	1785.8
2600.701	1768.8
2604.325	1772.8
2607.946	1748.8
2611.564	1748.8
2615.178	1728.8
2618.79	1697.8
2622.398	1695.8
2626.004	1690.8
2629.606	1653.8
2633.205	1647.8
2636.801	1616.8
2640.394	1594.8
2643.983	1559.8
2647.57	1561.8
2651.153	1521.8
2654.734	1483.8
2658.311	1466.8
2661.885	1444.8
2665.456	1423.8
2669.025	1387.8
2672.589	1367.8
2676.151	1375.8
2679.71	1343.8
2683.266	1343.8
2686.819	1319.8
2690.368	1280.8
2693.915	1251.8
2697.458	1227.8
2700.999	1203.8
2704.536	1170.8
2708.071	1146.8
2711.602	1126.8
2715.13	1101.8
2718.656	1085.8
2722.178	1076.8
2725.697	1042.8
2729.214	1046.8
2732.727	1035.8
2736.237	1041.8
2739.744	1003.8
2743.249	1027.8
2746.75	1054.8
2750.248	1075.8
2753.743	1069.8
2757.236	1081.8
2760.725	1101.8
2764.211	1117.8
2767.695	1101.8
2771.175	1104.8
2774.652	1085.8
2778.127	1082.8
2781.598	1079.8
2785.067	1087.8
2788.532	1068.8
2791.995	1062.8
2795.455	1064.8
2798.911	1057.8
2802.365	1074.8
2805.816	1073.8
2809.264	1052.8
2812.709	1062.8
2816.151	1085.8
2819.59	1057.8
2823.026	1069.8
2826.46	1066.8
2829.89	1076.8
2833.318	1087.8
2836.742	1099.8
2840.164	1092.8
2843.583	1107.8
2846.999	1123.8
2850.412	1124.8
2853.822	1131.8
2857.229	1153.8
2860.634	1183.8
2864.035	1179.8
2867.434	1204.8
2870.83	1231.8
2874.223	1239.8
2877.613	1278.8
2881	1292.8
2884.385	1286.8
2887.766	1307.8
2891.145	1275.8
2894.521	1302.8
2897.894	1293.8
2901.264	1320.8
2904.631	1305.8
2907.996	1315.8
2911.358	1305.8
2914.717	1323.8
2918.073	1349.8
2921.426	1340.8
2924.777	1359.8
2928.124	1381.8
2931.469	1416.8
2934.811	1433.8
2938.15	1458.8
2941.487	1484.8
2944.821	1491.8
2948.152	1472.8
2951.48	1478.8
2954.805	1454.8
2958.128	1441.8
2961.447	1452.8
2964.765	1448.8
2968.079	1431.8
2971.39	1462.8
2974.699	1491.8
2978.005	1509.8
2981.308	1526.8
2984.609	1560.8
2987.907	1578.8
2991.202	1618.8
2994.494	1656.8
2997.784	1689.8
3001.07	1699.8
3004.355	1755.8
3007.636	1790.8
3010.915	1794.8
3014.191	1801.8
3017.464	1818.8
3020.734	1855.8
3024.002	1853.8
3027.267	1873.8
3030.53	1879.8
3033.789	1888.8
3037.046	1908.8
3040.301	1970.8
3043.552	1990.8
3046.801	2018.8
3050.048	2084.8
3053.291	2134.8
3056.532	2185.8
3059.771	2237.8
3063.006	2313.8
3066.239	2371.8
3069.469	2456.8
3072.697	2514.8
3075.922	2553.8
3079.144	2633.8
3082.364	2705.8
3085.581	2761.8
3088.795	2820.8
3092.007	2895.8
3095.216	2953.8
3098.423	3039.8
3101.627	3088.8
3104.828	3143.8
3108.026	3195.8
3111.222	3279.8
3114.416	3353.8
3117.607	3431.8
3120.795	3512.8
3123.98	3593.8
3127.163	3695.8
3130.344	3785.8
3133.521	3892.8
3136.696	3955.8
3139.869	4037.8
3143.039	4118.8
3146.206	4159.8
3149.371	4231.8
3152.533	4239.8
3155.693	4299.8
3158.85	4303.8
3162.005	4327.8
3165.157	4339.8
3168.306	4346.8
3171.453	4346.8
3174.597	4369.8
3177.739	4372.8
3180.878	4383.8
3184.014	4395.8
3187.149	4417.8
3190.28	4416.8
3193.409	4415.8
3196.536	4444.8
3199.659	4448.8
3202.781	4418.8
3205.9	4447.8
3209.016	4430.8
3212.13	4415.8
3215.241	4399.8
3218.35	4317.8
3221.456	4293.8
3224.56	4243.8
3227.661	4224.8
3230.76	4158.8
3233.856	4119.8
3236.95	4093.8
3240.041	4070.8
3243.13	4021.8
3246.216	3997.8
3249.3	3966.8
3252.382	3983.8
3255.46	3944.8
3258.537	3928.8
3261.611	3968.8
3264.682	3965.8
3267.751	3935.8
3270.818	3926.8
3273.882	3924.8
3276.943	3880.8
3280.002	3854.8
3283.059	3854.8
3286.113	3773.8
3289.165	3729.8
3292.214	3677.8
3295.261	3635.8
3298.306	3564.8
3301.348	3516.8
3304.387	3457.8
3307.425	3390.8
3310.459	3371.8
3313.492	3290.8
3316.521	3252.8
3319.549	3234.8
3322.574	3183.8
3325.597	3151.8
3328.617	3148.8
3331.635	3126.8
3334.65	3091.8
3337.663	3103.8
3340.674	3078.8
3343.682	3064.8
3346.688	3046.8
3349.691	3043.8
3352.692	3018.8
3355.691	3020.8
3358.687	2970.8
3361.681	2941.8
3364.673	2880.8
3367.662	2842.8
3370.649	2806.8
3373.633	2748.8
3376.615	2715.8
3379.595	2691.8
3382.572	2669.8
3385.547	2619.8
3388.52	2600.8
3391.49	2515.8
3394.458	2510.8
3397.424	2482.8
3400.387	2445.8
3403.348	2414.8
3406.307	2377.8
3409.263	2368.8
3412.217	2353.8
3415.168	2301.8
3418.118	2294.8
3421.065	2263.8
3424.009	2225.8
3426.951	2162.8
3429.891	2164.8
3432.829	2088.8
3435.764	2059.8
3438.697	2007.8
3441.628	1949.8
3444.557	1896.8
3447.483	1836.8
3450.407	1779.8
3453.328	1723.8
3456.247	1667.8
3459.164	1586.8
3462.079	1549.8
3464.991	1485.8
3467.902	1445.8
3470.809	1398.8
3473.715	1324.8
3476.618	1294.8
3479.519	1235.8
3482.418	1205.8
3485.315	1159.8
3488.209	1128.8
3491.101	1086.8
3493.99	1042.8
3496.878	1025.8
3499.763	988.8
3502.646	945.8
3505.527	903.8
3508.405	857.8
3511.281	811.8
3514.155	761.8
3517.027	715.8
3519.897	681.8
3522.764	639.8
3525.629	592.8
3528.492	528.8
3531.352	502.8
3534.211	459.8
3537.067	404.8
3539.921	378.8
3542.773	341.8
3545.622	310.8
3548.469	277.8
3551.315	231.8
3554.157	219.8
3556.998	179.8
3559.837	160.8
3562.673	122.8
3565.507	108.8
3568.339	83.8
3571.169	51.8
3573.996	39.8
3576.822	4.8
3579.645	-8.2
3582.466	-35.2
3585.285	-56.2
3588.101	-89.2
3590.916	-106.2
3593.728	-121.2
3596.538	-139.2
3599.346	-159.2
3602.152	-183.2
3604.956	-185.2
3607.757	-215.2
3610.556	-239.2
3613.354	-242.2
3616.149	-260.2
3618.942	-272.2
3621.732	-289.2
3624.521	-303.2
3627.307	-309.2
3630.092	-324.2
3632.874	-339.2
3635.654	-339.2
3638.432	-348.2
3641.208	-366.2
3643.982	-373.2
3646.753	-383.2
3649.523	-392.2
3652.29	-400.2
3655.055	-402.2
3657.818	-422.2
3660.579	-440.2
3663.338	-451.2
3666.095	-455.2
3668.849	-465.2
3671.602	-480.2
3674.352	-475.2
3677.101	-494.2
3679.847	-502.2
3682.591	-507.2
3685.333	-518.2
3688.073	-516.2
3690.811	-525.2
3693.547	-522.2
3696.281	-525.2
3699.013	-538.2
3701.742	-546.2
3704.47	-547.2
3707.195	-554.2
3709.919	-563.2
3712.64	-568.2
3715.359	-569.2
3718.076	-571.2
3720.792	-574.2
3723.505	-570.2
3726.216	-592.2
3728.925	-583.2
3731.632	-586.2
3734.336	-589.2
3737.039	-594.2
3739.74	-589.2
3742.439	-594.2
3745.136	-606.2
3747.83	-602.2
3750.523	-606.2
3753.213	-596.2
3755.902	-604.2
3758.589	-614.2
3761.273	-618.2
3763.956	-620.2
3766.636	-620.2
3769.315	-624.2
3771.991	-630.2
3774.665	-627.2
3777.338	-627.2
3780.008	-634.2
3782.677	-636.2
3785.343	-628.2
3788.007	-630.2
3790.67	-633.2
3793.33	-632.2
3795.989	-639.2
3798.645	-635.2
3801.299	-634.2
3803.952	-645.2
3806.602	-648.2
3809.251	-649.2
3811.897	-647.2
3814.542	-648.2
3817.184	-643.2
3819.825	-647.2
3822.463	-643.2
3825.1	-652.2
3827.735	-650.2
3830.367	-643.2
3832.998	-658.2
3835.627	-657.2
3838.253	-653.2
3840.878	-658.2
3843.501	-653.2
3846.122	-652.2
3848.741	-654.2
3851.358	-652.2
3853.973	-654.2
3856.586	-659.2
3859.197	-660.2
3861.806	-664.2
3864.414	-658.2
3867.019	-663.2
3869.622	-655.2
3872.224	-656.2
3874.823	-637.2
3877.421	-617.2
3880.016	-608.2
3882.61	-581.2
3885.202	-577.2
3887.792	-599.2
3890.38	-622.2
3892.966	-644.2
3895.55	-654.2
3898.132	-667.2
3900.713	-671.2
3903.291	-674.2
3905.868	-669.2
3908.442	-673.2
3911.015	-674.2
3913.586	-667.2
3916.155	-671.2
3918.722	-670.2
3921.287	-675.2
3923.85	-674.2
3926.411	-673.2
3928.971	-680.2
3931.528	-680.2
3934.084	-674.2
3936.638	-672.2
3939.19	-677.2
3941.74	-675.2
3944.288	-678.2
3946.834	-674.2
3949.378	-675.2
3951.921	-675.2
3954.462	-685.2
3957	-674.2
3959.537	-674.2
3962.072	-675.2
3964.606	-676.2
3967.137	-673.2
3969.667	-680.2
3972.194	-667.2
3974.72	-675.2
3977.244	-663.2
3979.766	-658.2
3982.286	-665.2
3984.805	-667.2
3987.321	-661.2
3989.836	-662.2
3992.349	-654.2
3994.86	-658.2
3997.369	-663.2
3999.877	-657.2
4002.382	-658.2
4004.886	-662.2
4007.388	-659.2
4009.888	-663.2
4012.386	-660.2
4014.883	-656.2
4017.377	-654.2
4019.87	-655.2
4022.361	-661.2
4024.85	-659.2
4027.338	-658.2
4029.823	-663.2
4032.307	-663.2
4034.789	-661.2
4037.269	-658.2
4039.747	-664.2
4042.224	-666.2
4044.699	-670.2
4047.172	-669.2
4049.643	-663.2
4052.112	-668.2
4054.58	-669.2
4057.046	-666.2
4059.51	-666.2
4061.972	-665.2
4064.432	-664.2
4066.891	-660.2
4069.348	-666.2
4071.803	-657.2
4074.256	-661.2
4076.708	-661.2
4079.158	-661.2
4081.606	-661.2
4084.052	-671.2
4086.497	-667.2
4088.939	-664.2
4091.38	-668.2
4093.819	-664.2
4096.257	-694.2
4098.693	-696.2
4101.127	-695.2
4103.559	-696.2
4105.989	-401.2
4108.418	-384.2
4110.845	-357.2
4113.27	-326.2
4115.694	-290.2
4118.115	-238.2
4120.535	-663.2
4122.954	-658.2
4125.37	-656.2
4127.785	-667.2
4130.198	-660.2
4132.609	-667.2
4135.019	-697.2
4137.427	-699.2
4139.833	-694.2
4142.237	-695.2
