Data from 2018-2-14_conc=6_n=9_RamanShift_05.txt Node
Date: Wed Feb 14 15:13:25 IST 2018
User: aro
Spectrometer: QEPB0276
Trigger mode: 0
Integration Time (sec): 3.000000E1
Scans to average: 1
Electric dark correction enabled: true
Nonlinearity correction enabled: false
Boxcar width: 0
XAxis mode: Raman Shifts
Number of Pixels in Spectrum: 1044
>>>>>Begin Spectral Data<<<<<
160.701	-135.1
166.742	36.9
172.777	560.9
178.805	2111.9
184.826	5809.9
190.841	12177.9
196.849	19536.9
202.85	24766.9
208.845	26545.9
214.833	26298.9
220.815	25819.9
226.789	25645.9
232.758	25499.9
238.719	25338.9
244.674	24965.9
250.623	24485.9
256.565	23949.9
262.5	23423.9
268.429	23040.9
274.351	22667.9
280.267	22375.9
286.176	22198.9
292.079	21905.9
297.975	21676.9
303.865	21502.9
309.748	21352.9
315.625	21272.9
321.495	21150.9
327.359	21060.9
333.217	21029.9
339.068	21009.9
344.912	20962.9
350.751	21005.9
356.583	20954.9
362.408	20912.9
368.227	20942.9
374.04	20967.9
379.847	21101.9
385.647	21115.9
391.44	21177.9
397.228	21234.9
403.009	21446.9
408.784	21481.9
414.553	21504.9
420.315	21553.9
426.071	21598.9
431.821	21583.9
437.565	21514.9
443.302	21538.9
449.033	21435.9
454.758	21428.9
460.477	21353.9
466.189	21291.9
471.896	21250.9
477.596	21135.9
483.29	21114.9
488.978	21090.9
494.66	21032.9
500.335	20863.9
506.005	20592.9
511.668	20278.9
517.325	19991.9
522.977	19802.9
528.622	19537.9
534.261	19442.9
539.894	19321.9
545.521	19294.9
551.141	19186.9
556.756	19078.9
562.365	19006.9
567.968	18924.9
573.565	18859.9
579.155	18727.9
584.74	18656.9
590.319	18661.9
595.892	18560.9
601.459	18486.9
607.02	18337.9
612.575	18240.9
618.124	18137.9
623.667	17985.9
629.204	17910.9
634.735	17855.9
640.261	17769.9
645.781	17692.9
651.294	17624.9
656.802	17615.9
662.304	17587.9
667.8	17562.9
673.29	17507.9
678.775	17531.9
684.254	17399.9
689.726	17332.9
695.193	17365.9
700.655	17159.9
706.11	17117.9
711.56	17032.9
717.004	16953.9
722.442	16892.9
727.874	16743.9
733.301	16725.9
738.722	16706.9
744.137	16645.9
749.547	16645.9
754.951	16667.9
760.349	16668.9
765.741	16643.9
771.128	16659.9
776.509	16705.9
781.885	16690.9
787.254	16654.9
792.618	16578.9
797.977	16475.9
803.33	16403.9
808.677	16306.9
814.019	16212.9
819.355	16082.9
824.686	16016.9
830.011	15975.9
835.33	15982.9
840.644	15958.9
845.952	15983.9
851.255	15958.9
856.552	16055.9
861.844	16016.9
867.13	15906.9
872.41	15851.9
877.686	15777.9
882.955	15600.9
888.219	15490.9
893.478	15339.9
898.731	15137.9
903.979	14937.9
909.221	14893.9
914.458	14749.9
919.69	14774.9
924.916	14831.9
930.136	14853.9
935.351	14860.9
940.561	14812.9
945.766	14810.9
950.965	14787.9
956.158	14679.9
961.347	14534.9
966.529	14323.9
971.707	14121.9
976.879	13963.9
982.046	13864.9
987.208	13836.9
992.364	13789.9
997.515	13934.9
1002.66	13970.9
1007.801	14111.9
1012.936	14223.9
1018.066	14286.9
1023.19	14251.9
1028.309	14239.9
1033.423	14199.9
1038.532	14115.9
1043.636	13973.9
1048.734	13835.9
1053.827	13652.9
1058.915	13511.9
1063.998	13422.9
1069.075	13361.9
1074.147	13384.9
1079.214	13482.9
1084.276	13523.9
1089.333	13617.9
1094.385	13668.9
1099.431	13704.9
1104.472	13674.9
1109.509	13569.9
1114.54	13474.9
1119.565	13243.9
1124.586	13127.9
1129.602	12917.9
1134.613	12875.9
1139.618	12757.9
1144.619	12760.9
1149.614	12749.9
1154.604	12795.9
1159.589	12785.9
1164.57	12829.9
1169.545	12861.9
1174.515	12824.9
1179.48	12749.9
1184.44	12650.9
1189.395	12590.9
1194.345	12478.9
1199.29	12436.9
1204.23	12471.9
1209.165	12492.9
1214.095	12532.9
1219.021	12626.9
1223.941	12662.9
1228.856	12761.9
1233.766	12780.9
1238.672	12803.9
1243.572	12760.9
1248.467	12722.9
1253.358	12470.9
1258.244	12315.9
1263.124	12182.9
1268	11968.9
1272.871	11819.9
1277.737	11693.9
1282.599	11613.9
1287.455	11659.9
1292.306	11644.9
1297.153	11700.9
1301.995	11771.9
1306.832	11800.9
1311.664	11797.9
1316.491	11733.9
1321.314	11700.9
1326.132	11493.9
1330.945	11304.9
1335.753	11034.9
1340.556	10756.9
1345.354	10561.9
1350.148	10384.9
1354.937	10259.9
1359.722	10186.9
1364.501	10214.9
1369.276	10271.9
1374.046	10287.9
1378.811	10438.9
1383.572	10539.9
1388.327	10571.9
1393.079	10523.9
1397.825	10489.9
1402.567	10312.9
1407.304	10235.9
1412.036	10173.9
1416.764	10108.9
1421.487	10033.9
1426.205	9985.9
1430.919	9932.9
1435.628	9922.9
1440.333	9986.9
1445.032	10019.9
1449.727	10073.9
1454.418	10015.9
1459.104	9931.9
1463.785	9731.9
1468.462	9528.9
1473.134	9331.9
1477.802	9084.9
1482.465	8922.9
1487.123	8828.9
1491.777	8775.9
1496.426	8723.9
1501.071	8808.9
1505.711	8928.9
1510.347	9033.9
1514.978	9160.9
1519.604	9257.9
1524.226	9384.9
1528.844	9399.9
1533.457	9356.9
1538.065	9396.9
1542.669	9320.9
1547.269	9275.9
1551.864	9252.9
1556.454	9240.9
1561.041	9200.9
1565.622	9199.9
1570.199	9231.9
1574.772	9317.9
1579.34	9401.9
1583.904	9436.9
1588.464	9468.9
1593.019	9485.9
1597.569	9462.9
1602.115	9415.9
1606.657	9357.9
1611.195	9314.9
1615.728	9247.9
1620.256	9228.9
1624.78	9207.9
1629.3	9225.9
1633.816	9261.9
1638.327	9289.9
1642.834	9291.9
1647.336	9381.9
1651.834	9376.9
1656.328	9320.9
1660.817	9260.9
1665.302	9141.9
1669.783	8998.9
1674.259	8741.9
1678.732	8541.9
1683.199	8227.9
1687.663	7954.9
1692.122	7671.9
1696.577	7502.9
1701.028	7408.9
1705.474	7369.9
1709.917	7441.9
1714.355	7439.9
1718.788	7409.9
1723.218	7322.9
1727.643	7203.9
1732.064	7069.9
1736.481	6930.9
1740.893	6769.9
1745.301	6583.9
1749.705	6393.9
1754.105	6243.9
1758.501	6043.9
1762.893	5924.9
1767.28	5769.9
1771.663	5652.9
1776.042	5518.9
1780.417	5475.9
1784.787	5487.9
1789.154	5485.9
1793.516	5535.9
1797.874	5612.9
1802.228	5696.9
1806.578	5714.9
1810.924	5749.9
1815.266	5682.9
1819.603	5632.9
1823.937	5559.9
1828.266	5459.9
1832.591	5386.9
1836.913	5314.9
1841.23	5310.9
1845.543	5240.9
1849.852	5251.9
1854.156	5207.9
1858.457	5182.9
1862.754	5192.9
1867.047	5205.9
1871.335	5181.9
1875.62	5179.9
1879.9	5122.9
1884.177	5092.9
1888.449	5056.9
1892.718	4979.9
1896.982	4930.9
1901.243	4878.9
1905.499	4798.9
1909.752	4791.9
1914	4798.9
1918.245	4815.9
1922.485	4807.9
1926.722	4874.9
1930.954	4918.9
1935.183	4979.9
1939.408	5016.9
1943.628	4998.9
1947.845	5013.9
1952.058	5055.9
1956.267	4973.9
1960.472	4905.9
1964.673	4876.9
1968.87	4773.9
1973.063	4729.9
1977.252	4639.9
1981.438	4652.9
1985.619	4603.9
1989.797	4526.9
1993.971	4530.9
1998.14	4486.9
2002.306	4496.9
2006.469	4497.9
2010.627	4461.9
2014.781	4417.9
2018.932	4414.9
2023.078	4373.9
2027.221	4273.9
2031.36	4247.9
2035.495	4181.9
2039.627	4107.9
2043.754	4039.9
2047.878	3983.9
2051.998	3964.9
2056.114	3913.9
2060.226	3970.9
2064.334	3934.9
2068.439	3934.9
2072.54	3962.9
2076.637	3989.9
2080.73	4016.9
2084.82	4027.9
2088.906	4016.9
2092.988	4046.9
2097.066	4018.9
2101.14	3969.9
2105.211	3958.9
2109.278	3931.9
2113.342	3902.9
2117.401	3881.9
2121.457	3881.9
2125.509	3847.9
2129.558	3837.9
2133.602	3805.9
2137.643	3785.9
2141.681	3746.9
2145.714	3768.9
2149.744	3720.9
2153.77	3711.9
2157.793	3684.9
2161.812	3606.9
2165.827	3581.9
2169.838	3538.9
2173.846	3469.9
2177.851	3392.9
2181.851	3390.9
2185.848	3308.9
2189.841	3270.9
2193.831	3272.9
2197.817	3222.9
2201.799	3217.9
2205.778	3167.9
2209.753	3174.9
2213.725	3177.9
2217.693	3163.9
2221.657	3123.9
2225.618	3148.9
2229.575	3108.9
2233.529	3093.9
2237.479	3069.9
2241.425	3010.9
2245.368	2982.9
2249.307	2956.9
2253.243	2900.9
2257.175	2846.9
2261.104	2808.9
2265.029	2760.9
2268.95	2763.9
2272.868	2711.9
2276.783	2675.9
2280.694	2662.9
2284.601	2655.9
2288.505	2608.9
2292.405	2588.9
2296.302	2547.9
2300.195	2519.9
2304.085	2502.9
2307.971	2469.9
2311.854	2414.9
2315.734	2385.9
2319.609	2347.9
2323.482	2325.9
2327.351	2304.9
2331.216	2289.9
2335.078	2282.9
2338.937	2282.9
2342.792	2230.9
2346.643	2222.9
2350.492	2251.9
2354.336	2273.9
2358.178	2260.9
2362.015	2244.9
2365.85	2271.9
2369.681	2249.9
2373.508	2285.9
2377.333	2265.9
2381.153	2263.9
2384.971	2260.9
2388.785	2235.9
2392.595	2215.9
2396.402	2227.9
2400.206	2175.9
2404.007	2138.9
2407.804	2165.9
2411.597	2156.9
2415.388	2147.9
2419.174	2096.9
2422.958	2092.9
2426.738	2077.9
2430.515	2070.9
2434.289	2022.9
2438.059	2026.9
2441.825	1997.9
2445.589	1994.9
2449.349	1951.9
2453.106	1946.9
2456.859	1880.9
2460.61	1880.9
2464.356	1870.9
2468.1	1837.9
2471.84	1832.9
2475.577	1805.9
2479.311	1753.9
2483.041	1772.9
2486.768	1771.9
2490.492	1761.9
2494.213	1752.9
2497.93	1732.9
2501.644	1724.9
2505.355	1716.9
2509.062	1688.9
2512.766	1699.9
2516.467	1689.9
2520.165	1677.9
2523.859	1647.9
2527.551	1634.9
2531.239	1613.9
2534.923	1600.9
2538.605	1614.9
2542.283	1591.9
2545.958	1608.9
2549.63	1600.9
2553.299	1590.9
2556.964	1583.9
2560.626	1570.9
2564.285	1563.9
2567.941	1571.9
2571.594	1558.9
2575.243	1547.9
2578.89	1523.9
2582.533	1516.9
2586.173	1501.9
2589.809	1497.9
2593.443	1464.9
2597.073	1464.9
2600.701	1464.9
2604.325	1447.9
2607.946	1421.9
2611.564	1421.9
2615.178	1412.9
2618.79	1405.9
2622.398	1390.9
2626.004	1361.9
2629.606	1336.9
2633.205	1358.9
2636.801	1313.9
2640.394	1306.9
2643.983	1270.9
2647.57	1280.9
2651.153	1232.9
2654.734	1219.9
2658.311	1188.9
2661.885	1172.9
2665.456	1156.9
2669.025	1171.9
2672.589	1119.9
2676.151	1115.9
2679.71	1108.9
2683.266	1092.9
2686.819	1085.9
2690.368	1049.9
2693.915	1018.9
2697.458	990.9
2700.999	985.9
2704.536	955.9
2708.071	930.9
2711.602	911.9
2715.13	892.9
2718.656	872.9
2722.178	847.9
2725.697	826.9
2729.214	834.9
2732.727	839.9
2736.237	825.9
2739.744	809.9
2743.249	816.9
2746.75	814.9
2750.248	827.9
2753.743	822.9
2757.236	824.9
2760.725	832.9
2764.211	843.9
2767.695	839.9
2771.175	847.9
2774.652	833.9
2778.127	841.9
2781.598	843.9
2785.067	814.9
2788.532	831.9
2791.995	789.9
2795.455	801.9
2798.911	827.9
2802.365	816.9
2805.816	837.9
2809.264	812.9
2812.709	834.9
2816.151	819.9
2819.59	829.9
2823.026	817.9
2826.46	848.9
2829.89	843.9
2833.318	851.9
2836.742	854.9
2840.164	854.9
2843.583	863.9
2846.999	878.9
2850.412	886.9
2853.822	891.9
2857.229	908.9
2860.634	928.9
2864.035	947.9
2867.434	964.9
2870.83	983.9
2874.223	1007.9
2877.613	1016.9
2881	1032.9
2884.385	1028.9
2887.766	1055.9
2891.145	1050.9
2894.521	1049.9
2897.894	1060.9
2901.264	1040.9
2904.631	1068.9
2907.996	1061.9
2911.358	1061.9
2914.717	1079.9
2918.073	1096.9
2921.426	1102.9
2924.777	1134.9
2928.124	1162.9
2931.469	1162.9
2934.811	1178.9
2938.15	1187.9
2941.487	1208.9
2944.821	1221.9
2948.152	1206.9
2951.48	1212.9
2954.805	1191.9
2958.128	1195.9
2961.447	1193.9
2964.765	1179.9
2968.079	1176.9
2971.39	1197.9
2974.699	1192.9
2978.005	1219.9
2981.308	1247.9
2984.609	1263.9
2987.907	1285.9
2991.202	1288.9
2994.494	1330.9
2997.784	1373.9
3001.07	1396.9
3004.355	1403.9
3007.636	1436.9
3010.915	1467.9
3014.191	1490.9
3017.464	1478.9
3020.734	1505.9
3024.002	1495.9
3027.267	1530.9
3030.53	1531.9
3033.789	1557.9
3037.046	1601.9
3040.301	1608.9
3043.552	1666.9
3046.801	1671.9
3050.048	1748.9
3053.291	1782.9
3056.532	1837.9
3059.771	1881.9
3063.006	1913.9
3066.239	1981.9
3069.469	2027.9
3072.697	2106.9
3075.922	2175.9
3079.144	2207.9
3082.364	2276.9
3085.581	2318.9
3088.795	2365.9
3092.007	2420.9
3095.216	2485.9
3098.423	2501.9
3101.627	2606.9
3104.828	2634.9
3108.026	2698.9
3111.222	2747.9
3114.416	2843.9
3117.607	2877.9
3120.795	2946.9
3123.98	3025.9
3127.163	3092.9
3130.344	3176.9
3133.521	3266.9
3136.696	3338.9
3139.869	3425.9
3143.039	3434.9
3146.206	3496.9
3149.371	3555.9
3152.533	3587.9
3155.693	3635.9
3158.85	3630.9
3162.005	3646.9
3165.157	3673.9
3168.306	3679.9
3171.453	3694.9
3174.597	3702.9
3177.739	3723.9
3180.878	3692.9
3184.014	3716.9
3187.149	3721.9
3190.28	3736.9
3193.409	3695.9
3196.536	3741.9
3199.659	3761.9
3202.781	3763.9
3205.9	3744.9
3209.016	3753.9
3212.13	3730.9
3215.241	3717.9
3218.35	3663.9
3221.456	3631.9
3224.56	3594.9
3227.661	3534.9
3230.76	3476.9
3233.856	3472.9
3236.95	3424.9
3240.041	3373.9
3243.13	3349.9
3246.216	3364.9
3249.3	3309.9
3252.382	3317.9
3255.46	3289.9
3258.537	3255.9
3261.611	3287.9
3264.682	3284.9
3267.751	3276.9
3270.818	3306.9
3273.882	3265.9
3276.943	3275.9
3280.002	3235.9
3283.059	3205.9
3286.113	3175.9
3289.165	3141.9
3292.214	3059.9
3295.261	3027.9
3298.306	2975.9
3301.348	2943.9
3304.387	2891.9
3307.425	2862.9
3310.459	2807.9
3313.492	2776.9
3316.521	2738.9
3319.549	2729.9
3322.574	2716.9
3325.597	2662.9
3328.617	2646.9
3331.635	2620.9
3334.65	2614.9
3337.663	2619.9
3340.674	2579.9
3343.682	2583.9
3346.688	2581.9
3349.691	2565.9
3352.692	2567.9
3355.691	2537.9
3358.687	2522.9
3361.681	2484.9
3364.673	2439.9
3367.662	2412.9
3370.649	2386.9
3373.633	2351.9
3376.615	2299.9
3379.595	2282.9
3382.572	2259.9
3385.547	2201.9
3388.52	2174.9
3391.49	2146.9
3394.458	2080.9
3397.424	2110.9
3400.387	2060.9
3403.348	2014.9
3406.307	2007.9
3409.263	1986.9
3412.217	1952.9
3415.168	1932.9
3418.118	1918.9
3421.065	1877.9
3424.009	1863.9
3426.951	1837.9
3429.891	1790.9
3432.829	1760.9
3435.764	1709.9
3438.697	1674.9
3441.628	1628.9
3444.557	1568.9
3447.483	1527.9
3450.407	1475.9
3453.328	1443.9
3456.247	1369.9
3459.164	1330.9
3462.079	1277.9
3464.991	1223.9
3467.902	1194.9
3470.809	1132.9
3473.715	1092.9
3476.618	1047.9
3479.519	1025.9
3482.418	981.9
3485.315	941.9
3488.209	913.9
3491.101	884.9
3493.99	840.9
3496.878	828.9
3499.763	784.9
3502.646	742.9
3505.527	722.9
3508.405	670.9
3511.281	626.9
3514.155	605.9
3517.027	557.9
3519.897	525.9
3522.764	464.9
3525.629	430.9
3528.492	401.9
3531.352	376.9
3534.211	350.9
3537.067	311.9
3539.921	275.9
3542.773	224.9
3545.622	213.9
3548.469	179.9
3551.315	160.9
3554.157	136.9
3556.998	105.9
3559.837	77.9
3562.673	62.9
3565.507	38.9
3568.339	18.9
3571.169	0.9
3573.996	-6.1
3576.822	-27.1
3579.645	-57.1
3582.466	-75.1
3585.285	-89.1
3588.101	-113.1
3590.916	-126.1
3593.728	-155.1
3596.538	-163.1
3599.346	-184.1
3602.152	-195.1
3604.956	-208.1
3607.757	-234.1
3610.556	-253.1
3613.354	-258.1
3616.149	-271.1
3618.942	-276.1
3621.732	-282.1
3624.521	-305.1
3627.307	-303.1
3630.092	-321.1
3632.874	-327.1
3635.654	-340.1
3638.432	-343.1
3641.208	-356.1
3643.982	-366.1
3646.753	-363.1
3649.523	-389.1
3652.29	-383.1
3655.055	-388.1
3657.818	-401.1
3660.579	-416.1
3663.338	-430.1
3666.095	-445.1
3668.849	-447.1
3671.602	-445.1
3674.352	-458.1
3677.101	-456.1
3679.847	-470.1
3682.591	-483.1
3685.333	-487.1
3688.073	-479.1
3690.811	-489.1
3693.547	-490.1
3696.281	-499.1
3699.013	-503.1
3701.742	-513.1
3704.47	-516.1
3707.195	-518.1
3709.919	-518.1
3712.64	-527.1
3715.359	-526.1
3718.076	-533.1
3720.792	-542.1
3723.505	-533.1
3726.216	-539.1
3728.925	-543.1
3731.632	-545.1
3734.336	-548.1
3737.039	-550.1
3739.74	-556.1
3742.439	-561.1
3745.136	-560.1
3747.83	-563.1
3750.523	-558.1
3753.213	-561.1
3755.902	-573.1
3758.589	-568.1
3761.273	-571.1
3763.956	-574.1
3766.636	-581.1
3769.315	-584.1
3771.991	-574.1
3774.665	-584.1
3777.338	-585.1
3780.008	-587.1
3782.677	-583.1
3785.343	-582.1
3788.007	-588.1
3790.67	-588.1
3793.33	-589.1
3795.989	-584.1
3798.645	-584.1
3801.299	-586.1
3803.952	-594.1
3806.602	-598.1
3809.251	-595.1
3811.897	-600.1
3814.542	-595.1
3817.184	-592.1
3819.825	-591.1
3822.463	-595.1
3825.1	-604.1
3827.735	-593.1
3830.367	-596.1
3832.998	-608.1
3835.627	-608.1
3838.253	-606.1
3840.878	-607.1
3843.501	-602.1
3846.122	-597.1
3848.741	-600.1
3851.358	-603.1
3853.973	-605.1
3856.586	-604.1
3859.197	-605.1
3861.806	-610.1
3864.414	-608.1
3867.019	-606.1
3869.622	-607.1
3872.224	-600.1
3874.823	-588.1
3877.421	-570.1
3880.016	-557.1
3882.61	-534.1
3885.202	-528.1
3887.792	-544.1
3890.38	-570.1
3892.966	-595.1
3895.55	-605.1
3898.132	-618.1
3900.713	-622.1
3903.291	-613.1
3905.868	-618.1
3908.442	-614.1
3911.015	-618.1
3913.586	-612.1
3916.155	-617.1
3918.722	-622.1
3921.287	-619.1
3923.85	-623.1
3926.411	-620.1
3928.971	-629.1
3931.528	-620.1
3934.084	-623.1
3936.638	-620.1
3939.19	-621.1
3941.74	-617.1
3944.288	-627.1
3946.834	-612.1
3949.378	-620.1
3951.921	-619.1
3954.462	-629.1
3957	-618.1
3959.537	-623.1
3962.072	-617.1
3964.606	-627.1
3967.137	-621.1
3969.667	-619.1
3972.194	-614.1
3974.72	-621.1
3977.244	-608.1
3979.766	-612.1
3982.286	-614.1
3984.805	-611.1
3987.321	-607.1
3989.836	-610.1
3992.349	-606.1
3994.86	-602.1
3997.369	-615.1
3999.877	-601.1
4002.382	-605.1
4004.886	-601.1
4007.388	-607.1
4009.888	-598.1
4012.386	-606.1
4014.883	-610.1
4017.377	-608.1
4019.87	-607.1
4022.361	-609.1
4024.85	-609.1
4027.338	-609.1
4029.823	-612.1
4032.307	-612.1
4034.789	-604.1
4037.269	-603.1
4039.747	-603.1
4042.224	-613.1
4044.699	-608.1
4047.172	-608.1
4049.643	-605.1
4052.112	-613.1
4054.58	-614.1
4057.046	-614.1
4059.51	-612.1
4061.972	-609.1
4064.432	-614.1
4066.891	-615.1
4069.348	-602.1
4071.803	-602.1
4074.256	-609.1
4076.708	-612.1
4079.158	-611.1
4081.606	-616.1
4084.052	-613.1
4086.497	-609.1
4088.939	-603.1
4091.38	-610.1
4093.819	-604.1
4096.257	-642.1
4098.693	-640.1
4101.127	-642.1
4103.559	-640.1
4105.989	-367.1
4108.418	-343.1
4110.845	-319.1
4113.27	-295.1
4115.694	-259.1
4118.115	-217.1
4120.535	-603.1
4122.954	-611.1
4125.37	-602.1
4127.785	-610.1
4130.198	-611.1
4132.609	-614.1
4135.019	-645.1
4137.427	-643.1
4139.833	-643.1
4142.237	-643.1
