Data from 2018-2-14_conc=5_n=4_RamanShift_03.txt Node
Date: Wed Feb 14 14:15:25 IST 2018
User: aro
Spectrometer: QEPB0276
Trigger mode: 0
Integration Time (sec): 3.000000E1
Scans to average: 1
Electric dark correction enabled: true
Nonlinearity correction enabled: false
Boxcar width: 0
XAxis mode: Raman Shifts
Number of Pixels in Spectrum: 1044
>>>>>Begin Spectral Data<<<<<
160.701	-135.1
166.742	40.9
172.777	568.9
178.805	2164.9
184.826	6037.9
190.841	12685.9
196.849	20342.9
202.85	25804.9
208.845	27615.9
214.833	27324.9
220.815	26778.9
226.789	26671.9
232.758	26645.9
238.719	26388.9
244.674	26065.9
250.623	25562.9
256.565	25088.9
262.5	24534.9
268.429	24135.9
274.351	23751.9
280.267	23461.9
286.176	23126.9
292.079	23024.9
297.975	22874.9
303.865	22621.9
309.748	22481.9
315.625	22349.9
321.495	22131.9
327.359	22113.9
333.217	21997.9
339.068	22034.9
344.912	22023.9
350.751	21991.9
356.583	21949.9
362.408	21886.9
368.227	21947.9
374.04	21956.9
379.847	21960.9
385.647	22021.9
391.44	22146.9
397.228	22231.9
403.009	22325.9
408.784	22346.9
414.553	22456.9
420.315	22527.9
426.071	22542.9
431.821	22461.9
437.565	22462.9
443.302	22440.9
449.033	22344.9
454.758	22377.9
460.477	22348.9
466.189	22349.9
471.896	22205.9
477.596	22144.9
483.29	22129.9
488.978	22084.9
494.66	22035.9
500.335	21898.9
506.005	21706.9
511.668	21478.9
517.325	21222.9
522.977	21035.9
528.622	20925.9
534.261	20758.9
539.894	20685.9
545.521	20662.9
551.141	20554.9
556.756	20501.9
562.365	20471.9
567.968	20363.9
573.565	20261.9
579.155	20189.9
584.74	20114.9
590.319	20041.9
595.892	19951.9
601.459	19968.9
607.02	19780.9
612.575	19717.9
618.124	19639.9
623.667	19465.9
629.204	19403.9
634.735	19332.9
640.261	19280.9
645.781	19190.9
651.294	19169.9
656.802	19127.9
662.304	19138.9
667.8	19039.9
673.29	19112.9
678.775	19012.9
684.254	18928.9
689.726	18872.9
695.193	18860.9
700.655	18701.9
706.11	18651.9
711.56	18609.9
717.004	18449.9
722.442	18391.9
727.874	18374.9
733.301	18320.9
738.722	18267.9
744.137	18218.9
749.547	18260.9
754.951	18187.9
760.349	18202.9
765.741	18264.9
771.128	18225.9
776.509	18241.9
781.885	18273.9
787.254	18228.9
792.618	18118.9
797.977	18041.9
803.33	17925.9
808.677	17809.9
814.019	17726.9
819.355	17659.9
824.686	17568.9
830.011	17582.9
835.33	17568.9
840.644	17518.9
845.952	17588.9
851.255	17581.9
856.552	17691.9
861.844	17630.9
867.13	17616.9
872.41	17459.9
877.686	17473.9
882.955	17321.9
888.219	17185.9
893.478	16957.9
898.731	16772.9
903.979	16697.9
909.221	16517.9
914.458	16448.9
919.69	16486.9
924.916	16564.9
930.136	16593.9
935.351	16599.9
940.561	16614.9
945.766	16554.9
950.965	16468.9
956.158	16403.9
961.347	16226.9
966.529	16006.9
971.707	15831.9
976.879	15655.9
982.046	15562.9
987.208	15504.9
992.364	15504.9
997.515	15555.9
1002.66	15727.9
1007.801	15912.9
1012.936	16006.9
1018.066	16018.9
1023.19	15996.9
1028.309	16029.9
1033.423	15970.9
1038.532	15919.9
1043.636	15781.9
1048.734	15599.9
1053.827	15388.9
1058.915	15255.9
1063.998	15123.9
1069.075	15064.9
1074.147	15105.9
1079.214	15161.9
1084.276	15210.9
1089.333	15360.9
1094.385	15361.9
1099.431	15501.9
1104.472	15471.9
1109.509	15366.9
1114.54	15247.9
1119.565	14964.9
1124.586	14855.9
1129.602	14671.9
1134.613	14612.9
1139.618	14516.9
1144.619	14472.9
1149.614	14521.9
1154.604	14527.9
1159.589	14543.9
1164.57	14563.9
1169.545	14614.9
1174.515	14625.9
1179.48	14564.9
1184.44	14424.9
1189.395	14341.9
1194.345	14223.9
1199.29	14217.9
1204.23	14228.9
1209.165	14232.9
1214.095	14329.9
1219.021	14409.9
1223.941	14446.9
1228.856	14579.9
1233.766	14574.9
1238.672	14684.9
1243.572	14650.9
1248.467	14482.9
1253.358	14367.9
1258.244	14168.9
1263.124	13955.9
1268	13736.9
1272.871	13585.9
1277.737	13529.9
1282.599	13365.9
1287.455	13455.9
1292.306	13452.9
1297.153	13527.9
1301.995	13627.9
1306.832	13644.9
1311.664	13680.9
1316.491	13658.9
1321.314	13511.9
1326.132	13323.9
1330.945	13006.9
1335.753	12649.9
1340.556	12371.9
1345.354	12071.9
1350.148	11893.9
1354.937	11741.9
1359.722	11770.9
1364.501	11855.9
1369.276	12072.9
1374.046	12379.9
1378.811	12616.9
1383.572	12820.9
1388.327	12802.9
1393.079	12689.9
1397.825	12508.9
1402.567	12317.9
1407.304	12132.9
1412.036	11993.9
1416.764	11833.9
1421.487	11825.9
1426.205	11762.9
1430.919	11730.9
1435.628	11672.9
1440.333	11690.9
1445.032	11752.9
1449.727	11812.9
1454.418	11780.9
1459.104	11607.9
1463.785	11455.9
1468.462	11215.9
1473.134	10949.9
1477.802	10764.9
1482.465	10554.9
1487.123	10456.9
1491.777	10495.9
1496.426	10531.9
1501.071	10700.9
1505.711	10898.9
1510.347	11095.9
1514.978	11376.9
1519.604	11525.9
1524.226	11659.9
1528.844	11701.9
1533.457	11671.9
1538.065	11551.9
1542.669	11516.9
1547.269	11364.9
1551.864	11308.9
1556.454	11256.9
1561.041	11215.9
1565.622	11210.9
1570.199	11258.9
1574.772	11249.9
1579.34	11314.9
1583.904	11369.9
1588.464	11417.9
1593.019	11356.9
1597.569	11325.9
1602.115	11254.9
1606.657	11187.9
1611.195	11127.9
1615.728	11016.9
1620.256	10968.9
1624.78	10955.9
1629.3	10989.9
1633.816	10976.9
1638.327	11067.9
1642.834	11138.9
1647.336	11171.9
1651.834	11173.9
1656.328	11177.9
1660.817	11143.9
1665.302	11090.9
1669.783	10892.9
1674.259	10644.9
1678.732	10352.9
1683.199	10037.9
1687.663	9646.9
1692.122	9325.9
1696.577	9280.9
1701.028	9257.9
1705.474	9428.9
1709.917	9612.9
1714.355	9703.9
1718.788	9609.9
1723.218	9455.9
1727.643	9259.9
1732.064	9092.9
1736.481	8901.9
1740.893	8646.9
1745.301	8469.9
1749.705	8203.9
1754.105	8006.9
1758.501	7782.9
1762.893	7541.9
1767.28	7381.9
1771.663	7184.9
1776.042	7068.9
1780.417	7030.9
1784.787	7035.9
1789.154	7102.9
1793.516	7249.9
1797.874	7452.9
1802.228	7644.9
1806.578	7744.9
1810.924	7751.9
1815.266	7648.9
1819.603	7527.9
1823.937	7439.9
1828.266	7254.9
1832.591	7103.9
1836.913	7061.9
1841.23	6980.9
1845.543	6874.9
1849.852	6867.9
1854.156	6875.9
1858.457	6832.9
1862.754	6840.9
1867.047	6831.9
1871.335	6801.9
1875.62	6793.9
1879.9	6801.9
1884.177	6721.9
1888.449	6649.9
1892.718	6622.9
1896.982	6531.9
1901.243	6499.9
1905.499	6463.9
1909.752	6407.9
1914	6425.9
1918.245	6461.9
1922.485	6527.9
1926.722	6588.9
1930.954	6720.9
1935.183	6790.9
1939.408	6860.9
1943.628	6917.9
1947.845	6940.9
1952.058	6913.9
1956.267	6858.9
1960.472	6806.9
1964.673	6687.9
1968.87	6568.9
1973.063	6472.9
1977.252	6370.9
1981.438	6325.9
1985.619	6248.9
1989.797	6196.9
1993.971	6129.9
1998.14	6114.9
2002.306	6059.9
2006.469	6058.9
2010.627	6049.9
2014.781	6000.9
2018.932	5944.9
2023.078	5865.9
2027.221	5771.9
2031.36	5704.9
2035.495	5601.9
2039.627	5501.9
2043.754	5473.9
2047.878	5423.9
2051.998	5373.9
2056.114	5354.9
2060.226	5365.9
2064.334	5370.9
2068.439	5413.9
2072.54	5425.9
2076.637	5484.9
2080.73	5528.9
2084.82	5553.9
2088.906	5582.9
2092.988	5578.9
2097.066	5586.9
2101.14	5546.9
2105.211	5509.9
2109.278	5468.9
2113.342	5446.9
2117.401	5396.9
2121.457	5388.9
2125.509	5373.9
2129.558	5350.9
2133.602	5293.9
2137.643	5293.9
2141.681	5266.9
2145.714	5248.9
2149.744	5172.9
2153.77	5144.9
2157.793	5097.9
2161.812	5055.9
2165.827	4946.9
2169.838	4853.9
2173.846	4795.9
2177.851	4759.9
2181.851	4661.9
2185.848	4627.9
2189.841	4557.9
2193.831	4503.9
2197.817	4462.9
2201.799	4459.9
2205.778	4416.9
2209.753	4404.9
2213.725	4393.9
2217.693	4391.9
2221.657	4390.9
2225.618	4378.9
2229.575	4326.9
2233.529	4332.9
2237.479	4273.9
2241.425	4229.9
2245.368	4177.9
2249.307	4117.9
2253.243	4061.9
2257.175	4012.9
2261.104	3953.9
2265.029	3928.9
2268.95	3845.9
2272.868	3854.9
2276.783	3789.9
2280.694	3767.9
2284.601	3705.9
2288.505	3707.9
2292.405	3679.9
2296.302	3660.9
2300.195	3606.9
2304.085	3578.9
2307.971	3515.9
2311.854	3451.9
2315.734	3390.9
2319.609	3384.9
2323.482	3314.9
2327.351	3273.9
2331.216	3267.9
2335.078	3225.9
2338.937	3250.9
2342.792	3216.9
2346.643	3209.9
2350.492	3204.9
2354.336	3217.9
2358.178	3212.9
2362.015	3247.9
2365.85	3207.9
2369.681	3209.9
2373.508	3234.9
2377.333	3215.9
2381.153	3211.9
2384.971	3184.9
2388.785	3158.9
2392.595	3149.9
2396.402	3126.9
2400.206	3090.9
2404.007	3046.9
2407.804	3047.9
2411.597	3037.9
2415.388	3008.9
2419.174	3015.9
2422.958	2960.9
2426.738	2958.9
2430.515	2917.9
2434.289	2917.9
2438.059	2877.9
2441.825	2853.9
2445.589	2843.9
2449.349	2796.9
2453.106	2790.9
2456.859	2753.9
2460.61	2734.9
2464.356	2691.9
2468.1	2687.9
2471.84	2643.9
2475.577	2617.9
2479.311	2603.9
2483.041	2588.9
2486.768	2578.9
2490.492	2589.9
2494.213	2562.9
2497.93	2567.9
2501.644	2541.9
2505.355	2519.9
2509.062	2523.9
2512.766	2494.9
2516.467	2494.9
2520.165	2501.9
2523.859	2482.9
2527.551	2446.9
2531.239	2454.9
2534.923	2412.9
2538.605	2402.9
2542.283	2436.9
2545.958	2412.9
2549.63	2408.9
2553.299	2422.9
2556.964	2397.9
2560.626	2422.9
2564.285	2391.9
2567.941	2389.9
2571.594	2378.9
2575.243	2352.9
2578.89	2330.9
2582.533	2341.9
2586.173	2327.9
2589.809	2294.9
2593.443	2262.9
2597.073	2231.9
2600.701	2244.9
2604.325	2239.9
2607.946	2208.9
2611.564	2201.9
2615.178	2198.9
2618.79	2180.9
2622.398	2143.9
2626.004	2125.9
2629.606	2116.9
2633.205	2085.9
2636.801	2052.9
2640.394	2023.9
2643.983	1994.9
2647.57	1977.9
2651.153	1933.9
2654.734	1905.9
2658.311	1879.9
2661.885	1856.9
2665.456	1838.9
2669.025	1812.9
2672.589	1787.9
2676.151	1784.9
2679.71	1755.9
2683.266	1724.9
2686.819	1710.9
2690.368	1650.9
2693.915	1644.9
2697.458	1599.9
2700.999	1547.9
2704.536	1522.9
2708.071	1505.9
2711.602	1474.9
2715.13	1442.9
2718.656	1408.9
2722.178	1381.9
2725.697	1361.9
2729.214	1352.9
2732.727	1340.9
2736.237	1336.9
2739.744	1336.9
2743.249	1334.9
2746.75	1334.9
2750.248	1361.9
2753.743	1383.9
2757.236	1396.9
2760.725	1424.9
2764.211	1434.9
2767.695	1443.9
2771.175	1425.9
2774.652	1426.9
2778.127	1402.9
2781.598	1419.9
2785.067	1382.9
2788.532	1389.9
2791.995	1390.9
2795.455	1385.9
2798.911	1375.9
2802.365	1400.9
2805.816	1377.9
2809.264	1358.9
2812.709	1376.9
2816.151	1366.9
2819.59	1373.9
2823.026	1375.9
2826.46	1378.9
2829.89	1391.9
2833.318	1386.9
2836.742	1368.9
2840.164	1391.9
2843.583	1380.9
2846.999	1381.9
2850.412	1396.9
2853.822	1411.9
2857.229	1412.9
2860.634	1448.9
2864.035	1478.9
2867.434	1490.9
2870.83	1506.9
2874.223	1512.9
2877.613	1542.9
2881	1565.9
2884.385	1545.9
2887.766	1558.9
2891.145	1547.9
2894.521	1529.9
2897.894	1523.9
2901.264	1540.9
2904.631	1539.9
2907.996	1532.9
2911.358	1542.9
2914.717	1526.9
2918.073	1550.9
2921.426	1565.9
2924.777	1552.9
2928.124	1587.9
2931.469	1604.9
2934.811	1629.9
2938.15	1620.9
2941.487	1638.9
2944.821	1648.9
2948.152	1653.9
2951.48	1630.9
2954.805	1619.9
2958.128	1593.9
2961.447	1584.9
2964.765	1584.9
2968.079	1587.9
2971.39	1602.9
2974.699	1616.9
2978.005	1632.9
2981.308	1652.9
2984.609	1680.9
2987.907	1712.9
2991.202	1734.9
2994.494	1757.9
2997.784	1812.9
3001.07	1862.9
3004.355	1865.9
3007.636	1912.9
3010.915	1915.9
3014.191	1911.9
3017.464	1922.9
3020.734	1949.9
3024.002	1928.9
3027.267	1972.9
3030.53	1948.9
3033.789	1962.9
3037.046	2004.9
3040.301	1998.9
3043.552	2048.9
3046.801	2088.9
3050.048	2124.9
3053.291	2184.9
3056.532	2223.9
3059.771	2286.9
3063.006	2356.9
3066.239	2413.9
3069.469	2469.9
3072.697	2526.9
3075.922	2609.9
3079.144	2640.9
3082.364	2713.9
3085.581	2762.9
3088.795	2801.9
3092.007	2863.9
3095.216	2932.9
3098.423	2971.9
3101.627	3066.9
3104.828	3121.9
3108.026	3157.9
3111.222	3245.9
3114.416	3301.9
3117.607	3389.9
3120.795	3435.9
3123.98	3511.9
3127.163	3574.9
3130.344	3684.9
3133.521	3760.9
3136.696	3827.9
3139.869	3922.9
3143.039	3986.9
3146.206	4053.9
3149.371	4082.9
3152.533	4130.9
3155.693	4148.9
3158.85	4149.9
3162.005	4189.9
3165.157	4189.9
3168.306	4187.9
3171.453	4194.9
3174.597	4210.9
3177.739	4209.9
3180.878	4230.9
3184.014	4224.9
3187.149	4217.9
3190.28	4200.9
3193.409	4230.9
3196.536	4264.9
3199.659	4275.9
3202.781	4258.9
3205.9	4248.9
3209.016	4225.9
3212.13	4221.9
3215.241	4204.9
3218.35	4169.9
3221.456	4108.9
3224.56	4077.9
3227.661	4025.9
3230.76	3970.9
3233.856	3948.9
3236.95	3895.9
3240.041	3871.9
3243.13	3853.9
3246.216	3843.9
3249.3	3784.9
3252.382	3813.9
3255.46	3770.9
3258.537	3756.9
3261.611	3793.9
3264.682	3773.9
3267.751	3786.9
3270.818	3765.9
3273.882	3743.9
3276.943	3722.9
3280.002	3702.9
3283.059	3651.9
3286.113	3626.9
3289.165	3599.9
3292.214	3504.9
3295.261	3457.9
3298.306	3408.9
3301.348	3336.9
3304.387	3303.9
3307.425	3231.9
3310.459	3189.9
3313.492	3153.9
3316.521	3118.9
3319.549	3074.9
3322.574	3027.9
3325.597	3029.9
3328.617	2975.9
3331.635	2976.9
3334.65	2938.9
3337.663	2954.9
3340.674	2923.9
3343.682	2898.9
3346.688	2912.9
3349.691	2869.9
3352.692	2868.9
3355.691	2820.9
3358.687	2808.9
3361.681	2799.9
3364.673	2770.9
3367.662	2713.9
3370.649	2644.9
3373.633	2619.9
3376.615	2605.9
3379.595	2550.9
3382.572	2529.9
3385.547	2503.9
3388.52	2436.9
3391.49	2396.9
3394.458	2389.9
3397.424	2353.9
3400.387	2328.9
3403.348	2288.9
3406.307	2273.9
3409.263	2220.9
3412.217	2219.9
3415.168	2202.9
3418.118	2150.9
3421.065	2134.9
3424.009	2093.9
3426.951	2052.9
3429.891	2050.9
3432.829	1994.9
3435.764	1944.9
3438.697	1910.9
3441.628	1873.9
3444.557	1789.9
3447.483	1749.9
3450.407	1677.9
3453.328	1635.9
3456.247	1586.9
3459.164	1531.9
3462.079	1478.9
3464.991	1444.9
3467.902	1372.9
3470.809	1324.9
3473.715	1278.9
3476.618	1241.9
3479.519	1186.9
3482.418	1158.9
3485.315	1116.9
3488.209	1092.9
3491.101	1056.9
3493.99	1006.9
3496.878	978.9
3499.763	941.9
3502.646	908.9
3505.527	838.9
3508.405	826.9
3511.281	775.9
3514.155	730.9
3517.027	697.9
3519.897	660.9
3522.764	619.9
3525.629	576.9
3528.492	517.9
3531.352	489.9
3534.211	459.9
3537.067	402.9
3539.921	373.9
3542.773	323.9
3545.622	298.9
3548.469	260.9
3551.315	249.9
3554.157	222.9
3556.998	185.9
3559.837	164.9
3562.673	138.9
3565.507	108.9
3568.339	83.9
3571.169	67.9
3573.996	40.9
3576.822	14.9
3579.645	3.9
3582.466	-18.1
3585.285	-38.1
3588.101	-65.1
3590.916	-86.1
3593.728	-102.1
3596.538	-114.1
3599.346	-136.1
3602.152	-152.1
3604.956	-172.1
3607.757	-194.1
3610.556	-218.1
3613.354	-219.1
3616.149	-249.1
3618.942	-252.1
3621.732	-258.1
3624.521	-278.1
3627.307	-275.1
3630.092	-291.1
3632.874	-303.1
3635.654	-319.1
3638.432	-327.1
3641.208	-329.1
3643.982	-345.1
3646.753	-346.1
3649.523	-364.1
3652.29	-366.1
3655.055	-378.1
3657.818	-389.1
3660.579	-406.1
3663.338	-413.1
3666.095	-429.1
3668.849	-429.1
3671.602	-435.1
3674.352	-449.1
3677.101	-449.1
3679.847	-465.1
3682.591	-467.1
3685.333	-474.1
3688.073	-479.1
3690.811	-481.1
3693.547	-491.1
3696.281	-497.1
3699.013	-497.1
3701.742	-507.1
3704.47	-508.1
3707.195	-515.1
3709.919	-512.1
3712.64	-519.1
3715.359	-518.1
3718.076	-528.1
3720.792	-523.1
3723.505	-528.1
3726.216	-535.1
3728.925	-539.1
3731.632	-547.1
3734.336	-551.1
3737.039	-558.1
3739.74	-551.1
3742.439	-556.1
3745.136	-559.1
3747.83	-561.1
3750.523	-563.1
3753.213	-558.1
3755.902	-570.1
3758.589	-564.1
3761.273	-577.1
3763.956	-576.1
3766.636	-573.1
3769.315	-578.1
3771.991	-577.1
3774.665	-585.1
3777.338	-587.1
3780.008	-580.1
3782.677	-585.1
3785.343	-581.1
3788.007	-593.1
3790.67	-592.1
3793.33	-591.1
3795.989	-590.1
3798.645	-595.1
3801.299	-593.1
3803.952	-600.1
3806.602	-599.1
3809.251	-605.1
3811.897	-602.1
3814.542	-605.1
3817.184	-596.1
3819.825	-603.1
3822.463	-596.1
3825.1	-608.1
3827.735	-599.1
3830.367	-597.1
3832.998	-608.1
3835.627	-614.1
3838.253	-609.1
3840.878	-612.1
3843.501	-612.1
3846.122	-610.1
3848.741	-605.1
3851.358	-608.1
3853.973	-617.1
3856.586	-612.1
3859.197	-621.1
3861.806	-624.1
3864.414	-618.1
3867.019	-616.1
3869.622	-619.1
3872.224	-614.1
3874.823	-605.1
3877.421	-584.1
3880.016	-571.1
3882.61	-546.1
3885.202	-545.1
3887.792	-561.1
3890.38	-591.1
3892.966	-608.1
3895.55	-617.1
3898.132	-635.1
3900.713	-629.1
3903.291	-623.1
3905.868	-629.1
3908.442	-630.1
3911.015	-628.1
3913.586	-627.1
3916.155	-624.1
3918.722	-630.1
3921.287	-630.1
3923.85	-635.1
3926.411	-636.1
3928.971	-643.1
3931.528	-636.1
3934.084	-639.1
3936.638	-634.1
3939.19	-631.1
3941.74	-632.1
3944.288	-637.1
3946.834	-632.1
3949.378	-634.1
3951.921	-635.1
3954.462	-643.1
3957	-633.1
3959.537	-635.1
3962.072	-635.1
3964.606	-630.1
3967.137	-635.1
3969.667	-637.1
3972.194	-627.1
3974.72	-629.1
3977.244	-616.1
3979.766	-622.1
3982.286	-619.1
3984.805	-622.1
3987.321	-619.1
3989.836	-621.1
3992.349	-613.1
3994.86	-615.1
3997.369	-627.1
3999.877	-617.1
4002.382	-621.1
4004.886	-616.1
4007.388	-614.1
4009.888	-623.1
4012.386	-631.1
4014.883	-621.1
4017.377	-616.1
4019.87	-618.1
4022.361	-622.1
4024.85	-621.1
4027.338	-626.1
4029.823	-622.1
4032.307	-627.1
4034.789	-619.1
4037.269	-622.1
4039.747	-620.1
4042.224	-629.1
4044.699	-623.1
4047.172	-622.1
4049.643	-622.1
4052.112	-628.1
4054.58	-625.1
4057.046	-628.1
4059.51	-626.1
4061.972	-626.1
4064.432	-629.1
4066.891	-626.1
4069.348	-627.1
4071.803	-619.1
4074.256	-622.1
4076.708	-621.1
4079.158	-625.1
4081.606	-625.1
4084.052	-626.1
4086.497	-629.1
4088.939	-616.1
4091.38	-621.1
4093.819	-622.1
4096.257	-657.1
4098.693	-655.1
4101.127	-663.1
4103.559	-657.1
4105.989	-387.1
4108.418	-354.1
4110.845	-337.1
4113.27	-304.1
4115.694	-268.1
4118.115	-223.1
4120.535	-619.1
4122.954	-616.1
4125.37	-616.1
4127.785	-624.1
4130.198	-625.1
4132.609	-626.1
4135.019	-660.1
4137.427	-661.1
4139.833	-662.1
4142.237	-656.1
