Data from 2018-2-14_conc=4_n=5_RamanShift_01.txt Node
Date: Wed Feb 14 13:40:25 IST 2018
User: aro
Spectrometer: QEPB0276
Trigger mode: 0
Integration Time (sec): 3.000000E1
Scans to average: 1
Electric dark correction enabled: true
Nonlinearity correction enabled: false
Boxcar width: 0
XAxis mode: Raman Shifts
Number of Pixels in Spectrum: 1044
>>>>>Begin Spectral Data<<<<<
160.701	-154.1
166.742	53.9
172.777	577.9
178.805	2284.9
184.826	6362.9
190.841	13177.9
196.849	21152.9
202.85	26630.9
208.845	28450.9
214.833	28187.9
220.815	27550.9
226.789	27388.9
232.758	27118.9
238.719	26973.9
244.674	26550.9
250.623	25947.9
256.565	25386.9
262.5	24863.9
268.429	24319.9
274.351	23845.9
280.267	23613.9
286.176	23289.9
292.079	23026.9
297.975	22827.9
303.865	22601.9
309.748	22421.9
315.625	22257.9
321.495	22094.9
327.359	21974.9
333.217	21961.9
339.068	21942.9
344.912	21992.9
350.751	21935.9
356.583	21849.9
362.408	21852.9
368.227	21871.9
374.04	21830.9
379.847	21891.9
385.647	21987.9
391.44	22047.9
397.228	22198.9
403.009	22212.9
408.784	22356.9
414.553	22426.9
420.315	22519.9
426.071	22429.9
431.821	22484.9
437.565	22494.9
443.302	22439.9
449.033	22339.9
454.758	22301.9
460.477	22200.9
466.189	22194.9
471.896	22161.9
477.596	22105.9
483.29	22083.9
488.978	21989.9
494.66	21939.9
500.335	21791.9
506.005	21519.9
511.668	21334.9
517.325	20980.9
522.977	20825.9
528.622	20629.9
534.261	20459.9
539.894	20437.9
545.521	20313.9
551.141	20283.9
556.756	20157.9
562.365	20140.9
567.968	20049.9
573.565	19945.9
579.155	19793.9
584.74	19687.9
590.319	19643.9
595.892	19610.9
601.459	19561.9
607.02	19485.9
612.575	19321.9
618.124	19160.9
623.667	19021.9
629.204	18974.9
634.735	18838.9
640.261	18834.9
645.781	18743.9
651.294	18678.9
656.802	18674.9
662.304	18629.9
667.8	18607.9
673.29	18610.9
678.775	18489.9
684.254	18509.9
689.726	18381.9
695.193	18355.9
700.655	18224.9
706.11	18141.9
711.56	18101.9
717.004	17969.9
722.442	17922.9
727.874	17841.9
733.301	17799.9
738.722	17731.9
744.137	17670.9
749.547	17678.9
754.951	17633.9
760.349	17632.9
765.741	17701.9
771.128	17732.9
776.509	17665.9
781.885	17640.9
787.254	17621.9
792.618	17564.9
797.977	17418.9
803.33	17320.9
808.677	17234.9
814.019	17117.9
819.355	17080.9
824.686	16971.9
830.011	16921.9
835.33	16923.9
840.644	16950.9
845.952	16992.9
851.255	17024.9
856.552	16997.9
861.844	16945.9
867.13	16896.9
872.41	16908.9
877.686	16700.9
882.955	16650.9
888.219	16501.9
893.478	16300.9
898.731	16091.9
903.979	15909.9
909.221	15814.9
914.458	15709.9
919.69	15749.9
924.916	15809.9
930.136	15830.9
935.351	15868.9
940.561	15837.9
945.766	15882.9
950.965	15727.9
956.158	15624.9
961.347	15476.9
966.529	15251.9
971.707	15032.9
976.879	14882.9
982.046	14761.9
987.208	14720.9
992.364	14708.9
997.515	14807.9
1002.66	14945.9
1007.801	15067.9
1012.936	15187.9
1018.066	15206.9
1023.19	15288.9
1028.309	15202.9
1033.423	15153.9
1038.532	15094.9
1043.636	14953.9
1048.734	14769.9
1053.827	14547.9
1058.915	14429.9
1063.998	14303.9
1069.075	14314.9
1074.147	14346.9
1079.214	14389.9
1084.276	14432.9
1089.333	14537.9
1094.385	14559.9
1099.431	14662.9
1104.472	14634.9
1109.509	14517.9
1114.54	14361.9
1119.565	14222.9
1124.586	14027.9
1129.602	13889.9
1134.613	13825.9
1139.618	13707.9
1144.619	13609.9
1149.614	13666.9
1154.604	13666.9
1159.589	13780.9
1164.57	13730.9
1169.545	13792.9
1174.515	13756.9
1179.48	13704.9
1184.44	13641.9
1189.395	13512.9
1194.345	13445.9
1199.29	13313.9
1204.23	13345.9
1209.165	13422.9
1214.095	13468.9
1219.021	13551.9
1223.941	13580.9
1228.856	13663.9
1233.766	13680.9
1238.672	13727.9
1243.572	13704.9
1248.467	13612.9
1253.358	13437.9
1258.244	13269.9
1263.124	13105.9
1268	12905.9
1272.871	12731.9
1277.737	12672.9
1282.599	12561.9
1287.455	12544.9
1292.306	12587.9
1297.153	12672.9
1301.995	12700.9
1306.832	12765.9
1311.664	12734.9
1316.491	12691.9
1321.314	12605.9
1326.132	12452.9
1330.945	12165.9
1335.753	11810.9
1340.556	11482.9
1345.354	11263.9
1350.148	11116.9
1354.937	10994.9
1359.722	11005.9
1364.501	11079.9
1369.276	11186.9
1374.046	11372.9
1378.811	11566.9
1383.572	11683.9
1388.327	11747.9
1393.079	11675.9
1397.825	11563.9
1402.567	11395.9
1407.304	11182.9
1412.036	11039.9
1416.764	11003.9
1421.487	10921.9
1426.205	10865.9
1430.919	10806.9
1435.628	10815.9
1440.333	10837.9
1445.032	10846.9
1449.727	10915.9
1454.418	10866.9
1459.104	10763.9
1463.785	10508.9
1468.462	10309.9
1473.134	10107.9
1477.802	9893.9
1482.465	9695.9
1487.123	9591.9
1491.777	9559.9
1496.426	9616.9
1501.071	9727.9
1505.711	9890.9
1510.347	10061.9
1514.978	10298.9
1519.604	10425.9
1524.226	10583.9
1528.844	10558.9
1533.457	10538.9
1538.065	10487.9
1542.669	10411.9
1547.269	10359.9
1551.864	10232.9
1556.454	10252.9
1561.041	10250.9
1565.622	10223.9
1570.199	10232.9
1574.772	10294.9
1579.34	10374.9
1583.904	10444.9
1588.464	10454.9
1593.019	10479.9
1597.569	10389.9
1602.115	10395.9
1606.657	10348.9
1611.195	10289.9
1615.728	10215.9
1620.256	10166.9
1624.78	10154.9
1629.3	10158.9
1633.816	10217.9
1638.327	10260.9
1642.834	10325.9
1647.336	10313.9
1651.834	10356.9
1656.328	10369.9
1660.817	10288.9
1665.302	10173.9
1669.783	10033.9
1674.259	9762.9
1678.732	9485.9
1683.199	9096.9
1687.663	8838.9
1692.122	8541.9
1696.577	8423.9
1701.028	8430.9
1705.474	8484.9
1709.917	8578.9
1714.355	8631.9
1718.788	8548.9
1723.218	8416.9
1727.643	8255.9
1732.064	8080.9
1736.481	7882.9
1740.893	7686.9
1745.301	7488.9
1749.705	7308.9
1754.105	7072.9
1758.501	6848.9
1762.893	6680.9
1767.28	6498.9
1771.663	6367.9
1776.042	6235.9
1780.417	6190.9
1784.787	6201.9
1789.154	6307.9
1793.516	6418.9
1797.874	6532.9
1802.228	6644.9
1806.578	6744.9
1810.924	6727.9
1815.266	6635.9
1819.603	6554.9
1823.937	6434.9
1828.266	6310.9
1832.591	6232.9
1836.913	6149.9
1841.23	6087.9
1845.543	5998.9
1849.852	6008.9
1854.156	5937.9
1858.457	5948.9
1862.754	5977.9
1867.047	5922.9
1871.335	5949.9
1875.62	5938.9
1879.9	5899.9
1884.177	5845.9
1888.449	5841.9
1892.718	5734.9
1896.982	5677.9
1901.243	5633.9
1905.499	5592.9
1909.752	5566.9
1914	5587.9
1918.245	5613.9
1922.485	5667.9
1926.722	5713.9
1930.954	5815.9
1935.183	5876.9
1939.408	5953.9
1943.628	5946.9
1947.845	5986.9
1952.058	5943.9
1956.267	5948.9
1960.472	5843.9
1964.673	5739.9
1968.87	5678.9
1973.063	5585.9
1977.252	5501.9
1981.438	5456.9
1985.619	5376.9
1989.797	5340.9
1993.971	5283.9
1998.14	5283.9
2002.306	5250.9
2006.469	5245.9
2010.627	5219.9
2014.781	5171.9
2018.932	5143.9
2023.078	5073.9
2027.221	5019.9
2031.36	4954.9
2035.495	4874.9
2039.627	4791.9
2043.754	4736.9
2047.878	4673.9
2051.998	4666.9
2056.114	4649.9
2060.226	4647.9
2064.334	4639.9
2068.439	4657.9
2072.54	4693.9
2076.637	4723.9
2080.73	4775.9
2084.82	4801.9
2088.906	4806.9
2092.988	4815.9
2097.066	4809.9
2101.14	4770.9
2105.211	4737.9
2109.278	4711.9
2113.342	4697.9
2117.401	4699.9
2121.457	4652.9
2125.509	4611.9
2129.558	4559.9
2133.602	4572.9
2137.643	4526.9
2141.681	4511.9
2145.714	4480.9
2149.744	4429.9
2153.77	4404.9
2157.793	4388.9
2161.812	4312.9
2165.827	4233.9
2169.838	4168.9
2173.846	4118.9
2177.851	4062.9
2181.851	3963.9
2185.848	3946.9
2189.841	3882.9
2193.831	3856.9
2197.817	3781.9
2201.799	3822.9
2205.778	3768.9
2209.753	3783.9
2213.725	3734.9
2217.693	3727.9
2221.657	3721.9
2225.618	3726.9
2229.575	3686.9
2233.529	3675.9
2237.479	3621.9
2241.425	3599.9
2245.368	3532.9
2249.307	3471.9
2253.243	3465.9
2257.175	3393.9
2261.104	3341.9
2265.029	3292.9
2268.95	3275.9
2272.868	3238.9
2276.783	3194.9
2280.694	3167.9
2284.601	3151.9
2288.505	3117.9
2292.405	3063.9
2296.302	3062.9
2300.195	2989.9
2304.085	2969.9
2307.971	2930.9
2311.854	2895.9
2315.734	2858.9
2319.609	2799.9
2323.482	2778.9
2327.351	2747.9
2331.216	2713.9
2335.078	2702.9
2338.937	2691.9
2342.792	2652.9
2346.643	2639.9
2350.492	2646.9
2354.336	2673.9
2358.178	2654.9
2362.015	2671.9
2365.85	2657.9
2369.681	2671.9
2373.508	2659.9
2377.333	2656.9
2381.153	2653.9
2384.971	2627.9
2388.785	2598.9
2392.595	2561.9
2396.402	2536.9
2400.206	2522.9
2404.007	2515.9
2407.804	2512.9
2411.597	2491.9
2415.388	2461.9
2419.174	2447.9
2422.958	2437.9
2426.738	2437.9
2430.515	2411.9
2434.289	2374.9
2438.059	2345.9
2441.825	2333.9
2445.589	2326.9
2449.349	2264.9
2453.106	2250.9
2456.859	2212.9
2460.61	2205.9
2464.356	2182.9
2468.1	2146.9
2471.84	2108.9
2475.577	2127.9
2479.311	2092.9
2483.041	2070.9
2486.768	2076.9
2490.492	2052.9
2494.213	2070.9
2497.93	2049.9
2501.644	2031.9
2505.355	2028.9
2509.062	2027.9
2512.766	2007.9
2516.467	2007.9
2520.165	1980.9
2523.859	1978.9
2527.551	1958.9
2531.239	1942.9
2534.923	1934.9
2538.605	1932.9
2542.283	1917.9
2545.958	1910.9
2549.63	1905.9
2553.299	1908.9
2556.964	1902.9
2560.626	1894.9
2564.285	1902.9
2567.941	1876.9
2571.594	1844.9
2575.243	1853.9
2578.89	1842.9
2582.533	1826.9
2586.173	1816.9
2589.809	1806.9
2593.443	1750.9
2597.073	1746.9
2600.701	1741.9
2604.325	1713.9
2607.946	1738.9
2611.564	1719.9
2615.178	1712.9
2618.79	1707.9
2622.398	1659.9
2626.004	1670.9
2629.606	1622.9
2633.205	1622.9
2636.801	1582.9
2640.394	1565.9
2643.983	1538.9
2647.57	1520.9
2651.153	1487.9
2654.734	1466.9
2658.311	1456.9
2661.885	1403.9
2665.456	1390.9
2669.025	1394.9
2672.589	1356.9
2676.151	1372.9
2679.71	1344.9
2683.266	1331.9
2686.819	1286.9
2690.368	1288.9
2693.915	1240.9
2697.458	1206.9
2700.999	1200.9
2704.536	1174.9
2708.071	1126.9
2711.602	1126.9
2715.13	1070.9
2718.656	1073.9
2722.178	1052.9
2725.697	1045.9
2729.214	1010.9
2732.727	1030.9
2736.237	1008.9
2739.744	1008.9
2743.249	1039.9
2746.75	1041.9
2750.248	1037.9
2753.743	1058.9
2757.236	1072.9
2760.725	1084.9
2764.211	1094.9
2767.695	1076.9
2771.175	1077.9
2774.652	1077.9
2778.127	1083.9
2781.598	1077.9
2785.067	1051.9
2788.532	1050.9
2791.995	1054.9
2795.455	1062.9
2798.911	1037.9
2802.365	1053.9
2805.816	1041.9
2809.264	1049.9
2812.709	1047.9
2816.151	1052.9
2819.59	1055.9
2823.026	1079.9
2826.46	1050.9
2829.89	1060.9
2833.318	1054.9
2836.742	1075.9
2840.164	1073.9
2843.583	1074.9
2846.999	1094.9
2850.412	1081.9
2853.822	1108.9
2857.229	1157.9
2860.634	1141.9
2864.035	1172.9
2867.434	1179.9
2870.83	1221.9
2874.223	1238.9
2877.613	1258.9
2881	1276.9
2884.385	1284.9
2887.766	1276.9
2891.145	1275.9
2894.521	1257.9
2897.894	1289.9
2901.264	1264.9
2904.631	1291.9
2907.996	1296.9
2911.358	1276.9
2914.717	1306.9
2918.073	1324.9
2921.426	1343.9
2924.777	1350.9
2928.124	1360.9
2931.469	1392.9
2934.811	1406.9
2938.15	1446.9
2941.487	1436.9
2944.821	1454.9
2948.152	1443.9
2951.48	1443.9
2954.805	1426.9
2958.128	1438.9
2961.447	1433.9
2964.765	1419.9
2968.079	1410.9
2971.39	1435.9
2974.699	1439.9
2978.005	1465.9
2981.308	1511.9
2984.609	1539.9
2987.907	1564.9
2991.202	1583.9
2994.494	1637.9
2997.784	1656.9
3001.07	1692.9
3004.355	1716.9
3007.636	1727.9
3010.915	1754.9
3014.191	1765.9
3017.464	1784.9
3020.734	1815.9
3024.002	1811.9
3027.267	1830.9
3030.53	1833.9
3033.789	1868.9
3037.046	1860.9
3040.301	1902.9
3043.552	1940.9
3046.801	1990.9
3050.048	2016.9
3053.291	2088.9
3056.532	2129.9
3059.771	2182.9
3063.006	2244.9
3066.239	2329.9
3069.469	2381.9
3072.697	2436.9
3075.922	2512.9
3079.144	2573.9
3082.364	2639.9
3085.581	2705.9
3088.795	2751.9
3092.007	2850.9
3095.216	2881.9
3098.423	2904.9
3101.627	3014.9
3104.828	3086.9
3108.026	3143.9
3111.222	3204.9
3114.416	3274.9
3117.607	3350.9
3120.795	3432.9
3123.98	3488.9
3127.163	3597.9
3130.344	3673.9
3133.521	3763.9
3136.696	3830.9
3139.869	3947.9
3143.039	3976.9
3146.206	4016.9
3149.371	4101.9
3152.533	4152.9
3155.693	4160.9
3158.85	4194.9
3162.005	4224.9
3165.157	4229.9
3168.306	4237.9
3171.453	4242.9
3174.597	4251.9
3177.739	4291.9
3180.878	4271.9
3184.014	4281.9
3187.149	4273.9
3190.28	4308.9
3193.409	4288.9
3196.536	4323.9
3199.659	4292.9
3202.781	4317.9
3205.9	4339.9
3209.016	4329.9
3212.13	4315.9
3215.241	4273.9
3218.35	4242.9
3221.456	4210.9
3224.56	4141.9
3227.661	4066.9
3230.76	4071.9
3233.856	4066.9
3236.95	3991.9
3240.041	3952.9
3243.13	3934.9
3246.216	3906.9
3249.3	3864.9
3252.382	3848.9
3255.46	3856.9
3258.537	3817.9
3261.611	3835.9
3264.682	3845.9
3267.751	3850.9
3270.818	3818.9
3273.882	3845.9
3276.943	3803.9
3280.002	3798.9
3283.059	3730.9
3286.113	3686.9
3289.165	3665.9
3292.214	3593.9
3295.261	3544.9
3298.306	3509.9
3301.348	3425.9
3304.387	3392.9
3307.425	3326.9
3310.459	3277.9
3313.492	3238.9
3316.521	3161.9
3319.549	3143.9
3322.574	3087.9
3325.597	3123.9
3328.617	3060.9
3331.635	3050.9
3334.65	3016.9
3337.663	3017.9
3340.674	3015.9
3343.682	2983.9
3346.688	2968.9
3349.691	2974.9
3352.692	2959.9
3355.691	2932.9
3358.687	2873.9
3361.681	2851.9
3364.673	2807.9
3367.662	2760.9
3370.649	2735.9
3373.633	2690.9
3376.615	2662.9
3379.595	2617.9
3382.572	2575.9
3385.547	2531.9
3388.52	2498.9
3391.49	2474.9
3394.458	2456.9
3397.424	2392.9
3400.387	2379.9
3403.348	2367.9
3406.307	2314.9
3409.263	2302.9
3412.217	2283.9
3415.168	2238.9
3418.118	2212.9
3421.065	2195.9
3424.009	2153.9
3426.951	2129.9
3429.891	2065.9
3432.829	2052.9
3435.764	1983.9
3438.697	1960.9
3441.628	1891.9
3444.557	1821.9
3447.483	1771.9
3450.407	1747.9
3453.328	1666.9
3456.247	1598.9
3459.164	1553.9
3462.079	1490.9
3464.991	1430.9
3467.902	1393.9
3470.809	1341.9
3473.715	1278.9
3476.618	1246.9
3479.519	1199.9
3482.418	1163.9
3485.315	1124.9
3488.209	1098.9
3491.101	1050.9
3493.99	1015.9
3496.878	984.9
3499.763	940.9
3502.646	909.9
3505.527	860.9
3508.405	826.9
3511.281	771.9
3514.155	736.9
3517.027	702.9
3519.897	644.9
3522.764	606.9
3525.629	564.9
3528.492	518.9
3531.352	478.9
3534.211	437.9
3537.067	389.9
3539.921	348.9
3542.773	324.9
3545.622	288.9
3548.469	250.9
3551.315	215.9
3554.157	186.9
3556.998	169.9
3559.837	144.9
3562.673	121.9
3565.507	94.9
3568.339	63.9
3571.169	48.9
3573.996	24.9
3576.822	-0.1
3579.645	-22.1
3582.466	-39.1
3585.285	-62.1
3588.101	-80.1
3590.916	-96.1
3593.728	-133.1
3596.538	-142.1
3599.346	-164.1
3602.152	-190.1
3604.956	-198.1
3607.757	-226.1
3610.556	-227.1
3613.354	-239.1
3616.149	-260.1
3618.942	-276.1
3621.732	-282.1
3624.521	-305.1
3627.307	-304.1
3630.092	-321.1
3632.874	-331.1
3635.654	-342.1
3638.432	-353.1
3641.208	-352.1
3643.982	-371.1
3646.753	-381.1
3649.523	-384.1
3652.29	-400.1
3655.055	-411.1
3657.818	-415.1
3660.579	-432.1
3663.338	-454.1
3666.095	-456.1
3668.849	-459.1
3671.602	-471.1
3674.352	-479.1
3677.101	-483.1
3679.847	-498.1
3682.591	-503.1
3685.333	-504.1
3688.073	-510.1
3690.811	-525.1
3693.547	-519.1
3696.281	-527.1
3699.013	-536.1
3701.742	-541.1
3704.47	-546.1
3707.195	-550.1
3709.919	-550.1
3712.64	-558.1
3715.359	-558.1
3718.076	-568.1
3720.792	-571.1
3723.505	-576.1
3726.216	-580.1
3728.925	-578.1
3731.632	-586.1
3734.336	-596.1
3737.039	-595.1
3739.74	-594.1
3742.439	-592.1
3745.136	-593.1
3747.83	-602.1
3750.523	-598.1
3753.213	-583.1
3755.902	-606.1
3758.589	-610.1
3761.273	-611.1
3763.956	-613.1
3766.636	-612.1
3769.315	-618.1
3771.991	-615.1
3774.665	-626.1
3777.338	-622.1
3780.008	-626.1
3782.677	-625.1
3785.343	-623.1
3788.007	-627.1
3790.67	-626.1
3793.33	-623.1
3795.989	-639.1
3798.645	-633.1
3801.299	-636.1
3803.952	-639.1
3806.602	-643.1
3809.251	-641.1
3811.897	-635.1
3814.542	-641.1
3817.184	-639.1
3819.825	-634.1
3822.463	-634.1
3825.1	-643.1
3827.735	-637.1
3830.367	-636.1
3832.998	-645.1
3835.627	-647.1
3838.253	-649.1
3840.878	-655.1
3843.501	-647.1
3846.122	-644.1
3848.741	-653.1
3851.358	-648.1
3853.973	-643.1
3856.586	-653.1
3859.197	-656.1
3861.806	-663.1
3864.414	-653.1
3867.019	-652.1
3869.622	-656.1
3872.224	-646.1
3874.823	-634.1
3877.421	-618.1
3880.016	-601.1
3882.61	-586.1
3885.202	-591.1
3887.792	-596.1
3890.38	-624.1
3892.966	-639.1
3895.55	-653.1
3898.132	-664.1
3900.713	-668.1
3903.291	-665.1
3905.868	-665.1
3908.442	-663.1
3911.015	-665.1
3913.586	-660.1
3916.155	-660.1
3918.722	-671.1
3921.287	-670.1
3923.85	-672.1
3926.411	-669.1
3928.971	-679.1
3931.528	-670.1
3934.084	-673.1
3936.638	-669.1
3939.19	-670.1
3941.74	-666.1
3944.288	-669.1
3946.834	-661.1
3949.378	-667.1
3951.921	-667.1
3954.462	-672.1
3957	-662.1
3959.537	-668.1
3962.072	-660.1
3964.606	-666.1
3967.137	-665.1
3969.667	-672.1
3972.194	-667.1
3974.72	-663.1
3977.244	-655.1
3979.766	-653.1
3982.286	-663.1
3984.805	-656.1
3987.321	-654.1
3989.836	-659.1
3992.349	-653.1
3994.86	-648.1
3997.369	-661.1
3999.877	-652.1
4002.382	-652.1
4004.886	-648.1
4007.388	-648.1
4009.888	-649.1
4012.386	-658.1
4014.883	-650.1
4017.377	-653.1
4019.87	-649.1
4022.361	-651.1
4024.85	-652.1
4027.338	-648.1
4029.823	-655.1
4032.307	-660.1
4034.789	-649.1
4037.269	-649.1
4039.747	-652.1
4042.224	-656.1
4044.699	-658.1
4047.172	-657.1
4049.643	-658.1
4052.112	-663.1
4054.58	-659.1
4057.046	-658.1
4059.51	-656.1
4061.972	-660.1
4064.432	-665.1
4066.891	-654.1
4069.348	-657.1
4071.803	-657.1
4074.256	-654.1
4076.708	-657.1
4079.158	-658.1
4081.606	-660.1
4084.052	-663.1
4086.497	-658.1
4088.939	-658.1
4091.38	-650.1
4093.819	-653.1
4096.257	-688.1
4098.693	-686.1
4101.127	-691.1
4103.559	-689.1
4105.989	-401.1
4108.418	-378.1
4110.845	-358.1
4113.27	-325.1
4115.694	-284.1
4118.115	-243.1
4120.535	-654.1
4122.954	-652.1
4125.37	-646.1
4127.785	-652.1
4130.198	-659.1
4132.609	-657.1
4135.019	-691.1
4137.427	-692.1
4139.833	-692.1
4142.237	-687.1
