Data from 2018-2-14_conc=6_n=10_RamanShift_01.txt Node
Date: Wed Feb 14 15:16:25 IST 2018
User: aro
Spectrometer: QEPB0276
Trigger mode: 0
Integration Time (sec): 3.000000E1
Scans to average: 1
Electric dark correction enabled: true
Nonlinearity correction enabled: false
Boxcar width: 0
XAxis mode: Raman Shifts
Number of Pixels in Spectrum: 1044
>>>>>Begin Spectral Data<<<<<
160.701	-145.1
166.742	31.9
172.777	590.9
178.805	2285.9
184.826	6325.9
190.841	13279.9
196.849	21250.9
202.85	26873.9
208.845	28660.9
214.833	28356.9
220.815	27891.9
226.789	27703.9
232.758	27566.9
238.719	27359.9
244.674	27077.9
250.623	26614.9
256.565	26007.9
262.5	25405.9
268.429	24990.9
274.351	24580.9
280.267	24295.9
286.176	24006.9
292.079	23823.9
297.975	23502.9
303.865	23416.9
309.748	23240.9
315.625	23022.9
321.495	22955.9
327.359	22937.9
333.217	22821.9
339.068	22795.9
344.912	22780.9
350.751	22756.9
356.583	22739.9
362.408	22734.9
368.227	22751.9
374.04	22693.9
379.847	22769.9
385.647	22864.9
391.44	22897.9
397.228	23019.9
403.009	23145.9
408.784	23155.9
414.553	23270.9
420.315	23326.9
426.071	23299.9
431.821	23238.9
437.565	23257.9
443.302	23279.9
449.033	23210.9
454.758	23178.9
460.477	23124.9
466.189	23126.9
471.896	23054.9
477.596	22997.9
483.29	22907.9
488.978	22789.9
494.66	22793.9
500.335	22673.9
506.005	22439.9
511.668	22143.9
517.325	21926.9
522.977	21685.9
528.622	21598.9
534.261	21456.9
539.894	21320.9
545.521	21232.9
551.141	21172.9
556.756	21136.9
562.365	20962.9
567.968	20957.9
573.565	20898.9
579.155	20772.9
584.74	20666.9
590.319	20584.9
595.892	20558.9
601.459	20472.9
607.02	20359.9
612.575	20261.9
618.124	20131.9
623.667	20031.9
629.204	19966.9
634.735	19799.9
640.261	19736.9
645.781	19697.9
651.294	19652.9
656.802	19630.9
662.304	19628.9
667.8	19493.9
673.29	19511.9
678.775	19482.9
684.254	19426.9
689.726	19355.9
695.193	19299.9
700.655	19224.9
706.11	19071.9
711.56	19029.9
717.004	18913.9
722.442	18826.9
727.874	18724.9
733.301	18697.9
738.722	18658.9
744.137	18594.9
749.547	18602.9
754.951	18637.9
760.349	18592.9
765.741	18572.9
771.128	18644.9
776.509	18624.9
781.885	18643.9
787.254	18554.9
792.618	18511.9
797.977	18341.9
803.33	18263.9
808.677	18190.9
814.019	18078.9
819.355	17951.9
824.686	17926.9
830.011	17852.9
835.33	17861.9
840.644	17919.9
845.952	17913.9
851.255	17954.9
856.552	17963.9
861.844	17932.9
867.13	17909.9
872.41	17815.9
877.686	17678.9
882.955	17607.9
888.219	17422.9
893.478	17243.9
898.731	17034.9
903.979	16879.9
909.221	16775.9
914.458	16724.9
919.69	16647.9
924.916	16722.9
930.136	16808.9
935.351	16836.9
940.561	16805.9
945.766	16774.9
950.965	16701.9
956.158	16575.9
961.347	16452.9
966.529	16211.9
971.707	16001.9
976.879	15792.9
982.046	15679.9
987.208	15670.9
992.364	15636.9
997.515	15671.9
1002.66	15870.9
1007.801	16050.9
1012.936	16126.9
1018.066	16154.9
1023.19	16197.9
1028.309	16169.9
1033.423	16149.9
1038.532	16042.9
1043.636	15948.9
1048.734	15725.9
1053.827	15513.9
1058.915	15368.9
1063.998	15227.9
1069.075	15175.9
1074.147	15197.9
1079.214	15268.9
1084.276	15381.9
1089.333	15467.9
1094.385	15507.9
1099.431	15625.9
1104.472	15588.9
1109.509	15447.9
1114.54	15282.9
1119.565	15088.9
1124.586	14876.9
1129.602	14725.9
1134.613	14674.9
1139.618	14624.9
1144.619	14509.9
1149.614	14515.9
1154.604	14608.9
1159.589	14616.9
1164.57	14613.9
1169.545	14717.9
1174.515	14668.9
1179.48	14588.9
1184.44	14452.9
1189.395	14394.9
1194.345	14243.9
1199.29	14210.9
1204.23	14201.9
1209.165	14269.9
1214.095	14334.9
1219.021	14407.9
1223.941	14474.9
1228.856	14586.9
1233.766	14579.9
1238.672	14628.9
1243.572	14649.9
1248.467	14503.9
1253.358	14377.9
1258.244	14091.9
1263.124	13898.9
1268	13741.9
1272.871	13573.9
1277.737	13494.9
1282.599	13420.9
1287.455	13336.9
1292.306	13396.9
1297.153	13449.9
1301.995	13530.9
1306.832	13570.9
1311.664	13583.9
1316.491	13510.9
1321.314	13402.9
1326.132	13178.9
1330.945	12966.9
1335.753	12602.9
1340.556	12215.9
1345.354	11983.9
1350.148	11831.9
1354.937	11811.9
1359.722	11769.9
1364.501	11884.9
1369.276	12039.9
1374.046	12264.9
1378.811	12403.9
1383.572	12608.9
1388.327	12561.9
1393.079	12502.9
1397.825	12334.9
1402.567	12198.9
1407.304	11990.9
1412.036	11830.9
1416.764	11756.9
1421.487	11671.9
1426.205	11600.9
1430.919	11566.9
1435.628	11580.9
1440.333	11580.9
1445.032	11609.9
1449.727	11659.9
1454.418	11638.9
1459.104	11466.9
1463.785	11290.9
1468.462	11087.9
1473.134	10842.9
1477.802	10662.9
1482.465	10488.9
1487.123	10374.9
1491.777	10400.9
1496.426	10509.9
1501.071	10653.9
1505.711	10820.9
1510.347	11021.9
1514.978	11199.9
1519.604	11307.9
1524.226	11395.9
1528.844	11469.9
1533.457	11436.9
1538.065	11313.9
1542.669	11261.9
1547.269	11185.9
1551.864	11089.9
1556.454	11042.9
1561.041	11014.9
1565.622	11011.9
1570.199	10980.9
1574.772	11017.9
1579.34	11085.9
1583.904	11196.9
1588.464	11183.9
1593.019	11207.9
1597.569	11184.9
1602.115	11106.9
1606.657	10981.9
1611.195	10986.9
1615.728	10898.9
1620.256	10806.9
1624.78	10793.9
1629.3	10817.9
1633.816	10865.9
1638.327	10925.9
1642.834	10924.9
1647.336	11048.9
1651.834	11044.9
1656.328	11023.9
1660.817	10984.9
1665.302	10853.9
1669.783	10698.9
1674.259	10496.9
1678.732	10207.9
1683.199	9894.9
1687.663	9543.9
1692.122	9322.9
1696.577	9189.9
1701.028	9191.9
1705.474	9322.9
1709.917	9407.9
1714.355	9432.9
1718.788	9400.9
1723.218	9193.9
1727.643	9017.9
1732.064	8868.9
1736.481	8666.9
1740.893	8402.9
1745.301	8217.9
1749.705	8018.9
1754.105	7756.9
1758.501	7525.9
1762.893	7312.9
1767.28	7136.9
1771.663	6972.9
1776.042	6898.9
1780.417	6867.9
1784.787	6864.9
1789.154	7012.9
1793.516	7126.9
1797.874	7256.9
1802.228	7355.9
1806.578	7428.9
1810.924	7446.9
1815.266	7373.9
1819.603	7237.9
1823.937	7126.9
1828.266	7020.9
1832.591	6873.9
1836.913	6785.9
1841.23	6740.9
1845.543	6676.9
1849.852	6688.9
1854.156	6611.9
1858.457	6614.9
1862.754	6620.9
1867.047	6603.9
1871.335	6579.9
1875.62	6572.9
1879.9	6549.9
1884.177	6540.9
1888.449	6444.9
1892.718	6392.9
1896.982	6344.9
1901.243	6334.9
1905.499	6259.9
1909.752	6244.9
1914	6262.9
1918.245	6320.9
1922.485	6369.9
1926.722	6449.9
1930.954	6494.9
1935.183	6552.9
1939.408	6660.9
1943.628	6677.9
1947.845	6686.9
1952.058	6671.9
1956.267	6602.9
1960.472	6497.9
1964.673	6408.9
1968.87	6296.9
1973.063	6191.9
1977.252	6116.9
1981.438	6038.9
1985.619	5980.9
1989.797	5911.9
1993.971	5907.9
1998.14	5855.9
2002.306	5798.9
2006.469	5815.9
2010.627	5787.9
2014.781	5713.9
2018.932	5696.9
2023.078	5648.9
2027.221	5538.9
2031.36	5481.9
2035.495	5394.9
2039.627	5294.9
2043.754	5248.9
2047.878	5215.9
2051.998	5178.9
2056.114	5179.9
2060.226	5152.9
2064.334	5173.9
2068.439	5173.9
2072.54	5210.9
2076.637	5253.9
2080.73	5312.9
2084.82	5357.9
2088.906	5389.9
2092.988	5358.9
2097.066	5326.9
2101.14	5304.9
2105.211	5282.9
2109.278	5253.9
2113.342	5208.9
2117.401	5177.9
2121.457	5145.9
2125.509	5130.9
2129.558	5089.9
2133.602	5052.9
2137.643	5059.9
2141.681	4989.9
2145.714	4985.9
2149.744	4925.9
2153.77	4879.9
2157.793	4862.9
2161.812	4740.9
2165.827	4701.9
2169.838	4627.9
2173.846	4548.9
2177.851	4480.9
2181.851	4402.9
2185.848	4354.9
2189.841	4306.9
2193.831	4261.9
2197.817	4225.9
2201.799	4193.9
2205.778	4208.9
2209.753	4169.9
2213.725	4155.9
2217.693	4141.9
2221.657	4161.9
2225.618	4129.9
2229.575	4087.9
2233.529	4059.9
2237.479	4049.9
2241.425	3998.9
2245.368	3938.9
2249.307	3878.9
2253.243	3825.9
2257.175	3761.9
2261.104	3701.9
2265.029	3684.9
2268.95	3620.9
2272.868	3601.9
2276.783	3550.9
2280.694	3540.9
2284.601	3488.9
2288.505	3439.9
2292.405	3415.9
2296.302	3380.9
2300.195	3363.9
2304.085	3328.9
2307.971	3262.9
2311.854	3229.9
2315.734	3141.9
2319.609	3122.9
2323.482	3056.9
2327.351	3029.9
2331.216	3014.9
2335.078	3013.9
2338.937	2986.9
2342.792	2949.9
2346.643	2964.9
2350.492	2950.9
2354.336	2957.9
2358.178	2941.9
2362.015	2961.9
2365.85	2974.9
2369.681	2976.9
2373.508	2960.9
2377.333	2935.9
2381.153	2936.9
2384.971	2927.9
2388.785	2920.9
2392.595	2869.9
2396.402	2844.9
2400.206	2831.9
2404.007	2809.9
2407.804	2766.9
2411.597	2768.9
2415.388	2765.9
2419.174	2753.9
2422.958	2719.9
2426.738	2721.9
2430.515	2687.9
2434.289	2657.9
2438.059	2624.9
2441.825	2614.9
2445.589	2572.9
2449.349	2552.9
2453.106	2532.9
2456.859	2495.9
2460.61	2463.9
2464.356	2438.9
2468.1	2399.9
2471.84	2420.9
2475.577	2353.9
2479.311	2358.9
2483.041	2350.9
2486.768	2333.9
2490.492	2313.9
2494.213	2310.9
2497.93	2311.9
2501.644	2310.9
2505.355	2302.9
2509.062	2281.9
2512.766	2280.9
2516.467	2260.9
2520.165	2244.9
2523.859	2236.9
2527.551	2225.9
2531.239	2202.9
2534.923	2213.9
2538.605	2197.9
2542.283	2197.9
2545.958	2208.9
2549.63	2198.9
2553.299	2214.9
2556.964	2195.9
2560.626	2174.9
2564.285	2170.9
2567.941	2155.9
2571.594	2149.9
2575.243	2120.9
2578.89	2120.9
2582.533	2087.9
2586.173	2083.9
2589.809	2034.9
2593.443	2024.9
2597.073	2025.9
2600.701	1997.9
2604.325	2007.9
2607.946	1992.9
2611.564	1949.9
2615.178	1964.9
2618.79	1937.9
2622.398	1924.9
2626.004	1900.9
2629.606	1859.9
2633.205	1864.9
2636.801	1805.9
2640.394	1803.9
2643.983	1770.9
2647.57	1735.9
2651.153	1723.9
2654.734	1697.9
2658.311	1656.9
2661.885	1631.9
2665.456	1614.9
2669.025	1599.9
2672.589	1579.9
2676.151	1545.9
2679.71	1540.9
2683.266	1522.9
2686.819	1484.9
2690.368	1445.9
2693.915	1429.9
2697.458	1395.9
2700.999	1362.9
2704.536	1336.9
2708.071	1305.9
2711.602	1300.9
2715.13	1259.9
2718.656	1225.9
2722.178	1211.9
2725.697	1196.9
2729.214	1185.9
2732.727	1189.9
2736.237	1180.9
2739.744	1170.9
2743.249	1200.9
2746.75	1217.9
2750.248	1211.9
2753.743	1206.9
2757.236	1242.9
2760.725	1269.9
2764.211	1268.9
2767.695	1255.9
2771.175	1249.9
2774.652	1268.9
2778.127	1226.9
2781.598	1239.9
2785.067	1233.9
2788.532	1233.9
2791.995	1213.9
2795.455	1219.9
2798.911	1214.9
2802.365	1227.9
2805.816	1216.9
2809.264	1207.9
2812.709	1205.9
2816.151	1210.9
2819.59	1213.9
2823.026	1198.9
2826.46	1211.9
2829.89	1197.9
2833.318	1203.9
2836.742	1218.9
2840.164	1241.9
2843.583	1224.9
2846.999	1231.9
2850.412	1257.9
2853.822	1246.9
2857.229	1274.9
2860.634	1313.9
2864.035	1318.9
2867.434	1329.9
2870.83	1361.9
2874.223	1370.9
2877.613	1406.9
2881	1413.9
2884.385	1398.9
2887.766	1400.9
2891.145	1396.9
2894.521	1399.9
2897.894	1401.9
2901.264	1390.9
2904.631	1378.9
2907.996	1376.9
2911.358	1389.9
2914.717	1406.9
2918.073	1414.9
2921.426	1435.9
2924.777	1428.9
2928.124	1452.9
2931.469	1477.9
2934.811	1501.9
2938.15	1494.9
2941.487	1532.9
2944.821	1536.9
2948.152	1532.9
2951.48	1526.9
2954.805	1498.9
2958.128	1485.9
2961.447	1496.9
2964.765	1469.9
2968.079	1492.9
2971.39	1510.9
2974.699	1528.9
2978.005	1536.9
2981.308	1556.9
2984.609	1558.9
2987.907	1625.9
2991.202	1612.9
2994.494	1687.9
2997.784	1719.9
3001.07	1745.9
3004.355	1767.9
3007.636	1790.9
3010.915	1820.9
3014.191	1810.9
3017.464	1800.9
3020.734	1826.9
3024.002	1857.9
3027.267	1851.9
3030.53	1867.9
3033.789	1877.9
3037.046	1918.9
3040.301	1930.9
3043.552	1972.9
3046.801	2000.9
3050.048	2048.9
3053.291	2096.9
3056.532	2147.9
3059.771	2193.9
3063.006	2278.9
3066.239	2352.9
3069.469	2423.9
3072.697	2473.9
3075.922	2522.9
3079.144	2575.9
3082.364	2628.9
3085.581	2695.9
3088.795	2747.9
3092.007	2810.9
3095.216	2867.9
3098.423	2913.9
3101.627	3007.9
3104.828	3051.9
3108.026	3129.9
3111.222	3183.9
3114.416	3259.9
3117.607	3332.9
3120.795	3424.9
3123.98	3465.9
3127.163	3595.9
3130.344	3662.9
3133.521	3743.9
3136.696	3821.9
3139.869	3880.9
3143.039	3956.9
3146.206	4015.9
3149.371	4060.9
3152.533	4107.9
3155.693	4097.9
3158.85	4134.9
3162.005	4145.9
3165.157	4206.9
3168.306	4220.9
3171.453	4196.9
3174.597	4211.9
3177.739	4208.9
3180.878	4228.9
3184.014	4217.9
3187.149	4215.9
3190.28	4252.9
3193.409	4249.9
3196.536	4221.9
3199.659	4229.9
3202.781	4256.9
3205.9	4238.9
3209.016	4258.9
3212.13	4201.9
3215.241	4205.9
3218.35	4143.9
3221.456	4128.9
3224.56	4068.9
3227.661	4016.9
3230.76	3999.9
3233.856	3935.9
3236.95	3917.9
3240.041	3864.9
3243.13	3868.9
3246.216	3816.9
3249.3	3826.9
3252.382	3802.9
3255.46	3815.9
3258.537	3736.9
3261.611	3774.9
3264.682	3765.9
3267.751	3758.9
3270.818	3727.9
3273.882	3732.9
3276.943	3712.9
3280.002	3682.9
3283.059	3642.9
3286.113	3613.9
3289.165	3559.9
3292.214	3480.9
3295.261	3460.9
3298.306	3379.9
3301.348	3346.9
3304.387	3288.9
3307.425	3238.9
3310.459	3181.9
3313.492	3134.9
3316.521	3075.9
3319.549	3052.9
3322.574	3024.9
3325.597	2995.9
3328.617	2979.9
3331.635	2942.9
3334.65	2942.9
3337.663	2931.9
3340.674	2883.9
3343.682	2902.9
3346.688	2875.9
3349.691	2871.9
3352.692	2855.9
3355.691	2821.9
3358.687	2827.9
3361.681	2782.9
3364.673	2747.9
3367.662	2717.9
3370.649	2684.9
3373.633	2624.9
3376.615	2614.9
3379.595	2546.9
3382.572	2517.9
3385.547	2466.9
3388.52	2461.9
3391.49	2404.9
3394.458	2370.9
3397.424	2332.9
3400.387	2298.9
3403.348	2287.9
3406.307	2255.9
3409.263	2229.9
3412.217	2209.9
3415.168	2180.9
3418.118	2154.9
3421.065	2126.9
3424.009	2082.9
3426.951	2058.9
3429.891	2028.9
3432.829	1981.9
3435.764	1938.9
3438.697	1884.9
3441.628	1832.9
3444.557	1800.9
3447.483	1737.9
3450.407	1652.9
3453.328	1618.9
3456.247	1575.9
3459.164	1525.9
3462.079	1457.9
3464.991	1400.9
3467.902	1354.9
3470.809	1310.9
3473.715	1255.9
3476.618	1209.9
3479.519	1182.9
3482.418	1127.9
3485.315	1088.9
3488.209	1047.9
3491.101	1004.9
3493.99	980.9
3496.878	941.9
3499.763	912.9
3502.646	872.9
3505.527	818.9
3508.405	794.9
3511.281	757.9
3514.155	699.9
3517.027	661.9
3519.897	622.9
3522.764	574.9
3525.629	534.9
3528.492	468.9
3531.352	451.9
3534.211	401.9
3537.067	363.9
3539.921	327.9
3542.773	290.9
3545.622	247.9
3548.469	224.9
3551.315	206.9
3554.157	164.9
3556.998	144.9
3559.837	117.9
3562.673	94.9
3565.507	68.9
3568.339	41.9
3571.169	34.9
3573.996	1.9
3576.822	-13.1
3579.645	-31.1
3582.466	-67.1
3585.285	-76.1
3588.101	-108.1
3590.916	-112.1
3593.728	-152.1
3596.538	-157.1
3599.346	-176.1
3602.152	-194.1
3604.956	-210.1
3607.757	-233.1
3610.556	-237.1
3613.354	-257.1
3616.149	-272.1
3618.942	-282.1
3621.732	-296.1
3624.521	-309.1
3627.307	-320.1
3630.092	-326.1
3632.874	-348.1
3635.654	-356.1
3638.432	-359.1
3641.208	-370.1
3643.982	-380.1
3646.753	-384.1
3649.523	-398.1
3652.29	-397.1
3655.055	-412.1
3657.818	-429.1
3660.579	-441.1
3663.338	-452.1
3666.095	-453.1
3668.849	-471.1
3671.602	-481.1
3674.352	-484.1
3677.101	-490.1
3679.847	-505.1
3682.591	-506.1
3685.333	-510.1
3688.073	-512.1
3690.811	-521.1
3693.547	-522.1
3696.281	-531.1
3699.013	-534.1
3701.742	-536.1
3704.47	-549.1
3707.195	-552.1
3709.919	-558.1
3712.64	-552.1
3715.359	-562.1
3718.076	-567.1
3720.792	-569.1
3723.505	-572.1
3726.216	-575.1
3728.925	-575.1
3731.632	-585.1
3734.336	-587.1
3737.039	-589.1
3739.74	-592.1
3742.439	-596.1
3745.136	-594.1
3747.83	-598.1
3750.523	-602.1
3753.213	-597.1
3755.902	-608.1
3758.589	-604.1
3761.273	-608.1
3763.956	-615.1
3766.636	-613.1
3769.315	-620.1
3771.991	-616.1
3774.665	-625.1
3777.338	-621.1
3780.008	-622.1
3782.677	-622.1
3785.343	-623.1
3788.007	-625.1
3790.67	-622.1
3793.33	-631.1
3795.989	-630.1
3798.645	-626.1
3801.299	-626.1
3803.952	-637.1
3806.602	-643.1
3809.251	-642.1
3811.897	-640.1
3814.542	-637.1
3817.184	-634.1
3819.825	-632.1
3822.463	-629.1
3825.1	-643.1
3827.735	-632.1
3830.367	-635.1
3832.998	-649.1
3835.627	-653.1
3838.253	-649.1
3840.878	-648.1
3843.501	-649.1
3846.122	-644.1
3848.741	-649.1
3851.358	-644.1
3853.973	-647.1
3856.586	-649.1
3859.197	-650.1
3861.806	-648.1
3864.414	-648.1
3867.019	-649.1
3869.622	-651.1
3872.224	-642.1
3874.823	-629.1
3877.421	-616.1
3880.016	-600.1
3882.61	-580.1
3885.202	-582.1
3887.792	-594.1
3890.38	-625.1
3892.966	-640.1
3895.55	-646.1
3898.132	-661.1
3900.713	-669.1
3903.291	-659.1
3905.868	-666.1
3908.442	-663.1
3911.015	-666.1
3913.586	-656.1
3916.155	-656.1
3918.722	-671.1
3921.287	-662.1
3923.85	-672.1
3926.411	-670.1
3928.971	-672.1
3931.528	-669.1
3934.084	-664.1
3936.638	-662.1
3939.19	-670.1
3941.74	-664.1
3944.288	-667.1
3946.834	-661.1
3949.378	-667.1
3951.921	-671.1
3954.462	-672.1
3957	-668.1
3959.537	-664.1
3962.072	-671.1
3964.606	-670.1
3967.137	-669.1
3969.667	-675.1
3972.194	-658.1
3974.72	-662.1
3977.244	-657.1
3979.766	-656.1
3982.286	-659.1
3984.805	-657.1
3987.321	-653.1
3989.836	-654.1
3992.349	-651.1
3994.86	-649.1
3997.369	-656.1
3999.877	-654.1
4002.382	-653.1
4004.886	-655.1
4007.388	-645.1
4009.888	-653.1
4012.386	-657.1
4014.883	-650.1
4017.377	-650.1
4019.87	-650.1
4022.361	-647.1
4024.85	-651.1
4027.338	-657.1
4029.823	-654.1
4032.307	-660.1
4034.789	-653.1
4037.269	-649.1
4039.747	-654.1
4042.224	-657.1
4044.699	-659.1
4047.172	-660.1
4049.643	-652.1
4052.112	-655.1
4054.58	-660.1
4057.046	-661.1
4059.51	-655.1
4061.972	-658.1
4064.432	-656.1
4066.891	-654.1
4069.348	-657.1
4071.803	-650.1
4074.256	-649.1
4076.708	-649.1
4079.158	-654.1
4081.606	-660.1
4084.052	-662.1
4086.497	-658.1
4088.939	-649.1
4091.38	-653.1
4093.819	-651.1
4096.257	-687.1
4098.693	-692.1
4101.127	-697.1
4103.559	-691.1
4105.989	-410.1
4108.418	-385.1
4110.845	-352.1
4113.27	-321.1
4115.694	-284.1
4118.115	-237.1
4120.535	-651.1
4122.954	-656.1
4125.37	-643.1
4127.785	-652.1
4130.198	-657.1
4132.609	-659.1
4135.019	-693.1
4137.427	-691.1
4139.833	-694.1
4142.237	-685.1
