Data from 2018-2-14_conc=0_n=4_RamanShift_01.txt Node
Date: Wed Feb 14 10:35:56 IST 2018
User: aro
Spectrometer: QEPB0276
Trigger mode: 0
Integration Time (sec): 3.000000E1
Scans to average: 1
Electric dark correction enabled: true
Nonlinearity correction enabled: false
Boxcar width: 0
XAxis mode: Raman Shifts
Number of Pixels in Spectrum: 1044
>>>>>Begin Spectral Data<<<<<
160.701	-147
166.742	56
172.777	548
178.805	2132
184.826	5895
190.841	12311
196.849	19656
202.85	24902
208.845	26502
214.833	26195
220.815	25656
226.789	25461
232.758	25324
238.719	25060
244.674	24710
250.623	24140
256.565	23663
262.5	23140
268.429	22653
274.351	22297
280.267	22040
286.176	21713
292.079	21457
297.975	21238
303.865	21077
309.748	20866
315.625	20712
321.495	20573
327.359	20529
333.217	20416
339.068	20450
344.912	20413
350.751	20322
356.583	20320
362.408	20296
368.227	20337
374.04	20328
379.847	20390
385.647	20462
391.44	20524
397.228	20627
403.009	20746
408.784	20782
414.553	20827
420.315	20863
426.071	20904
431.821	20861
437.565	20852
443.302	20792
449.033	20806
454.758	20764
460.477	20673
466.189	20599
471.896	20537
477.596	20587
483.29	20436
488.978	20463
494.66	20391
500.335	20272
506.005	20062
511.668	19847
517.325	19576
522.977	19385
528.622	19296
534.261	19152
539.894	19046
545.521	18924
551.141	18917
556.756	18827
562.365	18765
567.968	18658
573.565	18655
579.155	18539
584.74	18470
590.319	18379
595.892	18322
601.459	18268
607.02	18189
612.575	18032
618.124	17933
623.667	17857
629.204	17723
634.735	17667
640.261	17616
645.781	17601
651.294	17493
656.802	17517
662.304	17462
667.8	17456
673.29	17366
678.775	17340
684.254	17255
689.726	17236
695.193	17178
700.655	17106
706.11	17041
711.56	16954
717.004	16849
722.442	16815
727.874	16726
733.301	16640
738.722	16648
744.137	16634
749.547	16602
754.951	16578
760.349	16599
765.741	16583
771.128	16637
776.509	16630
781.885	16617
787.254	16514
792.618	16497
797.977	16434
803.33	16271
808.677	16245
814.019	16095
819.355	16033
824.686	15945
830.011	15908
835.33	15893
840.644	15959
845.952	15953
851.255	16006
856.552	15994
861.844	15944
867.13	15929
872.41	15848
877.686	15788
882.955	15703
888.219	15530
893.478	15369
898.731	15200
903.979	15036
909.221	14915
914.458	14874
919.69	14839
924.916	14907
930.136	14950
935.351	14951
940.561	14991
945.766	14899
950.965	14863
956.158	14748
961.347	14592
966.529	14369
971.707	14225
976.879	14088
982.046	13949
987.208	13900
992.364	13915
997.515	14045
1002.66	14145
1007.801	14255
1012.936	14377
1018.066	14411
1023.19	14376
1028.309	14445
1033.423	14368
1038.532	14309
1043.636	14169
1048.734	14011
1053.827	13787
1058.915	13671
1063.998	13568
1069.075	13565
1074.147	13574
1079.214	13622
1084.276	13684
1089.333	13794
1094.385	13853
1099.431	13884
1104.472	13883
1109.509	13794
1114.54	13599
1119.565	13466
1124.586	13304
1129.602	13169
1134.613	13096
1139.618	12993
1144.619	12947
1149.614	12965
1154.604	13009
1159.589	13047
1164.57	13048
1169.545	13083
1174.515	13054
1179.48	13009
1184.44	12922
1189.395	12856
1194.345	12748
1199.29	12662
1204.23	12709
1209.165	12711
1214.095	12771
1219.021	12838
1223.941	12899
1228.856	12972
1233.766	13025
1238.672	13069
1243.572	12999
1248.467	12993
1253.358	12810
1258.244	12656
1263.124	12441
1268	12254
1272.871	12076
1277.737	12041
1282.599	11951
1287.455	11952
1292.306	11987
1297.153	12032
1301.995	12091
1306.832	12141
1311.664	12148
1316.491	12082
1321.314	12002
1326.132	11839
1330.945	11605
1335.753	11304
1340.556	11033
1345.354	10828
1350.148	10630
1354.937	10560
1359.722	10580
1364.501	10658
1369.276	10699
1374.046	10892
1378.811	11021
1383.572	11117
1388.327	11211
1393.079	11152
1397.825	11014
1402.567	10837
1407.304	10682
1412.036	10560
1416.764	10496
1421.487	10434
1426.205	10403
1430.919	10361
1435.628	10387
1440.333	10384
1445.032	10353
1449.727	10444
1454.418	10421
1459.104	10299
1463.785	10106
1468.462	9941
1473.134	9680
1477.802	9545
1482.465	9396
1487.123	9318
1491.777	9282
1496.426	9285
1501.071	9400
1505.711	9558
1510.347	9764
1514.978	9932
1519.604	10049
1524.226	10151
1528.844	10164
1533.457	10118
1538.065	10064
1542.669	10009
1547.269	9941
1551.864	9874
1556.454	9814
1561.041	9829
1565.622	9768
1570.199	9737
1574.772	9852
1579.34	9936
1583.904	9953
1588.464	10014
1593.019	10022
1597.569	9998
1602.115	9962
1606.657	9898
1611.195	9857
1615.728	9738
1620.256	9730
1624.78	9723
1629.3	9709
1633.816	9795
1638.327	9794
1642.834	9884
1647.336	9910
1651.834	9982
1656.328	9945
1660.817	9910
1665.302	9824
1669.783	9666
1674.259	9403
1678.732	9174
1683.199	8879
1687.663	8573
1692.122	8320
1696.577	8167
1701.028	8134
1705.474	8193
1709.917	8283
1714.355	8359
1718.788	8278
1723.218	8137
1727.643	7981
1732.064	7834
1736.481	7632
1740.893	7468
1745.301	7276
1749.705	7065
1754.105	6855
1758.501	6687
1762.893	6514
1767.28	6355
1771.663	6200
1776.042	6104
1780.417	6036
1784.787	6051
1789.154	6079
1793.516	6226
1797.874	6375
1802.228	6424
1806.578	6527
1810.924	6537
1815.266	6500
1819.603	6374
1823.937	6273
1828.266	6143
1832.591	6084
1836.913	5974
1841.23	5933
1845.543	5875
1849.852	5868
1854.156	5834
1858.457	5838
1862.754	5833
1867.047	5800
1871.335	5816
1875.62	5797
1879.9	5818
1884.177	5778
1888.449	5732
1892.718	5666
1896.982	5563
1901.243	5565
1905.499	5492
1909.752	5493
1914	5513
1918.245	5520
1922.485	5554
1926.722	5614
1930.954	5694
1935.183	5767
1939.408	5795
1943.628	5834
1947.845	5847
1952.058	5835
1956.267	5783
1960.472	5707
1964.673	5647
1968.87	5561
1973.063	5473
1977.252	5369
1981.438	5329
1985.619	5259
1989.797	5237
1993.971	5187
1998.14	5170
2002.306	5131
2006.469	5152
2010.627	5078
2014.781	5051
2018.932	5009
2023.078	4980
2027.221	4929
2031.36	4860
2035.495	4752
2039.627	4704
2043.754	4654
2047.878	4597
2051.998	4582
2056.114	4599
2060.226	4546
2064.334	4565
2068.439	4586
2072.54	4603
2076.637	4629
2080.73	4697
2084.82	4727
2088.906	4759
2092.988	4750
2097.066	4708
2101.14	4682
2105.211	4661
2109.278	4646
2113.342	4625
2117.401	4553
2121.457	4550
2125.509	4537
2129.558	4483
2133.602	4499
2137.643	4426
2141.681	4412
2145.714	4414
2149.744	4371
2153.77	4344
2157.793	4317
2161.812	4238
2165.827	4165
2169.838	4112
2173.846	4062
2177.851	3975
2181.851	3920
2185.848	3857
2189.841	3809
2193.831	3818
2197.817	3756
2201.799	3751
2205.778	3733
2209.753	3717
2213.725	3694
2217.693	3681
2221.657	3714
2225.618	3693
2229.575	3683
2233.529	3611
2237.479	3587
2241.425	3549
2245.368	3521
2249.307	3429
2253.243	3397
2257.175	3360
2261.104	3326
2265.029	3269
2268.95	3254
2272.868	3205
2276.783	3200
2280.694	3168
2284.601	3118
2288.505	3101
2292.405	3064
2296.302	3031
2300.195	3002
2304.085	2976
2307.971	2904
2311.854	2904
2315.734	2837
2319.609	2774
2323.482	2751
2327.351	2717
2331.216	2708
2335.078	2712
2338.937	2674
2342.792	2651
2346.643	2641
2350.492	2648
2354.336	2649
2358.178	2664
2362.015	2661
2365.85	2689
2369.681	2669
2373.508	2686
2377.333	2675
2381.153	2654
2384.971	2641
2388.785	2640
2392.595	2601
2396.402	2596
2400.206	2567
2404.007	2553
2407.804	2532
2411.597	2516
2415.388	2506
2419.174	2505
2422.958	2462
2426.738	2447
2430.515	2429
2434.289	2401
2438.059	2396
2441.825	2384
2445.589	2340
2449.349	2312
2453.106	2311
2456.859	2273
2460.61	2260
2464.356	2226
2468.1	2198
2471.84	2154
2475.577	2133
2479.311	2140
2483.041	2133
2486.768	2126
2490.492	2130
2494.213	2118
2497.93	2098
2501.644	2073
2505.355	2082
2509.062	2081
2512.766	2067
2516.467	2048
2520.165	2046
2523.859	1997
2527.551	2017
2531.239	2009
2534.923	1990
2538.605	1956
2542.283	1974
2545.958	1973
2549.63	1957
2553.299	1962
2556.964	1964
2560.626	1958
2564.285	1957
2567.941	1931
2571.594	1935
2575.243	1916
2578.89	1884
2582.533	1890
2586.173	1865
2589.809	1871
2593.443	1847
2597.073	1817
2600.701	1801
2604.325	1812
2607.946	1800
2611.564	1784
2615.178	1761
2618.79	1761
2622.398	1730
2626.004	1714
2629.606	1688
2633.205	1683
2636.801	1657
2640.394	1630
2643.983	1608
2647.57	1595
2651.153	1566
2654.734	1540
2658.311	1497
2661.885	1485
2665.456	1474
2669.025	1446
2672.589	1434
2676.151	1432
2679.71	1401
2683.266	1386
2686.819	1354
2690.368	1336
2693.915	1306
2697.458	1281
2700.999	1248
2704.536	1211
2708.071	1182
2711.602	1165
2715.13	1148
2718.656	1126
2722.178	1108
2725.697	1091
2729.214	1071
2732.727	1084
2736.237	1069
2739.744	1027
2743.249	1065
2746.75	1087
2750.248	1084
2753.743	1106
2757.236	1110
2760.725	1130
2764.211	1137
2767.695	1134
2771.175	1140
2774.652	1137
2778.127	1121
2781.598	1107
2785.067	1094
2788.532	1117
2791.995	1082
2795.455	1091
2798.911	1095
2802.365	1105
2805.816	1092
2809.264	1087
2812.709	1092
2816.151	1093
2819.59	1096
2823.026	1101
2826.46	1093
2829.89	1107
2833.318	1114
2836.742	1103
2840.164	1105
2843.583	1127
2846.999	1129
2850.412	1135
2853.822	1158
2857.229	1162
2860.634	1186
2864.035	1205
2867.434	1213
2870.83	1245
2874.223	1272
2877.613	1287
2881	1294
2884.385	1295
2887.766	1290
2891.145	1309
2894.521	1301
2897.894	1301
2901.264	1296
2904.631	1296
2907.996	1309
2911.358	1308
2914.717	1304
2918.073	1346
2921.426	1315
2924.777	1357
2928.124	1358
2931.469	1386
2934.811	1406
2938.15	1432
2941.487	1443
2944.821	1445
2948.152	1437
2951.48	1446
2954.805	1411
2958.128	1411
2961.447	1391
2964.765	1399
2968.079	1400
2971.39	1421
2974.699	1448
2978.005	1462
2981.308	1464
2984.609	1511
2987.907	1504
2991.202	1527
2994.494	1592
2997.784	1625
3001.07	1639
3004.355	1662
3007.636	1690
3010.915	1728
3014.191	1709
3017.464	1716
3020.734	1758
3024.002	1740
3027.267	1756
3030.53	1780
3033.789	1797
3037.046	1822
3040.301	1838
3043.552	1876
3046.801	1909
3050.048	1955
3053.291	1999
3056.532	2039
3059.771	2109
3063.006	2185
3066.239	2246
3069.469	2307
3072.697	2383
3075.922	2416
3079.144	2476
3082.364	2524
3085.581	2571
3088.795	2630
3092.007	2677
3095.216	2753
3098.423	2796
3101.627	2870
3104.828	2932
3108.026	2998
3111.222	3045
3114.416	3115
3117.607	3209
3120.795	3264
3123.98	3357
3127.163	3431
3130.344	3486
3133.521	3570
3136.696	3661
3139.869	3726
3143.039	3796
3146.206	3855
3149.371	3898
3152.533	3934
3155.693	3952
3158.85	3975
3162.005	3987
3165.157	3997
3168.306	4032
3171.453	4020
3174.597	4046
3177.739	4065
3180.878	4044
3184.014	4345
3187.149	4083
3190.28	4073
3193.409	4043
3196.536	4211
3199.659	4088
3202.781	4085
3205.9	4088
3209.016	4074
3212.13	4044
3215.241	4016
3218.35	4010
3221.456	3934
3224.56	3894
3227.661	3862
3230.76	3786
3233.856	3764
3236.95	3716
3240.041	3716
3243.13	3669
3246.216	3630
3249.3	3626
3252.382	3607
3255.46	3601
3258.537	3587
3261.611	3607
3264.682	3583
3267.751	3584
3270.818	3587
3273.882	3579
3276.943	3528
3280.002	3542
3283.059	3515
3286.113	3437
3289.165	3398
3292.214	3367
3295.261	3318
3298.306	3261
3301.348	3180
3304.387	3135
3307.425	3128
3310.459	3057
3313.492	3005
3316.521	2970
3319.549	2940
3322.574	2912
3325.597	2888
3328.617	2873
3331.635	2825
3334.65	2833
3337.663	2824
3340.674	2779
3343.682	2762
3346.688	2774
3349.691	2758
3352.692	2751
3355.691	2709
3358.687	2703
3361.681	2671
3364.673	2621
3367.662	2572
3370.649	2566
3373.633	2518
3376.615	2497
3379.595	2454
3382.572	2400
3385.547	2355
3388.52	2354
3391.49	2298
3394.458	2289
3397.424	2241
3400.387	2207
3403.348	2165
3406.307	2173
3409.263	2140
3412.217	2121
3415.168	2085
3418.118	2067
3421.065	2035
3424.009	2009
3426.951	1985
3429.891	1953
3432.829	1892
3435.764	1858
3438.697	1819
3441.628	1774
3444.557	1729
3447.483	1660
3450.407	1615
3453.328	1564
3456.247	1492
3459.164	1441
3462.079	1389
3464.991	1354
3467.902	1284
3470.809	1231
3473.715	1208
3476.618	1162
3479.519	1119
3482.418	1099
3485.315	1060
3488.209	1027
3491.101	972
3493.99	945
3496.878	913
3499.763	876
3502.646	835
3505.527	811
3508.405	777
3511.281	712
3514.155	670
3517.027	657
3519.897	589
3522.764	563
3525.629	520
3528.492	482
3531.352	451
3534.211	405
3537.067	376
3539.921	337
3542.773	295
3545.622	271
3548.469	233
3551.315	215
3554.157	175
3556.998	151
3559.837	132
3562.673	112
3565.507	85
3568.339	61
3571.169	28
3573.996	24
3576.822	1
3579.645	-12
3582.466	-38
3585.285	-57
3588.101	-86
3590.916	-99
3593.728	-131
3596.538	-136
3599.346	-160
3602.152	-181
3604.956	-193
3607.757	-206
3610.556	-222
3613.354	-225
3616.149	-243
3618.942	-255
3621.732	-268
3624.521	-283
3627.307	-288
3630.092	-294
3632.874	-314
3635.654	-326
3638.432	-328
3641.208	-339
3643.982	-351
3646.753	-352
3649.523	-366
3652.29	-363
3655.055	-379
3657.818	-390
3660.579	-398
3663.338	-414
3666.095	-423
3668.849	-434
3671.602	-437
3674.352	-454
3677.101	-450
3679.847	-462
3682.591	-465
3685.333	-471
3688.073	-480
3690.811	-485
3693.547	-491
3696.281	-494
3699.013	-496
3701.742	-505
3704.47	-504
3707.195	-518
3709.919	-510
3712.64	-519
3715.359	-518
3718.076	-528
3720.792	-533
3723.505	-532
3726.216	-542
3728.925	-535
3731.632	-545
3734.336	-543
3737.039	-552
3739.74	-541
3742.439	-552
3745.136	-553
3747.83	-556
3750.523	-561
3753.213	-553
3755.902	-565
3758.589	-567
3761.273	-572
3763.956	-574
3766.636	-570
3769.315	-571
3771.991	-574
3774.665	-579
3777.338	-575
3780.008	-582
3782.677	-582
3785.343	-583
3788.007	-585
3790.67	-582
3793.33	-588
3795.989	-589
3798.645	-586
3801.299	-584
3803.952	-594
3806.602	-593
3809.251	-595
3811.897	-595
3814.542	-594
3817.184	-589
3819.825	-591
3822.463	-591
3825.1	-601
3827.735	-597
3830.367	-592
3832.998	-608
3835.627	-606
3838.253	-605
3840.878	-610
3843.501	-606
3846.122	-603
3848.741	-599
3851.358	-603
3853.973	-604
3856.586	-613
3859.197	-606
3861.806	-611
3864.414	-610
3867.019	-610
3869.622	-608
3872.224	-606
3874.823	-587
3877.421	-579
3880.016	-564
3882.61	-539
3885.202	-530
3887.792	-550
3890.38	-582
3892.966	-595
3895.55	-610
3898.132	-619
3900.713	-619
3903.291	-621
3905.868	-619
3908.442	-620
3911.015	-624
3913.586	-614
3916.155	-619
3918.722	-622
3921.287	-616
3923.85	-619
3926.411	-622
3928.971	-628
3931.528	-623
3934.084	-620
3936.638	-624
3939.19	-628
3941.74	-625
3944.288	-628
3946.834	-623
3949.378	-623
3951.921	-624
3954.462	-628
3957	-618
3959.537	-622
3962.072	-618
3964.606	-628
3967.137	-624
3969.667	-627
3972.194	-618
3974.72	-621
3977.244	-607
3979.766	-612
3982.286	-614
3984.805	-611
3987.321	-613
3989.836	-613
3992.349	-607
3994.86	-605
3997.369	-615
3999.877	-608
4002.382	-609
4004.886	-609
4007.388	-606
4009.888	-614
4012.386	-613
4014.883	-609
4017.377	-602
4019.87	-610
4022.361	-612
4024.85	-608
4027.338	-610
4029.823	-615
4032.307	-615
4034.789	-612
4037.269	-609
4039.747	-616
4042.224	-617
4044.699	-619
4047.172	-612
4049.643	-616
4052.112	-617
4054.58	-616
4057.046	-614
4059.51	-615
4061.972	-615
4064.432	-610
4066.891	-612
4069.348	-620
4071.803	-612
4074.256	-613
4076.708	-614
4079.158	-609
4081.606	-619
4084.052	-619
4086.497	-616
4088.939	-610
4091.38	-612
4093.819	-607
4096.257	-643
4098.693	-644
4101.127	-650
4103.559	-644
4105.989	-375
4108.418	-361
4110.845	-334
4113.27	-314
4115.694	-278
4118.115	-225
4120.535	-612
4122.954	-609
4125.37	-603
4127.785	-610
4130.198	-611
4132.609	-620
4135.019	-648
4137.427	-647
4139.833	-650
4142.237	-644
