Data from 2018-2-14_conc=3_n=2_RamanShift_04.txt Node
Date: Wed Feb 14 11:46:56 IST 2018
User: aro
Spectrometer: QEPB0276
Trigger mode: 0
Integration Time (sec): 3.000000E1
Scans to average: 1
Electric dark correction enabled: true
Nonlinearity correction enabled: false
Boxcar width: 0
XAxis mode: Raman Shifts
Number of Pixels in Spectrum: 1044
>>>>>Begin Spectral Data<<<<<
160.701	-128.8
166.742	47.2
172.777	524.2
178.805	1995.2
184.826	5492.2
190.841	11456.2
196.849	18429.2
202.85	23417.2
208.845	25060.2
214.833	24840.2
220.815	24434.2
226.789	24277.2
232.758	24208.2
238.719	24020.2
244.674	23673.2
250.623	23325.2
256.565	22800.2
262.5	22397.2
268.429	21996.2
274.351	21634.2
280.267	21342.2
286.176	21165.2
292.079	20937.2
297.975	20787.2
303.865	20604.2
309.748	20470.2
315.625	20378.2
321.495	20254.2
327.359	20229.2
333.217	20165.2
339.068	20080.2
344.912	20060.2
350.751	20107.2
356.583	20075.2
362.408	20052.2
368.227	20080.2
374.04	20084.2
379.847	20110.2
385.647	20222.2
391.44	20323.2
397.228	20338.2
403.009	20454.2
408.784	20488.2
414.553	20565.2
420.315	20585.2
426.071	20637.2
431.821	20637.2
437.565	20602.2
443.302	20575.2
449.033	20487.2
454.758	20520.2
460.477	20425.2
466.189	20443.2
471.896	20359.2
477.596	20330.2
483.29	20259.2
488.978	20234.2
494.66	20150.2
500.335	19981.2
506.005	19766.2
511.668	19492.2
517.325	19201.2
522.977	19034.2
528.622	18888.2
534.261	18758.2
539.894	18625.2
545.521	18610.2
551.141	18487.2
556.756	18400.2
562.365	18340.2
567.968	18296.2
573.565	18240.2
579.155	18112.2
584.74	18075.2
590.319	18025.2
595.892	17959.2
601.459	17884.2
607.02	17798.2
612.575	17693.2
618.124	17573.2
623.667	17493.2
629.204	17409.2
634.735	17328.2
640.261	17247.2
645.781	17182.2
651.294	17142.2
656.802	17110.2
662.304	17025.2
667.8	17022.2
673.29	17010.2
678.775	16999.2
684.254	16950.2
689.726	16875.2
695.193	16758.2
700.655	16719.2
706.11	16626.2
711.56	16534.2
717.004	16491.2
722.442	16364.2
727.874	16309.2
733.301	16253.2
738.722	16243.2
744.137	16200.2
749.547	16222.2
754.951	16220.2
760.349	16192.2
765.741	16192.2
771.128	16196.2
776.509	16222.2
781.885	16247.2
787.254	16167.2
792.618	16075.2
797.977	16043.2
803.33	15873.2
808.677	15879.2
814.019	15726.2
819.355	15628.2
824.686	15591.2
830.011	15532.2
835.33	15565.2
840.644	15576.2
845.952	15600.2
851.255	15554.2
856.552	15599.2
861.844	15572.2
867.13	15506.2
872.41	15490.2
877.686	15418.2
882.955	15260.2
888.219	15081.2
893.478	14944.2
898.731	14760.2
903.979	14635.2
909.221	14520.2
914.458	14514.2
919.69	14419.2
924.916	14510.2
930.136	14522.2
935.351	14520.2
940.561	14582.2
945.766	14559.2
950.965	14469.2
956.158	14358.2
961.347	14227.2
966.529	14043.2
971.707	13850.2
976.879	13670.2
982.046	13618.2
987.208	13529.2
992.364	13530.2
997.515	13608.2
1002.66	13701.2
1007.801	13898.2
1012.936	13948.2
1018.066	13984.2
1023.19	13976.2
1028.309	13952.2
1033.423	13956.2
1038.532	13890.2
1043.636	13798.2
1048.734	13584.2
1053.827	13461.2
1058.915	13301.2
1063.998	13146.2
1069.075	13114.2
1074.147	13136.2
1079.214	13232.2
1084.276	13240.2
1089.333	13369.2
1094.385	13419.2
1099.431	13448.2
1104.472	13472.2
1109.509	13377.2
1114.54	13153.2
1119.565	13015.2
1124.586	12867.2
1129.602	12738.2
1134.613	12667.2
1139.618	12579.2
1144.619	12570.2
1149.614	12512.2
1154.604	12566.2
1159.589	12590.2
1164.57	12623.2
1169.545	12648.2
1174.515	12634.2
1179.48	12539.2
1184.44	12498.2
1189.395	12414.2
1194.345	12284.2
1199.29	12208.2
1204.23	12215.2
1209.165	12314.2
1214.095	12353.2
1219.021	12437.2
1223.941	12457.2
1228.856	12524.2
1233.766	12561.2
1238.672	12568.2
1243.572	12570.2
1248.467	12478.2
1253.358	12335.2
1258.244	12178.2
1263.124	11972.2
1268	11788.2
1272.871	11681.2
1277.737	11567.2
1282.599	11503.2
1287.455	11499.2
1292.306	11523.2
1297.153	11572.2
1301.995	11616.2
1306.832	11625.2
1311.664	11652.2
1316.491	11639.2
1321.314	11517.2
1326.132	11377.2
1330.945	11135.2
1335.753	10877.2
1340.556	10652.2
1345.354	10402.2
1350.148	10226.2
1354.937	10138.2
1359.722	10111.2
1364.501	10137.2
1369.276	10161.2
1374.046	10280.2
1378.811	10406.2
1383.572	10512.2
1388.327	10535.2
1393.079	10525.2
1397.825	10392.2
1402.567	10310.2
1407.304	10156.2
1412.036	10071.2
1416.764	10038.2
1421.487	9983.2
1426.205	9902.2
1430.919	9863.2
1435.628	9858.2
1440.333	9835.2
1445.032	9907.2
1449.727	9937.2
1454.418	9937.2
1459.104	9824.2
1463.785	9672.2
1468.462	9434.2
1473.134	9251.2
1477.802	9086.2
1482.465	8870.2
1487.123	8801.2
1491.777	8766.2
1496.426	8736.2
1501.071	8824.2
1505.711	8933.2
1510.347	9097.2
1514.978	9257.2
1519.604	9340.2
1524.226	9416.2
1528.844	9494.2
1533.457	9446.2
1538.065	9451.2
1542.669	9355.2
1547.269	9314.2
1551.864	9247.2
1556.454	9218.2
1561.041	9185.2
1565.622	9260.2
1570.199	9237.2
1574.772	9260.2
1579.34	9355.2
1583.904	9391.2
1588.464	9409.2
1593.019	9445.2
1597.569	9362.2
1602.115	9353.2
1606.657	9277.2
1611.195	9236.2
1615.728	9177.2
1620.256	9115.2
1624.78	9092.2
1629.3	9127.2
1633.816	9120.2
1638.327	9197.2
1642.834	9247.2
1647.336	9286.2
1651.834	9262.2
1656.328	9246.2
1660.817	9184.2
1665.302	9131.2
1669.783	8988.2
1674.259	8709.2
1678.732	8492.2
1683.199	8206.2
1687.663	7924.2
1692.122	7678.2
1696.577	7559.2
1701.028	7466.2
1705.474	7517.2
1709.917	7563.2
1714.355	7587.2
1718.788	7562.2
1723.218	7421.2
1727.643	7322.2
1732.064	7238.2
1736.481	7048.2
1740.893	6896.2
1745.301	6728.2
1749.705	6542.2
1754.105	6328.2
1758.501	6153.2
1762.893	6000.2
1767.28	5838.2
1771.663	5729.2
1776.042	5636.2
1780.417	5539.2
1784.787	5529.2
1789.154	5587.2
1793.516	5642.2
1797.874	5713.2
1802.228	5818.2
1806.578	5901.2
1810.924	5874.2
1815.266	5896.2
1819.603	5784.2
1823.937	5700.2
1828.266	5602.2
1832.591	5560.2
1836.913	5471.2
1841.23	5423.2
1845.543	5395.2
1849.852	5365.2
1854.156	5347.2
1858.457	5312.2
1862.754	5284.2
1867.047	5318.2
1871.335	5303.2
1875.62	5296.2
1879.9	5257.2
1884.177	5220.2
1888.449	5184.2
1892.718	5117.2
1896.982	5089.2
1901.243	5026.2
1905.499	4959.2
1909.752	4958.2
1914	4945.2
1918.245	4945.2
1922.485	4995.2
1926.722	5006.2
1930.954	5074.2
1935.183	5147.2
1939.408	5183.2
1943.628	5241.2
1947.845	5244.2
1952.058	5212.2
1956.267	5158.2
1960.472	5128.2
1964.673	5034.2
1968.87	4953.2
1973.063	4890.2
1977.252	4809.2
1981.438	4794.2
1985.619	4736.2
1989.797	4683.2
1993.971	4634.2
1998.14	4647.2
2002.306	4626.2
2006.469	4596.2
2010.627	4570.2
2014.781	4549.2
2018.932	4525.2
2023.078	4465.2
2027.221	4404.2
2031.36	4338.2
2035.495	4279.2
2039.627	4209.2
2043.754	4163.2
2047.878	4096.2
2051.998	4122.2
2056.114	4071.2
2060.226	4070.2
2064.334	4060.2
2068.439	4100.2
2072.54	4096.2
2076.637	4131.2
2080.73	4163.2
2084.82	4179.2
2088.906	4174.2
2092.988	4175.2
2097.066	4156.2
2101.14	4132.2
2105.211	4110.2
2109.278	4088.2
2113.342	4053.2
2117.401	4037.2
2121.457	4045.2
2125.509	4026.2
2129.558	3991.2
2133.602	3960.2
2137.643	3937.2
2141.681	3943.2
2145.714	3920.2
2149.744	3894.2
2153.77	3851.2
2157.793	3827.2
2161.812	3783.2
2165.827	3724.2
2169.838	3657.2
2173.846	3591.2
2177.851	3535.2
2181.851	3490.2
2185.848	3453.2
2189.841	3436.2
2193.831	3386.2
2197.817	3353.2
2201.799	3336.2
2205.778	3305.2
2209.753	3320.2
2213.725	3291.2
2217.693	3291.2
2221.657	3275.2
2225.618	3276.2
2229.575	3278.2
2233.529	3194.2
2237.479	3201.2
2241.425	3161.2
2245.368	3118.2
2249.307	3058.2
2253.243	3021.2
2257.175	2991.2
2261.104	2907.2
2265.029	2898.2
2268.95	2895.2
2272.868	2833.2
2276.783	2835.2
2280.694	2778.2
2284.601	2757.2
2288.505	2728.2
2292.405	2705.2
2296.302	2681.2
2300.195	2649.2
2304.085	2638.2
2307.971	2568.2
2311.854	2549.2
2315.734	2506.2
2319.609	2497.2
2323.482	2456.2
2327.351	2425.2
2331.216	2393.2
2335.078	2416.2
2338.937	2391.2
2342.792	2384.2
2346.643	2373.2
2350.492	2379.2
2354.336	2387.2
2358.178	2377.2
2362.015	2384.2
2365.85	2410.2
2369.681	2397.2
2373.508	2433.2
2377.333	2400.2
2381.153	2390.2
2384.971	2375.2
2388.785	2365.2
2392.595	2322.2
2396.402	2310.2
2400.206	2313.2
2404.007	2290.2
2407.804	2269.2
2411.597	2246.2
2415.388	2249.2
2419.174	2224.2
2422.958	2214.2
2426.738	2189.2
2430.515	2196.2
2434.289	2166.2
2438.059	2157.2
2441.825	2131.2
2445.589	2121.2
2449.349	2085.2
2453.106	2069.2
2456.859	2041.2
2460.61	2002.2
2464.356	1994.2
2468.1	1966.2
2471.84	1923.2
2475.577	1929.2
2479.311	1890.2
2483.041	1903.2
2486.768	1872.2
2490.492	1880.2
2494.213	1888.2
2497.93	1876.2
2501.644	1865.2
2505.355	1848.2
2509.062	1834.2
2512.766	1820.2
2516.467	1818.2
2520.165	1788.2
2523.859	1782.2
2527.551	1785.2
2531.239	1770.2
2534.923	1761.2
2538.605	1723.2
2542.283	1733.2
2545.958	1733.2
2549.63	1739.2
2553.299	1743.2
2556.964	1718.2
2560.626	1718.2
2564.285	1671.2
2567.941	1690.2
2571.594	1669.2
2575.243	1699.2
2578.89	1667.2
2582.533	1653.2
2586.173	1632.2
2589.809	1613.2
2593.443	1604.2
2597.073	1602.2
2600.701	1570.2
2604.325	1565.2
2607.946	1563.2
2611.564	1554.2
2615.178	1522.2
2618.79	1524.2
2622.398	1503.2
2626.004	1499.2
2629.606	1486.2
2633.205	1464.2
2636.801	1449.2
2640.394	1420.2
2643.983	1370.2
2647.57	1368.2
2651.153	1358.2
2654.734	1343.2
2658.311	1304.2
2661.885	1286.2
2665.456	1290.2
2669.025	1274.2
2672.589	1256.2
2676.151	1238.2
2679.71	1216.2
2683.266	1204.2
2686.819	1176.2
2690.368	1152.2
2693.915	1133.2
2697.458	1104.2
2700.999	1078.2
2704.536	1079.2
2708.071	1037.2
2711.602	994.2
2715.13	976.2
2718.656	967.2
2722.178	946.2
2725.697	925.2
2729.214	922.2
2732.727	907.2
2736.237	908.2
2739.744	875.2
2743.249	892.2
2746.75	907.2
2750.248	910.2
2753.743	905.2
2757.236	933.2
2760.725	930.2
2764.211	944.2
2767.695	930.2
2771.175	935.2
2774.652	925.2
2778.127	925.2
2781.598	927.2
2785.067	937.2
2788.532	917.2
2791.995	909.2
2795.455	925.2
2798.911	916.2
2802.365	929.2
2805.816	922.2
2809.264	929.2
2812.709	929.2
2816.151	909.2
2819.59	929.2
2823.026	925.2
2826.46	928.2
2829.89	919.2
2833.318	923.2
2836.742	930.2
2840.164	937.2
2843.583	951.2
2846.999	961.2
2850.412	973.2
2853.822	974.2
2857.229	991.2
2860.634	1008.2
2864.035	1021.2
2867.434	1037.2
2870.83	1049.2
2874.223	1076.2
2877.613	1100.2
2881	1125.2
2884.385	1108.2
2887.766	1109.2
2891.145	1114.2
2894.521	1101.2
2897.894	1107.2
2901.264	1104.2
2904.631	1120.2
2907.996	1116.2
2911.358	1126.2
2914.717	1121.2
2918.073	1147.2
2921.426	1149.2
2924.777	1143.2
2928.124	1175.2
2931.469	1188.2
2934.811	1209.2
2938.15	1226.2
2941.487	1260.2
2944.821	1251.2
2948.152	1239.2
2951.48	1245.2
2954.805	1217.2
2958.128	1198.2
2961.447	1201.2
2964.765	1208.2
2968.079	1205.2
2971.39	1192.2
2974.699	1216.2
2978.005	1244.2
2981.308	1272.2
2984.609	1280.2
2987.907	1312.2
2991.202	1324.2
2994.494	1344.2
2997.784	1384.2
3001.07	1410.2
3004.355	1431.2
3007.636	1467.2
3010.915	1475.2
3014.191	1492.2
3017.464	1478.2
3020.734	1487.2
3024.002	1519.2
3027.267	1518.2
3030.53	1524.2
3033.789	1559.2
3037.046	1584.2
3040.301	1612.2
3043.552	1648.2
3046.801	1686.2
3050.048	1704.2
3053.291	1755.2
3056.532	1793.2
3059.771	1846.2
3063.006	1903.2
3066.239	1958.2
3069.469	2010.2
3072.697	2070.2
3075.922	2112.2
3079.144	2169.2
3082.364	2212.2
3085.581	2268.2
3088.795	2342.2
3092.007	2366.2
3095.216	2426.2
3098.423	2467.2
3101.627	2512.2
3104.828	2595.2
3108.026	2640.2
3111.222	2687.2
3114.416	2792.2
3117.607	2811.2
3120.795	2886.2
3123.98	2960.2
3127.163	3030.2
3130.344	3101.2
3133.521	3179.2
3136.696	3219.2
3139.869	3302.2
3143.039	3374.2
3146.206	3406.2
3149.371	3467.2
3152.533	3473.2
3155.693	3459.2
3158.85	3520.2
3162.005	3541.2
3165.157	3537.2
3168.306	3549.2
3171.453	3557.2
3174.597	3583.2
3177.739	3552.2
3180.878	3548.2
3184.014	3585.2
3187.149	3590.2
3190.28	3590.2
3193.409	3612.2
3196.536	3612.2
3199.659	3585.2
3202.781	3612.2
3205.9	3580.2
3209.016	3616.2
3212.13	3604.2
3215.241	3545.2
3218.35	3537.2
3221.456	3502.2
3224.56	3446.2
3227.661	3393.2
3230.76	3377.2
3233.856	3337.2
3236.95	3319.2
3240.041	3249.2
3243.13	3234.2
3246.216	3240.2
3249.3	3227.2
3252.382	3197.2
3255.46	3192.2
3258.537	3196.2
3261.611	3193.2
3264.682	3176.2
3267.751	3195.2
3270.818	3164.2
3273.882	3152.2
3276.943	3146.2
3280.002	3108.2
3283.059	3096.2
3286.113	3054.2
3289.165	2999.2
3292.214	2964.2
3295.261	2908.2
3298.306	2839.2
3301.348	2815.2
3304.387	2782.2
3307.425	2734.2
3310.459	2703.2
3313.492	2650.2
3316.521	2610.2
3319.549	2585.2
3322.574	2547.2
3325.597	2531.2
3328.617	2523.2
3331.635	2506.2
3334.65	2503.2
3337.663	2465.2
3340.674	2463.2
3343.682	2437.2
3346.688	2458.2
3349.691	2423.2
3352.692	2409.2
3355.691	2394.2
3358.687	2384.2
3361.681	2371.2
3364.673	2339.2
3367.662	2290.2
3370.649	2242.2
3373.633	2208.2
3376.615	2191.2
3379.595	2130.2
3382.572	2130.2
3385.547	2094.2
3388.52	2068.2
3391.49	2015.2
3394.458	2002.2
3397.424	1971.2
3400.387	1961.2
3403.348	1932.2
3406.307	1911.2
3409.263	1863.2
3412.217	1870.2
3415.168	1861.2
3418.118	1813.2
3421.065	1789.2
3424.009	1765.2
3426.951	1718.2
3429.891	1710.2
3432.829	1673.2
3435.764	1639.2
3438.697	1585.2
3441.628	1551.2
3444.557	1483.2
3447.483	1429.2
3450.407	1416.2
3453.328	1342.2
3456.247	1328.2
3459.164	1260.2
3462.079	1222.2
3464.991	1193.2
3467.902	1131.2
3470.809	1081.2
3473.715	1045.2
3476.618	1010.2
3479.519	967.2
3482.418	944.2
3485.315	912.2
3488.209	879.2
3491.101	848.2
3493.99	809.2
3496.878	778.2
3499.763	743.2
3502.646	731.2
3505.527	678.2
3508.405	653.2
3511.281	606.2
3514.155	576.2
3517.027	545.2
3519.897	500.2
3522.764	462.2
3525.629	431.2
3528.492	399.2
3531.352	360.2
3534.211	324.2
3537.067	291.2
3539.921	265.2
3542.773	235.2
3545.622	208.2
3548.469	167.2
3551.315	156.2
3554.157	128.2
3556.998	101.2
3559.837	91.2
3562.673	56.2
3565.507	34.2
3568.339	14.2
3571.169	12.2
3573.996	-14.8
3576.822	-29.8
3579.645	-44.8
3582.466	-65.8
3585.285	-77.8
3588.101	-101.8
3590.916	-123.8
3593.728	-153.8
3596.538	-147.8
3599.346	-163.8
3602.152	-190.8
3604.956	-193.8
3607.757	-220.8
3610.556	-224.8
3613.354	-236.8
3616.149	-251.8
3618.942	-255.8
3621.732	-268.8
3624.521	-289.8
3627.307	-286.8
3630.092	-302.8
3632.874	-311.8
3635.654	-320.8
3638.432	-321.8
3641.208	-316.8
3643.982	-349.8
3646.753	-343.8
3649.523	-356.8
3652.29	-359.8
3655.055	-364.8
3657.818	-389.8
3660.579	-390.8
3663.338	-405.8
3666.095	-408.8
3668.849	-419.8
3671.602	-424.8
3674.352	-425.8
3677.101	-436.8
3679.847	-443.8
3682.591	-448.8
3685.333	-457.8
3688.073	-452.8
3690.811	-465.8
3693.547	-463.8
3696.281	-467.8
3699.013	-472.8
3701.742	-477.8
3704.47	-478.8
3707.195	-491.8
3709.919	-489.8
3712.64	-497.8
3715.359	-497.8
3718.076	-501.8
3720.792	-502.8
3723.505	-506.8
3726.216	-522.8
3728.925	-508.8
3731.632	-521.8
3734.336	-521.8
3737.039	-524.8
3739.74	-521.8
3742.439	-520.8
3745.136	-524.8
3747.83	-532.8
3750.523	-531.8
3753.213	-507.8
3755.902	-531.8
3758.589	-534.8
3761.273	-538.8
3763.956	-543.8
3766.636	-539.8
3769.315	-546.8
3771.991	-547.8
3774.665	-552.8
3777.338	-550.8
3780.008	-545.8
3782.677	-554.8
3785.343	-543.8
3788.007	-556.8
3790.67	-551.8
3793.33	-554.8
3795.989	-552.8
3798.645	-552.8
3801.299	-551.8
3803.952	-558.8
3806.602	-563.8
3809.251	-563.8
3811.897	-565.8
3814.542	-561.8
3817.184	-560.8
3819.825	-562.8
3822.463	-558.8
3825.1	-572.8
3827.735	-561.8
3830.367	-570.8
3832.998	-568.8
3835.627	-573.8
3838.253	-576.8
3840.878	-580.8
3843.501	-569.8
3846.122	-566.8
3848.741	-565.8
3851.358	-572.8
3853.973	-571.8
3856.586	-570.8
3859.197	-573.8
3861.806	-573.8
3864.414	-573.8
3867.019	-567.8
3869.622	-575.8
3872.224	-568.8
3874.823	-556.8
3877.421	-542.8
3880.016	-526.8
3882.61	-502.8
3885.202	-498.8
3887.792	-510.8
3890.38	-546.8
3892.966	-563.8
3895.55	-572.8
3898.132	-585.8
3900.713	-583.8
3903.291	-579.8
3905.868	-585.8
3908.442	-585.8
3911.015	-586.8
3913.586	-579.8
3916.155	-583.8
3918.722	-585.8
3921.287	-588.8
3923.85	-588.8
3926.411	-588.8
3928.971	-594.8
3931.528	-591.8
3934.084	-591.8
3936.638	-589.8
3939.19	-593.8
3941.74	-591.8
3944.288	-588.8
3946.834	-584.8
3949.378	-590.8
3951.921	-584.8
3954.462	-590.8
3957	-584.8
3959.537	-584.8
3962.072	-588.8
3964.606	-587.8
3967.137	-588.8
3969.667	-592.8
3972.194	-586.8
3974.72	-589.8
3977.244	-574.8
3979.766	-577.8
3982.286	-583.8
3984.805	-578.8
3987.321	-573.8
3989.836	-577.8
3992.349	-574.8
3994.86	-571.8
3997.369	-582.8
3999.877	-573.8
4002.382	-572.8
4004.886	-571.8
4007.388	-567.8
4009.888	-573.8
4012.386	-574.8
4014.883	-572.8
4017.377	-574.8
4019.87	-573.8
4022.361	-574.8
4024.85	-576.8
4027.338	-577.8
4029.823	-580.8
4032.307	-578.8
4034.789	-580.8
4037.269	-575.8
4039.747	-577.8
4042.224	-581.8
4044.699	-581.8
4047.172	-578.8
4049.643	-578.8
4052.112	-580.8
4054.58	-585.8
4057.046	-584.8
4059.51	-576.8
4061.972	-581.8
4064.432	-580.8
4066.891	-579.8
4069.348	-576.8
4071.803	-573.8
4074.256	-581.8
4076.708	-582.8
4079.158	-576.8
4081.606	-580.8
4084.052	-582.8
4086.497	-579.8
4088.939	-576.8
4091.38	-578.8
4093.819	-577.8
4096.257	-602.8
4098.693	-604.8
4101.127	-606.8
4103.559	-604.8
4105.989	-340.8
4108.418	-319.8
4110.845	-300.8
4113.27	-276.8
4115.694	-243.8
4118.115	-201.8
4120.535	-574.8
4122.954	-577.8
4125.37	-568.8
4127.785	-573.8
4130.198	-578.8
4132.609	-576.8
4135.019	-609.8
4137.427	-609.8
4139.833	-610.8
4142.237	-607.8
