Data from 2018-2-14_conc=6_n=10_RamanShift_04.txt Node
Date: Wed Feb 14 15:17:25 IST 2018
User: aro
Spectrometer: QEPB0276
Trigger mode: 0
Integration Time (sec): 3.000000E1
Scans to average: 1
Electric dark correction enabled: true
Nonlinearity correction enabled: false
Boxcar width: 0
XAxis mode: Raman Shifts
Number of Pixels in Spectrum: 1044
>>>>>Begin Spectral Data<<<<<
160.701	-148
166.742	39
172.777	580
178.805	2264
184.826	6280
190.841	13138
196.849	21120
202.85	26662
208.845	28481
214.833	28167
220.815	27608
226.789	27557
232.758	27363
238.719	27104
244.674	26756
250.623	26192
256.565	25684
262.5	25159
268.429	24636
274.351	24273
280.267	24019
286.176	23640
292.079	23510
297.975	23218
303.865	23004
309.748	22898
315.625	22692
321.495	22588
327.359	22486
333.217	22457
339.068	22412
344.912	22399
350.751	22325
356.583	22338
362.408	22357
368.227	22273
374.04	22351
379.847	22384
385.647	22519
391.44	22585
397.228	22615
403.009	22772
408.784	22828
414.553	22881
420.315	22972
426.071	23007
431.821	22923
437.565	22914
443.302	22899
449.033	22873
454.758	22843
460.477	22791
466.189	22712
471.896	22627
477.596	22521
483.29	22449
488.978	22448
494.66	22381
500.335	22316
506.005	22027
511.668	21667
517.325	21381
522.977	21241
528.622	21033
534.261	20887
539.894	20844
545.521	20660
551.141	20599
556.756	20522
562.365	20413
567.968	20416
573.565	20320
579.155	20171
584.74	20074
590.319	20065
595.892	19963
601.459	19859
607.02	19722
612.575	19662
618.124	19519
623.667	19411
629.204	19260
634.735	19264
640.261	19129
645.781	19061
651.294	19005
656.802	18994
662.304	18959
667.8	18882
673.29	18892
678.775	18786
684.254	18767
689.726	18715
695.193	18623
700.655	18538
706.11	18445
711.56	18316
717.004	18259
722.442	18152
727.874	18110
733.301	18022
738.722	17986
744.137	17983
749.547	17933
754.951	17933
760.349	17929
765.741	17926
771.128	17983
776.509	17978
781.885	17923
787.254	17875
792.618	17825
797.977	17707
803.33	17629
808.677	17470
814.019	17407
819.355	17289
824.686	17220
830.011	17153
835.33	17154
840.644	17180
845.952	17214
851.255	17252
856.552	17192
861.844	17219
867.13	17171
872.41	17056
877.686	17013
882.955	16829
888.219	16729
893.478	16525
898.731	16330
903.979	16106
909.221	15985
914.458	15949
919.69	15993
924.916	15958
930.136	15998
935.351	16064
940.561	16069
945.766	16015
950.965	15854
956.158	15815
961.347	15604
966.529	15459
971.707	15213
976.879	15055
982.046	14934
987.208	14891
992.364	14888
997.515	14957
1002.66	15126
1007.801	15262
1012.936	15329
1018.066	15354
1023.19	15348
1028.309	15320
1033.423	15324
1038.532	15215
1043.636	15090
1048.734	14895
1053.827	14642
1058.915	14557
1063.998	14453
1069.075	14440
1074.147	14438
1079.214	14499
1084.276	14586
1089.333	14619
1094.385	14697
1099.431	14737
1104.472	14759
1109.509	14677
1114.54	14438
1119.565	14253
1124.586	14121
1129.602	13989
1134.613	13899
1139.618	13789
1144.619	13763
1149.614	13735
1154.604	13705
1159.589	13804
1164.57	13765
1169.545	13798
1174.515	13810
1179.48	13749
1184.44	13674
1189.395	13545
1194.345	13461
1199.29	13391
1204.23	13361
1209.165	13453
1214.095	13466
1219.021	13535
1223.941	13641
1228.856	13635
1233.766	13742
1238.672	13716
1243.572	13694
1248.467	13617
1253.358	13533
1258.244	13270
1263.124	13056
1268	12870
1272.871	12764
1277.737	12584
1282.599	12553
1287.455	12576
1292.306	12572
1297.153	12631
1301.995	12642
1306.832	12709
1311.664	12639
1316.491	12643
1321.314	12586
1326.132	12374
1330.945	12135
1335.753	11850
1340.556	11544
1345.354	11349
1350.148	11095
1354.937	11042
1359.722	11080
1364.501	11047
1369.276	11155
1374.046	11285
1378.811	11367
1383.572	11545
1388.327	11555
1393.079	11467
1397.825	11341
1402.567	11248
1407.304	11081
1412.036	10971
1416.764	10930
1421.487	10844
1426.205	10769
1430.919	10754
1435.628	10705
1440.333	10782
1445.032	10803
1449.727	10816
1454.418	10805
1459.104	10684
1463.785	10492
1468.462	10301
1473.134	10051
1477.802	9867
1482.465	9675
1487.123	9518
1491.777	9503
1496.426	9543
1501.071	9604
1505.711	9795
1510.347	9975
1514.978	10146
1519.604	10243
1524.226	10350
1528.844	10352
1533.457	10341
1538.065	10328
1542.669	10291
1547.269	10157
1551.864	10106
1556.454	10032
1561.041	10094
1565.622	10057
1570.199	10088
1574.772	10134
1579.34	10183
1583.904	10256
1588.464	10347
1593.019	10325
1597.569	10297
1602.115	10185
1606.657	10172
1611.195	10086
1615.728	10094
1620.256	9967
1624.78	9947
1629.3	9989
1633.816	10013
1638.327	10072
1642.834	10126
1647.336	10211
1651.834	10221
1656.328	10188
1660.817	10115
1665.302	9999
1669.783	9806
1674.259	9622
1678.732	9314
1683.199	8989
1687.663	8711
1692.122	8412
1696.577	8291
1701.028	8225
1705.474	8255
1709.917	8286
1714.355	8346
1718.788	8289
1723.218	8147
1727.643	7980
1732.064	7876
1736.481	7687
1740.893	7478
1745.301	7278
1749.705	7069
1754.105	6892
1758.501	6726
1762.893	6479
1767.28	6365
1771.663	6231
1776.042	6147
1780.417	6096
1784.787	6079
1789.154	6113
1793.516	6193
1797.874	6311
1802.228	6413
1806.578	6474
1810.924	6475
1815.266	6372
1819.603	6325
1823.937	6210
1828.266	6128
1832.591	6036
1836.913	5943
1841.23	5887
1845.543	5849
1849.852	5838
1854.156	5788
1858.457	5777
1862.754	5795
1867.047	5786
1871.335	5732
1875.62	5759
1879.9	5742
1884.177	5685
1888.449	5633
1892.718	5576
1896.982	5517
1901.243	5465
1905.499	5418
1909.752	5397
1914	5436
1918.245	5430
1922.485	5475
1926.722	5494
1930.954	5587
1935.183	5626
1939.408	5659
1943.628	5703
1947.845	5724
1952.058	5683
1956.267	5648
1960.472	5599
1964.673	5525
1968.87	5421
1973.063	5323
1977.252	5302
1981.438	5238
1985.619	5183
1989.797	5089
1993.971	5080
1998.14	5054
2002.306	5011
2006.469	5025
2010.627	4990
2014.781	4942
2018.932	4940
2023.078	4888
2027.221	4791
2031.36	4737
2035.495	4664
2039.627	4588
2043.754	4571
2047.878	4491
2051.998	4472
2056.114	4438
2060.226	4437
2064.334	4449
2068.439	4455
2072.54	4489
2076.637	4492
2080.73	4540
2084.82	4562
2088.906	4575
2092.988	4572
2097.066	4566
2101.14	4525
2105.211	4491
2109.278	4479
2113.342	4420
2117.401	4418
2121.457	4395
2125.509	4378
2129.558	4333
2133.602	4326
2137.643	4287
2141.681	4262
2145.714	4256
2149.744	4230
2153.77	4213
2157.793	4132
2161.812	4079
2165.827	4018
2169.838	3979
2173.846	3903
2177.851	3821
2181.851	3774
2185.848	3739
2189.841	3715
2193.831	3658
2197.817	3610
2201.799	3587
2205.778	3565
2209.753	3578
2213.725	3552
2217.693	3534
2221.657	3538
2225.618	3526
2229.575	3501
2233.529	3494
2237.479	3420
2241.425	3409
2245.368	3336
2249.307	3284
2253.243	3272
2257.175	3198
2261.104	3142
2265.029	3122
2268.95	3085
2272.868	3081
2276.783	3028
2280.694	3008
2284.601	2950
2288.505	2928
2292.405	2908
2296.302	2876
2300.195	2840
2304.085	2813
2307.971	2771
2311.854	2714
2315.734	2674
2319.609	2625
2323.482	2611
2327.351	2580
2331.216	2577
2335.078	2570
2338.937	2505
2342.792	2514
2346.643	2498
2350.492	2512
2354.336	2502
2358.178	2534
2362.015	2510
2365.85	2530
2369.681	2537
2373.508	2529
2377.333	2528
2381.153	2503
2384.971	2482
2388.785	2492
2392.595	2456
2396.402	2458
2400.206	2413
2404.007	2390
2407.804	2364
2411.597	2356
2415.388	2330
2419.174	2313
2422.958	2300
2426.738	2270
2430.515	2277
2434.289	2243
2438.059	2236
2441.825	2213
2445.589	2198
2449.349	2165
2453.106	2122
2456.859	2095
2460.61	2043
2464.356	2047
2468.1	2051
2471.84	2002
2475.577	1981
2479.311	1977
2483.041	1953
2486.768	1958
2490.492	1927
2494.213	1945
2497.93	1940
2501.644	1901
2505.355	1895
2509.062	1910
2512.766	1891
2516.467	1883
2520.165	1863
2523.859	1859
2527.551	1847
2531.239	1833
2534.923	1831
2538.605	1801
2542.283	1800
2545.958	1808
2549.63	1800
2553.299	1813
2556.964	1801
2560.626	1773
2564.285	1755
2567.941	1757
2571.594	1737
2575.243	1744
2578.89	1714
2582.533	1708
2586.173	1700
2589.809	1675
2593.443	1665
2597.073	1658
2600.701	1636
2604.325	1608
2607.946	1616
2611.564	1584
2615.178	1587
2618.79	1582
2622.398	1556
2626.004	1535
2629.606	1531
2633.205	1523
2636.801	1513
2640.394	1456
2643.983	1442
2647.57	1417
2651.153	1410
2654.734	1371
2658.311	1348
2661.885	1334
2665.456	1297
2669.025	1277
2672.589	1268
2676.151	1262
2679.71	1228
2683.266	1227
2686.819	1205
2690.368	1181
2693.915	1153
2697.458	1117
2700.999	1098
2704.536	1077
2708.071	1047
2711.602	1029
2715.13	1000
2718.656	986
2722.178	967
2725.697	960
2729.214	951
2732.727	936
2736.237	945
2739.744	922
2743.249	935
2746.75	930
2750.248	950
2753.743	955
2757.236	965
2760.725	976
2764.211	963
2767.695	971
2771.175	988
2774.652	975
2778.127	958
2781.598	954
2785.067	948
2788.532	943
2791.995	932
2795.455	955
2798.911	948
2802.365	933
2805.816	947
2809.264	944
2812.709	971
2816.151	951
2819.59	957
2823.026	966
2826.46	961
2829.89	952
2833.318	965
2836.742	950
2840.164	963
2843.583	986
2846.999	1003
2850.412	1009
2853.822	1029
2857.229	1033
2860.634	1070
2864.035	1068
2867.434	1096
2870.83	1112
2874.223	1144
2877.613	1168
2881	1180
2884.385	1178
2887.766	1176
2891.145	1177
2894.521	1169
2897.894	1167
2901.264	1167
2904.631	1189
2907.996	1179
2911.358	1179
2914.717	1196
2918.073	1216
2921.426	1236
2924.777	1247
2928.124	1278
2931.469	1292
2934.811	1319
2938.15	1348
2941.487	1348
2944.821	1365
2948.152	1357
2951.48	1355
2954.805	1333
2958.128	1320
2961.447	1313
2964.765	1323
2968.079	1322
2971.39	1334
2974.699	1339
2978.005	1384
2981.308	1378
2984.609	1427
2987.907	1457
2991.202	1475
2994.494	1490
2997.784	1538
3001.07	1548
3004.355	1567
3007.636	1622
3010.915	1615
3014.191	1632
3017.464	1637
3020.734	1690
3024.002	1674
3027.267	1695
3030.53	1699
3033.789	1729
3037.046	1752
3040.301	1774
3043.552	1830
3046.801	1880
3050.048	1898
3053.291	1973
3056.532	1994
3059.771	2067
3063.006	2122
3066.239	2177
3069.469	2268
3072.697	2301
3075.922	2360
3079.144	2436
3082.364	2478
3085.581	2537
3088.795	2594
3092.007	2667
3095.216	2711
3098.423	2771
3101.627	2825
3104.828	2899
3108.026	2945
3111.222	3031
3114.416	3100
3117.607	3181
3120.795	3268
3123.98	3324
3127.163	3434
3130.344	3474
3133.521	3575
3136.696	3646
3139.869	3746
3143.039	3819
3146.206	3810
3149.371	3931
3152.533	3926
3155.693	3966
3158.85	4013
3162.005	4029
3165.157	4028
3168.306	4051
3171.453	4033
3174.597	4043
3177.739	4062
3180.878	4055
3184.014	4057
3187.149	4103
3190.28	4105
3193.409	4099
3196.536	4085
3199.659	4093
3202.781	4134
3205.9	4130
3209.016	4081
3212.13	4105
3215.241	4057
3218.35	4005
3221.456	3971
3224.56	3937
3227.661	3863
3230.76	3852
3233.856	3799
3236.95	3774
3240.041	3739
3243.13	3698
3246.216	3707
3249.3	3650
3252.382	3667
3255.46	3649
3258.537	3607
3261.611	3621
3264.682	3619
3267.751	3628
3270.818	3602
3273.882	3602
3276.943	3589
3280.002	3565
3283.059	3546
3286.113	3495
3289.165	3450
3292.214	3423
3295.261	3349
3298.306	3286
3301.348	3246
3304.387	3196
3307.425	3169
3310.459	3098
3313.492	3042
3316.521	2981
3319.549	2971
3322.574	2940
3325.597	2919
3328.617	2910
3331.635	2895
3334.65	2866
3337.663	2852
3340.674	2829
3343.682	2830
3346.688	2817
3349.691	2804
3352.692	2796
3355.691	2761
3358.687	2745
3361.681	2698
3364.673	2676
3367.662	2645
3370.649	2588
3373.633	2568
3376.615	2519
3379.595	2469
3382.572	2442
3385.547	2429
3388.52	2396
3391.49	2352
3394.458	2312
3397.424	2268
3400.387	2254
3403.348	2212
3406.307	2196
3409.263	2183
3412.217	2131
3415.168	2110
3418.118	2114
3421.065	2073
3424.009	2054
3426.951	2008
3429.891	1951
3432.829	1921
3435.764	1887
3438.697	1829
3441.628	1791
3444.557	1735
3447.483	1658
3450.407	1624
3453.328	1559
3456.247	1528
3459.164	1454
3462.079	1418
3464.991	1362
3467.902	1311
3470.809	1256
3473.715	1209
3476.618	1170
3479.519	1150
3482.418	1075
3485.315	1048
3488.209	1017
3491.101	976
3493.99	935
3496.878	887
3499.763	874
3502.646	830
3505.527	794
3508.405	745
3511.281	711
3514.155	667
3517.027	650
3519.897	590
3522.764	548
3525.629	506
3528.492	466
3531.352	435
3534.211	377
3537.067	343
3539.921	318
3542.773	270
3545.622	254
3548.469	208
3551.315	199
3554.157	164
3556.998	119
3559.837	96
3562.673	71
3565.507	52
3568.339	29
3571.169	18
3573.996	-10
3576.822	-27
3579.645	-55
3582.466	-69
3585.285	-97
3588.101	-107
3590.916	-125
3593.728	-155
3596.538	-163
3599.346	-183
3602.152	-213
3604.956	-218
3607.757	-230
3610.556	-256
3613.354	-269
3616.149	-280
3618.942	-292
3621.732	-304
3624.521	-317
3627.307	-325
3630.092	-337
3632.874	-349
3635.654	-360
3638.432	-352
3641.208	-371
3643.982	-394
3646.753	-399
3649.523	-401
3652.29	-406
3655.055	-412
3657.818	-422
3660.579	-444
3663.338	-457
3666.095	-460
3668.849	-470
3671.602	-476
3674.352	-491
3677.101	-486
3679.847	-498
3682.591	-505
3685.333	-513
3688.073	-512
3690.811	-520
3693.547	-528
3696.281	-534
3699.013	-534
3701.742	-540
3704.47	-547
3707.195	-553
3709.919	-549
3712.64	-559
3715.359	-556
3718.076	-567
3720.792	-570
3723.505	-577
3726.216	-581
3728.925	-584
3731.632	-586
3734.336	-584
3737.039	-584
3739.74	-584
3742.439	-596
3745.136	-592
3747.83	-595
3750.523	-591
3753.213	-600
3755.902	-602
3758.589	-607
3761.273	-609
3763.956	-610
3766.636	-613
3769.315	-610
3771.991	-611
3774.665	-625
3777.338	-618
3780.008	-625
3782.677	-619
3785.343	-613
3788.007	-618
3790.67	-623
3793.33	-623
3795.989	-626
3798.645	-621
3801.299	-625
3803.952	-639
3806.602	-639
3809.251	-635
3811.897	-638
3814.542	-642
3817.184	-636
3819.825	-636
3822.463	-634
3825.1	-637
3827.735	-627
3830.367	-632
3832.998	-641
3835.627	-642
3838.253	-636
3840.878	-647
3843.501	-646
3846.122	-640
3848.741	-638
3851.358	-639
3853.973	-643
3856.586	-650
3859.197	-645
3861.806	-648
3864.414	-645
3867.019	-646
3869.622	-645
3872.224	-642
3874.823	-629
3877.421	-606
3880.016	-592
3882.61	-574
3885.202	-563
3887.792	-590
3890.38	-616
3892.966	-636
3895.55	-649
3898.132	-658
3900.713	-662
3903.291	-655
3905.868	-653
3908.442	-660
3911.015	-659
3913.586	-648
3916.155	-653
3918.722	-655
3921.287	-657
3923.85	-661
3926.411	-664
3928.971	-672
3931.528	-659
3934.084	-657
3936.638	-657
3939.19	-660
3941.74	-657
3944.288	-661
3946.834	-659
3949.378	-661
3951.921	-657
3954.462	-666
3957	-662
3959.537	-665
3962.072	-660
3964.606	-665
3967.137	-663
3969.667	-661
3972.194	-655
3974.72	-654
3977.244	-644
3979.766	-646
3982.286	-644
3984.805	-649
3987.321	-645
3989.836	-647
3992.349	-650
3994.86	-650
3997.369	-651
3999.877	-645
4002.382	-644
4004.886	-646
4007.388	-642
4009.888	-646
4012.386	-651
4014.883	-647
4017.377	-646
4019.87	-642
4022.361	-647
4024.85	-648
4027.338	-642
4029.823	-646
4032.307	-651
4034.789	-645
4037.269	-647
4039.747	-651
4042.224	-655
4044.699	-649
4047.172	-651
4049.643	-643
4052.112	-658
4054.58	-653
4057.046	-654
4059.51	-650
4061.972	-651
4064.432	-654
4066.891	-650
4069.348	-645
4071.803	-642
4074.256	-646
4076.708	-652
4079.158	-654
4081.606	-653
4084.052	-655
4086.497	-655
4088.939	-645
4091.38	-644
4093.819	-641
4096.257	-682
4098.693	-687
4101.127	-687
4103.559	-680
4105.989	-397
4108.418	-370
4110.845	-356
4113.27	-329
4115.694	-285
4118.115	-232
4120.535	-645
4122.954	-645
4125.37	-638
4127.785	-642
4130.198	-647
4132.609	-648
4135.019	-681
4137.427	-684
4139.833	-686
4142.237	-684
