Data from 2018-2-14_conc=0_n=9_RamanShift_02.txt Node
Date: Wed Feb 14 10:53:26 IST 2018
User: aro
Spectrometer: QEPB0276
Trigger mode: 0
Integration Time (sec): 3.000000E1
Scans to average: 1
Electric dark correction enabled: true
Nonlinearity correction enabled: false
Boxcar width: 0
XAxis mode: Raman Shifts
Number of Pixels in Spectrum: 1044
>>>>>Begin Spectral Data<<<<<
160.701	-95.6
166.742	36.4
172.777	402.4
178.805	1506.4
184.826	4077.4
190.841	8495.4
196.849	13586.4
202.85	17235.4
208.845	18495.4
214.833	18273.4
220.815	18037.4
226.789	17981.4
232.758	17959.4
238.719	17811.4
244.674	17624.4
250.623	17331.4
256.565	17006.4
262.5	16695.4
268.429	16432.4
274.351	16227.4
280.267	16045.4
286.176	15941.4
292.079	15741.4
297.975	15742.4
303.865	15545.4
309.748	15460.4
315.625	15370.4
321.495	15372.4
327.359	15296.4
333.217	15245.4
339.068	15254.4
344.912	15256.4
350.751	15253.4
356.583	15231.4
362.408	15248.4
368.227	15295.4
374.04	15281.4
379.847	15286.4
385.647	15429.4
391.44	15453.4
397.228	15513.4
403.009	15573.4
408.784	15608.4
414.553	15675.4
420.315	15713.4
426.071	15750.4
431.821	15716.4
437.565	15688.4
443.302	15696.4
449.033	15684.4
454.758	15621.4
460.477	15500.4
466.189	15514.4
471.896	15426.4
477.596	15358.4
483.29	15369.4
488.978	15384.4
494.66	15348.4
500.335	15177.4
506.005	14963.4
511.668	14730.4
517.325	14539.4
522.977	14371.4
528.622	14243.4
534.261	14075.4
539.894	14045.4
545.521	13965.4
551.141	13934.4
556.756	13865.4
562.365	13764.4
567.968	13712.4
573.565	13656.4
579.155	13576.4
584.74	13573.4
590.319	13562.4
595.892	13443.4
601.459	13402.4
607.02	13393.4
612.575	13214.4
618.124	13196.4
623.667	13073.4
629.204	13014.4
634.735	12954.4
640.261	12911.4
645.781	12831.4
651.294	12822.4
656.802	12870.4
662.304	12799.4
667.8	12750.4
673.29	12733.4
678.775	12698.4
684.254	12676.4
689.726	12638.4
695.193	12601.4
700.655	12525.4
706.11	12449.4
711.56	12397.4
717.004	12331.4
722.442	12263.4
727.874	12190.4
733.301	12208.4
738.722	12132.4
744.137	12112.4
749.547	12114.4
754.951	12089.4
760.349	12062.4
765.741	12104.4
771.128	12120.4
776.509	12155.4
781.885	12149.4
787.254	12142.4
792.618	12082.4
797.977	12029.4
803.33	11935.4
808.677	11864.4
814.019	11820.4
819.355	11752.4
824.686	11673.4
830.011	11654.4
835.33	11630.4
840.644	11659.4
845.952	11631.4
851.255	11653.4
856.552	11677.4
861.844	11641.4
867.13	11610.4
872.41	11531.4
877.686	11427.4
882.955	11382.4
888.219	11271.4
893.478	11195.4
898.731	10986.4
903.979	10910.4
909.221	10866.4
914.458	10845.4
919.69	10775.4
924.916	10799.4
930.136	10865.4
935.351	10903.4
940.561	10839.4
945.766	10878.4
950.965	10744.4
956.158	10700.4
961.347	10602.4
966.529	10470.4
971.707	10319.4
976.879	10208.4
982.046	10174.4
987.208	10105.4
992.364	10110.4
997.515	10119.4
1002.66	10217.4
1007.801	10332.4
1012.936	10425.4
1018.066	10448.4
1023.19	10421.4
1028.309	10447.4
1033.423	10447.4
1038.532	10349.4
1043.636	10285.4
1048.734	10152.4
1053.827	10004.4
1058.915	9924.4
1063.998	9833.4
1069.075	9797.4
1074.147	9804.4
1079.214	9835.4
1084.276	9892.4
1089.333	9958.4
1094.385	9994.4
1099.431	10008.4
1104.472	10025.4
1109.509	9907.4
1114.54	9833.4
1119.565	9691.4
1124.586	9598.4
1129.602	9457.4
1134.613	9436.4
1139.618	9361.4
1144.619	9352.4
1149.614	9314.4
1154.604	9326.4
1159.589	9408.4
1164.57	9380.4
1169.545	9397.4
1174.515	9412.4
1179.48	9374.4
1184.44	9235.4
1189.395	9232.4
1194.345	9131.4
1199.29	9113.4
1204.23	9090.4
1209.165	9175.4
1214.095	9188.4
1219.021	9212.4
1223.941	9262.4
1228.856	9303.4
1233.766	9365.4
1238.672	9372.4
1243.572	9309.4
1248.467	9229.4
1253.358	9188.4
1258.244	9007.4
1263.124	8911.4
1268	8780.4
1272.871	8659.4
1277.737	8579.4
1282.599	8548.4
1287.455	8497.4
1292.306	8589.4
1297.153	8593.4
1301.995	8583.4
1306.832	8645.4
1311.664	8679.4
1316.491	8627.4
1321.314	8623.4
1326.132	8492.4
1330.945	8306.4
1335.753	8117.4
1340.556	7969.4
1345.354	7772.4
1350.148	7678.4
1354.937	7577.4
1359.722	7560.4
1364.501	7527.4
1369.276	7575.4
1374.046	7651.4
1378.811	7654.4
1383.572	7736.4
1388.327	7717.4
1393.079	7703.4
1397.825	7649.4
1402.567	7571.4
1407.304	7455.4
1412.036	7421.4
1416.764	7364.4
1421.487	7386.4
1426.205	7334.4
1430.919	7303.4
1435.628	7353.4
1440.333	7358.4
1445.032	7399.4
1449.727	7410.4
1454.418	7382.4
1459.104	7317.4
1463.785	7209.4
1468.462	7104.4
1473.134	6890.4
1477.802	6805.4
1482.465	6691.4
1487.123	6615.4
1491.777	6546.4
1496.426	6548.4
1501.071	6596.4
1505.711	6618.4
1510.347	6754.4
1514.978	6822.4
1519.604	6892.4
1524.226	6963.4
1528.844	6943.4
1533.457	6950.4
1538.065	6910.4
1542.669	6867.4
1547.269	6788.4
1551.864	6761.4
1556.454	6776.4
1561.041	6767.4
1565.622	6808.4
1570.199	6764.4
1574.772	6835.4
1579.34	6868.4
1583.904	6911.4
1588.464	6949.4
1593.019	6947.4
1597.569	6928.4
1602.115	6881.4
1606.657	6864.4
1611.195	6801.4
1615.728	6741.4
1620.256	6732.4
1624.78	6722.4
1629.3	6699.4
1633.816	6750.4
1638.327	6800.4
1642.834	6814.4
1647.336	6843.4
1651.834	6864.4
1656.328	6848.4
1660.817	6807.4
1665.302	6749.4
1669.783	6623.4
1674.259	6510.4
1678.732	6281.4
1683.199	6171.4
1687.663	5910.4
1692.122	5757.4
1696.577	5614.4
1701.028	5573.4
1705.474	5527.4
1709.917	5524.4
1714.355	5556.4
1718.788	5520.4
1723.218	5440.4
1727.643	5343.4
1732.064	5304.4
1736.481	5202.4
1740.893	5085.4
1745.301	4953.4
1749.705	4787.4
1754.105	4698.4
1758.501	4523.4
1762.893	4410.4
1767.28	4331.4
1771.663	4257.4
1776.042	4163.4
1780.417	4120.4
1784.787	4116.4
1789.154	4106.4
1793.516	4155.4
1797.874	4205.4
1802.228	4230.4
1806.578	4301.4
1810.924	4255.4
1815.266	4262.4
1819.603	4193.4
1823.937	4152.4
1828.266	4088.4
1832.591	4054.4
1836.913	3970.4
1841.23	3995.4
1845.543	3928.4
1849.852	3934.4
1854.156	3918.4
1858.457	3925.4
1862.754	3933.4
1867.047	3932.4
1871.335	3911.4
1875.62	3886.4
1879.9	3899.4
1884.177	3870.4
1888.449	3791.4
1892.718	3795.4
1896.982	3756.4
1901.243	3729.4
1905.499	3667.4
1909.752	3661.4
1914	3677.4
1918.245	3664.4
1922.485	3665.4
1926.722	3703.4
1930.954	3760.4
1935.183	3779.4
1939.408	3788.4
1943.628	3803.4
1947.845	3811.4
1952.058	3776.4
1956.267	3784.4
1960.472	3728.4
1964.673	3660.4
1968.87	3607.4
1973.063	3559.4
1977.252	3497.4
1981.438	3479.4
1985.619	3430.4
1989.797	3396.4
1993.971	3409.4
1998.14	3363.4
2002.306	3349.4
2006.469	3342.4
2010.627	3342.4
2014.781	3304.4
2018.932	3270.4
2023.078	3248.4
2027.221	3201.4
2031.36	3158.4
2035.495	3113.4
2039.627	3070.4
2043.754	3023.4
2047.878	3013.4
2051.998	2998.4
2056.114	2971.4
2060.226	2964.4
2064.334	2974.4
2068.439	2992.4
2072.54	3016.4
2076.637	3018.4
2080.73	3036.4
2084.82	3056.4
2088.906	3036.4
2092.988	3065.4
2097.066	3051.4
2101.14	3023.4
2105.211	2982.4
2109.278	2954.4
2113.342	2933.4
2117.401	2912.4
2121.457	2904.4
2125.509	2917.4
2129.558	2870.4
2133.602	2861.4
2137.643	2847.4
2141.681	2835.4
2145.714	2819.4
2149.744	2792.4
2153.77	2774.4
2157.793	2738.4
2161.812	2711.4
2165.827	2673.4
2169.838	2660.4
2173.846	2593.4
2177.851	2565.4
2181.851	2501.4
2185.848	2472.4
2189.841	2464.4
2193.831	2441.4
2197.817	2405.4
2201.799	2392.4
2205.778	2373.4
2209.753	2379.4
2213.725	2352.4
2217.693	2381.4
2221.657	2359.4
2225.618	2375.4
2229.575	2351.4
2233.529	2296.4
2237.479	2276.4
2241.425	2261.4
2245.368	2240.4
2249.307	2182.4
2253.243	2162.4
2257.175	2127.4
2261.104	2082.4
2265.029	2080.4
2268.95	2064.4
2272.868	2020.4
2276.783	1998.4
2280.694	1981.4
2284.601	1958.4
2288.505	1958.4
2292.405	1915.4
2296.302	1916.4
2300.195	1900.4
2304.085	1864.4
2307.971	1844.4
2311.854	1804.4
2315.734	1783.4
2319.609	1765.4
2323.482	1747.4
2327.351	1730.4
2331.216	1694.4
2335.078	1701.4
2338.937	1700.4
2342.792	1700.4
2346.643	1678.4
2350.492	1691.4
2354.336	1689.4
2358.178	1685.4
2362.015	1685.4
2365.85	1690.4
2369.681	1708.4
2373.508	1711.4
2377.333	1695.4
2381.153	1687.4
2384.971	1673.4
2388.785	1674.4
2392.595	1640.4
2396.402	1634.4
2400.206	1627.4
2404.007	1620.4
2407.804	1608.4
2411.597	1596.4
2415.388	1591.4
2419.174	1573.4
2422.958	1572.4
2426.738	1555.4
2430.515	1554.4
2434.289	1537.4
2438.059	1523.4
2441.825	1515.4
2445.589	1468.4
2449.349	1467.4
2453.106	1459.4
2456.859	1453.4
2460.61	1405.4
2464.356	1408.4
2468.1	1397.4
2471.84	1374.4
2475.577	1346.4
2479.311	1339.4
2483.041	1349.4
2486.768	1334.4
2490.492	1321.4
2494.213	1337.4
2497.93	1319.4
2501.644	1306.4
2505.355	1299.4
2509.062	1309.4
2512.766	1299.4
2516.467	1283.4
2520.165	1267.4
2523.859	1269.4
2527.551	1256.4
2531.239	1245.4
2534.923	1250.4
2538.605	1227.4
2542.283	1235.4
2545.958	1227.4
2549.63	1223.4
2553.299	1222.4
2556.964	1209.4
2560.626	1210.4
2564.285	1193.4
2567.941	1198.4
2571.594	1176.4
2575.243	1180.4
2578.89	1169.4
2582.533	1148.4
2586.173	1158.4
2589.809	1132.4
2593.443	1112.4
2597.073	1125.4
2600.701	1116.4
2604.325	1085.4
2607.946	1084.4
2611.564	1065.4
2615.178	1071.4
2618.79	1068.4
2622.398	1059.4
2626.004	1052.4
2629.606	1020.4
2633.205	1017.4
2636.801	1002.4
2640.394	991.4
2643.983	958.4
2647.57	968.4
2651.153	947.4
2654.734	911.4
2658.311	895.4
2661.885	885.4
2665.456	879.4
2669.025	876.4
2672.589	862.4
2676.151	857.4
2679.71	854.4
2683.266	832.4
2686.819	813.4
2690.368	801.4
2693.915	780.4
2697.458	767.4
2700.999	735.4
2704.536	729.4
2708.071	713.4
2711.602	705.4
2715.13	676.4
2718.656	668.4
2722.178	662.4
2725.697	656.4
2729.214	640.4
2732.727	649.4
2736.237	628.4
2739.744	628.4
2743.249	627.4
2746.75	629.4
2750.248	624.4
2753.743	621.4
2757.236	630.4
2760.725	623.4
2764.211	636.4
2767.695	645.4
2771.175	633.4
2774.652	648.4
2778.127	637.4
2781.598	629.4
2785.067	618.4
2788.532	630.4
2791.995	629.4
2795.455	629.4
2798.911	622.4
2802.365	633.4
2805.816	638.4
2809.264	625.4
2812.709	643.4
2816.151	630.4
2819.59	644.4
2823.026	645.4
2826.46	627.4
2829.89	647.4
2833.318	642.4
2836.742	641.4
2840.164	638.4
2843.583	644.4
2846.999	649.4
2850.412	673.4
2853.822	675.4
2857.229	674.4
2860.634	685.4
2864.035	719.4
2867.434	710.4
2870.83	718.4
2874.223	741.4
2877.613	742.4
2881	772.4
2884.385	766.4
2887.766	768.4
2891.145	766.4
2894.521	761.4
2897.894	768.4
2901.264	750.4
2904.631	761.4
2907.996	772.4
2911.358	759.4
2914.717	765.4
2918.073	776.4
2921.426	784.4
2924.777	789.4
2928.124	813.4
2931.469	824.4
2934.811	838.4
2938.15	848.4
2941.487	843.4
2944.821	851.4
2948.152	869.4
2951.48	845.4
2954.805	841.4
2958.128	846.4
2961.447	843.4
2964.765	829.4
2968.079	845.4
2971.39	839.4
2974.699	835.4
2978.005	861.4
2981.308	879.4
2984.609	896.4
2987.907	914.4
2991.202	933.4
2994.494	941.4
2997.784	967.4
3001.07	974.4
3004.355	992.4
3007.636	1004.4
3010.915	1017.4
3014.191	1025.4
3017.464	1040.4
3020.734	1038.4
3024.002	1058.4
3027.267	1060.4
3030.53	1072.4
3033.789	1085.4
3037.046	1101.4
3040.301	1108.4
3043.552	1124.4
3046.801	1152.4
3050.048	1177.4
3053.291	1203.4
3056.532	1241.4
3059.771	1286.4
3063.006	1348.4
3066.239	1392.4
3069.469	1417.4
3072.697	1450.4
3075.922	1500.4
3079.144	1541.4
3082.364	1552.4
3085.581	1607.4
3088.795	1656.4
3092.007	1654.4
3095.216	1695.4
3098.423	1740.4
3101.627	1801.4
3104.828	1821.4
3108.026	1866.4
3111.222	1920.4
3114.416	1960.4
3117.607	2004.4
3120.795	2045.4
3123.98	2097.4
3127.163	2148.4
3130.344	2206.4
3133.521	2267.4
3136.696	2299.4
3139.869	2370.4
3143.039	2397.4
3146.206	2422.4
3149.371	2453.4
3152.533	2484.4
3155.693	2489.4
3158.85	2503.4
3162.005	2536.4
3165.157	2515.4
3168.306	2527.4
3171.453	2555.4
3174.597	2556.4
3177.739	2560.4
3180.878	2533.4
3184.014	2542.4
3187.149	2548.4
3190.28	2540.4
3193.409	2553.4
3196.536	2559.4
3199.659	2559.4
3202.781	2568.4
3205.9	2563.4
3209.016	2552.4
3212.13	2537.4
3215.241	2525.4
3218.35	2524.4
3221.456	2477.4
3224.56	2479.4
3227.661	2440.4
3230.76	2414.4
3233.856	2380.4
3236.95	2345.4
3240.041	2328.4
3243.13	2326.4
3246.216	2317.4
3249.3	2287.4
3252.382	2288.4
3255.46	2259.4
3258.537	2293.4
3261.611	2283.4
3264.682	2251.4
3267.751	2260.4
3270.818	2281.4
3273.882	2251.4
3276.943	2216.4
3280.002	2227.4
3283.059	2203.4
3286.113	2190.4
3289.165	2123.4
3292.214	2111.4
3295.261	2069.4
3298.306	2025.4
3301.348	1988.4
3304.387	1976.4
3307.425	1933.4
3310.459	1899.4
3313.492	1862.4
3316.521	1844.4
3319.549	1837.4
3322.574	1824.4
3325.597	1796.4
3328.617	1774.4
3331.635	1770.4
3334.65	1750.4
3337.663	1767.4
3340.674	1746.4
3343.682	1741.4
3346.688	1743.4
3349.691	1743.4
3352.692	1719.4
3355.691	1694.4
3358.687	1690.4
3361.681	1689.4
3364.673	1644.4
3367.662	1630.4
3370.649	1597.4
3373.633	1593.4
3376.615	1568.4
3379.595	1529.4
3382.572	1517.4
3385.547	1493.4
3388.52	1474.4
3391.49	1459.4
3394.458	1413.4
3397.424	1385.4
3400.387	1375.4
3403.348	1368.4
3406.307	1350.4
3409.263	1353.4
3412.217	1354.4
3415.168	1309.4
3418.118	1296.4
3421.065	1280.4
3424.009	1261.4
3426.951	1234.4
3429.891	1230.4
3432.829	1174.4
3435.764	1161.4
3438.697	1128.4
3441.628	1102.4
3444.557	1059.4
3447.483	1012.4
3450.407	1006.4
3453.328	977.4
3456.247	926.4
3459.164	894.4
3462.079	864.4
3464.991	841.4
3467.902	805.4
3470.809	767.4
3473.715	763.4
3476.618	706.4
3479.519	674.4
3482.418	655.4
3485.315	631.4
3488.209	613.4
3491.101	586.4
3493.99	564.4
3496.878	535.4
3499.763	518.4
3502.646	494.4
3505.527	477.4
3508.405	459.4
3511.281	423.4
3514.155	403.4
3517.027	376.4
3519.897	348.4
3522.764	317.4
3525.629	307.4
3528.492	265.4
3531.352	239.4
3534.211	209.4
3537.067	194.4
3539.921	178.4
3542.773	144.4
3545.622	126.4
3548.469	108.4
3551.315	87.4
3554.157	80.4
3556.998	60.4
3559.837	51.4
3562.673	30.4
3565.507	5.4
3568.339	-15.6
3571.169	-9.6
3573.996	-30.6
3576.822	-33.6
3579.645	-57.6
3582.466	-69.6
3585.285	-81.6
3588.101	-92.6
3590.916	-108.6
3593.728	-125.6
3596.538	-136.6
3599.346	-144.6
3602.152	-150.6
3604.956	-157.6
3607.757	-179.6
3610.556	-188.6
3613.354	-183.6
3616.149	-203.6
3618.942	-217.6
3621.732	-218.6
3624.521	-229.6
3627.307	-236.6
3630.092	-240.6
3632.874	-248.6
3635.654	-253.6
3638.432	-256.6
3641.208	-261.6
3643.982	-274.6
3646.753	-271.6
3649.523	-284.6
3652.29	-285.6
3655.055	-290.6
3657.818	-300.6
3660.579	-305.6
3663.338	-317.6
3666.095	-318.6
3668.849	-334.6
3671.602	-333.6
3674.352	-336.6
3677.101	-333.6
3679.847	-347.6
3682.591	-345.6
3685.333	-340.6
3688.073	-353.6
3690.811	-358.6
3693.547	-366.6
3696.281	-362.6
3699.013	-371.6
3701.742	-369.6
3704.47	-373.6
3707.195	-379.6
3709.919	-379.6
3712.64	-381.6
3715.359	-378.6
3718.076	-386.6
3720.792	-385.6
3723.505	-384.6
3726.216	-394.6
3728.925	-391.6
3731.632	-400.6
3734.336	-399.6
3737.039	-402.6
3739.74	-399.6
3742.439	-404.6
3745.136	-401.6
3747.83	-412.6
3750.523	-403.6
3753.213	-388.6
3755.902	-413.6
3758.589	-413.6
3761.273	-409.6
3763.956	-417.6
3766.636	-418.6
3769.315	-412.6
3771.991	-411.6
3774.665	-419.6
3777.338	-415.6
3780.008	-422.6
3782.677	-422.6
3785.343	-419.6
3788.007	-422.6
3790.67	-422.6
3793.33	-428.6
3795.989	-433.6
3798.645	-426.6
3801.299	-423.6
3803.952	-431.6
3806.602	-431.6
3809.251	-431.6
3811.897	-430.6
3814.542	-429.6
3817.184	-425.6
3819.825	-424.6
3822.463	-425.6
3825.1	-433.6
3827.735	-423.6
3830.367	-432.6
3832.998	-440.6
3835.627	-441.6
3838.253	-441.6
3840.878	-441.6
3843.501	-437.6
3846.122	-434.6
3848.741	-429.6
3851.358	-429.6
3853.973	-437.6
3856.586	-436.6
3859.197	-434.6
3861.806	-441.6
3864.414	-436.6
3867.019	-432.6
3869.622	-435.6
3872.224	-433.6
3874.823	-415.6
3877.421	-402.6
3880.016	-385.6
3882.61	-354.6
3885.202	-348.6
3887.792	-362.6
3890.38	-399.6
3892.966	-421.6
3895.55	-427.6
3898.132	-446.6
3900.713	-442.6
3903.291	-436.6
3905.868	-443.6
3908.442	-444.6
3911.015	-445.6
3913.586	-442.6
3916.155	-441.6
3918.722	-448.6
3921.287	-441.6
3923.85	-449.6
3926.411	-449.6
3928.971	-455.6
3931.528	-449.6
3934.084	-452.6
3936.638	-445.6
3939.19	-448.6
3941.74	-445.6
3944.288	-450.6
3946.834	-442.6
3949.378	-447.6
3951.921	-440.6
3954.462	-450.6
3957	-444.6
3959.537	-445.6
3962.072	-444.6
3964.606	-448.6
3967.137	-450.6
3969.667	-452.6
3972.194	-444.6
3974.72	-449.6
3977.244	-439.6
3979.766	-433.6
3982.286	-442.6
3984.805	-439.6
3987.321	-434.6
3989.836	-436.6
3992.349	-435.6
3994.86	-432.6
3997.369	-445.6
3999.877	-441.6
4002.382	-436.6
4004.886	-443.6
4007.388	-439.6
4009.888	-433.6
4012.386	-443.6
4014.883	-430.6
4017.377	-436.6
4019.87	-434.6
4022.361	-434.6
4024.85	-437.6
4027.338	-437.6
4029.823	-437.6
4032.307	-442.6
4034.789	-430.6
4037.269	-436.6
4039.747	-440.6
4042.224	-440.6
4044.699	-443.6
4047.172	-443.6
4049.643	-442.6
4052.112	-443.6
4054.58	-443.6
4057.046	-445.6
4059.51	-442.6
4061.972	-440.6
4064.432	-445.6
4066.891	-440.6
4069.348	-434.6
4071.803	-434.6
4074.256	-439.6
4076.708	-434.6
4079.158	-438.6
4081.606	-439.6
4084.052	-445.6
4086.497	-441.6
4088.939	-440.6
4091.38	-442.6
4093.819	-441.6
4096.257	-460.6
4098.693	-461.6
4101.127	-467.6
4103.559	-459.6
4105.989	-244.6
4108.418	-223.6
4110.845	-215.6
4113.27	-203.6
4115.694	-175.6
4118.115	-149.6
4120.535	-439.6
4122.954	-441.6
4125.37	-433.6
4127.785	-436.6
4130.198	-440.6
4132.609	-440.6
4135.019	-461.6
4137.427	-464.6
4139.833	-466.6
4142.237	-456.6
