Data from 2018-2-14_conc=4_n=1_RamanShift_01.txt Node
Date: Wed Feb 14 13:24:25 IST 2018
User: aro
Spectrometer: QEPB0276
Trigger mode: 0
Integration Time (sec): 3.000000E1
Scans to average: 1
Electric dark correction enabled: true
Nonlinearity correction enabled: false
Boxcar width: 0
XAxis mode: Raman Shifts
Number of Pixels in Spectrum: 1044
>>>>>Begin Spectral Data<<<<<
160.701	-155.1
166.742	37.9
172.777	612.9
178.805	2379.9
184.826	6569.9
190.841	13627.9
196.849	21672.9
202.85	27305.9
208.845	29105.9
214.833	28698.9
220.815	28195.9
226.789	28071.9
232.758	27876.9
238.719	27630.9
244.674	27300.9
250.623	26720.9
256.565	26187.9
262.5	25620.9
268.429	25162.9
274.351	24727.9
280.267	24325.9
286.176	24100.9
292.079	23872.9
297.975	23616.9
303.865	23397.9
309.748	23226.9
315.625	23013.9
321.495	22981.9
327.359	22931.9
333.217	22765.9
339.068	22746.9
344.912	22782.9
350.751	22690.9
356.583	22676.9
362.408	22654.9
368.227	22661.9
374.04	22734.9
379.847	22715.9
385.647	22788.9
391.44	22936.9
397.228	22999.9
403.009	23112.9
408.784	23171.9
414.553	23298.9
420.315	23311.9
426.071	23289.9
431.821	23255.9
437.565	23255.9
443.302	23248.9
449.033	23218.9
454.758	23145.9
460.477	23087.9
466.189	23054.9
471.896	23023.9
477.596	22933.9
483.29	22925.9
488.978	22883.9
494.66	22812.9
500.335	22591.9
506.005	22451.9
511.668	22076.9
517.325	21832.9
522.977	21644.9
528.622	21451.9
534.261	21311.9
539.894	21235.9
545.521	21119.9
551.141	21065.9
556.756	20978.9
562.365	20901.9
567.968	20807.9
573.565	20742.9
579.155	20671.9
584.74	20552.9
590.319	20525.9
595.892	20409.9
601.459	20350.9
607.02	20257.9
612.575	20092.9
618.124	20029.9
623.667	19913.9
629.204	19755.9
634.735	19687.9
640.261	19562.9
645.781	19565.9
651.294	19506.9
656.802	19479.9
662.304	19450.9
667.8	19381.9
673.29	19340.9
678.775	19357.9
684.254	19257.9
689.726	19186.9
695.193	19135.9
700.655	19068.9
706.11	18936.9
711.56	18769.9
717.004	18833.9
722.442	18700.9
727.874	18523.9
733.301	18534.9
738.722	18522.9
744.137	18444.9
749.547	18462.9
754.951	18449.9
760.349	18454.9
765.741	18439.9
771.128	18414.9
776.509	18456.9
781.885	18478.9
787.254	18428.9
792.618	18369.9
797.977	18231.9
803.33	18115.9
808.677	18064.9
814.019	17892.9
819.355	17812.9
824.686	17775.9
830.011	17665.9
835.33	17681.9
840.644	17685.9
845.952	17736.9
851.255	17782.9
856.552	17785.9
861.844	17702.9
867.13	17692.9
872.41	17666.9
877.686	17473.9
882.955	17403.9
888.219	17202.9
893.478	17047.9
898.731	16829.9
903.979	16647.9
909.221	16532.9
914.458	16484.9
919.69	16483.9
924.916	16536.9
930.136	16592.9
935.351	16547.9
940.561	16621.9
945.766	16517.9
950.965	16445.9
956.158	16300.9
961.347	16217.9
966.529	15936.9
971.707	15740.9
976.879	15587.9
982.046	15473.9
987.208	15421.9
992.364	15381.9
997.515	15503.9
1002.66	15648.9
1007.801	15822.9
1012.936	15952.9
1018.066	15933.9
1023.19	15945.9
1028.309	15985.9
1033.423	15841.9
1038.532	15801.9
1043.636	15634.9
1048.734	15471.9
1053.827	15276.9
1058.915	15162.9
1063.998	14977.9
1069.075	15004.9
1074.147	14983.9
1079.214	14956.9
1084.276	15089.9
1089.333	15202.9
1094.385	15302.9
1099.431	15320.9
1104.472	15326.9
1109.509	15234.9
1114.54	15100.9
1119.565	14837.9
1124.586	14662.9
1129.602	14514.9
1134.613	14425.9
1139.618	14296.9
1144.619	14295.9
1149.614	14301.9
1154.604	14354.9
1159.589	14368.9
1164.57	14379.9
1169.545	14423.9
1174.515	14430.9
1179.48	14299.9
1184.44	14249.9
1189.395	14161.9
1194.345	14027.9
1199.29	13934.9
1204.23	13958.9
1209.165	14052.9
1214.095	14040.9
1219.021	14163.9
1223.941	14192.9
1228.856	14315.9
1233.766	14307.9
1238.672	14333.9
1243.572	14348.9
1248.467	14225.9
1253.358	14091.9
1258.244	13906.9
1263.124	13656.9
1268	13452.9
1272.871	13313.9
1277.737	13221.9
1282.599	13142.9
1287.455	13124.9
1292.306	13144.9
1297.153	13232.9
1301.995	13273.9
1306.832	13330.9
1311.664	13348.9
1316.491	13302.9
1321.314	13160.9
1326.132	12975.9
1330.945	12694.9
1335.753	12335.9
1340.556	12012.9
1345.354	11761.9
1350.148	11563.9
1354.937	11430.9
1359.722	11422.9
1364.501	11506.9
1369.276	11659.9
1374.046	11841.9
1378.811	12004.9
1383.572	12177.9
1388.327	12281.9
1393.079	12157.9
1397.825	12033.9
1402.567	11888.9
1407.304	11679.9
1412.036	11575.9
1416.764	11523.9
1421.487	11404.9
1426.205	11311.9
1430.919	11275.9
1435.628	11290.9
1440.333	11312.9
1445.032	11339.9
1449.727	11381.9
1454.418	11345.9
1459.104	11239.9
1463.785	11023.9
1468.462	10784.9
1473.134	10520.9
1477.802	10279.9
1482.465	10117.9
1487.123	9994.9
1491.777	9953.9
1496.426	9974.9
1501.071	10162.9
1505.711	10289.9
1510.347	10450.9
1514.978	10668.9
1519.604	10865.9
1524.226	10948.9
1528.844	10961.9
1533.457	10947.9
1538.065	10906.9
1542.669	10869.9
1547.269	10745.9
1551.864	10690.9
1556.454	10656.9
1561.041	10615.9
1565.622	10628.9
1570.199	10689.9
1574.772	10708.9
1579.34	10720.9
1583.904	10811.9
1588.464	10868.9
1593.019	10892.9
1597.569	10849.9
1602.115	10745.9
1606.657	10698.9
1611.195	10661.9
1615.728	10563.9
1620.256	10581.9
1624.78	10528.9
1629.3	10521.9
1633.816	10538.9
1638.327	10606.9
1642.834	10700.9
1647.336	10702.9
1651.834	10694.9
1656.328	10692.9
1660.817	10616.9
1665.302	10544.9
1669.783	10348.9
1674.259	10133.9
1678.732	9806.9
1683.199	9505.9
1687.663	9128.9
1692.122	8803.9
1696.577	8705.9
1701.028	8686.9
1705.474	8778.9
1709.917	8838.9
1714.355	8902.9
1718.788	9014.9
1723.218	8757.9
1727.643	8576.9
1732.064	8349.9
1736.481	8223.9
1740.893	7987.9
1745.301	7771.9
1749.705	7565.9
1754.105	7364.9
1758.501	7131.9
1762.893	6965.9
1767.28	6762.9
1771.663	6611.9
1776.042	6468.9
1780.417	6387.9
1784.787	6422.9
1789.154	6477.9
1793.516	6586.9
1797.874	6713.9
1802.228	6844.9
1806.578	6915.9
1810.924	6948.9
1815.266	6858.9
1819.603	6772.9
1823.937	6645.9
1828.266	6548.9
1832.591	6457.9
1836.913	6357.9
1841.23	6302.9
1845.543	6244.9
1849.852	6205.9
1854.156	6168.9
1858.457	6214.9
1862.754	6167.9
1867.047	6167.9
1871.335	6156.9
1875.62	6136.9
1879.9	6131.9
1884.177	6097.9
1888.449	6001.9
1892.718	5936.9
1896.982	5857.9
1901.243	5850.9
1905.499	5754.9
1909.752	5719.9
1914	5762.9
1918.245	5743.9
1922.485	5806.9
1926.722	5876.9
1930.954	5943.9
1935.183	6025.9
1939.408	6086.9
1943.628	6126.9
1947.845	6114.9
1952.058	6135.9
1956.267	6096.9
1960.472	6003.9
1964.673	5898.9
1968.87	5830.9
1973.063	5737.9
1977.252	5681.9
1981.438	5609.9
1985.619	5584.9
1989.797	5515.9
1993.971	5472.9
1998.14	5453.9
2002.306	5415.9
2006.469	5428.9
2010.627	5391.9
2014.781	5355.9
2018.932	5286.9
2023.078	5242.9
2027.221	5154.9
2031.36	5098.9
2035.495	5017.9
2039.627	4936.9
2043.754	4879.9
2047.878	4826.9
2051.998	4780.9
2056.114	4809.9
2060.226	4810.9
2064.334	4781.9
2068.439	4813.9
2072.54	4838.9
2076.637	4840.9
2080.73	4868.9
2084.82	4924.9
2088.906	4915.9
2092.988	4936.9
2097.066	4892.9
2101.14	4919.9
2105.211	4847.9
2109.278	4816.9
2113.342	4809.9
2117.401	4789.9
2121.457	4764.9
2125.509	4734.9
2129.558	4707.9
2133.602	4699.9
2137.643	4665.9
2141.681	4661.9
2145.714	4638.9
2149.744	4580.9
2153.77	4565.9
2157.793	4510.9
2161.812	4457.9
2165.827	4396.9
2169.838	4322.9
2173.846	4237.9
2177.851	4157.9
2181.851	4094.9
2185.848	4094.9
2189.841	4036.9
2193.831	3976.9
2197.817	3971.9
2201.799	3914.9
2205.778	3901.9
2209.753	3894.9
2213.725	3894.9
2217.693	3871.9
2221.657	3849.9
2225.618	3861.9
2229.575	3847.9
2233.529	3825.9
2237.479	3783.9
2241.425	3721.9
2245.368	3672.9
2249.307	3647.9
2253.243	3550.9
2257.175	3514.9
2261.104	3478.9
2265.029	3467.9
2268.95	3407.9
2272.868	3373.9
2276.783	3333.9
2280.694	3287.9
2284.601	3256.9
2288.505	3244.9
2292.405	3208.9
2296.302	3188.9
2300.195	3134.9
2304.085	3092.9
2307.971	3055.9
2311.854	3017.9
2315.734	2958.9
2319.609	2909.9
2323.482	2884.9
2327.351	2867.9
2331.216	2832.9
2335.078	2835.9
2338.937	2826.9
2342.792	2792.9
2346.643	2796.9
2350.492	2784.9
2354.336	2766.9
2358.178	2794.9
2362.015	2819.9
2365.85	2814.9
2369.681	2785.9
2373.508	2816.9
2377.333	2789.9
2381.153	2788.9
2384.971	2762.9
2388.785	2769.9
2392.595	2732.9
2396.402	2701.9
2400.206	2667.9
2404.007	2655.9
2407.804	2659.9
2411.597	2631.9
2415.388	2620.9
2419.174	2607.9
2422.958	2564.9
2426.738	2554.9
2430.515	2549.9
2434.289	2524.9
2438.059	2496.9
2441.825	2471.9
2445.589	2455.9
2449.349	2402.9
2453.106	2383.9
2456.859	2342.9
2460.61	2333.9
2464.356	2301.9
2468.1	2283.9
2471.84	2224.9
2475.577	2224.9
2479.311	2211.9
2483.041	2207.9
2486.768	2204.9
2490.492	2177.9
2494.213	2176.9
2497.93	2188.9
2501.644	2160.9
2505.355	2161.9
2509.062	2131.9
2512.766	2105.9
2516.467	2138.9
2520.165	2104.9
2523.859	2085.9
2527.551	2066.9
2531.239	2044.9
2534.923	2039.9
2538.605	2017.9
2542.283	2033.9
2545.958	1997.9
2549.63	2026.9
2553.299	2024.9
2556.964	2004.9
2560.626	1995.9
2564.285	1991.9
2567.941	1974.9
2571.594	1978.9
2575.243	1959.9
2578.89	1927.9
2582.533	1935.9
2586.173	1918.9
2589.809	1913.9
2593.443	1895.9
2597.073	1869.9
2600.701	1852.9
2604.325	1832.9
2607.946	1813.9
2611.564	1812.9
2615.178	1798.9
2618.79	1784.9
2622.398	1783.9
2626.004	1747.9
2629.606	1735.9
2633.205	1704.9
2636.801	1679.9
2640.394	1674.9
2643.983	1630.9
2647.57	1637.9
2651.153	1592.9
2654.734	1547.9
2658.311	1527.9
2661.885	1507.9
2665.456	1491.9
2669.025	1477.9
2672.589	1448.9
2676.151	1460.9
2679.71	1422.9
2683.266	1399.9
2686.819	1370.9
2690.368	1354.9
2693.915	1322.9
2697.458	1308.9
2700.999	1268.9
2704.536	1242.9
2708.071	1205.9
2711.602	1178.9
2715.13	1154.9
2718.656	1133.9
2722.178	1110.9
2725.697	1094.9
2729.214	1077.9
2732.727	1070.9
2736.237	1059.9
2739.744	1068.9
2743.249	1068.9
2746.75	1068.9
2750.248	1086.9
2753.743	1083.9
2757.236	1109.9
2760.725	1111.9
2764.211	1115.9
2767.695	1142.9
2771.175	1126.9
2774.652	1105.9
2778.127	1108.9
2781.598	1110.9
2785.067	1084.9
2788.532	1097.9
2791.995	1097.9
2795.455	1095.9
2798.911	1098.9
2802.365	1092.9
2805.816	1099.9
2809.264	1094.9
2812.709	1098.9
2816.151	1094.9
2819.59	1094.9
2823.026	1096.9
2826.46	1090.9
2829.89	1103.9
2833.318	1108.9
2836.742	1117.9
2840.164	1116.9
2843.583	1124.9
2846.999	1133.9
2850.412	1138.9
2853.822	1155.9
2857.229	1171.9
2860.634	1195.9
2864.035	1221.9
2867.434	1250.9
2870.83	1256.9
2874.223	1269.9
2877.613	1295.9
2881	1329.9
2884.385	1319.9
2887.766	1330.9
2891.145	1331.9
2894.521	1313.9
2897.894	1322.9
2901.264	1319.9
2904.631	1317.9
2907.996	1332.9
2911.358	1328.9
2914.717	1359.9
2918.073	1349.9
2921.426	1385.9
2924.777	1406.9
2928.124	1412.9
2931.469	1432.9
2934.811	1450.9
2938.15	1471.9
2941.487	1498.9
2944.821	1490.9
2948.152	1487.9
2951.48	1487.9
2954.805	1478.9
2958.128	1471.9
2961.447	1447.9
2964.765	1456.9
2968.079	1442.9
2971.39	1458.9
2974.699	1478.9
2978.005	1513.9
2981.308	1547.9
2984.609	1557.9
2987.907	1570.9
2991.202	1614.9
2994.494	1660.9
2997.784	1682.9
3001.07	1723.9
3004.355	1741.9
3007.636	1775.9
3010.915	1790.9
3014.191	1803.9
3017.464	1824.9
3020.734	1854.9
3024.002	1853.9
3027.267	1869.9
3030.53	1877.9
3033.789	1891.9
3037.046	1904.9
3040.301	1942.9
3043.552	1998.9
3046.801	2029.9
3050.048	2053.9
3053.291	2142.9
3056.532	2207.9
3059.771	2240.9
3063.006	2285.9
3066.239	2363.9
3069.469	2458.9
3072.697	2519.9
3075.922	2592.9
3079.144	2650.9
3082.364	2701.9
3085.581	2771.9
3088.795	2810.9
3092.007	2892.9
3095.216	2956.9
3098.423	3021.9
3101.627	3067.9
3104.828	3130.9
3108.026	3193.9
3111.222	3291.9
3114.416	3347.9
3117.607	3445.9
3120.795	3510.9
3123.98	3572.9
3127.163	3681.9
3130.344	3752.9
3133.521	3847.9
3136.696	3964.9
3139.869	4008.9
3143.039	4091.9
3146.206	4114.9
3149.371	4175.9
3152.533	4223.9
3155.693	4258.9
3158.85	4275.9
3162.005	4314.9
3165.157	4330.9
3168.306	4331.9
3171.453	4338.9
3174.597	4356.9
3177.739	4341.9
3180.878	4329.9
3184.014	4348.9
3187.149	4380.9
3190.28	4371.9
3193.409	4331.9
3196.536	4349.9
3199.659	4372.9
3202.781	4397.9
3205.9	4383.9
3209.016	4390.9
3212.13	4339.9
3215.241	4327.9
3218.35	4328.9
3221.456	4225.9
3224.56	4200.9
3227.661	4135.9
3230.76	4108.9
3233.856	4065.9
3236.95	4016.9
3240.041	3994.9
3243.13	4006.9
3246.216	3960.9
3249.3	3941.9
3252.382	3898.9
3255.46	3889.9
3258.537	3843.9
3261.611	3900.9
3264.682	3890.9
3267.751	3881.9
3270.818	3864.9
3273.882	3873.9
3276.943	3820.9
3280.002	3804.9
3283.059	3768.9
3286.113	3732.9
3289.165	3677.9
3292.214	3620.9
3295.261	3576.9
3298.306	3493.9
3301.348	3431.9
3304.387	3374.9
3307.425	3319.9
3310.459	3274.9
3313.492	3235.9
3316.521	3191.9
3319.549	3153.9
3322.574	3114.9
3325.597	3116.9
3328.617	3094.9
3331.635	3044.9
3334.65	3024.9
3337.663	3002.9
3340.674	3000.9
3343.682	3008.9
3346.688	2959.9
3349.691	2979.9
3352.692	2922.9
3355.691	2921.9
3358.687	2910.9
3361.681	2865.9
3364.673	2836.9
3367.662	2769.9
3370.649	2721.9
3373.633	2730.9
3376.615	2671.9
3379.595	2613.9
3382.572	2598.9
3385.547	2536.9
3388.52	2521.9
3391.49	2465.9
3394.458	2446.9
3397.424	2384.9
3400.387	2391.9
3403.348	2347.9
3406.307	2320.9
3409.263	2309.9
3412.217	2268.9
3415.168	2241.9
3418.118	2210.9
3421.065	2179.9
3424.009	2166.9
3426.951	2124.9
3429.891	2072.9
3432.829	2049.9
3435.764	1998.9
3438.697	1923.9
3441.628	1899.9
3444.557	1830.9
3447.483	1762.9
3450.407	1724.9
3453.328	1675.9
3456.247	1602.9
3459.164	1555.9
3462.079	1492.9
3464.991	1437.9
3467.902	1384.9
3470.809	1341.9
3473.715	1283.9
3476.618	1236.9
3479.519	1205.9
3482.418	1163.9
3485.315	1125.9
3488.209	1091.9
3491.101	1042.9
3493.99	1009.9
3496.878	954.9
3499.763	930.9
3502.646	886.9
3505.527	851.9
3508.405	812.9
3511.281	767.9
3514.155	715.9
3517.027	690.9
3519.897	636.9
3522.764	578.9
3525.629	551.9
3528.492	475.9
3531.352	470.9
3534.211	420.9
3537.067	376.9
3539.921	345.9
3542.773	316.9
3545.622	263.9
3548.469	239.9
3551.315	211.9
3554.157	183.9
3556.998	144.9
3559.837	124.9
3562.673	97.9
3565.507	65.9
3568.339	36.9
3571.169	30.9
3573.996	6.9
3576.822	-1.1
3579.645	-37.1
3582.466	-62.1
3585.285	-86.1
3588.101	-101.1
3590.916	-131.1
3593.728	-146.1
3596.538	-162.1
3599.346	-198.1
3602.152	-200.1
3604.956	-226.1
3607.757	-240.1
3610.556	-266.1
3613.354	-274.1
3616.149	-289.1
3618.942	-293.1
3621.732	-319.1
3624.521	-327.1
3627.307	-329.1
3630.092	-342.1
3632.874	-355.1
3635.654	-365.1
3638.432	-365.1
3641.208	-368.1
3643.982	-394.1
3646.753	-401.1
3649.523	-410.1
3652.29	-425.1
3655.055	-431.1
3657.818	-445.1
3660.579	-454.1
3663.338	-471.1
3666.095	-475.1
3668.849	-484.1
3671.602	-489.1
3674.352	-502.1
3677.101	-512.1
3679.847	-517.1
3682.591	-529.1
3685.333	-527.1
3688.073	-531.1
3690.811	-546.1
3693.547	-551.1
3696.281	-553.1
3699.013	-559.1
3701.742	-563.1
3704.47	-566.1
3707.195	-576.1
3709.919	-576.1
3712.64	-586.1
3715.359	-584.1
3718.076	-595.1
3720.792	-592.1
3723.505	-592.1
3726.216	-605.1
3728.925	-599.1
3731.632	-608.1
3734.336	-603.1
3737.039	-615.1
3739.74	-612.1
3742.439	-612.1
3745.136	-618.1
3747.83	-626.1
3750.523	-624.1
3753.213	-621.1
3755.902	-631.1
3758.589	-632.1
3761.273	-634.1
3763.956	-644.1
3766.636	-643.1
3769.315	-644.1
3771.991	-642.1
3774.665	-645.1
3777.338	-649.1
3780.008	-649.1
3782.677	-649.1
3785.343	-642.1
3788.007	-652.1
3790.67	-651.1
3793.33	-650.1
3795.989	-652.1
3798.645	-654.1
3801.299	-646.1
3803.952	-663.1
3806.602	-664.1
3809.251	-665.1
3811.897	-658.1
3814.542	-665.1
3817.184	-664.1
3819.825	-661.1
3822.463	-662.1
3825.1	-669.1
3827.735	-666.1
3830.367	-662.1
3832.998	-673.1
3835.627	-674.1
3838.253	-674.1
3840.878	-671.1
3843.501	-673.1
3846.122	-664.1
3848.741	-666.1
3851.358	-667.1
3853.973	-673.1
3856.586	-680.1
3859.197	-677.1
3861.806	-681.1
3864.414	-670.1
3867.019	-681.1
3869.622	-674.1
3872.224	-673.1
3874.823	-655.1
3877.421	-646.1
3880.016	-631.1
3882.61	-608.1
3885.202	-605.1
3887.792	-619.1
3890.38	-646.1
3892.966	-669.1
3895.55	-674.1
3898.132	-691.1
3900.713	-694.1
3903.291	-688.1
3905.868	-689.1
3908.442	-688.1
3911.015	-690.1
3913.586	-685.1
3916.155	-684.1
3918.722	-694.1
3921.287	-690.1
3923.85	-696.1
3926.411	-695.1
3928.971	-701.1
3931.528	-700.1
3934.084	-698.1
3936.638	-696.1
3939.19	-694.1
3941.74	-691.1
3944.288	-700.1
3946.834	-690.1
3949.378	-690.1
3951.921	-694.1
3954.462	-698.1
3957	-691.1
3959.537	-694.1
3962.072	-694.1
3964.606	-690.1
3967.137	-692.1
3969.667	-695.1
3972.194	-687.1
3974.72	-691.1
3977.244	-680.1
3979.766	-685.1
3982.286	-687.1
3984.805	-683.1
3987.321	-683.1
3989.836	-686.1
3992.349	-671.1
3994.86	-679.1
3997.369	-684.1
3999.877	-675.1
4002.382	-674.1
4004.886	-675.1
4007.388	-674.1
4009.888	-677.1
4012.386	-681.1
4014.883	-677.1
4017.377	-677.1
4019.87	-676.1
4022.361	-678.1
4024.85	-683.1
4027.338	-686.1
4029.823	-680.1
4032.307	-684.1
4034.789	-681.1
4037.269	-679.1
4039.747	-674.1
4042.224	-682.1
4044.699	-682.1
4047.172	-682.1
4049.643	-675.1
4052.112	-685.1
4054.58	-685.1
4057.046	-682.1
4059.51	-682.1
4061.972	-687.1
4064.432	-688.1
4066.891	-682.1
4069.348	-687.1
4071.803	-680.1
4074.256	-679.1
4076.708	-684.1
4079.158	-677.1
4081.606	-680.1
4084.052	-684.1
4086.497	-681.1
4088.939	-677.1
4091.38	-678.1
4093.819	-675.1
4096.257	-716.1
4098.693	-718.1
4101.127	-721.1
4103.559	-714.1
4105.989	-422.1
4108.418	-395.1
4110.845	-377.1
4113.27	-344.1
4115.694	-314.1
4118.115	-256.1
4120.535	-677.1
4122.954	-676.1
4125.37	-674.1
4127.785	-683.1
4130.198	-686.1
4132.609	-682.1
4135.019	-716.1
4137.427	-723.1
4139.833	-720.1
4142.237	-716.1
