Data from 2018-2-14_conc=4_n=1_RamanShift_05.txt Node
Date: Wed Feb 14 13:26:25 IST 2018
User: aro
Spectrometer: QEPB0276
Trigger mode: 0
Integration Time (sec): 3.000000E1
Scans to average: 1
Electric dark correction enabled: true
Nonlinearity correction enabled: false
Boxcar width: 0
XAxis mode: Raman Shifts
Number of Pixels in Spectrum: 1044
>>>>>Begin Spectral Data<<<<<
160.701	-169.9
166.742	44.1
172.777	631.1
178.805	2417.1
184.826	6711.1
190.841	13948.1
196.849	22220.1
202.85	28015.1
208.845	29793.1
214.833	29492.1
220.815	28996.1
226.789	28891.1
232.758	28757.1
238.719	28566.1
244.674	28259.1
250.623	27751.1
256.565	27239.1
262.5	26653.1
268.429	26207.1
274.351	25852.1
280.267	25496.1
286.176	25257.1
292.079	25001.1
297.975	24846.1
303.865	24527.1
309.748	24380.1
315.625	24251.1
321.495	24164.1
327.359	24076.1
333.217	24000.1
339.068	23967.1
344.912	23927.1
350.751	23872.1
356.583	23962.1
362.408	23927.1
368.227	23913.1
374.04	23938.1
379.847	23993.1
385.647	24093.1
391.44	24237.1
397.228	24256.1
403.009	24408.1
408.784	24443.1
414.553	24540.1
420.315	24655.1
426.071	24591.1
431.821	24607.1
437.565	24649.1
443.302	24601.1
449.033	24478.1
454.758	24500.1
460.477	24446.1
466.189	24333.1
471.896	24325.1
477.596	24295.1
483.29	24189.1
488.978	24178.1
494.66	24115.1
500.335	23953.1
506.005	23692.1
511.668	23437.1
517.325	23120.1
522.977	22982.1
528.622	22827.1
534.261	22665.1
539.894	22625.1
545.521	22480.1
551.141	22390.1
556.756	22357.1
562.365	22295.1
567.968	22141.1
573.565	22085.1
579.155	21973.1
584.74	21961.1
590.319	21857.1
595.892	21745.1
601.459	21749.1
607.02	21591.1
612.575	21470.1
618.124	21381.1
623.667	21224.1
629.204	21150.1
634.735	21024.1
640.261	20973.1
645.781	20861.1
651.294	20843.1
656.802	20844.1
662.304	20743.1
667.8	20724.1
673.29	20707.1
678.775	20669.1
684.254	20578.1
689.726	20543.1
695.193	20435.1
700.655	20398.1
706.11	20285.1
711.56	20137.1
717.004	20099.1
722.442	19992.1
727.874	19911.1
733.301	19826.1
738.722	19788.1
744.137	19770.1
749.547	19714.1
754.951	19750.1
760.349	19715.1
765.741	19778.1
771.128	19728.1
776.509	19855.1
781.885	19789.1
787.254	19708.1
792.618	19698.1
797.977	19511.1
803.33	19403.1
808.677	19272.1
814.019	19244.1
819.355	19065.1
824.686	19045.1
830.011	18891.1
835.33	18958.1
840.644	18955.1
845.952	19009.1
851.255	19074.1
856.552	19146.1
861.844	19019.1
867.13	18974.1
872.41	18909.1
877.686	18830.1
882.955	18568.1
888.219	18480.1
893.478	18353.1
898.731	18135.1
903.979	17913.1
909.221	17788.1
914.458	17746.1
919.69	17731.1
924.916	17745.1
930.136	17835.1
935.351	17815.1
940.561	17870.1
945.766	17807.1
950.965	17787.1
956.158	17598.1
961.347	17416.1
966.529	17149.1
971.707	17013.1
976.879	16771.1
982.046	16622.1
987.208	16600.1
992.364	16601.1
997.515	16711.1
1002.66	16790.1
1007.801	16983.1
1012.936	17181.1
1018.066	17169.1
1023.19	17153.1
1028.309	17187.1
1033.423	17093.1
1038.532	17014.1
1043.636	16823.1
1048.734	16636.1
1053.827	16449.1
1058.915	16306.1
1063.998	16173.1
1069.075	16142.1
1074.147	16165.1
1079.214	16197.1
1084.276	16318.1
1089.333	16385.1
1094.385	16426.1
1099.431	16528.1
1104.472	16548.1
1109.509	16423.1
1114.54	16213.1
1119.565	15949.1
1124.586	15818.1
1129.602	15661.1
1134.613	15530.1
1139.618	15420.1
1144.619	15424.1
1149.614	15392.1
1154.604	15472.1
1159.589	15505.1
1164.57	15532.1
1169.545	15569.1
1174.515	15562.1
1179.48	15505.1
1184.44	15445.1
1189.395	15308.1
1194.345	15159.1
1199.29	15069.1
1204.23	15102.1
1209.165	15122.1
1214.095	15177.1
1219.021	15230.1
1223.941	15386.1
1228.856	15442.1
1233.766	15461.1
1238.672	15522.1
1243.572	15494.1
1248.467	15350.1
1253.358	15213.1
1258.244	14968.1
1263.124	14726.1
1268	14540.1
1272.871	14375.1
1277.737	14242.1
1282.599	14237.1
1287.455	14241.1
1292.306	14221.1
1297.153	14267.1
1301.995	14328.1
1306.832	14356.1
1311.664	14364.1
1316.491	14407.1
1321.314	14230.1
1326.132	14026.1
1330.945	13711.1
1335.753	13357.1
1340.556	12955.1
1345.354	12627.1
1350.148	12475.1
1354.937	12379.1
1359.722	12412.1
1364.501	12533.1
1369.276	12676.1
1374.046	12919.1
1378.811	13146.1
1383.572	13313.1
1388.327	13356.1
1393.079	13274.1
1397.825	13095.1
1402.567	12874.1
1407.304	12733.1
1412.036	12580.1
1416.764	12483.1
1421.487	12409.1
1426.205	12330.1
1430.919	12284.1
1435.628	12270.1
1440.333	12298.1
1445.032	12277.1
1449.727	12310.1
1454.418	12302.1
1459.104	12147.1
1463.785	11919.1
1468.462	11631.1
1473.134	11423.1
1477.802	11231.1
1482.465	11025.1
1487.123	10910.1
1491.777	10861.1
1496.426	10992.1
1501.071	11104.1
1505.711	11286.1
1510.347	11536.1
1514.978	11765.1
1519.604	11942.1
1524.226	12042.1
1528.844	12106.1
1533.457	12082.1
1538.065	11965.1
1542.669	11871.1
1547.269	11756.1
1551.864	11710.1
1556.454	11680.1
1561.041	11635.1
1565.622	11578.1
1570.199	11591.1
1574.772	11655.1
1579.34	11760.1
1583.904	11800.1
1588.464	11819.1
1593.019	11789.1
1597.569	11778.1
1602.115	11703.1
1606.657	11594.1
1611.195	11521.1
1615.728	11445.1
1620.256	11358.1
1624.78	11387.1
1629.3	11403.1
1633.816	11442.1
1638.327	11483.1
1642.834	11490.1
1647.336	11576.1
1651.834	11607.1
1656.328	11541.1
1660.817	11469.1
1665.302	11400.1
1669.783	11260.1
1674.259	10982.1
1678.732	10731.1
1683.199	10309.1
1687.663	9965.1
1692.122	9621.1
1696.577	9522.1
1701.028	9549.1
1705.474	9703.1
1709.917	9837.1
1714.355	9881.1
1718.788	9819.1
1723.218	9617.1
1727.643	9480.1
1732.064	9270.1
1736.481	9065.1
1740.893	8847.1
1745.301	8628.1
1749.705	8409.1
1754.105	8179.1
1758.501	7907.1
1762.893	7680.1
1767.28	7507.1
1771.663	7333.1
1776.042	7166.1
1780.417	7139.1
1784.787	7112.1
1789.154	7219.1
1793.516	7397.1
1797.874	7518.1
1802.228	7704.1
1806.578	7791.1
1810.924	7807.1
1815.266	7688.1
1819.603	7582.1
1823.937	7441.1
1828.266	7332.1
1832.591	7227.1
1836.913	7131.1
1841.23	7048.1
1845.543	7008.1
1849.852	6951.1
1854.156	6910.1
1858.457	6872.1
1862.754	6865.1
1867.047	6876.1
1871.335	6854.1
1875.62	6869.1
1879.9	6823.1
1884.177	6764.1
1888.449	6702.1
1892.718	6632.1
1896.982	6601.1
1901.243	6513.1
1905.499	6498.1
1909.752	6414.1
1914	6459.1
1918.245	6485.1
1922.485	6562.1
1926.722	6605.1
1930.954	6715.1
1935.183	6758.1
1939.408	6832.1
1943.628	6904.1
1947.845	6927.1
1952.058	6894.1
1956.267	6853.1
1960.472	6792.1
1964.673	6645.1
1968.87	6535.1
1973.063	6446.1
1977.252	6366.1
1981.438	6292.1
1985.619	6213.1
1989.797	6150.1
1993.971	6105.1
1998.14	6110.1
2002.306	6060.1
2006.469	5978.1
2010.627	6012.1
2014.781	5953.1
2018.932	5891.1
2023.078	5866.1
2027.221	5755.1
2031.36	5663.1
2035.495	5613.1
2039.627	5475.1
2043.754	5435.1
2047.878	5381.1
2051.998	5368.1
2056.114	5333.1
2060.226	5323.1
2064.334	5364.1
2068.439	5361.1
2072.54	5426.1
2076.637	5415.1
2080.73	5441.1
2084.82	5514.1
2088.906	5520.1
2092.988	5490.1
2097.066	5473.1
2101.14	5465.1
2105.211	5428.1
2109.278	5359.1
2113.342	5358.1
2117.401	5342.1
2121.457	5319.1
2125.509	5291.1
2129.558	5236.1
2133.602	5181.1
2137.643	5176.1
2141.681	5164.1
2145.714	5135.1
2149.744	5093.1
2153.77	5058.1
2157.793	4979.1
2161.812	4949.1
2165.827	4878.1
2169.838	4798.1
2173.846	4702.1
2177.851	4632.1
2181.851	4584.1
2185.848	4487.1
2189.841	4461.1
2193.831	4426.1
2197.817	4355.1
2201.799	4367.1
2205.778	4333.1
2209.753	4331.1
2213.725	4294.1
2217.693	4284.1
2221.657	4286.1
2225.618	4254.1
2229.575	4281.1
2233.529	4220.1
2237.479	4178.1
2241.425	4133.1
2245.368	4058.1
2249.307	4023.1
2253.243	3973.1
2257.175	3887.1
2261.104	3838.1
2265.029	3796.1
2268.95	3730.1
2272.868	3712.1
2276.783	3682.1
2280.694	3648.1
2284.601	3621.1
2288.505	3586.1
2292.405	3550.1
2296.302	3490.1
2300.195	3477.1
2304.085	3440.1
2307.971	3384.1
2311.854	3328.1
2315.734	3259.1
2319.609	3217.1
2323.482	3189.1
2327.351	3159.1
2331.216	3120.1
2335.078	3098.1
2338.937	3073.1
2342.792	3077.1
2346.643	3050.1
2350.492	3048.1
2354.336	3053.1
2358.178	3073.1
2362.015	3077.1
2365.85	3081.1
2369.681	3078.1
2373.508	3086.1
2377.333	3086.1
2381.153	3063.1
2384.971	3051.1
2388.785	2998.1
2392.595	2971.1
2396.402	2946.1
2400.206	2947.1
2404.007	2912.1
2407.804	2896.1
2411.597	2890.1
2415.388	2837.1
2419.174	2827.1
2422.958	2797.1
2426.738	2793.1
2430.515	2769.1
2434.289	2737.1
2438.059	2727.1
2441.825	2704.1
2445.589	2676.1
2449.349	2651.1
2453.106	2612.1
2456.859	2559.1
2460.61	2538.1
2464.356	2506.1
2468.1	2492.1
2471.84	2458.1
2475.577	2434.1
2479.311	2418.1
2483.041	2382.1
2486.768	2413.1
2490.492	2411.1
2494.213	2397.1
2497.93	2370.1
2501.644	2353.1
2505.355	2348.1
2509.062	2358.1
2512.766	2317.1
2516.467	2319.1
2520.165	2318.1
2523.859	2283.1
2527.551	2276.1
2531.239	2275.1
2534.923	2246.1
2538.605	2213.1
2542.283	2213.1
2545.958	2233.1
2549.63	2228.1
2553.299	2231.1
2556.964	2215.1
2560.626	2212.1
2564.285	2216.1
2567.941	2192.1
2571.594	2175.1
2575.243	2148.1
2578.89	2154.1
2582.533	2150.1
2586.173	2097.1
2589.809	2103.1
2593.443	2089.1
2597.073	2059.1
2600.701	2036.1
2604.325	2022.1
2607.946	2016.1
2611.564	1990.1
2615.178	1992.1
2618.79	1978.1
2622.398	1947.1
2626.004	1927.1
2629.606	1909.1
2633.205	1892.1
2636.801	1852.1
2640.394	1852.1
2643.983	1789.1
2647.57	1768.1
2651.153	1745.1
2654.734	1710.1
2658.311	1700.1
2661.885	1664.1
2665.456	1624.1
2669.025	1605.1
2672.589	1610.1
2676.151	1559.1
2679.71	1553.1
2683.266	1526.1
2686.819	1519.1
2690.368	1492.1
2693.915	1454.1
2697.458	1415.1
2700.999	1385.1
2704.536	1369.1
2708.071	1314.1
2711.602	1278.1
2715.13	1261.1
2718.656	1246.1
2722.178	1213.1
2725.697	1211.1
2729.214	1195.1
2732.727	1176.1
2736.237	1167.1
2739.744	1180.1
2743.249	1171.1
2746.75	1198.1
2750.248	1185.1
2753.743	1219.1
2757.236	1248.1
2760.725	1236.1
2764.211	1253.1
2767.695	1257.1
2771.175	1246.1
2774.652	1245.1
2778.127	1242.1
2781.598	1207.1
2785.067	1205.1
2788.532	1206.1
2791.995	1215.1
2795.455	1189.1
2798.911	1213.1
2802.365	1208.1
2805.816	1194.1
2809.264	1194.1
2812.709	1190.1
2816.151	1197.1
2819.59	1192.1
2823.026	1205.1
2826.46	1209.1
2829.89	1219.1
2833.318	1210.1
2836.742	1220.1
2840.164	1214.1
2843.583	1221.1
2846.999	1222.1
2850.412	1233.1
2853.822	1247.1
2857.229	1262.1
2860.634	1280.1
2864.035	1309.1
2867.434	1306.1
2870.83	1352.1
2874.223	1380.1
2877.613	1382.1
2881	1410.1
2884.385	1407.1
2887.766	1397.1
2891.145	1391.1
2894.521	1408.1
2897.894	1400.1
2901.264	1380.1
2904.631	1409.1
2907.996	1409.1
2911.358	1390.1
2914.717	1407.1
2918.073	1423.1
2921.426	1417.1
2924.777	1454.1
2928.124	1471.1
2931.469	1509.1
2934.811	1505.1
2938.15	1514.1
2941.487	1544.1
2944.821	1546.1
2948.152	1540.1
2951.48	1546.1
2954.805	1506.1
2958.128	1497.1
2961.447	1501.1
2964.765	1513.1
2968.079	1503.1
2971.39	1518.1
2974.699	1527.1
2978.005	1575.1
2981.308	1590.1
2984.609	1581.1
2987.907	1645.1
2991.202	1654.1
2994.494	1715.1
2997.784	1722.1
3001.07	1766.1
3004.355	1808.1
3007.636	1820.1
3010.915	1840.1
3014.191	1843.1
3017.464	1844.1
3020.734	1872.1
3024.002	1893.1
3027.267	1886.1
3030.53	1922.1
3033.789	1947.1
3037.046	1951.1
3040.301	1979.1
3043.552	2006.1
3046.801	2050.1
3050.048	2101.1
3053.291	2152.1
3056.532	2206.1
3059.771	2242.1
3063.006	2327.1
3066.239	2399.1
3069.469	2458.1
3072.697	2533.1
3075.922	2599.1
3079.144	2658.1
3082.364	2723.1
3085.581	2785.1
3088.795	2828.1
3092.007	2891.1
3095.216	2933.1
3098.423	3008.1
3101.627	3108.1
3104.828	3165.1
3108.026	3201.1
3111.222	3292.1
3114.416	3349.1
3117.607	3402.1
3120.795	3539.1
3123.98	3581.1
3127.163	3677.1
3130.344	3764.1
3133.521	3866.1
3136.696	3939.1
3139.869	3996.1
3143.039	4078.1
3146.206	4126.1
3149.371	4162.1
3152.533	4238.1
3155.693	4242.1
3158.85	4256.1
3162.005	4299.1
3165.157	4306.1
3168.306	4343.1
3171.453	4344.1
3174.597	4319.1
3177.739	4341.1
3180.878	4349.1
3184.014	4371.1
3187.149	4343.1
3190.28	4345.1
3193.409	4350.1
3196.536	4370.1
3199.659	4383.1
3202.781	4376.1
3205.9	4390.1
3209.016	4389.1
3212.13	4351.1
3215.241	4326.1
3218.35	4273.1
3221.456	4238.1
3224.56	4197.1
3227.661	4151.1
3230.76	4132.1
3233.856	4084.1
3236.95	4045.1
3240.041	3995.1
3243.13	3969.1
3246.216	3954.1
3249.3	3951.1
3252.382	3911.1
3255.46	3929.1
3258.537	3853.1
3261.611	3884.1
3264.682	3885.1
3267.751	3891.1
3270.818	3877.1
3273.882	3853.1
3276.943	3829.1
3280.002	3790.1
3283.059	3789.1
3286.113	3735.1
3289.165	3683.1
3292.214	3599.1
3295.261	3561.1
3298.306	3493.1
3301.348	3418.1
3304.387	3386.1
3307.425	3327.1
3310.459	3261.1
3313.492	3221.1
3316.521	3174.1
3319.549	3165.1
3322.574	3123.1
3325.597	3093.1
3328.617	3069.1
3331.635	3048.1
3334.65	3024.1
3337.663	3011.1
3340.674	2997.1
3343.682	2969.1
3346.688	2977.1
3349.691	2953.1
3352.692	2947.1
3355.691	2913.1
3358.687	2893.1
3361.681	2862.1
3364.673	2820.1
3367.662	2745.1
3370.649	2712.1
3373.633	2697.1
3376.615	2668.1
3379.595	2606.1
3382.572	2592.1
3385.547	2543.1
3388.52	2507.1
3391.49	2486.1
3394.458	2440.1
3397.424	2396.1
3400.387	2382.1
3403.348	2333.1
3406.307	2302.1
3409.263	2277.1
3412.217	2265.1
3415.168	2236.1
3418.118	2218.1
3421.065	2170.1
3424.009	2160.1
3426.951	2128.1
3429.891	2075.1
3432.829	2010.1
3435.764	1958.1
3438.697	1927.1
3441.628	1889.1
3444.557	1809.1
3447.483	1766.1
3450.407	1718.1
3453.328	1650.1
3456.247	1604.1
3459.164	1550.1
3462.079	1475.1
3464.991	1420.1
3467.902	1379.1
3470.809	1333.1
3473.715	1288.1
3476.618	1235.1
3479.519	1179.1
3482.418	1151.1
3485.315	1125.1
3488.209	1070.1
3491.101	1051.1
3493.99	1001.1
3496.878	951.1
3499.763	924.1
3502.646	896.1
3505.527	845.1
3508.405	791.1
3511.281	756.1
3514.155	711.1
3517.027	679.1
3519.897	631.1
3522.764	572.1
3525.629	544.1
3528.492	498.1
3531.352	470.1
3534.211	412.1
3537.067	366.1
3539.921	334.1
3542.773	297.1
3545.622	263.1
3548.469	238.1
3551.315	189.1
3554.157	192.1
3556.998	140.1
3559.837	110.1
3562.673	90.1
3565.507	63.1
3568.339	47.1
3571.169	26.1
3573.996	-10.9
3576.822	-28.9
3579.645	-44.9
3582.466	-71.9
3585.285	-92.9
3588.101	-106.9
3590.916	-136.9
3593.728	-170.9
3596.538	-178.9
3599.346	-207.9
3602.152	-221.9
3604.956	-225.9
3607.757	-250.9
3610.556	-278.9
3613.354	-280.9
3616.149	-293.9
3618.942	-322.9
3621.732	-320.9
3624.521	-337.9
3627.307	-333.9
3630.092	-352.9
3632.874	-367.9
3635.654	-376.9
3638.432	-388.9
3641.208	-393.9
3643.982	-407.9
3646.753	-413.9
3649.523	-431.9
3652.29	-432.9
3655.055	-442.9
3657.818	-451.9
3660.579	-467.9
3663.338	-487.9
3666.095	-491.9
3668.849	-502.9
3671.602	-504.9
3674.352	-518.9
3677.101	-528.9
3679.847	-538.9
3682.591	-541.9
3685.333	-547.9
3688.073	-544.9
3690.811	-557.9
3693.547	-559.9
3696.281	-560.9
3699.013	-566.9
3701.742	-575.9
3704.47	-580.9
3707.195	-586.9
3709.919	-585.9
3712.64	-587.9
3715.359	-597.9
3718.076	-598.9
3720.792	-600.9
3723.505	-608.9
3726.216	-616.9
3728.925	-616.9
3731.632	-620.9
3734.336	-623.9
3737.039	-630.9
3739.74	-625.9
3742.439	-625.9
3745.136	-631.9
3747.83	-637.9
3750.523	-633.9
3753.213	-631.9
3755.902	-641.9
3758.589	-645.9
3761.273	-649.9
3763.956	-645.9
3766.636	-653.9
3769.315	-655.9
3771.991	-657.9
3774.665	-663.9
3777.338	-660.9
3780.008	-664.9
3782.677	-663.9
3785.343	-656.9
3788.007	-663.9
3790.67	-664.9
3793.33	-668.9
3795.989	-663.9
3798.645	-663.9
3801.299	-670.9
3803.952	-674.9
3806.602	-669.9
3809.251	-680.9
3811.897	-670.9
3814.542	-673.9
3817.184	-680.9
3819.825	-674.9
3822.463	-675.9
3825.1	-682.9
3827.735	-677.9
3830.367	-676.9
3832.998	-681.9
3835.627	-681.9
3838.253	-687.9
3840.878	-687.9
3843.501	-685.9
3846.122	-682.9
3848.741	-681.9
3851.358	-685.9
3853.973	-687.9
3856.586	-686.9
3859.197	-688.9
3861.806	-690.9
3864.414	-687.9
3867.019	-688.9
3869.622	-685.9
3872.224	-687.9
3874.823	-671.9
3877.421	-658.9
3880.016	-642.9
3882.61	-621.9
3885.202	-619.9
3887.792	-628.9
3890.38	-658.9
3892.966	-677.9
3895.55	-685.9
3898.132	-699.9
3900.713	-703.9
3903.291	-698.9
3905.868	-702.9
3908.442	-699.9
3911.015	-704.9
3913.586	-699.9
3916.155	-699.9
3918.722	-705.9
3921.287	-709.9
3923.85	-705.9
3926.411	-705.9
3928.971	-714.9
3931.528	-710.9
3934.084	-703.9
3936.638	-701.9
3939.19	-704.9
3941.74	-704.9
3944.288	-700.9
3946.834	-702.9
3949.378	-704.9
3951.921	-702.9
3954.462	-715.9
3957	-699.9
3959.537	-705.9
3962.072	-705.9
3964.606	-702.9
3967.137	-706.9
3969.667	-707.9
3972.194	-701.9
3974.72	-702.9
3977.244	-694.9
3979.766	-691.9
3982.286	-695.9
3984.805	-692.9
3987.321	-692.9
3989.836	-691.9
3992.349	-685.9
3994.86	-687.9
3997.369	-694.9
3999.877	-685.9
4002.382	-688.9
4004.886	-689.9
4007.388	-688.9
4009.888	-690.9
4012.386	-686.9
4014.883	-693.9
4017.377	-694.9
4019.87	-687.9
4022.361	-693.9
4024.85	-690.9
4027.338	-692.9
4029.823	-687.9
4032.307	-691.9
4034.789	-685.9
4037.269	-687.9
4039.747	-688.9
4042.224	-694.9
4044.699	-694.9
4047.172	-690.9
4049.643	-687.9
4052.112	-694.9
4054.58	-697.9
4057.046	-697.9
4059.51	-701.9
4061.972	-699.9
4064.432	-697.9
4066.891	-692.9
4069.348	-692.9
4071.803	-688.9
4074.256	-693.9
4076.708	-692.9
4079.158	-692.9
4081.606	-690.9
4084.052	-693.9
4086.497	-690.9
4088.939	-689.9
4091.38	-696.9
4093.819	-689.9
4096.257	-728.9
4098.693	-728.9
4101.127	-731.9
4103.559	-726.9
4105.989	-424.9
4108.418	-391.9
4110.845	-373.9
4113.27	-343.9
4115.694	-303.9
4118.115	-256.9
4120.535	-683.9
4122.954	-690.9
4125.37	-685.9
4127.785	-689.9
4130.198	-694.9
4132.609	-697.9
4135.019	-730.9
4137.427	-732.9
4139.833	-733.9
4142.237	-724.9
