Data from 2018-2-14_conc=0_n=3_RamanShift_04.txt Node
Date: Wed Feb 14 10:33:56 IST 2018
User: aro
Spectrometer: QEPB0276
Trigger mode: 0
Integration Time (sec): 3.000000E1
Scans to average: 1
Electric dark correction enabled: true
Nonlinearity correction enabled: false
Boxcar width: 0
XAxis mode: Raman Shifts
Number of Pixels in Spectrum: 1044
>>>>>Begin Spectral Data<<<<<
160.701	-138.9
166.742	40.1
172.777	573.1
178.805	2187.1
184.826	6083.1
190.841	12780.1
196.849	20472.1
202.85	25945.1
208.845	27667.1
214.833	27391.1
220.815	26905.1
226.789	26649.1
232.758	26614.1
238.719	26390.1
244.674	26042.1
250.623	25553.1
256.565	25061.1
262.5	24560.1
268.429	24081.1
274.351	23676.1
280.267	23429.1
286.176	23103.1
292.079	22905.1
297.975	22716.1
303.865	22470.1
309.748	22371.1
315.625	22202.1
321.495	22035.1
327.359	21933.1
333.217	21928.1
339.068	21923.1
344.912	21865.1
350.751	21912.1
356.583	21818.1
362.408	21820.1
368.227	21824.1
374.04	21847.1
379.847	21921.1
385.647	22038.1
391.44	22111.1
397.228	22142.1
403.009	22240.1
408.784	22274.1
414.553	22318.1
420.315	22449.1
426.071	22464.1
431.821	22383.1
437.565	22408.1
443.302	22388.1
449.033	22321.1
454.758	22382.1
460.477	22250.1
466.189	22218.1
471.896	22170.1
477.596	22117.1
483.29	22091.1
488.978	22058.1
494.66	21898.1
500.335	21834.1
506.005	21637.1
511.668	21303.1
517.325	21100.1
522.977	20872.1
528.622	20732.1
534.261	20657.1
539.894	20555.1
545.521	20475.1
551.141	20431.1
556.756	20334.1
562.365	20255.1
567.968	20169.1
573.565	20128.1
579.155	19958.1
584.74	19926.1
590.319	19865.1
595.892	19828.1
601.459	19728.1
607.02	19636.1
612.575	19529.1
618.124	19443.1
623.667	19327.1
629.204	19176.1
634.735	19103.1
640.261	19058.1
645.781	18980.1
651.294	18899.1
656.802	18920.1
662.304	18870.1
667.8	18835.1
673.29	18842.1
678.775	18782.1
684.254	18751.1
689.726	18660.1
695.193	18676.1
700.655	18550.1
706.11	18479.1
711.56	18371.1
717.004	18350.1
722.442	18222.1
727.874	18193.1
733.301	18117.1
738.722	18059.1
744.137	18047.1
749.547	18016.1
754.951	18072.1
760.349	18046.1
765.741	18017.1
771.128	18083.1
776.509	18076.1
781.885	18037.1
787.254	17992.1
792.618	17958.1
797.977	17821.1
803.33	17710.1
808.677	17616.1
814.019	17539.1
819.355	17474.1
824.686	17353.1
830.011	17311.1
835.33	17327.1
840.644	17345.1
845.952	17383.1
851.255	17385.1
856.552	17412.1
861.844	17432.1
867.13	17373.1
872.41	17303.1
877.686	17230.1
882.955	17036.1
888.219	16924.1
893.478	16758.1
898.731	16625.1
903.979	16373.1
909.221	16299.1
914.458	16206.1
919.69	16244.1
924.916	16239.1
930.136	16342.1
935.351	16368.1
940.561	16387.1
945.766	16308.1
950.965	16239.1
956.158	16157.1
961.347	15939.1
966.529	15771.1
971.707	15601.1
976.879	15391.1
982.046	15271.1
987.208	15234.1
992.364	15217.1
997.515	15318.1
1002.66	15458.1
1007.801	15663.1
1012.936	15738.1
1018.066	15722.1
1023.19	15775.1
1028.309	15769.1
1033.423	15734.1
1038.532	15648.1
1043.636	15500.1
1048.734	15287.1
1053.827	15173.1
1058.915	14971.1
1063.998	14825.1
1069.075	14809.1
1074.147	14898.1
1079.214	14885.1
1084.276	14956.1
1089.333	15110.1
1094.385	15168.1
1099.431	15210.1
1104.472	15230.1
1109.509	15119.1
1114.54	14991.1
1119.565	14759.1
1124.586	14620.1
1129.602	14467.1
1134.613	14341.1
1139.618	14247.1
1144.619	14259.1
1149.614	14233.1
1154.604	14298.1
1159.589	14266.1
1164.57	14349.1
1169.545	14364.1
1174.515	14363.1
1179.48	14306.1
1184.44	14217.1
1189.395	14088.1
1194.345	14007.1
1199.29	13917.1
1204.23	13955.1
1209.165	13946.1
1214.095	14016.1
1219.021	14135.1
1223.941	14193.1
1228.856	14307.1
1233.766	14328.1
1238.672	14276.1
1243.572	14334.1
1248.467	14264.1
1253.358	14098.1
1258.244	13895.1
1263.124	13718.1
1268	13492.1
1272.871	13275.1
1277.737	13276.1
1282.599	13180.1
1287.455	13154.1
1292.306	13211.1
1297.153	13306.1
1301.995	13387.1
1306.832	13429.1
1311.664	13406.1
1316.491	13403.1
1321.314	13272.1
1326.132	13016.1
1330.945	12756.1
1335.753	12409.1
1340.556	12136.1
1345.354	11795.1
1350.148	11587.1
1354.937	11511.1
1359.722	11522.1
1364.501	11674.1
1369.276	11860.1
1374.046	12065.1
1378.811	12345.1
1383.572	12510.1
1388.327	12545.1
1393.079	12490.1
1397.825	12301.1
1402.567	12036.1
1407.304	11826.1
1412.036	11767.1
1416.764	11660.1
1421.487	11571.1
1426.205	11484.1
1430.919	11459.1
1435.628	11477.1
1440.333	11463.1
1445.032	11510.1
1449.727	11552.1
1454.418	11487.1
1459.104	11409.1
1463.785	11207.1
1468.462	10966.1
1473.134	10701.1
1477.802	10528.1
1482.465	10326.1
1487.123	10211.1
1491.777	10270.1
1496.426	10377.1
1501.071	10504.1
1505.711	10685.1
1510.347	10927.1
1514.978	11086.1
1519.604	11279.1
1524.226	11389.1
1528.844	11430.1
1533.457	11380.1
1538.065	11360.1
1542.669	11208.1
1547.269	11070.1
1551.864	11072.1
1556.454	11036.1
1561.041	10982.1
1565.622	11013.1
1570.199	10907.1
1574.772	11003.1
1579.34	11077.1
1583.904	11120.1
1588.464	11180.1
1593.019	11130.1
1597.569	11089.1
1602.115	11051.1
1606.657	10924.1
1611.195	10912.1
1615.728	10811.1
1620.256	10743.1
1624.78	10757.1
1629.3	10751.1
1633.816	10764.1
1638.327	10842.1
1642.834	10933.1
1647.336	10953.1
1651.834	10948.1
1656.328	10963.1
1660.817	10922.1
1665.302	10840.1
1669.783	10663.1
1674.259	10418.1
1678.732	10194.1
1683.199	9830.1
1687.663	9508.1
1692.122	9179.1
1696.577	9083.1
1701.028	9066.1
1705.474	9239.1
1709.917	9360.1
1714.355	9442.1
1718.788	9377.1
1723.218	9213.1
1727.643	9011.1
1732.064	8858.1
1736.481	8640.1
1740.893	8434.1
1745.301	8219.1
1749.705	7981.1
1754.105	7773.1
1758.501	7552.1
1762.893	7378.1
1767.28	7191.1
1771.663	7019.1
1776.042	6903.1
1780.417	6876.1
1784.787	6838.1
1789.154	6968.1
1793.516	7120.1
1797.874	7309.1
1802.228	7455.1
1806.578	7498.1
1810.924	7448.1
1815.266	7432.1
1819.603	7306.1
1823.937	7209.1
1828.266	7048.1
1832.591	6929.1
1836.913	6876.1
1841.23	6785.1
1845.543	6695.1
1849.852	6687.1
1854.156	6653.1
1858.457	6649.1
1862.754	6627.1
1867.047	6632.1
1871.335	6658.1
1875.62	6615.1
1879.9	6564.1
1884.177	6606.1
1888.449	6508.1
1892.718	6451.1
1896.982	6407.1
1901.243	6353.1
1905.499	6284.1
1909.752	6268.1
1914	6299.1
1918.245	6317.1
1922.485	6382.1
1926.722	6469.1
1930.954	6515.1
1935.183	6593.1
1939.408	6677.1
1943.628	6716.1
1947.845	6702.1
1952.058	6720.1
1956.267	6638.1
1960.472	6547.1
1964.673	6474.1
1968.87	6370.1
1973.063	6276.1
1977.252	6200.1
1981.438	6135.1
1985.619	6106.1
1989.797	6013.1
1993.971	5979.1
1998.14	5923.1
2002.306	5923.1
2006.469	5915.1
2010.627	5830.1
2014.781	5828.1
2018.932	5807.1
2023.078	5730.1
2027.221	5666.1
2031.36	5585.1
2035.495	5506.1
2039.627	5432.1
2043.754	5348.1
2047.878	5331.1
2051.998	5313.1
2056.114	5270.1
2060.226	5275.1
2064.334	5260.1
2068.439	5275.1
2072.54	5292.1
2076.637	5356.1
2080.73	5409.1
2084.82	5413.1
2088.906	5470.1
2092.988	5449.1
2097.066	5467.1
2101.14	5390.1
2105.211	5399.1
2109.278	5359.1
2113.342	5317.1
2117.401	5278.1
2121.457	5245.1
2125.509	5235.1
2129.558	5210.1
2133.602	5186.1
2137.643	5180.1
2141.681	5139.1
2145.714	5117.1
2149.744	5074.1
2153.77	5025.1
2157.793	4997.1
2161.812	4958.1
2165.827	4839.1
2169.838	4792.1
2173.846	4718.1
2177.851	4637.1
2181.851	4587.1
2185.848	4515.1
2189.841	4462.1
2193.831	4432.1
2197.817	4373.1
2201.799	4377.1
2205.778	4371.1
2209.753	4370.1
2213.725	4337.1
2217.693	4276.1
2221.657	4313.1
2225.618	4315.1
2229.575	4303.1
2233.529	4233.1
2237.479	4228.1
2241.425	4157.1
2245.368	4098.1
2249.307	4084.1
2253.243	3983.1
2257.175	3968.1
2261.104	3906.1
2265.029	3872.1
2268.95	3834.1
2272.868	3791.1
2276.783	3762.1
2280.694	3747.1
2284.601	3679.1
2288.505	3673.1
2292.405	3604.1
2296.302	3606.1
2300.195	3537.1
2304.085	3512.1
2307.971	3473.1
2311.854	3400.1
2315.734	3358.1
2319.609	3321.1
2323.482	3250.1
2327.351	3237.1
2331.216	3226.1
2335.078	3228.1
2338.937	3186.1
2342.792	3163.1
2346.643	3147.1
2350.492	3143.1
2354.336	3147.1
2358.178	3145.1
2362.015	3152.1
2365.85	3186.1
2369.681	3161.1
2373.508	3139.1
2377.333	3158.1
2381.153	3124.1
2384.971	3112.1
2388.785	3109.1
2392.595	3048.1
2396.402	3042.1
2400.206	3039.1
2404.007	2999.1
2407.804	2986.1
2411.597	2953.1
2415.388	2920.1
2419.174	2887.1
2422.958	2903.1
2426.738	2864.1
2430.515	2848.1
2434.289	2842.1
2438.059	2813.1
2441.825	2774.1
2445.589	2765.1
2449.349	2728.1
2453.106	2709.1
2456.859	2666.1
2460.61	2630.1
2464.356	2610.1
2468.1	2588.1
2471.84	2564.1
2475.577	2534.1
2479.311	2530.1
2483.041	2517.1
2486.768	2521.1
2490.492	2491.1
2494.213	2498.1
2497.93	2492.1
2501.644	2485.1
2505.355	2451.1
2509.062	2465.1
2512.766	2433.1
2516.467	2462.1
2520.165	2439.1
2523.859	2398.1
2527.551	2394.1
2531.239	2395.1
2534.923	2366.1
2538.605	2351.1
2542.283	2353.1
2545.958	2353.1
2549.63	2359.1
2553.299	2354.1
2556.964	2342.1
2560.626	2333.1
2564.285	2308.1
2567.941	2318.1
2571.594	2297.1
2575.243	2284.1
2578.89	2271.1
2582.533	2231.1
2586.173	2228.1
2589.809	2228.1
2593.443	2190.1
2597.073	2179.1
2600.701	2151.1
2604.325	2143.1
2607.946	2108.1
2611.564	2105.1
2615.178	2120.1
2618.79	2091.1
2622.398	2085.1
2626.004	2061.1
2629.606	2050.1
2633.205	2009.1
2636.801	1967.1
2640.394	1977.1
2643.983	1938.1
2647.57	1903.1
2651.153	1865.1
2654.734	1825.1
2658.311	1804.1
2661.885	1792.1
2665.456	1763.1
2669.025	1752.1
2672.589	1715.1
2676.151	1716.1
2679.71	1701.1
2683.266	1685.1
2686.819	1636.1
2690.368	1606.1
2693.915	1555.1
2697.458	1544.1
2700.999	1501.1
2704.536	1486.1
2708.071	1450.1
2711.602	1427.1
2715.13	1368.1
2718.656	1349.1
2722.178	1356.1
2725.697	1335.1
2729.214	1310.1
2732.727	1317.1
2736.237	1305.1
2739.744	1314.1
2743.249	1319.1
2746.75	1314.1
2750.248	1330.1
2753.743	1358.1
2757.236	1365.1
2760.725	1380.1
2764.211	1397.1
2767.695	1375.1
2771.175	1382.1
2774.652	1375.1
2778.127	1355.1
2781.598	1344.1
2785.067	1338.1
2788.532	1359.1
2791.995	1343.1
2795.455	1334.1
2798.911	1332.1
2802.365	1343.1
2805.816	1334.1
2809.264	1339.1
2812.709	1334.1
2816.151	1322.1
2819.59	1317.1
2823.026	1320.1
2826.46	1321.1
2829.89	1334.1
2833.318	1332.1
2836.742	1313.1
2840.164	1332.1
2843.583	1339.1
2846.999	1360.1
2850.412	1358.1
2853.822	1362.1
2857.229	1367.1
2860.634	1386.1
2864.035	1419.1
2867.434	1430.1
2870.83	1451.1
2874.223	1468.1
2877.613	1490.1
2881	1503.1
2884.385	1495.1
2887.766	1522.1
2891.145	1514.1
2894.521	1488.1
2897.894	1484.1
2901.264	1493.1
2904.631	1479.1
2907.996	1501.1
2911.358	1488.1
2914.717	1507.1
2918.073	1508.1
2921.426	1522.1
2924.777	1527.1
2928.124	1553.1
2931.469	1597.1
2934.811	1606.1
2938.15	1617.1
2941.487	1648.1
2944.821	1634.1
2948.152	1607.1
2951.48	1612.1
2954.805	1599.1
2958.128	1587.1
2961.447	1564.1
2964.765	1565.1
2968.079	1577.1
2971.39	1581.1
2974.699	1576.1
2978.005	1612.1
2981.308	1650.1
2984.609	1679.1
2987.907	1708.1
2991.202	1745.1
2994.494	1771.1
2997.784	1818.1
3001.07	1823.1
3004.355	1832.1
3007.636	1878.1
3010.915	1891.1
3014.191	1899.1
3017.464	1942.1
3020.734	1924.1
3024.002	1935.1
3027.267	1926.1
3030.53	1940.1
3033.789	1975.1
3037.046	1998.1
3040.301	2028.1
3043.552	2049.1
3046.801	2080.1
3050.048	2122.1
3053.291	2195.1
3056.532	2229.1
3059.771	2259.1
3063.006	2345.1
3066.239	2412.1
3069.469	2469.1
3072.697	2538.1
3075.922	2598.1
3079.144	2640.1
3082.364	2715.1
3085.581	2764.1
3088.795	2819.1
3092.007	2882.1
3095.216	2911.1
3098.423	2974.1
3101.627	3049.1
3104.828	3124.1
3108.026	3210.1
3111.222	3263.1
3114.416	3314.1
3117.607	3395.1
3120.795	3458.1
3123.98	3536.1
3127.163	3620.1
3130.344	3720.1
3133.521	3791.1
3136.696	3872.1
3139.869	3943.1
3143.039	3981.1
3146.206	4052.1
3149.371	4089.1
3152.533	4182.1
3155.693	4151.1
3158.85	4208.1
3162.005	4199.1
3165.157	4220.1
3168.306	4218.1
3171.453	4236.1
3174.597	4250.1
3177.739	4264.1
3180.878	4243.1
3184.014	4229.1
3187.149	4263.1
3190.28	4268.1
3193.409	4265.1
3196.536	4280.1
3199.659	4273.1
3202.781	4282.1
3205.9	4278.1
3209.016	4272.1
3212.13	4252.1
3215.241	4206.1
3218.35	4191.1
3221.456	4134.1
3224.56	4120.1
3227.661	4045.1
3230.76	4030.1
3233.856	3964.1
3236.95	3937.1
3240.041	3921.1
3243.13	3882.1
3246.216	3858.1
3249.3	3832.1
3252.382	3804.1
3255.46	3810.1
3258.537	3825.1
3261.611	3819.1
3264.682	3810.1
3267.751	3749.1
3270.818	3771.1
3273.882	3772.1
3276.943	3750.1
3280.002	3716.1
3283.059	3697.1
3286.113	3642.1
3289.165	3576.1
3292.214	3527.1
3295.261	3480.1
3298.306	3436.1
3301.348	3387.1
3304.387	3326.1
3307.425	3282.1
3310.459	3228.1
3313.492	3155.1
3316.521	3125.1
3319.549	3099.1
3322.574	3055.1
3325.597	3010.1
3328.617	3023.1
3331.635	2988.1
3334.65	2985.1
3337.663	2959.1
3340.674	2934.1
3343.682	2919.1
3346.688	2936.1
3349.691	2888.1
3352.692	2886.1
3355.691	2860.1
3358.687	2834.1
3361.681	2812.1
3364.673	2778.1
3367.662	2736.1
3370.649	2672.1
3373.633	2651.1
3376.615	2649.1
3379.595	2562.1
3382.572	2531.1
3385.547	2498.1
3388.52	2465.1
3391.49	2429.1
3394.458	2386.1
3397.424	2354.1
3400.387	2333.1
3403.348	2288.1
3406.307	2260.1
3409.263	2233.1
3412.217	2214.1
3415.168	2213.1
3418.118	2194.1
3421.065	2136.1
3424.009	2114.1
3426.951	2084.1
3429.891	2048.1
3432.829	2005.1
3435.764	1974.1
3438.697	1898.1
3441.628	1872.1
3444.557	1810.1
3447.483	1747.1
3450.407	1683.1
3453.328	1647.1
3456.247	1583.1
3459.164	1535.1
3462.079	1496.1
3464.991	1438.1
3467.902	1366.1
3470.809	1319.1
3473.715	1297.1
3476.618	1220.1
3479.519	1187.1
3482.418	1154.1
3485.315	1105.1
3488.209	1070.1
3491.101	1041.1
3493.99	1004.1
3496.878	956.1
3499.763	949.1
3502.646	904.1
3505.527	850.1
3508.405	825.1
3511.281	772.1
3514.155	734.1
3517.027	691.1
3519.897	658.1
3522.764	599.1
3525.629	573.1
3528.492	521.1
3531.352	479.1
3534.211	446.1
3537.067	396.1
3539.921	373.1
3542.773	331.1
3545.622	294.1
3548.469	263.1
3551.315	236.1
3554.157	213.1
3556.998	175.1
3559.837	157.1
3562.673	124.1
3565.507	106.1
3568.339	70.1
3571.169	60.1
3573.996	41.1
3576.822	21.1
3579.645	-13.9
3582.466	-22.9
3585.285	-36.9
3588.101	-55.9
3590.916	-80.9
3593.728	-96.9
3596.538	-131.9
3599.346	-144.9
3602.152	-165.9
3604.956	-181.9
3607.757	-194.9
3610.556	-218.9
3613.354	-227.9
3616.149	-244.9
3618.942	-249.9
3621.732	-265.9
3624.521	-277.9
3627.307	-295.9
3630.092	-289.9
3632.874	-312.9
3635.654	-323.9
3638.432	-324.9
3641.208	-335.9
3643.982	-356.9
3646.753	-358.9
3649.523	-368.9
3652.29	-373.9
3655.055	-383.9
3657.818	-401.9
3660.579	-411.9
3663.338	-424.9
3666.095	-424.9
3668.849	-444.9
3671.602	-446.9
3674.352	-453.9
3677.101	-455.9
3679.847	-461.9
3682.591	-468.9
3685.333	-481.9
3688.073	-488.9
3690.811	-496.9
3693.547	-498.9
3696.281	-492.9
3699.013	-502.9
3701.742	-506.9
3704.47	-517.9
3707.195	-522.9
3709.919	-527.9
3712.64	-529.9
3715.359	-535.9
3718.076	-534.9
3720.792	-537.9
3723.505	-544.9
3726.216	-552.9
3728.925	-555.9
3731.632	-558.9
3734.336	-559.9
3737.039	-559.9
3739.74	-560.9
3742.439	-561.9
3745.136	-566.9
3747.83	-570.9
3750.523	-570.9
3753.213	-553.9
3755.902	-574.9
3758.589	-577.9
3761.273	-584.9
3763.956	-589.9
3766.636	-588.9
3769.315	-589.9
3771.991	-588.9
3774.665	-594.9
3777.338	-587.9
3780.008	-590.9
3782.677	-601.9
3785.343	-584.9
3788.007	-598.9
3790.67	-596.9
3793.33	-595.9
3795.989	-599.9
3798.645	-598.9
3801.299	-601.9
3803.952	-610.9
3806.602	-610.9
3809.251	-607.9
3811.897	-612.9
3814.542	-611.9
3817.184	-608.9
3819.825	-611.9
3822.463	-609.9
3825.1	-614.9
3827.735	-605.9
3830.367	-610.9
3832.998	-614.9
3835.627	-617.9
3838.253	-616.9
3840.878	-619.9
3843.501	-615.9
3846.122	-615.9
3848.741	-618.9
3851.358	-618.9
3853.973	-617.9
3856.586	-622.9
3859.197	-626.9
3861.806	-623.9
3864.414	-618.9
3867.019	-622.9
3869.622	-625.9
3872.224	-617.9
3874.823	-605.9
3877.421	-592.9
3880.016	-579.9
3882.61	-564.9
3885.202	-555.9
3887.792	-571.9
3890.38	-596.9
3892.966	-612.9
3895.55	-623.9
3898.132	-634.9
3900.713	-635.9
3903.291	-632.9
3905.868	-634.9
3908.442	-636.9
3911.015	-639.9
3913.586	-633.9
3916.155	-636.9
3918.722	-640.9
3921.287	-637.9
3923.85	-639.9
3926.411	-641.9
3928.971	-646.9
3931.528	-636.9
3934.084	-637.9
3936.638	-637.9
3939.19	-639.9
3941.74	-641.9
3944.288	-639.9
3946.834	-641.9
3949.378	-638.9
3951.921	-638.9
3954.462	-650.9
3957	-640.9
3959.537	-646.9
3962.072	-638.9
3964.606	-644.9
3967.137	-636.9
3969.667	-641.9
3972.194	-629.9
3974.72	-637.9
3977.244	-627.9
3979.766	-627.9
3982.286	-628.9
3984.805	-625.9
3987.321	-626.9
3989.836	-632.9
3992.349	-623.9
3994.86	-625.9
3997.369	-628.9
3999.877	-622.9
4002.382	-627.9
4004.886	-623.9
4007.388	-618.9
4009.888	-621.9
4012.386	-631.9
4014.883	-622.9
4017.377	-619.9
4019.87	-619.9
4022.361	-618.9
4024.85	-627.9
4027.338	-627.9
4029.823	-630.9
4032.307	-631.9
4034.789	-629.9
4037.269	-623.9
4039.747	-624.9
4042.224	-628.9
4044.699	-627.9
4047.172	-627.9
4049.643	-623.9
4052.112	-630.9
4054.58	-635.9
4057.046	-627.9
4059.51	-633.9
4061.972	-633.9
4064.432	-636.9
4066.891	-631.9
4069.348	-629.9
4071.803	-623.9
4074.256	-627.9
4076.708	-629.9
4079.158	-629.9
4081.606	-629.9
4084.052	-631.9
4086.497	-628.9
4088.939	-623.9
4091.38	-625.9
4093.819	-632.9
4096.257	-666.9
4098.693	-665.9
4101.127	-661.9
4103.559	-660.9
4105.989	-374.9
4108.418	-357.9
4110.845	-340.9
4113.27	-303.9
4115.694	-260.9
4118.115	-225.9
4120.535	-626.9
4122.954	-630.9
4125.37	-622.9
4127.785	-630.9
4130.198	-632.9
4132.609	-632.9
4135.019	-663.9
4137.427	-667.9
4139.833	-666.9
4142.237	-662.9
