Data from 2018-2-14_conc=2_n=2_RamanShift_01.txt Node
Date: Wed Feb 14 11:02:56 IST 2018
User: aro
Spectrometer: QEPB0276
Trigger mode: 0
Integration Time (sec): 3.000000E1
Scans to average: 1
Electric dark correction enabled: true
Nonlinearity correction enabled: false
Boxcar width: 0
XAxis mode: Raman Shifts
Number of Pixels in Spectrum: 1044
>>>>>Begin Spectral Data<<<<<
160.701	-145.4
166.742	40.6
172.777	604.6
178.805	2306.6
184.826	6378.6
190.841	13357.6
196.849	21448.6
202.85	27286.6
208.845	29112.6
214.833	28853.6
220.815	28279.6
226.789	28038.6
232.758	27922.6
238.719	27752.6
244.674	27371.6
250.623	26838.6
256.565	26214.6
262.5	25746.6
268.429	25275.6
274.351	24797.6
280.267	24442.6
286.176	24148.6
292.079	23921.6
297.975	23697.6
303.865	23511.6
309.748	23317.6
315.625	23142.6
321.495	23020.6
327.359	22932.6
333.217	22894.6
339.068	22777.6
344.912	22858.6
350.751	22772.6
356.583	22750.6
362.408	22728.6
368.227	22735.6
374.04	22798.6
379.847	22850.6
385.647	22945.6
391.44	22933.6
397.228	23064.6
403.009	23166.6
408.784	23286.6
414.553	23337.6
420.315	23350.6
426.071	23376.6
431.821	23377.6
437.565	23341.6
443.302	23305.6
449.033	23306.6
454.758	23257.6
460.477	23178.6
466.189	23135.6
471.896	23089.6
477.596	23006.6
483.29	22942.6
488.978	22863.6
494.66	22840.6
500.335	22751.6
506.005	22450.6
511.668	22149.6
517.325	21821.6
522.977	21682.6
528.622	21479.6
534.261	21435.6
539.894	21319.6
545.521	21170.6
551.141	21039.6
556.756	21011.6
562.365	20956.6
567.968	20873.6
573.565	20741.6
579.155	20680.6
584.74	20566.6
590.319	20443.6
595.892	20424.6
601.459	20363.6
607.02	20314.6
612.575	20150.6
618.124	19987.6
623.667	19953.6
629.204	19807.6
634.735	19690.6
640.261	19638.6
645.781	19584.6
651.294	19521.6
656.802	19439.6
662.304	19454.6
667.8	19409.6
673.29	19319.6
678.775	19278.6
684.254	19317.6
689.726	19215.6
695.193	19112.6
700.655	18982.6
706.11	18880.6
711.56	18838.6
717.004	18718.6
722.442	18647.6
727.874	18568.6
733.301	18544.6
738.722	18450.6
744.137	18387.6
749.547	18397.6
754.951	18421.6
760.349	18363.6
765.741	18410.6
771.128	18396.6
776.509	18458.6
781.885	18397.6
787.254	18399.6
792.618	18305.6
797.977	18179.6
803.33	18017.6
808.677	17950.6
814.019	17810.6
819.355	17756.6
824.686	17644.6
830.011	17600.6
835.33	17594.6
840.644	17594.6
845.952	17610.6
851.255	17730.6
856.552	17743.6
861.844	17659.6
867.13	17621.6
872.41	17483.6
877.686	17416.6
882.955	17342.6
888.219	17186.6
893.478	16941.6
898.731	16761.6
903.979	16558.6
909.221	16440.6
914.458	16364.6
919.69	16350.6
924.916	16404.6
930.136	16445.6
935.351	16517.6
940.561	16433.6
945.766	16472.6
950.965	16358.6
956.158	16266.6
961.347	16061.6
966.529	15878.6
971.707	15640.6
976.879	15484.6
982.046	15376.6
987.208	15311.6
992.364	15297.6
997.515	15396.6
1002.66	15502.6
1007.801	15698.6
1012.936	15793.6
1018.066	15802.6
1023.19	15839.6
1028.309	15762.6
1033.423	15739.6
1038.532	15619.6
1043.636	15513.6
1048.734	15303.6
1053.827	15169.6
1058.915	14952.6
1063.998	14856.6
1069.075	14793.6
1074.147	14812.6
1079.214	14935.6
1084.276	14935.6
1089.333	15051.6
1094.385	15115.6
1099.431	15191.6
1104.472	15125.6
1109.509	15107.6
1114.54	14867.6
1119.565	14705.6
1124.586	14524.6
1129.602	14398.6
1134.613	14242.6
1139.618	14194.6
1144.619	14139.6
1149.614	14137.6
1154.604	14161.6
1159.589	14193.6
1164.57	14213.6
1169.545	14273.6
1174.515	14239.6
1179.48	14152.6
1184.44	14079.6
1189.395	13954.6
1194.345	13833.6
1199.29	13858.6
1204.23	13786.6
1209.165	13839.6
1214.095	13887.6
1219.021	13920.6
1223.941	14026.6
1228.856	14071.6
1233.766	14143.6
1238.672	14173.6
1243.572	14195.6
1248.467	14023.6
1253.358	13956.6
1258.244	13695.6
1263.124	13503.6
1268	13288.6
1272.871	13108.6
1277.737	12996.6
1282.599	12935.6
1287.455	12983.6
1292.306	12914.6
1297.153	13022.6
1301.995	13070.6
1306.832	13169.6
1311.664	13109.6
1316.491	13056.6
1321.314	12954.6
1326.132	12822.6
1330.945	12521.6
1335.753	12187.6
1340.556	11896.6
1345.354	11657.6
1350.148	11497.6
1354.937	11354.6
1359.722	11326.6
1364.501	11381.6
1369.276	11461.6
1374.046	11593.6
1378.811	11734.6
1383.572	11898.6
1388.327	11928.6
1393.079	11880.6
1397.825	11765.6
1402.567	11603.6
1407.304	11454.6
1412.036	11311.6
1416.764	11261.6
1421.487	11217.6
1426.205	11145.6
1430.919	11087.6
1435.628	11038.6
1440.333	11156.6
1445.032	11148.6
1449.727	11189.6
1454.418	11196.6
1459.104	11021.6
1463.785	10814.6
1468.462	10655.6
1473.134	10375.6
1477.802	10165.6
1482.465	10006.6
1487.123	9891.6
1491.777	9822.6
1496.426	9869.6
1501.071	9924.6
1505.711	10075.6
1510.347	10234.6
1514.978	10422.6
1519.604	10576.6
1524.226	10672.6
1528.844	10749.6
1533.457	10686.6
1538.065	10634.6
1542.669	10580.6
1547.269	10482.6
1551.864	10438.6
1556.454	10411.6
1561.041	10361.6
1565.622	10397.6
1570.199	10456.6
1574.772	10457.6
1579.34	10534.6
1583.904	10597.6
1588.464	10707.6
1593.019	10661.6
1597.569	10593.6
1602.115	10559.6
1606.657	10553.6
1611.195	10446.6
1615.728	10377.6
1620.256	10324.6
1624.78	10302.6
1629.3	10345.6
1633.816	10360.6
1638.327	10450.6
1642.834	10471.6
1647.336	10551.6
1651.834	10523.6
1656.328	10459.6
1660.817	10444.6
1665.302	10324.6
1669.783	10157.6
1674.259	9928.6
1678.732	9625.6
1683.199	9307.6
1687.663	8983.6
1692.122	8750.6
1696.577	8558.6
1701.028	8501.6
1705.474	8533.6
1709.917	8560.6
1714.355	8595.6
1718.788	8592.6
1723.218	8448.6
1727.643	8308.6
1732.064	8091.6
1736.481	7954.6
1740.893	7753.6
1745.301	7518.6
1749.705	7336.6
1754.105	7148.6
1758.501	6958.6
1762.893	6746.6
1767.28	6569.6
1771.663	6441.6
1776.042	6330.6
1780.417	6254.6
1784.787	6212.6
1789.154	6263.6
1793.516	6353.6
1797.874	6458.6
1802.228	6574.6
1806.578	6632.6
1810.924	6651.6
1815.266	6614.6
1819.603	6504.6
1823.937	6412.6
1828.266	6321.6
1832.591	6260.6
1836.913	6117.6
1841.23	6095.6
1845.543	6041.6
1849.852	6010.6
1854.156	5994.6
1858.457	5974.6
1862.754	5975.6
1867.047	5970.6
1871.335	5933.6
1875.62	5950.6
1879.9	5947.6
1884.177	5882.6
1888.449	5827.6
1892.718	5756.6
1896.982	5693.6
1901.243	5646.6
1905.499	5585.6
1909.752	5568.6
1914	5562.6
1918.245	5598.6
1922.485	5641.6
1926.722	5677.6
1930.954	5709.6
1935.183	5796.6
1939.408	5864.6
1943.628	5882.6
1947.845	5888.6
1952.058	5877.6
1956.267	5857.6
1960.472	5779.6
1964.673	5669.6
1968.87	5609.6
1973.063	5532.6
1977.252	5426.6
1981.438	5374.6
1985.619	5322.6
1989.797	5264.6
1993.971	5263.6
1998.14	5223.6
2002.306	5198.6
2006.469	5197.6
2010.627	5153.6
2014.781	5155.6
2018.932	5093.6
2023.078	5060.6
2027.221	4971.6
2031.36	4893.6
2035.495	4847.6
2039.627	4742.6
2043.754	4686.6
2047.878	4633.6
2051.998	4628.6
2056.114	4585.6
2060.226	4588.6
2064.334	4575.6
2068.439	4613.6
2072.54	4610.6
2076.637	4684.6
2080.73	4692.6
2084.82	4707.6
2088.906	4733.6
2092.988	4725.6
2097.066	4683.6
2101.14	4665.6
2105.211	4682.6
2109.278	4632.6
2113.342	4565.6
2117.401	4564.6
2121.457	4552.6
2125.509	4533.6
2129.558	4512.6
2133.602	4471.6
2137.643	4455.6
2141.681	4429.6
2145.714	4405.6
2149.744	4378.6
2153.77	4305.6
2157.793	4301.6
2161.812	4229.6
2165.827	4183.6
2169.838	4125.6
2173.846	4046.6
2177.851	3995.6
2181.851	3922.6
2185.848	3841.6
2189.841	3824.6
2193.831	3770.6
2197.817	3760.6
2201.799	3745.6
2205.778	3695.6
2209.753	3694.6
2213.725	3684.6
2217.693	3678.6
2221.657	3689.6
2225.618	3670.6
2229.575	3624.6
2233.529	3617.6
2237.479	3577.6
2241.425	3527.6
2245.368	3469.6
2249.307	3423.6
2253.243	3365.6
2257.175	3342.6
2261.104	3277.6
2265.029	3218.6
2268.95	3200.6
2272.868	3175.6
2276.783	3149.6
2280.694	3088.6
2284.601	3077.6
2288.505	3047.6
2292.405	3021.6
2296.302	2953.6
2300.195	2936.6
2304.085	2919.6
2307.971	2882.6
2311.854	2824.6
2315.734	2772.6
2319.609	2765.6
2323.482	2707.6
2327.351	2685.6
2331.216	2648.6
2335.078	2663.6
2338.937	2645.6
2342.792	2607.6
2346.643	2596.6
2350.492	2578.6
2354.336	2630.6
2358.178	2606.6
2362.015	2604.6
2365.85	2615.6
2369.681	2629.6
2373.508	2641.6
2377.333	2631.6
2381.153	2619.6
2384.971	2582.6
2388.785	2549.6
2392.595	2564.6
2396.402	2534.6
2400.206	2510.6
2404.007	2489.6
2407.804	2474.6
2411.597	2461.6
2415.388	2439.6
2419.174	2437.6
2422.958	2407.6
2426.738	2386.6
2430.515	2375.6
2434.289	2372.6
2438.059	2332.6
2441.825	2302.6
2445.589	2276.6
2449.349	2265.6
2453.106	2242.6
2456.859	2209.6
2460.61	2175.6
2464.356	2129.6
2468.1	2112.6
2471.84	2102.6
2475.577	2074.6
2479.311	2076.6
2483.041	2058.6
2486.768	2054.6
2490.492	2016.6
2494.213	2018.6
2497.93	2015.6
2501.644	1992.6
2505.355	1991.6
2509.062	1988.6
2512.766	1968.6
2516.467	1954.6
2520.165	1963.6
2523.859	1926.6
2527.551	1920.6
2531.239	1905.6
2534.923	1895.6
2538.605	1886.6
2542.283	1890.6
2545.958	1890.6
2549.63	1862.6
2553.299	1844.6
2556.964	1861.6
2560.626	1851.6
2564.285	1867.6
2567.941	1837.6
2571.594	1836.6
2575.243	1807.6
2578.89	1807.6
2582.533	1776.6
2586.173	1754.6
2589.809	1748.6
2593.443	1745.6
2597.073	1710.6
2600.701	1715.6
2604.325	1703.6
2607.946	1670.6
2611.564	1675.6
2615.178	1658.6
2618.79	1628.6
2622.398	1628.6
2626.004	1598.6
2629.606	1587.6
2633.205	1577.6
2636.801	1561.6
2640.394	1539.6
2643.983	1502.6
2647.57	1469.6
2651.153	1464.6
2654.734	1429.6
2658.311	1406.6
2661.885	1397.6
2665.456	1381.6
2669.025	1368.6
2672.589	1338.6
2676.151	1325.6
2679.71	1319.6
2683.266	1285.6
2686.819	1267.6
2690.368	1229.6
2693.915	1227.6
2697.458	1170.6
2700.999	1147.6
2704.536	1121.6
2708.071	1122.6
2711.602	1083.6
2715.13	1073.6
2718.656	1038.6
2722.178	1023.6
2725.697	996.6
2729.214	996.6
2732.727	981.6
2736.237	981.6
2739.744	979.6
2743.249	985.6
2746.75	985.6
2750.248	987.6
2753.743	994.6
2757.236	1005.6
2760.725	1024.6
2764.211	1020.6
2767.695	1034.6
2771.175	1019.6
2774.652	1021.6
2778.127	1031.6
2781.598	1014.6
2785.067	1004.6
2788.532	999.6
2791.995	991.6
2795.455	990.6
2798.911	1001.6
2802.365	999.6
2805.816	1004.6
2809.264	981.6
2812.709	990.6
2816.151	990.6
2819.59	1001.6
2823.026	1005.6
2826.46	1026.6
2829.89	1013.6
2833.318	1027.6
2836.742	1022.6
2840.164	1043.6
2843.583	1035.6
2846.999	1040.6
2850.412	1046.6
2853.822	1076.6
2857.229	1074.6
2860.634	1105.6
2864.035	1137.6
2867.434	1147.6
2870.83	1147.6
2874.223	1194.6
2877.613	1211.6
2881	1255.6
2884.385	1251.6
2887.766	1263.6
2891.145	1245.6
2894.521	1233.6
2897.894	1247.6
2901.264	1259.6
2904.631	1266.6
2907.996	1271.6
2911.358	1252.6
2914.717	1272.6
2918.073	1288.6
2921.426	1301.6
2924.777	1345.6
2928.124	1330.6
2931.469	1395.6
2934.811	1405.6
2938.15	1428.6
2941.487	1440.6
2944.821	1437.6
2948.152	1430.6
2951.48	1448.6
2954.805	1451.6
2958.128	1404.6
2961.447	1394.6
2964.765	1405.6
2968.079	1400.6
2971.39	1408.6
2974.699	1427.6
2978.005	1445.6
2981.308	1475.6
2984.609	1513.6
2987.907	1530.6
2991.202	1568.6
2994.494	1605.6
2997.784	1649.6
3001.07	1648.6
3004.355	1667.6
3007.636	1722.6
3010.915	1728.6
3014.191	1751.6
3017.464	1752.6
3020.734	1775.6
3024.002	1797.6
3027.267	1819.6
3030.53	1839.6
3033.789	1851.6
3037.046	1862.6
3040.301	1890.6
3043.552	1938.6
3046.801	1960.6
3050.048	2034.6
3053.291	2085.6
3056.532	2158.6
3059.771	2193.6
3063.006	2283.6
3066.239	2333.6
3069.469	2441.6
3072.697	2470.6
3075.922	2535.6
3079.144	2573.6
3082.364	2665.6
3085.581	2711.6
3088.795	2793.6
3092.007	2845.6
3095.216	2903.6
3098.423	2963.6
3101.627	3042.6
3104.828	3132.6
3108.026	3180.6
3111.222	3250.6
3114.416	3297.6
3117.607	3405.6
3120.795	3476.6
3123.98	3576.6
3127.163	3652.6
3130.344	3732.6
3133.521	3823.6
3136.696	3922.6
3139.869	3962.6
3143.039	4048.6
3146.206	4157.6
3149.371	4179.6
3152.533	4242.6
3155.693	4247.6
3158.85	4252.6
3162.005	4270.6
3165.157	4286.6
3168.306	4308.6
3171.453	4302.6
3174.597	4346.6
3177.739	4323.6
3180.878	4321.6
3184.014	4343.6
3187.149	4382.6
3190.28	4359.6
3193.409	4380.6
3196.536	4375.6
3199.659	4378.6
3202.781	4385.6
3205.9	4402.6
3209.016	4386.6
3212.13	4362.6
3215.241	4339.6
3218.35	4280.6
3221.456	4251.6
3224.56	4208.6
3227.661	4118.6
3230.76	4127.6
3233.856	4078.6
3236.95	4017.6
3240.041	4013.6
3243.13	3952.6
3246.216	3937.6
3249.3	3905.6
3252.382	3875.6
3255.46	3880.6
3258.537	3891.6
3261.611	3893.6
3264.682	3875.6
3267.751	3859.6
3270.818	3852.6
3273.882	3824.6
3276.943	3806.6
3280.002	3823.6
3283.059	3787.6
3286.113	3726.6
3289.165	3651.6
3292.214	3611.6
3295.261	3582.6
3298.306	3487.6
3301.348	3436.6
3304.387	3394.6
3307.425	3343.6
3310.459	3283.6
3313.492	3248.6
3316.521	3192.6
3319.549	3166.6
3322.574	3124.6
3325.597	3096.6
3328.617	3057.6
3331.635	3055.6
3334.65	3040.6
3337.663	3010.6
3340.674	3006.6
3343.682	3013.6
3346.688	2996.6
3349.691	2973.6
3352.692	2977.6
3355.691	2941.6
3358.687	2905.6
3361.681	2882.6
3364.673	2840.6
3367.662	2782.6
3370.649	2752.6
3373.633	2699.6
3376.615	2702.6
3379.595	2620.6
3382.572	2599.6
3385.547	2543.6
3388.52	2542.6
3391.49	2489.6
3394.458	2450.6
3397.424	2410.6
3400.387	2379.6
3403.348	2370.6
3406.307	2347.6
3409.263	2310.6
3412.217	2274.6
3415.168	2261.6
3418.118	2216.6
3421.065	2192.6
3424.009	2162.6
3426.951	2135.6
3429.891	2094.6
3432.829	2051.6
3435.764	1990.6
3438.697	1965.6
3441.628	1882.6
3444.557	1856.6
3447.483	1775.6
3450.407	1732.6
3453.328	1671.6
3456.247	1624.6
3459.164	1580.6
3462.079	1497.6
3464.991	1470.6
3467.902	1393.6
3470.809	1347.6
3473.715	1297.6
3476.618	1248.6
3479.519	1211.6
3482.418	1161.6
3485.315	1122.6
3488.209	1083.6
3491.101	1054.6
3493.99	1029.6
3496.878	964.6
3499.763	945.6
3502.646	900.6
3505.527	869.6
3508.405	830.6
3511.281	760.6
3514.155	741.6
3517.027	696.6
3519.897	649.6
3522.764	599.6
3525.629	573.6
3528.492	504.6
3531.352	477.6
3534.211	437.6
3537.067	394.6
3539.921	356.6
3542.773	306.6
3545.622	265.6
3548.469	244.6
3551.315	216.6
3554.157	196.6
3556.998	139.6
3559.837	129.6
3562.673	107.6
3565.507	67.6
3568.339	50.6
3571.169	29.6
3573.996	5.6
3576.822	-6.4
3579.645	-36.4
3582.466	-52.4
3585.285	-71.4
3588.101	-93.4
3590.916	-97.4
3593.728	-141.4
3596.538	-154.4
3599.346	-178.4
3602.152	-190.4
3604.956	-197.4
3607.757	-227.4
3610.556	-239.4
3613.354	-258.4
3616.149	-283.4
3618.942	-292.4
3621.732	-303.4
3624.521	-316.4
3627.307	-322.4
3630.092	-344.4
3632.874	-340.4
3635.654	-356.4
3638.432	-365.4
3641.208	-382.4
3643.982	-383.4
3646.753	-381.4
3649.523	-408.4
3652.29	-410.4
3655.055	-418.4
3657.818	-431.4
3660.579	-443.4
3663.338	-464.4
3666.095	-461.4
3668.849	-470.4
3671.602	-483.4
3674.352	-495.4
3677.101	-492.4
3679.847	-512.4
3682.591	-514.4
3685.333	-529.4
3688.073	-527.4
3690.811	-534.4
3693.547	-536.4
3696.281	-542.4
3699.013	-543.4
3701.742	-547.4
3704.47	-555.4
3707.195	-561.4
3709.919	-565.4
3712.64	-570.4
3715.359	-573.4
3718.076	-579.4
3720.792	-580.4
3723.505	-579.4
3726.216	-594.4
3728.925	-586.4
3731.632	-596.4
3734.336	-595.4
3737.039	-602.4
3739.74	-603.4
3742.439	-603.4
3745.136	-606.4
3747.83	-608.4
3750.523	-608.4
3753.213	-593.4
3755.902	-612.4
3758.589	-617.4
3761.273	-619.4
3763.956	-625.4
3766.636	-629.4
3769.315	-623.4
3771.991	-626.4
3774.665	-633.4
3777.338	-630.4
3780.008	-640.4
3782.677	-637.4
3785.343	-634.4
3788.007	-639.4
3790.67	-630.4
3793.33	-638.4
3795.989	-637.4
3798.645	-639.4
3801.299	-634.4
3803.952	-646.4
3806.602	-651.4
3809.251	-655.4
3811.897	-653.4
3814.542	-652.4
3817.184	-651.4
3819.825	-649.4
3822.463	-644.4
3825.1	-652.4
3827.735	-646.4
3830.367	-649.4
3832.998	-658.4
3835.627	-656.4
3838.253	-656.4
3840.878	-661.4
3843.501	-656.4
3846.122	-654.4
3848.741	-652.4
3851.358	-656.4
3853.973	-660.4
3856.586	-664.4
3859.197	-661.4
3861.806	-664.4
3864.414	-658.4
3867.019	-662.4
3869.622	-662.4
3872.224	-657.4
3874.823	-634.4
3877.421	-622.4
3880.016	-602.4
3882.61	-584.4
3885.202	-575.4
3887.792	-593.4
3890.38	-629.4
3892.966	-643.4
3895.55	-661.4
3898.132	-679.4
3900.713	-675.4
3903.291	-673.4
3905.868	-677.4
3908.442	-674.4
3911.015	-678.4
3913.586	-675.4
3916.155	-671.4
3918.722	-679.4
3921.287	-669.4
3923.85	-675.4
3926.411	-675.4
3928.971	-684.4
3931.528	-683.4
3934.084	-683.4
3936.638	-676.4
3939.19	-678.4
3941.74	-677.4
3944.288	-679.4
3946.834	-673.4
3949.378	-680.4
3951.921	-675.4
3954.462	-686.4
3957	-674.4
3959.537	-674.4
3962.072	-675.4
3964.606	-679.4
3967.137	-680.4
3969.667	-680.4
3972.194	-670.4
3974.72	-679.4
3977.244	-672.4
3979.766	-663.4
3982.286	-668.4
3984.805	-667.4
3987.321	-663.4
3989.836	-667.4
3992.349	-658.4
3994.86	-661.4
3997.369	-666.4
3999.877	-658.4
4002.382	-659.4
4004.886	-667.4
4007.388	-660.4
4009.888	-656.4
4012.386	-666.4
4014.883	-657.4
4017.377	-669.4
4019.87	-659.4
4022.361	-667.4
4024.85	-668.4
4027.338	-665.4
4029.823	-670.4
4032.307	-671.4
4034.789	-661.4
4037.269	-663.4
4039.747	-663.4
4042.224	-666.4
4044.699	-665.4
4047.172	-662.4
4049.643	-664.4
4052.112	-666.4
4054.58	-668.4
4057.046	-669.4
4059.51	-671.4
4061.972	-669.4
4064.432	-672.4
4066.891	-666.4
4069.348	-670.4
4071.803	-660.4
4074.256	-666.4
4076.708	-667.4
4079.158	-665.4
4081.606	-669.4
4084.052	-671.4
4086.497	-665.4
4088.939	-659.4
4091.38	-663.4
4093.819	-665.4
4096.257	-701.4
4098.693	-704.4
4101.127	-705.4
4103.559	-705.4
4105.989	-412.4
4108.418	-379.4
4110.845	-348.4
4113.27	-328.4
4115.694	-294.4
4118.115	-237.4
4120.535	-667.4
4122.954	-663.4
4125.37	-655.4
4127.785	-665.4
4130.198	-670.4
4132.609	-667.4
4135.019	-699.4
4137.427	-705.4
4139.833	-701.4
4142.237	-700.4
