Data from 2018-2-14_conc=2_n=10_RamanShift_04.txt Node
Date: Wed Feb 14 11:34:26 IST 2018
User: aro
Spectrometer: QEPB0276
Trigger mode: 0
Integration Time (sec): 3.000000E1
Scans to average: 1
Electric dark correction enabled: true
Nonlinearity correction enabled: false
Boxcar width: 0
XAxis mode: Raman Shifts
Number of Pixels in Spectrum: 1044
>>>>>Begin Spectral Data<<<<<
160.701	-136.9
166.742	42.1
172.777	542.1
178.805	2054.1
184.826	5652.1
190.841	11840.1
196.849	18986.1
202.85	24020.1
208.845	25611.1
214.833	25336.1
220.815	24916.1
226.789	24649.1
232.758	24499.1
238.719	24291.1
244.674	23925.1
250.623	23426.1
256.565	22958.1
262.5	22450.1
268.429	22005.1
274.351	21629.1
280.267	21357.1
286.176	21113.1
292.079	20834.1
297.975	20639.1
303.865	20368.1
309.748	20296.1
315.625	20095.1
321.495	20024.1
327.359	19903.1
333.217	19863.1
339.068	19885.1
344.912	19786.1
350.751	19754.1
356.583	19717.1
362.408	19752.1
368.227	19724.1
374.04	19766.1
379.847	19793.1
385.647	19916.1
391.44	19987.1
397.228	20051.1
403.009	20113.1
408.784	20196.1
414.553	20260.1
420.315	20330.1
426.071	20368.1
431.821	20315.1
437.565	20215.1
443.302	20257.1
449.033	20159.1
454.758	20161.1
460.477	20125.1
466.189	20045.1
471.896	20035.1
477.596	19982.1
483.29	19955.1
488.978	19962.1
494.66	19839.1
500.335	19750.1
506.005	19473.1
511.668	19253.1
517.325	19017.1
522.977	18876.1
528.622	18703.1
534.261	18604.1
539.894	18489.1
545.521	18447.1
551.141	18352.1
556.756	18252.1
562.365	18180.1
567.968	18085.1
573.565	18069.1
579.155	18001.1
584.74	17915.1
590.319	17865.1
595.892	17707.1
601.459	17748.1
607.02	17641.1
612.575	17539.1
618.124	17392.1
623.667	17336.1
629.204	17242.1
634.735	17091.1
640.261	17021.1
645.781	17042.1
651.294	16964.1
656.802	16955.1
662.304	16957.1
667.8	16866.1
673.29	16786.1
678.775	16787.1
684.254	16738.1
689.726	16745.1
695.193	16626.1
700.655	16543.1
706.11	16493.1
711.56	16393.1
717.004	16335.1
722.442	16294.1
727.874	16184.1
733.301	16095.1
738.722	16085.1
744.137	16020.1
749.547	16054.1
754.951	15992.1
760.349	16025.1
765.741	16043.1
771.128	16095.1
776.509	16051.1
781.885	16024.1
787.254	15978.1
792.618	15974.1
797.977	15818.1
803.33	15774.1
808.677	15686.1
814.019	15528.1
819.355	15429.1
824.686	15411.1
830.011	15362.1
835.33	15395.1
840.644	15417.1
845.952	15382.1
851.255	15381.1
856.552	15423.1
861.844	15358.1
867.13	15361.1
872.41	15259.1
877.686	15224.1
882.955	15127.1
888.219	14952.1
893.478	14815.1
898.731	14628.1
903.979	14513.1
909.221	14367.1
914.458	14294.1
919.69	14318.1
924.916	14327.1
930.136	14405.1
935.351	14346.1
940.561	14403.1
945.766	14369.1
950.965	14276.1
956.158	14164.1
961.347	14075.1
966.529	13887.1
971.707	13702.1
976.879	13579.1
982.046	13427.1
987.208	13372.1
992.364	13380.1
997.515	13505.1
1002.66	13581.1
1007.801	13734.1
1012.936	13784.1
1018.066	13804.1
1023.19	13795.1
1028.309	13777.1
1033.423	13793.1
1038.532	13711.1
1043.636	13620.1
1048.734	13387.1
1053.827	13230.1
1058.915	13098.1
1063.998	12989.1
1069.075	12963.1
1074.147	12982.1
1079.214	13005.1
1084.276	13118.1
1089.333	13175.1
1094.385	13261.1
1099.431	13259.1
1104.472	13264.1
1109.509	13237.1
1114.54	13075.1
1119.565	12871.1
1124.586	12701.1
1129.602	12617.1
1134.613	12527.1
1139.618	12408.1
1144.619	12355.1
1149.614	12366.1
1154.604	12425.1
1159.589	12447.1
1164.57	12456.1
1169.545	12516.1
1174.515	12466.1
1179.48	12417.1
1184.44	12345.1
1189.395	12286.1
1194.345	12177.1
1199.29	12120.1
1204.23	12084.1
1209.165	12159.1
1214.095	12220.1
1219.021	12240.1
1223.941	12339.1
1228.856	12421.1
1233.766	12423.1
1238.672	12432.1
1243.572	12430.1
1248.467	12355.1
1253.358	12199.1
1258.244	12031.1
1263.124	11860.1
1268	11707.1
1272.871	11571.1
1277.737	11443.1
1282.599	11440.1
1287.455	11436.1
1292.306	11394.1
1297.153	11438.1
1301.995	11514.1
1306.832	11500.1
1311.664	11554.1
1316.491	11524.1
1321.314	11434.1
1326.132	11259.1
1330.945	11019.1
1335.753	10757.1
1340.556	10552.1
1345.354	10371.1
1350.148	10217.1
1354.937	10107.1
1359.722	10164.1
1364.501	10222.1
1369.276	10307.1
1374.046	10425.1
1378.811	10591.1
1383.572	10705.1
1388.327	10674.1
1393.079	10701.1
1397.825	10498.1
1402.567	10324.1
1407.304	10186.1
1412.036	10074.1
1416.764	9974.1
1421.487	9947.1
1426.205	9852.1
1430.919	9857.1
1435.628	9826.1
1440.333	9899.1
1445.032	9901.1
1449.727	9941.1
1454.418	9907.1
1459.104	9846.1
1463.785	9674.1
1468.462	9529.1
1473.134	9288.1
1477.802	9172.1
1482.465	9009.1
1487.123	8915.1
1491.777	8942.1
1496.426	8987.1
1501.071	9126.1
1505.711	9215.1
1510.347	9384.1
1514.978	9569.1
1519.604	9688.1
1524.226	9764.1
1528.844	9761.1
1533.457	9709.1
1538.065	9679.1
1542.669	9611.1
1547.269	9504.1
1551.864	9437.1
1556.454	9385.1
1561.041	9436.1
1565.622	9345.1
1570.199	9406.1
1574.772	9445.1
1579.34	9517.1
1583.904	9516.1
1588.464	9621.1
1593.019	9596.1
1597.569	9518.1
1602.115	9517.1
1606.657	9462.1
1611.195	9434.1
1615.728	9340.1
1620.256	9302.1
1624.78	9331.1
1629.3	9352.1
1633.816	9353.1
1638.327	9399.1
1642.834	9493.1
1647.336	9534.1
1651.834	9537.1
1656.328	9503.1
1660.817	9530.1
1665.302	9439.1
1669.783	9257.1
1674.259	9100.1
1678.732	8864.1
1683.199	8564.1
1687.663	8272.1
1692.122	8053.1
1696.577	7955.1
1701.028	7937.1
1705.474	7955.1
1709.917	8051.1
1714.355	8072.1
1718.788	8018.1
1723.218	7842.1
1727.643	7656.1
1732.064	7528.1
1736.481	7346.1
1740.893	7136.1
1745.301	6979.1
1749.705	6773.1
1754.105	6566.1
1758.501	6377.1
1762.893	6200.1
1767.28	6077.1
1771.663	5942.1
1776.042	5866.1
1780.417	5835.1
1784.787	5843.1
1789.154	5935.1
1793.516	6038.1
1797.874	6155.1
1802.228	6225.1
1806.578	6326.1
1810.924	6261.1
1815.266	6259.1
1819.603	6114.1
1823.937	6045.1
1828.266	5926.1
1832.591	5814.1
1836.913	5743.1
1841.23	5692.1
1845.543	5646.1
1849.852	5608.1
1854.156	5585.1
1858.457	5580.1
1862.754	5579.1
1867.047	5547.1
1871.335	5549.1
1875.62	5579.1
1879.9	5524.1
1884.177	5495.1
1888.449	5455.1
1892.718	5397.1
1896.982	5398.1
1901.243	5354.1
1905.499	5333.1
1909.752	5289.1
1914	5315.1
1918.245	5330.1
1922.485	5392.1
1926.722	5468.1
1930.954	5519.1
1935.183	5643.1
1939.408	5644.1
1943.628	5654.1
1947.845	5664.1
1952.058	5666.1
1956.267	5628.1
1960.472	5515.1
1964.673	5425.1
1968.87	5338.1
1973.063	5262.1
1977.252	5156.1
1981.438	5075.1
1985.619	5050.1
1989.797	5008.1
1993.971	4971.1
1998.14	4928.1
2002.306	4926.1
2006.469	4881.1
2010.627	4881.1
2014.781	4837.1
2018.932	4754.1
2023.078	4786.1
2027.221	4709.1
2031.36	4613.1
2035.495	4545.1
2039.627	4496.1
2043.754	4456.1
2047.878	4405.1
2051.998	4388.1
2056.114	4386.1
2060.226	4398.1
2064.334	4402.1
2068.439	4383.1
2072.54	4437.1
2076.637	4488.1
2080.73	4532.1
2084.82	4561.1
2088.906	4550.1
2092.988	4588.1
2097.066	4564.1
2101.14	4512.1
2105.211	4492.1
2109.278	4482.1
2113.342	4395.1
2117.401	4397.1
2121.457	4382.1
2125.509	4317.1
2129.558	4329.1
2133.602	4289.1
2137.643	4265.1
2141.681	4263.1
2145.714	4222.1
2149.744	4170.1
2153.77	4137.1
2157.793	4097.1
2161.812	4072.1
2165.827	3962.1
2169.838	3939.1
2173.846	3874.1
2177.851	3757.1
2181.851	3736.1
2185.848	3670.1
2189.841	3628.1
2193.831	3583.1
2197.817	3583.1
2201.799	3517.1
2205.778	3521.1
2209.753	3519.1
2213.725	3518.1
2217.693	3488.1
2221.657	3468.1
2225.618	3478.1
2229.575	3419.1
2233.529	3404.1
2237.479	3371.1
2241.425	3339.1
2245.368	3273.1
2249.307	3230.1
2253.243	3194.1
2257.175	3168.1
2261.104	3086.1
2265.029	3073.1
2268.95	3066.1
2272.868	3007.1
2276.783	2943.1
2280.694	2945.1
2284.601	2908.1
2288.505	2881.1
2292.405	2850.1
2296.302	2805.1
2300.195	2750.1
2304.085	2753.1
2307.971	2716.1
2311.854	2641.1
2315.734	2610.1
2319.609	2596.1
2323.482	2537.1
2327.351	2522.1
2331.216	2492.1
2335.078	2485.1
2338.937	2466.1
2342.792	2445.1
2346.643	2446.1
2350.492	2448.1
2354.336	2454.1
2358.178	2450.1
2362.015	2457.1
2365.85	2466.1
2369.681	2451.1
2373.508	2458.1
2377.333	2442.1
2381.153	2407.1
2384.971	2402.1
2388.785	2394.1
2392.595	2362.1
2396.402	2374.1
2400.206	2316.1
2404.007	2301.1
2407.804	2302.1
2411.597	2301.1
2415.388	2277.1
2419.174	2253.1
2422.958	2235.1
2426.738	2220.1
2430.515	2193.1
2434.289	2186.1
2438.059	2175.1
2441.825	2132.1
2445.589	2149.1
2449.349	2098.1
2453.106	2087.1
2456.859	2059.1
2460.61	2038.1
2464.356	2018.1
2468.1	1992.1
2471.84	1985.1
2475.577	1946.1
2479.311	1938.1
2483.041	1943.1
2486.768	1920.1
2490.492	1917.1
2494.213	1948.1
2497.93	1929.1
2501.644	1886.1
2505.355	1898.1
2509.062	1892.1
2512.766	1891.1
2516.467	1884.1
2520.165	1886.1
2523.859	1861.1
2527.551	1837.1
2531.239	1836.1
2534.923	1827.1
2538.605	1833.1
2542.283	1809.1
2545.958	1803.1
2549.63	1826.1
2553.299	1801.1
2556.964	1788.1
2560.626	1787.1
2564.285	1801.1
2567.941	1792.1
2571.594	1781.1
2575.243	1753.1
2578.89	1753.1
2582.533	1728.1
2586.173	1717.1
2589.809	1694.1
2593.443	1684.1
2597.073	1653.1
2600.701	1662.1
2604.325	1627.1
2607.946	1637.1
2611.564	1589.1
2615.178	1606.1
2618.79	1569.1
2622.398	1564.1
2626.004	1538.1
2629.606	1520.1
2633.205	1512.1
2636.801	1485.1
2640.394	1470.1
2643.983	1453.1
2647.57	1430.1
2651.153	1388.1
2654.734	1354.1
2658.311	1346.1
2661.885	1324.1
2665.456	1325.1
2669.025	1294.1
2672.589	1279.1
2676.151	1257.1
2679.71	1253.1
2683.266	1239.1
2686.819	1206.1
2690.368	1189.1
2693.915	1162.1
2697.458	1120.1
2700.999	1103.1
2704.536	1086.1
2708.071	1055.1
2711.602	1017.1
2715.13	1019.1
2718.656	1000.1
2722.178	985.1
2725.697	971.1
2729.214	961.1
2732.727	971.1
2736.237	963.1
2739.744	967.1
2743.249	974.1
2746.75	992.1
2750.248	996.1
2753.743	1010.1
2757.236	1021.1
2760.725	1011.1
2764.211	1040.1
2767.695	1027.1
2771.175	1042.1
2774.652	1035.1
2778.127	1023.1
2781.598	999.1
2785.067	996.1
2788.532	997.1
2791.995	988.1
2795.455	988.1
2798.911	996.1
2802.365	995.1
2805.816	995.1
2809.264	1011.1
2812.709	997.1
2816.151	1006.1
2819.59	1009.1
2823.026	1013.1
2826.46	1010.1
2829.89	1013.1
2833.318	1004.1
2836.742	1006.1
2840.164	1019.1
2843.583	1012.1
2846.999	1028.1
2850.412	1043.1
2853.822	1060.1
2857.229	1054.1
2860.634	1091.1
2864.035	1092.1
2867.434	1118.1
2870.83	1138.1
2874.223	1169.1
2877.613	1182.1
2881	1196.1
2884.385	1188.1
2887.766	1207.1
2891.145	1185.1
2894.521	1187.1
2897.894	1202.1
2901.264	1193.1
2904.631	1191.1
2907.996	1193.1
2911.358	1188.1
2914.717	1217.1
2918.073	1211.1
2921.426	1225.1
2924.777	1236.1
2928.124	1277.1
2931.469	1299.1
2934.811	1305.1
2938.15	1333.1
2941.487	1325.1
2944.821	1353.1
2948.152	1336.1
2951.48	1349.1
2954.805	1303.1
2958.128	1310.1
2961.447	1301.1
2964.765	1312.1
2968.079	1323.1
2971.39	1315.1
2974.699	1352.1
2978.005	1370.1
2981.308	1411.1
2984.609	1412.1
2987.907	1442.1
2991.202	1464.1
2994.494	1499.1
2997.784	1552.1
3001.07	1557.1
3004.355	1572.1
3007.636	1618.1
3010.915	1621.1
3014.191	1642.1
3017.464	1635.1
3020.734	1665.1
3024.002	1675.1
3027.267	1689.1
3030.53	1692.1
3033.789	1693.1
3037.046	1725.1
3040.301	1758.1
3043.552	1802.1
3046.801	1817.1
3050.048	1874.1
3053.291	1916.1
3056.532	1944.1
3059.771	2002.1
3063.006	2080.1
3066.239	2143.1
3069.469	2206.1
3072.697	2259.1
3075.922	2312.1
3079.144	2377.1
3082.364	2444.1
3085.581	2481.1
3088.795	2524.1
3092.007	2620.1
3095.216	2669.1
3098.423	2698.1
3101.627	2784.1
3104.828	2838.1
3108.026	2886.1
3111.222	2966.1
3114.416	3041.1
3117.607	3067.1
3120.795	3159.1
3123.98	3250.1
3127.163	3330.1
3130.344	3423.1
3133.521	3496.1
3136.696	3572.1
3139.869	3655.1
3143.039	3721.1
3146.206	3757.1
3149.371	3810.1
3152.533	3836.1
3155.693	3848.1
3158.85	3877.1
3162.005	3898.1
3165.157	3946.1
3168.306	3913.1
3171.453	3890.1
3174.597	3945.1
3177.739	3958.1
3180.878	3928.1
3184.014	3954.1
3187.149	3977.1
3190.28	3960.1
3193.409	3995.1
3196.536	3970.1
3199.659	3975.1
3202.781	3972.1
3205.9	3990.1
3209.016	3970.1
3212.13	3962.1
3215.241	3947.1
3218.35	3920.1
3221.456	3849.1
3224.56	3844.1
3227.661	3781.1
3230.76	3749.1
3233.856	3686.1
3236.95	3654.1
3240.041	3640.1
3243.13	3623.1
3246.216	3591.1
3249.3	3583.1
3252.382	3574.1
3255.46	3580.1
3258.537	3545.1
3261.611	3540.1
3264.682	3532.1
3267.751	3576.1
3270.818	3528.1
3273.882	3529.1
3276.943	3538.1
3280.002	3485.1
3283.059	3446.1
3286.113	3429.1
3289.165	3372.1
3292.214	3293.1
3295.261	3261.1
3298.306	3192.1
3301.348	3141.1
3304.387	3098.1
3307.425	3044.1
3310.459	3005.1
3313.492	2934.1
3316.521	2926.1
3319.549	2870.1
3322.574	2878.1
3325.597	2838.1
3328.617	2807.1
3331.635	2787.1
3334.65	2770.1
3337.663	2779.1
3340.674	2718.1
3343.682	2730.1
3346.688	2713.1
3349.691	2697.1
3352.692	2710.1
3355.691	2674.1
3358.687	2643.1
3361.681	2619.1
3364.673	2597.1
3367.662	2525.1
3370.649	2534.1
3373.633	2463.1
3376.615	2436.1
3379.595	2410.1
3382.572	2372.1
3385.547	2337.1
3388.52	2311.1
3391.49	2257.1
3394.458	2264.1
3397.424	2226.1
3400.387	2196.1
3403.348	2162.1
3406.307	2132.1
3409.263	2106.1
3412.217	2082.1
3415.168	2071.1
3418.118	2036.1
3421.065	2004.1
3424.009	1991.1
3426.951	1965.1
3429.891	1927.1
3432.829	1881.1
3435.764	1835.1
3438.697	1783.1
3441.628	1741.1
3444.557	1721.1
3447.483	1631.1
3450.407	1590.1
3453.328	1559.1
3456.247	1502.1
3459.164	1445.1
3462.079	1397.1
3464.991	1355.1
3467.902	1286.1
3470.809	1257.1
3473.715	1196.1
3476.618	1163.1
3479.519	1121.1
3482.418	1105.1
3485.315	1046.1
3488.209	1016.1
3491.101	985.1
3493.99	943.1
3496.878	902.1
3499.763	874.1
3502.646	849.1
3505.527	804.1
3508.405	778.1
3511.281	730.1
3514.155	682.1
3517.027	676.1
3519.897	612.1
3522.764	563.1
3525.629	529.1
3528.492	479.1
3531.352	452.1
3534.211	418.1
3537.067	378.1
3539.921	339.1
3542.773	313.1
3545.622	284.1
3548.469	239.1
3551.315	217.1
3554.157	192.1
3556.998	161.1
3559.837	144.1
3562.673	120.1
3565.507	90.1
3568.339	64.1
3571.169	58.1
3573.996	30.1
3576.822	19.1
3579.645	-17.9
3582.466	-31.9
3585.285	-48.9
3588.101	-64.9
3590.916	-79.9
3593.728	-101.9
3596.538	-114.9
3599.346	-135.9
3602.152	-145.9
3604.956	-171.9
3607.757	-190.9
3610.556	-214.9
3613.354	-228.9
3616.149	-229.9
3618.942	-247.9
3621.732	-258.9
3624.521	-269.9
3627.307	-283.9
3630.092	-288.9
3632.874	-296.9
3635.654	-310.9
3638.432	-307.9
3641.208	-315.9
3643.982	-334.9
3646.753	-344.9
3649.523	-342.9
3652.29	-352.9
3655.055	-364.9
3657.818	-384.9
3660.579	-392.9
3663.338	-404.9
3666.095	-407.9
3668.849	-413.9
3671.602	-427.9
3674.352	-432.9
3677.101	-436.9
3679.847	-446.9
3682.591	-453.9
3685.333	-454.9
3688.073	-457.9
3690.811	-464.9
3693.547	-472.9
3696.281	-478.9
3699.013	-482.9
3701.742	-484.9
3704.47	-492.9
3707.195	-499.9
3709.919	-497.9
3712.64	-505.9
3715.359	-504.9
3718.076	-510.9
3720.792	-512.9
3723.505	-512.9
3726.216	-523.9
3728.925	-515.9
3731.632	-525.9
3734.336	-529.9
3737.039	-527.9
3739.74	-528.9
3742.439	-534.9
3745.136	-543.9
3747.83	-543.9
3750.523	-541.9
3753.213	-523.9
3755.902	-551.9
3758.589	-549.9
3761.273	-553.9
3763.956	-555.9
3766.636	-554.9
3769.315	-555.9
3771.991	-555.9
3774.665	-562.9
3777.338	-557.9
3780.008	-564.9
3782.677	-563.9
3785.343	-562.9
3788.007	-569.9
3790.67	-566.9
3793.33	-569.9
3795.989	-571.9
3798.645	-568.9
3801.299	-566.9
3803.952	-574.9
3806.602	-580.9
3809.251	-583.9
3811.897	-577.9
3814.542	-570.9
3817.184	-573.9
3819.825	-571.9
3822.463	-577.9
3825.1	-573.9
3827.735	-575.9
3830.367	-576.9
3832.998	-584.9
3835.627	-587.9
3838.253	-589.9
3840.878	-587.9
3843.501	-584.9
3846.122	-583.9
3848.741	-584.9
3851.358	-583.9
3853.973	-587.9
3856.586	-588.9
3859.197	-590.9
3861.806	-587.9
3864.414	-587.9
3867.019	-588.9
3869.622	-586.9
3872.224	-582.9
3874.823	-570.9
3877.421	-554.9
3880.016	-541.9
3882.61	-518.9
3885.202	-522.9
3887.792	-538.9
3890.38	-561.9
3892.966	-580.9
3895.55	-586.9
3898.132	-597.9
3900.713	-602.9
3903.291	-593.9
3905.868	-600.9
3908.442	-596.9
3911.015	-598.9
3913.586	-597.9
3916.155	-597.9
3918.722	-603.9
3921.287	-601.9
3923.85	-608.9
3926.411	-604.9
3928.971	-610.9
3931.528	-604.9
3934.084	-606.9
3936.638	-602.9
3939.19	-604.9
3941.74	-602.9
3944.288	-606.9
3946.834	-600.9
3949.378	-602.9
3951.921	-601.9
3954.462	-605.9
3957	-603.9
3959.537	-602.9
3962.072	-603.9
3964.606	-605.9
3967.137	-603.9
3969.667	-611.9
3972.194	-599.9
3974.72	-601.9
3977.244	-595.9
3979.766	-594.9
3982.286	-591.9
3984.805	-591.9
3987.321	-588.9
3989.836	-595.9
3992.349	-583.9
3994.86	-589.9
3997.369	-595.9
3999.877	-589.9
4002.382	-595.9
4004.886	-594.9
4007.388	-586.9
4009.888	-589.9
4012.386	-596.9
4014.883	-590.9
4017.377	-593.9
4019.87	-587.9
4022.361	-586.9
4024.85	-588.9
4027.338	-592.9
4029.823	-593.9
4032.307	-597.9
4034.789	-588.9
4037.269	-588.9
4039.747	-592.9
4042.224	-597.9
4044.699	-593.9
4047.172	-599.9
4049.643	-591.9
4052.112	-605.9
4054.58	-602.9
4057.046	-597.9
4059.51	-594.9
4061.972	-599.9
4064.432	-596.9
4066.891	-591.9
4069.348	-588.9
4071.803	-588.9
4074.256	-591.9
4076.708	-587.9
4079.158	-592.9
4081.606	-596.9
4084.052	-599.9
4086.497	-598.9
4088.939	-588.9
4091.38	-598.9
4093.819	-590.9
4096.257	-622.9
4098.693	-619.9
4101.127	-623.9
4103.559	-624.9
4105.989	-362.9
4108.418	-340.9
4110.845	-321.9
4113.27	-294.9
4115.694	-259.9
4118.115	-215.9
4120.535	-590.9
4122.954	-592.9
4125.37	-591.9
4127.785	-598.9
4130.198	-592.9
4132.609	-595.9
4135.019	-626.9
4137.427	-627.9
4139.833	-625.9
4142.237	-620.9
