Data from 2018-2-14_conc=6_n=9_RamanShift_03.txt Node
Date: Wed Feb 14 15:12:25 IST 2018
User: aro
Spectrometer: QEPB0276
Trigger mode: 0
Integration Time (sec): 3.000000E1
Scans to average: 1
Electric dark correction enabled: true
Nonlinearity correction enabled: false
Boxcar width: 0
XAxis mode: Raman Shifts
Number of Pixels in Spectrum: 1044
>>>>>Begin Spectral Data<<<<<
160.701	-145.9
166.742	49.1
172.777	610.1
178.805	2337.1
184.826	6399.1
190.841	13426.1
196.849	21580.1
202.85	27337.1
208.845	29205.1
214.833	28875.1
220.815	28434.1
226.789	28336.1
232.758	28126.1
238.719	28008.1
244.674	27615.1
250.623	27243.1
256.565	26716.1
262.5	26151.1
268.429	25696.1
274.351	25328.1
280.267	24971.1
286.176	24707.1
292.079	24554.1
297.975	24348.1
303.865	24128.1
309.748	24010.1
315.625	23902.1
321.495	23763.1
327.359	23624.1
333.217	23635.1
339.068	23514.1
344.912	23563.1
350.751	23526.1
356.583	23496.1
362.408	23482.1
368.227	23505.1
374.04	23553.1
379.847	23538.1
385.647	23713.1
391.44	23789.1
397.228	23860.1
403.009	23915.1
408.784	24037.1
414.553	24047.1
420.315	24162.1
426.071	24181.1
431.821	24123.1
437.565	24088.1
443.302	24132.1
449.033	24090.1
454.758	23984.1
460.477	24014.1
466.189	23893.1
471.896	23871.1
477.596	23855.1
483.29	23722.1
488.978	23736.1
494.66	23605.1
500.335	23486.1
506.005	23309.1
511.668	22912.1
517.325	22724.1
522.977	22451.1
528.622	22317.1
534.261	22149.1
539.894	22045.1
545.521	21983.1
551.141	21904.1
556.756	21838.1
562.365	21748.1
567.968	21595.1
573.565	21480.1
579.155	21448.1
584.74	21422.1
590.319	21356.1
595.892	21209.1
601.459	21132.1
607.02	21016.1
612.575	20907.1
618.124	20787.1
623.667	20685.1
629.204	20526.1
634.735	20445.1
640.261	20384.1
645.781	20372.1
651.294	20286.1
656.802	20231.1
662.304	20217.1
667.8	20254.1
673.29	20170.1
678.775	20157.1
684.254	20067.1
689.726	19964.1
695.193	19948.1
700.655	19855.1
706.11	19746.1
711.56	19650.1
717.004	19466.1
722.442	19392.1
727.874	19362.1
733.301	19287.1
738.722	19226.1
744.137	19192.1
749.547	19191.1
754.951	19168.1
760.349	19147.1
765.741	19205.1
771.128	19198.1
776.509	19224.1
781.885	19174.1
787.254	19162.1
792.618	19082.1
797.977	18987.1
803.33	18804.1
808.677	18768.1
814.019	18625.1
819.355	18577.1
824.686	18430.1
830.011	18410.1
835.33	18365.1
840.644	18411.1
845.952	18450.1
851.255	18482.1
856.552	18524.1
861.844	18450.1
867.13	18381.1
872.41	18390.1
877.686	18279.1
882.955	18092.1
888.219	17996.1
893.478	17780.1
898.731	17601.1
903.979	17372.1
909.221	17229.1
914.458	17231.1
919.69	17143.1
924.916	17234.1
930.136	17280.1
935.351	17311.1
940.561	17280.1
945.766	17262.1
950.965	17153.1
956.158	17075.1
961.347	16877.1
966.529	16650.1
971.707	16413.1
976.879	16265.1
982.046	16147.1
987.208	16071.1
992.364	16110.1
997.515	16179.1
1002.66	16297.1
1007.801	16485.1
1012.936	16604.1
1018.066	16573.1
1023.19	16640.1
1028.309	16633.1
1033.423	16580.1
1038.532	16462.1
1043.636	16340.1
1048.734	16180.1
1053.827	15971.1
1058.915	15726.1
1063.998	15645.1
1069.075	15643.1
1074.147	15661.1
1079.214	15704.1
1084.276	15798.1
1089.333	15877.1
1094.385	15934.1
1099.431	15966.1
1104.472	15983.1
1109.509	15863.1
1114.54	15698.1
1119.565	15487.1
1124.586	15279.1
1129.602	15164.1
1134.613	15083.1
1139.618	14957.1
1144.619	14900.1
1149.614	14894.1
1154.604	14967.1
1159.589	15041.1
1164.57	15003.1
1169.545	15038.1
1174.515	15037.1
1179.48	14940.1
1184.44	14872.1
1189.395	14774.1
1194.345	14638.1
1199.29	14579.1
1204.23	14564.1
1209.165	14616.1
1214.095	14681.1
1219.021	14790.1
1223.941	14821.1
1228.856	14923.1
1233.766	14926.1
1238.672	14981.1
1243.572	14965.1
1248.467	14874.1
1253.358	14636.1
1258.244	14457.1
1263.124	14229.1
1268	14032.1
1272.871	13867.1
1277.737	13771.1
1282.599	13705.1
1287.455	13725.1
1292.306	13687.1
1297.153	13760.1
1301.995	13808.1
1306.832	13861.1
1311.664	13876.1
1316.491	13825.1
1321.314	13733.1
1326.132	13494.1
1330.945	13247.1
1335.753	12855.1
1340.556	12545.1
1345.354	12312.1
1350.148	12110.1
1354.937	12016.1
1359.722	11976.1
1364.501	12064.1
1369.276	12163.1
1374.046	12288.1
1378.811	12530.1
1383.572	12622.1
1388.327	12708.1
1393.079	12643.1
1397.825	12491.1
1402.567	12323.1
1407.304	12192.1
1412.036	12022.1
1416.764	11938.1
1421.487	11859.1
1426.205	11834.1
1430.919	11797.1
1435.628	11816.1
1440.333	11771.1
1445.032	11797.1
1449.727	11848.1
1454.418	11772.1
1459.104	11682.1
1463.785	11440.1
1468.462	11209.1
1473.134	10983.1
1477.802	10752.1
1482.465	10564.1
1487.123	10423.1
1491.777	10397.1
1496.426	10487.1
1501.071	10579.1
1505.711	10736.1
1510.347	10904.1
1514.978	11104.1
1519.604	11263.1
1524.226	11421.1
1528.844	11398.1
1533.457	11381.1
1538.065	11359.1
1542.669	11298.1
1547.269	11174.1
1551.864	11117.1
1556.454	11124.1
1561.041	11073.1
1565.622	11077.1
1570.199	11039.1
1574.772	11139.1
1579.34	11205.1
1583.904	11246.1
1588.464	11267.1
1593.019	11281.1
1597.569	11246.1
1602.115	11128.1
1606.657	11077.1
1611.195	11030.1
1615.728	10892.1
1620.256	10900.1
1624.78	10877.1
1629.3	10872.1
1633.816	10917.1
1638.327	10895.1
1642.834	10949.1
1647.336	11043.1
1651.834	11052.1
1656.328	11050.1
1660.817	10946.1
1665.302	10848.1
1669.783	10678.1
1674.259	10444.1
1678.732	10108.1
1683.199	9773.1
1687.663	9452.1
1692.122	9155.1
1696.577	8992.1
1701.028	8983.1
1705.474	9038.1
1709.917	9153.1
1714.355	9251.1
1718.788	9179.1
1723.218	9015.1
1727.643	8913.1
1732.064	8722.1
1736.481	8563.1
1740.893	8281.1
1745.301	8073.1
1749.705	7880.1
1754.105	7651.1
1758.501	7434.1
1762.893	7231.1
1767.28	7035.1
1771.663	6872.1
1776.042	6718.1
1780.417	6653.1
1784.787	6646.1
1789.154	6733.1
1793.516	6827.1
1797.874	7011.1
1802.228	7123.1
1806.578	7209.1
1810.924	7206.1
1815.266	7162.1
1819.603	7066.1
1823.937	6928.1
1828.266	6801.1
1832.591	6736.1
1836.913	6653.1
1841.23	6561.1
1845.543	6531.1
1849.852	6475.1
1854.156	6440.1
1858.457	6432.1
1862.754	6419.1
1867.047	6416.1
1871.335	6410.1
1875.62	6366.1
1879.9	6389.1
1884.177	6319.1
1888.449	6234.1
1892.718	6176.1
1896.982	6100.1
1901.243	6078.1
1905.499	5979.1
1909.752	5980.1
1914	5957.1
1918.245	6020.1
1922.485	6057.1
1926.722	6110.1
1930.954	6155.1
1935.183	6242.1
1939.408	6328.1
1943.628	6376.1
1947.845	6391.1
1952.058	6362.1
1956.267	6288.1
1960.472	6302.1
1964.673	6164.1
1968.87	6047.1
1973.063	5942.1
1977.252	5858.1
1981.438	5778.1
1985.619	5721.1
1989.797	5696.1
1993.971	5644.1
1998.14	5619.1
2002.306	5640.1
2006.469	5625.1
2010.627	5515.1
2014.781	5501.1
2018.932	5460.1
2023.078	5401.1
2027.221	5330.1
2031.36	5232.1
2035.495	5155.1
2039.627	5073.1
2043.754	5011.1
2047.878	4982.1
2051.998	4936.1
2056.114	4889.1
2060.226	4910.1
2064.334	4921.1
2068.439	4924.1
2072.54	4973.1
2076.637	5002.1
2080.73	5023.1
2084.82	5050.1
2088.906	5068.1
2092.988	5094.1
2097.066	5076.1
2101.14	5013.1
2105.211	4979.1
2109.278	4972.1
2113.342	4922.1
2117.401	4892.1
2121.457	4913.1
2125.509	4854.1
2129.558	4825.1
2133.602	4795.1
2137.643	4771.1
2141.681	4754.1
2145.714	4732.1
2149.744	4694.1
2153.77	4659.1
2157.793	4630.1
2161.812	4544.1
2165.827	4510.1
2169.838	4398.1
2173.846	4347.1
2177.851	4241.1
2181.851	4223.1
2185.848	4128.1
2189.841	4112.1
2193.831	4047.1
2197.817	4021.1
2201.799	4010.1
2205.778	3970.1
2209.753	3965.1
2213.725	3966.1
2217.693	3938.1
2221.657	3937.1
2225.618	3921.1
2229.575	3918.1
2233.529	3875.1
2237.479	3804.1
2241.425	3789.1
2245.368	3733.1
2249.307	3709.1
2253.243	3625.1
2257.175	3583.1
2261.104	3507.1
2265.029	3485.1
2268.95	3473.1
2272.868	3408.1
2276.783	3391.1
2280.694	3350.1
2284.601	3305.1
2288.505	3268.1
2292.405	3241.1
2296.302	3204.1
2300.195	3187.1
2304.085	3143.1
2307.971	3086.1
2311.854	3044.1
2315.734	2981.1
2319.609	2950.1
2323.482	2901.1
2327.351	2878.1
2331.216	2889.1
2335.078	2859.1
2338.937	2832.1
2342.792	2817.1
2346.643	2813.1
2350.492	2842.1
2354.336	2825.1
2358.178	2816.1
2362.015	2836.1
2365.85	2846.1
2369.681	2823.1
2373.508	2846.1
2377.333	2838.1
2381.153	2819.1
2384.971	2796.1
2388.785	2800.1
2392.595	2761.1
2396.402	2750.1
2400.206	2723.1
2404.007	2707.1
2407.804	2688.1
2411.597	2647.1
2415.388	2610.1
2419.174	2646.1
2422.958	2628.1
2426.738	2584.1
2430.515	2572.1
2434.289	2530.1
2438.059	2549.1
2441.825	2522.1
2445.589	2490.1
2449.349	2427.1
2453.106	2432.1
2456.859	2367.1
2460.61	2369.1
2464.356	2326.1
2468.1	2291.1
2471.84	2300.1
2475.577	2266.1
2479.311	2236.1
2483.041	2221.1
2486.768	2224.1
2490.492	2192.1
2494.213	2196.1
2497.93	2187.1
2501.644	2173.1
2505.355	2170.1
2509.062	2158.1
2512.766	2129.1
2516.467	2134.1
2520.165	2111.1
2523.859	2093.1
2527.551	2091.1
2531.239	2070.1
2534.923	2061.1
2538.605	2068.1
2542.283	2040.1
2545.958	2051.1
2549.63	2039.1
2553.299	2048.1
2556.964	2028.1
2560.626	2001.1
2564.285	2009.1
2567.941	2007.1
2571.594	2012.1
2575.243	1962.1
2578.89	1974.1
2582.533	1960.1
2586.173	1932.1
2589.809	1900.1
2593.443	1925.1
2597.073	1903.1
2600.701	1864.1
2604.325	1863.1
2607.946	1836.1
2611.564	1817.1
2615.178	1811.1
2618.79	1812.1
2622.398	1781.1
2626.004	1753.1
2629.606	1732.1
2633.205	1734.1
2636.801	1679.1
2640.394	1670.1
2643.983	1642.1
2647.57	1607.1
2651.153	1588.1
2654.734	1566.1
2658.311	1525.1
2661.885	1523.1
2665.456	1496.1
2669.025	1485.1
2672.589	1473.1
2676.151	1455.1
2679.71	1440.1
2683.266	1415.1
2686.819	1387.1
2690.368	1359.1
2693.915	1324.1
2697.458	1290.1
2700.999	1274.1
2704.536	1239.1
2708.071	1205.1
2711.602	1178.1
2715.13	1156.1
2718.656	1129.1
2722.178	1110.1
2725.697	1091.1
2729.214	1071.1
2732.727	1076.1
2736.237	1062.1
2739.744	1055.1
2743.249	1059.1
2746.75	1075.1
2750.248	1078.1
2753.743	1081.1
2757.236	1092.1
2760.725	1112.1
2764.211	1117.1
2767.695	1124.1
2771.175	1129.1
2774.652	1124.1
2778.127	1097.1
2781.598	1090.1
2785.067	1099.1
2788.532	1106.1
2791.995	1090.1
2795.455	1089.1
2798.911	1086.1
2802.365	1099.1
2805.816	1081.1
2809.264	1092.1
2812.709	1075.1
2816.151	1099.1
2819.59	1095.1
2823.026	1082.1
2826.46	1092.1
2829.89	1086.1
2833.318	1097.1
2836.742	1114.1
2840.164	1119.1
2843.583	1118.1
2846.999	1134.1
2850.412	1143.1
2853.822	1140.1
2857.229	1176.1
2860.634	1186.1
2864.035	1204.1
2867.434	1216.1
2870.83	1246.1
2874.223	1263.1
2877.613	1275.1
2881	1292.1
2884.385	1300.1
2887.766	1308.1
2891.145	1299.1
2894.521	1290.1
2897.894	1291.1
2901.264	1304.1
2904.631	1283.1
2907.996	1284.1
2911.358	1302.1
2914.717	1314.1
2918.073	1336.1
2921.426	1330.1
2924.777	1334.1
2928.124	1387.1
2931.469	1395.1
2934.811	1430.1
2938.15	1448.1
2941.487	1466.1
2944.821	1460.1
2948.152	1438.1
2951.48	1435.1
2954.805	1404.1
2958.128	1403.1
2961.447	1400.1
2964.765	1400.1
2968.079	1388.1
2971.39	1397.1
2974.699	1417.1
2978.005	1446.1
2981.308	1460.1
2984.609	1497.1
2987.907	1526.1
2991.202	1561.1
2994.494	1610.1
2997.784	1636.1
3001.07	1654.1
3004.355	1673.1
3007.636	1706.1
3010.915	1729.1
3014.191	1726.1
3017.464	1738.1
3020.734	1762.1
3024.002	1770.1
3027.267	1799.1
3030.53	1807.1
3033.789	1796.1
3037.046	1834.1
3040.301	1850.1
3043.552	1904.1
3046.801	1919.1
3050.048	1990.1
3053.291	2033.1
3056.532	2087.1
3059.771	2156.1
3063.006	2187.1
3066.239	2274.1
3069.469	2338.1
3072.697	2404.1
3075.922	2457.1
3079.144	2519.1
3082.364	2598.1
3085.581	2640.1
3088.795	2703.1
3092.007	2742.1
3095.216	2787.1
3098.423	2865.1
3101.627	2929.1
3104.828	2973.1
3108.026	3042.1
3111.222	3104.1
3114.416	3199.1
3117.607	3275.1
3120.795	3344.1
3123.98	3437.1
3127.163	3512.1
3130.344	3576.1
3133.521	3667.1
3136.696	3745.1
3139.869	3832.1
3143.039	3884.1
3146.206	3971.1
3149.371	4010.1
3152.533	4043.1
3155.693	4044.1
3158.85	4095.1
3162.005	4106.1
3165.157	4144.1
3168.306	4102.1
3171.453	4134.1
3174.597	4149.1
3177.739	4180.1
3180.878	4132.1
3184.014	4135.1
3187.149	4172.1
3190.28	4175.1
3193.409	4165.1
3196.536	4201.1
3199.659	4171.1
3202.781	4194.1
3205.9	4171.1
3209.016	4168.1
3212.13	4167.1
3215.241	4141.1
3218.35	4102.1
3221.456	4057.1
3224.56	4013.1
3227.661	3969.1
3230.76	3945.1
3233.856	3892.1
3236.95	3852.1
3240.041	3829.1
3243.13	3812.1
3246.216	3799.1
3249.3	3782.1
3252.382	3753.1
3255.46	3740.1
3258.537	3692.1
3261.611	3718.1
3264.682	3702.1
3267.751	3704.1
3270.818	3721.1
3273.882	3682.1
3276.943	3692.1
3280.002	3682.1
3283.059	3649.1
3286.113	3578.1
3289.165	3535.1
3292.214	3463.1
3295.261	3397.1
3298.306	3358.1
3301.348	3307.1
3304.387	3234.1
3307.425	3175.1
3310.459	3166.1
3313.492	3113.1
3316.521	3050.1
3319.549	3004.1
3322.574	2962.1
3325.597	2970.1
3328.617	2966.1
3331.635	2917.1
3334.65	2923.1
3337.663	2911.1
3340.674	2867.1
3343.682	2851.1
3346.688	2870.1
3349.691	2851.1
3352.692	2824.1
3355.691	2820.1
3358.687	2776.1
3361.681	2765.1
3364.673	2711.1
3367.662	2680.1
3370.649	2666.1
3373.633	2582.1
3376.615	2578.1
3379.595	2504.1
3382.572	2498.1
3385.547	2460.1
3388.52	2418.1
3391.49	2351.1
3394.458	2353.1
3397.424	2302.1
3400.387	2262.1
3403.348	2277.1
3406.307	2225.1
3409.263	2208.1
3412.217	2177.1
3415.168	2157.1
3418.118	2125.1
3421.065	2101.1
3424.009	2078.1
3426.951	2050.1
3429.891	1991.1
3432.829	1950.1
3435.764	1927.1
3438.697	1872.1
3441.628	1807.1
3444.557	1753.1
3447.483	1703.1
3450.407	1650.1
3453.328	1586.1
3456.247	1546.1
3459.164	1487.1
3462.079	1455.1
3464.991	1392.1
3467.902	1338.1
3470.809	1285.1
3473.715	1247.1
3476.618	1173.1
3479.519	1150.1
3482.418	1105.1
3485.315	1079.1
3488.209	1051.1
3491.101	1018.1
3493.99	975.1
3496.878	907.1
3499.763	908.1
3502.646	851.1
3505.527	813.1
3508.405	785.1
3511.281	736.1
3514.155	693.1
3517.027	650.1
3519.897	612.1
3522.764	553.1
3525.629	515.1
3528.492	465.1
3531.352	445.1
3534.211	395.1
3537.067	356.1
3539.921	332.1
3542.773	284.1
3545.622	237.1
3548.469	222.1
3551.315	181.1
3554.157	160.1
3556.998	133.1
3559.837	104.1
3562.673	86.1
3565.507	47.1
3568.339	38.1
3571.169	21.1
3573.996	-11.9
3576.822	-20.9
3579.645	-41.9
3582.466	-71.9
3585.285	-96.9
3588.101	-116.9
3590.916	-136.9
3593.728	-158.9
3596.538	-168.9
3599.346	-185.9
3602.152	-206.9
3604.956	-225.9
3607.757	-237.9
3610.556	-258.9
3613.354	-270.9
3616.149	-283.9
3618.942	-301.9
3621.732	-317.9
3624.521	-334.9
3627.307	-325.9
3630.092	-345.9
3632.874	-357.9
3635.654	-372.9
3638.432	-378.9
3641.208	-391.9
3643.982	-394.9
3646.753	-402.9
3649.523	-411.9
3652.29	-429.9
3655.055	-425.9
3657.818	-447.9
3660.579	-453.9
3663.338	-470.9
3666.095	-470.9
3668.849	-483.9
3671.602	-488.9
3674.352	-502.9
3677.101	-506.9
3679.847	-509.9
3682.591	-517.9
3685.333	-529.9
3688.073	-533.9
3690.811	-538.9
3693.547	-543.9
3696.281	-555.9
3699.013	-559.9
3701.742	-562.9
3704.47	-569.9
3707.195	-572.9
3709.919	-574.9
3712.64	-574.9
3715.359	-576.9
3718.076	-584.9
3720.792	-584.9
3723.505	-589.9
3726.216	-594.9
3728.925	-599.9
3731.632	-604.9
3734.336	-606.9
3737.039	-609.9
3739.74	-609.9
3742.439	-617.9
3745.136	-618.9
3747.83	-622.9
3750.523	-625.9
3753.213	-630.9
3755.902	-626.9
3758.589	-627.9
3761.273	-627.9
3763.956	-634.9
3766.636	-630.9
3769.315	-636.9
3771.991	-630.9
3774.665	-635.9
3777.338	-639.9
3780.008	-639.9
3782.677	-640.9
3785.343	-638.9
3788.007	-646.9
3790.67	-646.9
3793.33	-651.9
3795.989	-642.9
3798.645	-641.9
3801.299	-645.9
3803.952	-657.9
3806.602	-664.9
3809.251	-660.9
3811.897	-659.9
3814.542	-660.9
3817.184	-658.9
3819.825	-657.9
3822.463	-650.9
3825.1	-663.9
3827.735	-652.9
3830.367	-655.9
3832.998	-665.9
3835.627	-663.9
3838.253	-667.9
3840.878	-665.9
3843.501	-667.9
3846.122	-661.9
3848.741	-665.9
3851.358	-665.9
3853.973	-668.9
3856.586	-668.9
3859.197	-672.9
3861.806	-670.9
3864.414	-670.9
3867.019	-661.9
3869.622	-666.9
3872.224	-662.9
3874.823	-645.9
3877.421	-627.9
3880.016	-608.9
3882.61	-584.9
3885.202	-586.9
3887.792	-598.9
3890.38	-634.9
3892.966	-655.9
3895.55	-669.9
3898.132	-687.9
3900.713	-684.9
3903.291	-680.9
3905.868	-683.9
3908.442	-682.9
3911.015	-684.9
3913.586	-679.9
3916.155	-677.9
3918.722	-687.9
3921.287	-684.9
3923.85	-684.9
3926.411	-683.9
3928.971	-688.9
3931.528	-680.9
3934.084	-680.9
3936.638	-680.9
3939.19	-683.9
3941.74	-683.9
3944.288	-690.9
3946.834	-682.9
3949.378	-688.9
3951.921	-684.9
3954.462	-692.9
3957	-685.9
3959.537	-687.9
3962.072	-685.9
3964.606	-681.9
3967.137	-686.9
3969.667	-683.9
3972.194	-676.9
3974.72	-683.9
3977.244	-673.9
3979.766	-676.9
3982.286	-673.9
3984.805	-674.9
3987.321	-667.9
3989.836	-672.9
3992.349	-670.9
3994.86	-666.9
3997.369	-680.9
3999.877	-672.9
4002.382	-668.9
4004.886	-669.9
4007.388	-663.9
4009.888	-670.9
4012.386	-672.9
4014.883	-674.9
4017.377	-667.9
4019.87	-667.9
4022.361	-665.9
4024.85	-667.9
4027.338	-670.9
4029.823	-674.9
4032.307	-676.9
4034.789	-666.9
4037.269	-668.9
4039.747	-677.9
4042.224	-676.9
4044.699	-666.9
4047.172	-672.9
4049.643	-671.9
4052.112	-674.9
4054.58	-676.9
4057.046	-678.9
4059.51	-676.9
4061.972	-676.9
4064.432	-678.9
4066.891	-672.9
4069.348	-677.9
4071.803	-671.9
4074.256	-669.9
4076.708	-672.9
4079.158	-677.9
4081.606	-670.9
4084.052	-670.9
4086.497	-675.9
4088.939	-669.9
4091.38	-673.9
4093.819	-668.9
4096.257	-710.9
4098.693	-709.9
4101.127	-714.9
4103.559	-707.9
4105.989	-416.9
4108.418	-380.9
4110.845	-367.9
4113.27	-328.9
4115.694	-288.9
4118.115	-242.9
4120.535	-665.9
4122.954	-675.9
4125.37	-664.9
4127.785	-673.9
4130.198	-675.9
4132.609	-676.9
4135.019	-711.9
4137.427	-715.9
4139.833	-713.9
4142.237	-708.9
