Data from 2018-2-14_conc=2_n=9_RamanShift_02.txt Node
Date: Wed Feb 14 11:29:56 IST 2018
User: aro
Spectrometer: QEPB0276
Trigger mode: 0
Integration Time (sec): 3.000000E1
Scans to average: 1
Electric dark correction enabled: true
Nonlinearity correction enabled: false
Boxcar width: 0
XAxis mode: Raman Shifts
Number of Pixels in Spectrum: 1044
>>>>>Begin Spectral Data<<<<<
160.701	-142.6
166.742	47.4
172.777	588.4
178.805	2268.4
184.826	6263.4
190.841	13058.4
196.849	21000.4
202.85	26607.4
208.845	28509.4
214.833	28191.4
220.815	27746.4
226.789	27466.4
232.758	27450.4
238.719	27295.4
244.674	26869.4
250.623	26490.4
256.565	25881.4
262.5	25335.4
268.429	24885.4
274.351	24530.4
280.267	24243.4
286.176	23991.4
292.079	23757.4
297.975	23542.4
303.865	23303.4
309.748	23137.4
315.625	22991.4
321.495	22918.4
327.359	22867.4
333.217	22833.4
339.068	22728.4
344.912	22753.4
350.751	22680.4
356.583	22681.4
362.408	22665.4
368.227	22649.4
374.04	22644.4
379.847	22803.4
385.647	22834.4
391.44	22882.4
397.228	23036.4
403.009	23085.4
408.784	23212.4
414.553	23235.4
420.315	23247.4
426.071	23343.4
431.821	23249.4
437.565	23281.4
443.302	23267.4
449.033	23241.4
454.758	23182.4
460.477	23116.4
466.189	23114.4
471.896	22947.4
477.596	22927.4
483.29	22823.4
488.978	22885.4
494.66	22800.4
500.335	22620.4
506.005	22415.4
511.668	22102.4
517.325	21824.4
522.977	21633.4
528.622	21498.4
534.261	21331.4
539.894	21235.4
545.521	21189.4
551.141	21089.4
556.756	21042.4
562.365	20952.4
567.968	20817.4
573.565	20745.4
579.155	20748.4
584.74	20625.4
590.319	20512.4
595.892	20448.4
601.459	20377.4
607.02	20292.4
612.575	20097.4
618.124	20070.4
623.667	19919.4
629.204	19840.4
634.735	19720.4
640.261	19625.4
645.781	19579.4
651.294	19498.4
656.802	19505.4
662.304	19482.4
667.8	19446.4
673.29	19461.4
678.775	19397.4
684.254	19307.4
689.726	19230.4
695.193	19179.4
700.655	19169.4
706.11	19035.4
711.56	18952.4
717.004	18830.4
722.442	18705.4
727.874	18649.4
733.301	18601.4
738.722	18550.4
744.137	18508.4
749.547	18504.4
754.951	18471.4
760.349	18466.4
765.741	18520.4
771.128	18509.4
776.509	18550.4
781.885	18552.4
787.254	18493.4
792.618	18400.4
797.977	18259.4
803.33	18172.4
808.677	18119.4
814.019	17926.4
819.355	17851.4
824.686	17796.4
830.011	17708.4
835.33	17780.4
840.644	17798.4
845.952	17790.4
851.255	17803.4
856.552	17866.4
861.844	17802.4
867.13	17711.4
872.41	17675.4
877.686	17584.4
882.955	17453.4
888.219	17353.4
893.478	17111.4
898.731	16925.4
903.979	16734.4
909.221	16662.4
914.458	16561.4
919.69	16563.4
924.916	16624.4
930.136	16674.4
935.351	16645.4
940.561	16674.4
945.766	16573.4
950.965	16537.4
956.158	16426.4
961.347	16293.4
966.529	16046.4
971.707	15818.4
976.879	15668.4
982.046	15546.4
987.208	15517.4
992.364	15504.4
997.515	15617.4
1002.66	15754.4
1007.801	15890.4
1012.936	15999.4
1018.066	16028.4
1023.19	16008.4
1028.309	16032.4
1033.423	15949.4
1038.532	15896.4
1043.636	15783.4
1048.734	15560.4
1053.827	15402.4
1058.915	15207.4
1063.998	15108.4
1069.075	15065.4
1074.147	15070.4
1079.214	15141.4
1084.276	15186.4
1089.333	15318.4
1094.385	15383.4
1099.431	15432.4
1104.472	15392.4
1109.509	15332.4
1114.54	15110.4
1119.565	14947.4
1124.586	14742.4
1129.602	14651.4
1134.613	14552.4
1139.618	14463.4
1144.619	14377.4
1149.614	14362.4
1154.604	14439.4
1159.589	14477.4
1164.57	14542.4
1169.545	14527.4
1174.515	14546.4
1179.48	14439.4
1184.44	14349.4
1189.395	14264.4
1194.345	14082.4
1199.29	14015.4
1204.23	14044.4
1209.165	14136.4
1214.095	14202.4
1219.021	14296.4
1223.941	14300.4
1228.856	14424.4
1233.766	14442.4
1238.672	14460.4
1243.572	14456.4
1248.467	14368.4
1253.358	14168.4
1258.244	14014.4
1263.124	13801.4
1268	13541.4
1272.871	13433.4
1277.737	13330.4
1282.599	13225.4
1287.455	13273.4
1292.306	13276.4
1297.153	13326.4
1301.995	13335.4
1306.832	13475.4
1311.664	13416.4
1316.491	13421.4
1321.314	13309.4
1326.132	13094.4
1330.945	12827.4
1335.753	12511.4
1340.556	12204.4
1345.354	11997.4
1350.148	11804.4
1354.937	11704.4
1359.722	11742.4
1364.501	11737.4
1369.276	11887.4
1374.046	11962.4
1378.811	12162.4
1383.572	12317.4
1388.327	12364.4
1393.079	12328.4
1397.825	12166.4
1402.567	12015.4
1407.304	11837.4
1412.036	11700.4
1416.764	11610.4
1421.487	11559.4
1426.205	11437.4
1430.919	11424.4
1435.628	11479.4
1440.333	11504.4
1445.032	11478.4
1449.727	11527.4
1454.418	11537.4
1459.104	11380.4
1463.785	11181.4
1468.462	10965.4
1473.134	10742.4
1477.802	10494.4
1482.465	10348.4
1487.123	10233.4
1491.777	10186.4
1496.426	10231.4
1501.071	10357.4
1505.711	10505.4
1510.347	10722.4
1514.978	10914.4
1519.604	11057.4
1524.226	11178.4
1528.844	11153.4
1533.457	11118.4
1538.065	11144.4
1542.669	11046.4
1547.269	10964.4
1551.864	10881.4
1556.454	10790.4
1561.041	10816.4
1565.622	10789.4
1570.199	10784.4
1574.772	10862.4
1579.34	10927.4
1583.904	10998.4
1588.464	10995.4
1593.019	10999.4
1597.569	10952.4
1602.115	10920.4
1606.657	10869.4
1611.195	10739.4
1615.728	10705.4
1620.256	10680.4
1624.78	10657.4
1629.3	10683.4
1633.816	10681.4
1638.327	10745.4
1642.834	10797.4
1647.336	10884.4
1651.834	10866.4
1656.328	10885.4
1660.817	10774.4
1665.302	10686.4
1669.783	10527.4
1674.259	10286.4
1678.732	9995.4
1683.199	9649.4
1687.663	9385.4
1692.122	9082.4
1696.577	8969.4
1701.028	8907.4
1705.474	8922.4
1709.917	9025.4
1714.355	9120.4
1718.788	9025.4
1723.218	8912.4
1727.643	8739.4
1732.064	8571.4
1736.481	8432.4
1740.893	8181.4
1745.301	7998.4
1749.705	7784.4
1754.105	7540.4
1758.501	7368.4
1762.893	7102.4
1767.28	6978.4
1771.663	6805.4
1776.042	6708.4
1780.417	6629.4
1784.787	6629.4
1789.154	6665.4
1793.516	6747.4
1797.874	6904.4
1802.228	7035.4
1806.578	7068.4
1810.924	7101.4
1815.266	7054.4
1819.603	6930.4
1823.937	6827.4
1828.266	6746.4
1832.591	6613.4
1836.913	6527.4
1841.23	6468.4
1845.543	6432.4
1849.852	6375.4
1854.156	6394.4
1858.457	6380.4
1862.754	6373.4
1867.047	6348.4
1871.335	6336.4
1875.62	6314.4
1879.9	6300.4
1884.177	6252.4
1888.449	6209.4
1892.718	6149.4
1896.982	6104.4
1901.243	6028.4
1905.499	6003.4
1909.752	5962.4
1914	5955.4
1918.245	5987.4
1922.485	6014.4
1926.722	6079.4
1930.954	6141.4
1935.183	6200.4
1939.408	6253.4
1943.628	6305.4
1947.845	6328.4
1952.058	6317.4
1956.267	6274.4
1960.472	6183.4
1964.673	6078.4
1968.87	6039.4
1973.063	5879.4
1977.252	5812.4
1981.438	5739.4
1985.619	5686.4
1989.797	5684.4
1993.971	5613.4
1998.14	5610.4
2002.306	5600.4
2006.469	5555.4
2010.627	5522.4
2014.781	5496.4
2018.932	5437.4
2023.078	5401.4
2027.221	5282.4
2031.36	5241.4
2035.495	5160.4
2039.627	5085.4
2043.754	5019.4
2047.878	4973.4
2051.998	4939.4
2056.114	4930.4
2060.226	4938.4
2064.334	4917.4
2068.439	4938.4
2072.54	4992.4
2076.637	5007.4
2080.73	5040.4
2084.82	5089.4
2088.906	5043.4
2092.988	5047.4
2097.066	5050.4
2101.14	5014.4
2105.211	4991.4
2109.278	4973.4
2113.342	4926.4
2117.401	4908.4
2121.457	4886.4
2125.509	4845.4
2129.558	4811.4
2133.602	4805.4
2137.643	4760.4
2141.681	4750.4
2145.714	4759.4
2149.744	4688.4
2153.77	4668.4
2157.793	4610.4
2161.812	4538.4
2165.827	4518.4
2169.838	4422.4
2173.846	4341.4
2177.851	4282.4
2181.851	4192.4
2185.848	4183.4
2189.841	4117.4
2193.831	4075.4
2197.817	4031.4
2201.799	4037.4
2205.778	4016.4
2209.753	3999.4
2213.725	3979.4
2217.693	3976.4
2221.657	3949.4
2225.618	3950.4
2229.575	3917.4
2233.529	3909.4
2237.479	3872.4
2241.425	3815.4
2245.368	3735.4
2249.307	3698.4
2253.243	3641.4
2257.175	3593.4
2261.104	3519.4
2265.029	3504.4
2268.95	3471.4
2272.868	3443.4
2276.783	3409.4
2280.694	3377.4
2284.601	3357.4
2288.505	3304.4
2292.405	3286.4
2296.302	3227.4
2300.195	3200.4
2304.085	3159.4
2307.971	3114.4
2311.854	3082.4
2315.734	3017.4
2319.609	2980.4
2323.482	2917.4
2327.351	2913.4
2331.216	2894.4
2335.078	2881.4
2338.937	2843.4
2342.792	2847.4
2346.643	2824.4
2350.492	2835.4
2354.336	2835.4
2358.178	2843.4
2362.015	2853.4
2365.85	2866.4
2369.681	2859.4
2373.508	2866.4
2377.333	2843.4
2381.153	2816.4
2384.971	2802.4
2388.785	2784.4
2392.595	2792.4
2396.402	2736.4
2400.206	2723.4
2404.007	2728.4
2407.804	2688.4
2411.597	2692.4
2415.388	2670.4
2419.174	2658.4
2422.958	2615.4
2426.738	2605.4
2430.515	2594.4
2434.289	2547.4
2438.059	2546.4
2441.825	2511.4
2445.589	2511.4
2449.349	2460.4
2453.106	2430.4
2456.859	2411.4
2460.61	2388.4
2464.356	2346.4
2468.1	2328.4
2471.84	2299.4
2475.577	2271.4
2479.311	2274.4
2483.041	2248.4
2486.768	2241.4
2490.492	2243.4
2494.213	2239.4
2497.93	2229.4
2501.644	2202.4
2505.355	2205.4
2509.062	2180.4
2512.766	2181.4
2516.467	2184.4
2520.165	2144.4
2523.859	2131.4
2527.551	2131.4
2531.239	2124.4
2534.923	2096.4
2538.605	2079.4
2542.283	2061.4
2545.958	2085.4
2549.63	2071.4
2553.299	2083.4
2556.964	2070.4
2560.626	2056.4
2564.285	2069.4
2567.941	2040.4
2571.594	2030.4
2575.243	2019.4
2578.89	2015.4
2582.533	1994.4
2586.173	1983.4
2589.809	1958.4
2593.443	1949.4
2597.073	1898.4
2600.701	1888.4
2604.325	1885.4
2607.946	1902.4
2611.564	1851.4
2615.178	1837.4
2618.79	1847.4
2622.398	1839.4
2626.004	1812.4
2629.606	1793.4
2633.205	1759.4
2636.801	1735.4
2640.394	1705.4
2643.983	1693.4
2647.57	1666.4
2651.153	1634.4
2654.734	1611.4
2658.311	1589.4
2661.885	1563.4
2665.456	1541.4
2669.025	1540.4
2672.589	1508.4
2676.151	1494.4
2679.71	1469.4
2683.266	1463.4
2686.819	1444.4
2690.368	1391.4
2693.915	1373.4
2697.458	1333.4
2700.999	1296.4
2704.536	1287.4
2708.071	1266.4
2711.602	1245.4
2715.13	1206.4
2718.656	1192.4
2722.178	1181.4
2725.697	1119.4
2729.214	1137.4
2732.727	1122.4
2736.237	1109.4
2739.744	1114.4
2743.249	1119.4
2746.75	1133.4
2750.248	1140.4
2753.743	1127.4
2757.236	1145.4
2760.725	1142.4
2764.211	1159.4
2767.695	1180.4
2771.175	1164.4
2774.652	1154.4
2778.127	1161.4
2781.598	1156.4
2785.067	1139.4
2788.532	1138.4
2791.995	1132.4
2795.455	1128.4
2798.911	1146.4
2802.365	1133.4
2805.816	1135.4
2809.264	1128.4
2812.709	1133.4
2816.151	1137.4
2819.59	1142.4
2823.026	1140.4
2826.46	1140.4
2829.89	1147.4
2833.318	1150.4
2836.742	1161.4
2840.164	1155.4
2843.583	1156.4
2846.999	1178.4
2850.412	1178.4
2853.822	1199.4
2857.229	1217.4
2860.634	1235.4
2864.035	1257.4
2867.434	1247.4
2870.83	1288.4
2874.223	1299.4
2877.613	1345.4
2881	1358.4
2884.385	1361.4
2887.766	1350.4
2891.145	1345.4
2894.521	1348.4
2897.894	1344.4
2901.264	1339.4
2904.631	1347.4
2907.996	1338.4
2911.358	1343.4
2914.717	1344.4
2918.073	1361.4
2921.426	1363.4
2924.777	1389.4
2928.124	1407.4
2931.469	1444.4
2934.811	1467.4
2938.15	1489.4
2941.487	1500.4
2944.821	1521.4
2948.152	1484.4
2951.48	1502.4
2954.805	1473.4
2958.128	1431.4
2961.447	1451.4
2964.765	1450.4
2968.079	1462.4
2971.39	1447.4
2974.699	1480.4
2978.005	1513.4
2981.308	1514.4
2984.609	1544.4
2987.907	1572.4
2991.202	1615.4
2994.494	1663.4
2997.784	1677.4
3001.07	1688.4
3004.355	1724.4
3007.636	1762.4
3010.915	1772.4
3014.191	1774.4
3017.464	1809.4
3020.734	1810.4
3024.002	1823.4
3027.267	1828.4
3030.53	1840.4
3033.789	1864.4
3037.046	1897.4
3040.301	1931.4
3043.552	1956.4
3046.801	1963.4
3050.048	2010.4
3053.291	2078.4
3056.532	2132.4
3059.771	2211.4
3063.006	2256.4
3066.239	2332.4
3069.469	2396.4
3072.697	2465.4
3075.922	2506.4
3079.144	2554.4
3082.364	2630.4
3085.581	2685.4
3088.795	2743.4
3092.007	2826.4
3095.216	2874.4
3098.423	2925.4
3101.627	2987.4
3104.828	3055.4
3108.026	3104.4
3111.222	3171.4
3114.416	3268.4
3117.607	3324.4
3120.795	3389.4
3123.98	3486.4
3127.163	3558.4
3130.344	3652.4
3133.521	3716.4
3136.696	3824.4
3139.869	3887.4
3143.039	3949.4
3146.206	4004.4
3149.371	4060.4
3152.533	4103.4
3155.693	4118.4
3158.85	4130.4
3162.005	4186.4
3165.157	4179.4
3168.306	4183.4
3171.453	4183.4
3174.597	4223.4
3177.739	4224.4
3180.878	4217.4
3184.014	4239.4
3187.149	4229.4
3190.28	4260.4
3193.409	4245.4
3196.536	4225.4
3199.659	4247.4
3202.781	4294.4
3205.9	4224.4
3209.016	4259.4
3212.13	4209.4
3215.241	4205.4
3218.35	4173.4
3221.456	4136.4
3224.56	4095.4
3227.661	4054.4
3230.76	4006.4
3233.856	3976.4
3236.95	3947.4
3240.041	3921.4
3243.13	3892.4
3246.216	3874.4
3249.3	3845.4
3252.382	3828.4
3255.46	3792.4
3258.537	3835.4
3261.611	3817.4
3264.682	3807.4
3267.751	3798.4
3270.818	3790.4
3273.882	3771.4
3276.943	3744.4
3280.002	3729.4
3283.059	3704.4
3286.113	3637.4
3289.165	3595.4
3292.214	3503.4
3295.261	3465.4
3298.306	3430.4
3301.348	3372.4
3304.387	3323.4
3307.425	3290.4
3310.459	3223.4
3313.492	3143.4
3316.521	3112.4
3319.549	3113.4
3322.574	3059.4
3325.597	3051.4
3328.617	3004.4
3331.635	3000.4
3334.65	2957.4
3337.663	2963.4
3340.674	2909.4
3343.682	2909.4
3346.688	2924.4
3349.691	2892.4
3352.692	2865.4
3355.691	2860.4
3358.687	2828.4
3361.681	2798.4
3364.673	2752.4
3367.662	2720.4
3370.649	2691.4
3373.633	2638.4
3376.615	2615.4
3379.595	2574.4
3382.572	2523.4
3385.547	2506.4
3388.52	2456.4
3391.49	2424.4
3394.458	2385.4
3397.424	2372.4
3400.387	2338.4
3403.348	2282.4
3406.307	2285.4
3409.263	2270.4
3412.217	2215.4
3415.168	2200.4
3418.118	2182.4
3421.065	2138.4
3424.009	2130.4
3426.951	2080.4
3429.891	2043.4
3432.829	1999.4
3435.764	1958.4
3438.697	1908.4
3441.628	1860.4
3444.557	1812.4
3447.483	1754.4
3450.407	1675.4
3453.328	1647.4
3456.247	1587.4
3459.164	1540.4
3462.079	1457.4
3464.991	1431.4
3467.902	1368.4
3470.809	1309.4
3473.715	1277.4
3476.618	1221.4
3479.519	1207.4
3482.418	1163.4
3485.315	1123.4
3488.209	1085.4
3491.101	1047.4
3493.99	1010.4
3496.878	974.4
3499.763	933.4
3502.646	899.4
3505.527	865.4
3508.405	830.4
3511.281	773.4
3514.155	738.4
3517.027	692.4
3519.897	655.4
3522.764	590.4
3525.629	566.4
3528.492	518.4
3531.352	476.4
3534.211	433.4
3537.067	397.4
3539.921	339.4
3542.773	327.4
3545.622	281.4
3548.469	253.4
3551.315	228.4
3554.157	199.4
3556.998	171.4
3559.837	136.4
3562.673	108.4
3565.507	89.4
3568.339	64.4
3571.169	58.4
3573.996	40.4
3576.822	5.4
3579.645	-10.6
3582.466	-40.6
3585.285	-62.6
3588.101	-87.6
3590.916	-101.6
3593.728	-123.6
3596.538	-135.6
3599.346	-165.6
3602.152	-183.6
3604.956	-192.6
3607.757	-215.6
3610.556	-226.6
3613.354	-245.6
3616.149	-262.6
3618.942	-269.6
3621.732	-282.6
3624.521	-295.6
3627.307	-311.6
3630.092	-317.6
3632.874	-321.6
3635.654	-344.6
3638.432	-339.6
3641.208	-359.6
3643.982	-373.6
3646.753	-371.6
3649.523	-385.6
3652.29	-393.6
3655.055	-402.6
3657.818	-428.6
3660.579	-431.6
3663.338	-444.6
3666.095	-456.6
3668.849	-460.6
3671.602	-464.6
3674.352	-472.6
3677.101	-479.6
3679.847	-492.6
3682.591	-495.6
3685.333	-509.6
3688.073	-507.6
3690.811	-517.6
3693.547	-520.6
3696.281	-525.6
3699.013	-530.6
3701.742	-539.6
3704.47	-548.6
3707.195	-552.6
3709.919	-548.6
3712.64	-562.6
3715.359	-557.6
3718.076	-566.6
3720.792	-566.6
3723.505	-569.6
3726.216	-576.6
3728.925	-571.6
3731.632	-577.6
3734.336	-579.6
3737.039	-581.6
3739.74	-583.6
3742.439	-592.6
3745.136	-592.6
3747.83	-595.6
3750.523	-595.6
3753.213	-579.6
3755.902	-602.6
3758.589	-605.6
3761.273	-610.6
3763.956	-609.6
3766.636	-612.6
3769.315	-615.6
3771.991	-619.6
3774.665	-623.6
3777.338	-616.6
3780.008	-615.6
3782.677	-619.6
3785.343	-619.6
3788.007	-618.6
3790.67	-619.6
3793.33	-624.6
3795.989	-627.6
3798.645	-623.6
3801.299	-631.6
3803.952	-634.6
3806.602	-642.6
3809.251	-637.6
3811.897	-629.6
3814.542	-642.6
3817.184	-634.6
3819.825	-632.6
3822.463	-627.6
3825.1	-631.6
3827.735	-631.6
3830.367	-634.6
3832.998	-644.6
3835.627	-648.6
3838.253	-644.6
3840.878	-647.6
3843.501	-646.6
3846.122	-640.6
3848.741	-642.6
3851.358	-644.6
3853.973	-652.6
3856.586	-648.6
3859.197	-649.6
3861.806	-649.6
3864.414	-643.6
3867.019	-645.6
3869.622	-646.6
3872.224	-641.6
3874.823	-624.6
3877.421	-610.6
3880.016	-606.6
3882.61	-580.6
3885.202	-579.6
3887.792	-585.6
3890.38	-619.6
3892.966	-644.6
3895.55	-650.6
3898.132	-662.6
3900.713	-662.6
3903.291	-661.6
3905.868	-662.6
3908.442	-661.6
3911.015	-661.6
3913.586	-650.6
3916.155	-656.6
3918.722	-666.6
3921.287	-663.6
3923.85	-661.6
3926.411	-662.6
3928.971	-668.6
3931.528	-667.6
3934.084	-661.6
3936.638	-663.6
3939.19	-669.6
3941.74	-663.6
3944.288	-665.6
3946.834	-659.6
3949.378	-666.6
3951.921	-667.6
3954.462	-668.6
3957	-659.6
3959.537	-665.6
3962.072	-658.6
3964.606	-663.6
3967.137	-665.6
3969.667	-668.6
3972.194	-654.6
3974.72	-660.6
3977.244	-656.6
3979.766	-651.6
3982.286	-655.6
3984.805	-654.6
3987.321	-656.6
3989.836	-653.6
3992.349	-650.6
3994.86	-649.6
3997.369	-662.6
3999.877	-647.6
4002.382	-646.6
4004.886	-652.6
4007.388	-644.6
4009.888	-651.6
4012.386	-650.6
4014.883	-646.6
4017.377	-649.6
4019.87	-650.6
4022.361	-651.6
4024.85	-650.6
4027.338	-654.6
4029.823	-658.6
4032.307	-652.6
4034.789	-645.6
4037.269	-649.6
4039.747	-651.6
4042.224	-660.6
4044.699	-653.6
4047.172	-650.6
4049.643	-656.6
4052.112	-660.6
4054.58	-659.6
4057.046	-655.6
4059.51	-658.6
4061.972	-654.6
4064.432	-660.6
4066.891	-660.6
4069.348	-651.6
4071.803	-648.6
4074.256	-661.6
4076.708	-652.6
4079.158	-654.6
4081.606	-655.6
4084.052	-662.6
4086.497	-658.6
4088.939	-651.6
4091.38	-649.6
4093.819	-650.6
4096.257	-688.6
4098.693	-688.6
4101.127	-688.6
4103.559	-691.6
4105.989	-393.6
4108.418	-368.6
4110.845	-364.6
4113.27	-329.6
4115.694	-279.6
4118.115	-243.6
4120.535	-647.6
4122.954	-649.6
4125.37	-641.6
4127.785	-656.6
4130.198	-654.6
4132.609	-659.6
4135.019	-691.6
4137.427	-691.6
4139.833	-690.6
4142.237	-687.6
