Data from 2018-2-14_conc=3_n=2_RamanShift_02.txt Node
Date: Wed Feb 14 11:45:56 IST 2018
User: aro
Spectrometer: QEPB0276
Trigger mode: 0
Integration Time (sec): 3.000000E1
Scans to average: 1
Electric dark correction enabled: true
Nonlinearity correction enabled: false
Boxcar width: 0
XAxis mode: Raman Shifts
Number of Pixels in Spectrum: 1044
>>>>>Begin Spectral Data<<<<<
160.701	-142
166.742	37
172.777	583
178.805	2250
184.826	6226
190.841	13030
196.849	20925
202.85	26421
208.845	28373
214.833	28071
220.815	27520
226.789	27222
232.758	27196
238.719	27024
244.674	26572
250.623	26145
256.565	25554
262.5	25044
268.429	24570
274.351	24200
280.267	23852
286.176	23607
292.079	23352
297.975	23116
303.865	22898
309.748	22778
315.625	22628
321.495	22495
327.359	22432
333.217	22318
339.068	22335
344.912	22257
350.751	22257
356.583	22259
362.408	22232
368.227	22198
374.04	22190
379.847	22292
385.647	22388
391.44	22457
397.228	22603
403.009	22630
408.784	22681
414.553	22740
420.315	22817
426.071	22832
431.821	22848
437.565	22780
443.302	22790
449.033	22753
454.758	22674
460.477	22672
466.189	22623
471.896	22558
477.596	22472
483.29	22454
488.978	22423
494.66	22326
500.335	22225
506.005	22013
511.668	21706
517.325	21474
522.977	21280
528.622	21112
534.261	20896
539.894	20835
545.521	20769
551.141	20662
556.756	20638
562.365	20552
567.968	20484
573.565	20292
579.155	20301
584.74	20207
590.319	20137
595.892	20010
601.459	19968
607.02	19927
612.575	19729
618.124	19633
623.667	19483
629.204	19400
634.735	19341
640.261	19274
645.781	19156
651.294	19117
656.802	19134
662.304	19138
667.8	19035
673.29	19007
678.775	18920
684.254	18894
689.726	18863
695.193	18848
700.655	18719
706.11	18575
711.56	18528
717.004	18386
722.442	18307
727.874	18274
733.301	18205
738.722	18162
744.137	18118
749.547	18103
754.951	18080
760.349	18128
765.741	18090
771.128	18148
776.509	18153
781.885	18157
787.254	18045
792.618	18024
797.977	17921
803.33	17804
808.677	17704
814.019	17616
819.355	17479
824.686	17400
830.011	17354
835.33	17390
840.644	17400
845.952	17410
851.255	17403
856.552	17422
861.844	17464
867.13	17369
872.41	17294
877.686	17258
882.955	17104
888.219	16869
893.478	16736
898.731	16602
903.979	16310
909.221	16260
914.458	16159
919.69	16208
924.916	16231
930.136	16294
935.351	16312
940.561	16284
945.766	16219
950.965	16173
956.158	16019
961.347	15884
966.529	15745
971.707	15465
976.879	15284
982.046	15103
987.208	15147
992.364	15105
997.515	15208
1002.66	15309
1007.801	15483
1012.936	15649
1018.066	15615
1023.19	15636
1028.309	15637
1033.423	15556
1038.532	15465
1043.636	15374
1048.734	15204
1053.827	14989
1058.915	14853
1063.998	14704
1069.075	14685
1074.147	14712
1079.214	14719
1084.276	14813
1089.333	14906
1094.385	14969
1099.431	15042
1104.472	15005
1109.509	14896
1114.54	14780
1119.565	14554
1124.586	14340
1129.602	14208
1134.613	14168
1139.618	14050
1144.619	13972
1149.614	14022
1154.604	14008
1159.589	14062
1164.57	14085
1169.545	14137
1174.515	14151
1179.48	14060
1184.44	13980
1189.395	13841
1194.345	13788
1199.29	13689
1204.23	13632
1209.165	13707
1214.095	13803
1219.021	13907
1223.941	13896
1228.856	13991
1233.766	14042
1238.672	14116
1243.572	14061
1248.467	13952
1253.358	13789
1258.244	13627
1263.124	13351
1268	13163
1272.871	13002
1277.737	12962
1282.599	12845
1287.455	12873
1292.306	12911
1297.153	12892
1301.995	13001
1306.832	13005
1311.664	13042
1316.491	12993
1321.314	12909
1326.132	12679
1330.945	12446
1335.753	12140
1340.556	11820
1345.354	11579
1350.148	11392
1354.937	11343
1359.722	11311
1364.501	11393
1369.276	11524
1374.046	11605
1378.811	11819
1383.572	12000
1388.327	12018
1393.079	11948
1397.825	11795
1402.567	11636
1407.304	11432
1412.036	11365
1416.764	11251
1421.487	11187
1426.205	11146
1430.919	11087
1435.628	11122
1440.333	11065
1445.032	11121
1449.727	11155
1454.418	11104
1459.104	11015
1463.785	10870
1468.462	10594
1473.134	10403
1477.802	10176
1482.465	10035
1487.123	9913
1491.777	9925
1496.426	9938
1501.071	10039
1505.711	10202
1510.347	10392
1514.978	10622
1519.604	10745
1524.226	10897
1528.844	10834
1533.457	10862
1538.065	10784
1542.669	10693
1547.269	10628
1551.864	10546
1556.454	10481
1561.041	10483
1565.622	10449
1570.199	10493
1574.772	10529
1579.34	10610
1583.904	10637
1588.464	10725
1593.019	10653
1597.569	10674
1602.115	10601
1606.657	10543
1611.195	10454
1615.728	10434
1620.256	10355
1624.78	10368
1629.3	10329
1633.816	10385
1638.327	10419
1642.834	10481
1647.336	10542
1651.834	10603
1656.328	10567
1660.817	10503
1665.302	10437
1669.783	10242
1674.259	10010
1678.732	9725
1683.199	9416
1687.663	9076
1692.122	8833
1696.577	8710
1701.028	8714
1705.474	8783
1709.917	8842
1714.355	8879
1718.788	8796
1723.218	8669
1727.643	8493
1732.064	8357
1736.481	8139
1740.893	7944
1745.301	7732
1749.705	7529
1754.105	7318
1758.501	7094
1762.893	6887
1767.28	6750
1771.663	6563
1776.042	6504
1780.417	6438
1784.787	6445
1789.154	6499
1793.516	6655
1797.874	6767
1802.228	6856
1806.578	6961
1810.924	6960
1815.266	6899
1819.603	6772
1823.937	6674
1828.266	6524
1832.591	6464
1836.913	6381
1841.23	6295
1845.543	6228
1849.852	6207
1854.156	6173
1858.457	6175
1862.754	6160
1867.047	6140
1871.335	6152
1875.62	6140
1879.9	6130
1884.177	6062
1888.449	6022
1892.718	5982
1896.982	5910
1901.243	5897
1905.499	5828
1909.752	5805
1914	5835
1918.245	5823
1922.485	5889
1926.722	5939
1930.954	6003
1935.183	6100
1939.408	6155
1943.628	6192
1947.845	6244
1952.058	6164
1956.267	6137
1960.472	6054
1964.673	5953
1968.87	5868
1973.063	5787
1977.252	5683
1981.438	5619
1985.619	5577
1989.797	5531
1993.971	5497
1998.14	5467
2002.306	5412
2006.469	5423
2010.627	5376
2014.781	5345
2018.932	5284
2023.078	5231
2027.221	5178
2031.36	5090
2035.495	5000
2039.627	4954
2043.754	4894
2047.878	4834
2051.998	4795
2056.114	4830
2060.226	4779
2064.334	4814
2068.439	4883
2072.54	4846
2076.637	4876
2080.73	4925
2084.82	4930
2088.906	4940
2092.988	4995
2097.066	4960
2101.14	4921
2105.211	4874
2109.278	4874
2113.342	4790
2117.401	4813
2121.457	4757
2125.509	4781
2129.558	4689
2133.602	4692
2137.643	4653
2141.681	4620
2145.714	4607
2149.744	4565
2153.77	4556
2157.793	4492
2161.812	4451
2165.827	4368
2169.838	4307
2173.846	4231
2177.851	4170
2181.851	4096
2185.848	4038
2189.841	3987
2193.831	3939
2197.817	3921
2201.799	3891
2205.778	3870
2209.753	3870
2213.725	3839
2217.693	3833
2221.657	3804
2225.618	3825
2229.575	3803
2233.529	3767
2237.479	3708
2241.425	3697
2245.368	3635
2249.307	3567
2253.243	3544
2257.175	3447
2261.104	3423
2265.029	3414
2268.95	3389
2272.868	3301
2276.783	3293
2280.694	3258
2284.601	3235
2288.505	3177
2292.405	3156
2296.302	3124
2300.195	3069
2304.085	3056
2307.971	3002
2311.854	2975
2315.734	2903
2319.609	2897
2323.482	2832
2327.351	2799
2331.216	2794
2335.078	2792
2338.937	2750
2342.792	2732
2346.643	2724
2350.492	2744
2354.336	2743
2358.178	2742
2362.015	2725
2365.85	2763
2369.681	2727
2373.508	2733
2377.333	2729
2381.153	2716
2384.971	2704
2388.785	2677
2392.595	2661
2396.402	2632
2400.206	2608
2404.007	2570
2407.804	2578
2411.597	2584
2415.388	2540
2419.174	2518
2422.958	2491
2426.738	2478
2430.515	2467
2434.289	2443
2438.059	2442
2441.825	2404
2445.589	2364
2449.349	2357
2453.106	2332
2456.859	2310
2460.61	2275
2464.356	2257
2468.1	2211
2471.84	2167
2475.577	2170
2479.311	2167
2483.041	2145
2486.768	2139
2490.492	2131
2494.213	2156
2497.93	2095
2501.644	2100
2505.355	2113
2509.062	2108
2512.766	2080
2516.467	2053
2520.165	2056
2523.859	2045
2527.551	2023
2531.239	2031
2534.923	2011
2538.605	1992
2542.283	1997
2545.958	1982
2549.63	1990
2553.299	1987
2556.964	1987
2560.626	1963
2564.285	1964
2567.941	1967
2571.594	1938
2575.243	1928
2578.89	1911
2582.533	1909
2586.173	1891
2589.809	1861
2593.443	1858
2597.073	1825
2600.701	1814
2604.325	1791
2607.946	1813
2611.564	1764
2615.178	1776
2618.79	1739
2622.398	1742
2626.004	1736
2629.606	1709
2633.205	1686
2636.801	1640
2640.394	1645
2643.983	1620
2647.57	1586
2651.153	1559
2654.734	1528
2658.311	1513
2661.885	1497
2665.456	1473
2669.025	1457
2672.589	1438
2676.151	1428
2679.71	1406
2683.266	1377
2686.819	1355
2690.368	1328
2693.915	1282
2697.458	1262
2700.999	1222
2704.536	1206
2708.071	1172
2711.602	1157
2715.13	1135
2718.656	1112
2722.178	1108
2725.697	1080
2729.214	1058
2732.727	1077
2736.237	1073
2739.744	1046
2743.249	1076
2746.75	1082
2750.248	1081
2753.743	1096
2757.236	1103
2760.725	1116
2764.211	1119
2767.695	1129
2771.175	1122
2774.652	1096
2778.127	1108
2781.598	1100
2785.067	1094
2788.532	1107
2791.995	1078
2795.455	1092
2798.911	1068
2802.365	1086
2805.816	1087
2809.264	1070
2812.709	1099
2816.151	1090
2819.59	1100
2823.026	1072
2826.46	1082
2829.89	1102
2833.318	1094
2836.742	1083
2840.164	1103
2843.583	1093
2846.999	1124
2850.412	1135
2853.822	1146
2857.229	1163
2860.634	1197
2864.035	1214
2867.434	1231
2870.83	1242
2874.223	1264
2877.613	1273
2881	1289
2884.385	1305
2887.766	1280
2891.145	1296
2894.521	1310
2897.894	1299
2901.264	1302
2904.631	1283
2907.996	1298
2911.358	1318
2914.717	1310
2918.073	1323
2921.426	1345
2924.777	1359
2928.124	1369
2931.469	1391
2934.811	1412
2938.15	1439
2941.487	1457
2944.821	1479
2948.152	1472
2951.48	1470
2954.805	1440
2958.128	1429
2961.447	1419
2964.765	1401
2968.079	1411
2971.39	1430
2974.699	1447
2978.005	1485
2981.308	1506
2984.609	1524
2987.907	1548
2991.202	1590
2994.494	1640
2997.784	1681
3001.07	1687
3004.355	1702
3007.636	1742
3010.915	1753
3014.191	1779
3017.464	1778
3020.734	1807
3024.002	1791
3027.267	1818
3030.53	1830
3033.789	1857
3037.046	1877
3040.301	1886
3043.552	1937
3046.801	1977
3050.048	2016
3053.291	2050
3056.532	2131
3059.771	2179
3063.006	2238
3066.239	2318
3069.469	2384
3072.697	2441
3075.922	2515
3079.144	2555
3082.364	2629
3085.581	2713
3088.795	2744
3092.007	2793
3095.216	2867
3098.423	2923
3101.627	2997
3104.828	3042
3108.026	3116
3111.222	3173
3114.416	3283
3117.607	3323
3120.795	3392
3123.98	3490
3127.163	3575
3130.344	3664
3133.521	3730
3136.696	3810
3139.869	3906
3143.039	3978
3146.206	4010
3149.371	4072
3152.533	4108
3155.693	4148
3158.85	4159
3162.005	4196
3165.157	4221
3168.306	4204
3171.453	4195
3174.597	4237
3177.739	4236
3180.878	4203
3184.014	4234
3187.149	4244
3190.28	4237
3193.409	4235
3196.536	4276
3199.659	4269
3202.781	4278
3205.9	4283
3209.016	4244
3212.13	4268
3215.241	4219
3218.35	4165
3221.456	4134
3224.56	4092
3227.661	4035
3230.76	3994
3233.856	3999
3236.95	3919
3240.041	3881
3243.13	3849
3246.216	3808
3249.3	3819
3252.382	3797
3255.46	3818
3258.537	3766
3261.611	3783
3264.682	3763
3267.751	3784
3270.818	3770
3273.882	3762
3276.943	3708
3280.002	3718
3283.059	3672
3286.113	3616
3289.165	3572
3292.214	3537
3295.261	3473
3298.306	3415
3301.348	3348
3304.387	3303
3307.425	3254
3310.459	3190
3313.492	3167
3316.521	3096
3319.549	3080
3322.574	3056
3325.597	3021
3328.617	2982
3331.635	2972
3334.65	2939
3337.663	2941
3340.674	2924
3343.682	2905
3346.688	2901
3349.691	2891
3352.692	2879
3355.691	2834
3358.687	2837
3361.681	2788
3364.673	2765
3367.662	2716
3370.649	2681
3373.633	2642
3376.615	2602
3379.595	2539
3382.572	2529
3385.547	2492
3388.52	2439
3391.49	2419
3394.458	2374
3397.424	2334
3400.387	2343
3403.348	2277
3406.307	2272
3409.263	2234
3412.217	2203
3415.168	2184
3418.118	2153
3421.065	2154
3424.009	2122
3426.951	2066
3429.891	2018
3432.829	1976
3435.764	1940
3438.697	1886
3441.628	1846
3444.557	1777
3447.483	1735
3450.407	1684
3453.328	1613
3456.247	1572
3459.164	1530
3462.079	1466
3464.991	1410
3467.902	1373
3470.809	1329
3473.715	1259
3476.618	1216
3479.519	1182
3482.418	1142
3485.315	1088
3488.209	1061
3491.101	1033
3493.99	986
3496.878	958
3499.763	913
3502.646	895
3505.527	824
3508.405	792
3511.281	760
3514.155	743
3517.027	670
3519.897	629
3522.764	602
3525.629	559
3528.492	500
3531.352	459
3534.211	418
3537.067	386
3539.921	339
3542.773	302
3545.622	270
3548.469	244
3551.315	213
3554.157	185
3556.998	146
3559.837	131
3562.673	109
3565.507	83
3568.339	61
3571.169	35
3573.996	25
3576.822	-11
3579.645	-34
3582.466	-49
3585.285	-68
3588.101	-86
3590.916	-111
3593.728	-134
3596.538	-147
3599.346	-167
3602.152	-190
3604.956	-205
3607.757	-218
3610.556	-238
3613.354	-247
3616.149	-264
3618.942	-269
3621.732	-280
3624.521	-293
3627.307	-310
3630.092	-316
3632.874	-330
3635.654	-342
3638.432	-351
3641.208	-349
3643.982	-373
3646.753	-376
3649.523	-398
3652.29	-403
3655.055	-406
3657.818	-423
3660.579	-425
3663.338	-445
3666.095	-444
3668.849	-458
3671.602	-456
3674.352	-470
3677.101	-475
3679.847	-495
3682.591	-490
3685.333	-505
3688.073	-500
3690.811	-515
3693.547	-519
3696.281	-522
3699.013	-531
3701.742	-537
3704.47	-534
3707.195	-546
3709.919	-544
3712.64	-550
3715.359	-553
3718.076	-558
3720.792	-562
3723.505	-558
3726.216	-578
3728.925	-569
3731.632	-580
3734.336	-573
3737.039	-579
3739.74	-579
3742.439	-578
3745.136	-582
3747.83	-591
3750.523	-589
3753.213	-564
3755.902	-601
3758.589	-598
3761.273	-598
3763.956	-600
3766.636	-608
3769.315	-611
3771.991	-605
3774.665	-609
3777.338	-610
3780.008	-610
3782.677	-616
3785.343	-612
3788.007	-611
3790.67	-615
3793.33	-619
3795.989	-618
3798.645	-617
3801.299	-623
3803.952	-628
3806.602	-631
3809.251	-637
3811.897	-629
3814.542	-638
3817.184	-631
3819.825	-631
3822.463	-624
3825.1	-632
3827.735	-628
3830.367	-629
3832.998	-636
3835.627	-637
3838.253	-639
3840.878	-644
3843.501	-636
3846.122	-633
3848.741	-633
3851.358	-633
3853.973	-638
3856.586	-638
3859.197	-647
3861.806	-651
3864.414	-644
3867.019	-636
3869.622	-643
3872.224	-638
3874.823	-624
3877.421	-601
3880.016	-587
3882.61	-570
3885.202	-569
3887.792	-586
3890.38	-611
3892.966	-626
3895.55	-640
3898.132	-656
3900.713	-651
3903.291	-645
3905.868	-654
3908.442	-658
3911.015	-657
3913.586	-651
3916.155	-654
3918.722	-660
3921.287	-656
3923.85	-660
3926.411	-657
3928.971	-664
3931.528	-658
3934.084	-660
3936.638	-656
3939.19	-656
3941.74	-654
3944.288	-663
3946.834	-655
3949.378	-657
3951.921	-658
3954.462	-660
3957	-657
3959.537	-658
3962.072	-657
3964.606	-663
3967.137	-657
3969.667	-660
3972.194	-655
3974.72	-658
3977.244	-642
3979.766	-650
3982.286	-645
3984.805	-641
3987.321	-643
3989.836	-645
3992.349	-634
3994.86	-638
3997.369	-650
3999.877	-641
4002.382	-643
4004.886	-643
4007.388	-638
4009.888	-641
4012.386	-648
4014.883	-646
4017.377	-643
4019.87	-638
4022.361	-640
4024.85	-648
4027.338	-642
4029.823	-650
4032.307	-644
4034.789	-642
4037.269	-639
4039.747	-642
4042.224	-652
4044.699	-643
4047.172	-640
4049.643	-645
4052.112	-650
4054.58	-649
4057.046	-649
4059.51	-648
4061.972	-656
4064.432	-648
4066.891	-644
4069.348	-644
4071.803	-645
4074.256	-647
4076.708	-642
4079.158	-648
4081.606	-649
4084.052	-646
4086.497	-650
4088.939	-641
4091.38	-640
4093.819	-642
4096.257	-678
4098.693	-682
4101.127	-683
4103.559	-678
4105.989	-391
4108.418	-369
4110.845	-346
4113.27	-315
4115.694	-283
4118.115	-235
4120.535	-643
4122.954	-644
4125.37	-633
4127.785	-643
4130.198	-646
4132.609	-650
4135.019	-683
4137.427	-683
4139.833	-682
4142.237	-680
