Data from 2018-2-14_conc=6_n=4_RamanShift_04.txt Node
Date: Wed Feb 14 14:54:25 IST 2018
User: aro
Spectrometer: QEPB0276
Trigger mode: 0
Integration Time (sec): 3.000000E1
Scans to average: 1
Electric dark correction enabled: true
Nonlinearity correction enabled: false
Boxcar width: 0
XAxis mode: Raman Shifts
Number of Pixels in Spectrum: 1044
>>>>>Begin Spectral Data<<<<<
160.701	-129.9
166.742	44.1
172.777	551.1
178.805	2112.1
184.826	5892.1
190.841	12394.1
196.849	19920.1
202.85	25333.1
208.845	27125.1
214.833	26807.1
220.815	26221.1
226.789	26092.1
232.758	25900.1
238.719	25683.1
244.674	25184.1
250.623	24759.1
256.565	24193.1
262.5	23595.1
268.429	23172.1
274.351	22854.1
280.267	22443.1
286.176	22162.1
292.079	21893.1
297.975	21755.1
303.865	21507.1
309.748	21332.1
315.625	21210.1
321.495	21069.1
327.359	20963.1
333.217	20950.1
339.068	20971.1
344.912	20862.1
350.751	20864.1
356.583	20817.1
362.408	20850.1
368.227	20858.1
374.04	20883.1
379.847	20874.1
385.647	20988.1
391.44	21062.1
397.228	21191.1
403.009	21277.1
408.784	21334.1
414.553	21417.1
420.315	21480.1
426.071	21480.1
431.821	21393.1
437.565	21383.1
443.302	21372.1
449.033	21369.1
454.758	21265.1
460.477	21229.1
466.189	21194.1
471.896	21145.1
477.596	21076.1
483.29	20981.1
488.978	20986.1
494.66	20943.1
500.335	20727.1
506.005	20489.1
511.668	20164.1
517.325	19988.1
522.977	19730.1
528.622	19590.1
534.261	19388.1
539.894	19320.1
545.521	19202.1
551.141	19144.1
556.756	19029.1
562.365	19015.1
567.968	18878.1
573.565	18800.1
579.155	18749.1
584.74	18690.1
590.319	18581.1
595.892	18563.1
601.459	18470.1
607.02	18341.1
612.575	18242.1
618.124	18167.1
623.667	18007.1
629.204	17890.1
634.735	17819.1
640.261	17682.1
645.781	17725.1
651.294	17636.1
656.802	17631.1
662.304	17624.1
667.8	17477.1
673.29	17494.1
678.775	17506.1
684.254	17445.1
689.726	17381.1
695.193	17335.1
700.655	17236.1
706.11	17135.1
711.56	17033.1
717.004	16942.1
722.442	16851.1
727.874	16746.1
733.301	16711.1
738.722	16667.1
744.137	16625.1
749.547	16646.1
754.951	16605.1
760.349	16637.1
765.741	16669.1
771.128	16671.1
776.509	16717.1
781.885	16645.1
787.254	16648.1
792.618	16546.1
797.977	16455.1
803.33	16359.1
808.677	16313.1
814.019	16136.1
819.355	16092.1
824.686	15955.1
830.011	15949.1
835.33	15974.1
840.644	15944.1
845.952	15999.1
851.255	16002.1
856.552	16062.1
861.844	15954.1
867.13	15940.1
872.41	15884.1
877.686	15764.1
882.955	15616.1
888.219	15511.1
893.478	15331.1
898.731	15079.1
903.979	14949.1
909.221	14861.1
914.458	14771.1
919.69	14741.1
924.916	14862.1
930.136	14885.1
935.351	14849.1
940.561	14897.1
945.766	14819.1
950.965	14783.1
956.158	14626.1
961.347	14534.1
966.529	14260.1
971.707	14140.1
976.879	13972.1
982.046	13871.1
987.208	13781.1
992.364	13790.1
997.515	13873.1
1002.66	13956.1
1007.801	14203.1
1012.936	14263.1
1018.066	14250.1
1023.19	14228.1
1028.309	14250.1
1033.423	14198.1
1038.532	14193.1
1043.636	14007.1
1048.734	13812.1
1053.827	13706.1
1058.915	13552.1
1063.998	13440.1
1069.075	13458.1
1074.147	13447.1
1079.214	13434.1
1084.276	13548.1
1089.333	13618.1
1094.385	13659.1
1099.431	13724.1
1104.472	13726.1
1109.509	13613.1
1114.54	13446.1
1119.565	13275.1
1124.586	13125.1
1129.602	12959.1
1134.613	12900.1
1139.618	12842.1
1144.619	12812.1
1149.614	12792.1
1154.604	12815.1
1159.589	12805.1
1164.57	12819.1
1169.545	12885.1
1174.515	12902.1
1179.48	12801.1
1184.44	12680.1
1189.395	12651.1
1194.345	12552.1
1199.29	12455.1
1204.23	12445.1
1209.165	12550.1
1214.095	12625.1
1219.021	12636.1
1223.941	12712.1
1228.856	12820.1
1233.766	12820.1
1238.672	12799.1
1243.572	12786.1
1248.467	12735.1
1253.358	12578.1
1258.244	12404.1
1263.124	12199.1
1268	12079.1
1272.871	11857.1
1277.737	11777.1
1282.599	11750.1
1287.455	11746.1
1292.306	11685.1
1297.153	11757.1
1301.995	11832.1
1306.832	11855.1
1311.664	11854.1
1316.491	11814.1
1321.314	11706.1
1326.132	11556.1
1330.945	11259.1
1335.753	11032.1
1340.556	10752.1
1345.354	10594.1
1350.148	10407.1
1354.937	10297.1
1359.722	10328.1
1364.501	10273.1
1369.276	10370.1
1374.046	10475.1
1378.811	10603.1
1383.572	10729.1
1388.327	10729.1
1393.079	10669.1
1397.825	10586.1
1402.567	10432.1
1407.304	10308.1
1412.036	10232.1
1416.764	10189.1
1421.487	10125.1
1426.205	10071.1
1430.919	10018.1
1435.628	10064.1
1440.333	10071.1
1445.032	10054.1
1449.727	10118.1
1454.418	10089.1
1459.104	10030.1
1463.785	9771.1
1468.462	9605.1
1473.134	9379.1
1477.802	9177.1
1482.465	8995.1
1487.123	8890.1
1491.777	8849.1
1496.426	8923.1
1501.071	8939.1
1505.711	9089.1
1510.347	9234.1
1514.978	9380.1
1519.604	9509.1
1524.226	9572.1
1528.844	9599.1
1533.457	9598.1
1538.065	9535.1
1542.669	9475.1
1547.269	9433.1
1551.864	9363.1
1556.454	9391.1
1561.041	9387.1
1565.622	9384.1
1570.199	9417.1
1574.772	9453.1
1579.34	9507.1
1583.904	9575.1
1588.464	9675.1
1593.019	9683.1
1597.569	9622.1
1602.115	9584.1
1606.657	9521.1
1611.195	9472.1
1615.728	9414.1
1620.256	9381.1
1624.78	9422.1
1629.3	9391.1
1633.816	9416.1
1638.327	9477.1
1642.834	9504.1
1647.336	9521.1
1651.834	9559.1
1656.328	9521.1
1660.817	9433.1
1665.302	9363.1
1669.783	9140.1
1674.259	8957.1
1678.732	8665.1
1683.199	8394.1
1687.663	8117.1
1692.122	7837.1
1696.577	7668.1
1701.028	7665.1
1705.474	7609.1
1709.917	7698.1
1714.355	7692.1
1718.788	7661.1
1723.218	7527.1
1727.643	7393.1
1732.064	7269.1
1736.481	7106.1
1740.893	6943.1
1745.301	6725.1
1749.705	6600.1
1754.105	6398.1
1758.501	6177.1
1762.893	6021.1
1767.28	5893.1
1771.663	5732.1
1776.042	5634.1
1780.417	5640.1
1784.787	5620.1
1789.154	5653.1
1793.516	5728.1
1797.874	5827.1
1802.228	5931.1
1806.578	5975.1
1810.924	5961.1
1815.266	5884.1
1819.603	5802.1
1823.937	5754.1
1828.266	5611.1
1832.591	5551.1
1836.913	5489.1
1841.23	5432.1
1845.543	5405.1
1849.852	5382.1
1854.156	5362.1
1858.457	5372.1
1862.754	5348.1
1867.047	5357.1
1871.335	5359.1
1875.62	5303.1
1879.9	5284.1
1884.177	5268.1
1888.449	5208.1
1892.718	5160.1
1896.982	5167.1
1901.243	5053.1
1905.499	5006.1
1909.752	4989.1
1914	5005.1
1918.245	5023.1
1922.485	5020.1
1926.722	5109.1
1930.954	5144.1
1935.183	5186.1
1939.408	5246.1
1943.628	5250.1
1947.845	5289.1
1952.058	5264.1
1956.267	5226.1
1960.472	5148.1
1964.673	5070.1
1968.87	4981.1
1973.063	4900.1
1977.252	4865.1
1981.438	4807.1
1985.619	4723.1
1989.797	4714.1
1993.971	4685.1
1998.14	4678.1
2002.306	4630.1
2006.469	4662.1
2010.627	4615.1
2014.781	4576.1
2018.932	4517.1
2023.078	4492.1
2027.221	4452.1
2031.36	4387.1
2035.495	4319.1
2039.627	4276.1
2043.754	4216.1
2047.878	4167.1
2051.998	4126.1
2056.114	4128.1
2060.226	4106.1
2064.334	4129.1
2068.439	4144.1
2072.54	4152.1
2076.637	4150.1
2080.73	4184.1
2084.82	4247.1
2088.906	4241.1
2092.988	4220.1
2097.066	4208.1
2101.14	4216.1
2105.211	4149.1
2109.278	4134.1
2113.342	4137.1
2117.401	4099.1
2121.457	4049.1
2125.509	4031.1
2129.558	4024.1
2133.602	3990.1
2137.643	3965.1
2141.681	3955.1
2145.714	3941.1
2149.744	3940.1
2153.77	3890.1
2157.793	3847.1
2161.812	3801.1
2165.827	3752.1
2169.838	3694.1
2173.846	3637.1
2177.851	3543.1
2181.851	3547.1
2185.848	3490.1
2189.841	3452.1
2193.831	3411.1
2197.817	3380.1
2201.799	3351.1
2205.778	3315.1
2209.753	3332.1
2213.725	3322.1
2217.693	3294.1
2221.657	3292.1
2225.618	3297.1
2229.575	3287.1
2233.529	3237.1
2237.479	3211.1
2241.425	3163.1
2245.368	3149.1
2249.307	3080.1
2253.243	3059.1
2257.175	2993.1
2261.104	2959.1
2265.029	2920.1
2268.95	2892.1
2272.868	2866.1
2276.783	2829.1
2280.694	2799.1
2284.601	2749.1
2288.505	2750.1
2292.405	2726.1
2296.302	2691.1
2300.195	2660.1
2304.085	2615.1
2307.971	2581.1
2311.854	2550.1
2315.734	2506.1
2319.609	2496.1
2323.482	2430.1
2327.351	2405.1
2331.216	2415.1
2335.078	2400.1
2338.937	2362.1
2342.792	2338.1
2346.643	2357.1
2350.492	2350.1
2354.336	2335.1
2358.178	2357.1
2362.015	2368.1
2365.85	2355.1
2369.681	2359.1
2373.508	2375.1
2377.333	2388.1
2381.153	2344.1
2384.971	2351.1
2388.785	2340.1
2392.595	2318.1
2396.402	2306.1
2400.206	2282.1
2404.007	2241.1
2407.804	2222.1
2411.597	2216.1
2415.388	2221.1
2419.174	2200.1
2422.958	2188.1
2426.738	2145.1
2430.515	2141.1
2434.289	2108.1
2438.059	2121.1
2441.825	2077.1
2445.589	2058.1
2449.349	2035.1
2453.106	2007.1
2456.859	1986.1
2460.61	1942.1
2464.356	1933.1
2468.1	1933.1
2471.84	1891.1
2475.577	1894.1
2479.311	1862.1
2483.041	1853.1
2486.768	1840.1
2490.492	1867.1
2494.213	1839.1
2497.93	1827.1
2501.644	1802.1
2505.355	1811.1
2509.062	1780.1
2512.766	1771.1
2516.467	1791.1
2520.165	1764.1
2523.859	1732.1
2527.551	1738.1
2531.239	1724.1
2534.923	1721.1
2538.605	1710.1
2542.283	1686.1
2545.958	1686.1
2549.63	1699.1
2553.299	1696.1
2556.964	1683.1
2560.626	1684.1
2564.285	1671.1
2567.941	1668.1
2571.594	1655.1
2575.243	1637.1
2578.89	1645.1
2582.533	1636.1
2586.173	1577.1
2589.809	1593.1
2593.443	1567.1
2597.073	1534.1
2600.701	1536.1
2604.325	1525.1
2607.946	1518.1
2611.564	1504.1
2615.178	1496.1
2618.79	1491.1
2622.398	1467.1
2626.004	1462.1
2629.606	1435.1
2633.205	1410.1
2636.801	1393.1
2640.394	1371.1
2643.983	1364.1
2647.57	1346.1
2651.153	1314.1
2654.734	1297.1
2658.311	1267.1
2661.885	1247.1
2665.456	1221.1
2669.025	1219.1
2672.589	1192.1
2676.151	1185.1
2679.71	1174.1
2683.266	1161.1
2686.819	1139.1
2690.368	1104.1
2693.915	1095.1
2697.458	1035.1
2700.999	1021.1
2704.536	1010.1
2708.071	976.1
2711.602	982.1
2715.13	949.1
2718.656	917.1
2722.178	906.1
2725.697	897.1
2729.214	882.1
2732.727	893.1
2736.237	864.1
2739.744	867.1
2743.249	887.1
2746.75	886.1
2750.248	891.1
2753.743	885.1
2757.236	921.1
2760.725	909.1
2764.211	901.1
2767.695	922.1
2771.175	911.1
2774.652	915.1
2778.127	934.1
2781.598	886.1
2785.067	907.1
2788.532	891.1
2791.995	892.1
2795.455	892.1
2798.911	897.1
2802.365	893.1
2805.816	883.1
2809.264	889.1
2812.709	903.1
2816.151	893.1
2819.59	896.1
2823.026	894.1
2826.46	897.1
2829.89	903.1
2833.318	928.1
2836.742	906.1
2840.164	920.1
2843.583	921.1
2846.999	940.1
2850.412	948.1
2853.822	965.1
2857.229	986.1
2860.634	1004.1
2864.035	1006.1
2867.434	1045.1
2870.83	1065.1
2874.223	1074.1
2877.613	1101.1
2881	1118.1
2884.385	1124.1
2887.766	1149.1
2891.145	1120.1
2894.521	1118.1
2897.894	1126.1
2901.264	1122.1
2904.631	1128.1
2907.996	1131.1
2911.358	1150.1
2914.717	1142.1
2918.073	1168.1
2921.426	1171.1
2924.777	1201.1
2928.124	1226.1
2931.469	1238.1
2934.811	1275.1
2938.15	1294.1
2941.487	1293.1
2944.821	1303.1
2948.152	1308.1
2951.48	1313.1
2954.805	1285.1
2958.128	1268.1
2961.447	1257.1
2964.765	1243.1
2968.079	1248.1
2971.39	1264.1
2974.699	1276.1
2978.005	1283.1
2981.308	1320.1
2984.609	1328.1
2987.907	1368.1
2991.202	1384.1
2994.494	1419.1
2997.784	1438.1
3001.07	1453.1
3004.355	1506.1
3007.636	1520.1
3010.915	1542.1
3014.191	1556.1
3017.464	1558.1
3020.734	1576.1
3024.002	1591.1
3027.267	1620.1
3030.53	1622.1
3033.789	1633.1
3037.046	1682.1
3040.301	1710.1
3043.552	1723.1
3046.801	1790.1
3050.048	1831.1
3053.291	1873.1
3056.532	1926.1
3059.771	1979.1
3063.006	2033.1
3066.239	2104.1
3069.469	2164.1
3072.697	2200.1
3075.922	2269.1
3079.144	2314.1
3082.364	2396.1
3085.581	2433.1
3088.795	2487.1
3092.007	2549.1
3095.216	2582.1
3098.423	2639.1
3101.627	2702.1
3104.828	2760.1
3108.026	2829.1
3111.222	2893.1
3114.416	2936.1
3117.607	3010.1
3120.795	3070.1
3123.98	3161.1
3127.163	3248.1
3130.344	3305.1
3133.521	3391.1
3136.696	3479.1
3139.869	3549.1
3143.039	3597.1
3146.206	3654.1
3149.371	3693.1
3152.533	3725.1
3155.693	3754.1
3158.85	3804.1
3162.005	3812.1
3165.157	3826.1
3168.306	3836.1
3171.453	3838.1
3174.597	3848.1
3177.739	3863.1
3180.878	3858.1
3184.014	3880.1
3187.149	3864.1
3190.28	3887.1
3193.409	3875.1
3196.536	3848.1
3199.659	3883.1
3202.781	3883.1
3205.9	3891.1
3209.016	3867.1
3212.13	3844.1
3215.241	3816.1
3218.35	3790.1
3221.456	3763.1
3224.56	3699.1
3227.661	3660.1
3230.76	3631.1
3233.856	3582.1
3236.95	3539.1
3240.041	3526.1
3243.13	3459.1
3246.216	3455.1
3249.3	3424.1
3252.382	3421.1
3255.46	3379.1
3258.537	3372.1
3261.611	3405.1
3264.682	3373.1
3267.751	3387.1
3270.818	3366.1
3273.882	3374.1
3276.943	3347.1
3280.002	3349.1
3283.059	3304.1
3286.113	3298.1
3289.165	3254.1
3292.214	3197.1
3295.261	3154.1
3298.306	3125.1
3301.348	3037.1
3304.387	3021.1
3307.425	2968.1
3310.459	2915.1
3313.492	2874.1
3316.521	2858.1
3319.549	2816.1
3322.574	2812.1
3325.597	2789.1
3328.617	2775.1
3331.635	2739.1
3334.65	2756.1
3337.663	2711.1
3340.674	2727.1
3343.682	2712.1
3346.688	2702.1
3349.691	2652.1
3352.692	2643.1
3355.691	2648.1
3358.687	2627.1
3361.681	2582.1
3364.673	2563.1
3367.662	2530.1
3370.649	2466.1
3373.633	2442.1
3376.615	2407.1
3379.595	2377.1
3382.572	2349.1
3385.547	2315.1
3388.52	2263.1
3391.49	2227.1
3394.458	2196.1
3397.424	2185.1
3400.387	2127.1
3403.348	2111.1
3406.307	2076.1
3409.263	2073.1
3412.217	2047.1
3415.168	2014.1
3418.118	1990.1
3421.065	1960.1
3424.009	1952.1
3426.951	1911.1
3429.891	1877.1
3432.829	1835.1
3435.764	1789.1
3438.697	1735.1
3441.628	1697.1
3444.557	1626.1
3447.483	1585.1
3450.407	1555.1
3453.328	1481.1
3456.247	1418.1
3459.164	1371.1
3462.079	1326.1
3464.991	1285.1
3467.902	1227.1
3470.809	1203.1
3473.715	1136.1
3476.618	1094.1
3479.519	1041.1
3482.418	1026.1
3485.315	990.1
3488.209	941.1
3491.101	906.1
3493.99	887.1
3496.878	823.1
3499.763	796.1
3502.646	779.1
3505.527	718.1
3508.405	703.1
3511.281	656.1
3514.155	614.1
3517.027	594.1
3519.897	553.1
3522.764	500.1
3525.629	462.1
3528.492	421.1
3531.352	388.1
3534.211	358.1
3537.067	328.1
3539.921	277.1
3542.773	261.1
3545.622	213.1
3548.469	198.1
3551.315	168.1
3554.157	150.1
3556.998	109.1
3559.837	101.1
3562.673	63.1
3565.507	54.1
3568.339	27.1
3571.169	12.1
3573.996	-15.9
3576.822	-27.9
3579.645	-56.9
3582.466	-68.9
3585.285	-82.9
3588.101	-110.9
3590.916	-110.9
3593.728	-154.9
3596.538	-152.9
3599.346	-180.9
3602.152	-186.9
3604.956	-199.9
3607.757	-222.9
3610.556	-241.9
3613.354	-244.9
3616.149	-257.9
3618.942	-265.9
3621.732	-282.9
3624.521	-299.9
3627.307	-299.9
3630.092	-309.9
3632.874	-330.9
3635.654	-334.9
3638.432	-334.9
3641.208	-344.9
3643.982	-365.9
3646.753	-362.9
3649.523	-379.9
3652.29	-376.9
3655.055	-379.9
3657.818	-400.9
3660.579	-414.9
3663.338	-416.9
3666.095	-431.9
3668.849	-442.9
3671.602	-445.9
3674.352	-460.9
3677.101	-458.9
3679.847	-470.9
3682.591	-474.9
3685.333	-479.9
3688.073	-483.9
3690.811	-489.9
3693.547	-487.9
3696.281	-499.9
3699.013	-501.9
3701.742	-502.9
3704.47	-517.9
3707.195	-513.9
3709.919	-519.9
3712.64	-519.9
3715.359	-522.9
3718.076	-529.9
3720.792	-538.9
3723.505	-532.9
3726.216	-547.9
3728.925	-537.9
3731.632	-550.9
3734.336	-548.9
3737.039	-550.9
3739.74	-547.9
3742.439	-557.9
3745.136	-556.9
3747.83	-564.9
3750.523	-562.9
3753.213	-564.9
3755.902	-568.9
3758.589	-571.9
3761.273	-572.9
3763.956	-577.9
3766.636	-573.9
3769.315	-578.9
3771.991	-571.9
3774.665	-581.9
3777.338	-575.9
3780.008	-585.9
3782.677	-586.9
3785.343	-576.9
3788.007	-589.9
3790.67	-584.9
3793.33	-589.9
3795.989	-592.9
3798.645	-590.9
3801.299	-584.9
3803.952	-600.9
3806.602	-605.9
3809.251	-601.9
3811.897	-604.9
3814.542	-603.9
3817.184	-596.9
3819.825	-598.9
3822.463	-596.9
3825.1	-600.9
3827.735	-598.9
3830.367	-596.9
3832.998	-603.9
3835.627	-609.9
3838.253	-600.9
3840.878	-606.9
3843.501	-608.9
3846.122	-597.9
3848.741	-601.9
3851.358	-599.9
3853.973	-603.9
3856.586	-607.9
3859.197	-611.9
3861.806	-610.9
3864.414	-610.9
3867.019	-601.9
3869.622	-606.9
3872.224	-611.9
3874.823	-588.9
3877.421	-581.9
3880.016	-563.9
3882.61	-540.9
3885.202	-531.9
3887.792	-548.9
3890.38	-583.9
3892.966	-600.9
3895.55	-608.9
3898.132	-624.9
3900.713	-619.9
3903.291	-612.9
3905.868	-614.9
3908.442	-616.9
3911.015	-619.9
3913.586	-608.9
3916.155	-616.9
3918.722	-623.9
3921.287	-619.9
3923.85	-623.9
3926.411	-621.9
3928.971	-626.9
3931.528	-623.9
3934.084	-624.9
3936.638	-621.9
3939.19	-624.9
3941.74	-622.9
3944.288	-628.9
3946.834	-621.9
3949.378	-623.9
3951.921	-624.9
3954.462	-632.9
3957	-624.9
3959.537	-623.9
3962.072	-624.9
3964.606	-622.9
3967.137	-622.9
3969.667	-626.9
3972.194	-618.9
3974.72	-619.9
3977.244	-612.9
3979.766	-607.9
3982.286	-616.9
3984.805	-608.9
3987.321	-608.9
3989.836	-611.9
3992.349	-603.9
3994.86	-605.9
3997.369	-616.9
3999.877	-605.9
4002.382	-608.9
4004.886	-605.9
4007.388	-603.9
4009.888	-605.9
4012.386	-611.9
4014.883	-606.9
4017.377	-610.9
4019.87	-601.9
4022.361	-612.9
4024.85	-609.9
4027.338	-609.9
4029.823	-617.9
4032.307	-616.9
4034.789	-608.9
4037.269	-606.9
4039.747	-610.9
4042.224	-614.9
4044.699	-609.9
4047.172	-609.9
4049.643	-605.9
4052.112	-612.9
4054.58	-618.9
4057.046	-614.9
4059.51	-611.9
4061.972	-614.9
4064.432	-615.9
4066.891	-613.9
4069.348	-609.9
4071.803	-607.9
4074.256	-613.9
4076.708	-613.9
4079.158	-613.9
4081.606	-615.9
4084.052	-618.9
4086.497	-614.9
4088.939	-607.9
4091.38	-612.9
4093.819	-606.9
4096.257	-645.9
4098.693	-644.9
4101.127	-645.9
4103.559	-640.9
4105.989	-367.9
4108.418	-348.9
4110.845	-333.9
4113.27	-301.9
4115.694	-254.9
4118.115	-221.9
4120.535	-608.9
4122.954	-613.9
4125.37	-598.9
4127.785	-608.9
4130.198	-614.9
4132.609	-615.9
4135.019	-645.9
4137.427	-644.9
4139.833	-644.9
4142.237	-641.9
