Data from 2018-2-14_conc=6_n=9_RamanShift_01.txt Node
Date: Wed Feb 14 15:11:55 IST 2018
User: aro
Spectrometer: QEPB0276
Trigger mode: 0
Integration Time (sec): 3.000000E1
Scans to average: 1
Electric dark correction enabled: true
Nonlinearity correction enabled: false
Boxcar width: 0
XAxis mode: Raman Shifts
Number of Pixels in Spectrum: 1044
>>>>>Begin Spectral Data<<<<<
160.701	-158.9
166.742	41.1
172.777	607.1
178.805	2314.1
184.826	6402.1
190.841	13386.1
196.849	21423.1
202.85	27099.1
208.845	28989.1
214.833	28669.1
220.815	28219.1
226.789	28042.1
232.758	27844.1
238.719	27668.1
244.674	27293.1
250.623	26802.1
256.565	26185.1
262.5	25615.1
268.429	25212.1
274.351	24814.1
280.267	24463.1
286.176	24160.1
292.079	24011.1
297.975	23781.1
303.865	23565.1
309.748	23383.1
315.625	23231.1
321.495	23120.1
327.359	23020.1
333.217	22992.1
339.068	22974.1
344.912	22927.1
350.751	22906.1
356.583	22903.1
362.408	22851.1
368.227	22865.1
374.04	22924.1
379.847	22988.1
385.647	23103.1
391.44	23125.1
397.228	23299.1
403.009	23324.1
408.784	23362.1
414.553	23406.1
420.315	23485.1
426.071	23494.1
431.821	23506.1
437.565	23458.1
443.302	23407.1
449.033	23422.1
454.758	23313.1
460.477	23248.1
466.189	23211.1
471.896	23144.1
477.596	23052.1
483.29	23024.1
488.978	22941.1
494.66	22933.1
500.335	22819.1
506.005	22597.1
511.668	22245.1
517.325	21945.1
522.977	21755.1
528.622	21647.1
534.261	21460.1
539.894	21380.1
545.521	21256.1
551.141	21222.1
556.756	21170.1
562.365	21047.1
567.968	20984.1
573.565	20856.1
579.155	20844.1
584.74	20678.1
590.319	20621.1
595.892	20596.1
601.459	20483.1
607.02	20377.1
612.575	20192.1
618.124	20140.1
623.667	19964.1
629.204	19885.1
634.735	19821.1
640.261	19769.1
645.781	19632.1
651.294	19608.1
656.802	19616.1
662.304	19532.1
667.8	19542.1
673.29	19477.1
678.775	19484.1
684.254	19379.1
689.726	19244.1
695.193	19248.1
700.655	19126.1
706.11	19089.1
711.56	18989.1
717.004	18889.1
722.442	18796.1
727.874	18644.1
733.301	18613.1
738.722	18594.1
744.137	18540.1
749.547	18536.1
754.951	18535.1
760.349	18570.1
765.741	18549.1
771.128	18498.1
776.509	18596.1
781.885	18553.1
787.254	18437.1
792.618	18394.1
797.977	18307.1
803.33	18176.1
808.677	18092.1
814.019	17995.1
819.355	17859.1
824.686	17776.1
830.011	17754.1
835.33	17741.1
840.644	17798.1
845.952	17811.1
851.255	17799.1
856.552	17838.1
861.844	17768.1
867.13	17831.1
872.41	17659.1
877.686	17578.1
882.955	17417.1
888.219	17246.1
893.478	17096.1
898.731	16836.1
903.979	16682.1
909.221	16525.1
914.458	16507.1
919.69	16523.1
924.916	16551.1
930.136	16582.1
935.351	16609.1
940.561	16680.1
945.766	16578.1
950.965	16487.1
956.158	16352.1
961.347	16182.1
966.529	15993.1
971.707	15786.1
976.879	15621.1
982.046	15492.1
987.208	15416.1
992.364	15420.1
997.515	15533.1
1002.66	15653.1
1007.801	15818.1
1012.936	15936.1
1018.066	15880.1
1023.19	15930.1
1028.309	15916.1
1033.423	15886.1
1038.532	15759.1
1043.636	15681.1
1048.734	15471.1
1053.827	15299.1
1058.915	15117.1
1063.998	15033.1
1069.075	14962.1
1074.147	14968.1
1079.214	15004.1
1084.276	15111.1
1089.333	15200.1
1094.385	15264.1
1099.431	15309.1
1104.472	15317.1
1109.509	15236.1
1114.54	14989.1
1119.565	14785.1
1124.586	14634.1
1129.602	14524.1
1134.613	14397.1
1139.618	14322.1
1144.619	14297.1
1149.614	14247.1
1154.604	14261.1
1159.589	14337.1
1164.57	14338.1
1169.545	14382.1
1174.515	14388.1
1179.48	14279.1
1184.44	14141.1
1189.395	14102.1
1194.345	14001.1
1199.29	13859.1
1204.23	13914.1
1209.165	13928.1
1214.095	14066.1
1219.021	14052.1
1223.941	14146.1
1228.856	14223.1
1233.766	14322.1
1238.672	14300.1
1243.572	14298.1
1248.467	14187.1
1253.358	13989.1
1258.244	13827.1
1263.124	13602.1
1268	13417.1
1272.871	13220.1
1277.737	13117.1
1282.599	13072.1
1287.455	13015.1
1292.306	13089.1
1297.153	13174.1
1301.995	13158.1
1306.832	13234.1
1311.664	13270.1
1316.491	13177.1
1321.314	13057.1
1326.132	12902.1
1330.945	12610.1
1335.753	12337.1
1340.556	12013.1
1345.354	11778.1
1350.148	11560.1
1354.937	11494.1
1359.722	11416.1
1364.501	11482.1
1369.276	11623.1
1374.046	11784.1
1378.811	11966.1
1383.572	12090.1
1388.327	12103.1
1393.079	12088.1
1397.825	11912.1
1402.567	11797.1
1407.304	11636.1
1412.036	11487.1
1416.764	11388.1
1421.487	11291.1
1426.205	11249.1
1430.919	11188.1
1435.628	11202.1
1440.333	11218.1
1445.032	11266.1
1449.727	11251.1
1454.418	11240.1
1459.104	11170.1
1463.785	10919.1
1468.462	10654.1
1473.134	10516.1
1477.802	10277.1
1482.465	10100.1
1487.123	9946.1
1491.777	9955.1
1496.426	10031.1
1501.071	10121.1
1505.711	10274.1
1510.347	10425.1
1514.978	10633.1
1519.604	10829.1
1524.226	10904.1
1528.844	10948.1
1533.457	10870.1
1538.065	10852.1
1542.669	10794.1
1547.269	10664.1
1551.864	10590.1
1556.454	10597.1
1561.041	10558.1
1565.622	10539.1
1570.199	10519.1
1574.772	10589.1
1579.34	10672.1
1583.904	10685.1
1588.464	10811.1
1593.019	10789.1
1597.569	10783.1
1602.115	10710.1
1606.657	10615.1
1611.195	10523.1
1615.728	10454.1
1620.256	10445.1
1624.78	10401.1
1629.3	10450.1
1633.816	10477.1
1638.327	10506.1
1642.834	10551.1
1647.336	10637.1
1651.834	10594.1
1656.328	10604.1
1660.817	10525.1
1665.302	10413.1
1669.783	10246.1
1674.259	10024.1
1678.732	9759.1
1683.199	9449.1
1687.663	9067.1
1692.122	8838.1
1696.577	8665.1
1701.028	8647.1
1705.474	8694.1
1709.917	8763.1
1714.355	8855.1
1718.788	8793.1
1723.218	8672.1
1727.643	8491.1
1732.064	8296.1
1736.481	8160.1
1740.893	7928.1
1745.301	7701.1
1749.705	7487.1
1754.105	7305.1
1758.501	7077.1
1762.893	6882.1
1767.28	6708.1
1771.663	6558.1
1776.042	6453.1
1780.417	6413.1
1784.787	6357.1
1789.154	6417.1
1793.516	6531.1
1797.874	6679.1
1802.228	6832.1
1806.578	6856.1
1810.924	6892.1
1815.266	6791.1
1819.603	6709.1
1823.937	6604.1
1828.266	6482.1
1832.591	6392.1
1836.913	6284.1
1841.23	6245.1
1845.543	6195.1
1849.852	6156.1
1854.156	6125.1
1858.457	6131.1
1862.754	6105.1
1867.047	6106.1
1871.335	6080.1
1875.62	6070.1
1879.9	6082.1
1884.177	6037.1
1888.449	5959.1
1892.718	5907.1
1896.982	5841.1
1901.243	5783.1
1905.499	5767.1
1909.752	5743.1
1914	5745.1
1918.245	5727.1
1922.485	5813.1
1926.722	5854.1
1930.954	5917.1
1935.183	6007.1
1939.408	6066.1
1943.628	6098.1
1947.845	6122.1
1952.058	6084.1
1956.267	6069.1
1960.472	5914.1
1964.673	5887.1
1968.87	5792.1
1973.063	5669.1
1977.252	5615.1
1981.438	5532.1
1985.619	5486.1
1989.797	5442.1
1993.971	5403.1
1998.14	5405.1
2002.306	5354.1
2006.469	5318.1
2010.627	5295.1
2014.781	5289.1
2018.932	5226.1
2023.078	5201.1
2027.221	5083.1
2031.36	4986.1
2035.495	4960.1
2039.627	4864.1
2043.754	4815.1
2047.878	4747.1
2051.998	4706.1
2056.114	4708.1
2060.226	4729.1
2064.334	4695.1
2068.439	4735.1
2072.54	4725.1
2076.637	4791.1
2080.73	4808.1
2084.82	4835.1
2088.906	4860.1
2092.988	4857.1
2097.066	4842.1
2101.14	4853.1
2105.211	4809.1
2109.278	4792.1
2113.342	4751.1
2117.401	4750.1
2121.457	4689.1
2125.509	4693.1
2129.558	4640.1
2133.602	4607.1
2137.643	4599.1
2141.681	4553.1
2145.714	4543.1
2149.744	4493.1
2153.77	4459.1
2157.793	4391.1
2161.812	4340.1
2165.827	4288.1
2169.838	4226.1
2173.846	4163.1
2177.851	4068.1
2181.851	4026.1
2185.848	3982.1
2189.841	3926.1
2193.831	3861.1
2197.817	3850.1
2201.799	3833.1
2205.778	3815.1
2209.753	3812.1
2213.725	3787.1
2217.693	3761.1
2221.657	3781.1
2225.618	3769.1
2229.575	3698.1
2233.529	3683.1
2237.479	3677.1
2241.425	3606.1
2245.368	3559.1
2249.307	3500.1
2253.243	3477.1
2257.175	3410.1
2261.104	3366.1
2265.029	3321.1
2268.95	3292.1
2272.868	3238.1
2276.783	3218.1
2280.694	3185.1
2284.601	3142.1
2288.505	3119.1
2292.405	3091.1
2296.302	3056.1
2300.195	3019.1
2304.085	2999.1
2307.971	2942.1
2311.854	2917.1
2315.734	2844.1
2319.609	2805.1
2323.482	2765.1
2327.351	2756.1
2331.216	2720.1
2335.078	2729.1
2338.937	2695.1
2342.792	2669.1
2346.643	2678.1
2350.492	2656.1
2354.336	2674.1
2358.178	2699.1
2362.015	2674.1
2365.85	2671.1
2369.681	2708.1
2373.508	2700.1
2377.333	2677.1
2381.153	2688.1
2384.971	2688.1
2388.785	2629.1
2392.595	2590.1
2396.402	2587.1
2400.206	2578.1
2404.007	2559.1
2407.804	2520.1
2411.597	2521.1
2415.388	2502.1
2419.174	2492.1
2422.958	2455.1
2426.738	2466.1
2430.515	2427.1
2434.289	2387.1
2438.059	2388.1
2441.825	2344.1
2445.589	2323.1
2449.349	2312.1
2453.106	2278.1
2456.859	2248.1
2460.61	2240.1
2464.356	2204.1
2468.1	2152.1
2471.84	2148.1
2475.577	2123.1
2479.311	2098.1
2483.041	2107.1
2486.768	2082.1
2490.492	2078.1
2494.213	2087.1
2497.93	2084.1
2501.644	2065.1
2505.355	2014.1
2509.062	2054.1
2512.766	2015.1
2516.467	2032.1
2520.165	1995.1
2523.859	1991.1
2527.551	1958.1
2531.239	1948.1
2534.923	1946.1
2538.605	1938.1
2542.283	1940.1
2545.958	1919.1
2549.63	1945.1
2553.299	1918.1
2556.964	1938.1
2560.626	1928.1
2564.285	1901.1
2567.941	1910.1
2571.594	1877.1
2575.243	1885.1
2578.89	1862.1
2582.533	1840.1
2586.173	1835.1
2589.809	1830.1
2593.443	1802.1
2597.073	1790.1
2600.701	1785.1
2604.325	1740.1
2607.946	1725.1
2611.564	1720.1
2615.178	1733.1
2618.79	1712.1
2622.398	1698.1
2626.004	1681.1
2629.606	1668.1
2633.205	1622.1
2636.801	1605.1
2640.394	1576.1
2643.983	1547.1
2647.57	1537.1
2651.153	1516.1
2654.734	1484.1
2658.311	1463.1
2661.885	1431.1
2665.456	1422.1
2669.025	1382.1
2672.589	1394.1
2676.151	1363.1
2679.71	1356.1
2683.266	1316.1
2686.819	1298.1
2690.368	1270.1
2693.915	1248.1
2697.458	1217.1
2700.999	1165.1
2704.536	1185.1
2708.071	1148.1
2711.602	1110.1
2715.13	1096.1
2718.656	1073.1
2722.178	1059.1
2725.697	1031.1
2729.214	1033.1
2732.727	1032.1
2736.237	1012.1
2739.744	1013.1
2743.249	1007.1
2746.75	1037.1
2750.248	1034.1
2753.743	1048.1
2757.236	1047.1
2760.725	1057.1
2764.211	1073.1
2767.695	1059.1
2771.175	1062.1
2774.652	1069.1
2778.127	1052.1
2781.598	1047.1
2785.067	1040.1
2788.532	1045.1
2791.995	1031.1
2795.455	1046.1
2798.911	1051.1
2802.365	1046.1
2805.816	1036.1
2809.264	1040.1
2812.709	1057.1
2816.151	1046.1
2819.59	1048.1
2823.026	1020.1
2826.46	1028.1
2829.89	1051.1
2833.318	1050.1
2836.742	1049.1
2840.164	1070.1
2843.583	1068.1
2846.999	1093.1
2850.412	1082.1
2853.822	1108.1
2857.229	1119.1
2860.634	1135.1
2864.035	1168.1
2867.434	1177.1
2870.83	1202.1
2874.223	1219.1
2877.613	1242.1
2881	1244.1
2884.385	1265.1
2887.766	1261.1
2891.145	1250.1
2894.521	1257.1
2897.894	1257.1
2901.264	1256.1
2904.631	1262.1
2907.996	1283.1
2911.358	1268.1
2914.717	1289.1
2918.073	1289.1
2921.426	1306.1
2924.777	1324.1
2928.124	1344.1
2931.469	1352.1
2934.811	1395.1
2938.15	1432.1
2941.487	1404.1
2944.821	1444.1
2948.152	1412.1
2951.48	1429.1
2954.805	1395.1
2958.128	1401.1
2961.447	1364.1
2964.765	1361.1
2968.079	1398.1
2971.39	1388.1
2974.699	1415.1
2978.005	1436.1
2981.308	1455.1
2984.609	1471.1
2987.907	1505.1
2991.202	1540.1
2994.494	1589.1
2997.784	1618.1
3001.07	1643.1
3004.355	1684.1
3007.636	1694.1
3010.915	1710.1
3014.191	1717.1
3017.464	1736.1
3020.734	1756.1
3024.002	1763.1
3027.267	1792.1
3030.53	1828.1
3033.789	1829.1
3037.046	1817.1
3040.301	1857.1
3043.552	1902.1
3046.801	1951.1
3050.048	1998.1
3053.291	2040.1
3056.532	2107.1
3059.771	2149.1
3063.006	2219.1
3066.239	2272.1
3069.469	2339.1
3072.697	2407.1
3075.922	2469.1
3079.144	2508.1
3082.364	2568.1
3085.581	2642.1
3088.795	2713.1
3092.007	2752.1
3095.216	2839.1
3098.423	2873.1
3101.627	2946.1
3104.828	3027.1
3108.026	3096.1
3111.222	3160.1
3114.416	3233.1
3117.607	3312.1
3120.795	3354.1
3123.98	3464.1
3127.163	3545.1
3130.344	3627.1
3133.521	3697.1
3136.696	3791.1
3139.869	3868.1
3143.039	3956.1
3146.206	3995.1
3149.371	4041.1
3152.533	4072.1
3155.693	4085.1
3158.85	4125.1
3162.005	4154.1
3165.157	4145.1
3168.306	4187.1
3171.453	4188.1
3174.597	4214.1
3177.739	4182.1
3180.878	4172.1
3184.014	4184.1
3187.149	4238.1
3190.28	4218.1
3193.409	4246.1
3196.536	4252.1
3199.659	4252.1
3202.781	4223.1
3205.9	4280.1
3209.016	4236.1
3212.13	4214.1
3215.241	4217.1
3218.35	4183.1
3221.456	4112.1
3224.56	4076.1
3227.661	4014.1
3230.76	4008.1
3233.856	3959.1
3236.95	3912.1
3240.041	3869.1
3243.13	3822.1
3246.216	3849.1
3249.3	3789.1
3252.382	3793.1
3255.46	3762.1
3258.537	3748.1
3261.611	3771.1
3264.682	3767.1
3267.751	3777.1
3270.818	3766.1
3273.882	3767.1
3276.943	3741.1
3280.002	3716.1
3283.059	3665.1
3286.113	3620.1
3289.165	3599.1
3292.214	3532.1
3295.261	3471.1
3298.306	3384.1
3301.348	3366.1
3304.387	3275.1
3307.425	3258.1
3310.459	3195.1
3313.492	3138.1
3316.521	3099.1
3319.549	3081.1
3322.574	3050.1
3325.597	3015.1
3328.617	2997.1
3331.635	2975.1
3334.65	2965.1
3337.663	2947.1
3340.674	2916.1
3343.682	2924.1
3346.688	2914.1
3349.691	2907.1
3352.692	2888.1
3355.691	2830.1
3358.687	2822.1
3361.681	2794.1
3364.673	2732.1
3367.662	2732.1
3370.649	2676.1
3373.633	2655.1
3376.615	2619.1
3379.595	2582.1
3382.572	2532.1
3385.547	2515.1
3388.52	2460.1
3391.49	2417.1
3394.458	2392.1
3397.424	2359.1
3400.387	2322.1
3403.348	2301.1
3406.307	2272.1
3409.263	2235.1
3412.217	2203.1
3415.168	2180.1
3418.118	2192.1
3421.065	2149.1
3424.009	2114.1
3426.951	2073.1
3429.891	2030.1
3432.829	1992.1
3435.764	1963.1
3438.697	1889.1
3441.628	1835.1
3444.557	1790.1
3447.483	1714.1
3450.407	1671.1
3453.328	1630.1
3456.247	1568.1
3459.164	1515.1
3462.079	1466.1
3464.991	1413.1
3467.902	1371.1
3470.809	1312.1
3473.715	1259.1
3476.618	1220.1
3479.519	1163.1
3482.418	1133.1
3485.315	1089.1
3488.209	1089.1
3491.101	1018.1
3493.99	991.1
3496.878	939.1
3499.763	910.1
3502.646	867.1
3505.527	822.1
3508.405	789.1
3511.281	755.1
3514.155	716.1
3517.027	678.1
3519.897	631.1
3522.764	595.1
3525.629	539.1
3528.492	499.1
3531.352	462.1
3534.211	421.1
3537.067	386.1
3539.921	337.1
3542.773	300.1
3545.622	260.1
3548.469	239.1
3551.315	214.1
3554.157	184.1
3556.998	148.1
3559.837	136.1
3562.673	102.1
3565.507	62.1
3568.339	47.1
3571.169	36.1
3573.996	16.1
3576.822	-7.9
3579.645	-34.9
3582.466	-57.9
3585.285	-78.9
3588.101	-98.9
3590.916	-112.9
3593.728	-141.9
3596.538	-160.9
3599.346	-180.9
3602.152	-197.9
3604.956	-210.9
3607.757	-226.9
3610.556	-246.9
3613.354	-257.9
3616.149	-274.9
3618.942	-278.9
3621.732	-293.9
3624.521	-312.9
3627.307	-322.9
3630.092	-331.9
3632.874	-345.9
3635.654	-361.9
3638.432	-358.9
3641.208	-373.9
3643.982	-382.9
3646.753	-393.9
3649.523	-405.9
3652.29	-410.9
3655.055	-418.9
3657.818	-423.9
3660.579	-442.9
3663.338	-455.9
3666.095	-453.9
3668.849	-478.9
3671.602	-481.9
3674.352	-490.9
3677.101	-492.9
3679.847	-504.9
3682.591	-515.9
3685.333	-524.9
3688.073	-519.9
3690.811	-528.9
3693.547	-530.9
3696.281	-537.9
3699.013	-548.9
3701.742	-544.9
3704.47	-552.9
3707.195	-557.9
3709.919	-561.9
3712.64	-566.9
3715.359	-563.9
3718.076	-576.9
3720.792	-574.9
3723.505	-569.9
3726.216	-582.9
3728.925	-582.9
3731.632	-584.9
3734.336	-587.9
3737.039	-598.9
3739.74	-599.9
3742.439	-600.9
3745.136	-602.9
3747.83	-612.9
3750.523	-606.9
3753.213	-609.9
3755.902	-615.9
3758.589	-619.9
3761.273	-612.9
3763.956	-622.9
3766.636	-625.9
3769.315	-623.9
3771.991	-621.9
3774.665	-630.9
3777.338	-625.9
3780.008	-629.9
3782.677	-630.9
3785.343	-625.9
3788.007	-629.9
3790.67	-630.9
3793.33	-634.9
3795.989	-632.9
3798.645	-634.9
3801.299	-632.9
3803.952	-649.9
3806.602	-650.9
3809.251	-651.9
3811.897	-643.9
3814.542	-650.9
3817.184	-642.9
3819.825	-645.9
3822.463	-642.9
3825.1	-650.9
3827.735	-642.9
3830.367	-646.9
3832.998	-649.9
3835.627	-649.9
3838.253	-651.9
3840.878	-656.9
3843.501	-652.9
3846.122	-647.9
3848.741	-651.9
3851.358	-654.9
3853.973	-650.9
3856.586	-660.9
3859.197	-654.9
3861.806	-662.9
3864.414	-658.9
3867.019	-655.9
3869.622	-658.9
3872.224	-651.9
3874.823	-641.9
3877.421	-618.9
3880.016	-607.9
3882.61	-580.9
3885.202	-573.9
3887.792	-586.9
3890.38	-622.9
3892.966	-639.9
3895.55	-656.9
3898.132	-674.9
3900.713	-671.9
3903.291	-669.9
3905.868	-670.9
3908.442	-666.9
3911.015	-671.9
3913.586	-663.9
3916.155	-668.9
3918.722	-679.9
3921.287	-669.9
3923.85	-676.9
3926.411	-667.9
3928.971	-681.9
3931.528	-678.9
3934.084	-675.9
3936.638	-675.9
3939.19	-670.9
3941.74	-669.9
3944.288	-671.9
3946.834	-666.9
3949.378	-670.9
3951.921	-677.9
3954.462	-676.9
3957	-677.9
3959.537	-673.9
3962.072	-673.9
3964.606	-671.9
3967.137	-675.9
3969.667	-678.9
3972.194	-668.9
3974.72	-674.9
3977.244	-666.9
3979.766	-662.9
3982.286	-660.9
3984.805	-660.9
3987.321	-657.9
3989.836	-657.9
3992.349	-653.9
3994.86	-654.9
3997.369	-664.9
3999.877	-652.9
4002.382	-655.9
4004.886	-653.9
4007.388	-650.9
4009.888	-653.9
4012.386	-653.9
4014.883	-657.9
4017.377	-656.9
4019.87	-655.9
4022.361	-656.9
4024.85	-655.9
4027.338	-662.9
4029.823	-659.9
4032.307	-665.9
4034.789	-654.9
4037.269	-654.9
4039.747	-658.9
4042.224	-661.9
4044.699	-661.9
4047.172	-661.9
4049.643	-660.9
4052.112	-660.9
4054.58	-662.9
4057.046	-665.9
4059.51	-660.9
4061.972	-666.9
4064.432	-666.9
4066.891	-660.9
4069.348	-657.9
4071.803	-663.9
4074.256	-664.9
4076.708	-663.9
4079.158	-660.9
4081.606	-663.9
4084.052	-670.9
4086.497	-662.9
4088.939	-656.9
4091.38	-659.9
4093.819	-656.9
4096.257	-691.9
4098.693	-695.9
4101.127	-696.9
4103.559	-695.9
4105.989	-393.9
4108.418	-382.9
4110.845	-354.9
4113.27	-334.9
4115.694	-288.9
4118.115	-240.9
4120.535	-658.9
4122.954	-659.9
4125.37	-650.9
4127.785	-660.9
4130.198	-657.9
4132.609	-663.9
4135.019	-701.9
4137.427	-701.9
4139.833	-700.9
4142.237	-698.9
