Data from 2018-2-14_conc=2_n=7_RamanShift_03.txt Node
Date: Wed Feb 14 11:21:56 IST 2018
User: aro
Spectrometer: QEPB0276
Trigger mode: 0
Integration Time (sec): 3.000000E1
Scans to average: 1
Electric dark correction enabled: true
Nonlinearity correction enabled: false
Boxcar width: 0
XAxis mode: Raman Shifts
Number of Pixels in Spectrum: 1044
>>>>>Begin Spectral Data<<<<<
160.701	-139.6
166.742	41.4
172.777	569.4
178.805	2204.4
184.826	6091.4
190.841	12703.4
196.849	20384.4
202.85	25758.4
208.845	27561.4
214.833	27224.4
220.815	26696.4
226.789	26469.4
232.758	26309.4
238.719	26027.4
244.674	25678.4
250.623	25195.4
256.565	24617.4
262.5	24072.4
268.429	23607.4
274.351	23185.4
280.267	22902.4
286.176	22566.4
292.079	22374.4
297.975	22109.4
303.865	21941.4
309.748	21760.4
315.625	21574.4
321.495	21427.4
327.359	21360.4
333.217	21375.4
339.068	21294.4
344.912	21281.4
350.751	21203.4
356.583	21207.4
362.408	21174.4
368.227	21180.4
374.04	21196.4
379.847	21269.4
385.647	21348.4
391.44	21421.4
397.228	21491.4
403.009	21637.4
408.784	21627.4
414.553	21677.4
420.315	21794.4
426.071	21746.4
431.821	21740.4
437.565	21769.4
443.302	21696.4
449.033	21630.4
454.758	21638.4
460.477	21580.4
466.189	21508.4
471.896	21459.4
477.596	21433.4
483.29	21278.4
488.978	21339.4
494.66	21219.4
500.335	21077.4
506.005	20870.4
511.668	20567.4
517.325	20339.4
522.977	20201.4
528.622	20020.4
534.261	19906.4
539.894	19776.4
545.521	19644.4
551.141	19676.4
556.756	19536.4
562.365	19479.4
567.968	19420.4
573.565	19289.4
579.155	19222.4
584.74	19101.4
590.319	19041.4
595.892	19007.4
601.459	18968.4
607.02	18849.4
612.575	18706.4
618.124	18641.4
623.667	18459.4
629.204	18453.4
634.735	18325.4
640.261	18266.4
645.781	18240.4
651.294	18164.4
656.802	18106.4
662.304	18068.4
667.8	18001.4
673.29	18007.4
678.775	17933.4
684.254	17860.4
689.726	17870.4
695.193	17792.4
700.655	17676.4
706.11	17621.4
711.56	17501.4
717.004	17404.4
722.442	17356.4
727.874	17320.4
733.301	17191.4
738.722	17129.4
744.137	17173.4
749.547	17141.4
754.951	17131.4
760.349	17120.4
765.741	17128.4
771.128	17096.4
776.509	17154.4
781.885	17074.4
787.254	17087.4
792.618	16988.4
797.977	16891.4
803.33	16806.4
808.677	16694.4
814.019	16569.4
819.355	16468.4
824.686	16460.4
830.011	16321.4
835.33	16439.4
840.644	16420.4
845.952	16414.4
851.255	16500.4
856.552	16486.4
861.844	16450.4
867.13	16391.4
872.41	16284.4
877.686	16193.4
882.955	16095.4
888.219	15939.4
893.478	15804.4
898.731	15595.4
903.979	15415.4
909.221	15299.4
914.458	15211.4
919.69	15252.4
924.916	15287.4
930.136	15367.4
935.351	15347.4
940.561	15334.4
945.766	15301.4
950.965	15233.4
956.158	15156.4
961.347	14909.4
966.529	14730.4
971.707	14550.4
976.879	14401.4
982.046	14263.4
987.208	14182.4
992.364	14251.4
997.515	14294.4
1002.66	14405.4
1007.801	14542.4
1012.936	14719.4
1018.066	14730.4
1023.19	14674.4
1028.309	14733.4
1033.423	14633.4
1038.532	14578.4
1043.636	14469.4
1048.734	14276.4
1053.827	14100.4
1058.915	13892.4
1063.998	13809.4
1069.075	13768.4
1074.147	13788.4
1079.214	13841.4
1084.276	13928.4
1089.333	14000.4
1094.385	14182.4
1099.431	14296.4
1104.472	14190.4
1109.509	14067.4
1114.54	13889.4
1119.565	13654.4
1124.586	13519.4
1129.602	13392.4
1134.613	13282.4
1139.618	13182.4
1144.619	13166.4
1149.614	13149.4
1154.604	13175.4
1159.589	13202.4
1164.57	13228.4
1169.545	13264.4
1174.515	13248.4
1179.48	13190.4
1184.44	13106.4
1189.395	12955.4
1194.345	12934.4
1199.29	12840.4
1204.23	12807.4
1209.165	12920.4
1214.095	12930.4
1219.021	13023.4
1223.941	13017.4
1228.856	13134.4
1233.766	13204.4
1238.672	13213.4
1243.572	13226.4
1248.467	13120.4
1253.358	12927.4
1258.244	12761.4
1263.124	12523.4
1268	12381.4
1272.871	12245.4
1277.737	12154.4
1282.599	12117.4
1287.455	12082.4
1292.306	12100.4
1297.153	12135.4
1301.995	12154.4
1306.832	12220.4
1311.664	12250.4
1316.491	12246.4
1321.314	12087.4
1326.132	11933.4
1330.945	11645.4
1335.753	11395.4
1340.556	11126.4
1345.354	10913.4
1350.148	10738.4
1354.937	10661.4
1359.722	10639.4
1364.501	10708.4
1369.276	10794.4
1374.046	10988.4
1378.811	11134.4
1383.572	11222.4
1388.327	11260.4
1393.079	11175.4
1397.825	11061.4
1402.567	10930.4
1407.304	10776.4
1412.036	10633.4
1416.764	10538.4
1421.487	10516.4
1426.205	10433.4
1430.919	10382.4
1435.628	10362.4
1440.333	10434.4
1445.032	10410.4
1449.727	10489.4
1454.418	10468.4
1459.104	10350.4
1463.785	10202.4
1468.462	9967.4
1473.134	9770.4
1477.802	9560.4
1482.465	9426.4
1487.123	9307.4
1491.777	9365.4
1496.426	9400.4
1501.071	9459.4
1505.711	9638.4
1510.347	9763.4
1514.978	9967.4
1519.604	10104.4
1524.226	10223.4
1528.844	10230.4
1533.457	10168.4
1538.065	10173.4
1542.669	10007.4
1547.269	9974.4
1551.864	9875.4
1556.454	9841.4
1561.041	9855.4
1565.622	9835.4
1570.199	9846.4
1574.772	9901.4
1579.34	9970.4
1583.904	10019.4
1588.464	10046.4
1593.019	10061.4
1597.569	10036.4
1602.115	9949.4
1606.657	9908.4
1611.195	9836.4
1615.728	9790.4
1620.256	9771.4
1624.78	9775.4
1629.3	9798.4
1633.816	9849.4
1638.327	9864.4
1642.834	10009.4
1647.336	10011.4
1651.834	10057.4
1656.328	9975.4
1660.817	9982.4
1665.302	9858.4
1669.783	9682.4
1674.259	9485.4
1678.732	9207.4
1683.199	8895.4
1687.663	8661.4
1692.122	8326.4
1696.577	8250.4
1701.028	8223.4
1705.474	8290.4
1709.917	8329.4
1714.355	8311.4
1718.788	8249.4
1723.218	8168.4
1727.643	7955.4
1732.064	7845.4
1736.481	7654.4
1740.893	7419.4
1745.301	7235.4
1749.705	7042.4
1754.105	6846.4
1758.501	6616.4
1762.893	6437.4
1767.28	6300.4
1771.663	6135.4
1776.042	6060.4
1780.417	6005.4
1784.787	6019.4
1789.154	6102.4
1793.516	6200.4
1797.874	6344.4
1802.228	6451.4
1806.578	6527.4
1810.924	6502.4
1815.266	6421.4
1819.603	6328.4
1823.937	6239.4
1828.266	6108.4
1832.591	6034.4
1836.913	5907.4
1841.23	5867.4
1845.543	5812.4
1849.852	5769.4
1854.156	5775.4
1858.457	5732.4
1862.754	5789.4
1867.047	5753.4
1871.335	5738.4
1875.62	5723.4
1879.9	5688.4
1884.177	5668.4
1888.449	5615.4
1892.718	5580.4
1896.982	5554.4
1901.243	5496.4
1905.499	5429.4
1909.752	5417.4
1914	5456.4
1918.245	5454.4
1922.485	5527.4
1926.722	5610.4
1930.954	5649.4
1935.183	5728.4
1939.408	5794.4
1943.628	5839.4
1947.845	5813.4
1952.058	5804.4
1956.267	5753.4
1960.472	5656.4
1964.673	5584.4
1968.87	5505.4
1973.063	5402.4
1977.252	5329.4
1981.438	5247.4
1985.619	5184.4
1989.797	5153.4
1993.971	5124.4
1998.14	5109.4
2002.306	5057.4
2006.469	5034.4
2010.627	5016.4
2014.781	4995.4
2018.932	4931.4
2023.078	4897.4
2027.221	4834.4
2031.36	4779.4
2035.495	4706.4
2039.627	4615.4
2043.754	4581.4
2047.878	4543.4
2051.998	4487.4
2056.114	4510.4
2060.226	4514.4
2064.334	4517.4
2068.439	4525.4
2072.54	4547.4
2076.637	4591.4
2080.73	4655.4
2084.82	4642.4
2088.906	4636.4
2092.988	4666.4
2097.066	4660.4
2101.14	4664.4
2105.211	4636.4
2109.278	4579.4
2113.342	4557.4
2117.401	4525.4
2121.457	4484.4
2125.509	4468.4
2129.558	4413.4
2133.602	4404.4
2137.643	4375.4
2141.681	4381.4
2145.714	4330.4
2149.744	4287.4
2153.77	4251.4
2157.793	4221.4
2161.812	4150.4
2165.827	4102.4
2169.838	4041.4
2173.846	3968.4
2177.851	3882.4
2181.851	3835.4
2185.848	3784.4
2189.841	3755.4
2193.831	3708.4
2197.817	3679.4
2201.799	3673.4
2205.778	3640.4
2209.753	3619.4
2213.725	3612.4
2217.693	3596.4
2221.657	3588.4
2225.618	3553.4
2229.575	3535.4
2233.529	3515.4
2237.479	3497.4
2241.425	3433.4
2245.368	3417.4
2249.307	3341.4
2253.243	3305.4
2257.175	3223.4
2261.104	3192.4
2265.029	3175.4
2268.95	3120.4
2272.868	3117.4
2276.783	3061.4
2280.694	3016.4
2284.601	3019.4
2288.505	2981.4
2292.405	2919.4
2296.302	2897.4
2300.195	2864.4
2304.085	2840.4
2307.971	2795.4
2311.854	2761.4
2315.734	2708.4
2319.609	2647.4
2323.482	2630.4
2327.351	2588.4
2331.216	2601.4
2335.078	2573.4
2338.937	2552.4
2342.792	2501.4
2346.643	2516.4
2350.492	2527.4
2354.336	2514.4
2358.178	2538.4
2362.015	2516.4
2365.85	2524.4
2369.681	2519.4
2373.508	2545.4
2377.333	2541.4
2381.153	2542.4
2384.971	2505.4
2388.785	2464.4
2392.595	2434.4
2396.402	2443.4
2400.206	2439.4
2404.007	2390.4
2407.804	2396.4
2411.597	2369.4
2415.388	2364.4
2419.174	2315.4
2422.958	2320.4
2426.738	2289.4
2430.515	2289.4
2434.289	2254.4
2438.059	2218.4
2441.825	2207.4
2445.589	2190.4
2449.349	2183.4
2453.106	2132.4
2456.859	2142.4
2460.61	2102.4
2464.356	2070.4
2468.1	2050.4
2471.84	2031.4
2475.577	2026.4
2479.311	1999.4
2483.041	1978.4
2486.768	1977.4
2490.492	1945.4
2494.213	1958.4
2497.93	1960.4
2501.644	1961.4
2505.355	1941.4
2509.062	1935.4
2512.766	1927.4
2516.467	1927.4
2520.165	1918.4
2523.859	1900.4
2527.551	1876.4
2531.239	1877.4
2534.923	1869.4
2538.605	1842.4
2542.283	1840.4
2545.958	1818.4
2549.63	1836.4
2553.299	1839.4
2556.964	1808.4
2560.626	1823.4
2564.285	1795.4
2567.941	1802.4
2571.594	1783.4
2575.243	1786.4
2578.89	1772.4
2582.533	1741.4
2586.173	1748.4
2589.809	1718.4
2593.443	1725.4
2597.073	1690.4
2600.701	1690.4
2604.325	1654.4
2607.946	1661.4
2611.564	1630.4
2615.178	1630.4
2618.79	1636.4
2622.398	1605.4
2626.004	1591.4
2629.606	1536.4
2633.205	1530.4
2636.801	1520.4
2640.394	1507.4
2643.983	1464.4
2647.57	1461.4
2651.153	1429.4
2654.734	1409.4
2658.311	1391.4
2661.885	1360.4
2665.456	1340.4
2669.025	1317.4
2672.589	1309.4
2676.151	1304.4
2679.71	1284.4
2683.266	1264.4
2686.819	1240.4
2690.368	1190.4
2693.915	1197.4
2697.458	1163.4
2700.999	1138.4
2704.536	1111.4
2708.071	1081.4
2711.602	1057.4
2715.13	1035.4
2718.656	1006.4
2722.178	1002.4
2725.697	1001.4
2729.214	968.4
2732.727	983.4
2736.237	977.4
2739.744	975.4
2743.249	975.4
2746.75	993.4
2750.248	996.4
2753.743	992.4
2757.236	1026.4
2760.725	1014.4
2764.211	1028.4
2767.695	1061.4
2771.175	1018.4
2774.652	1030.4
2778.127	1016.4
2781.598	1003.4
2785.067	1007.4
2788.532	1002.4
2791.995	1002.4
2795.455	1016.4
2798.911	1006.4
2802.365	992.4
2805.816	1027.4
2809.264	998.4
2812.709	1023.4
2816.151	997.4
2819.59	1015.4
2823.026	1005.4
2826.46	1001.4
2829.89	1022.4
2833.318	1003.4
2836.742	1021.4
2840.164	1030.4
2843.583	1038.4
2846.999	1050.4
2850.412	1057.4
2853.822	1068.4
2857.229	1110.4
2860.634	1102.4
2864.035	1126.4
2867.434	1147.4
2870.83	1158.4
2874.223	1183.4
2877.613	1186.4
2881	1229.4
2884.385	1208.4
2887.766	1231.4
2891.145	1234.4
2894.521	1222.4
2897.894	1237.4
2901.264	1234.4
2904.631	1237.4
2907.996	1248.4
2911.358	1248.4
2914.717	1242.4
2918.073	1277.4
2921.426	1289.4
2924.777	1294.4
2928.124	1296.4
2931.469	1344.4
2934.811	1376.4
2938.15	1392.4
2941.487	1385.4
2944.821	1392.4
2948.152	1405.4
2951.48	1399.4
2954.805	1407.4
2958.128	1357.4
2961.447	1363.4
2964.765	1375.4
2968.079	1372.4
2971.39	1399.4
2974.699	1412.4
2978.005	1434.4
2981.308	1472.4
2984.609	1500.4
2987.907	1512.4
2991.202	1534.4
2994.494	1580.4
2997.784	1618.4
3001.07	1646.4
3004.355	1650.4
3007.636	1703.4
3010.915	1718.4
3014.191	1724.4
3017.464	1746.4
3020.734	1774.4
3024.002	1768.4
3027.267	1769.4
3030.53	1785.4
3033.789	1817.4
3037.046	1825.4
3040.301	1847.4
3043.552	1917.4
3046.801	1912.4
3050.048	1975.4
3053.291	2027.4
3056.532	2087.4
3059.771	2139.4
3063.006	2219.4
3066.239	2261.4
3069.469	2328.4
3072.697	2395.4
3075.922	2454.4
3079.144	2531.4
3082.364	2595.4
3085.581	2619.4
3088.795	2704.4
3092.007	2757.4
3095.216	2795.4
3098.423	2866.4
3101.627	2937.4
3104.828	3020.4
3108.026	3081.4
3111.222	3136.4
3114.416	3188.4
3117.607	3303.4
3120.795	3355.4
3123.98	3412.4
3127.163	3517.4
3130.344	3625.4
3133.521	3698.4
3136.696	3786.4
3139.869	3853.4
3143.039	3939.4
3146.206	3980.4
3149.371	4013.4
3152.533	4068.4
3155.693	4090.4
3158.85	4119.4
3162.005	4150.4
3165.157	4171.4
3168.306	4143.4
3171.453	4179.4
3174.597	4168.4
3177.739	4176.4
3180.878	4220.4
3184.014	4196.4
3187.149	4223.4
3190.28	4211.4
3193.409	4203.4
3196.536	4221.4
3199.659	4240.4
3202.781	4243.4
3205.9	4246.4
3209.016	4230.4
3212.13	4213.4
3215.241	4185.4
3218.35	4157.4
3221.456	4129.4
3224.56	4076.4
3227.661	4068.4
3230.76	3998.4
3233.856	3991.4
3236.95	3888.4
3240.041	3900.4
3243.13	3854.4
3246.216	3866.4
3249.3	3830.4
3252.382	3840.4
3255.46	3819.4
3258.537	3826.4
3261.611	3797.4
3264.682	3807.4
3267.751	3791.4
3270.818	3772.4
3273.882	3765.4
3276.943	3776.4
3280.002	3720.4
3283.059	3698.4
3286.113	3644.4
3289.165	3598.4
3292.214	3529.4
3295.261	3489.4
3298.306	3398.4
3301.348	3377.4
3304.387	3321.4
3307.425	3274.4
3310.459	3188.4
3313.492	3161.4
3316.521	3125.4
3319.549	3091.4
3322.574	3044.4
3325.597	3034.4
3328.617	3009.4
3331.635	2989.4
3334.65	2966.4
3337.663	2942.4
3340.674	2907.4
3343.682	2909.4
3346.688	2911.4
3349.691	2895.4
3352.692	2878.4
3355.691	2842.4
3358.687	2842.4
3361.681	2802.4
3364.673	2761.4
3367.662	2705.4
3370.649	2701.4
3373.633	2654.4
3376.615	2624.4
3379.595	2558.4
3382.572	2531.4
3385.547	2501.4
3388.52	2476.4
3391.49	2438.4
3394.458	2392.4
3397.424	2343.4
3400.387	2333.4
3403.348	2321.4
3406.307	2251.4
3409.263	2257.4
3412.217	2245.4
3415.168	2203.4
3418.118	2175.4
3421.065	2141.4
3424.009	2107.4
3426.951	2089.4
3429.891	2068.4
3432.829	2016.4
3435.764	1984.4
3438.697	1906.4
3441.628	1863.4
3444.557	1812.4
3447.483	1724.4
3450.407	1694.4
3453.328	1649.4
3456.247	1608.4
3459.164	1522.4
3462.079	1480.4
3464.991	1436.4
3467.902	1361.4
3470.809	1338.4
3473.715	1275.4
3476.618	1259.4
3479.519	1182.4
3482.418	1152.4
3485.315	1125.4
3488.209	1080.4
3491.101	1046.4
3493.99	1006.4
3496.878	961.4
3499.763	931.4
3502.646	897.4
3505.527	857.4
3508.405	823.4
3511.281	769.4
3514.155	747.4
3517.027	702.4
3519.897	652.4
3522.764	603.4
3525.629	580.4
3528.492	521.4
3531.352	473.4
3534.211	443.4
3537.067	403.4
3539.921	346.4
3542.773	332.4
3545.622	299.4
3548.469	260.4
3551.315	248.4
3554.157	210.4
3556.998	168.4
3559.837	147.4
3562.673	128.4
3565.507	102.4
3568.339	73.4
3571.169	57.4
3573.996	31.4
3576.822	22.4
3579.645	-5.6
3582.466	-24.6
3585.285	-49.6
3588.101	-72.6
3590.916	-94.6
3593.728	-116.6
3596.538	-127.6
3599.346	-147.6
3602.152	-164.6
3604.956	-181.6
3607.757	-201.6
3610.556	-221.6
3613.354	-229.6
3616.149	-242.6
3618.942	-257.6
3621.732	-281.6
3624.521	-276.6
3627.307	-290.6
3630.092	-305.6
3632.874	-318.6
3635.654	-327.6
3638.432	-332.6
3641.208	-344.6
3643.982	-360.6
3646.753	-369.6
3649.523	-378.6
3652.29	-376.6
3655.055	-390.6
3657.818	-404.6
3660.579	-415.6
3663.338	-426.6
3666.095	-434.6
3668.849	-446.6
3671.602	-453.6
3674.352	-466.6
3677.101	-462.6
3679.847	-467.6
3682.591	-487.6
3685.333	-491.6
3688.073	-494.6
3690.811	-501.6
3693.547	-512.6
3696.281	-513.6
3699.013	-520.6
3701.742	-514.6
3704.47	-524.6
3707.195	-535.6
3709.919	-533.6
3712.64	-540.6
3715.359	-544.6
3718.076	-543.6
3720.792	-542.6
3723.505	-548.6
3726.216	-563.6
3728.925	-559.6
3731.632	-566.6
3734.336	-565.6
3737.039	-570.6
3739.74	-570.6
3742.439	-573.6
3745.136	-578.6
3747.83	-584.6
3750.523	-581.6
3753.213	-570.6
3755.902	-583.6
3758.589	-585.6
3761.273	-591.6
3763.956	-586.6
3766.636	-596.6
3769.315	-596.6
3771.991	-595.6
3774.665	-604.6
3777.338	-600.6
3780.008	-601.6
3782.677	-608.6
3785.343	-600.6
3788.007	-609.6
3790.67	-606.6
3793.33	-611.6
3795.989	-609.6
3798.645	-609.6
3801.299	-609.6
3803.952	-619.6
3806.602	-621.6
3809.251	-618.6
3811.897	-617.6
3814.542	-615.6
3817.184	-614.6
3819.825	-613.6
3822.463	-613.6
3825.1	-615.6
3827.735	-617.6
3830.367	-618.6
3832.998	-629.6
3835.627	-626.6
3838.253	-625.6
3840.878	-630.6
3843.501	-624.6
3846.122	-621.6
3848.741	-628.6
3851.358	-626.6
3853.973	-626.6
3856.586	-623.6
3859.197	-634.6
3861.806	-631.6
3864.414	-630.6
3867.019	-630.6
3869.622	-628.6
3872.224	-626.6
3874.823	-610.6
3877.421	-593.6
3880.016	-580.6
3882.61	-557.6
3885.202	-554.6
3887.792	-565.6
3890.38	-599.6
3892.966	-617.6
3895.55	-626.6
3898.132	-645.6
3900.713	-643.6
3903.291	-636.6
3905.868	-642.6
3908.442	-639.6
3911.015	-643.6
3913.586	-645.6
3916.155	-640.6
3918.722	-644.6
3921.287	-642.6
3923.85	-646.6
3926.411	-642.6
3928.971	-653.6
3931.528	-646.6
3934.084	-643.6
3936.638	-639.6
3939.19	-646.6
3941.74	-641.6
3944.288	-644.6
3946.834	-642.6
3949.378	-650.6
3951.921	-653.6
3954.462	-655.6
3957	-644.6
3959.537	-647.6
3962.072	-646.6
3964.606	-649.6
3967.137	-647.6
3969.667	-648.6
3972.194	-638.6
3974.72	-644.6
3977.244	-629.6
3979.766	-629.6
3982.286	-635.6
3984.805	-636.6
3987.321	-634.6
3989.836	-632.6
3992.349	-628.6
3994.86	-626.6
3997.369	-631.6
3999.877	-630.6
4002.382	-631.6
4004.886	-631.6
4007.388	-626.6
4009.888	-628.6
4012.386	-636.6
4014.883	-628.6
4017.377	-631.6
4019.87	-624.6
4022.361	-629.6
4024.85	-629.6
4027.338	-636.6
4029.823	-634.6
4032.307	-633.6
4034.789	-630.6
4037.269	-627.6
4039.747	-632.6
4042.224	-643.6
4044.699	-637.6
4047.172	-631.6
4049.643	-642.6
4052.112	-639.6
4054.58	-640.6
4057.046	-634.6
4059.51	-638.6
4061.972	-635.6
4064.432	-639.6
4066.891	-634.6
4069.348	-636.6
4071.803	-627.6
4074.256	-634.6
4076.708	-631.6
4079.158	-629.6
4081.606	-638.6
4084.052	-639.6
4086.497	-638.6
4088.939	-633.6
4091.38	-636.6
4093.819	-634.6
4096.257	-669.6
4098.693	-669.6
4101.127	-671.6
4103.559	-664.6
4105.989	-386.6
4108.418	-355.6
4110.845	-344.6
4113.27	-307.6
4115.694	-274.6
4118.115	-242.6
4120.535	-635.6
4122.954	-631.6
4125.37	-627.6
4127.785	-633.6
4130.198	-634.6
4132.609	-636.6
4135.019	-668.6
4137.427	-669.6
4139.833	-669.6
4142.237	-667.6
