Data from 2018-2-14_conc=3_n=3_RamanShift_01.txt Node
Date: Wed Feb 14 11:48:26 IST 2018
User: aro
Spectrometer: QEPB0276
Trigger mode: 0
Integration Time (sec): 3.000000E1
Scans to average: 1
Electric dark correction enabled: true
Nonlinearity correction enabled: false
Boxcar width: 0
XAxis mode: Raman Shifts
Number of Pixels in Spectrum: 1044
>>>>>Begin Spectral Data<<<<<
160.701	-149.9
166.742	43.1
172.777	636.1
178.805	2398.1
184.826	6666.1
190.841	14005.1
196.849	22564.1
202.85	28588.1
208.845	30603.1
214.833	30243.1
220.815	29786.1
226.789	29532.1
232.758	29499.1
238.719	29238.1
244.674	28828.1
250.623	28350.1
256.565	27796.1
262.5	27229.1
268.429	26714.1
274.351	26327.1
280.267	25933.1
286.176	25657.1
292.079	25400.1
297.975	25185.1
303.865	25011.1
309.748	24804.1
315.625	24623.1
321.495	24541.1
327.359	24457.1
333.217	24377.1
339.068	24321.1
344.912	24344.1
350.751	24297.1
356.583	24262.1
362.408	24230.1
368.227	24178.1
374.04	24254.1
379.847	24320.1
385.647	24460.1
391.44	24548.1
397.228	24581.1
403.009	24714.1
408.784	24722.1
414.553	24840.1
420.315	24935.1
426.071	24920.1
431.821	24909.1
437.565	24863.1
443.302	24915.1
449.033	24810.1
454.758	24783.1
460.477	24724.1
466.189	24644.1
471.896	24576.1
477.596	24488.1
483.29	24500.1
488.978	24450.1
494.66	24323.1
500.335	24298.1
506.005	24065.1
511.668	23754.1
517.325	23468.1
522.977	23256.1
528.622	23040.1
534.261	22993.1
539.894	22842.1
545.521	22654.1
551.141	22644.1
556.756	22576.1
562.365	22532.1
567.968	22362.1
573.565	22334.1
579.155	22287.1
584.74	22177.1
590.319	22046.1
595.892	21931.1
601.459	21888.1
607.02	21763.1
612.575	21707.1
618.124	21506.1
623.667	21446.1
629.204	21322.1
634.735	21247.1
640.261	21079.1
645.781	21029.1
651.294	21009.1
656.802	20974.1
662.304	20910.1
667.8	20862.1
673.29	20856.1
678.775	20772.1
684.254	20716.1
689.726	20668.1
695.193	20598.1
700.655	20519.1
706.11	20416.1
711.56	20285.1
717.004	20192.1
722.442	20082.1
727.874	19993.1
733.301	19960.1
738.722	19835.1
744.137	19822.1
749.547	19885.1
754.951	19831.1
760.349	19851.1
765.741	19805.1
771.128	19817.1
776.509	19858.1
781.885	19813.1
787.254	19823.1
792.618	19715.1
797.977	19607.1
803.33	19401.1
808.677	19321.1
814.019	19193.1
819.355	19132.1
824.686	19036.1
830.011	18986.1
835.33	18949.1
840.644	18995.1
845.952	18999.1
851.255	19049.1
856.552	19009.1
861.844	18996.1
867.13	18991.1
872.41	18885.1
877.686	18789.1
882.955	18666.1
888.219	18476.1
893.478	18265.1
898.731	18026.1
903.979	17839.1
909.221	17702.1
914.458	17651.1
919.69	17636.1
924.916	17687.1
930.136	17769.1
935.351	17804.1
940.561	17794.1
945.766	17722.1
950.965	17603.1
956.158	17522.1
961.347	17336.1
966.529	17135.1
971.707	16862.1
976.879	16674.1
982.046	16518.1
987.208	16466.1
992.364	16513.1
997.515	16591.1
1002.66	16773.1
1007.801	16937.1
1012.936	17070.1
1018.066	17035.1
1023.19	17041.1
1028.309	17044.1
1033.423	16977.1
1038.532	16890.1
1043.636	16742.1
1048.734	16522.1
1053.827	16345.1
1058.915	16158.1
1063.998	16032.1
1069.075	15985.1
1074.147	15951.1
1079.214	16074.1
1084.276	16152.1
1089.333	16193.1
1094.385	16267.1
1099.431	16367.1
1104.472	16372.1
1109.509	16237.1
1114.54	16115.1
1119.565	15856.1
1124.586	15665.1
1129.602	15453.1
1134.613	15375.1
1139.618	15281.1
1144.619	15275.1
1149.614	15229.1
1154.604	15282.1
1159.589	15367.1
1164.57	15330.1
1169.545	15367.1
1174.515	15315.1
1179.48	15294.1
1184.44	15129.1
1189.395	15034.1
1194.345	14894.1
1199.29	14833.1
1204.23	14816.1
1209.165	14851.1
1214.095	14974.1
1219.021	15078.1
1223.941	15061.1
1228.856	15257.1
1233.766	15249.1
1238.672	15284.1
1243.572	15183.1
1248.467	15146.1
1253.358	14945.1
1258.244	14730.1
1263.124	14502.1
1268	14286.1
1272.871	14142.1
1277.737	14005.1
1282.599	13959.1
1287.455	13925.1
1292.306	13955.1
1297.153	14003.1
1301.995	14045.1
1306.832	14079.1
1311.664	14092.1
1316.491	14088.1
1321.314	13989.1
1326.132	13786.1
1330.945	13464.1
1335.753	13162.1
1340.556	12844.1
1345.354	12556.1
1350.148	12362.1
1354.937	12158.1
1359.722	12143.1
1364.501	12224.1
1369.276	12298.1
1374.046	12508.1
1378.811	12662.1
1383.572	12819.1
1388.327	12899.1
1393.079	12845.1
1397.825	12706.1
1402.567	12463.1
1407.304	12310.1
1412.036	12228.1
1416.764	12157.1
1421.487	12043.1
1426.205	11989.1
1430.919	11954.1
1435.628	11983.1
1440.333	11992.1
1445.032	11971.1
1449.727	12081.1
1454.418	12038.1
1459.104	11869.1
1463.785	11636.1
1468.462	11381.1
1473.134	11164.1
1477.802	10911.1
1482.465	10669.1
1487.123	10580.1
1491.777	10551.1
1496.426	10603.1
1501.071	10693.1
1505.711	10864.1
1510.347	11079.1
1514.978	11193.1
1519.604	11406.1
1524.226	11504.1
1528.844	11532.1
1533.457	11512.1
1538.065	11486.1
1542.669	11441.1
1547.269	11299.1
1551.864	11201.1
1556.454	11202.1
1561.041	11230.1
1565.622	11173.1
1570.199	11246.1
1574.772	11249.1
1579.34	11340.1
1583.904	11357.1
1588.464	11401.1
1593.019	11414.1
1597.569	11388.1
1602.115	11319.1
1606.657	11225.1
1611.195	11145.1
1615.728	11116.1
1620.256	11061.1
1624.78	11065.1
1629.3	11092.1
1633.816	11104.1
1638.327	11136.1
1642.834	11159.1
1647.336	11236.1
1651.834	11200.1
1656.328	11184.1
1660.817	11171.1
1665.302	11077.1
1669.783	10938.1
1674.259	10639.1
1678.732	10345.1
1683.199	9996.1
1687.663	9632.1
1692.122	9285.1
1696.577	9126.1
1701.028	9070.1
1705.474	9085.1
1709.917	9190.1
1714.355	9240.1
1718.788	9214.1
1723.218	9090.1
1727.643	8933.1
1732.064	8785.1
1736.481	8569.1
1740.893	8339.1
1745.301	8137.1
1749.705	7929.1
1754.105	7694.1
1758.501	7480.1
1762.893	7326.1
1767.28	7134.1
1771.663	6931.1
1776.042	6803.1
1780.417	6735.1
1784.787	6694.1
1789.154	6749.1
1793.516	6884.1
1797.874	6952.1
1802.228	7073.1
1806.578	7181.1
1810.924	7201.1
1815.266	7150.1
1819.603	7045.1
1823.937	6960.1
1828.266	6821.1
1832.591	6721.1
1836.913	6619.1
1841.23	6540.1
1845.543	6505.1
1849.852	6481.1
1854.156	6458.1
1858.457	6434.1
1862.754	6429.1
1867.047	6464.1
1871.335	6401.1
1875.62	6425.1
1879.9	6402.1
1884.177	6321.1
1888.449	6268.1
1892.718	6226.1
1896.982	6150.1
1901.243	6111.1
1905.499	6013.1
1909.752	6003.1
1914	5978.1
1918.245	5988.1
1922.485	6040.1
1926.722	6114.1
1930.954	6134.1
1935.183	6192.1
1939.408	6278.1
1943.628	6355.1
1947.845	6341.1
1952.058	6347.1
1956.267	6245.1
1960.472	6209.1
1964.673	6114.1
1968.87	6004.1
1973.063	5927.1
1977.252	5849.1
1981.438	5781.1
1985.619	5759.1
1989.797	5682.1
1993.971	5614.1
1998.14	5630.1
2002.306	5597.1
2006.469	5579.1
2010.627	5572.1
2014.781	5518.1
2018.932	5446.1
2023.078	5413.1
2027.221	5325.1
2031.36	5287.1
2035.495	5213.1
2039.627	5129.1
2043.754	5083.1
2047.878	4981.1
2051.998	4970.1
2056.114	4943.1
2060.226	4922.1
2064.334	4918.1
2068.439	4939.1
2072.54	4965.1
2076.637	4994.1
2080.73	5046.1
2084.82	5040.1
2088.906	5057.1
2092.988	5058.1
2097.066	5053.1
2101.14	5008.1
2105.211	5009.1
2109.278	4943.1
2113.342	4905.1
2117.401	4884.1
2121.457	4865.1
2125.509	4862.1
2129.558	4803.1
2133.602	4818.1
2137.643	4782.1
2141.681	4759.1
2145.714	4753.1
2149.744	4687.1
2153.77	4675.1
2157.793	4620.1
2161.812	4561.1
2165.827	4495.1
2169.838	4421.1
2173.846	4360.1
2177.851	4242.1
2181.851	4246.1
2185.848	4158.1
2189.841	4103.1
2193.831	4060.1
2197.817	4039.1
2201.799	4024.1
2205.778	3996.1
2209.753	3964.1
2213.725	3982.1
2217.693	3941.1
2221.657	3938.1
2225.618	3952.1
2229.575	3906.1
2233.529	3842.1
2237.479	3830.1
2241.425	3796.1
2245.368	3737.1
2249.307	3689.1
2253.243	3623.1
2257.175	3604.1
2261.104	3533.1
2265.029	3486.1
2268.95	3459.1
2272.868	3416.1
2276.783	3395.1
2280.694	3353.1
2284.601	3271.1
2288.505	3297.1
2292.405	3232.1
2296.302	3212.1
2300.195	3176.1
2304.085	3135.1
2307.971	3094.1
2311.854	3028.1
2315.734	3001.1
2319.609	2972.1
2323.482	2921.1
2327.351	2889.1
2331.216	2886.1
2335.078	2847.1
2338.937	2810.1
2342.792	2817.1
2346.643	2818.1
2350.492	2786.1
2354.336	2794.1
2358.178	2801.1
2362.015	2825.1
2365.85	2826.1
2369.681	2839.1
2373.508	2834.1
2377.333	2821.1
2381.153	2806.1
2384.971	2791.1
2388.785	2756.1
2392.595	2730.1
2396.402	2736.1
2400.206	2704.1
2404.007	2693.1
2407.804	2676.1
2411.597	2661.1
2415.388	2655.1
2419.174	2620.1
2422.958	2586.1
2426.738	2551.1
2430.515	2563.1
2434.289	2529.1
2438.059	2509.1
2441.825	2497.1
2445.589	2466.1
2449.349	2424.1
2453.106	2397.1
2456.859	2354.1
2460.61	2363.1
2464.356	2311.1
2468.1	2261.1
2471.84	2255.1
2475.577	2237.1
2479.311	2238.1
2483.041	2221.1
2486.768	2210.1
2490.492	2202.1
2494.213	2193.1
2497.93	2206.1
2501.644	2170.1
2505.355	2144.1
2509.062	2132.1
2512.766	2131.1
2516.467	2118.1
2520.165	2080.1
2523.859	2081.1
2527.551	2059.1
2531.239	2055.1
2534.923	2029.1
2538.605	2006.1
2542.283	2044.1
2545.958	2015.1
2549.63	2021.1
2553.299	2026.1
2556.964	1994.1
2560.626	1988.1
2564.285	1979.1
2567.941	1970.1
2571.594	1959.1
2575.243	1930.1
2578.89	1933.1
2582.533	1932.1
2586.173	1909.1
2589.809	1898.1
2593.443	1866.1
2597.073	1843.1
2600.701	1830.1
2604.325	1815.1
2607.946	1805.1
2611.564	1796.1
2615.178	1786.1
2618.79	1783.1
2622.398	1755.1
2626.004	1741.1
2629.606	1710.1
2633.205	1708.1
2636.801	1678.1
2640.394	1654.1
2643.983	1642.1
2647.57	1589.1
2651.153	1570.1
2654.734	1571.1
2658.311	1531.1
2661.885	1508.1
2665.456	1496.1
2669.025	1472.1
2672.589	1445.1
2676.151	1433.1
2679.71	1420.1
2683.266	1392.1
2686.819	1355.1
2690.368	1340.1
2693.915	1318.1
2697.458	1276.1
2700.999	1249.1
2704.536	1228.1
2708.071	1216.1
2711.602	1171.1
2715.13	1141.1
2718.656	1130.1
2722.178	1101.1
2725.697	1085.1
2729.214	1086.1
2732.727	1053.1
2736.237	1047.1
2739.744	1042.1
2743.249	1076.1
2746.75	1052.1
2750.248	1046.1
2753.743	1071.1
2757.236	1071.1
2760.725	1090.1
2764.211	1099.1
2767.695	1105.1
2771.175	1076.1
2774.652	1101.1
2778.127	1104.1
2781.598	1084.1
2785.067	1070.1
2788.532	1067.1
2791.995	1057.1
2795.455	1072.1
2798.911	1090.1
2802.365	1082.1
2805.816	1064.1
2809.264	1074.1
2812.709	1081.1
2816.151	1066.1
2819.59	1076.1
2823.026	1080.1
2826.46	1084.1
2829.89	1085.1
2833.318	1081.1
2836.742	1085.1
2840.164	1085.1
2843.583	1112.1
2846.999	1126.1
2850.412	1136.1
2853.822	1135.1
2857.229	1153.1
2860.634	1179.1
2864.035	1176.1
2867.434	1221.1
2870.83	1257.1
2874.223	1267.1
2877.613	1303.1
2881	1310.1
2884.385	1315.1
2887.766	1329.1
2891.145	1330.1
2894.521	1292.1
2897.894	1304.1
2901.264	1315.1
2904.631	1325.1
2907.996	1328.1
2911.358	1328.1
2914.717	1335.1
2918.073	1340.1
2921.426	1360.1
2924.777	1402.1
2928.124	1403.1
2931.469	1424.1
2934.811	1465.1
2938.15	1483.1
2941.487	1496.1
2944.821	1533.1
2948.152	1507.1
2951.48	1505.1
2954.805	1495.1
2958.128	1463.1
2961.447	1450.1
2964.765	1446.1
2968.079	1458.1
2971.39	1473.1
2974.699	1482.1
2978.005	1519.1
2981.308	1524.1
2984.609	1564.1
2987.907	1578.1
2991.202	1618.1
2994.494	1652.1
2997.784	1681.1
3001.07	1709.1
3004.355	1753.1
3007.636	1777.1
3010.915	1780.1
3014.191	1831.1
3017.464	1818.1
3020.734	1854.1
3024.002	1856.1
3027.267	1867.1
3030.53	1867.1
3033.789	1927.1
3037.046	1964.1
3040.301	1973.1
3043.552	2004.1
3046.801	2069.1
3050.048	2094.1
3053.291	2164.1
3056.532	2236.1
3059.771	2281.1
3063.006	2345.1
3066.239	2408.1
3069.469	2490.1
3072.697	2556.1
3075.922	2638.1
3079.144	2669.1
3082.364	2743.1
3085.581	2793.1
3088.795	2855.1
3092.007	2902.1
3095.216	3001.1
3098.423	3074.1
3101.627	3139.1
3104.828	3190.1
3108.026	3235.1
3111.222	3334.1
3114.416	3405.1
3117.607	3487.1
3120.795	3600.1
3123.98	3676.1
3127.163	3749.1
3130.344	3843.1
3133.521	3937.1
3136.696	4054.1
3139.869	4115.1
3143.039	4193.1
3146.206	4217.1
3149.371	4261.1
3152.533	4347.1
3155.693	4346.1
3158.85	4384.1
3162.005	4399.1
3165.157	4421.1
3168.306	4450.1
3171.453	4441.1
3174.597	4441.1
3177.739	4447.1
3180.878	4454.1
3184.014	4468.1
3187.149	4482.1
3190.28	4471.1
3193.409	4476.1
3196.536	4450.1
3199.659	4508.1
3202.781	4499.1
3205.9	4492.1
3209.016	4487.1
3212.13	4464.1
3215.241	4447.1
3218.35	4403.1
3221.456	4354.1
3224.56	4282.1
3227.661	4237.1
3230.76	4203.1
3233.856	4156.1
3236.95	4119.1
3240.041	4083.1
3243.13	4061.1
3246.216	4027.1
3249.3	4035.1
3252.382	4001.1
3255.46	3986.1
3258.537	3987.1
3261.611	3963.1
3264.682	3953.1
3267.751	3950.1
3270.818	3957.1
3273.882	3944.1
3276.943	3934.1
3280.002	3896.1
3283.059	3843.1
3286.113	3820.1
3289.165	3751.1
3292.214	3718.1
3295.261	3633.1
3298.306	3585.1
3301.348	3493.1
3304.387	3469.1
3307.425	3432.1
3310.459	3345.1
3313.492	3329.1
3316.521	3289.1
3319.549	3260.1
3322.574	3195.1
3325.597	3182.1
3328.617	3138.1
3331.635	3122.1
3334.65	3102.1
3337.663	3099.1
3340.674	3079.1
3343.682	3054.1
3346.688	3059.1
3349.691	3036.1
3352.692	3025.1
3355.691	3009.1
3358.687	2983.1
3361.681	2946.1
3364.673	2894.1
3367.662	2848.1
3370.649	2816.1
3373.633	2793.1
3376.615	2731.1
3379.595	2692.1
3382.572	2666.1
3385.547	2636.1
3388.52	2569.1
3391.49	2552.1
3394.458	2519.1
3397.424	2464.1
3400.387	2440.1
3403.348	2395.1
3406.307	2376.1
3409.263	2354.1
3412.217	2329.1
3415.168	2292.1
3418.118	2285.1
3421.065	2233.1
3424.009	2209.1
3426.951	2172.1
3429.891	2128.1
3432.829	2091.1
3435.764	2040.1
3438.697	1985.1
3441.628	1929.1
3444.557	1877.1
3447.483	1834.1
3450.407	1766.1
3453.328	1702.1
3456.247	1636.1
3459.164	1589.1
3462.079	1527.1
3464.991	1467.1
3467.902	1425.1
3470.809	1375.1
3473.715	1305.1
3476.618	1277.1
3479.519	1237.1
3482.418	1190.1
3485.315	1149.1
3488.209	1087.1
3491.101	1052.1
3493.99	1015.1
3496.878	980.1
3499.763	943.1
3502.646	911.1
3505.527	862.1
3508.405	826.1
3511.281	765.1
3514.155	740.1
3517.027	697.1
3519.897	648.1
3522.764	591.1
3525.629	553.1
3528.492	499.1
3531.352	464.1
3534.211	432.1
3537.067	374.1
3539.921	342.1
3542.773	295.1
3545.622	260.1
3548.469	240.1
3551.315	206.1
3554.157	174.1
3556.998	148.1
3559.837	128.1
3562.673	88.1
3565.507	73.1
3568.339	52.1
3571.169	35.1
3573.996	1.1
3576.822	-23.9
3579.645	-46.9
3582.466	-76.9
3585.285	-81.9
3588.101	-114.9
3590.916	-129.9
3593.728	-160.9
3596.538	-178.9
3599.346	-200.9
3602.152	-211.9
3604.956	-221.9
3607.757	-242.9
3610.556	-256.9
3613.354	-277.9
3616.149	-286.9
3618.942	-294.9
3621.732	-310.9
3624.521	-327.9
3627.307	-338.9
3630.092	-356.9
3632.874	-362.9
3635.654	-369.9
3638.432	-387.9
3641.208	-394.9
3643.982	-407.9
3646.753	-409.9
3649.523	-421.9
3652.29	-426.9
3655.055	-440.9
3657.818	-456.9
3660.579	-466.9
3663.338	-482.9
3666.095	-485.9
3668.849	-498.9
3671.602	-502.9
3674.352	-505.9
3677.101	-518.9
3679.847	-535.9
3682.591	-528.9
3685.333	-544.9
3688.073	-547.9
3690.811	-556.9
3693.547	-562.9
3696.281	-566.9
3699.013	-575.9
3701.742	-574.9
3704.47	-578.9
3707.195	-589.9
3709.919	-590.9
3712.64	-591.9
3715.359	-591.9
3718.076	-606.9
3720.792	-608.9
3723.505	-605.9
3726.216	-614.9
3728.925	-611.9
3731.632	-620.9
3734.336	-622.9
3737.039	-623.9
3739.74	-629.9
3742.439	-624.9
3745.136	-637.9
3747.83	-638.9
3750.523	-632.9
3753.213	-618.9
3755.902	-643.9
3758.589	-643.9
3761.273	-651.9
3763.956	-651.9
3766.636	-658.9
3769.315	-657.9
3771.991	-658.9
3774.665	-663.9
3777.338	-655.9
3780.008	-661.9
3782.677	-665.9
3785.343	-654.9
3788.007	-655.9
3790.67	-663.9
3793.33	-662.9
3795.989	-666.9
3798.645	-662.9
3801.299	-667.9
3803.952	-670.9
3806.602	-680.9
3809.251	-685.9
3811.897	-671.9
3814.542	-676.9
3817.184	-672.9
3819.825	-669.9
3822.463	-670.9
3825.1	-679.9
3827.735	-673.9
3830.367	-673.9
3832.998	-680.9
3835.627	-685.9
3838.253	-689.9
3840.878	-691.9
3843.501	-683.9
3846.122	-681.9
3848.741	-679.9
3851.358	-683.9
3853.973	-679.9
3856.586	-683.9
3859.197	-687.9
3861.806	-691.9
3864.414	-684.9
3867.019	-687.9
3869.622	-688.9
3872.224	-683.9
3874.823	-670.9
3877.421	-652.9
3880.016	-639.9
3882.61	-621.9
3885.202	-622.9
3887.792	-628.9
3890.38	-659.9
3892.966	-678.9
3895.55	-693.9
3898.132	-704.9
3900.713	-702.9
3903.291	-704.9
3905.868	-701.9
3908.442	-705.9
3911.015	-706.9
3913.586	-698.9
3916.155	-694.9
3918.722	-702.9
3921.287	-702.9
3923.85	-705.9
3926.411	-701.9
3928.971	-715.9
3931.528	-704.9
3934.084	-708.9
3936.638	-706.9
3939.19	-708.9
3941.74	-708.9
3944.288	-708.9
3946.834	-705.9
3949.378	-710.9
3951.921	-707.9
3954.462	-712.9
3957	-703.9
3959.537	-702.9
3962.072	-698.9
3964.606	-701.9
3967.137	-697.9
3969.667	-706.9
3972.194	-693.9
3974.72	-702.9
3977.244	-689.9
3979.766	-690.9
3982.286	-693.9
3984.805	-694.9
3987.321	-693.9
3989.836	-696.9
3992.349	-686.9
3994.86	-688.9
3997.369	-699.9
3999.877	-686.9
4002.382	-685.9
4004.886	-688.9
4007.388	-686.9
4009.888	-684.9
4012.386	-689.9
4014.883	-685.9
4017.377	-685.9
4019.87	-680.9
4022.361	-690.9
4024.85	-690.9
4027.338	-687.9
4029.823	-689.9
4032.307	-690.9
4034.789	-691.9
4037.269	-690.9
4039.747	-694.9
4042.224	-694.9
4044.699	-696.9
4047.172	-693.9
4049.643	-695.9
4052.112	-699.9
4054.58	-694.9
4057.046	-697.9
4059.51	-695.9
4061.972	-702.9
4064.432	-698.9
4066.891	-693.9
4069.348	-690.9
4071.803	-687.9
4074.256	-690.9
4076.708	-686.9
4079.158	-694.9
4081.606	-693.9
4084.052	-693.9
4086.497	-692.9
4088.939	-682.9
4091.38	-698.9
4093.819	-685.9
4096.257	-729.9
4098.693	-733.9
4101.127	-734.9
4103.559	-731.9
4105.989	-421.9
4108.418	-387.9
4110.845	-372.9
4113.27	-339.9
4115.694	-299.9
4118.115	-248.9
4120.535	-692.9
4122.954	-688.9
4125.37	-681.9
4127.785	-687.9
4130.198	-693.9
4132.609	-699.9
4135.019	-729.9
4137.427	-733.9
4139.833	-737.9
4142.237	-725.9
