Data from 2018-2-14_conc=4_n=1_RamanShift_06.txt Node
Date: Wed Feb 14 13:26:55 IST 2018
User: aro
Spectrometer: QEPB0276
Trigger mode: 0
Integration Time (sec): 3.000000E1
Scans to average: 1
Electric dark correction enabled: true
Nonlinearity correction enabled: false
Boxcar width: 0
XAxis mode: Raman Shifts
Number of Pixels in Spectrum: 1044
>>>>>Begin Spectral Data<<<<<
160.701	-161.4
166.742	41.6
172.777	598.6
178.805	2314.6
184.826	6398.6
190.841	13324.6
196.849	21273.6
202.85	26652.6
208.845	28417.6
214.833	28074.6
220.815	27544.6
226.789	27335.6
232.758	27175.6
238.719	26943.6
244.674	26531.6
250.623	25981.6
256.565	25492.6
262.5	24853.6
268.429	24373.6
274.351	23941.6
280.267	23661.6
286.176	23376.6
292.079	23117.6
297.975	22900.6
303.865	22652.6
309.748	22435.6
315.625	22343.6
321.495	22172.6
327.359	22114.6
333.217	22039.6
339.068	21983.6
344.912	21993.6
350.751	22014.6
356.583	21935.6
362.408	21993.6
368.227	21930.6
374.04	21960.6
379.847	22052.6
385.647	22109.6
391.44	22235.6
397.228	22268.6
403.009	22398.6
408.784	22445.6
414.553	22529.6
420.315	22605.6
426.071	22593.6
431.821	22584.6
437.565	22495.6
443.302	22534.6
449.033	22469.6
454.758	22396.6
460.477	22420.6
466.189	22349.6
471.896	22226.6
477.596	22189.6
483.29	22185.6
488.978	22194.6
494.66	22057.6
500.335	21912.6
506.005	21701.6
511.668	21437.6
517.325	21141.6
522.977	21011.6
528.622	20769.6
534.261	20648.6
539.894	20569.6
545.521	20520.6
551.141	20383.6
556.756	20349.6
562.365	20264.6
567.968	20192.6
573.565	20049.6
579.155	20018.6
584.74	19958.6
590.319	19858.6
595.892	19764.6
601.459	19723.6
607.02	19682.6
612.575	19531.6
618.124	19358.6
623.667	19341.6
629.204	19204.6
634.735	19097.6
640.261	19070.6
645.781	18922.6
651.294	18946.6
656.802	18929.6
662.304	18894.6
667.8	18812.6
673.29	18805.6
678.775	18765.6
684.254	18730.6
689.726	18603.6
695.193	18606.6
700.655	18463.6
706.11	18393.6
711.56	18352.6
717.004	18230.6
722.442	18101.6
727.874	18013.6
733.301	17995.6
738.722	18027.6
744.137	17876.6
749.547	17915.6
754.951	17961.6
760.349	18011.6
765.741	17917.6
771.128	17965.6
776.509	17985.6
781.885	18018.6
787.254	17939.6
792.618	17786.6
797.977	17713.6
803.33	17638.6
808.677	17491.6
814.019	17418.6
819.355	17351.6
824.686	17284.6
830.011	17175.6
835.33	17234.6
840.644	17214.6
845.952	17286.6
851.255	17282.6
856.552	17330.6
861.844	17234.6
867.13	17250.6
872.41	17132.6
877.686	17024.6
882.955	16972.6
888.219	16787.6
893.478	16635.6
898.731	16442.6
903.979	16265.6
909.221	16109.6
914.458	16124.6
919.69	16011.6
924.916	16068.6
930.136	16121.6
935.351	16178.6
940.561	16165.6
945.766	16117.6
950.965	16066.6
956.158	15933.6
961.347	15754.6
966.529	15561.6
971.707	15383.6
976.879	15217.6
982.046	15070.6
987.208	15049.6
992.364	15041.6
997.515	15144.6
1002.66	15272.6
1007.801	15413.6
1012.936	15596.6
1018.066	15607.6
1023.19	15533.6
1028.309	15510.6
1033.423	15468.6
1038.532	15421.6
1043.636	15279.6
1048.734	15145.6
1053.827	14908.6
1058.915	14785.6
1063.998	14735.6
1069.075	14616.6
1074.147	14619.6
1079.214	14682.6
1084.276	14798.6
1089.333	14883.6
1094.385	14931.6
1099.431	14980.6
1104.472	15020.6
1109.509	14907.6
1114.54	14710.6
1119.565	14572.6
1124.586	14400.6
1129.602	14187.6
1134.613	14143.6
1139.618	14056.6
1144.619	13971.6
1149.614	14025.6
1154.604	14069.6
1159.589	14031.6
1164.57	14149.6
1169.545	14122.6
1174.515	14117.6
1179.48	14030.6
1184.44	14002.6
1189.395	13838.6
1194.345	13747.6
1199.29	13706.6
1204.23	13677.6
1209.165	13761.6
1214.095	13791.6
1219.021	13841.6
1223.941	13957.6
1228.856	14049.6
1233.766	14124.6
1238.672	14151.6
1243.572	14097.6
1248.467	13984.6
1253.358	13871.6
1258.244	13680.6
1263.124	13416.6
1268	13248.6
1272.871	13090.6
1277.737	12990.6
1282.599	12925.6
1287.455	12982.6
1292.306	12935.6
1297.153	13010.6
1301.995	13042.6
1306.832	13105.6
1311.664	13114.6
1316.491	13089.6
1321.314	12934.6
1326.132	12772.6
1330.945	12471.6
1335.753	12151.6
1340.556	11834.6
1345.354	11563.6
1350.148	11400.6
1354.937	11295.6
1359.722	11327.6
1364.501	11402.6
1369.276	11628.6
1374.046	11798.6
1378.811	11967.6
1383.572	12138.6
1388.327	12134.6
1393.079	12110.6
1397.825	11922.6
1402.567	11759.6
1407.304	11558.6
1412.036	11476.6
1416.764	11393.6
1421.487	11267.6
1426.205	11199.6
1430.919	11176.6
1435.628	11210.6
1440.333	11213.6
1445.032	11207.6
1449.727	11306.6
1454.418	11264.6
1459.104	11123.6
1463.785	10873.6
1468.462	10653.6
1473.134	10464.6
1477.802	10187.6
1482.465	10053.6
1487.123	9912.6
1491.777	9939.6
1496.426	9964.6
1501.071	10105.6
1505.711	10279.6
1510.347	10530.6
1514.978	10729.6
1519.604	10925.6
1524.226	11017.6
1528.844	10954.6
1533.457	10999.6
1538.065	10930.6
1542.669	10827.6
1547.269	10749.6
1551.864	10704.6
1556.454	10730.6
1561.041	10666.6
1565.622	10674.6
1570.199	10601.6
1574.772	10718.6
1579.34	10795.6
1583.904	10842.6
1588.464	10880.6
1593.019	10808.6
1597.569	10759.6
1602.115	10762.6
1606.657	10708.6
1611.195	10652.6
1615.728	10569.6
1620.256	10480.6
1624.78	10460.6
1629.3	10561.6
1633.816	10558.6
1638.327	10608.6
1642.834	10653.6
1647.336	10649.6
1651.834	10767.6
1656.328	10717.6
1660.817	10639.6
1665.302	10592.6
1669.783	10387.6
1674.259	10176.6
1678.732	9839.6
1683.199	9495.6
1687.663	9198.6
1692.122	8881.6
1696.577	8800.6
1701.028	8790.6
1705.474	8853.6
1709.917	8997.6
1714.355	8999.6
1718.788	8929.6
1723.218	8825.6
1727.643	8630.6
1732.064	8455.6
1736.481	8260.6
1740.893	8091.6
1745.301	7836.6
1749.705	7668.6
1754.105	7419.6
1758.501	7225.6
1762.893	7031.6
1767.28	6839.6
1771.663	6647.6
1776.042	6558.6
1780.417	6479.6
1784.787	6471.6
1789.154	6572.6
1793.516	6762.6
1797.874	6877.6
1802.228	7001.6
1806.578	7067.6
1810.924	7060.6
1815.266	6986.6
1819.603	6887.6
1823.937	6761.6
1828.266	6648.6
1832.591	6535.6
1836.913	6477.6
1841.23	6388.6
1845.543	6330.6
1849.852	6319.6
1854.156	6266.6
1858.457	6295.6
1862.754	6293.6
1867.047	6279.6
1871.335	6236.6
1875.62	6224.6
1879.9	6228.6
1884.177	6170.6
1888.449	6109.6
1892.718	6029.6
1896.982	5995.6
1901.243	5933.6
1905.499	5874.6
1909.752	5874.6
1914	5855.6
1918.245	5893.6
1922.485	5929.6
1926.722	5990.6
1930.954	6085.6
1935.183	6166.6
1939.408	6218.6
1943.628	6274.6
1947.845	6299.6
1952.058	6292.6
1956.267	6228.6
1960.472	6165.6
1964.673	6082.6
1968.87	5976.6
1973.063	5904.6
1977.252	5790.6
1981.438	5742.6
1985.619	5682.6
1989.797	5627.6
1993.971	5612.6
1998.14	5583.6
2002.306	5529.6
2006.469	5523.6
2010.627	5451.6
2014.781	5450.6
2018.932	5395.6
2023.078	5337.6
2027.221	5287.6
2031.36	5180.6
2035.495	5086.6
2039.627	5047.6
2043.754	4974.6
2047.878	4935.6
2051.998	4897.6
2056.114	4896.6
2060.226	4894.6
2064.334	4914.6
2068.439	4944.6
2072.54	4953.6
2076.637	4970.6
2080.73	4990.6
2084.82	5055.6
2088.906	5053.6
2092.988	5082.6
2097.066	5075.6
2101.14	5043.6
2105.211	5027.6
2109.278	4963.6
2113.342	4917.6
2117.401	4910.6
2121.457	4901.6
2125.509	4864.6
2129.558	4809.6
2133.602	4804.6
2137.643	4776.6
2141.681	4777.6
2145.714	4728.6
2149.744	4678.6
2153.77	4684.6
2157.793	4620.6
2161.812	4564.6
2165.827	4469.6
2169.838	4420.6
2173.846	4359.6
2177.851	4248.6
2181.851	4226.6
2185.848	4146.6
2189.841	4100.6
2193.831	4069.6
2197.817	4037.6
2201.799	3990.6
2205.778	4012.6
2209.753	3998.6
2213.725	3973.6
2217.693	3973.6
2221.657	3939.6
2225.618	3940.6
2229.575	3887.6
2233.529	3903.6
2237.479	3850.6
2241.425	3806.6
2245.368	3731.6
2249.307	3700.6
2253.243	3655.6
2257.175	3567.6
2261.104	3545.6
2265.029	3509.6
2268.95	3475.6
2272.868	3447.6
2276.783	3402.6
2280.694	3359.6
2284.601	3333.6
2288.505	3311.6
2292.405	3267.6
2296.302	3227.6
2300.195	3192.6
2304.085	3184.6
2307.971	3128.6
2311.854	3072.6
2315.734	3027.6
2319.609	2967.6
2323.482	2944.6
2327.351	2909.6
2331.216	2877.6
2335.078	2883.6
2338.937	2869.6
2342.792	2813.6
2346.643	2834.6
2350.492	2828.6
2354.336	2832.6
2358.178	2810.6
2362.015	2860.6
2365.85	2834.6
2369.681	2830.6
2373.508	2868.6
2377.333	2846.6
2381.153	2811.6
2384.971	2809.6
2388.785	2776.6
2392.595	2775.6
2396.402	2749.6
2400.206	2725.6
2404.007	2693.6
2407.804	2670.6
2411.597	2659.6
2415.388	2640.6
2419.174	2612.6
2422.958	2597.6
2426.738	2575.6
2430.515	2570.6
2434.289	2529.6
2438.059	2525.6
2441.825	2488.6
2445.589	2476.6
2449.349	2444.6
2453.106	2450.6
2456.859	2383.6
2460.61	2354.6
2464.356	2333.6
2468.1	2306.6
2471.84	2285.6
2475.577	2276.6
2479.311	2249.6
2483.041	2250.6
2486.768	2219.6
2490.492	2209.6
2494.213	2221.6
2497.93	2185.6
2501.644	2205.6
2505.355	2174.6
2509.062	2169.6
2512.766	2158.6
2516.467	2150.6
2520.165	2148.6
2523.859	2116.6
2527.551	2095.6
2531.239	2094.6
2534.923	2076.6
2538.605	2055.6
2542.283	2088.6
2545.958	2076.6
2549.63	2067.6
2553.299	2056.6
2556.964	2054.6
2560.626	2032.6
2564.285	2043.6
2567.941	2038.6
2571.594	2006.6
2575.243	1993.6
2578.89	1972.6
2582.533	1972.6
2586.173	1952.6
2589.809	1944.6
2593.443	1904.6
2597.073	1891.6
2600.701	1885.6
2604.325	1885.6
2607.946	1857.6
2611.564	1867.6
2615.178	1862.6
2618.79	1832.6
2622.398	1822.6
2626.004	1804.6
2629.606	1789.6
2633.205	1751.6
2636.801	1743.6
2640.394	1712.6
2643.983	1679.6
2647.57	1645.6
2651.153	1610.6
2654.734	1569.6
2658.311	1557.6
2661.885	1554.6
2665.456	1517.6
2669.025	1515.6
2672.589	1493.6
2676.151	1469.6
2679.71	1461.6
2683.266	1440.6
2686.819	1394.6
2690.368	1408.6
2693.915	1363.6
2697.458	1328.6
2700.999	1295.6
2704.536	1257.6
2708.071	1250.6
2711.602	1212.6
2715.13	1179.6
2718.656	1174.6
2722.178	1142.6
2725.697	1107.6
2729.214	1122.6
2732.727	1102.6
2736.237	1089.6
2739.744	1077.6
2743.249	1106.6
2746.75	1108.6
2750.248	1122.6
2753.743	1117.6
2757.236	1155.6
2760.725	1164.6
2764.211	1179.6
2767.695	1176.6
2771.175	1181.6
2774.652	1181.6
2778.127	1146.6
2781.598	1149.6
2785.067	1154.6
2788.532	1140.6
2791.995	1138.6
2795.455	1124.6
2798.911	1130.6
2802.365	1143.6
2805.816	1129.6
2809.264	1128.6
2812.709	1135.6
2816.151	1107.6
2819.59	1139.6
2823.026	1124.6
2826.46	1121.6
2829.89	1154.6
2833.318	1144.6
2836.742	1151.6
2840.164	1147.6
2843.583	1164.6
2846.999	1175.6
2850.412	1174.6
2853.822	1194.6
2857.229	1215.6
2860.634	1227.6
2864.035	1245.6
2867.434	1260.6
2870.83	1265.6
2874.223	1327.6
2877.613	1329.6
2881	1342.6
2884.385	1356.6
2887.766	1363.6
2891.145	1363.6
2894.521	1344.6
2897.894	1345.6
2901.264	1336.6
2904.631	1336.6
2907.996	1343.6
2911.358	1358.6
2914.717	1354.6
2918.073	1383.6
2921.426	1412.6
2924.777	1415.6
2928.124	1426.6
2931.469	1453.6
2934.811	1469.6
2938.15	1508.6
2941.487	1506.6
2944.821	1521.6
2948.152	1511.6
2951.48	1520.6
2954.805	1500.6
2958.128	1484.6
2961.447	1469.6
2964.765	1464.6
2968.079	1463.6
2971.39	1476.6
2974.699	1489.6
2978.005	1523.6
2981.308	1575.6
2984.609	1591.6
2987.907	1615.6
2991.202	1647.6
2994.494	1686.6
2997.784	1716.6
3001.07	1755.6
3004.355	1768.6
3007.636	1799.6
3010.915	1828.6
3014.191	1832.6
3017.464	1836.6
3020.734	1865.6
3024.002	1874.6
3027.267	1878.6
3030.53	1891.6
3033.789	1905.6
3037.046	1948.6
3040.301	1967.6
3043.552	2004.6
3046.801	2042.6
3050.048	2106.6
3053.291	2137.6
3056.532	2204.6
3059.771	2258.6
3063.006	2319.6
3066.239	2375.6
3069.469	2464.6
3072.697	2539.6
3075.922	2592.6
3079.144	2654.6
3082.364	2703.6
3085.581	2770.6
3088.795	2819.6
3092.007	2894.6
3095.216	2963.6
3098.423	3000.6
3101.627	3086.6
3104.828	3159.6
3108.026	3198.6
3111.222	3289.6
3114.416	3387.6
3117.607	3430.6
3120.795	3517.6
3123.98	3602.6
3127.163	3676.6
3130.344	3772.6
3133.521	3867.6
3136.696	3922.6
3139.869	4014.6
3143.039	4089.6
3146.206	4152.6
3149.371	4163.6
3152.533	4234.6
3155.693	4238.6
3158.85	4257.6
3162.005	4316.6
3165.157	4315.6
3168.306	4323.6
3171.453	4335.6
3174.597	4347.6
3177.739	4364.6
3180.878	4345.6
3184.014	4393.6
3187.149	4367.6
3190.28	4378.6
3193.409	4387.6
3196.536	4397.6
3199.659	4409.6
3202.781	4386.6
3205.9	4405.6
3209.016	4384.6
3212.13	4361.6
3215.241	4356.6
3218.35	4327.6
3221.456	4280.6
3224.56	4224.6
3227.661	4154.6
3230.76	4131.6
3233.856	4087.6
3236.95	4062.6
3240.041	4020.6
3243.13	4009.6
3246.216	3982.6
3249.3	3966.6
3252.382	3968.6
3255.46	3903.6
3258.537	3919.6
3261.611	3916.6
3264.682	3898.6
3267.751	3907.6
3270.818	3887.6
3273.882	3862.6
3276.943	3867.6
3280.002	3817.6
3283.059	3776.6
3286.113	3778.6
3289.165	3695.6
3292.214	3661.6
3295.261	3589.6
3298.306	3507.6
3301.348	3476.6
3304.387	3408.6
3307.425	3345.6
3310.459	3315.6
3313.492	3268.6
3316.521	3210.6
3319.549	3208.6
3322.574	3133.6
3325.597	3112.6
3328.617	3105.6
3331.635	3072.6
3334.65	3053.6
3337.663	3040.6
3340.674	3011.6
3343.682	3009.6
3346.688	2976.6
3349.691	2992.6
3352.692	2964.6
3355.691	2945.6
3358.687	2902.6
3361.681	2866.6
3364.673	2841.6
3367.662	2801.6
3370.649	2763.6
3373.633	2707.6
3376.615	2685.6
3379.595	2635.6
3382.572	2614.6
3385.547	2569.6
3388.52	2533.6
3391.49	2490.6
3394.458	2467.6
3397.424	2417.6
3400.387	2383.6
3403.348	2366.6
3406.307	2344.6
3409.263	2330.6
3412.217	2277.6
3415.168	2288.6
3418.118	2228.6
3421.065	2213.6
3424.009	2158.6
3426.951	2131.6
3429.891	2106.6
3432.829	2055.6
3435.764	2004.6
3438.697	1950.6
3441.628	1902.6
3444.557	1872.6
3447.483	1776.6
3450.407	1746.6
3453.328	1704.6
3456.247	1640.6
3459.164	1559.6
3462.079	1521.6
3464.991	1468.6
3467.902	1406.6
3470.809	1354.6
3473.715	1320.6
3476.618	1269.6
3479.519	1204.6
3482.418	1173.6
3485.315	1147.6
3488.209	1110.6
3491.101	1065.6
3493.99	1028.6
3496.878	984.6
3499.763	956.6
3502.646	910.6
3505.527	871.6
3508.405	832.6
3511.281	775.6
3514.155	735.6
3517.027	715.6
3519.897	659.6
3522.764	618.6
3525.629	574.6
3528.492	530.6
3531.352	480.6
3534.211	431.6
3537.067	400.6
3539.921	355.6
3542.773	325.6
3545.622	284.6
3548.469	240.6
3551.315	213.6
3554.157	206.6
3556.998	154.6
3559.837	134.6
3562.673	116.6
3565.507	80.6
3568.339	61.6
3571.169	58.6
3573.996	20.6
3576.822	19.6
3579.645	-14.4
3582.466	-35.4
3585.285	-65.4
3588.101	-78.4
3590.916	-103.4
3593.728	-124.4
3596.538	-136.4
3599.346	-159.4
3602.152	-192.4
3604.956	-198.4
3607.757	-213.4
3610.556	-237.4
3613.354	-251.4
3616.149	-265.4
3618.942	-287.4
3621.732	-288.4
3624.521	-308.4
3627.307	-309.4
3630.092	-323.4
3632.874	-336.4
3635.654	-339.4
3638.432	-354.4
3641.208	-375.4
3643.982	-379.4
3646.753	-385.4
3649.523	-396.4
3652.29	-403.4
3655.055	-420.4
3657.818	-428.4
3660.579	-440.4
3663.338	-457.4
3666.095	-468.4
3668.849	-464.4
3671.602	-476.4
3674.352	-486.4
3677.101	-495.4
3679.847	-506.4
3682.591	-505.4
3685.333	-514.4
3688.073	-519.4
3690.811	-535.4
3693.547	-532.4
3696.281	-540.4
3699.013	-531.4
3701.742	-548.4
3704.47	-553.4
3707.195	-565.4
3709.919	-561.4
3712.64	-567.4
3715.359	-565.4
3718.076	-579.4
3720.792	-578.4
3723.505	-581.4
3726.216	-582.4
3728.925	-588.4
3731.632	-585.4
3734.336	-595.4
3737.039	-593.4
3739.74	-594.4
3742.439	-598.4
3745.136	-605.4
3747.83	-606.4
3750.523	-611.4
3753.213	-597.4
3755.902	-616.4
3758.589	-613.4
3761.273	-612.4
3763.956	-621.4
3766.636	-621.4
3769.315	-627.4
3771.991	-623.4
3774.665	-631.4
3777.338	-629.4
3780.008	-629.4
3782.677	-630.4
3785.343	-627.4
3788.007	-626.4
3790.67	-633.4
3793.33	-637.4
3795.989	-635.4
3798.645	-637.4
3801.299	-635.4
3803.952	-643.4
3806.602	-644.4
3809.251	-646.4
3811.897	-645.4
3814.542	-648.4
3817.184	-643.4
3819.825	-647.4
3822.463	-641.4
3825.1	-650.4
3827.735	-646.4
3830.367	-645.4
3832.998	-655.4
3835.627	-654.4
3838.253	-651.4
3840.878	-651.4
3843.501	-649.4
3846.122	-649.4
3848.741	-649.4
3851.358	-653.4
3853.973	-649.4
3856.586	-664.4
3859.197	-660.4
3861.806	-661.4
3864.414	-658.4
3867.019	-655.4
3869.622	-658.4
3872.224	-657.4
3874.823	-633.4
3877.421	-627.4
3880.016	-614.4
3882.61	-596.4
3885.202	-590.4
3887.792	-601.4
3890.38	-636.4
3892.966	-644.4
3895.55	-657.4
3898.132	-669.4
3900.713	-677.4
3903.291	-666.4
3905.868	-667.4
3908.442	-670.4
3911.015	-672.4
3913.586	-667.4
3916.155	-667.4
3918.722	-674.4
3921.287	-669.4
3923.85	-676.4
3926.411	-678.4
3928.971	-684.4
3931.528	-681.4
3934.084	-669.4
3936.638	-673.4
3939.19	-676.4
3941.74	-680.4
3944.288	-675.4
3946.834	-668.4
3949.378	-675.4
3951.921	-667.4
3954.462	-681.4
3957	-673.4
3959.537	-671.4
3962.072	-665.4
3964.606	-673.4
3967.137	-675.4
3969.667	-673.4
3972.194	-669.4
3974.72	-672.4
3977.244	-665.4
3979.766	-664.4
3982.286	-666.4
3984.805	-663.4
3987.321	-666.4
3989.836	-667.4
3992.349	-659.4
3994.86	-660.4
3997.369	-667.4
3999.877	-654.4
4002.382	-659.4
4004.886	-654.4
4007.388	-656.4
4009.888	-660.4
4012.386	-660.4
4014.883	-661.4
4017.377	-659.4
4019.87	-659.4
4022.361	-655.4
4024.85	-660.4
4027.338	-663.4
4029.823	-667.4
4032.307	-666.4
4034.789	-658.4
4037.269	-661.4
4039.747	-664.4
4042.224	-664.4
4044.699	-663.4
4047.172	-662.4
4049.643	-660.4
4052.112	-668.4
4054.58	-669.4
4057.046	-665.4
4059.51	-670.4
4061.972	-663.4
4064.432	-667.4
4066.891	-664.4
4069.348	-661.4
4071.803	-658.4
4074.256	-661.4
4076.708	-663.4
4079.158	-662.4
4081.606	-665.4
4084.052	-668.4
4086.497	-667.4
4088.939	-661.4
4091.38	-663.4
4093.819	-658.4
4096.257	-697.4
4098.693	-699.4
4101.127	-700.4
4103.559	-698.4
4105.989	-405.4
4108.418	-383.4
4110.845	-355.4
4113.27	-329.4
4115.694	-294.4
4118.115	-255.4
4120.535	-661.4
4122.954	-661.4
4125.37	-653.4
4127.785	-664.4
4130.198	-659.4
4132.609	-666.4
4135.019	-699.4
4137.427	-699.4
4139.833	-700.4
4142.237	-694.4
