Data from 2018-2-14_conc=6_n=1_RamanShift_05.txt Node
Date: Wed Feb 14 14:44:25 IST 2018
User: aro
Spectrometer: QEPB0276
Trigger mode: 0
Integration Time (sec): 3.000000E1
Scans to average: 1
Electric dark correction enabled: true
Nonlinearity correction enabled: false
Boxcar width: 0
XAxis mode: Raman Shifts
Number of Pixels in Spectrum: 1044
>>>>>Begin Spectral Data<<<<<
160.701	-130.8
166.742	40.2
172.777	563.2
178.805	2132.2
184.826	5901.2
190.841	12319.2
196.849	19740.2
202.85	25043.2
208.845	26799.2
214.833	26522.2
220.815	26112.2
226.789	25988.2
232.758	25931.2
238.719	25764.2
244.674	25451.2
250.623	25026.2
256.565	24522.2
262.5	24062.2
268.429	23647.2
274.351	23284.2
280.267	23027.2
286.176	22811.2
292.079	22597.2
297.975	22378.2
303.865	22250.2
309.748	22094.2
315.625	21968.2
321.495	21865.2
327.359	21844.2
333.217	21742.2
339.068	21695.2
344.912	21698.2
350.751	21723.2
356.583	21675.2
362.408	21708.2
368.227	21690.2
374.04	21755.2
379.847	21735.2
385.647	21811.2
391.44	21898.2
397.228	22010.2
403.009	22097.2
408.784	22134.2
414.553	22284.2
420.315	22268.2
426.071	22272.2
431.821	22266.2
437.565	22282.2
443.302	22256.2
449.033	22175.2
454.758	22111.2
460.477	22054.2
466.189	22069.2
471.896	21979.2
477.596	21904.2
483.29	21911.2
488.978	21841.2
494.66	21719.2
500.335	21685.2
506.005	21334.2
511.668	21069.2
517.325	20784.2
522.977	20580.2
528.622	20367.2
534.261	20257.2
539.894	20161.2
545.521	20058.2
551.141	20000.2
556.756	19959.2
562.365	19875.2
567.968	19716.2
573.565	19639.2
579.155	19604.2
584.74	19508.2
590.319	19442.2
595.892	19402.2
601.459	19354.2
607.02	19233.2
612.575	19094.2
618.124	18992.2
623.667	18890.2
629.204	18764.2
634.735	18688.2
640.261	18613.2
645.781	18525.2
651.294	18502.2
656.802	18473.2
662.304	18436.2
667.8	18387.2
673.29	18396.2
678.775	18315.2
684.254	18258.2
689.726	18205.2
695.193	18218.2
700.655	18011.2
706.11	17958.2
711.56	17836.2
717.004	17734.2
722.442	17712.2
727.874	17658.2
733.301	17566.2
738.722	17507.2
744.137	17515.2
749.547	17446.2
754.951	17512.2
760.349	17454.2
765.741	17477.2
771.128	17519.2
776.509	17543.2
781.885	17515.2
787.254	17485.2
792.618	17424.2
797.977	17275.2
803.33	17180.2
808.677	17088.2
814.019	17003.2
819.355	16863.2
824.686	16795.2
830.011	16758.2
835.33	16783.2
840.644	16768.2
845.952	16757.2
851.255	16840.2
856.552	16854.2
861.844	16770.2
867.13	16782.2
872.41	16634.2
877.686	16585.2
882.955	16426.2
888.219	16342.2
893.478	16158.2
898.731	15939.2
903.979	15773.2
909.221	15673.2
914.458	15558.2
919.69	15604.2
924.916	15649.2
930.136	15672.2
935.351	15743.2
940.561	15726.2
945.766	15626.2
950.965	15582.2
956.158	15451.2
961.347	15331.2
966.529	15163.2
971.707	14898.2
976.879	14773.2
982.046	14644.2
987.208	14582.2
992.364	14547.2
997.515	14630.2
1002.66	14805.2
1007.801	14922.2
1012.936	15032.2
1018.066	15047.2
1023.19	15030.2
1028.309	15070.2
1033.423	15013.2
1038.532	14918.2
1043.636	14778.2
1048.734	14644.2
1053.827	14451.2
1058.915	14243.2
1063.998	14149.2
1069.075	14140.2
1074.147	14146.2
1079.214	14139.2
1084.276	14283.2
1089.333	14394.2
1094.385	14410.2
1099.431	14464.2
1104.472	14445.2
1109.509	14347.2
1114.54	14183.2
1119.565	14063.2
1124.586	13852.2
1129.602	13756.2
1134.613	13608.2
1139.618	13506.2
1144.619	13497.2
1149.614	13500.2
1154.604	13545.2
1159.589	13531.2
1164.57	13578.2
1169.545	13568.2
1174.515	13605.2
1179.48	13471.2
1184.44	13425.2
1189.395	13300.2
1194.345	13195.2
1199.29	13156.2
1204.23	13115.2
1209.165	13225.2
1214.095	13251.2
1219.021	13335.2
1223.941	13394.2
1228.856	13505.2
1233.766	13512.2
1238.672	13504.2
1243.572	13479.2
1248.467	13378.2
1253.358	13243.2
1258.244	13086.2
1263.124	12860.2
1268	12670.2
1272.871	12464.2
1277.737	12416.2
1282.599	12357.2
1287.455	12346.2
1292.306	12336.2
1297.153	12340.2
1301.995	12448.2
1306.832	12477.2
1311.664	12479.2
1316.491	12456.2
1321.314	12349.2
1326.132	12128.2
1330.945	11889.2
1335.753	11610.2
1340.556	11312.2
1345.354	11154.2
1350.148	10888.2
1354.937	10797.2
1359.722	10790.2
1364.501	10802.2
1369.276	10914.2
1374.046	10975.2
1378.811	11178.2
1383.572	11217.2
1388.327	11268.2
1393.079	11234.2
1397.825	11169.2
1402.567	10989.2
1407.304	10857.2
1412.036	10793.2
1416.764	10710.2
1421.487	10621.2
1426.205	10584.2
1430.919	10542.2
1435.628	10552.2
1440.333	10571.2
1445.032	10627.2
1449.727	10621.2
1454.418	10610.2
1459.104	10480.2
1463.785	10265.2
1468.462	10034.2
1473.134	9830.2
1477.802	9600.2
1482.465	9426.2
1487.123	9279.2
1491.777	9267.2
1496.426	9332.2
1501.071	9364.2
1505.711	9490.2
1510.347	9618.2
1514.978	9768.2
1519.604	9910.2
1524.226	10038.2
1528.844	10067.2
1533.457	10038.2
1538.065	10002.2
1542.669	9975.2
1547.269	9830.2
1551.864	9794.2
1556.454	9833.2
1561.041	9787.2
1565.622	9824.2
1570.199	9808.2
1574.772	9844.2
1579.34	9956.2
1583.904	9976.2
1588.464	10037.2
1593.019	10008.2
1597.569	10003.2
1602.115	9913.2
1606.657	9844.2
1611.195	9788.2
1615.728	9706.2
1620.256	9642.2
1624.78	9679.2
1629.3	9694.2
1633.816	9655.2
1638.327	9723.2
1642.834	9775.2
1647.336	9823.2
1651.834	9799.2
1656.328	9763.2
1660.817	9714.2
1665.302	9568.2
1669.783	9440.2
1674.259	9151.2
1678.732	8907.2
1683.199	8621.2
1687.663	8334.2
1692.122	8042.2
1696.577	7913.2
1701.028	7866.2
1705.474	7885.2
1709.917	7942.2
1714.355	8030.2
1718.788	7906.2
1723.218	7829.2
1727.643	7767.2
1732.064	7601.2
1736.481	7442.2
1740.893	7297.2
1745.301	7084.2
1749.705	6884.2
1754.105	6671.2
1758.501	6476.2
1762.893	6290.2
1767.28	6136.2
1771.663	5992.2
1776.042	5866.2
1780.417	5831.2
1784.787	5803.2
1789.154	5857.2
1793.516	5934.2
1797.874	6012.2
1802.228	6118.2
1806.578	6187.2
1810.924	6202.2
1815.266	6114.2
1819.603	6057.2
1823.937	5990.2
1828.266	5889.2
1832.591	5844.2
1836.913	5755.2
1841.23	5682.2
1845.543	5651.2
1849.852	5603.2
1854.156	5604.2
1858.457	5600.2
1862.754	5583.2
1867.047	5577.2
1871.335	5574.2
1875.62	5559.2
1879.9	5490.2
1884.177	5473.2
1888.449	5401.2
1892.718	5324.2
1896.982	5303.2
1901.243	5257.2
1905.499	5158.2
1909.752	5145.2
1914	5175.2
1918.245	5164.2
1922.485	5187.2
1926.722	5249.2
1930.954	5267.2
1935.183	5343.2
1939.408	5414.2
1943.628	5419.2
1947.845	5464.2
1952.058	5470.2
1956.267	5418.2
1960.472	5346.2
1964.673	5268.2
1968.87	5187.2
1973.063	5116.2
1977.252	5018.2
1981.438	4992.2
1985.619	4942.2
1989.797	4881.2
1993.971	4849.2
1998.14	4846.2
2002.306	4847.2
2006.469	4831.2
2010.627	4795.2
2014.781	4730.2
2018.932	4719.2
2023.078	4677.2
2027.221	4633.2
2031.36	4542.2
2035.495	4469.2
2039.627	4379.2
2043.754	4349.2
2047.878	4286.2
2051.998	4257.2
2056.114	4247.2
2060.226	4248.2
2064.334	4236.2
2068.439	4246.2
2072.54	4243.2
2076.637	4267.2
2080.73	4316.2
2084.82	4317.2
2088.906	4349.2
2092.988	4343.2
2097.066	4337.2
2101.14	4311.2
2105.211	4288.2
2109.278	4256.2
2113.342	4238.2
2117.401	4182.2
2121.457	4159.2
2125.509	4163.2
2129.558	4168.2
2133.602	4106.2
2137.643	4086.2
2141.681	4097.2
2145.714	4071.2
2149.744	4034.2
2153.77	4024.2
2157.793	3984.2
2161.812	3926.2
2165.827	3872.2
2169.838	3808.2
2173.846	3746.2
2177.851	3690.2
2181.851	3617.2
2185.848	3603.2
2189.841	3523.2
2193.831	3506.2
2197.817	3480.2
2201.799	3460.2
2205.778	3443.2
2209.753	3409.2
2213.725	3409.2
2217.693	3406.2
2221.657	3399.2
2225.618	3408.2
2229.575	3396.2
2233.529	3362.2
2237.479	3326.2
2241.425	3277.2
2245.368	3230.2
2249.307	3182.2
2253.243	3143.2
2257.175	3097.2
2261.104	3043.2
2265.029	3026.2
2268.95	2981.2
2272.868	2941.2
2276.783	2941.2
2280.694	2886.2
2284.601	2880.2
2288.505	2850.2
2292.405	2819.2
2296.302	2796.2
2300.195	2752.2
2304.085	2739.2
2307.971	2685.2
2311.854	2647.2
2315.734	2626.2
2319.609	2584.2
2323.482	2535.2
2327.351	2557.2
2331.216	2504.2
2335.078	2522.2
2338.937	2471.2
2342.792	2491.2
2346.643	2477.2
2350.492	2455.2
2354.336	2464.2
2358.178	2484.2
2362.015	2471.2
2365.85	2515.2
2369.681	2502.2
2373.508	2510.2
2377.333	2499.2
2381.153	2489.2
2384.971	2477.2
2388.785	2467.2
2392.595	2432.2
2396.402	2419.2
2400.206	2410.2
2404.007	2394.2
2407.804	2376.2
2411.597	2363.2
2415.388	2339.2
2419.174	2320.2
2422.958	2302.2
2426.738	2277.2
2430.515	2257.2
2434.289	2237.2
2438.059	2229.2
2441.825	2195.2
2445.589	2173.2
2449.349	2174.2
2453.106	2143.2
2456.859	2103.2
2460.61	2079.2
2464.356	2056.2
2468.1	2020.2
2471.84	2009.2
2475.577	1981.2
2479.311	1957.2
2483.041	1961.2
2486.768	1949.2
2490.492	1927.2
2494.213	1940.2
2497.93	1910.2
2501.644	1895.2
2505.355	1886.2
2509.062	1893.2
2512.766	1890.2
2516.467	1851.2
2520.165	1852.2
2523.859	1839.2
2527.551	1817.2
2531.239	1793.2
2534.923	1800.2
2538.605	1767.2
2542.283	1768.2
2545.958	1754.2
2549.63	1763.2
2553.299	1770.2
2556.964	1742.2
2560.626	1740.2
2564.285	1744.2
2567.941	1743.2
2571.594	1716.2
2575.243	1700.2
2578.89	1710.2
2582.533	1682.2
2586.173	1694.2
2589.809	1651.2
2593.443	1645.2
2597.073	1627.2
2600.701	1610.2
2604.325	1597.2
2607.946	1604.2
2611.564	1589.2
2615.178	1571.2
2618.79	1554.2
2622.398	1533.2
2626.004	1530.2
2629.606	1511.2
2633.205	1482.2
2636.801	1464.2
2640.394	1450.2
2643.983	1428.2
2647.57	1395.2
2651.153	1372.2
2654.734	1365.2
2658.311	1327.2
2661.885	1333.2
2665.456	1308.2
2669.025	1290.2
2672.589	1267.2
2676.151	1258.2
2679.71	1258.2
2683.266	1233.2
2686.819	1195.2
2690.368	1157.2
2693.915	1164.2
2697.458	1109.2
2700.999	1093.2
2704.536	1060.2
2708.071	1027.2
2711.602	1014.2
2715.13	995.2
2718.656	964.2
2722.178	959.2
2725.697	931.2
2729.214	931.2
2732.727	920.2
2736.237	901.2
2739.744	889.2
2743.249	898.2
2746.75	911.2
2750.248	896.2
2753.743	913.2
2757.236	924.2
2760.725	952.2
2764.211	918.2
2767.695	935.2
2771.175	958.2
2774.652	944.2
2778.127	936.2
2781.598	943.2
2785.067	932.2
2788.532	922.2
2791.995	924.2
2795.455	906.2
2798.911	921.2
2802.365	934.2
2805.816	914.2
2809.264	913.2
2812.709	910.2
2816.151	917.2
2819.59	918.2
2823.026	911.2
2826.46	928.2
2829.89	939.2
2833.318	942.2
2836.742	932.2
2840.164	954.2
2843.583	945.2
2846.999	947.2
2850.412	963.2
2853.822	978.2
2857.229	996.2
2860.634	1013.2
2864.035	1009.2
2867.434	1036.2
2870.83	1075.2
2874.223	1073.2
2877.613	1099.2
2881	1107.2
2884.385	1132.2
2887.766	1119.2
2891.145	1097.2
2894.521	1111.2
2897.894	1108.2
2901.264	1103.2
2904.631	1116.2
2907.996	1109.2
2911.358	1110.2
2914.717	1125.2
2918.073	1135.2
2921.426	1154.2
2924.777	1153.2
2928.124	1189.2
2931.469	1199.2
2934.811	1235.2
2938.15	1234.2
2941.487	1253.2
2944.821	1253.2
2948.152	1261.2
2951.48	1264.2
2954.805	1233.2
2958.128	1199.2
2961.447	1216.2
2964.765	1183.2
2968.079	1195.2
2971.39	1220.2
2974.699	1225.2
2978.005	1243.2
2981.308	1269.2
2984.609	1285.2
2987.907	1316.2
2991.202	1318.2
2994.494	1370.2
2997.784	1383.2
3001.07	1405.2
3004.355	1446.2
3007.636	1461.2
3010.915	1490.2
3014.191	1503.2
3017.464	1497.2
3020.734	1524.2
3024.002	1529.2
3027.267	1542.2
3030.53	1560.2
3033.789	1564.2
3037.046	1582.2
3040.301	1608.2
3043.552	1652.2
3046.801	1686.2
3050.048	1719.2
3053.291	1785.2
3056.532	1824.2
3059.771	1868.2
3063.006	1928.2
3066.239	1984.2
3069.469	2054.2
3072.697	2090.2
3075.922	2143.2
3079.144	2225.2
3082.364	2268.2
3085.581	2311.2
3088.795	2363.2
3092.007	2379.2
3095.216	2482.2
3098.423	2521.2
3101.627	2581.2
3104.828	2641.2
3108.026	2670.2
3111.222	2770.2
3114.416	2804.2
3117.607	2875.2
3120.795	2954.2
3123.98	3014.2
3127.163	3099.2
3130.344	3155.2
3133.521	3242.2
3136.696	3309.2
3139.869	3409.2
3143.039	3455.2
3146.206	3469.2
3149.371	3503.2
3152.533	3574.2
3155.693	3614.2
3158.85	3618.2
3162.005	3651.2
3165.157	3637.2
3168.306	3608.2
3171.453	3634.2
3174.597	3636.2
3177.739	3651.2
3180.878	3633.2
3184.014	3652.2
3187.149	3669.2
3190.28	3658.2
3193.409	3667.2
3196.536	3665.2
3199.659	3679.2
3202.781	3681.2
3205.9	3698.2
3209.016	3666.2
3212.13	3644.2
3215.241	3600.2
3218.35	3598.2
3221.456	3560.2
3224.56	3524.2
3227.661	3479.2
3230.76	3426.2
3233.856	3409.2
3236.95	3341.2
3240.041	3343.2
3243.13	3320.2
3246.216	3295.2
3249.3	3262.2
3252.382	3269.2
3255.46	3254.2
3258.537	3224.2
3261.611	3241.2
3264.682	3227.2
3267.751	3242.2
3270.818	3217.2
3273.882	3221.2
3276.943	3205.2
3280.002	3206.2
3283.059	3137.2
3286.113	3104.2
3289.165	3050.2
3292.214	3002.2
3295.261	2985.2
3298.306	2956.2
3301.348	2882.2
3304.387	2844.2
3307.425	2800.2
3310.459	2765.2
3313.492	2713.2
3316.521	2650.2
3319.549	2668.2
3322.574	2615.2
3325.597	2583.2
3328.617	2574.2
3331.635	2552.2
3334.65	2561.2
3337.663	2539.2
3340.674	2512.2
3343.682	2519.2
3346.688	2505.2
3349.691	2505.2
3352.692	2476.2
3355.691	2483.2
3358.687	2432.2
3361.681	2395.2
3364.673	2377.2
3367.662	2327.2
3370.649	2294.2
3373.633	2251.2
3376.615	2225.2
3379.595	2179.2
3382.572	2182.2
3385.547	2160.2
3388.52	2111.2
3391.49	2072.2
3394.458	2044.2
3397.424	2017.2
3400.387	2021.2
3403.348	1977.2
3406.307	1936.2
3409.263	1907.2
3412.217	1889.2
3415.168	1859.2
3418.118	1837.2
3421.065	1819.2
3424.009	1787.2
3426.951	1760.2
3429.891	1723.2
3432.829	1714.2
3435.764	1659.2
3438.697	1607.2
3441.628	1562.2
3444.557	1518.2
3447.483	1458.2
3450.407	1428.2
3453.328	1371.2
3456.247	1324.2
3459.164	1254.2
3462.079	1223.2
3464.991	1170.2
3467.902	1127.2
3470.809	1080.2
3473.715	1042.2
3476.618	1020.2
3479.519	970.2
3482.418	945.2
3485.315	919.2
3488.209	891.2
3491.101	830.2
3493.99	792.2
3496.878	769.2
3499.763	743.2
3502.646	719.2
3505.527	664.2
3508.405	646.2
3511.281	591.2
3514.155	568.2
3517.027	534.2
3519.897	504.2
3522.764	458.2
3525.629	423.2
3528.492	370.2
3531.352	342.2
3534.211	315.2
3537.067	280.2
3539.921	248.2
3542.773	209.2
3545.622	181.2
3548.469	151.2
3551.315	133.2
3554.157	112.2
3556.998	74.2
3559.837	58.2
3562.673	29.2
3565.507	9.2
3568.339	-11.8
3571.169	-24.8
3573.996	-32.8
3576.822	-51.8
3579.645	-83.8
3582.466	-98.8
3585.285	-113.8
3588.101	-139.8
3590.916	-152.8
3593.728	-169.8
3596.538	-182.8
3599.346	-208.8
3602.152	-222.8
3604.956	-227.8
3607.757	-244.8
3610.556	-261.8
3613.354	-273.8
3616.149	-283.8
3618.942	-292.8
3621.732	-305.8
3624.521	-314.8
3627.307	-323.8
3630.092	-332.8
3632.874	-346.8
3635.654	-354.8
3638.432	-357.8
3641.208	-356.8
3643.982	-389.8
3646.753	-385.8
3649.523	-391.8
3652.29	-403.8
3655.055	-411.8
3657.818	-421.8
3660.579	-432.8
3663.338	-441.8
3666.095	-449.8
3668.849	-457.8
3671.602	-460.8
3674.352	-475.8
3677.101	-472.8
3679.847	-484.8
3682.591	-492.8
3685.333	-490.8
3688.073	-498.8
3690.811	-506.8
3693.547	-512.8
3696.281	-516.8
3699.013	-516.8
3701.742	-516.8
3704.47	-525.8
3707.195	-535.8
3709.919	-532.8
3712.64	-545.8
3715.359	-537.8
3718.076	-547.8
3720.792	-541.8
3723.505	-546.8
3726.216	-550.8
3728.925	-550.8
3731.632	-555.8
3734.336	-558.8
3737.039	-559.8
3739.74	-560.8
3742.439	-562.8
3745.136	-567.8
3747.83	-576.8
3750.523	-566.8
3753.213	-572.8
3755.902	-574.8
3758.589	-582.8
3761.273	-578.8
3763.956	-581.8
3766.636	-585.8
3769.315	-582.8
3771.991	-588.8
3774.665	-592.8
3777.338	-589.8
3780.008	-590.8
3782.677	-594.8
3785.343	-589.8
3788.007	-591.8
3790.67	-594.8
3793.33	-603.8
3795.989	-598.8
3798.645	-599.8
3801.299	-596.8
3803.952	-603.8
3806.602	-607.8
3809.251	-606.8
3811.897	-603.8
3814.542	-603.8
3817.184	-602.8
3819.825	-605.8
3822.463	-601.8
3825.1	-605.8
3827.735	-602.8
3830.367	-603.8
3832.998	-568.8
3835.627	-598.8
3838.253	-615.8
3840.878	-615.8
3843.501	-614.8
3846.122	-611.8
3848.741	-610.8
3851.358	-611.8
3853.973	-609.8
3856.586	-617.8
3859.197	-615.8
3861.806	-615.8
3864.414	-613.8
3867.019	-615.8
3869.622	-613.8
3872.224	-615.8
3874.823	-593.8
3877.421	-572.8
3880.016	-563.8
3882.61	-537.8
3885.202	-532.8
3887.792	-553.8
3890.38	-587.8
3892.966	-604.8
3895.55	-618.8
3898.132	-628.8
3900.713	-635.8
3903.291	-629.8
3905.868	-631.8
3908.442	-629.8
3911.015	-633.8
3913.586	-623.8
3916.155	-622.8
3918.722	-630.8
3921.287	-629.8
3923.85	-634.8
3926.411	-626.8
3928.971	-633.8
3931.528	-630.8
3934.084	-626.8
3936.638	-630.8
3939.19	-631.8
3941.74	-630.8
3944.288	-633.8
3946.834	-631.8
3949.378	-635.8
3951.921	-630.8
3954.462	-634.8
3957	-631.8
3959.537	-633.8
3962.072	-631.8
3964.606	-632.8
3967.137	-629.8
3969.667	-632.8
3972.194	-627.8
3974.72	-629.8
3977.244	-619.8
3979.766	-616.8
3982.286	-618.8
3984.805	-617.8
3987.321	-618.8
3989.836	-621.8
3992.349	-611.8
3994.86	-614.8
3997.369	-622.8
3999.877	-609.8
4002.382	-618.8
4004.886	-612.8
4007.388	-610.8
4009.888	-611.8
4012.386	-619.8
4014.883	-614.8
4017.377	-613.8
4019.87	-610.8
4022.361	-616.8
4024.85	-617.8
4027.338	-622.8
4029.823	-622.8
4032.307	-622.8
4034.789	-614.8
4037.269	-618.8
4039.747	-616.8
4042.224	-620.8
4044.699	-621.8
4047.172	-613.8
4049.643	-616.8
4052.112	-619.8
4054.58	-615.8
4057.046	-621.8
4059.51	-617.8
4061.972	-620.8
4064.432	-622.8
4066.891	-620.8
4069.348	-618.8
4071.803	-610.8
4074.256	-618.8
4076.708	-620.8
4079.158	-616.8
4081.606	-623.8
4084.052	-623.8
4086.497	-616.8
4088.939	-615.8
4091.38	-622.8
4093.819	-616.8
4096.257	-651.8
4098.693	-650.8
4101.127	-650.8
4103.559	-652.8
4105.989	-367.8
4108.418	-349.8
4110.845	-325.8
4113.27	-309.8
4115.694	-268.8
4118.115	-211.8
4120.535	-615.8
4122.954	-617.8
4125.37	-613.8
4127.785	-616.8
4130.198	-618.8
4132.609	-621.8
4135.019	-652.8
4137.427	-649.8
4139.833	-652.8
4142.237	-649.8
