Data from 2018-2-14_conc=2_n=7_RamanShift_01.txt Node
Date: Wed Feb 14 11:20:56 IST 2018
User: aro
Spectrometer: QEPB0276
Trigger mode: 0
Integration Time (sec): 3.000000E1
Scans to average: 1
Electric dark correction enabled: true
Nonlinearity correction enabled: false
Boxcar width: 0
XAxis mode: Raman Shifts
Number of Pixels in Spectrum: 1044
>>>>>Begin Spectral Data<<<<<
160.701	-111.1
166.742	27.9
172.777	453.9
178.805	1726.9
184.826	4766.9
190.841	9922.9
196.849	15897.9
202.85	20181.9
208.845	21556.9
214.833	21345.9
220.815	20920.9
226.789	20735.9
232.758	20617.9
238.719	20438.9
244.674	20192.9
250.623	19811.9
256.565	19320.9
262.5	18881.9
268.429	18585.9
274.351	18225.9
280.267	17992.9
286.176	17761.9
292.079	17639.9
297.975	17382.9
303.865	17215.9
309.748	17087.9
315.625	16910.9
321.495	16850.9
327.359	16777.9
333.217	16755.9
339.068	16759.9
344.912	16724.9
350.751	16766.9
356.583	16705.9
362.408	16653.9
368.227	16627.9
374.04	16663.9
379.847	16702.9
385.647	16776.9
391.44	16833.9
397.228	16893.9
403.009	16989.9
408.784	17052.9
414.553	17022.9
420.315	17102.9
426.071	17152.9
431.821	17130.9
437.565	17086.9
443.302	17068.9
449.033	17070.9
454.758	17014.9
460.477	16961.9
466.189	16900.9
471.896	16841.9
477.596	16825.9
483.29	16784.9
488.978	16787.9
494.66	16722.9
500.335	16564.9
506.005	16423.9
511.668	16202.9
517.325	16033.9
522.977	15848.9
528.622	15760.9
534.261	15656.9
539.894	15570.9
545.521	15463.9
551.141	15471.9
556.756	15393.9
562.365	15301.9
567.968	15250.9
573.565	15158.9
579.155	15079.9
584.74	15034.9
590.319	14984.9
595.892	14934.9
601.459	14871.9
607.02	14813.9
612.575	14685.9
618.124	14658.9
623.667	14558.9
629.204	14434.9
634.735	14450.9
640.261	14384.9
645.781	14260.9
651.294	14262.9
656.802	14255.9
662.304	14222.9
667.8	14164.9
673.29	14130.9
678.775	14129.9
684.254	14036.9
689.726	13982.9
695.193	14017.9
700.655	13875.9
706.11	13869.9
711.56	13776.9
717.004	13654.9
722.442	13609.9
727.874	13590.9
733.301	13504.9
738.722	13503.9
744.137	13476.9
749.547	13460.9
754.951	13406.9
760.349	13456.9
765.741	13494.9
771.128	13397.9
776.509	13442.9
781.885	13469.9
787.254	13417.9
792.618	13340.9
797.977	13246.9
803.33	13174.9
808.677	13159.9
814.019	13048.9
819.355	12924.9
824.686	12864.9
830.011	12898.9
835.33	12895.9
840.644	12852.9
845.952	12853.9
851.255	12936.9
856.552	12959.9
861.844	12888.9
867.13	12847.9
872.41	12786.9
877.686	12675.9
882.955	12643.9
888.219	12475.9
893.478	12389.9
898.731	12212.9
903.979	12139.9
909.221	11992.9
914.458	11949.9
919.69	11931.9
924.916	12014.9
930.136	12049.9
935.351	12027.9
940.561	12054.9
945.766	11955.9
950.965	11909.9
956.158	11892.9
961.347	11690.9
966.529	11557.9
971.707	11436.9
976.879	11259.9
982.046	11197.9
987.208	11140.9
992.364	11140.9
997.515	11183.9
1002.66	11320.9
1007.801	11466.9
1012.936	11536.9
1018.066	11520.9
1023.19	11489.9
1028.309	11528.9
1033.423	11497.9
1038.532	11421.9
1043.636	11268.9
1048.734	11204.9
1053.827	11062.9
1058.915	10930.9
1063.998	10795.9
1069.075	10809.9
1074.147	10792.9
1079.214	10807.9
1084.276	10875.9
1089.333	10995.9
1094.385	11023.9
1099.431	11086.9
1104.472	11001.9
1109.509	10968.9
1114.54	10834.9
1119.565	10712.9
1124.586	10609.9
1129.602	10432.9
1134.613	10395.9
1139.618	10350.9
1144.619	10277.9
1149.614	10286.9
1154.604	10365.9
1159.589	10338.9
1164.57	10390.9
1169.545	10365.9
1174.515	10374.9
1179.48	10321.9
1184.44	10263.9
1189.395	10134.9
1194.345	10123.9
1199.29	10008.9
1204.23	10037.9
1209.165	10041.9
1214.095	10110.9
1219.021	10151.9
1223.941	10213.9
1228.856	10265.9
1233.766	10263.9
1238.672	10328.9
1243.572	10282.9
1248.467	10241.9
1253.358	10115.9
1258.244	9956.9
1263.124	9854.9
1268	9679.9
1272.871	9545.9
1277.737	9520.9
1282.599	9416.9
1287.455	9462.9
1292.306	9439.9
1297.153	9465.9
1301.995	9544.9
1306.832	9566.9
1311.664	9547.9
1316.491	9562.9
1321.314	9445.9
1326.132	9303.9
1330.945	9134.9
1335.753	8940.9
1340.556	8684.9
1345.354	8524.9
1350.148	8371.9
1354.937	8310.9
1359.722	8302.9
1364.501	8347.9
1369.276	8435.9
1374.046	8512.9
1378.811	8627.9
1383.572	8721.9
1388.327	8722.9
1393.079	8702.9
1397.825	8584.9
1402.567	8529.9
1407.304	8389.9
1412.036	8340.9
1416.764	8235.9
1421.487	8184.9
1426.205	8147.9
1430.919	8121.9
1435.628	8096.9
1440.333	8134.9
1445.032	8146.9
1449.727	8143.9
1454.418	8166.9
1459.104	8082.9
1463.785	7968.9
1468.462	7750.9
1473.134	7584.9
1477.802	7467.9
1482.465	7315.9
1487.123	7262.9
1491.777	7212.9
1496.426	7270.9
1501.071	7320.9
1505.711	7440.9
1510.347	7587.9
1514.978	7730.9
1519.604	7779.9
1524.226	7917.9
1528.844	7859.9
1533.457	7858.9
1538.065	7823.9
1542.669	7780.9
1547.269	7727.9
1551.864	7682.9
1556.454	7645.9
1561.041	7667.9
1565.622	7661.9
1570.199	7645.9
1574.772	7698.9
1579.34	7774.9
1583.904	7835.9
1588.464	7799.9
1593.019	7807.9
1597.569	7795.9
1602.115	7757.9
1606.657	7692.9
1611.195	7656.9
1615.728	7618.9
1620.256	7594.9
1624.78	7642.9
1629.3	7641.9
1633.816	7685.9
1638.327	7666.9
1642.834	7728.9
1647.336	7770.9
1651.834	7775.9
1656.328	7759.9
1660.817	7736.9
1665.302	7631.9
1669.783	7492.9
1674.259	7348.9
1678.732	7166.9
1683.199	6885.9
1687.663	6647.9
1692.122	6491.9
1696.577	6335.9
1701.028	6363.9
1705.474	6302.9
1709.917	6378.9
1714.355	6388.9
1718.788	6342.9
1723.218	6247.9
1727.643	6131.9
1732.064	6027.9
1736.481	5909.9
1740.893	5733.9
1745.301	5594.9
1749.705	5395.9
1754.105	5286.9
1758.501	5123.9
1762.893	4976.9
1767.28	4869.9
1771.663	4767.9
1776.042	4695.9
1780.417	4650.9
1784.787	4662.9
1789.154	4708.9
1793.516	4784.9
1797.874	4878.9
1802.228	4935.9
1806.578	4984.9
1810.924	4983.9
1815.266	4941.9
1819.603	4837.9
1823.937	4795.9
1828.266	4699.9
1832.591	4584.9
1836.913	4607.9
1841.23	4515.9
1845.543	4459.9
1849.852	4436.9
1854.156	4414.9
1858.457	4429.9
1862.754	4458.9
1867.047	4406.9
1871.335	4399.9
1875.62	4414.9
1879.9	4405.9
1884.177	4356.9
1888.449	4312.9
1892.718	4277.9
1896.982	4255.9
1901.243	4207.9
1905.499	4169.9
1909.752	4160.9
1914	4201.9
1918.245	4183.9
1922.485	4221.9
1926.722	4265.9
1930.954	4280.9
1935.183	4366.9
1939.408	4399.9
1943.628	4408.9
1947.845	4422.9
1952.058	4435.9
1956.267	4396.9
1960.472	4323.9
1964.673	4240.9
1968.87	4194.9
1973.063	4110.9
1977.252	4068.9
1981.438	4015.9
1985.619	3961.9
1989.797	3941.9
1993.971	3918.9
1998.14	3908.9
2002.306	3885.9
2006.469	3858.9
2010.627	3857.9
2014.781	3834.9
2018.932	3813.9
2023.078	3733.9
2027.221	3710.9
2031.36	3644.9
2035.495	3611.9
2039.627	3536.9
2043.754	3497.9
2047.878	3495.9
2051.998	3456.9
2056.114	3447.9
2060.226	3439.9
2064.334	3426.9
2068.439	3450.9
2072.54	3490.9
2076.637	3495.9
2080.73	3537.9
2084.82	3557.9
2088.906	3567.9
2092.988	3568.9
2097.066	3548.9
2101.14	3519.9
2105.211	3498.9
2109.278	3469.9
2113.342	3463.9
2117.401	3460.9
2121.457	3399.9
2125.509	3391.9
2129.558	3377.9
2133.602	3386.9
2137.643	3352.9
2141.681	3326.9
2145.714	3318.9
2149.744	3290.9
2153.77	3242.9
2157.793	3236.9
2161.812	3166.9
2165.827	3137.9
2169.838	3085.9
2173.846	3019.9
2177.851	2978.9
2181.851	2906.9
2185.848	2883.9
2189.841	2872.9
2193.831	2840.9
2197.817	2796.9
2201.799	2818.9
2205.778	2765.9
2209.753	2778.9
2213.725	2750.9
2217.693	2751.9
2221.657	2743.9
2225.618	2731.9
2229.575	2714.9
2233.529	2695.9
2237.479	2669.9
2241.425	2608.9
2245.368	2584.9
2249.307	2561.9
2253.243	2517.9
2257.175	2495.9
2261.104	2443.9
2265.029	2425.9
2268.95	2421.9
2272.868	2354.9
2276.783	2363.9
2280.694	2307.9
2284.601	2278.9
2288.505	2277.9
2292.405	2243.9
2296.302	2219.9
2300.195	2200.9
2304.085	2171.9
2307.971	2143.9
2311.854	2093.9
2315.734	2081.9
2319.609	2040.9
2323.482	2003.9
2327.351	1999.9
2331.216	1982.9
2335.078	1959.9
2338.937	1949.9
2342.792	1949.9
2346.643	1937.9
2350.492	1933.9
2354.336	1918.9
2358.178	1927.9
2362.015	1945.9
2365.85	1961.9
2369.681	1923.9
2373.508	1940.9
2377.333	1936.9
2381.153	1926.9
2384.971	1919.9
2388.785	1894.9
2392.595	1876.9
2396.402	1879.9
2400.206	1844.9
2404.007	1821.9
2407.804	1836.9
2411.597	1822.9
2415.388	1799.9
2419.174	1777.9
2422.958	1761.9
2426.738	1751.9
2430.515	1748.9
2434.289	1708.9
2438.059	1715.9
2441.825	1695.9
2445.589	1672.9
2449.349	1656.9
2453.106	1646.9
2456.859	1611.9
2460.61	1610.9
2464.356	1566.9
2468.1	1569.9
2471.84	1564.9
2475.577	1529.9
2479.311	1522.9
2483.041	1514.9
2486.768	1500.9
2490.492	1493.9
2494.213	1491.9
2497.93	1495.9
2501.644	1472.9
2505.355	1492.9
2509.062	1462.9
2512.766	1456.9
2516.467	1459.9
2520.165	1455.9
2523.859	1435.9
2527.551	1429.9
2531.239	1426.9
2534.923	1391.9
2538.605	1398.9
2542.283	1383.9
2545.958	1373.9
2549.63	1398.9
2553.299	1400.9
2556.964	1389.9
2560.626	1385.9
2564.285	1363.9
2567.941	1365.9
2571.594	1351.9
2575.243	1340.9
2578.89	1340.9
2582.533	1323.9
2586.173	1318.9
2589.809	1304.9
2593.443	1284.9
2597.073	1300.9
2600.701	1270.9
2604.325	1260.9
2607.946	1240.9
2611.564	1228.9
2615.178	1217.9
2618.79	1214.9
2622.398	1214.9
2626.004	1185.9
2629.606	1173.9
2633.205	1164.9
2636.801	1159.9
2640.394	1135.9
2643.983	1103.9
2647.57	1107.9
2651.153	1071.9
2654.734	1058.9
2658.311	1054.9
2661.885	1015.9
2665.456	1018.9
2669.025	1010.9
2672.589	998.9
2676.151	977.9
2679.71	959.9
2683.266	939.9
2686.819	939.9
2690.368	918.9
2693.915	896.9
2697.458	877.9
2700.999	844.9
2704.536	838.9
2708.071	827.9
2711.602	809.9
2715.13	778.9
2718.656	777.9
2722.178	781.9
2725.697	755.9
2729.214	739.9
2732.727	728.9
2736.237	740.9
2739.744	716.9
2743.249	728.9
2746.75	742.9
2750.248	733.9
2753.743	768.9
2757.236	768.9
2760.725	777.9
2764.211	780.9
2767.695	789.9
2771.175	777.9
2774.652	753.9
2778.127	766.9
2781.598	755.9
2785.067	750.9
2788.532	770.9
2791.995	749.9
2795.455	766.9
2798.911	743.9
2802.365	743.9
2805.816	748.9
2809.264	753.9
2812.709	760.9
2816.151	764.9
2819.59	746.9
2823.026	767.9
2826.46	762.9
2829.89	765.9
2833.318	763.9
2836.742	770.9
2840.164	757.9
2843.583	790.9
2846.999	784.9
2850.412	788.9
2853.822	817.9
2857.229	820.9
2860.634	828.9
2864.035	842.9
2867.434	852.9
2870.83	878.9
2874.223	885.9
2877.613	920.9
2881	934.9
2884.385	932.9
2887.766	932.9
2891.145	931.9
2894.521	946.9
2897.894	959.9
2901.264	917.9
2904.631	934.9
2907.996	937.9
2911.358	940.9
2914.717	939.9
2918.073	972.9
2921.426	975.9
2924.777	994.9
2928.124	1007.9
2931.469	1038.9
2934.811	1054.9
2938.15	1061.9
2941.487	1073.9
2944.821	1081.9
2948.152	1085.9
2951.48	1082.9
2954.805	1075.9
2958.128	1047.9
2961.447	1057.9
2964.765	1046.9
2968.079	1047.9
2971.39	1057.9
2974.699	1085.9
2978.005	1090.9
2981.308	1127.9
2984.609	1152.9
2987.907	1174.9
2991.202	1188.9
2994.494	1225.9
2997.784	1242.9
3001.07	1266.9
3004.355	1282.9
3007.636	1296.9
3010.915	1315.9
3014.191	1332.9
3017.464	1348.9
3020.734	1343.9
3024.002	1350.9
3027.267	1357.9
3030.53	1368.9
3033.789	1397.9
3037.046	1426.9
3040.301	1422.9
3043.552	1449.9
3046.801	1498.9
3050.048	1515.9
3053.291	1577.9
3056.532	1602.9
3059.771	1651.9
3063.006	1701.9
3066.239	1758.9
3069.469	1809.9
3072.697	1844.9
3075.922	1886.9
3079.144	1948.9
3082.364	1996.9
3085.581	2037.9
3088.795	2079.9
3092.007	2126.9
3095.216	2174.9
3098.423	2216.9
3101.627	2291.9
3104.828	2327.9
3108.026	2367.9
3111.222	2418.9
3114.416	2496.9
3117.607	2539.9
3120.795	2621.9
3123.98	2662.9
3127.163	2750.9
3130.344	2803.9
3133.521	2865.9
3136.696	2926.9
3139.869	2987.9
3143.039	3053.9
3146.206	3072.9
3149.371	3096.9
3152.533	3148.9
3155.693	3160.9
3158.85	3196.9
3162.005	3216.9
3165.157	3226.9
3168.306	3231.9
3171.453	3237.9
3174.597	3238.9
3177.739	3255.9
3180.878	3272.9
3184.014	3277.9
3187.149	3251.9
3190.28	3274.9
3193.409	3273.9
3196.536	3288.9
3199.659	3294.9
3202.781	3312.9
3205.9	3306.9
3209.016	3289.9
3212.13	3286.9
3215.241	3242.9
3218.35	3218.9
3221.456	3214.9
3224.56	3165.9
3227.661	3114.9
3230.76	3098.9
3233.856	3102.9
3236.95	3053.9
3240.041	3017.9
3243.13	2978.9
3246.216	2969.9
3249.3	2980.9
3252.382	2944.9
3255.46	2937.9
3258.537	2958.9
3261.611	2922.9
3264.682	2932.9
3267.751	2925.9
3270.818	2918.9
3273.882	2919.9
3276.943	2903.9
3280.002	2878.9
3283.059	2843.9
3286.113	2833.9
3289.165	2777.9
3292.214	2735.9
3295.261	2679.9
3298.306	2676.9
3301.348	2603.9
3304.387	2574.9
3307.425	2527.9
3310.459	2486.9
3313.492	2444.9
3316.521	2409.9
3319.549	2422.9
3322.574	2369.9
3325.597	2361.9
3328.617	2351.9
3331.635	2308.9
3334.65	2301.9
3337.663	2302.9
3340.674	2286.9
3343.682	2267.9
3346.688	2256.9
3349.691	2245.9
3352.692	2248.9
3355.691	2215.9
3358.687	2206.9
3361.681	2178.9
3364.673	2156.9
3367.662	2112.9
3370.649	2083.9
3373.633	2066.9
3376.615	2029.9
3379.595	2006.9
3382.572	1973.9
3385.547	1960.9
3388.52	1921.9
3391.49	1895.9
3394.458	1855.9
3397.424	1842.9
3400.387	1819.9
3403.348	1795.9
3406.307	1771.9
3409.263	1765.9
3412.217	1718.9
3415.168	1704.9
3418.118	1694.9
3421.065	1681.9
3424.009	1652.9
3426.951	1634.9
3429.891	1588.9
3432.829	1553.9
3435.764	1511.9
3438.697	1494.9
3441.628	1444.9
3444.557	1394.9
3447.483	1367.9
3450.407	1331.9
3453.328	1282.9
3456.247	1237.9
3459.164	1186.9
3462.079	1144.9
3464.991	1110.9
3467.902	1076.9
3470.809	1014.9
3473.715	1000.9
3476.618	958.9
3479.519	931.9
3482.418	900.9
3485.315	882.9
3488.209	832.9
3491.101	812.9
3493.99	775.9
3496.878	753.9
3499.763	720.9
3502.646	702.9
3505.527	672.9
3508.405	642.9
3511.281	598.9
3514.155	561.9
3517.027	551.9
3519.897	515.9
3522.764	478.9
3525.629	445.9
3528.492	395.9
3531.352	373.9
3534.211	334.9
3537.067	312.9
3539.921	276.9
3542.773	255.9
3545.622	228.9
3548.469	211.9
3551.315	179.9
3554.157	159.9
3556.998	126.9
3559.837	113.9
3562.673	90.9
3565.507	80.9
3568.339	56.9
3571.169	37.9
3573.996	31.9
3576.822	2.9
3579.645	-6.1
3582.466	-25.1
3585.285	-43.1
3588.101	-55.1
3590.916	-67.1
3593.728	-86.1
3596.538	-106.1
3599.346	-126.1
3602.152	-141.1
3604.956	-142.1
3607.757	-157.1
3610.556	-177.1
3613.354	-183.1
3616.149	-198.1
3618.942	-196.1
3621.732	-215.1
3624.521	-225.1
3627.307	-230.1
3630.092	-238.1
3632.874	-249.1
3635.654	-257.1
3638.432	-257.1
3641.208	-266.1
3643.982	-278.1
3646.753	-286.1
3649.523	-294.1
3652.29	-295.1
3655.055	-304.1
3657.818	-320.1
3660.579	-327.1
3663.338	-334.1
3666.095	-341.1
3668.849	-347.1
3671.602	-351.1
3674.352	-364.1
3677.101	-361.1
3679.847	-377.1
3682.591	-385.1
3685.333	-383.1
3688.073	-389.1
3690.811	-383.1
3693.547	-392.1
3696.281	-402.1
3699.013	-405.1
3701.742	-403.1
3704.47	-411.1
3707.195	-420.1
3709.919	-418.1
3712.64	-423.1
3715.359	-420.1
3718.076	-426.1
3720.792	-423.1
3723.505	-430.1
3726.216	-437.1
3728.925	-434.1
3731.632	-438.1
3734.336	-440.1
3737.039	-448.1
3739.74	-445.1
3742.439	-445.1
3745.136	-451.1
3747.83	-457.1
3750.523	-455.1
3753.213	-444.1
3755.902	-460.1
3758.589	-460.1
3761.273	-464.1
3763.956	-463.1
3766.636	-462.1
3769.315	-464.1
3771.991	-469.1
3774.665	-473.1
3777.338	-469.1
3780.008	-473.1
3782.677	-474.1
3785.343	-468.1
3788.007	-476.1
3790.67	-470.1
3793.33	-477.1
3795.989	-477.1
3798.645	-475.1
3801.299	-470.1
3803.952	-481.1
3806.602	-486.1
3809.251	-487.1
3811.897	-483.1
3814.542	-481.1
3817.184	-477.1
3819.825	-483.1
3822.463	-476.1
3825.1	-483.1
3827.735	-485.1
3830.367	-485.1
3832.998	-491.1
3835.627	-493.1
3838.253	-490.1
3840.878	-492.1
3843.501	-491.1
3846.122	-485.1
3848.741	-490.1
3851.358	-489.1
3853.973	-488.1
3856.586	-492.1
3859.197	-493.1
3861.806	-499.1
3864.414	-493.1
3867.019	-488.1
3869.622	-493.1
3872.224	-488.1
3874.823	-475.1
3877.421	-461.1
3880.016	-449.1
3882.61	-431.1
3885.202	-423.1
3887.792	-436.1
3890.38	-459.1
3892.966	-478.1
3895.55	-485.1
3898.132	-504.1
3900.713	-502.1
3903.291	-500.1
3905.868	-502.1
3908.442	-505.1
3911.015	-505.1
3913.586	-499.1
3916.155	-496.1
3918.722	-504.1
3921.287	-501.1
3923.85	-502.1
3926.411	-499.1
3928.971	-510.1
3931.528	-504.1
3934.084	-509.1
3936.638	-499.1
3939.19	-506.1
3941.74	-508.1
3944.288	-507.1
3946.834	-505.1
3949.378	-508.1
3951.921	-506.1
3954.462	-513.1
3957	-503.1
3959.537	-504.1
3962.072	-506.1
3964.606	-500.1
3967.137	-501.1
3969.667	-506.1
3972.194	-493.1
3974.72	-504.1
3977.244	-495.1
3979.766	-497.1
3982.286	-499.1
3984.805	-494.1
3987.321	-493.1
3989.836	-501.1
3992.349	-494.1
3994.86	-493.1
3997.369	-500.1
3999.877	-491.1
4002.382	-490.1
4004.886	-486.1
4007.388	-488.1
4009.888	-486.1
4012.386	-493.1
4014.883	-487.1
4017.377	-488.1
4019.87	-491.1
4022.361	-495.1
4024.85	-496.1
4027.338	-500.1
4029.823	-495.1
4032.307	-501.1
4034.789	-494.1
4037.269	-496.1
4039.747	-498.1
4042.224	-499.1
4044.699	-501.1
4047.172	-493.1
4049.643	-491.1
4052.112	-501.1
4054.58	-494.1
4057.046	-499.1
4059.51	-502.1
4061.972	-498.1
4064.432	-500.1
4066.891	-498.1
4069.348	-495.1
4071.803	-491.1
4074.256	-499.1
4076.708	-500.1
4079.158	-490.1
4081.606	-501.1
4084.052	-497.1
4086.497	-496.1
4088.939	-491.1
4091.38	-492.1
4093.819	-498.1
4096.257	-520.1
4098.693	-523.1
4101.127	-524.1
4103.559	-518.1
4105.989	-294.1
4108.418	-274.1
4110.845	-258.1
4113.27	-240.1
4115.694	-211.1
4118.115	-179.1
4120.535	-490.1
4122.954	-496.1
4125.37	-489.1
4127.785	-500.1
4130.198	-501.1
4132.609	-498.1
4135.019	-524.1
4137.427	-526.1
4139.833	-522.1
4142.237	-525.1
