Data from 2018-2-14_conc=2_n=6_RamanShift_03.txt Node
Date: Wed Feb 14 11:18:56 IST 2018
User: aro
Spectrometer: QEPB0276
Trigger mode: 0
Integration Time (sec): 3.000000E1
Scans to average: 1
Electric dark correction enabled: true
Nonlinearity correction enabled: false
Boxcar width: 0
XAxis mode: Raman Shifts
Number of Pixels in Spectrum: 1044
>>>>>Begin Spectral Data<<<<<
160.701	-138.4
166.742	49.6
172.777	585.6
178.805	2231.6
184.826	6175.6
190.841	12911.6
196.849	20798.6
202.85	26365.6
208.845	28246.6
214.833	27948.6
220.815	27546.6
226.789	27443.6
232.758	27326.6
238.719	27186.6
244.674	26801.6
250.623	26392.6
256.565	25878.6
262.5	25390.6
268.429	24911.6
274.351	24607.6
280.267	24305.6
286.176	24111.6
292.079	23852.6
297.975	23613.6
303.865	23486.6
309.748	23357.6
315.625	23199.6
321.495	23088.6
327.359	23008.6
333.217	23022.6
339.068	22935.6
344.912	22931.6
350.751	22906.6
356.583	22909.6
362.408	22912.6
368.227	22921.6
374.04	22934.6
379.847	22967.6
385.647	23048.6
391.44	23092.6
397.228	23197.6
403.009	23364.6
408.784	23390.6
414.553	23454.6
420.315	23495.6
426.071	23539.6
431.821	23546.6
437.565	23504.6
443.302	23448.6
449.033	23398.6
454.758	23376.6
460.477	23319.6
466.189	23298.6
471.896	23266.6
477.596	23204.6
483.29	23111.6
488.978	23145.6
494.66	23011.6
500.335	22867.6
506.005	22732.6
511.668	22452.6
517.325	22209.6
522.977	21965.6
528.622	21837.6
534.261	21651.6
539.894	21577.6
545.521	21444.6
551.141	21441.6
556.756	21361.6
562.365	21251.6
567.968	21245.6
573.565	21133.6
579.155	21057.6
584.74	20955.6
590.319	20917.6
595.892	20840.6
601.459	20764.6
607.02	20589.6
612.575	20534.6
618.124	20445.6
623.667	20334.6
629.204	20242.6
634.735	20146.6
640.261	20072.6
645.781	19980.6
651.294	19970.6
656.802	19881.6
662.304	19861.6
667.8	19853.6
673.29	19808.6
678.775	19721.6
684.254	19734.6
689.726	19649.6
695.193	19551.6
700.655	19519.6
706.11	19395.6
711.56	19377.6
717.004	19202.6
722.442	19073.6
727.874	19052.6
733.301	19020.6
738.722	18943.6
744.137	18907.6
749.547	18937.6
754.951	18943.6
760.349	18910.6
765.741	18928.6
771.128	18932.6
776.509	18941.6
781.885	18951.6
787.254	18889.6
792.618	18837.6
797.977	18754.6
803.33	18594.6
808.677	18512.6
814.019	18382.6
819.355	18301.6
824.686	18252.6
830.011	18186.6
835.33	18127.6
840.644	18240.6
845.952	18221.6
851.255	18257.6
856.552	18313.6
861.844	18173.6
867.13	18150.6
872.41	18113.6
877.686	18038.6
882.955	17890.6
888.219	17775.6
893.478	17542.6
898.731	17334.6
903.979	17183.6
909.221	17147.6
914.458	17041.6
919.69	17067.6
924.916	17095.6
930.136	17125.6
935.351	17134.6
940.561	17143.6
945.766	17097.6
950.965	17023.6
956.158	16939.6
961.347	16688.6
966.529	16542.6
971.707	16312.6
976.879	16112.6
982.046	15994.6
987.208	15940.6
992.364	15961.6
997.515	15986.6
1002.66	16180.6
1007.801	16322.6
1012.936	16501.6
1018.066	16466.6
1023.19	16437.6
1028.309	16540.6
1033.423	16421.6
1038.532	16368.6
1043.636	16217.6
1048.734	16009.6
1053.827	15849.6
1058.915	15632.6
1063.998	15580.6
1069.075	15488.6
1074.147	15515.6
1079.214	15560.6
1084.276	15661.6
1089.333	15744.6
1094.385	15830.6
1099.431	15941.6
1104.472	15849.6
1109.509	15777.6
1114.54	15625.6
1119.565	15385.6
1124.586	15198.6
1129.602	15104.6
1134.613	14965.6
1139.618	14913.6
1144.619	14862.6
1149.614	14809.6
1154.604	14857.6
1159.589	14888.6
1164.57	14974.6
1169.545	14998.6
1174.515	15009.6
1179.48	14866.6
1184.44	14788.6
1189.395	14713.6
1194.345	14573.6
1199.29	14525.6
1204.23	14510.6
1209.165	14591.6
1214.095	14643.6
1219.021	14708.6
1223.941	14791.6
1228.856	14873.6
1233.766	14877.6
1238.672	14934.6
1243.572	14896.6
1248.467	14806.6
1253.358	14650.6
1258.244	14449.6
1263.124	14235.6
1268	13993.6
1272.871	13852.6
1277.737	13730.6
1282.599	13650.6
1287.455	13679.6
1292.306	13739.6
1297.153	13725.6
1301.995	13833.6
1306.832	13844.6
1311.664	13913.6
1316.491	13877.6
1321.314	13761.6
1326.132	13503.6
1330.945	13183.6
1335.753	12860.6
1340.556	12550.6
1345.354	12240.6
1350.148	12017.6
1354.937	11942.6
1359.722	11893.6
1364.501	11945.6
1369.276	12153.6
1374.046	12364.6
1378.811	12600.6
1383.572	12781.6
1388.327	12771.6
1393.079	12730.6
1397.825	12596.6
1402.567	12398.6
1407.304	12140.6
1412.036	12097.6
1416.764	11967.6
1421.487	11882.6
1426.205	11865.6
1430.919	11801.6
1435.628	11831.6
1440.333	11835.6
1445.032	11872.6
1449.727	11862.6
1454.418	11832.6
1459.104	11726.6
1463.785	11497.6
1468.462	11272.6
1473.134	10984.6
1477.802	10738.6
1482.465	10598.6
1487.123	10444.6
1491.777	10409.6
1496.426	10443.6
1501.071	10596.6
1505.711	10755.6
1510.347	10971.6
1514.978	11136.6
1519.604	11314.6
1524.226	11456.6
1528.844	11498.6
1533.457	11452.6
1538.065	11437.6
1542.669	11369.6
1547.269	11230.6
1551.864	11165.6
1556.454	11163.6
1561.041	11149.6
1565.622	11081.6
1570.199	11140.6
1574.772	11146.6
1579.34	11231.6
1583.904	11264.6
1588.464	11299.6
1593.019	11343.6
1597.569	11303.6
1602.115	11195.6
1606.657	11091.6
1611.195	11027.6
1615.728	10941.6
1620.256	10876.6
1624.78	10823.6
1629.3	10826.6
1633.816	10872.6
1638.327	10939.6
1642.834	10992.6
1647.336	11011.6
1651.834	11069.6
1656.328	11030.6
1660.817	10976.6
1665.302	10850.6
1669.783	10651.6
1674.259	10454.6
1678.732	10112.6
1683.199	9803.6
1687.663	9413.6
1692.122	9073.6
1696.577	8966.6
1701.028	8975.6
1705.474	9099.6
1709.917	9237.6
1714.355	9327.6
1718.788	9283.6
1723.218	9171.6
1727.643	8971.6
1732.064	8823.6
1736.481	8617.6
1740.893	8393.6
1745.301	8238.6
1749.705	8015.6
1754.105	7772.6
1758.501	7525.6
1762.893	7275.6
1767.28	7136.6
1771.663	6931.6
1776.042	6816.6
1780.417	6714.6
1784.787	6737.6
1789.154	6784.6
1793.516	6960.6
1797.874	7069.6
1802.228	7243.6
1806.578	7360.6
1810.924	7360.6
1815.266	7310.6
1819.603	7209.6
1823.937	7074.6
1828.266	6931.6
1832.591	6847.6
1836.913	6741.6
1841.23	6674.6
1845.543	6635.6
1849.852	6605.6
1854.156	6554.6
1858.457	6562.6
1862.754	6554.6
1867.047	6502.6
1871.335	6506.6
1875.62	6490.6
1879.9	6464.6
1884.177	6420.6
1888.449	6356.6
1892.718	6268.6
1896.982	6220.6
1901.243	6160.6
1905.499	6119.6
1909.752	6096.6
1914	6062.6
1918.245	6110.6
1922.485	6141.6
1926.722	6199.6
1930.954	6299.6
1935.183	6396.6
1939.408	6445.6
1943.628	6452.6
1947.845	6515.6
1952.058	6512.6
1956.267	6466.6
1960.472	6373.6
1964.673	6299.6
1968.87	6167.6
1973.063	6077.6
1977.252	5990.6
1981.438	5937.6
1985.619	5854.6
1989.797	5838.6
1993.971	5777.6
1998.14	5728.6
2002.306	5720.6
2006.469	5693.6
2010.627	5653.6
2014.781	5635.6
2018.932	5562.6
2023.078	5536.6
2027.221	5437.6
2031.36	5365.6
2035.495	5281.6
2039.627	5224.6
2043.754	5155.6
2047.878	5077.6
2051.998	5030.6
2056.114	5003.6
2060.226	5013.6
2064.334	5043.6
2068.439	5014.6
2072.54	5047.6
2076.637	5109.6
2080.73	5151.6
2084.82	5152.6
2088.906	5129.6
2092.988	5198.6
2097.066	5179.6
2101.14	5122.6
2105.211	5136.6
2109.278	5094.6
2113.342	5053.6
2117.401	5039.6
2121.457	5019.6
2125.509	4990.6
2129.558	4950.6
2133.602	4910.6
2137.643	4881.6
2141.681	4865.6
2145.714	4878.6
2149.744	4805.6
2153.77	4781.6
2157.793	4731.6
2161.812	4658.6
2165.827	4596.6
2169.838	4530.6
2173.846	4470.6
2177.851	4399.6
2181.851	4326.6
2185.848	4282.6
2189.841	4232.6
2193.831	4205.6
2197.817	4141.6
2201.799	4119.6
2205.778	4099.6
2209.753	4071.6
2213.725	4062.6
2217.693	4060.6
2221.657	4062.6
2225.618	4051.6
2229.575	4014.6
2233.529	3974.6
2237.479	3964.6
2241.425	3908.6
2245.368	3857.6
2249.307	3812.6
2253.243	3750.6
2257.175	3716.6
2261.104	3650.6
2265.029	3633.6
2268.95	3586.6
2272.868	3546.6
2276.783	3510.6
2280.694	3458.6
2284.601	3415.6
2288.505	3407.6
2292.405	3382.6
2296.302	3347.6
2300.195	3305.6
2304.085	3269.6
2307.971	3227.6
2311.854	3174.6
2315.734	3135.6
2319.609	3089.6
2323.482	3001.6
2327.351	3031.6
2331.216	2967.6
2335.078	3002.6
2338.937	2955.6
2342.792	2949.6
2346.643	2941.6
2350.492	2947.6
2354.336	2936.6
2358.178	2940.6
2362.015	2967.6
2365.85	2960.6
2369.681	2944.6
2373.508	2972.6
2377.333	2966.6
2381.153	2965.6
2384.971	2909.6
2388.785	2914.6
2392.595	2865.6
2396.402	2886.6
2400.206	2839.6
2404.007	2810.6
2407.804	2805.6
2411.597	2784.6
2415.388	2772.6
2419.174	2725.6
2422.958	2718.6
2426.738	2721.6
2430.515	2675.6
2434.289	2652.6
2438.059	2623.6
2441.825	2620.6
2445.589	2572.6
2449.349	2587.6
2453.106	2540.6
2456.859	2495.6
2460.61	2470.6
2464.356	2448.6
2468.1	2419.6
2471.84	2421.6
2475.577	2372.6
2479.311	2352.6
2483.041	2361.6
2486.768	2324.6
2490.492	2347.6
2494.213	2308.6
2497.93	2313.6
2501.644	2279.6
2505.355	2281.6
2509.062	2278.6
2512.766	2252.6
2516.467	2247.6
2520.165	2225.6
2523.859	2185.6
2527.551	2191.6
2531.239	2165.6
2534.923	2159.6
2538.605	2158.6
2542.283	2146.6
2545.958	2140.6
2549.63	2139.6
2553.299	2139.6
2556.964	2118.6
2560.626	2132.6
2564.285	2111.6
2567.941	2110.6
2571.594	2105.6
2575.243	2107.6
2578.89	2087.6
2582.533	2064.6
2586.173	2041.6
2589.809	2040.6
2593.443	2026.6
2597.073	1976.6
2600.701	1981.6
2604.325	1970.6
2607.946	1946.6
2611.564	1939.6
2615.178	1937.6
2618.79	1908.6
2622.398	1899.6
2626.004	1859.6
2629.606	1862.6
2633.205	1838.6
2636.801	1807.6
2640.394	1780.6
2643.983	1740.6
2647.57	1708.6
2651.153	1702.6
2654.734	1663.6
2658.311	1643.6
2661.885	1624.6
2665.456	1601.6
2669.025	1565.6
2672.589	1557.6
2676.151	1541.6
2679.71	1535.6
2683.266	1506.6
2686.819	1465.6
2690.368	1454.6
2693.915	1421.6
2697.458	1389.6
2700.999	1378.6
2704.536	1318.6
2708.071	1305.6
2711.602	1276.6
2715.13	1229.6
2718.656	1216.6
2722.178	1197.6
2725.697	1162.6
2729.214	1156.6
2732.727	1157.6
2736.237	1138.6
2739.744	1118.6
2743.249	1118.6
2746.75	1166.6
2750.248	1152.6
2753.743	1168.6
2757.236	1179.6
2760.725	1202.6
2764.211	1206.6
2767.695	1227.6
2771.175	1202.6
2774.652	1204.6
2778.127	1194.6
2781.598	1182.6
2785.067	1183.6
2788.532	1185.6
2791.995	1150.6
2795.455	1154.6
2798.911	1181.6
2802.365	1171.6
2805.816	1175.6
2809.264	1173.6
2812.709	1163.6
2816.151	1167.6
2819.59	1169.6
2823.026	1154.6
2826.46	1150.6
2829.89	1160.6
2833.318	1160.6
2836.742	1169.6
2840.164	1172.6
2843.583	1169.6
2846.999	1202.6
2850.412	1210.6
2853.822	1193.6
2857.229	1220.6
2860.634	1238.6
2864.035	1240.6
2867.434	1282.6
2870.83	1311.6
2874.223	1320.6
2877.613	1320.6
2881	1349.6
2884.385	1351.6
2887.766	1359.6
2891.145	1322.6
2894.521	1333.6
2897.894	1337.6
2901.264	1329.6
2904.631	1339.6
2907.996	1322.6
2911.358	1332.6
2914.717	1347.6
2918.073	1361.6
2921.426	1384.6
2924.777	1365.6
2928.124	1392.6
2931.469	1427.6
2934.811	1435.6
2938.15	1440.6
2941.487	1462.6
2944.821	1465.6
2948.152	1488.6
2951.48	1440.6
2954.805	1435.6
2958.128	1417.6
2961.447	1399.6
2964.765	1397.6
2968.079	1412.6
2971.39	1408.6
2974.699	1423.6
2978.005	1454.6
2981.308	1454.6
2984.609	1488.6
2987.907	1524.6
2991.202	1551.6
2994.494	1587.6
2997.784	1619.6
3001.07	1655.6
3004.355	1652.6
3007.636	1705.6
3010.915	1722.6
3014.191	1705.6
3017.464	1729.6
3020.734	1760.6
3024.002	1748.6
3027.267	1757.6
3030.53	1776.6
3033.789	1823.6
3037.046	1814.6
3040.301	1834.6
3043.552	1870.6
3046.801	1900.6
3050.048	1942.6
3053.291	1981.6
3056.532	2049.6
3059.771	2083.6
3063.006	2158.6
3066.239	2217.6
3069.469	2282.6
3072.697	2314.6
3075.922	2384.6
3079.144	2442.6
3082.364	2500.6
3085.581	2534.6
3088.795	2595.6
3092.007	2645.6
3095.216	2695.6
3098.423	2751.6
3101.627	2810.6
3104.828	2886.6
3108.026	2937.6
3111.222	2998.6
3114.416	3073.6
3117.607	3129.6
3120.795	3205.6
3123.98	3285.6
3127.163	3352.6
3130.344	3443.6
3133.521	3534.6
3136.696	3598.6
3139.869	3660.6
3143.039	3713.6
3146.206	3776.6
3149.371	3801.6
3152.533	3849.6
3155.693	3905.6
3158.85	3900.6
3162.005	3925.6
3165.157	3912.6
3168.306	3916.6
3171.453	3940.6
3174.597	3992.6
3177.739	3973.6
3180.878	3997.6
3184.014	3956.6
3187.149	3967.6
3190.28	3977.6
3193.409	3988.6
3196.536	3972.6
3199.659	3995.6
3202.781	3995.6
3205.9	4004.6
3209.016	4002.6
3212.13	3983.6
3215.241	3973.6
3218.35	3912.6
3221.456	3865.6
3224.56	3836.6
3227.661	3800.6
3230.76	3752.6
3233.856	3735.6
3236.95	3686.6
3240.041	3650.6
3243.13	3648.6
3246.216	3602.6
3249.3	3594.6
3252.382	3590.6
3255.46	3559.6
3258.537	3571.6
3261.611	3554.6
3264.682	3561.6
3267.751	3553.6
3270.818	3533.6
3273.882	3530.6
3276.943	3507.6
3280.002	3469.6
3283.059	3455.6
3286.113	3406.6
3289.165	3366.6
3292.214	3305.6
3295.261	3268.6
3298.306	3190.6
3301.348	3176.6
3304.387	3094.6
3307.425	3051.6
3310.459	3008.6
3313.492	2964.6
3316.521	2922.6
3319.549	2879.6
3322.574	2858.6
3325.597	2826.6
3328.617	2814.6
3331.635	2795.6
3334.65	2767.6
3337.663	2744.6
3340.674	2759.6
3343.682	2712.6
3346.688	2727.6
3349.691	2721.6
3352.692	2690.6
3355.691	2651.6
3358.687	2662.6
3361.681	2609.6
3364.673	2579.6
3367.662	2533.6
3370.649	2488.6
3373.633	2465.6
3376.615	2429.6
3379.595	2397.6
3382.572	2361.6
3385.547	2348.6
3388.52	2285.6
3391.49	2278.6
3394.458	2220.6
3397.424	2195.6
3400.387	2167.6
3403.348	2138.6
3406.307	2120.6
3409.263	2071.6
3412.217	2058.6
3415.168	2052.6
3418.118	2012.6
3421.065	1987.6
3424.009	1974.6
3426.951	1916.6
3429.891	1899.6
3432.829	1863.6
3435.764	1819.6
3438.697	1754.6
3441.628	1719.6
3444.557	1691.6
3447.483	1609.6
3450.407	1553.6
3453.328	1507.6
3456.247	1467.6
3459.164	1408.6
3462.079	1369.6
3464.991	1305.6
3467.902	1243.6
3470.809	1210.6
3473.715	1167.6
3476.618	1115.6
3479.519	1093.6
3482.418	1042.6
3485.315	1011.6
3488.209	980.6
3491.101	915.6
3493.99	897.6
3496.878	861.6
3499.763	858.6
3502.646	808.6
3505.527	775.6
3508.405	740.6
3511.281	678.6
3514.155	649.6
3517.027	614.6
3519.897	573.6
3522.764	538.6
3525.629	502.6
3528.492	426.6
3531.352	397.6
3534.211	388.6
3537.067	339.6
3539.921	300.6
3542.773	274.6
3545.622	236.6
3548.469	213.6
3551.315	183.6
3554.157	160.6
3556.998	130.6
3559.837	106.6
3562.673	72.6
3565.507	58.6
3568.339	13.6
3571.169	14.6
3573.996	-4.4
3576.822	-25.4
3579.645	-52.4
3582.466	-72.4
3585.285	-94.4
3588.101	-111.4
3590.916	-126.4
3593.728	-149.4
3596.538	-174.4
3599.346	-183.4
3602.152	-208.4
3604.956	-219.4
3607.757	-232.4
3610.556	-245.4
3613.354	-259.4
3616.149	-279.4
3618.942	-286.4
3621.732	-299.4
3624.521	-308.4
3627.307	-318.4
3630.092	-339.4
3632.874	-344.4
3635.654	-346.4
3638.432	-356.4
3641.208	-365.4
3643.982	-386.4
3646.753	-387.4
3649.523	-398.4
3652.29	-395.4
3655.055	-410.4
3657.818	-428.4
3660.579	-433.4
3663.338	-448.4
3666.095	-456.4
3668.849	-472.4
3671.602	-471.4
3674.352	-480.4
3677.101	-490.4
3679.847	-495.4
3682.591	-495.4
3685.333	-501.4
3688.073	-513.4
3690.811	-512.4
3693.547	-517.4
3696.281	-530.4
3699.013	-535.4
3701.742	-536.4
3704.47	-536.4
3707.195	-547.4
3709.919	-553.4
3712.64	-551.4
3715.359	-553.4
3718.076	-557.4
3720.792	-560.4
3723.505	-559.4
3726.216	-572.4
3728.925	-574.4
3731.632	-576.4
3734.336	-573.4
3737.039	-584.4
3739.74	-576.4
3742.439	-584.4
3745.136	-592.4
3747.83	-595.4
3750.523	-591.4
3753.213	-582.4
3755.902	-596.4
3758.589	-600.4
3761.273	-598.4
3763.956	-604.4
3766.636	-608.4
3769.315	-606.4
3771.991	-609.4
3774.665	-611.4
3777.338	-610.4
3780.008	-606.4
3782.677	-612.4
3785.343	-613.4
3788.007	-617.4
3790.67	-617.4
3793.33	-623.4
3795.989	-615.4
3798.645	-621.4
3801.299	-619.4
3803.952	-630.4
3806.602	-632.4
3809.251	-631.4
3811.897	-628.4
3814.542	-629.4
3817.184	-623.4
3819.825	-622.4
3822.463	-624.4
3825.1	-635.4
3827.735	-628.4
3830.367	-627.4
3832.998	-635.4
3835.627	-644.4
3838.253	-640.4
3840.878	-641.4
3843.501	-643.4
3846.122	-633.4
3848.741	-633.4
3851.358	-637.4
3853.973	-635.4
3856.586	-638.4
3859.197	-647.4
3861.806	-640.4
3864.414	-636.4
3867.019	-639.4
3869.622	-641.4
3872.224	-637.4
3874.823	-615.4
3877.421	-596.4
3880.016	-586.4
3882.61	-569.4
3885.202	-562.4
3887.792	-572.4
3890.38	-604.4
3892.966	-626.4
3895.55	-645.4
3898.132	-650.4
3900.713	-655.4
3903.291	-652.4
3905.868	-655.4
3908.442	-656.4
3911.015	-656.4
3913.586	-650.4
3916.155	-644.4
3918.722	-653.4
3921.287	-652.4
3923.85	-653.4
3926.411	-656.4
3928.971	-667.4
3931.528	-660.4
3934.084	-660.4
3936.638	-652.4
3939.19	-659.4
3941.74	-661.4
3944.288	-657.4
3946.834	-653.4
3949.378	-657.4
3951.921	-651.4
3954.462	-660.4
3957	-654.4
3959.537	-658.4
3962.072	-651.4
3964.606	-655.4
3967.137	-657.4
3969.667	-660.4
3972.194	-656.4
3974.72	-655.4
3977.244	-652.4
3979.766	-650.4
3982.286	-648.4
3984.805	-644.4
3987.321	-640.4
3989.836	-646.4
3992.349	-635.4
3994.86	-642.4
3997.369	-646.4
3999.877	-641.4
4002.382	-638.4
4004.886	-644.4
4007.388	-640.4
4009.888	-644.4
4012.386	-644.4
4014.883	-646.4
4017.377	-641.4
4019.87	-641.4
4022.361	-641.4
4024.85	-645.4
4027.338	-647.4
4029.823	-644.4
4032.307	-642.4
4034.789	-642.4
4037.269	-641.4
4039.747	-645.4
4042.224	-646.4
4044.699	-644.4
4047.172	-645.4
4049.643	-644.4
4052.112	-651.4
4054.58	-655.4
4057.046	-652.4
4059.51	-652.4
4061.972	-649.4
4064.432	-652.4
4066.891	-649.4
4069.348	-645.4
4071.803	-642.4
4074.256	-646.4
4076.708	-646.4
4079.158	-639.4
4081.606	-648.4
4084.052	-651.4
4086.497	-643.4
4088.939	-639.4
4091.38	-637.4
4093.819	-641.4
4096.257	-682.4
4098.693	-682.4
4101.127	-684.4
4103.559	-675.4
4105.989	-385.4
4108.418	-354.4
4110.845	-337.4
4113.27	-315.4
4115.694	-275.4
4118.115	-227.4
4120.535	-645.4
4122.954	-646.4
4125.37	-636.4
4127.785	-651.4
4130.198	-646.4
4132.609	-650.4
4135.019	-681.4
4137.427	-685.4
4139.833	-683.4
4142.237	-678.4
