Data from 2018-2-14_conc=2_n=3_RamanShift_02.txt Node
Date: Wed Feb 14 11:06:56 IST 2018
User: aro
Spectrometer: QEPB0276
Trigger mode: 0
Integration Time (sec): 3.000000E1
Scans to average: 1
Electric dark correction enabled: true
Nonlinearity correction enabled: false
Boxcar width: 0
XAxis mode: Raman Shifts
Number of Pixels in Spectrum: 1044
>>>>>Begin Spectral Data<<<<<
160.701	-144.9
166.742	58.1
172.777	583.1
178.805	2249.1
184.826	6275.1
190.841	13069.1
196.849	20970.1
202.85	26611.1
208.845	28419.1
214.833	28171.1
220.815	27640.1
226.789	27336.1
232.758	27274.1
238.719	26999.1
244.674	26623.1
250.623	26045.1
256.565	25516.1
262.5	24938.1
268.429	24437.1
274.351	24042.1
280.267	23749.1
286.176	23509.1
292.079	23260.1
297.975	23000.1
303.865	22739.1
309.748	22558.1
315.625	22377.1
321.495	22271.1
327.359	22196.1
333.217	22113.1
339.068	22084.1
344.912	22035.1
350.751	22099.1
356.583	22036.1
362.408	22012.1
368.227	21915.1
374.04	22056.1
379.847	22053.1
385.647	22098.1
391.44	22280.1
397.228	22327.1
403.009	22421.1
408.784	22432.1
414.553	22537.1
420.315	22607.1
426.071	22545.1
431.821	22631.1
437.565	22579.1
443.302	22580.1
449.033	22473.1
454.758	22452.1
460.477	22396.1
466.189	22344.1
471.896	22267.1
477.596	22220.1
483.29	22173.1
488.978	22088.1
494.66	22078.1
500.335	21960.1
506.005	21694.1
511.668	21457.1
517.325	21181.1
522.977	20952.1
528.622	20835.1
534.261	20745.1
539.894	20603.1
545.521	20527.1
551.141	20451.1
556.756	20401.1
562.365	20281.1
567.968	20177.1
573.565	20123.1
579.155	19974.1
584.74	19974.1
590.319	19862.1
595.892	19779.1
601.459	19732.1
607.02	19569.1
612.575	19496.1
618.124	19352.1
623.667	19335.1
629.204	19225.1
634.735	19089.1
640.261	19006.1
645.781	18942.1
651.294	18899.1
656.802	18890.1
662.304	18789.1
667.8	18778.1
673.29	18746.1
678.775	18740.1
684.254	18643.1
689.726	18583.1
695.193	18571.1
700.655	18399.1
706.11	18380.1
711.56	18223.1
717.004	18136.1
722.442	18084.1
727.874	17989.1
733.301	17979.1
738.722	17919.1
744.137	17841.1
749.547	17836.1
754.951	17887.1
760.349	17837.1
765.741	17805.1
771.128	17899.1
776.509	17807.1
781.885	17874.1
787.254	17835.1
792.618	17674.1
797.977	17584.1
803.33	17531.1
808.677	17411.1
814.019	17282.1
819.355	17202.1
824.686	17147.1
830.011	17089.1
835.33	17152.1
840.644	17083.1
845.952	17107.1
851.255	17126.1
856.552	17184.1
861.844	17132.1
867.13	17117.1
872.41	17008.1
877.686	16863.1
882.955	16775.1
888.219	16601.1
893.478	16435.1
898.731	16263.1
903.979	16056.1
909.221	16011.1
914.458	15955.1
919.69	15830.1
924.916	15915.1
930.136	15962.1
935.351	15997.1
940.561	16013.1
945.766	15954.1
950.965	15969.1
956.158	15760.1
961.347	15633.1
966.529	15408.1
971.707	15233.1
976.879	15014.1
982.046	14944.1
987.208	14892.1
992.364	14831.1
997.515	14962.1
1002.66	15102.1
1007.801	15211.1
1012.936	15328.1
1018.066	15319.1
1023.19	15327.1
1028.309	15352.1
1033.423	15289.1
1038.532	15219.1
1043.636	15042.1
1048.734	14874.1
1053.827	14676.1
1058.915	14516.1
1063.998	14455.1
1069.075	14438.1
1074.147	14404.1
1079.214	14460.1
1084.276	14516.1
1089.333	14646.1
1094.385	14697.1
1099.431	14804.1
1104.472	14718.1
1109.509	14639.1
1114.54	14482.1
1119.565	14317.1
1124.586	14049.1
1129.602	13894.1
1134.613	13807.1
1139.618	13795.1
1144.619	13712.1
1149.614	13727.1
1154.604	13764.1
1159.589	13777.1
1164.57	13812.1
1169.545	13892.1
1174.515	13852.1
1179.48	13765.1
1184.44	13709.1
1189.395	13570.1
1194.345	13459.1
1199.29	13389.1
1204.23	13367.1
1209.165	13455.1
1214.095	13539.1
1219.021	13574.1
1223.941	13639.1
1228.856	13741.1
1233.766	13726.1
1238.672	13761.1
1243.572	13790.1
1248.467	13647.1
1253.358	13529.1
1258.244	13358.1
1263.124	13117.1
1268	12917.1
1272.871	12803.1
1277.737	12638.1
1282.599	12584.1
1287.455	12601.1
1292.306	12580.1
1297.153	12618.1
1301.995	12687.1
1306.832	12732.1
1311.664	12774.1
1316.491	12773.1
1321.314	12634.1
1326.132	12436.1
1330.945	12182.1
1335.753	11890.1
1340.556	11608.1
1345.354	11353.1
1350.148	11201.1
1354.937	11170.1
1359.722	11138.1
1364.501	11223.1
1369.276	11360.1
1374.046	11453.1
1378.811	11622.1
1383.572	11733.1
1388.327	11770.1
1393.079	11711.1
1397.825	11541.1
1402.567	11335.1
1407.304	11255.1
1412.036	11099.1
1416.764	11060.1
1421.487	10975.1
1426.205	10874.1
1430.919	10897.1
1435.628	10874.1
1440.333	10876.1
1445.032	10886.1
1449.727	10992.1
1454.418	10940.1
1459.104	10844.1
1463.785	10623.1
1468.462	10454.1
1473.134	10220.1
1477.802	10002.1
1482.465	9880.1
1487.123	9778.1
1491.777	9754.1
1496.426	9817.1
1501.071	9925.1
1505.711	10082.1
1510.347	10236.1
1514.978	10417.1
1519.604	10592.1
1524.226	10667.1
1528.844	10666.1
1533.457	10635.1
1538.065	10638.1
1542.669	10531.1
1547.269	10444.1
1551.864	10367.1
1556.454	10311.1
1561.041	10339.1
1565.622	10269.1
1570.199	10293.1
1574.772	10354.1
1579.34	10438.1
1583.904	10488.1
1588.464	10470.1
1593.019	10540.1
1597.569	10535.1
1602.115	10463.1
1606.657	10326.1
1611.195	10319.1
1615.728	10225.1
1620.256	10244.1
1624.78	10171.1
1629.3	10245.1
1633.816	10239.1
1638.327	10326.1
1642.834	10386.1
1647.336	10429.1
1651.834	10452.1
1656.328	10447.1
1660.817	10371.1
1665.302	10305.1
1669.783	10143.1
1674.259	9939.1
1678.732	9657.1
1683.199	9304.1
1687.663	8989.1
1692.122	8754.1
1696.577	8615.1
1701.028	8569.1
1705.474	8652.1
1709.917	8778.1
1714.355	8733.1
1718.788	8672.1
1723.218	8547.1
1727.643	8373.1
1732.064	8188.1
1736.481	7990.1
1740.893	7800.1
1745.301	7571.1
1749.705	7382.1
1754.105	7186.1
1758.501	6967.1
1762.893	6760.1
1767.28	6586.1
1771.663	6484.1
1776.042	6397.1
1780.417	6325.1
1784.787	6317.1
1789.154	6461.1
1793.516	6534.1
1797.874	6669.1
1802.228	6748.1
1806.578	6808.1
1810.924	6817.1
1815.266	6778.1
1819.603	6635.1
1823.937	6511.1
1828.266	6411.1
1832.591	6323.1
1836.913	6237.1
1841.23	6187.1
1845.543	6102.1
1849.852	6080.1
1854.156	6064.1
1858.457	6044.1
1862.754	6059.1
1867.047	6026.1
1871.335	6038.1
1875.62	5989.1
1879.9	6006.1
1884.177	5976.1
1888.449	5921.1
1892.718	5852.1
1896.982	5828.1
1901.243	5748.1
1905.499	5728.1
1909.752	5680.1
1914	5739.1
1918.245	5724.1
1922.485	5824.1
1926.722	5872.1
1930.954	5948.1
1935.183	5994.1
1939.408	6038.1
1943.628	6114.1
1947.845	6111.1
1952.058	6053.1
1956.267	6032.1
1960.472	5928.1
1964.673	5860.1
1968.87	5760.1
1973.063	5642.1
1977.252	5578.1
1981.438	5521.1
1985.619	5473.1
1989.797	5408.1
1993.971	5349.1
1998.14	5361.1
2002.306	5345.1
2006.469	5298.1
2010.627	5255.1
2014.781	5222.1
2018.932	5204.1
2023.078	5142.1
2027.221	5101.1
2031.36	5007.1
2035.495	4909.1
2039.627	4879.1
2043.754	4808.1
2047.878	4752.1
2051.998	4730.1
2056.114	4731.1
2060.226	4748.1
2064.334	4716.1
2068.439	4732.1
2072.54	4793.1
2076.637	4867.1
2080.73	4831.1
2084.82	4867.1
2088.906	4881.1
2092.988	4894.1
2097.066	4886.1
2101.14	4858.1
2105.211	4820.1
2109.278	4783.1
2113.342	4758.1
2117.401	4746.1
2121.457	4702.1
2125.509	4680.1
2129.558	4622.1
2133.602	4635.1
2137.643	4601.1
2141.681	4567.1
2145.714	4549.1
2149.744	4491.1
2153.77	4471.1
2157.793	4428.1
2161.812	4340.1
2165.827	4317.1
2169.838	4223.1
2173.846	4169.1
2177.851	4072.1
2181.851	4022.1
2185.848	3980.1
2189.841	3939.1
2193.831	3894.1
2197.817	3856.1
2201.799	3814.1
2205.778	3828.1
2209.753	3783.1
2213.725	3775.1
2217.693	3785.1
2221.657	3773.1
2225.618	3775.1
2229.575	3732.1
2233.529	3689.1
2237.479	3659.1
2241.425	3608.1
2245.368	3555.1
2249.307	3467.1
2253.243	3465.1
2257.175	3427.1
2261.104	3367.1
2265.029	3342.1
2268.95	3311.1
2272.868	3252.1
2276.783	3233.1
2280.694	3208.1
2284.601	3152.1
2288.505	3137.1
2292.405	3110.1
2296.302	3057.1
2300.195	2999.1
2304.085	2971.1
2307.971	2937.1
2311.854	2899.1
2315.734	2846.1
2319.609	2785.1
2323.482	2775.1
2327.351	2724.1
2331.216	2714.1
2335.078	2699.1
2338.937	2695.1
2342.792	2660.1
2346.643	2641.1
2350.492	2653.1
2354.336	2663.1
2358.178	2650.1
2362.015	2653.1
2365.85	2670.1
2369.681	2661.1
2373.508	2665.1
2377.333	2680.1
2381.153	2650.1
2384.971	2621.1
2388.785	2585.1
2392.595	2572.1
2396.402	2580.1
2400.206	2530.1
2404.007	2532.1
2407.804	2506.1
2411.597	2498.1
2415.388	2454.1
2419.174	2490.1
2422.958	2444.1
2426.738	2412.1
2430.515	2401.1
2434.289	2382.1
2438.059	2350.1
2441.825	2341.1
2445.589	2305.1
2449.349	2275.1
2453.106	2283.1
2456.859	2234.1
2460.61	2209.1
2464.356	2164.1
2468.1	2149.1
2471.84	2118.1
2475.577	2106.1
2479.311	2096.1
2483.041	2080.1
2486.768	2086.1
2490.492	2059.1
2494.213	2072.1
2497.93	2060.1
2501.644	2068.1
2505.355	2065.1
2509.062	2053.1
2512.766	2046.1
2516.467	2028.1
2520.165	1994.1
2523.859	1991.1
2527.551	1974.1
2531.239	1974.1
2534.923	1965.1
2538.605	1946.1
2542.283	1959.1
2545.958	1942.1
2549.63	1938.1
2553.299	1936.1
2556.964	1947.1
2560.626	1896.1
2564.285	1901.1
2567.941	1910.1
2571.594	1879.1
2575.243	1885.1
2578.89	1863.1
2582.533	1852.1
2586.173	1832.1
2589.809	1818.1
2593.443	1811.1
2597.073	1768.1
2600.701	1760.1
2604.325	1745.1
2607.946	1723.1
2611.564	1705.1
2615.178	1700.1
2618.79	1702.1
2622.398	1694.1
2626.004	1671.1
2629.606	1656.1
2633.205	1621.1
2636.801	1598.1
2640.394	1569.1
2643.983	1555.1
2647.57	1559.1
2651.153	1507.1
2654.734	1470.1
2658.311	1451.1
2661.885	1432.1
2665.456	1430.1
2669.025	1390.1
2672.589	1377.1
2676.151	1360.1
2679.71	1334.1
2683.266	1337.1
2686.819	1302.1
2690.368	1262.1
2693.915	1258.1
2697.458	1211.1
2700.999	1195.1
2704.536	1170.1
2708.071	1131.1
2711.602	1124.1
2715.13	1108.1
2718.656	1071.1
2722.178	1057.1
2725.697	1053.1
2729.214	1041.1
2732.727	1035.1
2736.237	1030.1
2739.744	1016.1
2743.249	1037.1
2746.75	1053.1
2750.248	1045.1
2753.743	1056.1
2757.236	1071.1
2760.725	1098.1
2764.211	1091.1
2767.695	1104.1
2771.175	1075.1
2774.652	1090.1
2778.127	1072.1
2781.598	1076.1
2785.067	1072.1
2788.532	1071.1
2791.995	1061.1
2795.455	1057.1
2798.911	1063.1
2802.365	1070.1
2805.816	1056.1
2809.264	1064.1
2812.709	1056.1
2816.151	1066.1
2819.59	1062.1
2823.026	1046.1
2826.46	1048.1
2829.89	1059.1
2833.318	1065.1
2836.742	1083.1
2840.164	1074.1
2843.583	1070.1
2846.999	1101.1
2850.412	1104.1
2853.822	1112.1
2857.229	1134.1
2860.634	1167.1
2864.035	1166.1
2867.434	1183.1
2870.83	1220.1
2874.223	1219.1
2877.613	1263.1
2881	1282.1
2884.385	1266.1
2887.766	1291.1
2891.145	1286.1
2894.521	1279.1
2897.894	1279.1
2901.264	1282.1
2904.631	1298.1
2907.996	1273.1
2911.358	1294.1
2914.717	1303.1
2918.073	1324.1
2921.426	1327.1
2924.777	1364.1
2928.124	1361.1
2931.469	1393.1
2934.811	1420.1
2938.15	1442.1
2941.487	1462.1
2944.821	1466.1
2948.152	1462.1
2951.48	1454.1
2954.805	1434.1
2958.128	1424.1
2961.447	1430.1
2964.765	1421.1
2968.079	1422.1
2971.39	1451.1
2974.699	1465.1
2978.005	1486.1
2981.308	1504.1
2984.609	1528.1
2987.907	1567.1
2991.202	1601.1
2994.494	1652.1
2997.784	1671.1
3001.07	1692.1
3004.355	1711.1
3007.636	1753.1
3010.915	1771.1
3014.191	1773.1
3017.464	1794.1
3020.734	1811.1
3024.002	1814.1
3027.267	1850.1
3030.53	1835.1
3033.789	1877.1
3037.046	1880.1
3040.301	1924.1
3043.552	1955.1
3046.801	2007.1
3050.048	2053.1
3053.291	2091.1
3056.532	2136.1
3059.771	2209.1
3063.006	2283.1
3066.239	2374.1
3069.469	2431.1
3072.697	2477.1
3075.922	2546.1
3079.144	2622.1
3082.364	2680.1
3085.581	2709.1
3088.795	2793.1
3092.007	2851.1
3095.216	2885.1
3098.423	2984.1
3101.627	3060.1
3104.828	3109.1
3108.026	3162.1
3111.222	3238.1
3114.416	3344.1
3117.607	3386.1
3120.795	3468.1
3123.98	3568.1
3127.163	3625.1
3130.344	3716.1
3133.521	3813.1
3136.696	3891.1
3139.869	3974.1
3143.039	4041.1
3146.206	4106.1
3149.371	4110.1
3152.533	4197.1
3155.693	4215.1
3158.85	4264.1
3162.005	4252.1
3165.157	4298.1
3168.306	4282.1
3171.453	4292.1
3174.597	4314.1
3177.739	4328.1
3180.878	4301.1
3184.014	4355.1
3187.149	4321.1
3190.28	4328.1
3193.409	4344.1
3196.536	4334.1
3199.659	4344.1
3202.781	4375.1
3205.9	4388.1
3209.016	4362.1
3212.13	4344.1
3215.241	4296.1
3218.35	4276.1
3221.456	4224.1
3224.56	4181.1
3227.661	4134.1
3230.76	4082.1
3233.856	4027.1
3236.95	4013.1
3240.041	3987.1
3243.13	3946.1
3246.216	3949.1
3249.3	3934.1
3252.382	3919.1
3255.46	3895.1
3258.537	3897.1
3261.611	3877.1
3264.682	3864.1
3267.751	3877.1
3270.818	3884.1
3273.882	3857.1
3276.943	3855.1
3280.002	3840.1
3283.059	3776.1
3286.113	3723.1
3289.165	3672.1
3292.214	3630.1
3295.261	3596.1
3298.306	3518.1
3301.348	3443.1
3304.387	3385.1
3307.425	3324.1
3310.459	3303.1
3313.492	3254.1
3316.521	3189.1
3319.549	3185.1
3322.574	3100.1
3325.597	3123.1
3328.617	3060.1
3331.635	3045.1
3334.65	3019.1
3337.663	3044.1
3340.674	3010.1
3343.682	2994.1
3346.688	2987.1
3349.691	2958.1
3352.692	2937.1
3355.691	2938.1
3358.687	2917.1
3361.681	2875.1
3364.673	2842.1
3367.662	2788.1
3370.649	2755.1
3373.633	2726.1
3376.615	2674.1
3379.595	2632.1
3382.572	2588.1
3385.547	2591.1
3388.52	2538.1
3391.49	2507.1
3394.458	2461.1
3397.424	2433.1
3400.387	2406.1
3403.348	2376.1
3406.307	2347.1
3409.263	2311.1
3412.217	2302.1
3415.168	2262.1
3418.118	2260.1
3421.065	2204.1
3424.009	2175.1
3426.951	2149.1
3429.891	2109.1
3432.829	2058.1
3435.764	2001.1
3438.697	1952.1
3441.628	1919.1
3444.557	1865.1
3447.483	1799.1
3450.407	1741.1
3453.328	1697.1
3456.247	1627.1
3459.164	1571.1
3462.079	1524.1
3464.991	1456.1
3467.902	1413.1
3470.809	1361.1
3473.715	1304.1
3476.618	1274.1
3479.519	1232.1
3482.418	1186.1
3485.315	1134.1
3488.209	1098.1
3491.101	1064.1
3493.99	1026.1
3496.878	992.1
3499.763	951.1
3502.646	904.1
3505.527	884.1
3508.405	832.1
3511.281	780.1
3514.155	752.1
3517.027	710.1
3519.897	673.1
3522.764	626.1
3525.629	573.1
3528.492	544.1
3531.352	487.1
3534.211	453.1
3537.067	415.1
3539.921	378.1
3542.773	336.1
3545.622	280.1
3548.469	260.1
3551.315	231.1
3554.157	208.1
3556.998	179.1
3559.837	149.1
3562.673	115.1
3565.507	98.1
3568.339	76.1
3571.169	55.1
3573.996	24.1
3576.822	9.1
3579.645	-7.9
3582.466	-36.9
3585.285	-51.9
3588.101	-77.9
3590.916	-93.9
3593.728	-129.9
3596.538	-132.9
3599.346	-159.9
3602.152	-169.9
3604.956	-192.9
3607.757	-207.9
3610.556	-240.9
3613.354	-246.9
3616.149	-245.9
3618.942	-273.9
3621.732	-279.9
3624.521	-293.9
3627.307	-307.9
3630.092	-309.9
3632.874	-333.9
3635.654	-333.9
3638.432	-331.9
3641.208	-353.9
3643.982	-369.9
3646.753	-382.9
3649.523	-379.9
3652.29	-395.9
3655.055	-405.9
3657.818	-422.9
3660.579	-430.9
3663.338	-443.9
3666.095	-447.9
3668.849	-459.9
3671.602	-466.9
3674.352	-470.9
3677.101	-474.9
3679.847	-489.9
3682.591	-495.9
3685.333	-508.9
3688.073	-505.9
3690.811	-515.9
3693.547	-518.9
3696.281	-524.9
3699.013	-527.9
3701.742	-534.9
3704.47	-540.9
3707.195	-552.9
3709.919	-541.9
3712.64	-551.9
3715.359	-561.9
3718.076	-559.9
3720.792	-567.9
3723.505	-556.9
3726.216	-577.9
3728.925	-576.9
3731.632	-581.9
3734.336	-584.9
3737.039	-590.9
3739.74	-589.9
3742.439	-590.9
3745.136	-595.9
3747.83	-598.9
3750.523	-598.9
3753.213	-582.9
3755.902	-599.9
3758.589	-594.9
3761.273	-601.9
3763.956	-607.9
3766.636	-609.9
3769.315	-610.9
3771.991	-614.9
3774.665	-616.9
3777.338	-616.9
3780.008	-623.9
3782.677	-624.9
3785.343	-608.9
3788.007	-625.9
3790.67	-618.9
3793.33	-629.9
3795.989	-623.9
3798.645	-622.9
3801.299	-620.9
3803.952	-631.9
3806.602	-631.9
3809.251	-637.9
3811.897	-625.9
3814.542	-633.9
3817.184	-638.9
3819.825	-627.9
3822.463	-631.9
3825.1	-637.9
3827.735	-635.9
3830.367	-638.9
3832.998	-646.9
3835.627	-636.9
3838.253	-638.9
3840.878	-644.9
3843.501	-642.9
3846.122	-642.9
3848.741	-639.9
3851.358	-638.9
3853.973	-645.9
3856.586	-638.9
3859.197	-645.9
3861.806	-650.9
3864.414	-638.9
3867.019	-643.9
3869.622	-643.9
3872.224	-642.9
3874.823	-625.9
3877.421	-613.9
3880.016	-597.9
3882.61	-575.9
3885.202	-568.9
3887.792	-574.9
3890.38	-610.9
3892.966	-633.9
3895.55	-641.9
3898.132	-655.9
3900.713	-659.9
3903.291	-654.9
3905.868	-659.9
3908.442	-657.9
3911.015	-657.9
3913.586	-655.9
3916.155	-659.9
3918.722	-662.9
3921.287	-663.9
3923.85	-664.9
3926.411	-666.9
3928.971	-672.9
3931.528	-667.9
3934.084	-662.9
3936.638	-657.9
3939.19	-663.9
3941.74	-658.9
3944.288	-662.9
3946.834	-657.9
3949.378	-663.9
3951.921	-660.9
3954.462	-669.9
3957	-658.9
3959.537	-664.9
3962.072	-664.9
3964.606	-667.9
3967.137	-655.9
3969.667	-665.9
3972.194	-655.9
3974.72	-658.9
3977.244	-654.9
3979.766	-647.9
3982.286	-648.9
3984.805	-649.9
3987.321	-644.9
3989.836	-649.9
3992.349	-644.9
3994.86	-648.9
3997.369	-651.9
3999.877	-647.9
4002.382	-643.9
4004.886	-651.9
4007.388	-644.9
4009.888	-646.9
4012.386	-647.9
4014.883	-639.9
4017.377	-646.9
4019.87	-645.9
4022.361	-644.9
4024.85	-646.9
4027.338	-651.9
4029.823	-651.9
4032.307	-650.9
4034.789	-643.9
4037.269	-647.9
4039.747	-650.9
4042.224	-657.9
4044.699	-654.9
4047.172	-654.9
4049.643	-652.9
4052.112	-655.9
4054.58	-655.9
4057.046	-653.9
4059.51	-654.9
4061.972	-656.9
4064.432	-656.9
4066.891	-652.9
4069.348	-656.9
4071.803	-649.9
4074.256	-652.9
4076.708	-653.9
4079.158	-655.9
4081.606	-659.9
4084.052	-659.9
4086.497	-650.9
4088.939	-646.9
4091.38	-651.9
4093.819	-643.9
4096.257	-682.9
4098.693	-683.9
4101.127	-687.9
4103.559	-685.9
4105.989	-390.9
4108.418	-369.9
4110.845	-347.9
4113.27	-326.9
4115.694	-293.9
4118.115	-222.9
4120.535	-650.9
4122.954	-643.9
4125.37	-642.9
4127.785	-653.9
4130.198	-651.9
4132.609	-647.9
4135.019	-684.9
4137.427	-684.9
4139.833	-688.9
4142.237	-686.9
