Data from 2018-2-14_conc=2_n=10_RamanShift_03.txt Node
Date: Wed Feb 14 11:33:56 IST 2018
User: aro
Spectrometer: QEPB0276
Trigger mode: 0
Integration Time (sec): 3.000000E1
Scans to average: 1
Electric dark correction enabled: true
Nonlinearity correction enabled: false
Boxcar width: 0
XAxis mode: Raman Shifts
Number of Pixels in Spectrum: 1044
>>>>>Begin Spectral Data<<<<<
160.701	-136.4
166.742	58.6
172.777	550.6
178.805	2107.6
184.826	5945.6
190.841	12293.6
196.849	19713.6
202.85	24933.6
208.845	26711.6
214.833	26440.6
220.815	25929.6
226.789	25674.6
232.758	25590.6
238.719	25400.6
244.674	25061.6
250.623	24545.6
256.565	24086.6
262.5	23540.6
268.429	23131.6
274.351	22782.6
280.267	22422.6
286.176	22262.6
292.079	21990.6
297.975	21752.6
303.865	21566.6
309.748	21418.6
315.625	21247.6
321.495	21203.6
327.359	21086.6
333.217	21066.6
339.068	20975.6
344.912	20986.6
350.751	20967.6
356.583	20953.6
362.408	20978.6
368.227	20918.6
374.04	20932.6
379.847	21004.6
385.647	21033.6
391.44	21164.6
397.228	21248.6
403.009	21298.6
408.784	21373.6
414.553	21410.6
420.315	21494.6
426.071	21484.6
431.821	21481.6
437.565	21511.6
443.302	21447.6
449.033	21357.6
454.758	21376.6
460.477	21295.6
466.189	21257.6
471.896	21251.6
477.596	21175.6
483.29	21112.6
488.978	21084.6
494.66	20985.6
500.335	20793.6
506.005	20647.6
511.668	20409.6
517.325	20218.6
522.977	20007.6
528.622	19872.6
534.261	19750.6
539.894	19572.6
545.521	19540.6
551.141	19444.6
556.756	19467.6
562.365	19311.6
567.968	19262.6
573.565	19197.6
579.155	19114.6
584.74	18985.6
590.319	18950.6
595.892	18942.6
601.459	18820.6
607.02	18757.6
612.575	18599.6
618.124	18453.6
623.667	18401.6
629.204	18309.6
634.735	18206.6
640.261	18090.6
645.781	18106.6
651.294	18070.6
656.802	18060.6
662.304	17949.6
667.8	17985.6
673.29	17888.6
678.775	17847.6
684.254	17790.6
689.726	17796.6
695.193	17756.6
700.655	17613.6
706.11	17532.6
711.56	17477.6
717.004	17333.6
722.442	17266.6
727.874	17168.6
733.301	17163.6
738.722	17121.6
744.137	17047.6
749.547	17080.6
754.951	17050.6
760.349	17057.6
765.741	17023.6
771.128	17034.6
776.509	17090.6
781.885	17090.6
787.254	17020.6
792.618	16963.6
797.977	16843.6
803.33	16739.6
808.677	16653.6
814.019	16549.6
819.355	16420.6
824.686	16394.6
830.011	16387.6
835.33	16301.6
840.644	16338.6
845.952	16340.6
851.255	16360.6
856.552	16441.6
861.844	16364.6
867.13	16334.6
872.41	16286.6
877.686	16144.6
882.955	16021.6
888.219	15909.6
893.478	15759.6
898.731	15560.6
903.979	15351.6
909.221	15243.6
914.458	15167.6
919.69	15186.6
924.916	15271.6
930.136	15277.6
935.351	15266.6
940.561	15331.6
945.766	15272.6
950.965	15162.6
956.158	15049.6
961.347	14939.6
966.529	14725.6
971.707	14586.6
976.879	14420.6
982.046	14290.6
987.208	14215.6
992.364	14221.6
997.515	14347.6
1002.66	14472.6
1007.801	14618.6
1012.936	14680.6
1018.066	14672.6
1023.19	14655.6
1028.309	14705.6
1033.423	14666.6
1038.532	14555.6
1043.636	14421.6
1048.734	14264.6
1053.827	14075.6
1058.915	13934.6
1063.998	13783.6
1069.075	13781.6
1074.147	13752.6
1079.214	13862.6
1084.276	13950.6
1089.333	14018.6
1094.385	14042.6
1099.431	14100.6
1104.472	14076.6
1109.509	14012.6
1114.54	13864.6
1119.565	13659.6
1124.586	13496.6
1129.602	13338.6
1134.613	13276.6
1139.618	13190.6
1144.619	13136.6
1149.614	13175.6
1154.604	13125.6
1159.589	13208.6
1164.57	13186.6
1169.545	13240.6
1174.515	13259.6
1179.48	13147.6
1184.44	13061.6
1189.395	12967.6
1194.345	12868.6
1199.29	12849.6
1204.23	12827.6
1209.165	12899.6
1214.095	12937.6
1219.021	12980.6
1223.941	13055.6
1228.856	13114.6
1233.766	13142.6
1238.672	13209.6
1243.572	13175.6
1248.467	13095.6
1253.358	12936.6
1258.244	12762.6
1263.124	12591.6
1268	12384.6
1272.871	12211.6
1277.737	12063.6
1282.599	12038.6
1287.455	12085.6
1292.306	12070.6
1297.153	12095.6
1301.995	12149.6
1306.832	12247.6
1311.664	12218.6
1316.491	12219.6
1321.314	12112.6
1326.132	11929.6
1330.945	11700.6
1335.753	11457.6
1340.556	11167.6
1345.354	10921.6
1350.148	10783.6
1354.937	10735.6
1359.722	10700.6
1364.501	10749.6
1369.276	10849.6
1374.046	11015.6
1378.811	11174.6
1383.572	11269.6
1388.327	11297.6
1393.079	11234.6
1397.825	11069.6
1402.567	10922.6
1407.304	10775.6
1412.036	10687.6
1416.764	10570.6
1421.487	10485.6
1426.205	10460.6
1430.919	10399.6
1435.628	10395.6
1440.333	10393.6
1445.032	10451.6
1449.727	10519.6
1454.418	10439.6
1459.104	10347.6
1463.785	10198.6
1468.462	10032.6
1473.134	9797.6
1477.802	9631.6
1482.465	9478.6
1487.123	9408.6
1491.777	9417.6
1496.426	9456.6
1501.071	9525.6
1505.711	9679.6
1510.347	9895.6
1514.978	10049.6
1519.604	10190.6
1524.226	10288.6
1528.844	10287.6
1533.457	10232.6
1538.065	10217.6
1542.669	10105.6
1547.269	9981.6
1551.864	9932.6
1556.454	9903.6
1561.041	9903.6
1565.622	9873.6
1570.199	9898.6
1574.772	9853.6
1579.34	9997.6
1583.904	10031.6
1588.464	10071.6
1593.019	10039.6
1597.569	9993.6
1602.115	9927.6
1606.657	9902.6
1611.195	9865.6
1615.728	9725.6
1620.256	9689.6
1624.78	9790.6
1629.3	9760.6
1633.816	9777.6
1638.327	9889.6
1642.834	9917.6
1647.336	9929.6
1651.834	10011.6
1656.328	9977.6
1660.817	9876.6
1665.302	9866.6
1669.783	9666.6
1674.259	9490.6
1678.732	9200.6
1683.199	8941.6
1687.663	8673.6
1692.122	8425.6
1696.577	8297.6
1701.028	8243.6
1705.474	8329.6
1709.917	8388.6
1714.355	8406.6
1718.788	8334.6
1723.218	8246.6
1727.643	8095.6
1732.064	7848.6
1736.481	7731.6
1740.893	7533.6
1745.301	7312.6
1749.705	7119.6
1754.105	6868.6
1758.501	6745.6
1762.893	6505.6
1767.28	6343.6
1771.663	6172.6
1776.042	6130.6
1780.417	6089.6
1784.787	6104.6
1789.154	6164.6
1793.516	6302.6
1797.874	6389.6
1802.228	6519.6
1806.578	6559.6
1810.924	6555.6
1815.266	6514.6
1819.603	6410.6
1823.937	6283.6
1828.266	6176.6
1832.591	6060.6
1836.913	6016.6
1841.23	5910.6
1845.543	5890.6
1849.852	5874.6
1854.156	5837.6
1858.457	5815.6
1862.754	5813.6
1867.047	5818.6
1871.335	5841.6
1875.62	5774.6
1879.9	5790.6
1884.177	5768.6
1888.449	5715.6
1892.718	5644.6
1896.982	5581.6
1901.243	5591.6
1905.499	5541.6
1909.752	5516.6
1914	5527.6
1918.245	5585.6
1922.485	5601.6
1926.722	5683.6
1930.954	5719.6
1935.183	5804.6
1939.408	5866.6
1943.628	5907.6
1947.845	5906.6
1952.058	5899.6
1956.267	5814.6
1960.472	5732.6
1964.673	5628.6
1968.87	5550.6
1973.063	5452.6
1977.252	5380.6
1981.438	5310.6
1985.619	5273.6
1989.797	5213.6
1993.971	5184.6
1998.14	5180.6
2002.306	5322.6
2006.469	5123.6
2010.627	5078.6
2014.781	5008.6
2018.932	4982.6
2023.078	4941.6
2027.221	4896.6
2031.36	4785.6
2035.495	4733.6
2039.627	4656.6
2043.754	4634.6
2047.878	4553.6
2051.998	4543.6
2056.114	4546.6
2060.226	4548.6
2064.334	4531.6
2068.439	4572.6
2072.54	4600.6
2076.637	4669.6
2080.73	4666.6
2084.82	4705.6
2088.906	4710.6
2092.988	4684.6
2097.066	4687.6
2101.14	4653.6
2105.211	4624.6
2109.278	4612.6
2113.342	4561.6
2117.401	4562.6
2121.457	4520.6
2125.509	4503.6
2129.558	4459.6
2133.602	4424.6
2137.643	4419.6
2141.681	4365.6
2145.714	4356.6
2149.744	4311.6
2153.77	4281.6
2157.793	4222.6
2161.812	4149.6
2165.827	4116.6
2169.838	4062.6
2173.846	3972.6
2177.851	3921.6
2181.851	3858.6
2185.848	3795.6
2189.841	3772.6
2193.831	3693.6
2197.817	3686.6
2201.799	3665.6
2205.778	3647.6
2209.753	3630.6
2213.725	3610.6
2217.693	3621.6
2221.657	3587.6
2225.618	3561.6
2229.575	3562.6
2233.529	3530.6
2237.479	3488.6
2241.425	3431.6
2245.368	3422.6
2249.307	3327.6
2253.243	3330.6
2257.175	3246.6
2261.104	3200.6
2265.029	3205.6
2268.95	3162.6
2272.868	3098.6
2276.783	3066.6
2280.694	3046.6
2284.601	3029.6
2288.505	2974.6
2292.405	2932.6
2296.302	2930.6
2300.195	2905.6
2304.085	2819.6
2307.971	2801.6
2311.854	2755.6
2315.734	2694.6
2319.609	2680.6
2323.482	2647.6
2327.351	2600.6
2331.216	2584.6
2335.078	2575.6
2338.937	2554.6
2342.792	2546.6
2346.643	2536.6
2350.492	2510.6
2354.336	2532.6
2358.178	2533.6
2362.015	2543.6
2365.85	2521.6
2369.681	2528.6
2373.508	2531.6
2377.333	2531.6
2381.153	2522.6
2384.971	2488.6
2388.785	2487.6
2392.595	2477.6
2396.402	2449.6
2400.206	2427.6
2404.007	2414.6
2407.804	2385.6
2411.597	2375.6
2415.388	2370.6
2419.174	2354.6
2422.958	2343.6
2426.738	2296.6
2430.515	2306.6
2434.289	2260.6
2438.059	2248.6
2441.825	2260.6
2445.589	2216.6
2449.349	2192.6
2453.106	2162.6
2456.859	2125.6
2460.61	2118.6
2464.356	2101.6
2468.1	2079.6
2471.84	2042.6
2475.577	2006.6
2479.311	2018.6
2483.041	2010.6
2486.768	2008.6
2490.492	1996.6
2494.213	2001.6
2497.93	1982.6
2501.644	1959.6
2505.355	1969.6
2509.062	1961.6
2512.766	1950.6
2516.467	1937.6
2520.165	1925.6
2523.859	1908.6
2527.551	1892.6
2531.239	1896.6
2534.923	1873.6
2538.605	1859.6
2542.283	1867.6
2545.958	1878.6
2549.63	1860.6
2553.299	1873.6
2556.964	1848.6
2560.626	1843.6
2564.285	1852.6
2567.941	1843.6
2571.594	1826.6
2575.243	1808.6
2578.89	1784.6
2582.533	1762.6
2586.173	1758.6
2589.809	1728.6
2593.443	1745.6
2597.073	1703.6
2600.701	1688.6
2604.325	1662.6
2607.946	1654.6
2611.564	1651.6
2615.178	1631.6
2618.79	1629.6
2622.398	1600.6
2626.004	1597.6
2629.606	1560.6
2633.205	1564.6
2636.801	1541.6
2640.394	1512.6
2643.983	1470.6
2647.57	1465.6
2651.153	1455.6
2654.734	1395.6
2658.311	1403.6
2661.885	1371.6
2665.456	1354.6
2669.025	1327.6
2672.589	1313.6
2676.151	1316.6
2679.71	1273.6
2683.266	1259.6
2686.819	1239.6
2690.368	1225.6
2693.915	1193.6
2697.458	1168.6
2700.999	1137.6
2704.536	1137.6
2708.071	1102.6
2711.602	1079.6
2715.13	1034.6
2718.656	1013.6
2722.178	1006.6
2725.697	990.6
2729.214	983.6
2732.727	976.6
2736.237	974.6
2739.744	971.6
2743.249	987.6
2746.75	994.6
2750.248	1017.6
2753.743	1023.6
2757.236	1031.6
2760.725	1048.6
2764.211	1036.6
2767.695	1068.6
2771.175	1041.6
2774.652	1028.6
2778.127	1030.6
2781.598	1011.6
2785.067	1018.6
2788.532	1017.6
2791.995	1022.6
2795.455	1019.6
2798.911	1009.6
2802.365	1017.6
2805.816	1023.6
2809.264	1016.6
2812.709	1030.6
2816.151	1011.6
2819.59	1026.6
2823.026	1006.6
2826.46	1017.6
2829.89	1014.6
2833.318	1019.6
2836.742	1027.6
2840.164	1046.6
2843.583	1041.6
2846.999	1062.6
2850.412	1050.6
2853.822	1075.6
2857.229	1094.6
2860.634	1097.6
2864.035	1123.6
2867.434	1127.6
2870.83	1148.6
2874.223	1184.6
2877.613	1207.6
2881	1216.6
2884.385	1210.6
2887.766	1210.6
2891.145	1207.6
2894.521	1213.6
2897.894	1209.6
2901.264	1202.6
2904.631	1206.6
2907.996	1201.6
2911.358	1226.6
2914.717	1210.6
2918.073	1237.6
2921.426	1235.6
2924.777	1263.6
2928.124	1270.6
2931.469	1301.6
2934.811	1324.6
2938.15	1340.6
2941.487	1349.6
2944.821	1344.6
2948.152	1347.6
2951.48	1355.6
2954.805	1322.6
2958.128	1326.6
2961.447	1319.6
2964.765	1324.6
2968.079	1320.6
2971.39	1341.6
2974.699	1359.6
2978.005	1361.6
2981.308	1410.6
2984.609	1426.6
2987.907	1452.6
2991.202	1480.6
2994.494	1518.6
2997.784	1542.6
3001.07	1580.6
3004.355	1612.6
3007.636	1630.6
3010.915	1646.6
3014.191	1659.6
3017.464	1669.6
3020.734	1676.6
3024.002	1675.6
3027.267	1696.6
3030.53	1693.6
3033.789	1732.6
3037.046	1749.6
3040.301	1778.6
3043.552	1817.6
3046.801	1846.6
3050.048	1877.6
3053.291	1946.6
3056.532	1994.6
3059.771	2035.6
3063.006	2097.6
3066.239	2179.6
3069.469	2227.6
3072.697	2297.6
3075.922	2341.6
3079.144	2409.6
3082.364	2452.6
3085.581	2497.6
3088.795	2597.6
3092.007	2618.6
3095.216	2686.6
3098.423	2732.6
3101.627	2807.6
3104.828	2881.6
3108.026	2938.6
3111.222	3005.6
3114.416	3077.6
3117.607	3123.6
3120.795	3205.6
3123.98	3288.6
3127.163	3371.6
3130.344	3457.6
3133.521	3533.6
3136.696	3623.6
3139.869	3700.6
3143.039	3768.6
3146.206	3813.6
3149.371	3839.6
3152.533	3868.6
3155.693	3917.6
3158.85	3915.6
3162.005	3935.6
3165.157	3960.6
3168.306	3965.6
3171.453	3997.6
3174.597	3956.6
3177.739	4004.6
3180.878	3965.6
3184.014	3984.6
3187.149	3961.6
3190.28	4003.6
3193.409	4021.6
3196.536	4008.6
3199.659	4036.6
3202.781	4024.6
3205.9	4047.6
3209.016	4011.6
3212.13	3982.6
3215.241	3971.6
3218.35	3938.6
3221.456	3885.6
3224.56	3889.6
3227.661	3790.6
3230.76	3775.6
3233.856	3774.6
3236.95	3717.6
3240.041	3660.6
3243.13	3657.6
3246.216	3666.6
3249.3	3610.6
3252.382	3601.6
3255.46	3613.6
3258.537	3596.6
3261.611	3587.6
3264.682	3615.6
3267.751	3594.6
3270.818	3582.6
3273.882	3557.6
3276.943	3554.6
3280.002	3504.6
3283.059	3458.6
3286.113	3439.6
3289.165	3359.6
3292.214	3342.6
3295.261	3270.6
3298.306	3223.6
3301.348	3150.6
3304.387	3131.6
3307.425	3073.6
3310.459	3042.6
3313.492	2994.6
3316.521	2936.6
3319.549	2941.6
3322.574	2880.6
3325.597	2845.6
3328.617	2836.6
3331.635	2792.6
3334.65	2810.6
3337.663	2789.6
3340.674	2759.6
3343.682	2775.6
3346.688	2752.6
3349.691	2758.6
3352.692	2710.6
3355.691	2708.6
3358.687	2680.6
3361.681	2638.6
3364.673	2622.6
3367.662	2608.6
3370.649	2536.6
3373.633	2503.6
3376.615	2488.6
3379.595	2422.6
3382.572	2411.6
3385.547	2365.6
3388.52	2335.6
3391.49	2316.6
3394.458	2260.6
3397.424	2217.6
3400.387	2218.6
3403.348	2178.6
3406.307	2131.6
3409.263	2123.6
3412.217	2100.6
3415.168	2087.6
3418.118	2067.6
3421.065	2039.6
3424.009	2004.6
3426.951	1963.6
3429.891	1941.6
3432.829	1902.6
3435.764	1839.6
3438.697	1816.6
3441.628	1756.6
3444.557	1696.6
3447.483	1678.6
3450.407	1615.6
3453.328	1562.6
3456.247	1500.6
3459.164	1443.6
3462.079	1405.6
3464.991	1382.6
3467.902	1308.6
3470.809	1267.6
3473.715	1212.6
3476.618	1179.6
3479.519	1123.6
3482.418	1090.6
3485.315	1067.6
3488.209	1026.6
3491.101	987.6
3493.99	940.6
3496.878	915.6
3499.763	876.6
3502.646	856.6
3505.527	796.6
3508.405	773.6
3511.281	718.6
3514.155	700.6
3517.027	674.6
3519.897	604.6
3522.764	568.6
3525.629	514.6
3528.492	477.6
3531.352	446.6
3534.211	415.6
3537.067	361.6
3539.921	339.6
3542.773	306.6
3545.622	266.6
3548.469	243.6
3551.315	219.6
3554.157	190.6
3556.998	151.6
3559.837	138.6
3562.673	103.6
3565.507	90.6
3568.339	66.6
3571.169	47.6
3573.996	17.6
3576.822	12.6
3579.645	-23.4
3582.466	-36.4
3585.285	-69.4
3588.101	-82.4
3590.916	-100.4
3593.728	-131.4
3596.538	-136.4
3599.346	-154.4
3602.152	-173.4
3604.956	-185.4
3607.757	-195.4
3610.556	-222.4
3613.354	-234.4
3616.149	-249.4
3618.942	-253.4
3621.732	-269.4
3624.521	-279.4
3627.307	-293.4
3630.092	-298.4
3632.874	-311.4
3635.654	-319.4
3638.432	-323.4
3641.208	-336.4
3643.982	-350.4
3646.753	-352.4
3649.523	-364.4
3652.29	-379.4
3655.055	-378.4
3657.818	-399.4
3660.579	-400.4
3663.338	-412.4
3666.095	-427.4
3668.849	-431.4
3671.602	-433.4
3674.352	-446.4
3677.101	-451.4
3679.847	-466.4
3682.591	-470.4
3685.333	-475.4
3688.073	-477.4
3690.811	-488.4
3693.547	-486.4
3696.281	-493.4
3699.013	-500.4
3701.742	-503.4
3704.47	-507.4
3707.195	-514.4
3709.919	-510.4
3712.64	-521.4
3715.359	-521.4
3718.076	-522.4
3720.792	-526.4
3723.505	-531.4
3726.216	-541.4
3728.925	-536.4
3731.632	-545.4
3734.336	-543.4
3737.039	-547.4
3739.74	-542.4
3742.439	-548.4
3745.136	-553.4
3747.83	-560.4
3750.523	-561.4
3753.213	-533.4
3755.902	-565.4
3758.589	-568.4
3761.273	-568.4
3763.956	-566.4
3766.636	-568.4
3769.315	-571.4
3771.991	-577.4
3774.665	-580.4
3777.338	-580.4
3780.008	-579.4
3782.677	-580.4
3785.343	-574.4
3788.007	-580.4
3790.67	-586.4
3793.33	-590.4
3795.989	-586.4
3798.645	-585.4
3801.299	-582.4
3803.952	-593.4
3806.602	-591.4
3809.251	-593.4
3811.897	-598.4
3814.542	-594.4
3817.184	-594.4
3819.825	-596.4
3822.463	-593.4
3825.1	-604.4
3827.735	-587.4
3830.367	-595.4
3832.998	-606.4
3835.627	-602.4
3838.253	-605.4
3840.878	-608.4
3843.501	-602.4
3846.122	-601.4
3848.741	-599.4
3851.358	-605.4
3853.973	-599.4
3856.586	-603.4
3859.197	-607.4
3861.806	-609.4
3864.414	-602.4
3867.019	-603.4
3869.622	-607.4
3872.224	-601.4
3874.823	-588.4
3877.421	-575.4
3880.016	-556.4
3882.61	-542.4
3885.202	-540.4
3887.792	-547.4
3890.38	-575.4
3892.966	-597.4
3895.55	-606.4
3898.132	-625.4
3900.713	-618.4
3903.291	-610.4
3905.868	-619.4
3908.442	-615.4
3911.015	-617.4
3913.586	-613.4
3916.155	-613.4
3918.722	-618.4
3921.287	-618.4
3923.85	-619.4
3926.411	-621.4
3928.971	-628.4
3931.528	-625.4
3934.084	-623.4
3936.638	-623.4
3939.19	-620.4
3941.74	-623.4
3944.288	-624.4
3946.834	-618.4
3949.378	-619.4
3951.921	-619.4
3954.462	-628.4
3957	-622.4
3959.537	-622.4
3962.072	-617.4
3964.606	-620.4
3967.137	-618.4
3969.667	-621.4
3972.194	-616.4
3974.72	-617.4
3977.244	-611.4
3979.766	-610.4
3982.286	-614.4
3984.805	-613.4
3987.321	-606.4
3989.836	-612.4
3992.349	-603.4
3994.86	-608.4
3997.369	-611.4
3999.877	-604.4
4002.382	-606.4
4004.886	-604.4
4007.388	-606.4
4009.888	-606.4
4012.386	-612.4
4014.883	-608.4
4017.377	-605.4
4019.87	-606.4
4022.361	-608.4
4024.85	-610.4
4027.338	-609.4
4029.823	-610.4
4032.307	-610.4
4034.789	-609.4
4037.269	-605.4
4039.747	-612.4
4042.224	-609.4
4044.699	-609.4
4047.172	-603.4
4049.643	-612.4
4052.112	-610.4
4054.58	-613.4
4057.046	-617.4
4059.51	-614.4
4061.972	-618.4
4064.432	-620.4
4066.891	-614.4
4069.348	-611.4
4071.803	-613.4
4074.256	-614.4
4076.708	-606.4
4079.158	-607.4
4081.606	-615.4
4084.052	-609.4
4086.497	-608.4
4088.939	-605.4
4091.38	-607.4
4093.819	-607.4
4096.257	-643.4
4098.693	-642.4
4101.127	-642.4
4103.559	-640.4
4105.989	-363.4
4108.418	-348.4
4110.845	-323.4
4113.27	-300.4
4115.694	-263.4
4118.115	-219.4
4120.535	-602.4
4122.954	-603.4
4125.37	-602.4
4127.785	-612.4
4130.198	-616.4
4132.609	-616.4
4135.019	-644.4
4137.427	-646.4
4139.833	-647.4
4142.237	-642.4
