Data from 2018-2-14_conc=6_n=2_RamanShift_02.txt Node
Date: Wed Feb 14 14:46:25 IST 2018
User: aro
Spectrometer: QEPB0276
Trigger mode: 0
Integration Time (sec): 3.000000E1
Scans to average: 1
Electric dark correction enabled: true
Nonlinearity correction enabled: false
Boxcar width: 0
XAxis mode: Raman Shifts
Number of Pixels in Spectrum: 1044
>>>>>Begin Spectral Data<<<<<
160.701	-152.1
166.742	43.9
172.777	590.9
178.805	2295.9
184.826	6388.9
190.841	13423.9
196.849	21580.9
202.85	27305.9
208.845	29250.9
214.833	28987.9
220.815	28452.9
226.789	28346.9
232.758	28167.9
238.719	27884.9
244.674	27548.9
250.623	27037.9
256.565	26532.9
262.5	25995.9
268.429	25509.9
274.351	25122.9
280.267	24815.9
286.176	24574.9
292.079	24365.9
297.975	24039.9
303.865	23910.9
309.748	23694.9
315.625	23538.9
321.495	23427.9
327.359	23338.9
333.217	23271.9
339.068	23231.9
344.912	23240.9
350.751	23171.9
356.583	23166.9
362.408	23176.9
368.227	23149.9
374.04	23202.9
379.847	23182.9
385.647	23379.9
391.44	23364.9
397.228	23565.9
403.009	23558.9
408.784	23671.9
414.553	23712.9
420.315	23761.9
426.071	23810.9
431.821	23789.9
437.565	23792.9
443.302	23735.9
449.033	23711.9
454.758	23665.9
460.477	23609.9
466.189	23473.9
471.896	23512.9
477.596	23362.9
483.29	23388.9
488.978	23325.9
494.66	23268.9
500.335	23112.9
506.005	22875.9
511.668	22560.9
517.325	22326.9
522.977	22147.9
528.622	21996.9
534.261	21823.9
539.894	21738.9
545.521	21642.9
551.141	21591.9
556.756	21461.9
562.365	21438.9
567.968	21314.9
573.565	21224.9
579.155	21143.9
584.74	21100.9
590.319	21039.9
595.892	20946.9
601.459	20849.9
607.02	20733.9
612.575	20662.9
618.124	20453.9
623.667	20423.9
629.204	20295.9
634.735	20219.9
640.261	20144.9
645.781	20077.9
651.294	20026.9
656.802	19960.9
662.304	19892.9
667.8	19911.9
673.29	19869.9
678.775	19822.9
684.254	19836.9
689.726	19676.9
695.193	19612.9
700.655	19517.9
706.11	19376.9
711.56	19373.9
717.004	19262.9
722.442	19120.9
727.874	19101.9
733.301	18996.9
738.722	18968.9
744.137	18928.9
749.547	18913.9
754.951	18848.9
760.349	18904.9
765.741	18949.9
771.128	18948.9
776.509	18948.9
781.885	18942.9
787.254	18870.9
792.618	18832.9
797.977	18642.9
803.33	18648.9
808.677	18427.9
814.019	18436.9
819.355	18292.9
824.686	18202.9
830.011	18160.9
835.33	18166.9
840.644	18185.9
845.952	18145.9
851.255	18212.9
856.552	18256.9
861.844	18215.9
867.13	18115.9
872.41	18083.9
877.686	17990.9
882.955	17872.9
888.219	17698.9
893.478	17447.9
898.731	17360.9
903.979	17108.9
909.221	17004.9
914.458	16910.9
919.69	16956.9
924.916	16936.9
930.136	17061.9
935.351	17052.9
940.561	17107.9
945.766	16980.9
950.965	16904.9
956.158	16852.9
961.347	16605.9
966.529	16399.9
971.707	16242.9
976.879	16026.9
982.046	15840.9
987.208	15758.9
992.364	15838.9
997.515	15920.9
1002.66	16032.9
1007.801	16166.9
1012.936	16356.9
1018.066	16344.9
1023.19	16340.9
1028.309	16302.9
1033.423	16281.9
1038.532	16231.9
1043.636	16116.9
1048.734	15890.9
1053.827	15711.9
1058.915	15525.9
1063.998	15363.9
1069.075	15320.9
1074.147	15342.9
1079.214	15499.9
1084.276	15501.9
1089.333	15632.9
1094.385	15672.9
1099.431	15718.9
1104.472	15763.9
1109.509	15574.9
1114.54	15428.9
1119.565	15239.9
1124.586	15028.9
1129.602	14855.9
1134.613	14790.9
1139.618	14695.9
1144.619	14646.9
1149.614	14651.9
1154.604	14666.9
1159.589	14758.9
1164.57	14764.9
1169.545	14811.9
1174.515	14788.9
1179.48	14660.9
1184.44	14611.9
1189.395	14470.9
1194.345	14447.9
1199.29	14300.9
1204.23	14395.9
1209.165	14366.9
1214.095	14423.9
1219.021	14483.9
1223.941	14612.9
1228.856	14694.9
1233.766	14677.9
1238.672	14694.9
1243.572	14669.9
1248.467	14569.9
1253.358	14381.9
1258.244	14210.9
1263.124	13994.9
1268	13784.9
1272.871	13645.9
1277.737	13570.9
1282.599	13515.9
1287.455	13452.9
1292.306	13475.9
1297.153	13550.9
1301.995	13557.9
1306.832	13642.9
1311.664	13709.9
1316.491	13642.9
1321.314	13506.9
1326.132	13307.9
1330.945	13056.9
1335.753	12741.9
1340.556	12366.9
1345.354	12158.9
1350.148	11872.9
1354.937	11825.9
1359.722	11817.9
1364.501	11848.9
1369.276	12030.9
1374.046	12169.9
1378.811	12343.9
1383.572	12487.9
1388.327	12549.9
1393.079	12471.9
1397.825	12321.9
1402.567	12150.9
1407.304	12015.9
1412.036	11840.9
1416.764	11787.9
1421.487	11705.9
1426.205	11654.9
1430.919	11642.9
1435.628	11598.9
1440.333	11633.9
1445.032	11657.9
1449.727	11691.9
1454.418	11640.9
1459.104	11525.9
1463.785	11334.9
1468.462	11107.9
1473.134	10807.9
1477.802	10642.9
1482.465	10402.9
1487.123	10353.9
1491.777	10284.9
1496.426	10362.9
1501.071	10450.9
1505.711	10607.9
1510.347	10807.9
1514.978	10979.9
1519.604	11159.9
1524.226	11278.9
1528.844	11298.9
1533.457	11272.9
1538.065	11198.9
1542.669	11170.9
1547.269	11066.9
1551.864	11001.9
1556.454	10932.9
1561.041	10973.9
1565.622	10949.9
1570.199	10929.9
1574.772	10993.9
1579.34	11056.9
1583.904	11073.9
1588.464	11173.9
1593.019	11138.9
1597.569	11093.9
1602.115	11049.9
1606.657	10984.9
1611.195	10904.9
1615.728	10825.9
1620.256	10778.9
1624.78	10741.9
1629.3	10767.9
1633.816	10804.9
1638.327	10885.9
1642.834	10891.9
1647.336	10972.9
1651.834	10999.9
1656.328	10911.9
1660.817	10911.9
1665.302	10783.9
1669.783	10611.9
1674.259	10396.9
1678.732	10062.9
1683.199	9773.9
1687.663	9446.9
1692.122	9117.9
1696.577	8998.9
1701.028	8922.9
1705.474	9024.9
1709.917	9107.9
1714.355	9199.9
1718.788	9131.9
1723.218	9005.9
1727.643	8816.9
1732.064	8696.9
1736.481	8517.9
1740.893	8280.9
1745.301	8034.9
1749.705	7835.9
1754.105	7590.9
1758.501	7394.9
1762.893	7182.9
1767.28	6986.9
1771.663	6854.9
1776.042	6731.9
1780.417	6686.9
1784.787	6650.9
1789.154	6714.9
1793.516	6843.9
1797.874	6979.9
1802.228	7091.9
1806.578	7176.9
1810.924	7183.9
1815.266	7114.9
1819.603	7004.9
1823.937	6930.9
1828.266	6815.9
1832.591	6672.9
1836.913	6591.9
1841.23	6533.9
1845.543	6505.9
1849.852	6457.9
1854.156	6460.9
1858.457	6433.9
1862.754	6391.9
1867.047	6374.9
1871.335	6377.9
1875.62	6370.9
1879.9	6341.9
1884.177	6273.9
1888.449	6253.9
1892.718	6165.9
1896.982	6145.9
1901.243	6068.9
1905.499	6065.9
1909.752	5994.9
1914	6003.9
1918.245	6012.9
1922.485	6058.9
1926.722	6114.9
1930.954	6199.9
1935.183	6237.9
1939.408	6332.9
1943.628	6355.9
1947.845	6389.9
1952.058	6364.9
1956.267	6300.9
1960.472	6250.9
1964.673	6131.9
1968.87	6073.9
1973.063	5927.9
1977.252	5888.9
1981.438	5779.9
1985.619	5780.9
1989.797	5665.9
1993.971	5660.9
1998.14	5652.9
2002.306	5642.9
2006.469	5595.9
2010.627	5575.9
2014.781	5548.9
2018.932	5472.9
2023.078	5429.9
2027.221	5364.9
2031.36	5280.9
2035.495	5188.9
2039.627	5118.9
2043.754	5058.9
2047.878	4989.9
2051.998	5001.9
2056.114	4946.9
2060.226	4950.9
2064.334	4977.9
2068.439	4980.9
2072.54	5037.9
2076.637	4992.9
2080.73	5051.9
2084.82	5084.9
2088.906	5116.9
2092.988	5079.9
2097.066	5100.9
2101.14	5068.9
2105.211	5050.9
2109.278	4995.9
2113.342	4967.9
2117.401	4930.9
2121.457	4899.9
2125.509	4881.9
2129.558	4853.9
2133.602	4801.9
2137.643	4849.9
2141.681	4801.9
2145.714	4788.9
2149.744	4704.9
2153.77	4693.9
2157.793	4660.9
2161.812	4564.9
2165.827	4535.9
2169.838	4466.9
2173.846	4369.9
2177.851	4296.9
2181.851	4218.9
2185.848	4177.9
2189.841	4149.9
2193.831	4102.9
2197.817	4038.9
2201.799	4064.9
2205.778	4007.9
2209.753	4017.9
2213.725	4005.9
2217.693	3993.9
2221.657	3985.9
2225.618	3973.9
2229.575	3957.9
2233.529	3925.9
2237.479	3870.9
2241.425	3851.9
2245.368	3747.9
2249.307	3731.9
2253.243	3686.9
2257.175	3613.9
2261.104	3564.9
2265.029	3545.9
2268.95	3504.9
2272.868	3461.9
2276.783	3419.9
2280.694	3397.9
2284.601	3350.9
2288.505	3308.9
2292.405	3285.9
2296.302	3250.9
2300.195	3227.9
2304.085	3177.9
2307.971	3134.9
2311.854	3110.9
2315.734	3048.9
2319.609	3025.9
2323.482	2970.9
2327.351	2922.9
2331.216	2912.9
2335.078	2922.9
2338.937	2882.9
2342.792	2845.9
2346.643	2854.9
2350.492	2862.9
2354.336	2867.9
2358.178	2847.9
2362.015	2864.9
2365.85	2881.9
2369.681	2899.9
2373.508	2881.9
2377.333	2873.9
2381.153	2869.9
2384.971	2848.9
2388.785	2829.9
2392.595	2808.9
2396.402	2776.9
2400.206	2750.9
2404.007	2723.9
2407.804	2690.9
2411.597	2723.9
2415.388	2659.9
2419.174	2646.9
2422.958	2653.9
2426.738	2613.9
2430.515	2618.9
2434.289	2583.9
2438.059	2564.9
2441.825	2530.9
2445.589	2506.9
2449.349	2490.9
2453.106	2436.9
2456.859	2418.9
2460.61	2413.9
2464.356	2395.9
2468.1	2339.9
2471.84	2315.9
2475.577	2268.9
2479.311	2267.9
2483.041	2262.9
2486.768	2262.9
2490.492	2260.9
2494.213	2258.9
2497.93	2253.9
2501.644	2230.9
2505.355	2208.9
2509.062	2192.9
2512.766	2195.9
2516.467	2168.9
2520.165	2170.9
2523.859	2132.9
2527.551	2123.9
2531.239	2106.9
2534.923	2107.9
2538.605	2100.9
2542.283	2081.9
2545.958	2078.9
2549.63	2084.9
2553.299	2079.9
2556.964	2066.9
2560.626	2055.9
2564.285	2052.9
2567.941	2051.9
2571.594	2034.9
2575.243	2039.9
2578.89	2012.9
2582.533	1996.9
2586.173	1971.9
2589.809	1974.9
2593.443	1952.9
2597.073	1915.9
2600.701	1923.9
2604.325	1876.9
2607.946	1878.9
2611.564	1873.9
2615.178	1863.9
2618.79	1849.9
2622.398	1818.9
2626.004	1826.9
2629.606	1804.9
2633.205	1783.9
2636.801	1730.9
2640.394	1701.9
2643.983	1691.9
2647.57	1682.9
2651.153	1611.9
2654.734	1599.9
2658.311	1585.9
2661.885	1566.9
2665.456	1543.9
2669.025	1535.9
2672.589	1498.9
2676.151	1511.9
2679.71	1464.9
2683.266	1468.9
2686.819	1419.9
2690.368	1397.9
2693.915	1369.9
2697.458	1346.9
2700.999	1293.9
2704.536	1278.9
2708.071	1256.9
2711.602	1219.9
2715.13	1212.9
2718.656	1171.9
2722.178	1141.9
2725.697	1148.9
2729.214	1123.9
2732.727	1101.9
2736.237	1100.9
2739.744	1095.9
2743.249	1114.9
2746.75	1117.9
2750.248	1104.9
2753.743	1130.9
2757.236	1149.9
2760.725	1156.9
2764.211	1188.9
2767.695	1168.9
2771.175	1174.9
2774.652	1173.9
2778.127	1171.9
2781.598	1164.9
2785.067	1120.9
2788.532	1132.9
2791.995	1119.9
2795.455	1130.9
2798.911	1141.9
2802.365	1133.9
2805.816	1128.9
2809.264	1143.9
2812.709	1128.9
2816.151	1143.9
2819.59	1143.9
2823.026	1144.9
2826.46	1140.9
2829.89	1143.9
2833.318	1135.9
2836.742	1142.9
2840.164	1154.9
2843.583	1149.9
2846.999	1170.9
2850.412	1184.9
2853.822	1192.9
2857.229	1209.9
2860.634	1217.9
2864.035	1243.9
2867.434	1272.9
2870.83	1283.9
2874.223	1311.9
2877.613	1324.9
2881	1354.9
2884.385	1364.9
2887.766	1347.9
2891.145	1350.9
2894.521	1355.9
2897.894	1343.9
2901.264	1351.9
2904.631	1347.9
2907.996	1363.9
2911.358	1347.9
2914.717	1369.9
2918.073	1383.9
2921.426	1394.9
2924.777	1405.9
2928.124	1432.9
2931.469	1475.9
2934.811	1479.9
2938.15	1495.9
2941.487	1515.9
2944.821	1513.9
2948.152	1533.9
2951.48	1498.9
2954.805	1475.9
2958.128	1476.9
2961.447	1478.9
2964.765	1449.9
2968.079	1462.9
2971.39	1446.9
2974.699	1481.9
2978.005	1511.9
2981.308	1563.9
2984.609	1574.9
2987.907	1598.9
2991.202	1606.9
2994.494	1656.9
2997.784	1693.9
3001.07	1710.9
3004.355	1754.9
3007.636	1774.9
3010.915	1795.9
3014.191	1814.9
3017.464	1799.9
3020.734	1863.9
3024.002	1855.9
3027.267	1880.9
3030.53	1871.9
3033.789	1893.9
3037.046	1898.9
3040.301	1949.9
3043.552	1968.9
3046.801	2019.9
3050.048	2066.9
3053.291	2134.9
3056.532	2172.9
3059.771	2236.9
3063.006	2304.9
3066.239	2361.9
3069.469	2428.9
3072.697	2489.9
3075.922	2559.9
3079.144	2595.9
3082.364	2694.9
3085.581	2735.9
3088.795	2788.9
3092.007	2859.9
3095.216	2912.9
3098.423	2975.9
3101.627	3037.9
3104.828	3103.9
3108.026	3187.9
3111.222	3234.9
3114.416	3321.9
3117.607	3395.9
3120.795	3460.9
3123.98	3540.9
3127.163	3649.9
3130.344	3739.9
3133.521	3826.9
3136.696	3893.9
3139.869	3971.9
3143.039	4034.9
3146.206	4088.9
3149.371	4116.9
3152.533	4154.9
3155.693	4221.9
3158.85	4233.9
3162.005	4223.9
3165.157	4238.9
3168.306	4276.9
3171.453	4257.9
3174.597	4304.9
3177.739	4306.9
3180.878	4310.9
3184.014	4330.9
3187.149	4274.9
3190.28	4323.9
3193.409	4308.9
3196.536	4314.9
3199.659	4309.9
3202.781	4358.9
3205.9	4337.9
3209.016	4347.9
3212.13	4308.9
3215.241	4266.9
3218.35	4252.9
3221.456	4182.9
3224.56	4153.9
3227.661	4079.9
3230.76	4072.9
3233.856	4044.9
3236.95	3976.9
3240.041	3950.9
3243.13	3908.9
3246.216	3921.9
3249.3	3880.9
3252.382	3858.9
3255.46	3844.9
3258.537	3820.9
3261.611	3861.9
3264.682	3854.9
3267.751	3826.9
3270.818	3846.9
3273.882	3814.9
3276.943	3786.9
3280.002	3771.9
3283.059	3749.9
3286.113	3687.9
3289.165	3641.9
3292.214	3569.9
3295.261	3519.9
3298.306	3463.9
3301.348	3411.9
3304.387	3373.9
3307.425	3318.9
3310.459	3244.9
3313.492	3227.9
3316.521	3172.9
3319.549	3131.9
3322.574	3094.9
3325.597	3077.9
3328.617	3062.9
3331.635	3011.9
3334.65	2991.9
3337.663	2983.9
3340.674	2974.9
3343.682	2966.9
3346.688	2966.9
3349.691	2930.9
3352.692	2943.9
3355.691	2892.9
3358.687	2867.9
3361.681	2847.9
3364.673	2810.9
3367.662	2755.9
3370.649	2720.9
3373.633	2686.9
3376.615	2641.9
3379.595	2617.9
3382.572	2556.9
3385.547	2557.9
3388.52	2521.9
3391.49	2471.9
3394.458	2427.9
3397.424	2395.9
3400.387	2365.9
3403.348	2341.9
3406.307	2306.9
3409.263	2279.9
3412.217	2254.9
3415.168	2227.9
3418.118	2200.9
3421.065	2155.9
3424.009	2144.9
3426.951	2114.9
3429.891	2063.9
3432.829	2027.9
3435.764	1987.9
3438.697	1923.9
3441.628	1870.9
3444.557	1824.9
3447.483	1765.9
3450.407	1712.9
3453.328	1659.9
3456.247	1602.9
3459.164	1554.9
3462.079	1503.9
3464.991	1453.9
3467.902	1395.9
3470.809	1333.9
3473.715	1282.9
3476.618	1252.9
3479.519	1212.9
3482.418	1158.9
3485.315	1111.9
3488.209	1090.9
3491.101	1043.9
3493.99	998.9
3496.878	971.9
3499.763	935.9
3502.646	898.9
3505.527	848.9
3508.405	819.9
3511.281	764.9
3514.155	731.9
3517.027	700.9
3519.897	654.9
3522.764	600.9
3525.629	564.9
3528.492	520.9
3531.352	485.9
3534.211	427.9
3537.067	387.9
3539.921	344.9
3542.773	319.9
3545.622	288.9
3548.469	243.9
3551.315	220.9
3554.157	206.9
3556.998	166.9
3559.837	143.9
3562.673	106.9
3565.507	86.9
3568.339	60.9
3571.169	36.9
3573.996	20.9
3576.822	0.9
3579.645	-17.1
3582.466	-34.1
3585.285	-59.1
3588.101	-91.1
3590.916	-108.1
3593.728	-131.1
3596.538	-138.1
3599.346	-159.1
3602.152	-184.1
3604.956	-203.1
3607.757	-222.1
3610.556	-230.1
3613.354	-259.1
3616.149	-259.1
3618.942	-285.1
3621.732	-285.1
3624.521	-310.1
3627.307	-314.1
3630.092	-323.1
3632.874	-327.1
3635.654	-352.1
3638.432	-351.1
3641.208	-355.1
3643.982	-377.1
3646.753	-381.1
3649.523	-395.1
3652.29	-406.1
3655.055	-406.1
3657.818	-431.1
3660.579	-437.1
3663.338	-449.1
3666.095	-458.1
3668.849	-465.1
3671.602	-475.1
3674.352	-482.1
3677.101	-483.1
3679.847	-496.1
3682.591	-500.1
3685.333	-514.1
3688.073	-514.1
3690.811	-528.1
3693.547	-529.1
3696.281	-534.1
3699.013	-536.1
3701.742	-550.1
3704.47	-550.1
3707.195	-556.1
3709.919	-552.1
3712.64	-556.1
3715.359	-564.1
3718.076	-568.1
3720.792	-577.1
3723.505	-572.1
3726.216	-579.1
3728.925	-575.1
3731.632	-591.1
3734.336	-589.1
3737.039	-594.1
3739.74	-590.1
3742.439	-604.1
3745.136	-600.1
3747.83	-605.1
3750.523	-595.1
3753.213	-606.1
3755.902	-605.1
3758.589	-602.1
3761.273	-608.1
3763.956	-617.1
3766.636	-615.1
3769.315	-622.1
3771.991	-620.1
3774.665	-621.1
3777.338	-624.1
3780.008	-623.1
3782.677	-629.1
3785.343	-627.1
3788.007	-625.1
3790.67	-635.1
3793.33	-631.1
3795.989	-634.1
3798.645	-628.1
3801.299	-632.1
3803.952	-644.1
3806.602	-640.1
3809.251	-644.1
3811.897	-643.1
3814.542	-640.1
3817.184	-641.1
3819.825	-639.1
3822.463	-636.1
3825.1	-649.1
3827.735	-639.1
3830.367	-642.1
3832.998	-648.1
3835.627	-651.1
3838.253	-650.1
3840.878	-653.1
3843.501	-649.1
3846.122	-648.1
3848.741	-648.1
3851.358	-649.1
3853.973	-657.1
3856.586	-652.1
3859.197	-654.1
3861.806	-661.1
3864.414	-659.1
3867.019	-656.1
3869.622	-653.1
3872.224	-649.1
3874.823	-633.1
3877.421	-622.1
3880.016	-601.1
3882.61	-574.1
3885.202	-567.1
3887.792	-577.1
3890.38	-617.1
3892.966	-643.1
3895.55	-656.1
3898.132	-666.1
3900.713	-672.1
3903.291	-663.1
3905.868	-670.1
3908.442	-668.1
3911.015	-670.1
3913.586	-665.1
3916.155	-665.1
3918.722	-672.1
3921.287	-662.1
3923.85	-672.1
3926.411	-673.1
3928.971	-685.1
3931.528	-675.1
3934.084	-671.1
3936.638	-676.1
3939.19	-669.1
3941.74	-669.1
3944.288	-673.1
3946.834	-668.1
3949.378	-668.1
3951.921	-668.1
3954.462	-680.1
3957	-665.1
3959.537	-672.1
3962.072	-669.1
3964.606	-670.1
3967.137	-670.1
3969.667	-669.1
3972.194	-665.1
3974.72	-668.1
3977.244	-659.1
3979.766	-658.1
3982.286	-663.1
3984.805	-664.1
3987.321	-660.1
3989.836	-664.1
3992.349	-652.1
3994.86	-656.1
3997.369	-664.1
3999.877	-656.1
4002.382	-655.1
4004.886	-654.1
4007.388	-651.1
4009.888	-648.1
4012.386	-659.1
4014.883	-653.1
4017.377	-659.1
4019.87	-649.1
4022.361	-651.1
4024.85	-654.1
4027.338	-660.1
4029.823	-658.1
4032.307	-653.1
4034.789	-657.1
4037.269	-653.1
4039.747	-660.1
4042.224	-664.1
4044.699	-668.1
4047.172	-657.1
4049.643	-663.1
4052.112	-667.1
4054.58	-666.1
4057.046	-662.1
4059.51	-661.1
4061.972	-667.1
4064.432	-664.1
4066.891	-656.1
4069.348	-660.1
4071.803	-655.1
4074.256	-653.1
4076.708	-654.1
4079.158	-662.1
4081.606	-660.1
4084.052	-667.1
4086.497	-658.1
4088.939	-653.1
4091.38	-657.1
4093.819	-656.1
4096.257	-695.1
4098.693	-691.1
4101.127	-696.1
4103.559	-695.1
4105.989	-404.1
4108.418	-371.1
4110.845	-351.1
4113.27	-328.1
4115.694	-289.1
4118.115	-243.1
4120.535	-659.1
4122.954	-662.1
4125.37	-649.1
4127.785	-657.1
4130.198	-658.1
4132.609	-661.1
4135.019	-694.1
4137.427	-698.1
4139.833	-694.1
4142.237	-692.1
