Data from 2018-2-14_conc=0_n=5_RamanShift_02.txt Node
Date: Wed Feb 14 10:39:56 IST 2018
User: aro
Spectrometer: QEPB0276
Trigger mode: 0
Integration Time (sec): 3.000000E1
Scans to average: 1
Electric dark correction enabled: true
Nonlinearity correction enabled: false
Boxcar width: 0
XAxis mode: Raman Shifts
Number of Pixels in Spectrum: 1044
>>>>>Begin Spectral Data<<<<<
160.701	-129.4
166.742	38.6
172.777	556.6
178.805	2127.6
184.826	5871.6
190.841	12357.6
196.849	19702.6
202.85	24865.6
208.845	26448.6
214.833	26197.6
220.815	25732.6
226.789	25626.6
232.758	25482.6
238.719	25253.6
244.674	24952.6
250.623	24476.6
256.565	24021.6
262.5	23426.6
268.429	23081.6
274.351	22738.6
280.267	22422.6
286.176	22161.6
292.079	21912.6
297.975	21757.6
303.865	21518.6
309.748	21422.6
315.625	21257.6
321.495	21088.6
327.359	21104.6
333.217	21015.6
339.068	20993.6
344.912	21009.6
350.751	20908.6
356.583	20928.6
362.408	20919.6
368.227	20865.6
374.04	20883.6
379.847	21003.6
385.647	21052.6
391.44	21126.6
397.228	21273.6
403.009	21249.6
408.784	21364.6
414.553	21360.6
420.315	21398.6
426.071	21437.6
431.821	21498.6
437.565	21481.6
443.302	21423.6
449.033	21306.6
454.758	21299.6
460.477	21327.6
466.189	21206.6
471.896	21175.6
477.596	21188.6
483.29	21098.6
488.978	21070.6
494.66	21011.6
500.335	20888.6
506.005	20691.6
511.668	20423.6
517.325	20185.6
522.977	19996.6
528.622	19917.6
534.261	19726.6
539.894	19685.6
545.521	19541.6
551.141	19561.6
556.756	19495.6
562.365	19385.6
567.968	19328.6
573.565	19215.6
579.155	19149.6
584.74	19033.6
590.319	19018.6
595.892	18921.6
601.459	18885.6
607.02	18792.6
612.575	18675.6
618.124	18577.6
623.667	18440.6
629.204	18377.6
634.735	18308.6
640.261	18219.6
645.781	18186.6
651.294	18140.6
656.802	18112.6
662.304	18124.6
667.8	18045.6
673.29	18013.6
678.775	17962.6
684.254	17872.6
689.726	17842.6
695.193	17772.6
700.655	17691.6
706.11	17591.6
711.56	17518.6
717.004	17449.6
722.442	17355.6
727.874	17261.6
733.301	17269.6
738.722	17153.6
744.137	17188.6
749.547	17224.6
754.951	17189.6
760.349	17178.6
765.741	17165.6
771.128	17201.6
776.509	17195.6
781.885	17161.6
787.254	17124.6
792.618	17103.6
797.977	16918.6
803.33	16838.6
808.677	16770.6
814.019	16731.6
819.355	16591.6
824.686	16540.6
830.011	16445.6
835.33	16465.6
840.644	16473.6
845.952	16506.6
851.255	16561.6
856.552	16582.6
861.844	16497.6
867.13	16439.6
872.41	16428.6
877.686	16344.6
882.955	16188.6
888.219	16069.6
893.478	15888.6
898.731	15679.6
903.979	15549.6
909.221	15467.6
914.458	15384.6
919.69	15400.6
924.916	15485.6
930.136	15504.6
935.351	15497.6
940.561	15444.6
945.766	15488.6
950.965	15381.6
956.158	15268.6
961.347	15115.6
966.529	14924.6
971.707	14734.6
976.879	14626.6
982.046	14492.6
987.208	14465.6
992.364	14446.6
997.515	14513.6
1002.66	14627.6
1007.801	14782.6
1012.936	14869.6
1018.066	14847.6
1023.19	14871.6
1028.309	14869.6
1033.423	14825.6
1038.532	14820.6
1043.636	14587.6
1048.734	14459.6
1053.827	14293.6
1058.915	14101.6
1063.998	14062.6
1069.075	14027.6
1074.147	13978.6
1079.214	14029.6
1084.276	14175.6
1089.333	14294.6
1094.385	14285.6
1099.431	14325.6
1104.472	14292.6
1109.509	14249.6
1114.54	14094.6
1119.565	13884.6
1124.586	13723.6
1129.602	13580.6
1134.613	13499.6
1139.618	13422.6
1144.619	13430.6
1149.614	13371.6
1154.604	13433.6
1159.589	13474.6
1164.57	13487.6
1169.545	13467.6
1174.515	13489.6
1179.48	13419.6
1184.44	13338.6
1189.395	13184.6
1194.345	13149.6
1199.29	13095.6
1204.23	13030.6
1209.165	13118.6
1214.095	13141.6
1219.021	13257.6
1223.941	13331.6
1228.856	13375.6
1233.766	13464.6
1238.672	13397.6
1243.572	13386.6
1248.467	13335.6
1253.358	13176.6
1258.244	12961.6
1263.124	12798.6
1268	12607.6
1272.871	12480.6
1277.737	12349.6
1282.599	12304.6
1287.455	12267.6
1292.306	12359.6
1297.153	12367.6
1301.995	12443.6
1306.832	12487.6
1311.664	12430.6
1316.491	12422.6
1321.314	12339.6
1326.132	12133.6
1330.945	11870.6
1335.753	11644.6
1340.556	11303.6
1345.354	11067.6
1350.148	10894.6
1354.937	10781.6
1359.722	10804.6
1364.501	10884.6
1369.276	11003.6
1374.046	11146.6
1378.811	11324.6
1383.572	11461.6
1388.327	11478.6
1393.079	11436.6
1397.825	11279.6
1402.567	11130.6
1407.304	10951.6
1412.036	10878.6
1416.764	10755.6
1421.487	10726.6
1426.205	10651.6
1430.919	10623.6
1435.628	10620.6
1440.333	10607.6
1445.032	10647.6
1449.727	10670.6
1454.418	10673.6
1459.104	10580.6
1463.785	10360.6
1468.462	10093.6
1473.134	9912.6
1477.802	9767.6
1482.465	9561.6
1487.123	9464.6
1491.777	9481.6
1496.426	9511.6
1501.071	9626.6
1505.711	9764.6
1510.347	9964.6
1514.978	10130.6
1519.604	10297.6
1524.226	10403.6
1528.844	10410.6
1533.457	10332.6
1538.065	10300.6
1542.669	10188.6
1547.269	10123.6
1551.864	10096.6
1556.454	10054.6
1561.041	10027.6
1565.622	9986.6
1570.199	10023.6
1574.772	10031.6
1579.34	10113.6
1583.904	10212.6
1588.464	10238.6
1593.019	10232.6
1597.569	10172.6
1602.115	10150.6
1606.657	10034.6
1611.195	10002.6
1615.728	9920.6
1620.256	9840.6
1624.78	9860.6
1629.3	9894.6
1633.816	9899.6
1638.327	9940.6
1642.834	9978.6
1647.336	10031.6
1651.834	10103.6
1656.328	10039.6
1660.817	10005.6
1665.302	9885.6
1669.783	9737.6
1674.259	9518.6
1678.732	9282.6
1683.199	8931.6
1687.663	8640.6
1692.122	8395.6
1696.577	8266.6
1701.028	8218.6
1705.474	8331.6
1709.917	8401.6
1714.355	8471.6
1718.788	8420.6
1723.218	8316.6
1727.643	8085.6
1732.064	7958.6
1736.481	7776.6
1740.893	7591.6
1745.301	7375.6
1749.705	7199.6
1754.105	6988.6
1758.501	6792.6
1762.893	6631.6
1767.28	6440.6
1771.663	6289.6
1776.042	6179.6
1780.417	6091.6
1784.787	6121.6
1789.154	6176.6
1793.516	6276.6
1797.874	6464.6
1802.228	6558.6
1806.578	6682.6
1810.924	6623.6
1815.266	6577.6
1819.603	6428.6
1823.937	6395.6
1828.266	6259.6
1832.591	6171.6
1836.913	6080.6
1841.23	5993.6
1845.543	5957.6
1849.852	5950.6
1854.156	5901.6
1858.457	5912.6
1862.754	5923.6
1867.047	5883.6
1871.335	5908.6
1875.62	5861.6
1879.9	5894.6
1884.177	5799.6
1888.449	5747.6
1892.718	5696.6
1896.982	5620.6
1901.243	5606.6
1905.499	5517.6
1909.752	5518.6
1914	5521.6
1918.245	5534.6
1922.485	5604.6
1926.722	5640.6
1930.954	5691.6
1935.183	5826.6
1939.408	5848.6
1943.628	5876.6
1947.845	5890.6
1952.058	5889.6
1956.267	5870.6
1960.472	5785.6
1964.673	5694.6
1968.87	5603.6
1973.063	5488.6
1977.252	5431.6
1981.438	5381.6
1985.619	5305.6
1989.797	5285.6
1993.971	5254.6
1998.14	5217.6
2002.306	5173.6
2006.469	5142.6
2010.627	5155.6
2014.781	5125.6
2018.932	5044.6
2023.078	5001.6
2027.221	4950.6
2031.36	4844.6
2035.495	4793.6
2039.627	4743.6
2043.754	4660.6
2047.878	4614.6
2051.998	4556.6
2056.114	4562.6
2060.226	4563.6
2064.334	4544.6
2068.439	4583.6
2072.54	4603.6
2076.637	4668.6
2080.73	4710.6
2084.82	4712.6
2088.906	4715.6
2092.988	4734.6
2097.066	4697.6
2101.14	4713.6
2105.211	4637.6
2109.278	4592.6
2113.342	4583.6
2117.401	4563.6
2121.457	4560.6
2125.509	4525.6
2129.558	4515.6
2133.602	4475.6
2137.643	4451.6
2141.681	4432.6
2145.714	4418.6
2149.744	4366.6
2153.77	4334.6
2157.793	4316.6
2161.812	4206.6
2165.827	4194.6
2169.838	4120.6
2173.846	4043.6
2177.851	3980.6
2181.851	3930.6
2185.848	3873.6
2189.841	3852.6
2193.831	3778.6
2197.817	3753.6
2201.799	3743.6
2205.778	3723.6
2209.753	3708.6
2213.725	3677.6
2217.693	3700.6
2221.657	3684.6
2225.618	3667.6
2229.575	3673.6
2233.529	3609.6
2237.479	3557.6
2241.425	3519.6
2245.368	3485.6
2249.307	3445.6
2253.243	3423.6
2257.175	3355.6
2261.104	3294.6
2265.029	3261.6
2268.95	3239.6
2272.868	3175.6
2276.783	3164.6
2280.694	3132.6
2284.601	3106.6
2288.505	3085.6
2292.405	3028.6
2296.302	2993.6
2300.195	2980.6
2304.085	2944.6
2307.971	2899.6
2311.854	2825.6
2315.734	2808.6
2319.609	2802.6
2323.482	2732.6
2327.351	2716.6
2331.216	2695.6
2335.078	2700.6
2338.937	2647.6
2342.792	2653.6
2346.643	2621.6
2350.492	2632.6
2354.336	2628.6
2358.178	2639.6
2362.015	2656.6
2365.85	2644.6
2369.681	2643.6
2373.508	2664.6
2377.333	2637.6
2381.153	2633.6
2384.971	2634.6
2388.785	2614.6
2392.595	2588.6
2396.402	2585.6
2400.206	2545.6
2404.007	2526.6
2407.804	2501.6
2411.597	2487.6
2415.388	2475.6
2419.174	2438.6
2422.958	2433.6
2426.738	2404.6
2430.515	2400.6
2434.289	2383.6
2438.059	2362.6
2441.825	2349.6
2445.589	2323.6
2449.349	2293.6
2453.106	2272.6
2456.859	2243.6
2460.61	2205.6
2464.356	2182.6
2468.1	2166.6
2471.84	2137.6
2475.577	2110.6
2479.311	2117.6
2483.041	2084.6
2486.768	2081.6
2490.492	2073.6
2494.213	2073.6
2497.93	2049.6
2501.644	2056.6
2505.355	2054.6
2509.062	2040.6
2512.766	2035.6
2516.467	2030.6
2520.165	1993.6
2523.859	2003.6
2527.551	1982.6
2531.239	1985.6
2534.923	1956.6
2538.605	1939.6
2542.283	1915.6
2545.958	1921.6
2549.63	1942.6
2553.299	1930.6
2556.964	1914.6
2560.626	1908.6
2564.285	1902.6
2567.941	1905.6
2571.594	1886.6
2575.243	1878.6
2578.89	1853.6
2582.533	1858.6
2586.173	1846.6
2589.809	1796.6
2593.443	1796.6
2597.073	1761.6
2600.701	1775.6
2604.325	1762.6
2607.946	1755.6
2611.564	1718.6
2615.178	1728.6
2618.79	1704.6
2622.398	1689.6
2626.004	1675.6
2629.606	1638.6
2633.205	1640.6
2636.801	1614.6
2640.394	1592.6
2643.983	1590.6
2647.57	1538.6
2651.153	1509.6
2654.734	1493.6
2658.311	1481.6
2661.885	1438.6
2665.456	1423.6
2669.025	1409.6
2672.589	1384.6
2676.151	1375.6
2679.71	1357.6
2683.266	1340.6
2686.819	1308.6
2690.368	1289.6
2693.915	1252.6
2697.458	1230.6
2700.999	1216.6
2704.536	1193.6
2708.071	1158.6
2711.602	1126.6
2715.13	1096.6
2718.656	1061.6
2722.178	1047.6
2725.697	1056.6
2729.214	1023.6
2732.727	1016.6
2736.237	992.6
2739.744	1007.6
2743.249	1030.6
2746.75	1036.6
2750.248	1036.6
2753.743	1041.6
2757.236	1064.6
2760.725	1074.6
2764.211	1082.6
2767.695	1088.6
2771.175	1082.6
2774.652	1074.6
2778.127	1069.6
2781.598	1056.6
2785.067	1063.6
2788.532	1061.6
2791.995	1036.6
2795.455	1052.6
2798.911	1053.6
2802.365	1059.6
2805.816	1054.6
2809.264	1059.6
2812.709	1046.6
2816.151	1049.6
2819.59	1065.6
2823.026	1041.6
2826.46	1054.6
2829.89	1059.6
2833.318	1062.6
2836.742	1061.6
2840.164	1042.6
2843.583	1074.6
2846.999	1090.6
2850.412	1083.6
2853.822	1100.6
2857.229	1115.6
2860.634	1144.6
2864.035	1149.6
2867.434	1158.6
2870.83	1197.6
2874.223	1202.6
2877.613	1211.6
2881	1242.6
2884.385	1252.6
2887.766	1243.6
2891.145	1233.6
2894.521	1234.6
2897.894	1226.6
2901.264	1238.6
2904.631	1239.6
2907.996	1236.6
2911.358	1248.6
2914.717	1247.6
2918.073	1253.6
2921.426	1278.6
2924.777	1283.6
2928.124	1308.6
2931.469	1326.6
2934.811	1353.6
2938.15	1346.6
2941.487	1384.6
2944.821	1366.6
2948.152	1363.6
2951.48	1366.6
2954.805	1357.6
2958.128	1346.6
2961.447	1312.6
2964.765	1327.6
2968.079	1343.6
2971.39	1333.6
2974.699	1368.6
2978.005	1382.6
2981.308	1383.6
2984.609	1413.6
2987.907	1458.6
2991.202	1477.6
2994.494	1522.6
2997.784	1532.6
3001.07	1577.6
3004.355	1589.6
3007.636	1616.6
3010.915	1648.6
3014.191	1649.6
3017.464	1653.6
3020.734	1688.6
3024.002	1679.6
3027.267	1686.6
3030.53	1697.6
3033.789	1720.6
3037.046	1730.6
3040.301	1756.6
3043.552	1789.6
3046.801	1847.6
3050.048	1884.6
3053.291	1920.6
3056.532	1953.6
3059.771	2020.6
3063.006	2092.6
3066.239	2177.6
3069.469	2190.6
3072.697	2255.6
3075.922	2316.6
3079.144	2361.6
3082.364	2426.6
3085.581	2481.6
3088.795	2526.6
3092.007	2578.6
3095.216	2614.6
3098.423	2680.6
3101.627	2778.6
3104.828	2821.6
3108.026	2860.6
3111.222	2937.6
3114.416	2989.6
3117.607	3067.6
3120.795	3146.6
3123.98	3236.6
3127.163	3307.6
3130.344	3365.6
3133.521	3441.6
3136.696	3539.6
3139.869	3589.6
3143.039	3668.6
3146.206	3720.6
3149.371	3743.6
3152.533	3779.6
3155.693	3794.6
3158.85	3797.6
3162.005	3839.6
3165.157	3846.6
3168.306	3865.6
3171.453	3859.6
3174.597	3878.6
3177.739	3898.6
3180.878	3860.6
3184.014	3911.6
3187.149	3884.6
3190.28	3904.6
3193.409	3914.6
3196.536	3903.6
3199.659	3929.6
3202.781	3908.6
3205.9	3932.6
3209.016	3931.6
3212.13	3868.6
3215.241	3875.6
3218.35	3826.6
3221.456	3804.6
3224.56	3744.6
3227.661	3708.6
3230.76	3682.6
3233.856	3640.6
3236.95	3593.6
3240.041	3588.6
3243.13	3538.6
3246.216	3518.6
3249.3	3522.6
3252.382	3479.6
3255.46	3468.6
3258.537	3487.6
3261.611	3455.6
3264.682	3464.6
3267.751	3463.6
3270.818	3451.6
3273.882	3451.6
3276.943	3444.6
3280.002	3398.6
3283.059	3384.6
3286.113	3325.6
3289.165	3270.6
3292.214	3251.6
3295.261	3193.6
3298.306	3147.6
3301.348	3082.6
3304.387	3031.6
3307.425	2969.6
3310.459	2958.6
3313.492	2885.6
3316.521	2847.6
3319.549	2810.6
3322.574	2799.6
3325.597	2776.6
3328.617	2745.6
3331.635	2724.6
3334.65	2732.6
3337.663	2694.6
3340.674	2676.6
3343.682	2687.6
3346.688	2648.6
3349.691	2656.6
3352.692	2652.6
3355.691	2621.6
3358.687	2599.6
3361.681	2553.6
3364.673	2528.6
3367.662	2487.6
3370.649	2464.6
3373.633	2423.6
3376.615	2383.6
3379.595	2340.6
3382.572	2345.6
3385.547	2304.6
3388.52	2266.6
3391.49	2217.6
3394.458	2201.6
3397.424	2155.6
3400.387	2150.6
3403.348	2112.6
3406.307	2064.6
3409.263	2069.6
3412.217	2044.6
3415.168	2019.6
3418.118	1966.6
3421.065	1938.6
3424.009	1925.6
3426.951	1874.6
3429.891	1848.6
3432.829	1813.6
3435.764	1784.6
3438.697	1732.6
3441.628	1692.6
3444.557	1634.6
3447.483	1567.6
3450.407	1547.6
3453.328	1496.6
3456.247	1448.6
3459.164	1387.6
3462.079	1338.6
3464.991	1308.6
3467.902	1239.6
3470.809	1189.6
3473.715	1136.6
3476.618	1104.6
3479.519	1060.6
3482.418	1031.6
3485.315	1008.6
3488.209	963.6
3491.101	928.6
3493.99	884.6
3496.878	855.6
3499.763	835.6
3502.646	800.6
3505.527	754.6
3508.405	719.6
3511.281	675.6
3514.155	640.6
3517.027	618.6
3519.897	568.6
3522.764	514.6
3525.629	479.6
3528.492	441.6
3531.352	408.6
3534.211	381.6
3537.067	326.6
3539.921	303.6
3542.773	260.6
3545.622	236.6
3548.469	203.6
3551.315	173.6
3554.157	169.6
3556.998	119.6
3559.837	108.6
3562.673	75.6
3565.507	50.6
3568.339	30.6
3571.169	16.6
3573.996	-6.4
3576.822	-25.4
3579.645	-37.4
3582.466	-68.4
3585.285	-77.4
3588.101	-101.4
3590.916	-121.4
3593.728	-136.4
3596.538	-152.4
3599.346	-169.4
3602.152	-186.4
3604.956	-210.4
3607.757	-211.4
3610.556	-231.4
3613.354	-254.4
3616.149	-271.4
3618.942	-275.4
3621.732	-287.4
3624.521	-293.4
3627.307	-301.4
3630.092	-314.4
3632.874	-322.4
3635.654	-326.4
3638.432	-339.4
3641.208	-355.4
3643.982	-362.4
3646.753	-367.4
3649.523	-374.4
3652.29	-385.4
3655.055	-388.4
3657.818	-409.4
3660.579	-417.4
3663.338	-427.4
3666.095	-431.4
3668.849	-445.4
3671.602	-448.4
3674.352	-459.4
3677.101	-461.4
3679.847	-466.4
3682.591	-475.4
3685.333	-484.4
3688.073	-477.4
3690.811	-492.4
3693.547	-502.4
3696.281	-493.4
3699.013	-501.4
3701.742	-511.4
3704.47	-518.4
3707.195	-524.4
3709.919	-525.4
3712.64	-535.4
3715.359	-530.4
3718.076	-534.4
3720.792	-533.4
3723.505	-537.4
3726.216	-544.4
3728.925	-540.4
3731.632	-545.4
3734.336	-548.4
3737.039	-554.4
3739.74	-558.4
3742.439	-560.4
3745.136	-565.4
3747.83	-567.4
3750.523	-555.4
3753.213	-552.4
3755.902	-567.4
3758.589	-569.4
3761.273	-574.4
3763.956	-576.4
3766.636	-576.4
3769.315	-580.4
3771.991	-583.4
3774.665	-586.4
3777.338	-587.4
3780.008	-589.4
3782.677	-595.4
3785.343	-589.4
3788.007	-591.4
3790.67	-592.4
3793.33	-592.4
3795.989	-590.4
3798.645	-588.4
3801.299	-584.4
3803.952	-597.4
3806.602	-602.4
3809.251	-600.4
3811.897	-601.4
3814.542	-605.4
3817.184	-596.4
3819.825	-598.4
3822.463	-598.4
3825.1	-609.4
3827.735	-599.4
3830.367	-595.4
3832.998	-607.4
3835.627	-605.4
3838.253	-603.4
3840.878	-609.4
3843.501	-603.4
3846.122	-605.4
3848.741	-610.4
3851.358	-606.4
3853.973	-604.4
3856.586	-609.4
3859.197	-615.4
3861.806	-613.4
3864.414	-611.4
3867.019	-613.4
3869.622	-611.4
3872.224	-607.4
3874.823	-600.4
3877.421	-579.4
3880.016	-566.4
3882.61	-543.4
3885.202	-537.4
3887.792	-558.4
3890.38	-579.4
3892.966	-604.4
3895.55	-611.4
3898.132	-625.4
3900.713	-626.4
3903.291	-618.4
3905.868	-625.4
3908.442	-624.4
3911.015	-625.4
3913.586	-620.4
3916.155	-616.4
3918.722	-627.4
3921.287	-621.4
3923.85	-630.4
3926.411	-627.4
3928.971	-634.4
3931.528	-629.4
3934.084	-629.4
3936.638	-627.4
3939.19	-626.4
3941.74	-631.4
3944.288	-632.4
3946.834	-624.4
3949.378	-630.4
3951.921	-624.4
3954.462	-632.4
3957	-624.4
3959.537	-623.4
3962.072	-624.4
3964.606	-630.4
3967.137	-626.4
3969.667	-625.4
3972.194	-619.4
3974.72	-622.4
3977.244	-617.4
3979.766	-620.4
3982.286	-619.4
3984.805	-621.4
3987.321	-614.4
3989.836	-616.4
3992.349	-607.4
3994.86	-612.4
3997.369	-617.4
3999.877	-608.4
4002.382	-610.4
4004.886	-609.4
4007.388	-610.4
4009.888	-610.4
4012.386	-618.4
4014.883	-609.4
4017.377	-609.4
4019.87	-614.4
4022.361	-612.4
4024.85	-618.4
4027.338	-615.4
4029.823	-615.4
4032.307	-619.4
4034.789	-611.4
4037.269	-613.4
4039.747	-613.4
4042.224	-617.4
4044.699	-617.4
4047.172	-612.4
4049.643	-616.4
4052.112	-619.4
4054.58	-620.4
4057.046	-619.4
4059.51	-621.4
4061.972	-622.4
4064.432	-621.4
4066.891	-615.4
4069.348	-615.4
4071.803	-612.4
4074.256	-615.4
4076.708	-618.4
4079.158	-615.4
4081.606	-620.4
4084.052	-623.4
4086.497	-619.4
4088.939	-618.4
4091.38	-621.4
4093.819	-612.4
4096.257	-651.4
4098.693	-653.4
4101.127	-650.4
4103.559	-649.4
4105.989	-377.4
4108.418	-359.4
4110.845	-326.4
4113.27	-305.4
4115.694	-272.4
4118.115	-225.4
4120.535	-615.4
4122.954	-616.4
4125.37	-608.4
4127.785	-616.4
4130.198	-617.4
4132.609	-615.4
4135.019	-647.4
4137.427	-649.4
4139.833	-652.4
4142.237	-644.4
