Data from 2018-2-14_conc=4_n=9_RamanShift_01.txt Node
Date: Wed Feb 14 13:56:25 IST 2018
User: aro
Spectrometer: QEPB0276
Trigger mode: 0
Integration Time (sec): 3.000000E1
Scans to average: 1
Electric dark correction enabled: true
Nonlinearity correction enabled: false
Boxcar width: 0
XAxis mode: Raman Shifts
Number of Pixels in Spectrum: 1044
>>>>>Begin Spectral Data<<<<<
160.701	-134.6
166.742	42.4
172.777	558.4
178.805	2156.4
184.826	6034.4
190.841	12536.4
196.849	20053.4
202.85	25427.4
208.845	27154.4
214.833	26774.4
220.815	26220.4
226.789	26078.4
232.758	25859.4
238.719	25638.4
244.674	25218.4
250.623	24800.4
256.565	24225.4
262.5	23751.4
268.429	23230.4
274.351	22821.4
280.267	22515.4
286.176	22180.4
292.079	21999.4
297.975	21765.4
303.865	21466.4
309.748	21399.4
315.625	21278.4
321.495	21117.4
327.359	21038.4
333.217	20986.4
339.068	20910.4
344.912	20915.4
350.751	20881.4
356.583	20937.4
362.408	20848.4
368.227	20781.4
374.04	20863.4
379.847	20994.4
385.647	20997.4
391.44	21124.4
397.228	21183.4
403.009	21223.4
408.784	21307.4
414.553	21352.4
420.315	21484.4
426.071	21479.4
431.821	21446.4
437.565	21360.4
443.302	21423.4
449.033	21375.4
454.758	21339.4
460.477	21187.4
466.189	21161.4
471.896	21099.4
477.596	21025.4
483.29	20973.4
488.978	21003.4
494.66	20891.4
500.335	20754.4
506.005	20486.4
511.668	20222.4
517.325	20015.4
522.977	19766.4
528.622	19634.4
534.261	19499.4
539.894	19411.4
545.521	19346.4
551.141	19253.4
556.756	19141.4
562.365	19106.4
567.968	19007.4
573.565	18935.4
579.155	18862.4
584.74	18763.4
590.319	18684.4
595.892	18625.4
601.459	18510.4
607.02	18449.4
612.575	18340.4
618.124	18301.4
623.667	18098.4
629.204	18063.4
634.735	17958.4
640.261	17849.4
645.781	17832.4
651.294	17803.4
656.802	17758.4
662.304	17713.4
667.8	17644.4
673.29	17624.4
678.775	17639.4
684.254	17544.4
689.726	17399.4
695.193	17435.4
700.655	17356.4
706.11	17248.4
711.56	17146.4
717.004	17084.4
722.442	17026.4
727.874	16895.4
733.301	16924.4
738.722	16810.4
744.137	16717.4
749.547	16812.4
754.951	16819.4
760.349	16778.4
765.741	16823.4
771.128	16844.4
776.509	16808.4
781.885	16828.4
787.254	16811.4
792.618	16749.4
797.977	16650.4
803.33	16487.4
808.677	16436.4
814.019	16332.4
819.355	16219.4
824.686	16170.4
830.011	16151.4
835.33	16061.4
840.644	16186.4
845.952	16215.4
851.255	16177.4
856.552	16190.4
861.844	16207.4
867.13	16118.4
872.41	16032.4
877.686	15963.4
882.955	15809.4
888.219	15715.4
893.478	15521.4
898.731	15373.4
903.979	15162.4
909.221	15053.4
914.458	14948.4
919.69	14978.4
924.916	15000.4
930.136	15072.4
935.351	15068.4
940.561	15108.4
945.766	15025.4
950.965	14983.4
956.158	14874.4
961.347	14745.4
966.529	14513.4
971.707	14391.4
976.879	14200.4
982.046	14087.4
987.208	14078.4
992.364	13994.4
997.515	14111.4
1002.66	14238.4
1007.801	14413.4
1012.936	14515.4
1018.066	14458.4
1023.19	14486.4
1028.309	14505.4
1033.423	14399.4
1038.532	14401.4
1043.636	14250.4
1048.734	14097.4
1053.827	13933.4
1058.915	13748.4
1063.998	13687.4
1069.075	13596.4
1074.147	13669.4
1079.214	13632.4
1084.276	13781.4
1089.333	13838.4
1094.385	13896.4
1099.431	13927.4
1104.472	13934.4
1109.509	13886.4
1114.54	13691.4
1119.565	13519.4
1124.586	13342.4
1129.602	13240.4
1134.613	13182.4
1139.618	13071.4
1144.619	13055.4
1149.614	13059.4
1154.604	13039.4
1159.589	13088.4
1164.57	13073.4
1169.545	13103.4
1174.515	13126.4
1179.48	13040.4
1184.44	12933.4
1189.395	12847.4
1194.345	12768.4
1199.29	12740.4
1204.23	12717.4
1209.165	12762.4
1214.095	12820.4
1219.021	12881.4
1223.941	12926.4
1228.856	13030.4
1233.766	13084.4
1238.672	13066.4
1243.572	13078.4
1248.467	12963.4
1253.358	12873.4
1258.244	12624.4
1263.124	12472.4
1268	12267.4
1272.871	12172.4
1277.737	12009.4
1282.599	11977.4
1287.455	11991.4
1292.306	12014.4
1297.153	12020.4
1301.995	12116.4
1306.832	12138.4
1311.664	12138.4
1316.491	12119.4
1321.314	11988.4
1326.132	11837.4
1330.945	11602.4
1335.753	11277.4
1340.556	11019.4
1345.354	10835.4
1350.148	10673.4
1354.937	10579.4
1359.722	10566.4
1364.501	10634.4
1369.276	10750.4
1374.046	10864.4
1378.811	11056.4
1383.572	11181.4
1388.327	11184.4
1393.079	11115.4
1397.825	10971.4
1402.567	10816.4
1407.304	10719.4
1412.036	10592.4
1416.764	10488.4
1421.487	10442.4
1426.205	10362.4
1430.919	10344.4
1435.628	10320.4
1440.333	10389.4
1445.032	10353.4
1449.727	10448.4
1454.418	10462.4
1459.104	10292.4
1463.785	10165.4
1468.462	9927.4
1473.134	9717.4
1477.802	9527.4
1482.465	9369.4
1487.123	9256.4
1491.777	9238.4
1496.426	9297.4
1501.071	9401.4
1505.711	9559.4
1510.347	9718.4
1514.978	9909.4
1519.604	10013.4
1524.226	10140.4
1528.844	10144.4
1533.457	10083.4
1538.065	10066.4
1542.669	9982.4
1547.269	9922.4
1551.864	9807.4
1556.454	9797.4
1561.041	9823.4
1565.622	9808.4
1570.199	9822.4
1574.772	9858.4
1579.34	9943.4
1583.904	10009.4
1588.464	9999.4
1593.019	10007.4
1597.569	10035.4
1602.115	9951.4
1606.657	9895.4
1611.195	9851.4
1615.728	9833.4
1620.256	9829.4
1624.78	9754.4
1629.3	9782.4
1633.816	9869.4
1638.327	9836.4
1642.834	9953.4
1647.336	9996.4
1651.834	10015.4
1656.328	10013.4
1660.817	9897.4
1665.302	9810.4
1669.783	9664.4
1674.259	9453.4
1678.732	9199.4
1683.199	8911.4
1687.663	8580.4
1692.122	8333.4
1696.577	8211.4
1701.028	8187.4
1705.474	8225.4
1709.917	8251.4
1714.355	8317.4
1718.788	8255.4
1723.218	8127.4
1727.643	7959.4
1732.064	7832.4
1736.481	7625.4
1740.893	7460.4
1745.301	7216.4
1749.705	7042.4
1754.105	6870.4
1758.501	6600.4
1762.893	6447.4
1767.28	6314.4
1771.663	6203.4
1776.042	6076.4
1780.417	6026.4
1784.787	6073.4
1789.154	6113.4
1793.516	6200.4
1797.874	6334.4
1802.228	6438.4
1806.578	6461.4
1810.924	6470.4
1815.266	6398.4
1819.603	6292.4
1823.937	6209.4
1828.266	6095.4
1832.591	6005.4
1836.913	5938.4
1841.23	5863.4
1845.543	5851.4
1849.852	5821.4
1854.156	5804.4
1858.457	5762.4
1862.754	5742.4
1867.047	5760.4
1871.335	5778.4
1875.62	5727.4
1879.9	5751.4
1884.177	5658.4
1888.449	5642.4
1892.718	5611.4
1896.982	5543.4
1901.243	5517.4
1905.499	5429.4
1909.752	5454.4
1914	5459.4
1918.245	5501.4
1922.485	5526.4
1926.722	5594.4
1930.954	5632.4
1935.183	5668.4
1939.408	5764.4
1943.628	5770.4
1947.845	5823.4
1952.058	5761.4
1956.267	5758.4
1960.472	5666.4
1964.673	5576.4
1968.87	5507.4
1973.063	5419.4
1977.252	5312.4
1981.438	5251.4
1985.619	5199.4
1989.797	5167.4
1993.971	5119.4
1998.14	5147.4
2002.306	5077.4
2006.469	5072.4
2010.627	5046.4
2014.781	5019.4
2018.932	4980.4
2023.078	4947.4
2027.221	4870.4
2031.36	4789.4
2035.495	4733.4
2039.627	4669.4
2043.754	4618.4
2047.878	4585.4
2051.998	4521.4
2056.114	4557.4
2060.226	4548.4
2064.334	4535.4
2068.439	4545.4
2072.54	4576.4
2076.637	4585.4
2080.73	4658.4
2084.82	4666.4
2088.906	4680.4
2092.988	4661.4
2097.066	4653.4
2101.14	4647.4
2105.211	4600.4
2109.278	4573.4
2113.342	4533.4
2117.401	4523.4
2121.457	4494.4
2125.509	4472.4
2129.558	4461.4
2133.602	4426.4
2137.643	4378.4
2141.681	4380.4
2145.714	4347.4
2149.744	4299.4
2153.77	4297.4
2157.793	4254.4
2161.812	4195.4
2165.827	4116.4
2169.838	4072.4
2173.846	3991.4
2177.851	3888.4
2181.851	3893.4
2185.848	3820.4
2189.841	3746.4
2193.831	3733.4
2197.817	3686.4
2201.799	3704.4
2205.778	3647.4
2209.753	3651.4
2213.725	3604.4
2217.693	3638.4
2221.657	3637.4
2225.618	3617.4
2229.575	3610.4
2233.529	3566.4
2237.479	3543.4
2241.425	3491.4
2245.368	3428.4
2249.307	3379.4
2253.243	3365.4
2257.175	3272.4
2261.104	3261.4
2265.029	3215.4
2268.95	3195.4
2272.868	3153.4
2276.783	3112.4
2280.694	3067.4
2284.601	3042.4
2288.505	3038.4
2292.405	2992.4
2296.302	2966.4
2300.195	2915.4
2304.085	2912.4
2307.971	2867.4
2311.854	2785.4
2315.734	2777.4
2319.609	2735.4
2323.482	2681.4
2327.351	2646.4
2331.216	2635.4
2335.078	2619.4
2338.937	2618.4
2342.792	2592.4
2346.643	2588.4
2350.492	2593.4
2354.336	2588.4
2358.178	2578.4
2362.015	2592.4
2365.85	2577.4
2369.681	2579.4
2373.508	2604.4
2377.333	2607.4
2381.153	2575.4
2384.971	2574.4
2388.785	2544.4
2392.595	2525.4
2396.402	2512.4
2400.206	2466.4
2404.007	2457.4
2407.804	2431.4
2411.597	2433.4
2415.388	2395.4
2419.174	2393.4
2422.958	2390.4
2426.738	2343.4
2430.515	2314.4
2434.289	2328.4
2438.059	2297.4
2441.825	2280.4
2445.589	2274.4
2449.349	2228.4
2453.106	2191.4
2456.859	2174.4
2460.61	2164.4
2464.356	2132.4
2468.1	2099.4
2471.84	2073.4
2475.577	2067.4
2479.311	2036.4
2483.041	2039.4
2486.768	2048.4
2490.492	2019.4
2494.213	2034.4
2497.93	2020.4
2501.644	1988.4
2505.355	1978.4
2509.062	2009.4
2512.766	1970.4
2516.467	1966.4
2520.165	1965.4
2523.859	1929.4
2527.551	1940.4
2531.239	1916.4
2534.923	1900.4
2538.605	1883.4
2542.283	1921.4
2545.958	1884.4
2549.63	1913.4
2553.299	1903.4
2556.964	1876.4
2560.626	1855.4
2564.285	1841.4
2567.941	1852.4
2571.594	1847.4
2575.243	1849.4
2578.89	1836.4
2582.533	1779.4
2586.173	1782.4
2589.809	1779.4
2593.443	1751.4
2597.073	1732.4
2600.701	1722.4
2604.325	1710.4
2607.946	1698.4
2611.564	1678.4
2615.178	1689.4
2618.79	1664.4
2622.398	1650.4
2626.004	1649.4
2629.606	1616.4
2633.205	1604.4
2636.801	1575.4
2640.394	1538.4
2643.983	1531.4
2647.57	1516.4
2651.153	1494.4
2654.734	1434.4
2658.311	1427.4
2661.885	1417.4
2665.456	1401.4
2669.025	1380.4
2672.589	1341.4
2676.151	1342.4
2679.71	1336.4
2683.266	1332.4
2686.819	1299.4
2690.368	1265.4
2693.915	1240.4
2697.458	1215.4
2700.999	1169.4
2704.536	1154.4
2708.071	1123.4
2711.602	1119.4
2715.13	1082.4
2718.656	1070.4
2722.178	1071.4
2725.697	1036.4
2729.214	1046.4
2732.727	1046.4
2736.237	1016.4
2739.744	1016.4
2743.249	1024.4
2746.75	1039.4
2750.248	1034.4
2753.743	1061.4
2757.236	1054.4
2760.725	1081.4
2764.211	1073.4
2767.695	1072.4
2771.175	1079.4
2774.652	1063.4
2778.127	1060.4
2781.598	1052.4
2785.067	1064.4
2788.532	1047.4
2791.995	1029.4
2795.455	1038.4
2798.911	1026.4
2802.365	1026.4
2805.816	1036.4
2809.264	1038.4
2812.709	1051.4
2816.151	1040.4
2819.59	1042.4
2823.026	1047.4
2826.46	1042.4
2829.89	1050.4
2833.318	1046.4
2836.742	1064.4
2840.164	1075.4
2843.583	1053.4
2846.999	1078.4
2850.412	1101.4
2853.822	1109.4
2857.229	1133.4
2860.634	1149.4
2864.035	1162.4
2867.434	1183.4
2870.83	1185.4
2874.223	1195.4
2877.613	1244.4
2881	1261.4
2884.385	1261.4
2887.766	1267.4
2891.145	1258.4
2894.521	1268.4
2897.894	1262.4
2901.264	1257.4
2904.631	1268.4
2907.996	1286.4
2911.358	1281.4
2914.717	1303.4
2918.073	1317.4
2921.426	1318.4
2924.777	1338.4
2928.124	1320.4
2931.469	1362.4
2934.811	1402.4
2938.15	1400.4
2941.487	1439.4
2944.821	1449.4
2948.152	1445.4
2951.48	1442.4
2954.805	1417.4
2958.128	1405.4
2961.447	1392.4
2964.765	1397.4
2968.079	1402.4
2971.39	1416.4
2974.699	1414.4
2978.005	1470.4
2981.308	1491.4
2984.609	1493.4
2987.907	1518.4
2991.202	1551.4
2994.494	1580.4
2997.784	1622.4
3001.07	1651.4
3004.355	1668.4
3007.636	1706.4
3010.915	1718.4
3014.191	1718.4
3017.464	1739.4
3020.734	1762.4
3024.002	1779.4
3027.267	1786.4
3030.53	1801.4
3033.789	1805.4
3037.046	1836.4
3040.301	1877.4
3043.552	1890.4
3046.801	1934.4
3050.048	1967.4
3053.291	2028.4
3056.532	2083.4
3059.771	2133.4
3063.006	2202.4
3066.239	2283.4
3069.469	2327.4
3072.697	2388.4
3075.922	2460.4
3079.144	2504.4
3082.364	2553.4
3085.581	2641.4
3088.795	2708.4
3092.007	2732.4
3095.216	2797.4
3098.423	2853.4
3101.627	2918.4
3104.828	2999.4
3108.026	3044.4
3111.222	3110.4
3114.416	3217.4
3117.607	3250.4
3120.795	3334.4
3123.98	3413.4
3127.163	3506.4
3130.344	3580.4
3133.521	3631.4
3136.696	3751.4
3139.869	3840.4
3143.039	3890.4
3146.206	3934.4
3149.371	3984.4
3152.533	4042.4
3155.693	4066.4
3158.85	4055.4
3162.005	4088.4
3165.157	4126.4
3168.306	4105.4
3171.453	4125.4
3174.597	4151.4
3177.739	4145.4
3180.878	4156.4
3184.014	4177.4
3187.149	4156.4
3190.28	4192.4
3193.409	4203.4
3196.536	4192.4
3199.659	4206.4
3202.781	4194.4
3205.9	4216.4
3209.016	4183.4
3212.13	4170.4
3215.241	4178.4
3218.35	4108.4
3221.456	4087.4
3224.56	4022.4
3227.661	4010.4
3230.76	3959.4
3233.856	3906.4
3236.95	3864.4
3240.041	3842.4
3243.13	3801.4
3246.216	3793.4
3249.3	3784.4
3252.382	3773.4
3255.46	3728.4
3258.537	3723.4
3261.611	3753.4
3264.682	3760.4
3267.751	3767.4
3270.818	3744.4
3273.882	3729.4
3276.943	3717.4
3280.002	3668.4
3283.059	3630.4
3286.113	3602.4
3289.165	3533.4
3292.214	3498.4
3295.261	3429.4
3298.306	3387.4
3301.348	3323.4
3304.387	3274.4
3307.425	3193.4
3310.459	3174.4
3313.492	3158.4
3316.521	3060.4
3319.549	3067.4
3322.574	3015.4
3325.597	2987.4
3328.617	2976.4
3331.635	2943.4
3334.65	2935.4
3337.663	2936.4
3340.674	2900.4
3343.682	2855.4
3346.688	2879.4
3349.691	2854.4
3352.692	2871.4
3355.691	2809.4
3358.687	2808.4
3361.681	2766.4
3364.673	2729.4
3367.662	2699.4
3370.649	2669.4
3373.633	2624.4
3376.615	2602.4
3379.595	2547.4
3382.572	2523.4
3385.547	2477.4
3388.52	2466.4
3391.49	2417.4
3394.458	2380.4
3397.424	2357.4
3400.387	2304.4
3403.348	2288.4
3406.307	2255.4
3409.263	2235.4
3412.217	2217.4
3415.168	2186.4
3418.118	2179.4
3421.065	2137.4
3424.009	2127.4
3426.951	2068.4
3429.891	2040.4
3432.829	2006.4
3435.764	1974.4
3438.697	1871.4
3441.628	1865.4
3444.557	1797.4
3447.483	1716.4
3450.407	1692.4
3453.328	1634.4
3456.247	1591.4
3459.164	1513.4
3462.079	1470.4
3464.991	1416.4
3467.902	1370.4
3470.809	1322.4
3473.715	1270.4
3476.618	1238.4
3479.519	1205.4
3482.418	1155.4
3485.315	1115.4
3488.209	1085.4
3491.101	1044.4
3493.99	1001.4
3496.878	958.4
3499.763	931.4
3502.646	895.4
3505.527	850.4
3508.405	810.4
3511.281	771.4
3514.155	736.4
3517.027	705.4
3519.897	648.4
3522.764	601.4
3525.629	560.4
3528.492	511.4
3531.352	488.4
3534.211	445.4
3537.067	393.4
3539.921	370.4
3542.773	335.4
3545.622	303.4
3548.469	258.4
3551.315	237.4
3554.157	203.4
3556.998	161.4
3559.837	145.4
3562.673	136.4
3565.507	106.4
3568.339	82.4
3571.169	61.4
3573.996	42.4
3576.822	32.4
3579.645	5.4
3582.466	-22.6
3585.285	-36.6
3588.101	-67.6
3590.916	-77.6
3593.728	-113.6
3596.538	-117.6
3599.346	-147.6
3602.152	-165.6
3604.956	-176.6
3607.757	-186.6
3610.556	-212.6
3613.354	-228.6
3616.149	-243.6
3618.942	-253.6
3621.732	-265.6
3624.521	-281.6
3627.307	-298.6
3630.092	-291.6
3632.874	-306.6
3635.654	-313.6
3638.432	-323.6
3641.208	-335.6
3643.982	-349.6
3646.753	-353.6
3649.523	-363.6
3652.29	-371.6
3655.055	-382.6
3657.818	-388.6
3660.579	-400.6
3663.338	-420.6
3666.095	-424.6
3668.849	-435.6
3671.602	-443.6
3674.352	-455.6
3677.101	-455.6
3679.847	-469.6
3682.591	-468.6
3685.333	-479.6
3688.073	-484.6
3690.811	-496.6
3693.547	-492.6
3696.281	-498.6
3699.013	-504.6
3701.742	-504.6
3704.47	-505.6
3707.195	-516.6
3709.919	-510.6
3712.64	-523.6
3715.359	-526.6
3718.076	-536.6
3720.792	-539.6
3723.505	-537.6
3726.216	-548.6
3728.925	-553.6
3731.632	-559.6
3734.336	-548.6
3737.039	-558.6
3739.74	-553.6
3742.439	-564.6
3745.136	-567.6
3747.83	-570.6
3750.523	-565.6
3753.213	-578.6
3755.902	-575.6
3758.589	-574.6
3761.273	-575.6
3763.956	-572.6
3766.636	-581.6
3769.315	-579.6
3771.991	-577.6
3774.665	-591.6
3777.338	-586.6
3780.008	-590.6
3782.677	-590.6
3785.343	-591.6
3788.007	-595.6
3790.67	-593.6
3793.33	-600.6
3795.989	-601.6
3798.645	-597.6
3801.299	-596.6
3803.952	-610.6
3806.602	-607.6
3809.251	-609.6
3811.897	-603.6
3814.542	-607.6
3817.184	-606.6
3819.825	-600.6
3822.463	-603.6
3825.1	-605.6
3827.735	-602.6
3830.367	-603.6
3832.998	-612.6
3835.627	-609.6
3838.253	-609.6
3840.878	-616.6
3843.501	-613.6
3846.122	-610.6
3848.741	-615.6
3851.358	-610.6
3853.973	-610.6
3856.586	-616.6
3859.197	-617.6
3861.806	-621.6
3864.414	-615.6
3867.019	-617.6
3869.622	-619.6
3872.224	-614.6
3874.823	-603.6
3877.421	-585.6
3880.016	-576.6
3882.61	-553.6
3885.202	-552.6
3887.792	-559.6
3890.38	-593.6
3892.966	-609.6
3895.55	-622.6
3898.132	-628.6
3900.713	-632.6
3903.291	-624.6
3905.868	-626.6
3908.442	-631.6
3911.015	-635.6
3913.586	-622.6
3916.155	-630.6
3918.722	-633.6
3921.287	-625.6
3923.85	-641.6
3926.411	-638.6
3928.971	-642.6
3931.528	-638.6
3934.084	-635.6
3936.638	-637.6
3939.19	-633.6
3941.74	-636.6
3944.288	-634.6
3946.834	-632.6
3949.378	-634.6
3951.921	-628.6
3954.462	-641.6
3957	-631.6
3959.537	-635.6
3962.072	-634.6
3964.606	-636.6
3967.137	-630.6
3969.667	-631.6
3972.194	-627.6
3974.72	-629.6
3977.244	-621.6
3979.766	-618.6
3982.286	-630.6
3984.805	-619.6
3987.321	-623.6
3989.836	-622.6
3992.349	-621.6
3994.86	-620.6
3997.369	-628.6
3999.877	-618.6
4002.382	-617.6
4004.886	-617.6
4007.388	-614.6
4009.888	-616.6
4012.386	-624.6
4014.883	-624.6
4017.377	-613.6
4019.87	-617.6
4022.361	-616.6
4024.85	-619.6
4027.338	-620.6
4029.823	-624.6
4032.307	-621.6
4034.789	-618.6
4037.269	-612.6
4039.747	-621.6
4042.224	-626.6
4044.699	-622.6
4047.172	-628.6
4049.643	-623.6
4052.112	-624.6
4054.58	-628.6
4057.046	-626.6
4059.51	-622.6
4061.972	-630.6
4064.432	-628.6
4066.891	-624.6
4069.348	-619.6
4071.803	-618.6
4074.256	-624.6
4076.708	-625.6
4079.158	-625.6
4081.606	-625.6
4084.052	-623.6
4086.497	-621.6
4088.939	-622.6
4091.38	-625.6
4093.819	-613.6
4096.257	-654.6
4098.693	-655.6
4101.127	-655.6
4103.559	-651.6
4105.989	-381.6
4108.418	-356.6
4110.845	-336.6
4113.27	-315.6
4115.694	-279.6
4118.115	-219.6
4120.535	-616.6
4122.954	-622.6
4125.37	-614.6
4127.785	-619.6
4130.198	-623.6
4132.609	-625.6
4135.019	-657.6
4137.427	-654.6
4139.833	-656.6
4142.237	-653.6
