Data from 2018-2-14_conc=6_n=5_RamanShift_01.txt Node
Date: Wed Feb 14 14:57:55 IST 2018
User: aro
Spectrometer: QEPB0276
Trigger mode: 0
Integration Time (sec): 3.000000E1
Scans to average: 1
Electric dark correction enabled: true
Nonlinearity correction enabled: false
Boxcar width: 0
XAxis mode: Raman Shifts
Number of Pixels in Spectrum: 1044
>>>>>Begin Spectral Data<<<<<
160.701	-152.1
166.742	43.9
172.777	568.9
178.805	2220.9
184.826	6136.9
190.841	12876.9
196.849	20731.9
202.85	26397.9
208.845	28258.9
214.833	27929.9
220.815	27382.9
226.789	27234.9
232.758	27013.9
238.719	26769.9
244.674	26437.9
250.623	25858.9
256.565	25338.9
262.5	24723.9
268.429	24283.9
274.351	23821.9
280.267	23481.9
286.176	23218.9
292.079	22989.9
297.975	22715.9
303.865	22547.9
309.748	22345.9
315.625	22203.9
321.495	22108.9
327.359	21959.9
333.217	21955.9
339.068	21880.9
344.912	21911.9
350.751	21883.9
356.583	21820.9
362.408	21763.9
368.227	21772.9
374.04	21860.9
379.847	21905.9
385.647	21944.9
391.44	22068.9
397.228	22146.9
403.009	22199.9
408.784	22224.9
414.553	22356.9
420.315	22453.9
426.071	22438.9
431.821	22425.9
437.565	22371.9
443.302	22337.9
449.033	22280.9
454.758	22258.9
460.477	22277.9
466.189	22138.9
471.896	22103.9
477.596	22044.9
483.29	21975.9
488.978	21999.9
494.66	21900.9
500.335	21683.9
506.005	21503.9
511.668	21277.9
517.325	20945.9
522.977	20785.9
528.622	20628.9
534.261	20513.9
539.894	20316.9
545.521	20270.9
551.141	20229.9
556.756	20114.9
562.365	20044.9
567.968	20022.9
573.565	19897.9
579.155	19843.9
584.74	19782.9
590.319	19686.9
595.892	19580.9
601.459	19458.9
607.02	19489.9
612.575	19293.9
618.124	19240.9
623.667	19023.9
629.204	19012.9
634.735	18893.9
640.261	18829.9
645.781	18757.9
651.294	18709.9
656.802	18675.9
662.304	18685.9
667.8	18621.9
673.29	18545.9
678.775	18574.9
684.254	18472.9
689.726	18393.9
695.193	18401.9
700.655	18245.9
706.11	18128.9
711.56	18140.9
717.004	18005.9
722.442	17897.9
727.874	17846.9
733.301	17773.9
738.722	17781.9
744.137	17697.9
749.547	17731.9
754.951	17654.9
760.349	17712.9
765.741	17684.9
771.128	17737.9
776.509	17754.9
781.885	17696.9
787.254	17667.9
792.618	17620.9
797.977	17486.9
803.33	17368.9
808.677	17287.9
814.019	17178.9
819.355	17049.9
824.686	16970.9
830.011	16949.9
835.33	16982.9
840.644	16979.9
845.952	17017.9
851.255	17062.9
856.552	17090.9
861.844	17050.9
867.13	16902.9
872.41	16858.9
877.686	16820.9
882.955	16710.9
888.219	16510.9
893.478	16371.9
898.731	16201.9
903.979	15967.9
909.221	15890.9
914.458	15752.9
919.69	15824.9
924.916	15896.9
930.136	15909.9
935.351	15881.9
940.561	15961.9
945.766	15887.9
950.965	15784.9
956.158	15632.9
961.347	15540.9
966.529	15278.9
971.707	15096.9
976.879	14918.9
982.046	14782.9
987.208	14794.9
992.364	14765.9
997.515	14860.9
1002.66	15040.9
1007.801	15215.9
1012.936	15305.9
1018.066	15290.9
1023.19	15272.9
1028.309	15254.9
1033.423	15253.9
1038.532	15178.9
1043.636	15025.9
1048.734	14857.9
1053.827	14697.9
1058.915	14472.9
1063.998	14409.9
1069.075	14376.9
1074.147	14364.9
1079.214	14453.9
1084.276	14498.9
1089.333	14591.9
1094.385	14674.9
1099.431	14728.9
1104.472	14687.9
1109.509	14652.9
1114.54	14451.9
1119.565	14282.9
1124.586	14106.9
1129.602	13974.9
1134.613	13869.9
1139.618	13774.9
1144.619	13764.9
1149.614	13731.9
1154.604	13786.9
1159.589	13799.9
1164.57	13832.9
1169.545	13883.9
1174.515	13857.9
1179.48	13767.9
1184.44	13682.9
1189.395	13613.9
1194.345	13478.9
1199.29	13397.9
1204.23	13456.9
1209.165	13421.9
1214.095	13549.9
1219.021	13587.9
1223.941	13698.9
1228.856	13713.9
1233.766	13768.9
1238.672	13748.9
1243.572	13783.9
1248.467	13713.9
1253.358	13564.9
1258.244	13337.9
1263.124	13124.9
1268	12972.9
1272.871	12816.9
1277.737	12705.9
1282.599	12612.9
1287.455	12653.9
1292.306	12676.9
1297.153	12727.9
1301.995	12767.9
1306.832	12766.9
1311.664	12813.9
1316.491	12789.9
1321.314	12641.9
1326.132	12505.9
1330.945	12199.9
1335.753	11892.9
1340.556	11607.9
1345.354	11318.9
1350.148	11167.9
1354.937	11071.9
1359.722	11061.9
1364.501	11129.9
1369.276	11270.9
1374.046	11417.9
1378.811	11604.9
1383.572	11710.9
1388.327	11750.9
1393.079	11710.9
1397.825	11581.9
1402.567	11432.9
1407.304	11241.9
1412.036	11133.9
1416.764	11055.9
1421.487	10965.9
1426.205	10950.9
1430.919	10900.9
1435.628	10871.9
1440.333	10914.9
1445.032	10926.9
1449.727	10976.9
1454.418	10902.9
1459.104	10860.9
1463.785	10562.9
1468.462	10408.9
1473.134	10192.9
1477.802	9922.9
1482.465	9763.9
1487.123	9639.9
1491.777	9601.9
1496.426	9666.9
1501.071	9801.9
1505.711	9955.9
1510.347	10121.9
1514.978	10288.9
1519.604	10474.9
1524.226	10534.9
1528.844	10616.9
1533.457	10595.9
1538.065	10566.9
1542.669	10440.9
1547.269	10361.9
1551.864	10330.9
1556.454	10324.9
1561.041	10287.9
1565.622	10273.9
1570.199	10327.9
1574.772	10369.9
1579.34	10423.9
1583.904	10488.9
1588.464	10518.9
1593.019	10530.9
1597.569	10487.9
1602.115	10475.9
1606.657	10384.9
1611.195	10320.9
1615.728	10265.9
1620.256	10201.9
1624.78	10195.9
1629.3	10183.9
1633.816	10252.9
1638.327	10302.9
1642.834	10349.9
1647.336	10371.9
1651.834	10395.9
1656.328	10401.9
1660.817	10360.9
1665.302	10249.9
1669.783	10059.9
1674.259	9841.9
1678.732	9505.9
1683.199	9193.9
1687.663	8896.9
1692.122	8626.9
1696.577	8431.9
1701.028	8402.9
1705.474	8484.9
1709.917	8596.9
1714.355	8617.9
1718.788	8544.9
1723.218	8431.9
1727.643	8234.9
1732.064	8089.9
1736.481	7906.9
1740.893	7697.9
1745.301	7534.9
1749.705	7355.9
1754.105	7099.9
1758.501	6914.9
1762.893	6721.9
1767.28	6529.9
1771.663	6401.9
1776.042	6278.9
1780.417	6203.9
1784.787	6191.9
1789.154	6293.9
1793.516	6429.9
1797.874	6517.9
1802.228	6629.9
1806.578	6711.9
1810.924	6696.9
1815.266	6617.9
1819.603	6563.9
1823.937	6456.9
1828.266	6355.9
1832.591	6268.9
1836.913	6201.9
1841.23	6148.9
1845.543	6077.9
1849.852	6036.9
1854.156	6003.9
1858.457	6012.9
1862.754	5985.9
1867.047	5996.9
1871.335	5991.9
1875.62	5965.9
1879.9	5949.9
1884.177	5917.9
1888.449	5831.9
1892.718	5788.9
1896.982	5718.9
1901.243	5653.9
1905.499	5609.9
1909.752	5585.9
1914	5572.9
1918.245	5598.9
1922.485	5630.9
1926.722	5713.9
1930.954	5757.9
1935.183	5874.9
1939.408	5905.9
1943.628	5956.9
1947.845	5975.9
1952.058	5942.9
1956.267	5941.9
1960.472	5871.9
1964.673	5756.9
1968.87	5654.9
1973.063	5599.9
1977.252	5532.9
1981.438	5472.9
1985.619	5405.9
1989.797	5386.9
1993.971	5325.9
1998.14	5319.9
2002.306	5269.9
2006.469	5324.9
2010.627	5269.9
2014.781	5216.9
2018.932	5169.9
2023.078	5126.9
2027.221	5088.9
2031.36	4938.9
2035.495	4896.9
2039.627	4851.9
2043.754	4771.9
2047.878	4732.9
2051.998	4696.9
2056.114	4671.9
2060.226	4693.9
2064.334	4662.9
2068.439	4680.9
2072.54	4725.9
2076.637	4745.9
2080.73	4802.9
2084.82	4812.9
2088.906	4830.9
2092.988	4842.9
2097.066	4806.9
2101.14	4804.9
2105.211	4713.9
2109.278	4726.9
2113.342	4690.9
2117.401	4678.9
2121.457	4660.9
2125.509	4653.9
2129.558	4616.9
2133.602	4587.9
2137.643	4555.9
2141.681	4575.9
2145.714	4539.9
2149.744	4496.9
2153.77	4441.9
2157.793	4418.9
2161.812	4343.9
2165.827	4319.9
2169.838	4250.9
2173.846	4183.9
2177.851	4081.9
2181.851	4051.9
2185.848	4025.9
2189.841	3927.9
2193.831	3910.9
2197.817	3868.9
2201.799	3852.9
2205.778	3826.9
2209.753	3832.9
2213.725	3822.9
2217.693	3799.9
2221.657	3798.9
2225.618	3807.9
2229.575	3786.9
2233.529	3753.9
2237.479	3703.9
2241.425	3663.9
2245.368	3588.9
2249.307	3587.9
2253.243	3508.9
2257.175	3452.9
2261.104	3392.9
2265.029	3349.9
2268.95	3362.9
2272.868	3273.9
2276.783	3273.9
2280.694	3225.9
2284.601	3214.9
2288.505	3160.9
2292.405	3129.9
2296.302	3081.9
2300.195	3047.9
2304.085	3041.9
2307.971	3011.9
2311.854	2928.9
2315.734	2917.9
2319.609	2857.9
2323.482	2817.9
2327.351	2807.9
2331.216	2809.9
2335.078	2793.9
2338.937	2745.9
2342.792	2723.9
2346.643	2736.9
2350.492	2711.9
2354.336	2726.9
2358.178	2715.9
2362.015	2756.9
2365.85	2739.9
2369.681	2724.9
2373.508	2765.9
2377.333	2736.9
2381.153	2725.9
2384.971	2718.9
2388.785	2700.9
2392.595	2666.9
2396.402	2661.9
2400.206	2609.9
2404.007	2595.9
2407.804	2583.9
2411.597	2582.9
2415.388	2560.9
2419.174	2561.9
2422.958	2523.9
2426.738	2513.9
2430.515	2495.9
2434.289	2468.9
2438.059	2451.9
2441.825	2405.9
2445.589	2386.9
2449.349	2370.9
2453.106	2352.9
2456.859	2300.9
2460.61	2272.9
2464.356	2279.9
2468.1	2240.9
2471.84	2222.9
2475.577	2177.9
2479.311	2160.9
2483.041	2154.9
2486.768	2165.9
2490.492	2150.9
2494.213	2139.9
2497.93	2121.9
2501.644	2108.9
2505.355	2109.9
2509.062	2106.9
2512.766	2096.9
2516.467	2091.9
2520.165	2073.9
2523.859	2042.9
2527.551	2049.9
2531.239	2042.9
2534.923	2025.9
2538.605	2020.9
2542.283	2020.9
2545.958	1986.9
2549.63	1987.9
2553.299	1996.9
2556.964	1975.9
2560.626	1974.9
2564.285	1952.9
2567.941	1993.9
2571.594	1952.9
2575.243	1935.9
2578.89	1924.9
2582.533	1895.9
2586.173	1907.9
2589.809	1881.9
2593.443	1869.9
2597.073	1829.9
2600.701	1831.9
2604.325	1826.9
2607.946	1831.9
2611.564	1805.9
2615.178	1796.9
2618.79	1793.9
2622.398	1773.9
2626.004	1739.9
2629.606	1703.9
2633.205	1709.9
2636.801	1682.9
2640.394	1673.9
2643.983	1646.9
2647.57	1608.9
2651.153	1579.9
2654.734	1552.9
2658.311	1533.9
2661.885	1492.9
2665.456	1483.9
2669.025	1482.9
2672.589	1441.9
2676.151	1443.9
2679.71	1433.9
2683.266	1391.9
2686.819	1377.9
2690.368	1359.9
2693.915	1322.9
2697.458	1282.9
2700.999	1249.9
2704.536	1244.9
2708.071	1221.9
2711.602	1168.9
2715.13	1154.9
2718.656	1138.9
2722.178	1105.9
2725.697	1075.9
2729.214	1073.9
2732.727	1089.9
2736.237	1083.9
2739.744	1057.9
2743.249	1074.9
2746.75	1091.9
2750.248	1091.9
2753.743	1099.9
2757.236	1134.9
2760.725	1128.9
2764.211	1144.9
2767.695	1136.9
2771.175	1152.9
2774.652	1153.9
2778.127	1139.9
2781.598	1138.9
2785.067	1124.9
2788.532	1113.9
2791.995	1095.9
2795.455	1125.9
2798.911	1117.9
2802.365	1095.9
2805.816	1118.9
2809.264	1109.9
2812.709	1122.9
2816.151	1094.9
2819.59	1123.9
2823.026	1107.9
2826.46	1086.9
2829.89	1119.9
2833.318	1123.9
2836.742	1137.9
2840.164	1138.9
2843.583	1138.9
2846.999	1152.9
2850.412	1149.9
2853.822	1175.9
2857.229	1191.9
2860.634	1213.9
2864.035	1228.9
2867.434	1254.9
2870.83	1276.9
2874.223	1296.9
2877.613	1330.9
2881	1324.9
2884.385	1331.9
2887.766	1330.9
2891.145	1337.9
2894.521	1322.9
2897.894	1331.9
2901.264	1319.9
2904.631	1325.9
2907.996	1315.9
2911.358	1326.9
2914.717	1363.9
2918.073	1366.9
2921.426	1357.9
2924.777	1387.9
2928.124	1404.9
2931.469	1441.9
2934.811	1453.9
2938.15	1461.9
2941.487	1513.9
2944.821	1503.9
2948.152	1503.9
2951.48	1496.9
2954.805	1484.9
2958.128	1448.9
2961.447	1467.9
2964.765	1444.9
2968.079	1458.9
2971.39	1487.9
2974.699	1487.9
2978.005	1523.9
2981.308	1545.9
2984.609	1555.9
2987.907	1598.9
2991.202	1588.9
2994.494	1650.9
2997.784	1683.9
3001.07	1704.9
3004.355	1741.9
3007.636	1762.9
3010.915	1790.9
3014.191	1794.9
3017.464	1805.9
3020.734	1841.9
3024.002	1826.9
3027.267	1880.9
3030.53	1863.9
3033.789	1875.9
3037.046	1913.9
3040.301	1911.9
3043.552	1967.9
3046.801	1997.9
3050.048	2051.9
3053.291	2117.9
3056.532	2161.9
3059.771	2213.9
3063.006	2261.9
3066.239	2352.9
3069.469	2405.9
3072.697	2493.9
3075.922	2523.9
3079.144	2572.9
3082.364	2650.9
3085.581	2733.9
3088.795	2753.9
3092.007	2835.9
3095.216	2893.9
3098.423	2953.9
3101.627	3002.9
3104.828	3072.9
3108.026	3148.9
3111.222	3217.9
3114.416	3287.9
3117.607	3345.9
3120.795	3452.9
3123.98	3495.9
3127.163	3611.9
3130.344	3690.9
3133.521	3767.9
3136.696	3870.9
3139.869	3924.9
3143.039	3984.9
3146.206	4034.9
3149.371	4095.9
3152.533	4150.9
3155.693	4159.9
3158.85	4184.9
3162.005	4190.9
3165.157	4237.9
3168.306	4226.9
3171.453	4258.9
3174.597	4235.9
3177.739	4243.9
3180.878	4279.9
3184.014	4269.9
3187.149	4256.9
3190.28	4274.9
3193.409	4287.9
3196.536	4317.9
3199.659	4267.9
3202.781	4312.9
3205.9	4338.9
3209.016	4294.9
3212.13	4287.9
3215.241	4276.9
3218.35	4206.9
3221.456	4158.9
3224.56	4132.9
3227.661	4073.9
3230.76	4052.9
3233.856	4014.9
3236.95	3965.9
3240.041	3971.9
3243.13	3913.9
3246.216	3908.9
3249.3	3845.9
3252.382	3838.9
3255.46	3834.9
3258.537	3809.9
3261.611	3800.9
3264.682	3824.9
3267.751	3821.9
3270.818	3811.9
3273.882	3818.9
3276.943	3772.9
3280.002	3753.9
3283.059	3736.9
3286.113	3661.9
3289.165	3610.9
3292.214	3567.9
3295.261	3523.9
3298.306	3455.9
3301.348	3394.9
3304.387	3359.9
3307.425	3286.9
3310.459	3275.9
3313.492	3192.9
3316.521	3188.9
3319.549	3142.9
3322.574	3085.9
3325.597	3066.9
3328.617	3035.9
3331.635	3040.9
3334.65	3020.9
3337.663	2990.9
3340.674	2963.9
3343.682	2953.9
3346.688	2962.9
3349.691	2942.9
3352.692	2937.9
3355.691	2881.9
3358.687	2879.9
3361.681	2859.9
3364.673	2842.9
3367.662	2771.9
3370.649	2708.9
3373.633	2693.9
3376.615	2668.9
3379.595	2620.9
3382.572	2576.9
3385.547	2550.9
3388.52	2510.9
3391.49	2474.9
3394.458	2446.9
3397.424	2420.9
3400.387	2373.9
3403.348	2335.9
3406.307	2328.9
3409.263	2297.9
3412.217	2268.9
3415.168	2256.9
3418.118	2228.9
3421.065	2183.9
3424.009	2151.9
3426.951	2116.9
3429.891	2088.9
3432.829	2040.9
3435.764	2004.9
3438.697	1955.9
3441.628	1860.9
3444.557	1838.9
3447.483	1777.9
3450.407	1730.9
3453.328	1675.9
3456.247	1626.9
3459.164	1558.9
3462.079	1509.9
3464.991	1458.9
3467.902	1398.9
3470.809	1341.9
3473.715	1294.9
3476.618	1258.9
3479.519	1207.9
3482.418	1171.9
3485.315	1147.9
3488.209	1093.9
3491.101	1061.9
3493.99	1031.9
3496.878	980.9
3499.763	966.9
3502.646	913.9
3505.527	869.9
3508.405	848.9
3511.281	792.9
3514.155	737.9
3517.027	697.9
3519.897	677.9
3522.764	629.9
3525.629	575.9
3528.492	523.9
3531.352	485.9
3534.211	446.9
3537.067	402.9
3539.921	378.9
3542.773	339.9
3545.622	287.9
3548.469	278.9
3551.315	239.9
3554.157	214.9
3556.998	171.9
3559.837	162.9
3562.673	123.9
3565.507	95.9
3568.339	61.9
3571.169	61.9
3573.996	40.9
3576.822	29.9
3579.645	-11.1
3582.466	-30.1
3585.285	-52.1
3588.101	-68.1
3590.916	-88.1
3593.728	-109.1
3596.538	-114.1
3599.346	-158.1
3602.152	-176.1
3604.956	-174.1
3607.757	-199.1
3610.556	-217.1
3613.354	-234.1
3616.149	-250.1
3618.942	-259.1
3621.732	-266.1
3624.521	-286.1
3627.307	-289.1
3630.092	-304.1
3632.874	-318.1
3635.654	-326.1
3638.432	-328.1
3641.208	-344.1
3643.982	-357.1
3646.753	-364.1
3649.523	-376.1
3652.29	-390.1
3655.055	-381.1
3657.818	-404.1
3660.579	-416.1
3663.338	-430.1
3666.095	-437.1
3668.849	-447.1
3671.602	-455.1
3674.352	-463.1
3677.101	-468.1
3679.847	-479.1
3682.591	-480.1
3685.333	-493.1
3688.073	-487.1
3690.811	-500.1
3693.547	-506.1
3696.281	-512.1
3699.013	-512.1
3701.742	-515.1
3704.47	-529.1
3707.195	-535.1
3709.919	-536.1
3712.64	-540.1
3715.359	-548.1
3718.076	-547.1
3720.792	-546.1
3723.505	-551.1
3726.216	-565.1
3728.925	-559.1
3731.632	-567.1
3734.336	-563.1
3737.039	-569.1
3739.74	-574.1
3742.439	-573.1
3745.136	-577.1
3747.83	-582.1
3750.523	-580.1
3753.213	-589.1
3755.902	-583.1
3758.589	-583.1
3761.273	-588.1
3763.956	-591.1
3766.636	-597.1
3769.315	-599.1
3771.991	-596.1
3774.665	-602.1
3777.338	-604.1
3780.008	-607.1
3782.677	-611.1
3785.343	-601.1
3788.007	-608.1
3790.67	-607.1
3793.33	-611.1
3795.989	-611.1
3798.645	-611.1
3801.299	-608.1
3803.952	-620.1
3806.602	-619.1
3809.251	-623.1
3811.897	-620.1
3814.542	-620.1
3817.184	-620.1
3819.825	-616.1
3822.463	-616.1
3825.1	-624.1
3827.735	-619.1
3830.367	-620.1
3832.998	-628.1
3835.627	-628.1
3838.253	-635.1
3840.878	-634.1
3843.501	-629.1
3846.122	-628.1
3848.741	-627.1
3851.358	-626.1
3853.973	-629.1
3856.586	-633.1
3859.197	-632.1
3861.806	-637.1
3864.414	-629.1
3867.019	-628.1
3869.622	-630.1
3872.224	-629.1
3874.823	-614.1
3877.421	-602.1
3880.016	-575.1
3882.61	-553.1
3885.202	-558.1
3887.792	-569.1
3890.38	-604.1
3892.966	-621.1
3895.55	-636.1
3898.132	-648.1
3900.713	-648.1
3903.291	-644.1
3905.868	-645.1
3908.442	-645.1
3911.015	-650.1
3913.586	-643.1
3916.155	-640.1
3918.722	-649.1
3921.287	-643.1
3923.85	-650.1
3926.411	-642.1
3928.971	-650.1
3931.528	-644.1
3934.084	-648.1
3936.638	-651.1
3939.19	-648.1
3941.74	-645.1
3944.288	-651.1
3946.834	-646.1
3949.378	-648.1
3951.921	-654.1
3954.462	-656.1
3957	-646.1
3959.537	-648.1
3962.072	-649.1
3964.606	-654.1
3967.137	-648.1
3969.667	-649.1
3972.194	-640.1
3974.72	-651.1
3977.244	-636.1
3979.766	-636.1
3982.286	-640.1
3984.805	-638.1
3987.321	-633.1
3989.836	-635.1
3992.349	-633.1
3994.86	-632.1
3997.369	-639.1
3999.877	-634.1
4002.382	-634.1
4004.886	-635.1
4007.388	-634.1
4009.888	-632.1
4012.386	-637.1
4014.883	-638.1
4017.377	-637.1
4019.87	-632.1
4022.361	-634.1
4024.85	-636.1
4027.338	-643.1
4029.823	-641.1
4032.307	-635.1
4034.789	-633.1
4037.269	-630.1
4039.747	-636.1
4042.224	-634.1
4044.699	-637.1
4047.172	-634.1
4049.643	-627.1
4052.112	-643.1
4054.58	-642.1
4057.046	-633.1
4059.51	-641.1
4061.972	-642.1
4064.432	-639.1
4066.891	-639.1
4069.348	-641.1
4071.803	-637.1
4074.256	-636.1
4076.708	-640.1
4079.158	-644.1
4081.606	-642.1
4084.052	-645.1
4086.497	-638.1
4088.939	-634.1
4091.38	-634.1
4093.819	-627.1
4096.257	-670.1
4098.693	-671.1
4101.127	-672.1
4103.559	-667.1
4105.989	-395.1
4108.418	-355.1
4110.845	-354.1
4113.27	-308.1
4115.694	-277.1
4118.115	-230.1
4120.535	-631.1
4122.954	-636.1
4125.37	-632.1
4127.785	-639.1
4130.198	-638.1
4132.609	-638.1
4135.019	-668.1
4137.427	-674.1
4139.833	-671.1
4142.237	-668.1
