Data from 2018-2-14_conc=2_n=1_RamanShift_03.txt Node
Date: Wed Feb 14 11:00:56 IST 2018
User: aro
Spectrometer: QEPB0276
Trigger mode: 0
Integration Time (sec): 3.000000E1
Scans to average: 1
Electric dark correction enabled: true
Nonlinearity correction enabled: false
Boxcar width: 0
XAxis mode: Raman Shifts
Number of Pixels in Spectrum: 1044
>>>>>Begin Spectral Data<<<<<
160.701	-137.9
166.742	35.1
172.777	595.1
178.805	2202.1
184.826	6195.1
190.841	12928.1
196.849	20688.1
202.85	26369.1
208.845	28129.1
214.833	27856.1
220.815	27308.1
226.789	27143.1
232.758	27044.1
238.719	26769.1
244.674	26449.1
250.623	25957.1
256.565	25382.1
262.5	24896.1
268.429	24443.1
274.351	23933.1
280.267	23637.1
286.176	23410.1
292.079	23219.1
297.975	22894.1
303.865	22749.1
309.748	22526.1
315.625	22466.1
321.495	22298.1
327.359	22228.1
333.217	22126.1
339.068	22132.1
344.912	22131.1
350.751	22066.1
356.583	22057.1
362.408	22051.1
368.227	21994.1
374.04	22030.1
379.847	22101.1
385.647	22145.1
391.44	22218.1
397.228	22382.1
403.009	22461.1
408.784	22486.1
414.553	22550.1
420.315	22613.1
426.071	22614.1
431.821	22604.1
437.565	22604.1
443.302	22607.1
449.033	22574.1
454.758	22510.1
460.477	22464.1
466.189	22378.1
471.896	22264.1
477.596	22196.1
483.29	22258.1
488.978	22216.1
494.66	22141.1
500.335	21964.1
506.005	21752.1
511.668	21508.1
517.325	21268.1
522.977	21056.1
528.622	20901.1
534.261	20789.1
539.894	20686.1
545.521	20556.1
551.141	20537.1
556.756	20420.1
562.365	20371.1
567.968	20303.1
573.565	20273.1
579.155	20120.1
584.74	20050.1
590.319	19980.1
595.892	19903.1
601.459	19823.1
607.02	19716.1
612.575	19614.1
618.124	19565.1
623.667	19442.1
629.204	19273.1
634.735	19174.1
640.261	19114.1
645.781	19056.1
651.294	19001.1
656.802	18993.1
662.304	18944.1
667.8	18967.1
673.29	18872.1
678.775	18889.1
684.254	18768.1
689.726	18765.1
695.193	18686.1
700.655	18562.1
706.11	18441.1
711.56	18383.1
717.004	18281.1
722.442	18186.1
727.874	18197.1
733.301	18095.1
738.722	18108.1
744.137	18003.1
749.547	18019.1
754.951	18004.1
760.349	18013.1
765.741	18043.1
771.128	18027.1
776.509	18006.1
781.885	18051.1
787.254	17974.1
792.618	17888.1
797.977	17790.1
803.33	17684.1
808.677	17577.1
814.019	17446.1
819.355	17334.1
824.686	17309.1
830.011	17245.1
835.33	17282.1
840.644	17262.1
845.952	17236.1
851.255	17340.1
856.552	17356.1
861.844	17367.1
867.13	17292.1
872.41	17177.1
877.686	17110.1
882.955	16956.1
888.219	16794.1
893.478	16651.1
898.731	16420.1
903.979	16279.1
909.221	16190.1
914.458	16120.1
919.69	16025.1
924.916	16166.1
930.136	16186.1
935.351	16209.1
940.561	16212.1
945.766	16128.1
950.965	16069.1
956.158	15940.1
961.347	15776.1
966.529	15654.1
971.707	15410.1
976.879	15238.1
982.046	15094.1
987.208	15003.1
992.364	15086.1
997.515	15187.1
1002.66	15262.1
1007.801	15500.1
1012.936	15540.1
1018.066	15579.1
1023.19	15584.1
1028.309	15538.1
1033.423	15541.1
1038.532	15463.1
1043.636	15304.1
1048.734	15138.1
1053.827	14893.1
1058.915	14761.1
1063.998	14642.1
1069.075	14580.1
1074.147	14633.1
1079.214	14628.1
1084.276	14820.1
1089.333	14863.1
1094.385	14896.1
1099.431	14972.1
1104.472	14981.1
1109.509	14889.1
1114.54	14751.1
1119.565	14475.1
1124.586	14300.1
1129.602	14197.1
1134.613	14079.1
1139.618	13990.1
1144.619	13947.1
1149.614	14000.1
1154.604	14017.1
1159.589	14019.1
1164.57	14095.1
1169.545	14028.1
1174.515	14073.1
1179.48	14015.1
1184.44	13899.1
1189.395	13793.1
1194.345	13726.1
1199.29	13676.1
1204.23	13653.1
1209.165	13712.1
1214.095	13764.1
1219.021	13840.1
1223.941	13911.1
1228.856	13958.1
1233.766	14050.1
1238.672	14057.1
1243.572	14059.1
1248.467	13937.1
1253.358	13793.1
1258.244	13595.1
1263.124	13403.1
1268	13162.1
1272.871	13050.1
1277.737	12914.1
1282.599	12858.1
1287.455	12851.1
1292.306	12853.1
1297.153	12916.1
1301.995	12985.1
1306.832	13080.1
1311.664	13003.1
1316.491	13024.1
1321.314	12927.1
1326.132	12711.1
1330.945	12488.1
1335.753	12157.1
1340.556	11881.1
1345.354	11578.1
1350.148	11407.1
1354.937	11321.1
1359.722	11276.1
1364.501	11329.1
1369.276	11411.1
1374.046	11575.1
1378.811	11808.1
1383.572	11937.1
1388.327	12025.1
1393.079	11937.1
1397.825	11795.1
1402.567	11665.1
1407.304	11484.1
1412.036	11344.1
1416.764	11278.1
1421.487	11193.1
1426.205	11153.1
1430.919	11082.1
1435.628	11078.1
1440.333	11111.1
1445.032	11126.1
1449.727	11200.1
1454.418	11195.1
1459.104	11007.1
1463.785	10820.1
1468.462	10607.1
1473.134	10380.1
1477.802	10236.1
1482.465	10019.1
1487.123	9921.1
1491.777	9870.1
1496.426	9861.1
1501.071	10042.1
1505.711	10179.1
1510.347	10323.1
1514.978	10536.1
1519.604	10724.1
1524.226	10771.1
1528.844	10860.1
1533.457	10821.1
1538.065	10761.1
1542.669	10649.1
1547.269	10576.1
1551.864	10580.1
1556.454	10461.1
1561.041	10503.1
1565.622	10464.1
1570.199	10440.1
1574.772	10536.1
1579.34	10594.1
1583.904	10687.1
1588.464	10689.1
1593.019	10682.1
1597.569	10637.1
1602.115	10604.1
1606.657	10584.1
1611.195	10447.1
1615.728	10433.1
1620.256	10374.1
1624.78	10355.1
1629.3	10392.1
1633.816	10389.1
1638.327	10445.1
1642.834	10497.1
1647.336	10537.1
1651.834	10602.1
1656.328	10553.1
1660.817	10513.1
1665.302	10393.1
1669.783	10194.1
1674.259	9985.1
1678.732	9729.1
1683.199	9420.1
1687.663	9087.1
1692.122	8795.1
1696.577	8672.1
1701.028	8597.1
1705.474	8690.1
1709.917	8760.1
1714.355	8811.1
1718.788	8743.1
1723.218	8673.1
1727.643	8472.1
1732.064	8323.1
1736.481	8111.1
1740.893	7924.1
1745.301	7733.1
1749.705	7497.1
1754.105	7312.1
1758.501	7075.1
1762.893	6874.1
1767.28	6746.1
1771.663	6554.1
1776.042	6455.1
1780.417	6408.1
1784.787	6373.1
1789.154	6448.1
1793.516	6538.1
1797.874	6675.1
1802.228	6820.1
1806.578	6913.1
1810.924	6905.1
1815.266	6848.1
1819.603	6745.1
1823.937	6611.1
1828.266	6530.1
1832.591	6451.1
1836.913	6362.1
1841.23	6265.1
1845.543	6245.1
1849.852	6217.1
1854.156	6165.1
1858.457	6150.1
1862.754	6154.1
1867.047	6147.1
1871.335	6138.1
1875.62	6117.1
1879.9	6108.1
1884.177	6053.1
1888.449	6021.1
1892.718	5922.1
1896.982	5861.1
1901.243	5833.1
1905.499	5743.1
1909.752	5770.1
1914	5761.1
1918.245	5749.1
1922.485	5831.1
1926.722	5885.1
1930.954	5944.1
1935.183	6020.1
1939.408	6077.1
1943.628	6108.1
1947.845	6157.1
1952.058	6120.1
1956.267	6082.1
1960.472	6029.1
1964.673	5948.1
1968.87	5794.1
1973.063	5736.1
1977.252	5653.1
1981.438	5625.1
1985.619	5518.1
1989.797	5499.1
1993.971	5457.1
1998.14	5432.1
2002.306	5408.1
2006.469	5402.1
2010.627	5354.1
2014.781	5302.1
2018.932	5275.1
2023.078	5217.1
2027.221	5172.1
2031.36	5101.1
2035.495	5015.1
2039.627	4927.1
2043.754	4890.1
2047.878	4832.1
2051.998	4796.1
2056.114	4771.1
2060.226	4769.1
2064.334	4783.1
2068.439	4777.1
2072.54	4786.1
2076.637	4860.1
2080.73	4872.1
2084.82	4899.1
2088.906	4900.1
2092.988	4897.1
2097.066	4933.1
2101.14	4878.1
2105.211	4865.1
2109.278	4829.1
2113.342	4818.1
2117.401	4749.1
2121.457	4740.1
2125.509	4725.1
2129.558	4674.1
2133.602	4665.1
2137.643	4670.1
2141.681	4643.1
2145.714	4591.1
2149.744	4577.1
2153.77	4513.1
2157.793	4505.1
2161.812	4403.1
2165.827	4390.1
2169.838	4290.1
2173.846	4233.1
2177.851	4170.1
2181.851	4098.1
2185.848	4034.1
2189.841	4020.1
2193.831	3936.1
2197.817	3935.1
2201.799	3885.1
2205.778	3899.1
2209.753	3868.1
2213.725	3835.1
2217.693	3864.1
2221.657	3829.1
2225.618	3846.1
2229.575	3826.1
2233.529	3783.1
2237.479	3754.1
2241.425	3724.1
2245.368	3639.1
2249.307	3597.1
2253.243	3544.1
2257.175	3494.1
2261.104	3444.1
2265.029	3422.1
2268.95	3370.1
2272.868	3304.1
2276.783	3306.1
2280.694	3282.1
2284.601	3229.1
2288.505	3198.1
2292.405	3188.1
2296.302	3163.1
2300.195	3108.1
2304.085	3076.1
2307.971	3039.1
2311.854	3005.1
2315.734	2948.1
2319.609	2881.1
2323.482	2863.1
2327.351	2831.1
2331.216	2813.1
2335.078	2800.1
2338.937	2791.1
2342.792	2758.1
2346.643	2765.1
2350.492	2763.1
2354.336	2784.1
2358.178	2780.1
2362.015	2782.1
2365.85	2793.1
2369.681	2775.1
2373.508	2791.1
2377.333	2780.1
2381.153	2773.1
2384.971	2771.1
2388.785	2711.1
2392.595	2670.1
2396.402	2688.1
2400.206	2661.1
2404.007	2639.1
2407.804	2641.1
2411.597	2624.1
2415.388	2602.1
2419.174	2585.1
2422.958	2531.1
2426.738	2541.1
2430.515	2521.1
2434.289	2516.1
2438.059	2497.1
2441.825	2442.1
2445.589	2423.1
2449.349	2410.1
2453.106	2385.1
2456.859	2375.1
2460.61	2335.1
2464.356	2312.1
2468.1	2279.1
2471.84	2259.1
2475.577	2235.1
2479.311	2232.1
2483.041	2209.1
2486.768	2202.1
2490.492	2185.1
2494.213	2198.1
2497.93	2181.1
2501.644	2154.1
2505.355	2147.1
2509.062	2146.1
2512.766	2122.1
2516.467	2105.1
2520.165	2086.1
2523.859	2097.1
2527.551	2086.1
2531.239	2055.1
2534.923	2051.1
2538.605	2037.1
2542.283	2021.1
2545.958	2025.1
2549.63	2036.1
2553.299	2041.1
2556.964	2027.1
2560.626	1995.1
2564.285	2002.1
2567.941	1997.1
2571.594	1963.1
2575.243	1962.1
2578.89	1945.1
2582.533	1951.1
2586.173	1911.1
2589.809	1903.1
2593.443	1859.1
2597.073	1868.1
2600.701	1862.1
2604.325	1836.1
2607.946	1820.1
2611.564	1798.1
2615.178	1823.1
2618.79	1797.1
2622.398	1787.1
2626.004	1751.1
2629.606	1744.1
2633.205	1717.1
2636.801	1698.1
2640.394	1664.1
2643.983	1628.1
2647.57	1629.1
2651.153	1597.1
2654.734	1584.1
2658.311	1548.1
2661.885	1523.1
2665.456	1514.1
2669.025	1487.1
2672.589	1482.1
2676.151	1464.1
2679.71	1454.1
2683.266	1430.1
2686.819	1387.1
2690.368	1389.1
2693.915	1341.1
2697.458	1297.1
2700.999	1276.1
2704.536	1244.1
2708.071	1225.1
2711.602	1218.1
2715.13	1190.1
2718.656	1157.1
2722.178	1123.1
2725.697	1125.1
2729.214	1111.1
2732.727	1069.1
2736.237	1061.1
2739.744	1074.1
2743.249	1068.1
2746.75	1084.1
2750.248	1089.1
2753.743	1117.1
2757.236	1122.1
2760.725	1150.1
2764.211	1134.1
2767.695	1149.1
2771.175	1129.1
2774.652	1156.1
2778.127	1129.1
2781.598	1130.1
2785.067	1124.1
2788.532	1111.1
2791.995	1115.1
2795.455	1123.1
2798.911	1134.1
2802.365	1124.1
2805.816	1111.1
2809.264	1114.1
2812.709	1097.1
2816.151	1103.1
2819.59	1115.1
2823.026	1118.1
2826.46	1134.1
2829.89	1124.1
2833.318	1135.1
2836.742	1118.1
2840.164	1136.1
2843.583	1138.1
2846.999	1160.1
2850.412	1162.1
2853.822	1165.1
2857.229	1187.1
2860.634	1215.1
2864.035	1232.1
2867.434	1246.1
2870.83	1269.1
2874.223	1308.1
2877.613	1294.1
2881	1338.1
2884.385	1328.1
2887.766	1342.1
2891.145	1322.1
2894.521	1318.1
2897.894	1332.1
2901.264	1326.1
2904.631	1316.1
2907.996	1353.1
2911.358	1328.1
2914.717	1349.1
2918.073	1353.1
2921.426	1376.1
2924.777	1378.1
2928.124	1385.1
2931.469	1437.1
2934.811	1440.1
2938.15	1476.1
2941.487	1476.1
2944.821	1499.1
2948.152	1504.1
2951.48	1487.1
2954.805	1451.1
2958.128	1450.1
2961.447	1443.1
2964.765	1451.1
2968.079	1448.1
2971.39	1457.1
2974.699	1487.1
2978.005	1493.1
2981.308	1530.1
2984.609	1540.1
2987.907	1566.1
2991.202	1603.1
2994.494	1642.1
2997.784	1669.1
3001.07	1705.1
3004.355	1736.1
3007.636	1749.1
3010.915	1776.1
3014.191	1770.1
3017.464	1833.1
3020.734	1808.1
3024.002	1824.1
3027.267	1837.1
3030.53	1837.1
3033.789	1872.1
3037.046	1893.1
3040.301	1906.1
3043.552	1943.1
3046.801	1990.1
3050.048	2045.1
3053.291	2080.1
3056.532	2125.1
3059.771	2170.1
3063.006	2243.1
3066.239	2335.1
3069.469	2377.1
3072.697	2462.1
3075.922	2510.1
3079.144	2586.1
3082.364	2630.1
3085.581	2674.1
3088.795	2723.1
3092.007	2796.1
3095.216	2863.1
3098.423	2915.1
3101.627	2992.1
3104.828	3050.1
3108.026	3130.1
3111.222	3169.1
3114.416	3254.1
3117.607	3314.1
3120.795	3410.1
3123.98	3483.1
3127.163	3579.1
3130.344	3662.1
3133.521	3741.1
3136.696	3848.1
3139.869	3885.1
3143.039	3957.1
3146.206	4017.1
3149.371	4070.1
3152.533	4082.1
3155.693	4113.1
3158.85	4189.1
3162.005	4191.1
3165.157	4188.1
3168.306	4197.1
3171.453	4195.1
3174.597	4208.1
3177.739	4228.1
3180.878	4229.1
3184.014	4222.1
3187.149	4243.1
3190.28	4266.1
3193.409	4254.1
3196.536	4258.1
3199.659	4268.1
3202.781	4296.1
3205.9	4259.1
3209.016	4281.1
3212.13	4244.1
3215.241	4277.1
3218.35	4206.1
3221.456	4136.1
3224.56	4125.1
3227.661	4059.1
3230.76	4014.1
3233.856	3983.1
3236.95	3954.1
3240.041	3912.1
3243.13	3878.1
3246.216	3880.1
3249.3	3850.1
3252.382	3849.1
3255.46	3821.1
3258.537	3822.1
3261.611	3805.1
3264.682	3817.1
3267.751	3807.1
3270.818	3783.1
3273.882	3792.1
3276.943	3768.1
3280.002	3757.1
3283.059	3723.1
3286.113	3656.1
3289.165	3635.1
3292.214	3585.1
3295.261	3527.1
3298.306	3461.1
3301.348	3371.1
3304.387	3321.1
3307.425	3285.1
3310.459	3246.1
3313.492	3199.1
3316.521	3113.1
3319.549	3088.1
3322.574	3081.1
3325.597	3054.1
3328.617	3023.1
3331.635	3000.1
3334.65	2983.1
3337.663	2978.1
3340.674	2966.1
3343.682	2942.1
3346.688	2939.1
3349.691	2925.1
3352.692	2900.1
3355.691	2885.1
3358.687	2847.1
3361.681	2796.1
3364.673	2768.1
3367.662	2748.1
3370.649	2696.1
3373.633	2668.1
3376.615	2608.1
3379.595	2591.1
3382.572	2546.1
3385.547	2518.1
3388.52	2477.1
3391.49	2461.1
3394.458	2402.1
3397.424	2383.1
3400.387	2352.1
3403.348	2303.1
3406.307	2288.1
3409.263	2258.1
3412.217	2240.1
3415.168	2220.1
3418.118	2182.1
3421.065	2150.1
3424.009	2137.1
3426.951	2110.1
3429.891	2070.1
3432.829	2019.1
3435.764	1975.1
3438.697	1928.1
3441.628	1872.1
3444.557	1812.1
3447.483	1763.1
3450.407	1717.1
3453.328	1652.1
3456.247	1606.1
3459.164	1554.1
3462.079	1509.1
3464.991	1457.1
3467.902	1386.1
3470.809	1340.1
3473.715	1273.1
3476.618	1249.1
3479.519	1203.1
3482.418	1177.1
3485.315	1129.1
3488.209	1105.1
3491.101	1064.1
3493.99	1019.1
3496.878	972.1
3499.763	942.1
3502.646	912.1
3505.527	869.1
3508.405	840.1
3511.281	783.1
3514.155	751.1
3517.027	683.1
3519.897	660.1
3522.764	602.1
3525.629	572.1
3528.492	529.1
3531.352	483.1
3534.211	453.1
3537.067	421.1
3539.921	378.1
3542.773	343.1
3545.622	295.1
3548.469	266.1
3551.315	237.1
3554.157	211.1
3556.998	180.1
3559.837	159.1
3562.673	127.1
3565.507	92.1
3568.339	71.1
3571.169	52.1
3573.996	35.1
3576.822	23.1
3579.645	1.1
3582.466	-21.9
3585.285	-44.9
3588.101	-67.9
3590.916	-92.9
3593.728	-111.9
3596.538	-130.9
3599.346	-147.9
3602.152	-164.9
3604.956	-179.9
3607.757	-197.9
3610.556	-224.9
3613.354	-230.9
3616.149	-254.9
3618.942	-264.9
3621.732	-278.9
3624.521	-285.9
3627.307	-289.9
3630.092	-299.9
3632.874	-308.9
3635.654	-326.9
3638.432	-339.9
3641.208	-344.9
3643.982	-357.9
3646.753	-364.9
3649.523	-368.9
3652.29	-381.9
3655.055	-388.9
3657.818	-407.9
3660.579	-415.9
3663.338	-422.9
3666.095	-431.9
3668.849	-444.9
3671.602	-453.9
3674.352	-457.9
3677.101	-468.9
3679.847	-475.9
3682.591	-484.9
3685.333	-491.9
3688.073	-493.9
3690.811	-505.9
3693.547	-506.9
3696.281	-510.9
3699.013	-515.9
3701.742	-524.9
3704.47	-528.9
3707.195	-534.9
3709.919	-527.9
3712.64	-540.9
3715.359	-538.9
3718.076	-551.9
3720.792	-547.9
3723.505	-547.9
3726.216	-558.9
3728.925	-558.9
3731.632	-569.9
3734.336	-570.9
3737.039	-572.9
3739.74	-571.9
3742.439	-569.9
3745.136	-570.9
3747.83	-578.9
3750.523	-578.9
3753.213	-564.9
3755.902	-584.9
3758.589	-589.9
3761.273	-587.9
3763.956	-594.9
3766.636	-595.9
3769.315	-597.9
3771.991	-593.9
3774.665	-600.9
3777.338	-604.9
3780.008	-605.9
3782.677	-604.9
3785.343	-597.9
3788.007	-605.9
3790.67	-607.9
3793.33	-605.9
3795.989	-611.9
3798.645	-607.9
3801.299	-608.9
3803.952	-620.9
3806.602	-625.9
3809.251	-619.9
3811.897	-618.9
3814.542	-615.9
3817.184	-614.9
3819.825	-615.9
3822.463	-610.9
3825.1	-617.9
3827.735	-619.9
3830.367	-616.9
3832.998	-620.9
3835.627	-625.9
3838.253	-626.9
3840.878	-633.9
3843.501	-630.9
3846.122	-625.9
3848.741	-625.9
3851.358	-623.9
3853.973	-629.9
3856.586	-628.9
3859.197	-632.9
3861.806	-635.9
3864.414	-624.9
3867.019	-626.9
3869.622	-628.9
3872.224	-622.9
3874.823	-610.9
3877.421	-598.9
3880.016	-570.9
3882.61	-552.9
3885.202	-547.9
3887.792	-560.9
3890.38	-599.9
3892.966	-620.9
3895.55	-629.9
3898.132	-647.9
3900.713	-651.9
3903.291	-642.9
3905.868	-643.9
3908.442	-638.9
3911.015	-644.9
3913.586	-636.9
3916.155	-638.9
3918.722	-648.9
3921.287	-642.9
3923.85	-647.9
3926.411	-646.9
3928.971	-659.9
3931.528	-651.9
3934.084	-650.9
3936.638	-647.9
3939.19	-649.9
3941.74	-649.9
3944.288	-650.9
3946.834	-645.9
3949.378	-648.9
3951.921	-644.9
3954.462	-651.9
3957	-644.9
3959.537	-646.9
3962.072	-651.9
3964.606	-644.9
3967.137	-647.9
3969.667	-650.9
3972.194	-640.9
3974.72	-645.9
3977.244	-633.9
3979.766	-637.9
3982.286	-641.9
3984.805	-635.9
3987.321	-632.9
3989.836	-639.9
3992.349	-626.9
3994.86	-627.9
3997.369	-636.9
3999.877	-630.9
4002.382	-627.9
4004.886	-634.9
4007.388	-633.9
4009.888	-634.9
4012.386	-631.9
4014.883	-633.9
4017.377	-634.9
4019.87	-629.9
4022.361	-630.9
4024.85	-629.9
4027.338	-637.9
4029.823	-636.9
4032.307	-635.9
4034.789	-633.9
4037.269	-627.9
4039.747	-634.9
4042.224	-637.9
4044.699	-640.9
4047.172	-637.9
4049.643	-635.9
4052.112	-643.9
4054.58	-640.9
4057.046	-640.9
4059.51	-642.9
4061.972	-643.9
4064.432	-641.9
4066.891	-636.9
4069.348	-636.9
4071.803	-630.9
4074.256	-637.9
4076.708	-632.9
4079.158	-638.9
4081.606	-641.9
4084.052	-644.9
4086.497	-637.9
4088.939	-635.9
4091.38	-637.9
4093.819	-629.9
4096.257	-674.9
4098.693	-673.9
4101.127	-679.9
4103.559	-674.9
4105.989	-379.9
4108.418	-365.9
4110.845	-341.9
4113.27	-302.9
4115.694	-271.9
4118.115	-227.9
4120.535	-637.9
4122.954	-639.9
4125.37	-631.9
4127.785	-638.9
4130.198	-639.9
4132.609	-642.9
4135.019	-676.9
4137.427	-671.9
4139.833	-677.9
4142.237	-667.9
