Data from 2018-2-14_conc=3_n=3_RamanShift_02.txt Node
Date: Wed Feb 14 11:48:56 IST 2018
User: aro
Spectrometer: QEPB0276
Trigger mode: 0
Integration Time (sec): 3.000000E1
Scans to average: 1
Electric dark correction enabled: true
Nonlinearity correction enabled: false
Boxcar width: 0
XAxis mode: Raman Shifts
Number of Pixels in Spectrum: 1044
>>>>>Begin Spectral Data<<<<<
160.701	-144.8
166.742	52.2
172.777	618.2
178.805	2368.2
184.826	6555.2
190.841	13760.2
196.849	22303.2
202.85	28263.2
208.845	30303.2
214.833	30004.2
220.815	29481.2
226.789	29315.2
232.758	29140.2
238.719	28945.2
244.674	28477.2
250.623	27931.2
256.565	27466.2
262.5	26861.2
268.429	26343.2
274.351	25964.2
280.267	25637.2
286.176	25356.2
292.079	25116.2
297.975	24837.2
303.865	24693.2
309.748	24498.2
315.625	24302.2
321.495	24156.2
327.359	24108.2
333.217	24018.2
339.068	24019.2
344.912	24000.2
350.751	23994.2
356.583	23903.2
362.408	23823.2
368.227	23922.2
374.04	23972.2
379.847	24044.2
385.647	24129.2
391.44	24159.2
397.228	24279.2
403.009	24408.2
408.784	24409.2
414.553	24534.2
420.315	24635.2
426.071	24610.2
431.821	24596.2
437.565	24606.2
443.302	24509.2
449.033	24468.2
454.758	24415.2
460.477	24493.2
466.189	24443.2
471.896	24293.2
477.596	24232.2
483.29	24186.2
488.978	24174.2
494.66	24052.2
500.335	23926.2
506.005	23673.2
511.668	23347.2
517.325	23059.2
522.977	22937.2
528.622	22730.2
534.261	22623.2
539.894	22531.2
545.521	22399.2
551.141	22373.2
556.756	22326.2
562.365	22213.2
567.968	22120.2
573.565	22025.2
579.155	21959.2
584.74	21894.2
590.319	21787.2
595.892	21669.2
601.459	21650.2
607.02	21515.2
612.575	21387.2
618.124	21257.2
623.667	21110.2
629.204	21119.2
634.735	20932.2
640.261	20810.2
645.781	20769.2
651.294	20752.2
656.802	20712.2
662.304	20687.2
667.8	20588.2
673.29	20581.2
678.775	20598.2
684.254	20489.2
689.726	20359.2
695.193	20349.2
700.655	20231.2
706.11	20133.2
711.56	20066.2
717.004	19933.2
722.442	19839.2
727.874	19765.2
733.301	19742.2
738.722	19662.2
744.137	19610.2
749.547	19626.2
754.951	19635.2
760.349	19627.2
765.741	19639.2
771.128	19605.2
776.509	19650.2
781.885	19595.2
787.254	19603.2
792.618	19453.2
797.977	19350.2
803.33	19222.2
808.677	19151.2
814.019	19029.2
819.355	18877.2
824.686	18835.2
830.011	18838.2
835.33	18806.2
840.644	18771.2
845.952	18753.2
851.255	18833.2
856.552	18872.2
861.844	18841.2
867.13	18778.2
872.41	18738.2
877.686	18595.2
882.955	18484.2
888.219	18387.2
893.478	18164.2
898.731	17940.2
903.979	17715.2
909.221	17552.2
914.458	17526.2
919.69	17505.2
924.916	17579.2
930.136	17617.2
935.351	17649.2
940.561	17591.2
945.766	17586.2
950.965	17495.2
956.158	17343.2
961.347	17211.2
966.529	16998.2
971.707	16745.2
976.879	16562.2
982.046	16475.2
987.208	16374.2
992.364	16365.2
997.515	16459.2
1002.66	16636.2
1007.801	16794.2
1012.936	16919.2
1018.066	16909.2
1023.19	16888.2
1028.309	16980.2
1033.423	16853.2
1038.532	16744.2
1043.636	16660.2
1048.734	16423.2
1053.827	16235.2
1058.915	16039.2
1063.998	15961.2
1069.075	15914.2
1074.147	15850.2
1079.214	15939.2
1084.276	16040.2
1089.333	16158.2
1094.385	16173.2
1099.431	16265.2
1104.472	16226.2
1109.509	16194.2
1114.54	15971.2
1119.565	15790.2
1124.586	15513.2
1129.602	15393.2
1134.613	15319.2
1139.618	15216.2
1144.619	15209.2
1149.614	15190.2
1154.604	15193.2
1159.589	15240.2
1164.57	15258.2
1169.545	15266.2
1174.515	15258.2
1179.48	15178.2
1184.44	15108.2
1189.395	15024.2
1194.345	14925.2
1199.29	14816.2
1204.23	14776.2
1209.165	14856.2
1214.095	14954.2
1219.021	15009.2
1223.941	15077.2
1228.856	15135.2
1233.766	15221.2
1238.672	15184.2
1243.572	15189.2
1248.467	15049.2
1253.358	14946.2
1258.244	14701.2
1263.124	14504.2
1268	14290.2
1272.871	14105.2
1277.737	14007.2
1282.599	13916.2
1287.455	13965.2
1292.306	14009.2
1297.153	14049.2
1301.995	14075.2
1306.832	14154.2
1311.664	14155.2
1316.491	14110.2
1321.314	13978.2
1326.132	13808.2
1330.945	13513.2
1335.753	13225.2
1340.556	12839.2
1345.354	12555.2
1350.148	12328.2
1354.937	12234.2
1359.722	12172.2
1364.501	12236.2
1369.276	12374.2
1374.046	12548.2
1378.811	12715.2
1383.572	12911.2
1388.327	12993.2
1393.079	12910.2
1397.825	12761.2
1402.567	12570.2
1407.304	12409.2
1412.036	12260.2
1416.764	12240.2
1421.487	12107.2
1426.205	12011.2
1430.919	11962.2
1435.628	12006.2
1440.333	12048.2
1445.032	12004.2
1449.727	12070.2
1454.418	12045.2
1459.104	11924.2
1463.785	11699.2
1468.462	11427.2
1473.134	11210.2
1477.802	10982.2
1482.465	10800.2
1487.123	10657.2
1491.777	10601.2
1496.426	10620.2
1501.071	10787.2
1505.711	10934.2
1510.347	11114.2
1514.978	11339.2
1519.604	11515.2
1524.226	11570.2
1528.844	11621.2
1533.457	11619.2
1538.065	11543.2
1542.669	11461.2
1547.269	11362.2
1551.864	11330.2
1556.454	11287.2
1561.041	11235.2
1565.622	11244.2
1570.199	11252.2
1574.772	11314.2
1579.34	11369.2
1583.904	11446.2
1588.464	11503.2
1593.019	11502.2
1597.569	11419.2
1602.115	11455.2
1606.657	11298.2
1611.195	11215.2
1615.728	11167.2
1620.256	11150.2
1624.78	11078.2
1629.3	11130.2
1633.816	11163.2
1638.327	11223.2
1642.834	11211.2
1647.336	11326.2
1651.834	11323.2
1656.328	11263.2
1660.817	11224.2
1665.302	11118.2
1669.783	10947.2
1674.259	10681.2
1678.732	10402.2
1683.199	10048.2
1687.663	9711.2
1692.122	9409.2
1696.577	9211.2
1701.028	9138.2
1705.474	9194.2
1709.917	9373.2
1714.355	9400.2
1718.788	9344.2
1723.218	9223.2
1727.643	9038.2
1732.064	8864.2
1736.481	8673.2
1740.893	8492.2
1745.301	8242.2
1749.705	8054.2
1754.105	7780.2
1758.501	7572.2
1762.893	7338.2
1767.28	7190.2
1771.663	7029.2
1776.042	6907.2
1780.417	6798.2
1784.787	6787.2
1789.154	6810.2
1793.516	6972.2
1797.874	7079.2
1802.228	7210.2
1806.578	7291.2
1810.924	7309.2
1815.266	7256.2
1819.603	7129.2
1823.937	7025.2
1828.266	6924.2
1832.591	6815.2
1836.913	6739.2
1841.23	6724.2
1845.543	6625.2
1849.852	6568.2
1854.156	6553.2
1858.457	6516.2
1862.754	6560.2
1867.047	6496.2
1871.335	6499.2
1875.62	6480.2
1879.9	6469.2
1884.177	6430.2
1888.449	6386.2
1892.718	6298.2
1896.982	6227.2
1901.243	6163.2
1905.499	6097.2
1909.752	6101.2
1914	6082.2
1918.245	6111.2
1922.485	6154.2
1926.722	6194.2
1930.954	6223.2
1935.183	6340.2
1939.408	6425.2
1943.628	6426.2
1947.845	6484.2
1952.058	6448.2
1956.267	6385.2
1960.472	6315.2
1964.673	6225.2
1968.87	6116.2
1973.063	6053.2
1977.252	5962.2
1981.438	5871.2
1985.619	5845.2
1989.797	5796.2
1993.971	5784.2
1998.14	5742.2
2002.306	5700.2
2006.469	5692.2
2010.627	5638.2
2014.781	5607.2
2018.932	5561.2
2023.078	5520.2
2027.221	5445.2
2031.36	5378.2
2035.495	5291.2
2039.627	5172.2
2043.754	5100.2
2047.878	5062.2
2051.998	5023.2
2056.114	5037.2
2060.226	5020.2
2064.334	4979.2
2068.439	5028.2
2072.54	5059.2
2076.637	5077.2
2080.73	5112.2
2084.82	5152.2
2088.906	5137.2
2092.988	5178.2
2097.066	5124.2
2101.14	5093.2
2105.211	5109.2
2109.278	5044.2
2113.342	5017.2
2117.401	5009.2
2121.457	4968.2
2125.509	4928.2
2129.558	4910.2
2133.602	4891.2
2137.643	4865.2
2141.681	4852.2
2145.714	4819.2
2149.744	4783.2
2153.77	4752.2
2157.793	4680.2
2161.812	4619.2
2165.827	4569.2
2169.838	4510.2
2173.846	4408.2
2177.851	4369.2
2181.851	4298.2
2185.848	4265.2
2189.841	4172.2
2193.831	4146.2
2197.817	4118.2
2201.799	4099.2
2205.778	4054.2
2209.753	4078.2
2213.725	4079.2
2217.693	4012.2
2221.657	4032.2
2225.618	3994.2
2229.575	4022.2
2233.529	3963.2
2237.479	3907.2
2241.425	3885.2
2245.368	3790.2
2249.307	3767.2
2253.243	3714.2
2257.175	3653.2
2261.104	3593.2
2265.029	3560.2
2268.95	3509.2
2272.868	3456.2
2276.783	3450.2
2280.694	3408.2
2284.601	3397.2
2288.505	3360.2
2292.405	3313.2
2296.302	3289.2
2300.195	3213.2
2304.085	3241.2
2307.971	3149.2
2311.854	3125.2
2315.734	3073.2
2319.609	3022.2
2323.482	3015.2
2327.351	2937.2
2331.216	2943.2
2335.078	2914.2
2338.937	2902.2
2342.792	2899.2
2346.643	2893.2
2350.492	2851.2
2354.336	2849.2
2358.178	2867.2
2362.015	2887.2
2365.85	2899.2
2369.681	2883.2
2373.508	2896.2
2377.333	2883.2
2381.153	2861.2
2384.971	2840.2
2388.785	2866.2
2392.595	2819.2
2396.402	2783.2
2400.206	2769.2
2404.007	2729.2
2407.804	2719.2
2411.597	2709.2
2415.388	2682.2
2419.174	2640.2
2422.958	2659.2
2426.738	2619.2
2430.515	2614.2
2434.289	2582.2
2438.059	2574.2
2441.825	2556.2
2445.589	2506.2
2449.349	2484.2
2453.106	2483.2
2456.859	2437.2
2460.61	2403.2
2464.356	2366.2
2468.1	2336.2
2471.84	2326.2
2475.577	2303.2
2479.311	2289.2
2483.041	2256.2
2486.768	2246.2
2490.492	2244.2
2494.213	2240.2
2497.93	2235.2
2501.644	2222.2
2505.355	2212.2
2509.062	2200.2
2512.766	2194.2
2516.467	2173.2
2520.165	2154.2
2523.859	2132.2
2527.551	2118.2
2531.239	2124.2
2534.923	2117.2
2538.605	2081.2
2542.283	2093.2
2545.958	2085.2
2549.63	2103.2
2553.299	2070.2
2556.964	2052.2
2560.626	2050.2
2564.285	2046.2
2567.941	2051.2
2571.594	2017.2
2575.243	2009.2
2578.89	2005.2
2582.533	1977.2
2586.173	1956.2
2589.809	1964.2
2593.443	1928.2
2597.073	1915.2
2600.701	1898.2
2604.325	1881.2
2607.946	1873.2
2611.564	1856.2
2615.178	1843.2
2618.79	1833.2
2622.398	1821.2
2626.004	1811.2
2629.606	1766.2
2633.205	1753.2
2636.801	1725.2
2640.394	1733.2
2643.983	1675.2
2647.57	1662.2
2651.153	1615.2
2654.734	1604.2
2658.311	1585.2
2661.885	1540.2
2665.456	1521.2
2669.025	1499.2
2672.589	1501.2
2676.151	1472.2
2679.71	1474.2
2683.266	1443.2
2686.819	1413.2
2690.368	1398.2
2693.915	1371.2
2697.458	1320.2
2700.999	1282.2
2704.536	1261.2
2708.071	1250.2
2711.602	1220.2
2715.13	1170.2
2718.656	1158.2
2722.178	1132.2
2725.697	1112.2
2729.214	1114.2
2732.727	1099.2
2736.237	1097.2
2739.744	1087.2
2743.249	1095.2
2746.75	1087.2
2750.248	1087.2
2753.743	1115.2
2757.236	1133.2
2760.725	1130.2
2764.211	1142.2
2767.695	1153.2
2771.175	1137.2
2774.652	1138.2
2778.127	1133.2
2781.598	1125.2
2785.067	1117.2
2788.532	1118.2
2791.995	1108.2
2795.455	1108.2
2798.911	1115.2
2802.365	1114.2
2805.816	1114.2
2809.264	1112.2
2812.709	1116.2
2816.151	1098.2
2819.59	1126.2
2823.026	1113.2
2826.46	1115.2
2829.89	1118.2
2833.318	1121.2
2836.742	1139.2
2840.164	1144.2
2843.583	1147.2
2846.999	1176.2
2850.412	1174.2
2853.822	1185.2
2857.229	1185.2
2860.634	1209.2
2864.035	1239.2
2867.434	1258.2
2870.83	1277.2
2874.223	1297.2
2877.613	1331.2
2881	1343.2
2884.385	1354.2
2887.766	1359.2
2891.145	1358.2
2894.521	1325.2
2897.894	1360.2
2901.264	1355.2
2904.631	1359.2
2907.996	1347.2
2911.358	1361.2
2914.717	1365.2
2918.073	1383.2
2921.426	1388.2
2924.777	1415.2
2928.124	1447.2
2931.469	1461.2
2934.811	1480.2
2938.15	1514.2
2941.487	1519.2
2944.821	1506.2
2948.152	1502.2
2951.48	1519.2
2954.805	1520.2
2958.128	1471.2
2961.447	1484.2
2964.765	1489.2
2968.079	1490.2
2971.39	1487.2
2974.699	1504.2
2978.005	1531.2
2981.308	1543.2
2984.609	1576.2
2987.907	1624.2
2991.202	1645.2
2994.494	1659.2
2997.784	1709.2
3001.07	1737.2
3004.355	1756.2
3007.636	1776.2
3010.915	1810.2
3014.191	1829.2
3017.464	1846.2
3020.734	1864.2
3024.002	1874.2
3027.267	1863.2
3030.53	1898.2
3033.789	1933.2
3037.046	1951.2
3040.301	1985.2
3043.552	2030.2
3046.801	2061.2
3050.048	2106.2
3053.291	2173.2
3056.532	2220.2
3059.771	2278.2
3063.006	2340.2
3066.239	2429.2
3069.469	2505.2
3072.697	2571.2
3075.922	2654.2
3079.144	2692.2
3082.364	2732.2
3085.581	2809.2
3088.795	2882.2
3092.007	2952.2
3095.216	2985.2
3098.423	3057.2
3101.627	3147.2
3104.828	3213.2
3108.026	3244.2
3111.222	3308.2
3114.416	3441.2
3117.607	3488.2
3120.795	3580.2
3123.98	3640.2
3127.163	3761.2
3130.344	3832.2
3133.521	3910.2
3136.696	3997.2
3139.869	4090.2
3143.039	4147.2
3146.206	4231.2
3149.371	4275.2
3152.533	4326.2
3155.693	4354.2
3158.85	4371.2
3162.005	4410.2
3165.157	4385.2
3168.306	4415.2
3171.453	4436.2
3174.597	4455.2
3177.739	4439.2
3180.878	4450.2
3184.014	4474.2
3187.149	4447.2
3190.28	4460.2
3193.409	4477.2
3196.536	4461.2
3199.659	4481.2
3202.781	4516.2
3205.9	4472.2
3209.016	4497.2
3212.13	4445.2
3215.241	4377.2
3218.35	4395.2
3221.456	4345.2
3224.56	4292.2
3227.661	4219.2
3230.76	4213.2
3233.856	4142.2
3236.95	4108.2
3240.041	4077.2
3243.13	4040.2
3246.216	4036.2
3249.3	4001.2
3252.382	4000.2
3255.46	3961.2
3258.537	3976.2
3261.611	3958.2
3264.682	3955.2
3267.751	3935.2
3270.818	3953.2
3273.882	3951.2
3276.943	3903.2
3280.002	3866.2
3283.059	3837.2
3286.113	3819.2
3289.165	3746.2
3292.214	3684.2
3295.261	3655.2
3298.306	3577.2
3301.348	3522.2
3304.387	3471.2
3307.425	3394.2
3310.459	3344.2
3313.492	3310.2
3316.521	3272.2
3319.549	3230.2
3322.574	3193.2
3325.597	3141.2
3328.617	3143.2
3331.635	3123.2
3334.65	3103.2
3337.663	3081.2
3340.674	3068.2
3343.682	3057.2
3346.688	3049.2
3349.691	3046.2
3352.692	3002.2
3355.691	2984.2
3358.687	2947.2
3361.681	2935.2
3364.673	2885.2
3367.662	2868.2
3370.649	2821.2
3373.633	2759.2
3376.615	2732.2
3379.595	2690.2
3382.572	2639.2
3385.547	2608.2
3388.52	2567.2
3391.49	2536.2
3394.458	2492.2
3397.424	2445.2
3400.387	2439.2
3403.348	2406.2
3406.307	2360.2
3409.263	2360.2
3412.217	2317.2
3415.168	2295.2
3418.118	2276.2
3421.065	2229.2
3424.009	2191.2
3426.951	2158.2
3429.891	2134.2
3432.829	2094.2
3435.764	2036.2
3438.697	1987.2
3441.628	1951.2
3444.557	1887.2
3447.483	1808.2
3450.407	1737.2
3453.328	1697.2
3456.247	1642.2
3459.164	1579.2
3462.079	1534.2
3464.991	1472.2
3467.902	1411.2
3470.809	1360.2
3473.715	1307.2
3476.618	1282.2
3479.519	1234.2
3482.418	1201.2
3485.315	1155.2
3488.209	1108.2
3491.101	1059.2
3493.99	1026.2
3496.878	967.2
3499.763	964.2
3502.646	903.2
3505.527	875.2
3508.405	821.2
3511.281	767.2
3514.155	744.2
3517.027	700.2
3519.897	644.2
3522.764	620.2
3525.629	558.2
3528.492	521.2
3531.352	468.2
3534.211	434.2
3537.067	393.2
3539.921	374.2
3542.773	313.2
3545.622	282.2
3548.469	240.2
3551.315	214.2
3554.157	204.2
3556.998	149.2
3559.837	126.2
3562.673	104.2
3565.507	77.2
3568.339	49.2
3571.169	31.2
3573.996	11.2
3576.822	-6.8
3579.645	-40.8
3582.466	-48.8
3585.285	-79.8
3588.101	-108.8
3590.916	-121.8
3593.728	-156.8
3596.538	-166.8
3599.346	-185.8
3602.152	-205.8
3604.956	-219.8
3607.757	-227.8
3610.556	-256.8
3613.354	-260.8
3616.149	-286.8
3618.942	-292.8
3621.732	-307.8
3624.521	-329.8
3627.307	-329.8
3630.092	-335.8
3632.874	-355.8
3635.654	-372.8
3638.432	-364.8
3641.208	-384.8
3643.982	-398.8
3646.753	-403.8
3649.523	-415.8
3652.29	-423.8
3655.055	-421.8
3657.818	-441.8
3660.579	-457.8
3663.338	-471.8
3666.095	-472.8
3668.849	-485.8
3671.602	-496.8
3674.352	-503.8
3677.101	-514.8
3679.847	-520.8
3682.591	-521.8
3685.333	-541.8
3688.073	-540.8
3690.811	-544.8
3693.547	-552.8
3696.281	-562.8
3699.013	-568.8
3701.742	-566.8
3704.47	-570.8
3707.195	-578.8
3709.919	-582.8
3712.64	-576.8
3715.359	-594.8
3718.076	-591.8
3720.792	-597.8
3723.505	-595.8
3726.216	-615.8
3728.925	-602.8
3731.632	-612.8
3734.336	-610.8
3737.039	-621.8
3739.74	-619.8
3742.439	-622.8
3745.136	-627.8
3747.83	-632.8
3750.523	-632.8
3753.213	-618.8
3755.902	-636.8
3758.589	-637.8
3761.273	-639.8
3763.956	-640.8
3766.636	-640.8
3769.315	-643.8
3771.991	-644.8
3774.665	-644.8
3777.338	-646.8
3780.008	-654.8
3782.677	-654.8
3785.343	-651.8
3788.007	-653.8
3790.67	-657.8
3793.33	-657.8
3795.989	-660.8
3798.645	-662.8
3801.299	-665.8
3803.952	-665.8
3806.602	-671.8
3809.251	-672.8
3811.897	-668.8
3814.542	-669.8
3817.184	-660.8
3819.825	-662.8
3822.463	-660.8
3825.1	-667.8
3827.735	-662.8
3830.367	-669.8
3832.998	-675.8
3835.627	-677.8
3838.253	-682.8
3840.878	-684.8
3843.501	-685.8
3846.122	-676.8
3848.741	-677.8
3851.358	-676.8
3853.973	-675.8
3856.586	-680.8
3859.197	-678.8
3861.806	-683.8
3864.414	-681.8
3867.019	-678.8
3869.622	-679.8
3872.224	-668.8
3874.823	-658.8
3877.421	-651.8
3880.016	-630.8
3882.61	-618.8
3885.202	-614.8
3887.792	-625.8
3890.38	-655.8
3892.966	-673.8
3895.55	-682.8
3898.132	-694.8
3900.713	-697.8
3903.291	-691.8
3905.868	-694.8
3908.442	-697.8
3911.015	-694.8
3913.586	-692.8
3916.155	-691.8
3918.722	-695.8
3921.287	-690.8
3923.85	-701.8
3926.411	-696.8
3928.971	-703.8
3931.528	-696.8
3934.084	-695.8
3936.638	-696.8
3939.19	-700.8
3941.74	-697.8
3944.288	-704.8
3946.834	-694.8
3949.378	-699.8
3951.921	-697.8
3954.462	-703.8
3957	-700.8
3959.537	-698.8
3962.072	-692.8
3964.606	-703.8
3967.137	-694.8
3969.667	-701.8
3972.194	-688.8
3974.72	-692.8
3977.244	-681.8
3979.766	-683.8
3982.286	-689.8
3984.805	-684.8
3987.321	-686.8
3989.836	-684.8
3992.349	-682.8
3994.86	-686.8
3997.369	-689.8
3999.877	-678.8
4002.382	-677.8
4004.886	-684.8
4007.388	-679.8
4009.888	-680.8
4012.386	-687.8
4014.883	-687.8
4017.377	-681.8
4019.87	-676.8
4022.361	-683.8
4024.85	-680.8
4027.338	-681.8
4029.823	-687.8
4032.307	-688.8
4034.789	-685.8
4037.269	-676.8
4039.747	-686.8
4042.224	-690.8
4044.699	-689.8
4047.172	-687.8
4049.643	-684.8
4052.112	-685.8
4054.58	-692.8
4057.046	-690.8
4059.51	-691.8
4061.972	-686.8
4064.432	-689.8
4066.891	-687.8
4069.348	-687.8
4071.803	-680.8
4074.256	-683.8
4076.708	-680.8
4079.158	-682.8
4081.606	-689.8
4084.052	-691.8
4086.497	-679.8
4088.939	-682.8
4091.38	-685.8
4093.819	-679.8
4096.257	-721.8
4098.693	-722.8
4101.127	-725.8
4103.559	-722.8
4105.989	-408.8
4108.418	-387.8
4110.845	-358.8
4113.27	-327.8
4115.694	-294.8
4118.115	-241.8
4120.535	-681.8
4122.954	-681.8
4125.37	-679.8
4127.785	-686.8
4130.198	-689.8
4132.609	-689.8
4135.019	-724.8
4137.427	-725.8
4139.833	-722.8
4142.237	-720.8
