Data from 2018-2-14_conc=0_n=10_RamanShift_01.txt Node
Date: Wed Feb 14 10:55:56 IST 2018
User: aro
Spectrometer: QEPB0276
Trigger mode: 0
Integration Time (sec): 3.000000E1
Scans to average: 1
Electric dark correction enabled: true
Nonlinearity correction enabled: false
Boxcar width: 0
XAxis mode: Raman Shifts
Number of Pixels in Spectrum: 1044
>>>>>Begin Spectral Data<<<<<
160.701	-131.1
166.742	47.9
172.777	588.9
178.805	2211.9
184.826	6167.9
190.841	12952.9
196.849	20857.9
202.85	26518.9
208.845	28402.9
214.833	28163.9
220.815	27579.9
226.789	27420.9
232.758	27375.9
238.719	27130.9
244.674	26792.9
250.623	26257.9
256.565	25783.9
262.5	25209.9
268.429	24747.9
274.351	24395.9
280.267	24072.9
286.176	23789.9
292.079	23573.9
297.975	23355.9
303.865	23166.9
309.748	23033.9
315.625	22880.9
321.495	22751.9
327.359	22642.9
333.217	22641.9
339.068	22595.9
344.912	22598.9
350.751	22552.9
356.583	22545.9
362.408	22437.9
368.227	22509.9
374.04	22499.9
379.847	22553.9
385.647	22632.9
391.44	22750.9
397.228	22871.9
403.009	22895.9
408.784	23016.9
414.553	23119.9
420.315	23105.9
426.071	23173.9
431.821	23121.9
437.565	23089.9
443.302	22975.9
449.033	23028.9
454.758	22965.9
460.477	23012.9
466.189	22896.9
471.896	22790.9
477.596	22750.9
483.29	22617.9
488.978	22612.9
494.66	22567.9
500.335	22413.9
506.005	22235.9
511.668	21926.9
517.325	21666.9
522.977	21499.9
528.622	21315.9
534.261	21186.9
539.894	21057.9
545.521	21025.9
551.141	20933.9
556.756	20861.9
562.365	20707.9
567.968	20648.9
573.565	20578.9
579.155	20482.9
584.74	20425.9
590.319	20330.9
595.892	20266.9
601.459	20188.9
607.02	20106.9
612.575	19983.9
618.124	19850.9
623.667	19721.9
629.204	19577.9
634.735	19471.9
640.261	19439.9
645.781	19374.9
651.294	19320.9
656.802	19319.9
662.304	19276.9
667.8	19256.9
673.29	19230.9
678.775	19114.9
684.254	19106.9
689.726	19042.9
695.193	18979.9
700.655	18847.9
706.11	18798.9
711.56	18639.9
717.004	18582.9
722.442	18467.9
727.874	18508.9
733.301	18342.9
738.722	18291.9
744.137	18254.9
749.547	18308.9
754.951	18217.9
760.349	18238.9
765.741	18318.9
771.128	18304.9
776.509	18251.9
781.885	18257.9
787.254	18259.9
792.618	18101.9
797.977	18027.9
803.33	17923.9
808.677	17861.9
814.019	17672.9
819.355	17638.9
824.686	17502.9
830.011	17484.9
835.33	17508.9
840.644	17511.9
845.952	17481.9
851.255	17505.9
856.552	17534.9
861.844	17570.9
867.13	17483.9
872.41	17407.9
877.686	17298.9
882.955	17200.9
888.219	16985.9
893.478	16854.9
898.731	16641.9
903.979	16468.9
909.221	16307.9
914.458	16322.9
919.69	16254.9
924.916	16298.9
930.136	16355.9
935.351	16313.9
940.561	16357.9
945.766	16329.9
950.965	16234.9
956.158	16101.9
961.347	15969.9
966.529	15698.9
971.707	15572.9
976.879	15337.9
982.046	15230.9
987.208	15189.9
992.364	15186.9
997.515	15300.9
1002.66	15402.9
1007.801	15600.9
1012.936	15699.9
1018.066	15644.9
1023.19	15679.9
1028.309	15670.9
1033.423	15636.9
1038.532	15507.9
1043.636	15408.9
1048.734	15160.9
1053.827	15031.9
1058.915	14885.9
1063.998	14759.9
1069.075	14645.9
1074.147	14688.9
1079.214	14780.9
1084.276	14812.9
1089.333	14962.9
1094.385	14968.9
1099.431	15032.9
1104.472	15019.9
1109.509	14962.9
1114.54	14774.9
1119.565	14528.9
1124.586	14347.9
1129.602	14205.9
1134.613	14116.9
1139.618	14076.9
1144.619	13992.9
1149.614	14010.9
1154.604	14029.9
1159.589	14079.9
1164.57	14064.9
1169.545	14076.9
1174.515	14086.9
1179.48	13956.9
1184.44	13896.9
1189.395	13846.9
1194.345	13648.9
1199.29	13662.9
1204.23	13630.9
1209.165	13650.9
1214.095	13758.9
1219.021	13823.9
1223.941	13912.9
1228.856	13948.9
1233.766	13970.9
1238.672	13951.9
1243.572	14025.9
1248.467	13856.9
1253.358	13694.9
1258.244	13514.9
1263.124	13340.9
1268	13144.9
1272.871	12979.9
1277.737	12843.9
1282.599	12805.9
1287.455	12811.9
1292.306	12796.9
1297.153	12850.9
1301.995	12920.9
1306.832	12956.9
1311.664	12945.9
1316.491	12908.9
1321.314	12802.9
1326.132	12629.9
1330.945	12383.9
1335.753	12069.9
1340.556	11760.9
1345.354	11529.9
1350.148	11368.9
1354.937	11266.9
1359.722	11224.9
1364.501	11255.9
1369.276	11354.9
1374.046	11500.9
1378.811	11676.9
1383.572	11831.9
1388.327	11799.9
1393.079	11772.9
1397.825	11655.9
1402.567	11469.9
1407.304	11314.9
1412.036	11204.9
1416.764	11116.9
1421.487	11041.9
1426.205	11043.9
1430.919	11010.9
1435.628	10962.9
1440.333	10991.9
1445.032	11022.9
1449.727	11055.9
1454.418	11059.9
1459.104	10924.9
1463.785	10709.9
1468.462	10482.9
1473.134	10271.9
1477.802	10063.9
1482.465	9859.9
1487.123	9808.9
1491.777	9758.9
1496.426	9790.9
1501.071	9896.9
1505.711	10024.9
1510.347	10252.9
1514.978	10339.9
1519.604	10539.9
1524.226	10609.9
1528.844	10587.9
1533.457	10596.9
1538.065	10545.9
1542.669	10481.9
1547.269	10375.9
1551.864	10321.9
1556.454	10260.9
1561.041	10281.9
1565.622	10276.9
1570.199	10299.9
1574.772	10342.9
1579.34	10436.9
1583.904	10462.9
1588.464	10495.9
1593.019	10501.9
1597.569	10496.9
1602.115	10445.9
1606.657	10362.9
1611.195	10293.9
1615.728	10211.9
1620.256	10204.9
1624.78	10162.9
1629.3	10162.9
1633.816	10218.9
1638.327	10312.9
1642.834	10311.9
1647.336	10357.9
1651.834	10380.9
1656.328	10375.9
1660.817	10307.9
1665.302	10226.9
1669.783	10026.9
1674.259	9816.9
1678.732	9525.9
1683.199	9200.9
1687.663	8884.9
1692.122	8637.9
1696.577	8449.9
1701.028	8390.9
1705.474	8447.9
1709.917	8535.9
1714.355	8587.9
1718.788	8487.9
1723.218	8406.9
1727.643	8232.9
1732.064	8089.9
1736.481	7907.9
1740.893	7681.9
1745.301	7472.9
1749.705	7284.9
1754.105	7107.9
1758.501	6868.9
1762.893	6697.9
1767.28	6570.9
1771.663	6374.9
1776.042	6321.9
1780.417	6227.9
1784.787	6234.9
1789.154	6288.9
1793.516	6402.9
1797.874	6490.9
1802.228	6594.9
1806.578	6668.9
1810.924	6678.9
1815.266	6612.9
1819.603	6552.9
1823.937	6399.9
1828.266	6320.9
1832.591	6232.9
1836.913	6542.9
1841.23	6181.9
1845.543	6023.9
1849.852	5992.9
1854.156	5981.9
1858.457	5985.9
1862.754	5966.9
1867.047	5958.9
1871.335	5938.9
1875.62	5919.9
1879.9	5906.9
1884.177	5860.9
1888.449	5794.9
1892.718	5751.9
1896.982	5706.9
1901.243	5681.9
1905.499	5586.9
1909.752	5583.9
1914	5568.9
1918.245	5582.9
1922.485	5636.9
1926.722	5673.9
1930.954	5742.9
1935.183	5804.9
1939.408	5866.9
1943.628	5897.9
1947.845	5902.9
1952.058	5884.9
1956.267	5837.9
1960.472	5769.9
1964.673	5687.9
1968.87	5590.9
1973.063	5521.9
1977.252	5455.9
1981.438	5371.9
1985.619	5346.9
1989.797	5311.9
1993.971	5240.9
1998.14	5224.9
2002.306	5213.9
2006.469	5204.9
2010.627	5154.9
2014.781	5120.9
2018.932	5068.9
2023.078	5054.9
2027.221	4945.9
2031.36	4883.9
2035.495	4822.9
2039.627	4737.9
2043.754	4686.9
2047.878	4632.9
2051.998	4602.9
2056.114	4591.9
2060.226	4605.9
2064.334	4616.9
2068.439	4623.9
2072.54	4635.9
2076.637	4663.9
2080.73	4697.9
2084.82	4719.9
2088.906	4737.9
2092.988	4750.9
2097.066	4706.9
2101.14	4684.9
2105.211	4659.9
2109.278	4603.9
2113.342	4618.9
2117.401	4559.9
2121.457	4563.9
2125.509	4524.9
2129.558	4498.9
2133.602	4461.9
2137.643	4463.9
2141.681	4423.9
2145.714	4412.9
2149.744	4401.9
2153.77	4336.9
2157.793	4308.9
2161.812	4249.9
2165.827	4219.9
2169.838	4145.9
2173.846	4029.9
2177.851	3992.9
2181.851	3936.9
2185.848	3863.9
2189.841	3822.9
2193.831	3801.9
2197.817	3715.9
2201.799	3740.9
2205.778	3711.9
2209.753	3678.9
2213.725	3686.9
2217.693	3655.9
2221.657	3669.9
2225.618	3658.9
2229.575	3633.9
2233.529	3583.9
2237.479	3586.9
2241.425	3523.9
2245.368	3464.9
2249.307	3435.9
2253.243	3383.9
2257.175	3335.9
2261.104	3285.9
2265.029	3268.9
2268.95	3191.9
2272.868	3173.9
2276.783	3143.9
2280.694	3093.9
2284.601	3060.9
2288.505	3069.9
2292.405	3013.9
2296.302	2972.9
2300.195	2957.9
2304.085	2927.9
2307.971	2869.9
2311.854	2813.9
2315.734	2786.9
2319.609	2760.9
2323.482	2706.9
2327.351	2685.9
2331.216	2651.9
2335.078	2650.9
2338.937	2615.9
2342.792	2595.9
2346.643	2593.9
2350.492	2589.9
2354.336	2594.9
2358.178	2590.9
2362.015	2599.9
2365.85	2615.9
2369.681	2603.9
2373.508	2612.9
2377.333	2617.9
2381.153	2570.9
2384.971	2562.9
2388.785	2558.9
2392.595	2510.9
2396.402	2536.9
2400.206	2494.9
2404.007	2469.9
2407.804	2460.9
2411.597	2460.9
2415.388	2404.9
2419.174	2399.9
2422.958	2399.9
2426.738	2369.9
2430.515	2335.9
2434.289	2325.9
2438.059	2322.9
2441.825	2291.9
2445.589	2271.9
2449.349	2252.9
2453.106	2208.9
2456.859	2169.9
2460.61	2138.9
2464.356	2127.9
2468.1	2093.9
2471.84	2078.9
2475.577	2051.9
2479.311	2074.9
2483.041	2047.9
2486.768	2024.9
2490.492	2012.9
2494.213	2032.9
2497.93	2008.9
2501.644	2008.9
2505.355	1992.9
2509.062	1969.9
2512.766	1962.9
2516.467	1947.9
2520.165	1925.9
2523.859	1920.9
2527.551	1914.9
2531.239	1913.9
2534.923	1898.9
2538.605	1860.9
2542.283	1866.9
2545.958	1873.9
2549.63	1854.9
2553.299	1868.9
2556.964	1873.9
2560.626	1868.9
2564.285	1828.9
2567.941	1852.9
2571.594	1819.9
2575.243	1797.9
2578.89	1796.9
2582.533	1794.9
2586.173	1746.9
2589.809	1763.9
2593.443	1716.9
2597.073	1727.9
2600.701	1689.9
2604.325	1691.9
2607.946	1665.9
2611.564	1661.9
2615.178	1658.9
2618.79	1645.9
2622.398	1628.9
2626.004	1613.9
2629.606	1588.9
2633.205	1567.9
2636.801	1561.9
2640.394	1524.9
2643.983	1492.9
2647.57	1485.9
2651.153	1458.9
2654.734	1431.9
2658.311	1408.9
2661.885	1364.9
2665.456	1353.9
2669.025	1353.9
2672.589	1312.9
2676.151	1315.9
2679.71	1298.9
2683.266	1303.9
2686.819	1261.9
2690.368	1215.9
2693.915	1207.9
2697.458	1186.9
2700.999	1160.9
2704.536	1135.9
2708.071	1099.9
2711.602	1090.9
2715.13	1059.9
2718.656	1043.9
2722.178	1027.9
2725.697	998.9
2729.214	1011.9
2732.727	995.9
2736.237	973.9
2739.744	968.9
2743.249	990.9
2746.75	999.9
2750.248	994.9
2753.743	1000.9
2757.236	1013.9
2760.725	1028.9
2764.211	1022.9
2767.695	1044.9
2771.175	1038.9
2774.652	1034.9
2778.127	1011.9
2781.598	1016.9
2785.067	1005.9
2788.532	998.9
2791.995	1008.9
2795.455	1009.9
2798.911	1017.9
2802.365	1007.9
2805.816	1015.9
2809.264	1008.9
2812.709	1012.9
2816.151	1002.9
2819.59	1013.9
2823.026	986.9
2826.46	1013.9
2829.89	1013.9
2833.318	1005.9
2836.742	1033.9
2840.164	1020.9
2843.583	1028.9
2846.999	1034.9
2850.412	1061.9
2853.822	1079.9
2857.229	1077.9
2860.634	1109.9
2864.035	1111.9
2867.434	1130.9
2870.83	1167.9
2874.223	1176.9
2877.613	1206.9
2881	1204.9
2884.385	1218.9
2887.766	1213.9
2891.145	1230.9
2894.521	1218.9
2897.894	1238.9
2901.264	1223.9
2904.631	1232.9
2907.996	1233.9
2911.358	1268.9
2914.717	1243.9
2918.073	1267.9
2921.426	1271.9
2924.777	1287.9
2928.124	1309.9
2931.469	1324.9
2934.811	1357.9
2938.15	1352.9
2941.487	1383.9
2944.821	1383.9
2948.152	1394.9
2951.48	1385.9
2954.805	1355.9
2958.128	1354.9
2961.447	1349.9
2964.765	1354.9
2968.079	1370.9
2971.39	1360.9
2974.699	1392.9
2978.005	1392.9
2981.308	1438.9
2984.609	1450.9
2987.907	1476.9
2991.202	1505.9
2994.494	1552.9
2997.784	1574.9
3001.07	1596.9
3004.355	1638.9
3007.636	1644.9
3010.915	1677.9
3014.191	1701.9
3017.464	1714.9
3020.734	1707.9
3024.002	1704.9
3027.267	1737.9
3030.53	1759.9
3033.789	1771.9
3037.046	1781.9
3040.301	1826.9
3043.552	1854.9
3046.801	1915.9
3050.048	1932.9
3053.291	2000.9
3056.532	2038.9
3059.771	2103.9
3063.006	2181.9
3066.239	2257.9
3069.469	2299.9
3072.697	2372.9
3075.922	2414.9
3079.144	2484.9
3082.364	2544.9
3085.581	2591.9
3088.795	2638.9
3092.007	2689.9
3095.216	2743.9
3098.423	2827.9
3101.627	2884.9
3104.828	2932.9
3108.026	2996.9
3111.222	3094.9
3114.416	3153.9
3117.607	3215.9
3120.795	3315.9
3123.98	3365.9
3127.163	3462.9
3130.344	3538.9
3133.521	3627.9
3136.696	3714.9
3139.869	3782.9
3143.039	3845.9
3146.206	3914.9
3149.371	3944.9
3152.533	3987.9
3155.693	4005.9
3158.85	4008.9
3162.005	4060.9
3165.157	4069.9
3168.306	4120.9
3171.453	4105.9
3174.597	4070.9
3177.739	4097.9
3180.878	4105.9
3184.014	4118.9
3187.149	4111.9
3190.28	4138.9
3193.409	4138.9
3196.536	4115.9
3199.659	4168.9
3202.781	4167.9
3205.9	4161.9
3209.016	4145.9
3212.13	4144.9
3215.241	4089.9
3218.35	4089.9
3221.456	4025.9
3224.56	4001.9
3227.661	3934.9
3230.76	3900.9
3233.856	3880.9
3236.95	3805.9
3240.041	3781.9
3243.13	3763.9
3246.216	3740.9
3249.3	3719.9
3252.382	3676.9
3255.46	3680.9
3258.537	3707.9
3261.611	3694.9
3264.682	3703.9
3267.751	3648.9
3270.818	3657.9
3273.882	3653.9
3276.943	3650.9
3280.002	3590.9
3283.059	3563.9
3286.113	3551.9
3289.165	3509.9
3292.214	3440.9
3295.261	3381.9
3298.306	3331.9
3301.348	3287.9
3304.387	3206.9
3307.425	3169.9
3310.459	3135.9
3313.492	3086.9
3316.521	3049.9
3319.549	2988.9
3322.574	2992.9
3325.597	2970.9
3328.617	2925.9
3331.635	2911.9
3334.65	2894.9
3337.663	2887.9
3340.674	2866.9
3343.682	2848.9
3346.688	2856.9
3349.691	2838.9
3352.692	2829.9
3355.691	2806.9
3358.687	2758.9
3361.681	2740.9
3364.673	2694.9
3367.662	2673.9
3370.649	2616.9
3373.633	2619.9
3376.615	2541.9
3379.595	2503.9
3382.572	2466.9
3385.547	2450.9
3388.52	2402.9
3391.49	2363.9
3394.458	2345.9
3397.424	2331.9
3400.387	2296.9
3403.348	2242.9
3406.307	2234.9
3409.263	2200.9
3412.217	2173.9
3415.168	2155.9
3418.118	2113.9
3421.065	2101.9
3424.009	2053.9
3426.951	2026.9
3429.891	1987.9
3432.829	1952.9
3435.764	1907.9
3438.697	1849.9
3441.628	1808.9
3444.557	1766.9
3447.483	1705.9
3450.407	1646.9
3453.328	1594.9
3456.247	1555.9
3459.164	1500.9
3462.079	1437.9
3464.991	1391.9
3467.902	1335.9
3470.809	1284.9
3473.715	1239.9
3476.618	1207.9
3479.519	1159.9
3482.418	1111.9
3485.315	1055.9
3488.209	1035.9
3491.101	1027.9
3493.99	974.9
3496.878	934.9
3499.763	903.9
3502.646	856.9
3505.527	822.9
3508.405	779.9
3511.281	728.9
3514.155	690.9
3517.027	666.9
3519.897	629.9
3522.764	577.9
3525.629	546.9
3528.492	499.9
3531.352	450.9
3534.211	419.9
3537.067	366.9
3539.921	336.9
3542.773	292.9
3545.622	268.9
3548.469	232.9
3551.315	217.9
3554.157	178.9
3556.998	146.9
3559.837	129.9
3562.673	108.9
3565.507	80.9
3568.339	53.9
3571.169	33.9
3573.996	13.9
3576.822	-4.1
3579.645	-24.1
3582.466	-50.1
3585.285	-70.1
3588.101	-88.1
3590.916	-109.1
3593.728	-137.1
3596.538	-146.1
3599.346	-167.1
3602.152	-186.1
3604.956	-193.1
3607.757	-214.1
3610.556	-242.1
3613.354	-253.1
3616.149	-250.1
3618.942	-272.1
3621.732	-288.1
3624.521	-303.1
3627.307	-304.1
3630.092	-323.1
3632.874	-338.1
3635.654	-337.1
3638.432	-353.1
3641.208	-354.1
3643.982	-371.1
3646.753	-381.1
3649.523	-389.1
3652.29	-396.1
3655.055	-398.1
3657.818	-416.1
3660.579	-426.1
3663.338	-436.1
3666.095	-446.1
3668.849	-461.1
3671.602	-465.1
3674.352	-473.1
3677.101	-480.1
3679.847	-494.1
3682.591	-499.1
3685.333	-499.1
3688.073	-504.1
3690.811	-518.1
3693.547	-525.1
3696.281	-526.1
3699.013	-537.1
3701.742	-529.1
3704.47	-534.1
3707.195	-547.1
3709.919	-543.1
3712.64	-554.1
3715.359	-550.1
3718.076	-564.1
3720.792	-559.1
3723.505	-562.1
3726.216	-577.1
3728.925	-572.1
3731.632	-579.1
3734.336	-580.1
3737.039	-579.1
3739.74	-584.1
3742.439	-581.1
3745.136	-592.1
3747.83	-590.1
3750.523	-588.1
3753.213	-579.1
3755.902	-593.1
3758.589	-596.1
3761.273	-603.1
3763.956	-599.1
3766.636	-604.1
3769.315	-610.1
3771.991	-607.1
3774.665	-610.1
3777.338	-611.1
3780.008	-608.1
3782.677	-613.1
3785.343	-609.1
3788.007	-610.1
3790.67	-615.1
3793.33	-619.1
3795.989	-622.1
3798.645	-620.1
3801.299	-619.1
3803.952	-627.1
3806.602	-633.1
3809.251	-630.1
3811.897	-630.1
3814.542	-629.1
3817.184	-629.1
3819.825	-630.1
3822.463	-625.1
3825.1	-635.1
3827.735	-627.1
3830.367	-626.1
3832.998	-633.1
3835.627	-632.1
3838.253	-635.1
3840.878	-641.1
3843.501	-636.1
3846.122	-630.1
3848.741	-632.1
3851.358	-637.1
3853.973	-640.1
3856.586	-641.1
3859.197	-640.1
3861.806	-645.1
3864.414	-641.1
3867.019	-636.1
3869.622	-641.1
3872.224	-631.1
3874.823	-621.1
3877.421	-598.1
3880.016	-583.1
3882.61	-552.1
3885.202	-547.1
3887.792	-568.1
3890.38	-602.1
3892.966	-627.1
3895.55	-635.1
3898.132	-650.1
3900.713	-657.1
3903.291	-656.1
3905.868	-655.1
3908.442	-657.1
3911.015	-653.1
3913.586	-651.1
3916.155	-646.1
3918.722	-654.1
3921.287	-647.1
3923.85	-652.1
3926.411	-652.1
3928.971	-664.1
3931.528	-655.1
3934.084	-656.1
3936.638	-653.1
3939.19	-658.1
3941.74	-661.1
3944.288	-660.1
3946.834	-651.1
3949.378	-656.1
3951.921	-655.1
3954.462	-664.1
3957	-654.1
3959.537	-652.1
3962.072	-650.1
3964.606	-657.1
3967.137	-655.1
3969.667	-656.1
3972.194	-649.1
3974.72	-651.1
3977.244	-646.1
3979.766	-643.1
3982.286	-647.1
3984.805	-644.1
3987.321	-644.1
3989.836	-644.1
3992.349	-631.1
3994.86	-642.1
3997.369	-641.1
3999.877	-637.1
4002.382	-636.1
4004.886	-638.1
4007.388	-635.1
4009.888	-637.1
4012.386	-637.1
4014.883	-644.1
4017.377	-640.1
4019.87	-640.1
4022.361	-640.1
4024.85	-638.1
4027.338	-648.1
4029.823	-640.1
4032.307	-645.1
4034.789	-637.1
4037.269	-640.1
4039.747	-644.1
4042.224	-646.1
4044.699	-648.1
4047.172	-647.1
4049.643	-638.1
4052.112	-645.1
4054.58	-648.1
4057.046	-645.1
4059.51	-649.1
4061.972	-654.1
4064.432	-647.1
4066.891	-642.1
4069.348	-642.1
4071.803	-638.1
4074.256	-649.1
4076.708	-640.1
4079.158	-642.1
4081.606	-648.1
4084.052	-656.1
4086.497	-642.1
4088.939	-637.1
4091.38	-644.1
4093.819	-636.1
4096.257	-680.1
4098.693	-683.1
4101.127	-680.1
4103.559	-678.1
4105.989	-383.1
4108.418	-363.1
4110.845	-333.1
4113.27	-309.1
4115.694	-274.1
4118.115	-231.1
4120.535	-644.1
4122.954	-646.1
4125.37	-636.1
4127.785	-643.1
4130.198	-644.1
4132.609	-645.1
4135.019	-680.1
4137.427	-678.1
4139.833	-680.1
4142.237	-679.1
