Data from 2018-2-14_conc=3_n=9_RamanShift_02.txt Node
Date: Wed Feb 14 12:09:26 IST 2018
User: aro
Spectrometer: QEPB0276
Trigger mode: 0
Integration Time (sec): 3.000000E1
Scans to average: 1
Electric dark correction enabled: true
Nonlinearity correction enabled: false
Boxcar width: 0
XAxis mode: Raman Shifts
Number of Pixels in Spectrum: 1044
>>>>>Begin Spectral Data<<<<<
160.701	-142.1
166.742	52.9
172.777	548.9
178.805	2163.9
184.826	5939.9
190.841	12546.9
196.849	20214.9
202.85	25631.9
208.845	27458.9
214.833	27179.9
220.815	26682.9
226.789	26461.9
232.758	26346.9
238.719	26205.9
244.674	25769.9
250.623	25353.9
256.565	24854.9
262.5	24338.9
268.429	23809.9
274.351	23450.9
280.267	23196.9
286.176	22928.9
292.079	22674.9
297.975	22541.9
303.865	22260.9
309.748	22108.9
315.625	21958.9
321.495	21834.9
327.359	21733.9
333.217	21715.9
339.068	21613.9
344.912	21623.9
350.751	21648.9
356.583	21597.9
362.408	21543.9
368.227	21601.9
374.04	21637.9
379.847	21654.9
385.647	21709.9
391.44	21800.9
397.228	21875.9
403.009	21991.9
408.784	22054.9
414.553	22126.9
420.315	22164.9
426.071	22180.9
431.821	22243.9
437.565	22091.9
443.302	22171.9
449.033	22069.9
454.758	22039.9
460.477	21959.9
466.189	21946.9
471.896	21940.9
477.596	21809.9
483.29	21775.9
488.978	21774.9
494.66	21691.9
500.335	21563.9
506.005	21391.9
511.668	21066.9
517.325	20946.9
522.977	20694.9
528.622	20513.9
534.261	20474.9
539.894	20356.9
545.521	20294.9
551.141	20222.9
556.756	20121.9
562.365	20047.9
567.968	19994.9
573.565	19917.9
579.155	19827.9
584.74	19782.9
590.319	19665.9
595.892	19576.9
601.459	19528.9
607.02	19438.9
612.575	19305.9
618.124	19253.9
623.667	19111.9
629.204	19067.9
634.735	18919.9
640.261	18867.9
645.781	18796.9
651.294	18776.9
656.802	18763.9
662.304	18722.9
667.8	18629.9
673.29	18646.9
678.775	18618.9
684.254	18518.9
689.726	18515.9
695.193	18436.9
700.655	18232.9
706.11	18235.9
711.56	18115.9
717.004	18039.9
722.442	17973.9
727.874	17912.9
733.301	17936.9
738.722	17814.9
744.137	17801.9
749.547	17770.9
754.951	17779.9
760.349	17822.9
765.741	17699.9
771.128	17811.9
776.509	17761.9
781.885	17822.9
787.254	17708.9
792.618	17722.9
797.977	17536.9
803.33	17399.9
808.677	17362.9
814.019	17243.9
819.355	17176.9
824.686	17135.9
830.011	17062.9
835.33	17032.9
840.644	17121.9
845.952	17062.9
851.255	17157.9
856.552	17159.9
861.844	17138.9
867.13	17046.9
872.41	16990.9
877.686	16871.9
882.955	16777.9
888.219	16624.9
893.478	16448.9
898.731	16287.9
903.979	16095.9
909.221	16013.9
914.458	15968.9
919.69	15970.9
924.916	15998.9
930.136	16035.9
935.351	16060.9
940.561	16048.9
945.766	16008.9
950.965	15961.9
956.158	15858.9
961.347	15648.9
966.529	15500.9
971.707	15287.9
976.879	15119.9
982.046	14947.9
987.208	14952.9
992.364	14909.9
997.515	15001.9
1002.66	15123.9
1007.801	15361.9
1012.936	15464.9
1018.066	15435.9
1023.19	15332.9
1028.309	15392.9
1033.423	15376.9
1038.532	15266.9
1043.636	15175.9
1048.734	14994.9
1053.827	14844.9
1058.915	14661.9
1063.998	14554.9
1069.075	14510.9
1074.147	14550.9
1079.214	14571.9
1084.276	14675.9
1089.333	14761.9
1094.385	14804.9
1099.431	14880.9
1104.472	14838.9
1109.509	14763.9
1114.54	14607.9
1119.565	14360.9
1124.586	14188.9
1129.602	14090.9
1134.613	13983.9
1139.618	13923.9
1144.619	13863.9
1149.614	13886.9
1154.604	13951.9
1159.589	13942.9
1164.57	13996.9
1169.545	14019.9
1174.515	14023.9
1179.48	13902.9
1184.44	13842.9
1189.395	13755.9
1194.345	13623.9
1199.29	13545.9
1204.23	13561.9
1209.165	13571.9
1214.095	13630.9
1219.021	13737.9
1223.941	13809.9
1228.856	13919.9
1233.766	13944.9
1238.672	13956.9
1243.572	13919.9
1248.467	13823.9
1253.358	13702.9
1258.244	13530.9
1263.124	13275.9
1268	13102.9
1272.871	12954.9
1277.737	12901.9
1282.599	12791.9
1287.455	12833.9
1292.306	12832.9
1297.153	12828.9
1301.995	12926.9
1306.832	12969.9
1311.664	12960.9
1316.491	12930.9
1321.314	12831.9
1326.132	12658.9
1330.945	12343.9
1335.753	12047.9
1340.556	11742.9
1345.354	11488.9
1350.148	11323.9
1354.937	11254.9
1359.722	11238.9
1364.501	11311.9
1369.276	11472.9
1374.046	11652.9
1378.811	11823.9
1383.572	12013.9
1388.327	12015.9
1393.079	11977.9
1397.825	11778.9
1402.567	11649.9
1407.304	11464.9
1412.036	11286.9
1416.764	11195.9
1421.487	11162.9
1426.205	11121.9
1430.919	11037.9
1435.628	11127.9
1440.333	11064.9
1445.032	11087.9
1449.727	11144.9
1454.418	11117.9
1459.104	10993.9
1463.785	10734.9
1468.462	10543.9
1473.134	10334.9
1477.802	10135.9
1482.465	9994.9
1487.123	9880.9
1491.777	9911.9
1496.426	9907.9
1501.071	10078.9
1505.711	10232.9
1510.347	10463.9
1514.978	10676.9
1519.604	10779.9
1524.226	10897.9
1528.844	10931.9
1533.457	10893.9
1538.065	10847.9
1542.669	10750.9
1547.269	10669.9
1551.864	10581.9
1556.454	10543.9
1561.041	10510.9
1565.622	10496.9
1570.199	10485.9
1574.772	10579.9
1579.34	10580.9
1583.904	10689.9
1588.464	10680.9
1593.019	10628.9
1597.569	10640.9
1602.115	10590.9
1606.657	10487.9
1611.195	10451.9
1615.728	10354.9
1620.256	10337.9
1624.78	10342.9
1629.3	10326.9
1633.816	10358.9
1638.327	10400.9
1642.834	10457.9
1647.336	10514.9
1651.834	10533.9
1656.328	10509.9
1660.817	10492.9
1665.302	10389.9
1669.783	10231.9
1674.259	10002.9
1678.732	9714.9
1683.199	9403.9
1687.663	9061.9
1692.122	8851.9
1696.577	8714.9
1701.028	8700.9
1705.474	8813.9
1709.917	8927.9
1714.355	8972.9
1718.788	8896.9
1723.218	8741.9
1727.643	8588.9
1732.064	8414.9
1736.481	8213.9
1740.893	8038.9
1745.301	7792.9
1749.705	7583.9
1754.105	7409.9
1758.501	7111.9
1762.893	7007.9
1767.28	6827.9
1771.663	6627.9
1776.042	6561.9
1780.417	6484.9
1784.787	6467.9
1789.154	6601.9
1793.516	6713.9
1797.874	6849.9
1802.228	6993.9
1806.578	7073.9
1810.924	7092.9
1815.266	7023.9
1819.603	6883.9
1823.937	6783.9
1828.266	6643.9
1832.591	6530.9
1836.913	6455.9
1841.23	6374.9
1845.543	6348.9
1849.852	6268.9
1854.156	6258.9
1858.457	6265.9
1862.754	6258.9
1867.047	6269.9
1871.335	6228.9
1875.62	6219.9
1879.9	6222.9
1884.177	6139.9
1888.449	6106.9
1892.718	6032.9
1896.982	6015.9
1901.243	5981.9
1905.499	5924.9
1909.752	5908.9
1914	5902.9
1918.245	5916.9
1922.485	5964.9
1926.722	6093.9
1930.954	6154.9
1935.183	6202.9
1939.408	6274.9
1943.628	6317.9
1947.845	6286.9
1952.058	6317.9
1956.267	6278.9
1960.472	6182.9
1964.673	6080.9
1968.87	5985.9
1973.063	5882.9
1977.252	5815.9
1981.438	5769.9
1985.619	5679.9
1989.797	5644.9
1993.971	5578.9
1998.14	5573.9
2002.306	5512.9
2006.469	5530.9
2010.627	5476.9
2014.781	5454.9
2018.932	5400.9
2023.078	5341.9
2027.221	5290.9
2031.36	5190.9
2035.495	5085.9
2039.627	5027.9
2043.754	4987.9
2047.878	4895.9
2051.998	4898.9
2056.114	4857.9
2060.226	4907.9
2064.334	4894.9
2068.439	4913.9
2072.54	4943.9
2076.637	4998.9
2080.73	5019.9
2084.82	5026.9
2088.906	5066.9
2092.988	5093.9
2097.066	5057.9
2101.14	5049.9
2105.211	4994.9
2109.278	4939.9
2113.342	4900.9
2117.401	4917.9
2121.457	4872.9
2125.509	4833.9
2129.558	4831.9
2133.602	4776.9
2137.643	4754.9
2141.681	4753.9
2145.714	4728.9
2149.744	4668.9
2153.77	4671.9
2157.793	4607.9
2161.812	4550.9
2165.827	4449.9
2169.838	4402.9
2173.846	4342.9
2177.851	4250.9
2181.851	4216.9
2185.848	4177.9
2189.841	4102.9
2193.831	4038.9
2197.817	3997.9
2201.799	4003.9
2205.778	3993.9
2209.753	3963.9
2213.725	3933.9
2217.693	3934.9
2221.657	3924.9
2225.618	3954.9
2229.575	3914.9
2233.529	3853.9
2237.479	3878.9
2241.425	3800.9
2245.368	3731.9
2249.307	3686.9
2253.243	3647.9
2257.175	3581.9
2261.104	3543.9
2265.029	3515.9
2268.95	3492.9
2272.868	3440.9
2276.783	3385.9
2280.694	3380.9
2284.601	3332.9
2288.505	3282.9
2292.405	3268.9
2296.302	3227.9
2300.195	3176.9
2304.085	3144.9
2307.971	3108.9
2311.854	3051.9
2315.734	3024.9
2319.609	2994.9
2323.482	2939.9
2327.351	2892.9
2331.216	2891.9
2335.078	2863.9
2338.937	2849.9
2342.792	2837.9
2346.643	2827.9
2350.492	2816.9
2354.336	2815.9
2358.178	2818.9
2362.015	2844.9
2365.85	2831.9
2369.681	2838.9
2373.508	2854.9
2377.333	2837.9
2381.153	2832.9
2384.971	2821.9
2388.785	2769.9
2392.595	2744.9
2396.402	2761.9
2400.206	2733.9
2404.007	2698.9
2407.804	2667.9
2411.597	2649.9
2415.388	2632.9
2419.174	2614.9
2422.958	2629.9
2426.738	2594.9
2430.515	2571.9
2434.289	2549.9
2438.059	2526.9
2441.825	2494.9
2445.589	2468.9
2449.349	2456.9
2453.106	2417.9
2456.859	2367.9
2460.61	2360.9
2464.356	2347.9
2468.1	2318.9
2471.84	2276.9
2475.577	2270.9
2479.311	2259.9
2483.041	2246.9
2486.768	2235.9
2490.492	2250.9
2494.213	2238.9
2497.93	2203.9
2501.644	2210.9
2505.355	2193.9
2509.062	2205.9
2512.766	2185.9
2516.467	2162.9
2520.165	2158.9
2523.859	2125.9
2527.551	2125.9
2531.239	2103.9
2534.923	2109.9
2538.605	2102.9
2542.283	2096.9
2545.958	2091.9
2549.63	2091.9
2553.299	2109.9
2556.964	2069.9
2560.626	2060.9
2564.285	2053.9
2567.941	2055.9
2571.594	2026.9
2575.243	2043.9
2578.89	2037.9
2582.533	1988.9
2586.173	1993.9
2589.809	1972.9
2593.443	1936.9
2597.073	1936.9
2600.701	1918.9
2604.325	1891.9
2607.946	1881.9
2611.564	1875.9
2615.178	1856.9
2618.79	1842.9
2622.398	1834.9
2626.004	1817.9
2629.606	1787.9
2633.205	1770.9
2636.801	1758.9
2640.394	1713.9
2643.983	1678.9
2647.57	1669.9
2651.153	1637.9
2654.734	1615.9
2658.311	1584.9
2661.885	1576.9
2665.456	1550.9
2669.025	1515.9
2672.589	1500.9
2676.151	1493.9
2679.71	1464.9
2683.266	1461.9
2686.819	1418.9
2690.368	1395.9
2693.915	1367.9
2697.458	1323.9
2700.999	1312.9
2704.536	1280.9
2708.071	1254.9
2711.602	1241.9
2715.13	1209.9
2718.656	1160.9
2722.178	1143.9
2725.697	1144.9
2729.214	1144.9
2732.727	1140.9
2736.237	1115.9
2739.744	1118.9
2743.249	1121.9
2746.75	1138.9
2750.248	1161.9
2753.743	1169.9
2757.236	1182.9
2760.725	1185.9
2764.211	1198.9
2767.695	1208.9
2771.175	1197.9
2774.652	1184.9
2778.127	1174.9
2781.598	1166.9
2785.067	1160.9
2788.532	1168.9
2791.995	1147.9
2795.455	1146.9
2798.911	1151.9
2802.365	1156.9
2805.816	1138.9
2809.264	1147.9
2812.709	1158.9
2816.151	1157.9
2819.59	1158.9
2823.026	1141.9
2826.46	1156.9
2829.89	1160.9
2833.318	1159.9
2836.742	1173.9
2840.164	1165.9
2843.583	1159.9
2846.999	1180.9
2850.412	1192.9
2853.822	1206.9
2857.229	1219.9
2860.634	1235.9
2864.035	1244.9
2867.434	1278.9
2870.83	1303.9
2874.223	1301.9
2877.613	1326.9
2881	1339.9
2884.385	1344.9
2887.766	1365.9
2891.145	1353.9
2894.521	1336.9
2897.894	1340.9
2901.264	1317.9
2904.631	1340.9
2907.996	1322.9
2911.358	1322.9
2914.717	1343.9
2918.073	1386.9
2921.426	1365.9
2924.777	1374.9
2928.124	1391.9
2931.469	1430.9
2934.811	1460.9
2938.15	1486.9
2941.487	1473.9
2944.821	1495.9
2948.152	1481.9
2951.48	1468.9
2954.805	1447.9
2958.128	1442.9
2961.447	1409.9
2964.765	1431.9
2968.079	1431.9
2971.39	1439.9
2974.699	1476.9
2978.005	1472.9
2981.308	1503.9
2984.609	1526.9
2987.907	1577.9
2991.202	1590.9
2994.494	1645.9
2997.784	1664.9
3001.07	1683.9
3004.355	1722.9
3007.636	1730.9
3010.915	1768.9
3014.191	1752.9
3017.464	1789.9
3020.734	1800.9
3024.002	1803.9
3027.267	1797.9
3030.53	1804.9
3033.789	1841.9
3037.046	1849.9
3040.301	1889.9
3043.552	1922.9
3046.801	1934.9
3050.048	2017.9
3053.291	2042.9
3056.532	2089.9
3059.771	2153.9
3063.006	2225.9
3066.239	2275.9
3069.469	2321.9
3072.697	2417.9
3075.922	2447.9
3079.144	2525.9
3082.364	2565.9
3085.581	2628.9
3088.795	2692.9
3092.007	2743.9
3095.216	2785.9
3098.423	2878.9
3101.627	2918.9
3104.828	2972.9
3108.026	3036.9
3111.222	3100.9
3114.416	3154.9
3117.607	3221.9
3120.795	3304.9
3123.98	3388.9
3127.163	3474.9
3130.344	3545.9
3133.521	3633.9
3136.696	3702.9
3139.869	3779.9
3143.039	3847.9
3146.206	3889.9
3149.371	3933.9
3152.533	3968.9
3155.693	4004.9
3158.85	4040.9
3162.005	4068.9
3165.157	4072.9
3168.306	4077.9
3171.453	4080.9
3174.597	4079.9
3177.739	4082.9
3180.878	4117.9
3184.014	4097.9
3187.149	4121.9
3190.28	4109.9
3193.409	4093.9
3196.536	4120.9
3199.659	4143.9
3202.781	4163.9
3205.9	4161.9
3209.016	4101.9
3212.13	4085.9
3215.241	4066.9
3218.35	4072.9
3221.456	3986.9
3224.56	3983.9
3227.661	3916.9
3230.76	3851.9
3233.856	3818.9
3236.95	3798.9
3240.041	3743.9
3243.13	3763.9
3246.216	3740.9
3249.3	3694.9
3252.382	3675.9
3255.46	3691.9
3258.537	3668.9
3261.611	3669.9
3264.682	3644.9
3267.751	3651.9
3270.818	3658.9
3273.882	3648.9
3276.943	3627.9
3280.002	3612.9
3283.059	3570.9
3286.113	3524.9
3289.165	3480.9
3292.214	3407.9
3295.261	3380.9
3298.306	3301.9
3301.348	3276.9
3304.387	3199.9
3307.425	3162.9
3310.459	3131.9
3313.492	3060.9
3316.521	3026.9
3319.549	2979.9
3322.574	2933.9
3325.597	2908.9
3328.617	2880.9
3331.635	2859.9
3334.65	2856.9
3337.663	2848.9
3340.674	2827.9
3343.682	2823.9
3346.688	2821.9
3349.691	2816.9
3352.692	2802.9
3355.691	2756.9
3358.687	2761.9
3361.681	2695.9
3364.673	2661.9
3367.662	2634.9
3370.649	2591.9
3373.633	2567.9
3376.615	2523.9
3379.595	2502.9
3382.572	2456.9
3385.547	2396.9
3388.52	2390.9
3391.49	2332.9
3394.458	2310.9
3397.424	2262.9
3400.387	2252.9
3403.348	2214.9
3406.307	2201.9
3409.263	2169.9
3412.217	2131.9
3415.168	2128.9
3418.118	2112.9
3421.065	2070.9
3424.009	2036.9
3426.951	2011.9
3429.891	1977.9
3432.829	1908.9
3435.764	1890.9
3438.697	1850.9
3441.628	1798.9
3444.557	1751.9
3447.483	1665.9
3450.407	1633.9
3453.328	1580.9
3456.247	1537.9
3459.164	1478.9
3462.079	1423.9
3464.991	1371.9
3467.902	1319.9
3470.809	1288.9
3473.715	1238.9
3476.618	1189.9
3479.519	1146.9
3482.418	1120.9
3485.315	1072.9
3488.209	1031.9
3491.101	997.9
3493.99	969.9
3496.878	935.9
3499.763	891.9
3502.646	855.9
3505.527	799.9
3508.405	789.9
3511.281	745.9
3514.155	700.9
3517.027	664.9
3519.897	612.9
3522.764	582.9
3525.629	530.9
3528.492	492.9
3531.352	452.9
3534.211	407.9
3537.067	378.9
3539.921	343.9
3542.773	295.9
3545.622	263.9
3548.469	246.9
3551.315	220.9
3554.157	203.9
3556.998	152.9
3559.837	132.9
3562.673	104.9
3565.507	82.9
3568.339	72.9
3571.169	43.9
3573.996	31.9
3576.822	-2.1
3579.645	-16.1
3582.466	-45.1
3585.285	-59.1
3588.101	-84.1
3590.916	-97.1
3593.728	-123.1
3596.538	-129.1
3599.346	-156.1
3602.152	-175.1
3604.956	-177.1
3607.757	-201.1
3610.556	-220.1
3613.354	-230.1
3616.149	-245.1
3618.942	-264.1
3621.732	-280.1
3624.521	-295.1
3627.307	-297.1
3630.092	-301.1
3632.874	-317.1
3635.654	-333.1
3638.432	-329.1
3641.208	-343.1
3643.982	-349.1
3646.753	-357.1
3649.523	-364.1
3652.29	-374.1
3655.055	-388.1
3657.818	-403.1
3660.579	-409.1
3663.338	-422.1
3666.095	-433.1
3668.849	-439.1
3671.602	-447.1
3674.352	-458.1
3677.101	-465.1
3679.847	-471.1
3682.591	-478.1
3685.333	-493.1
3688.073	-483.1
3690.811	-487.1
3693.547	-491.1
3696.281	-500.1
3699.013	-504.1
3701.742	-510.1
3704.47	-512.1
3707.195	-524.1
3709.919	-521.1
3712.64	-532.1
3715.359	-530.1
3718.076	-535.1
3720.792	-537.1
3723.505	-539.1
3726.216	-547.1
3728.925	-545.1
3731.632	-551.1
3734.336	-548.1
3737.039	-554.1
3739.74	-557.1
3742.439	-567.1
3745.136	-566.1
3747.83	-573.1
3750.523	-565.1
3753.213	-564.1
3755.902	-575.1
3758.589	-568.1
3761.273	-574.1
3763.956	-575.1
3766.636	-577.1
3769.315	-580.1
3771.991	-580.1
3774.665	-586.1
3777.338	-588.1
3780.008	-589.1
3782.677	-590.1
3785.343	-584.1
3788.007	-586.1
3790.67	-588.1
3793.33	-594.1
3795.989	-595.1
3798.645	-594.1
3801.299	-597.1
3803.952	-603.1
3806.602	-611.1
3809.251	-609.1
3811.897	-605.1
3814.542	-601.1
3817.184	-602.1
3819.825	-593.1
3822.463	-600.1
3825.1	-609.1
3827.735	-599.1
3830.367	-600.1
3832.998	-613.1
3835.627	-616.1
3838.253	-611.1
3840.878	-617.1
3843.501	-614.1
3846.122	-611.1
3848.741	-608.1
3851.358	-612.1
3853.973	-610.1
3856.586	-618.1
3859.197	-621.1
3861.806	-617.1
3864.414	-615.1
3867.019	-610.1
3869.622	-617.1
3872.224	-618.1
3874.823	-602.1
3877.421	-587.1
3880.016	-583.1
3882.61	-554.1
3885.202	-550.1
3887.792	-558.1
3890.38	-595.1
3892.966	-611.1
3895.55	-617.1
3898.132	-634.1
3900.713	-633.1
3903.291	-626.1
3905.868	-630.1
3908.442	-625.1
3911.015	-629.1
3913.586	-621.1
3916.155	-628.1
3918.722	-628.1
3921.287	-628.1
3923.85	-633.1
3926.411	-631.1
3928.971	-639.1
3931.528	-635.1
3934.084	-631.1
3936.638	-628.1
3939.19	-632.1
3941.74	-628.1
3944.288	-638.1
3946.834	-627.1
3949.378	-632.1
3951.921	-639.1
3954.462	-642.1
3957	-631.1
3959.537	-634.1
3962.072	-632.1
3964.606	-632.1
3967.137	-631.1
3969.667	-636.1
3972.194	-626.1
3974.72	-630.1
3977.244	-619.1
3979.766	-625.1
3982.286	-624.1
3984.805	-619.1
3987.321	-619.1
3989.836	-624.1
3992.349	-618.1
3994.86	-617.1
3997.369	-621.1
3999.877	-619.1
4002.382	-620.1
4004.886	-614.1
4007.388	-618.1
4009.888	-620.1
4012.386	-626.1
4014.883	-619.1
4017.377	-617.1
4019.87	-613.1
4022.361	-617.1
4024.85	-619.1
4027.338	-626.1
4029.823	-619.1
4032.307	-619.1
4034.789	-616.1
4037.269	-615.1
4039.747	-618.1
4042.224	-622.1
4044.699	-622.1
4047.172	-625.1
4049.643	-622.1
4052.112	-622.1
4054.58	-629.1
4057.046	-630.1
4059.51	-625.1
4061.972	-626.1
4064.432	-627.1
4066.891	-626.1
4069.348	-618.1
4071.803	-621.1
4074.256	-620.1
4076.708	-619.1
4079.158	-627.1
4081.606	-627.1
4084.052	-627.1
4086.497	-625.1
4088.939	-621.1
4091.38	-621.1
4093.819	-616.1
4096.257	-654.1
4098.693	-657.1
4101.127	-657.1
4103.559	-655.1
4105.989	-382.1
4108.418	-354.1
4110.845	-340.1
4113.27	-310.1
4115.694	-267.1
4118.115	-222.1
4120.535	-615.1
4122.954	-627.1
4125.37	-621.1
4127.785	-622.1
4130.198	-622.1
4132.609	-622.1
4135.019	-656.1
4137.427	-658.1
4139.833	-657.1
4142.237	-652.1
