Data from 2018-2-14_conc=4_n=10_RamanShift_02.txt Node
Date: Wed Feb 14 14:00:25 IST 2018
User: aro
Spectrometer: QEPB0276
Trigger mode: 0
Integration Time (sec): 3.000000E1
Scans to average: 1
Electric dark correction enabled: true
Nonlinearity correction enabled: false
Boxcar width: 0
XAxis mode: Raman Shifts
Number of Pixels in Spectrum: 1044
>>>>>Begin Spectral Data<<<<<
160.701	-117.6
166.742	42.4
172.777	487.4
178.805	1856.4
184.826	5055.4
190.841	10651.4
196.849	17030.4
202.85	21624.4
208.845	23176.4
214.833	22910.4
220.815	22512.4
226.789	22432.4
232.758	22358.4
238.719	22203.4
244.674	21912.4
250.623	21531.4
256.565	21112.4
262.5	20682.4
268.429	20333.4
274.351	20092.4
280.267	19764.4
286.176	19552.4
292.079	19423.4
297.975	19276.4
303.865	19099.4
309.748	18955.4
315.625	18875.4
321.495	18836.4
327.359	18730.4
333.217	18702.4
339.068	18673.4
344.912	18714.4
350.751	18686.4
356.583	18631.4
362.408	18671.4
368.227	18604.4
374.04	18666.4
379.847	18699.4
385.647	18827.4
391.44	18867.4
397.228	19022.4
403.009	18962.4
408.784	19093.4
414.553	19139.4
420.315	19258.4
426.071	19205.4
431.821	19164.4
437.565	19102.4
443.302	19127.4
449.033	19066.4
454.758	19069.4
460.477	18983.4
466.189	18864.4
471.896	18870.4
477.596	18771.4
483.29	18745.4
488.978	18725.4
494.66	18618.4
500.335	18493.4
506.005	18297.4
511.668	18000.4
517.325	17751.4
522.977	17592.4
528.622	17416.4
534.261	17282.4
539.894	17155.4
545.521	17102.4
551.141	17026.4
556.756	16965.4
562.365	16866.4
567.968	16849.4
573.565	16767.4
579.155	16681.4
584.74	16615.4
590.319	16553.4
595.892	16464.4
601.459	16430.4
607.02	16313.4
612.575	16212.4
618.124	16121.4
623.667	16045.4
629.204	15951.4
634.735	15829.4
640.261	15795.4
645.781	15718.4
651.294	15732.4
656.802	15680.4
662.304	15609.4
667.8	15653.4
673.29	15515.4
678.775	15519.4
684.254	15517.4
689.726	15438.4
695.193	15424.4
700.655	15290.4
706.11	15186.4
711.56	15140.4
717.004	15047.4
722.442	15008.4
727.874	14918.4
733.301	14910.4
738.722	14854.4
744.137	14814.4
749.547	14824.4
754.951	14780.4
760.349	14810.4
765.741	14819.4
771.128	14865.4
776.509	14845.4
781.885	14842.4
787.254	14822.4
792.618	14720.4
797.977	14637.4
803.33	14563.4
808.677	14521.4
814.019	14382.4
819.355	14336.4
824.686	14224.4
830.011	14242.4
835.33	14262.4
840.644	14194.4
845.952	14201.4
851.255	14270.4
856.552	14270.4
861.844	14180.4
867.13	14129.4
872.41	14148.4
877.686	14038.4
882.955	13903.4
888.219	13799.4
893.478	13658.4
898.731	13472.4
903.979	13332.4
909.221	13229.4
914.458	13180.4
919.69	13152.4
924.916	13224.4
930.136	13259.4
935.351	13283.4
940.561	13264.4
945.766	13265.4
950.965	13151.4
956.158	13086.4
961.347	12933.4
966.529	12792.4
971.707	12610.4
976.879	12429.4
982.046	12399.4
987.208	12282.4
992.364	12366.4
997.515	12396.4
1002.66	12505.4
1007.801	12660.4
1012.936	12738.4
1018.066	12720.4
1023.19	12685.4
1028.309	12734.4
1033.423	12656.4
1038.532	12638.4
1043.636	12498.4
1048.734	12346.4
1053.827	12182.4
1058.915	12064.4
1063.998	12020.4
1069.075	11947.4
1074.147	11924.4
1079.214	11985.4
1084.276	12072.4
1089.333	12156.4
1094.385	12121.4
1099.431	12195.4
1104.472	12197.4
1109.509	12170.4
1114.54	12000.4
1119.565	11850.4
1124.586	11709.4
1129.602	11534.4
1134.613	11524.4
1139.618	11382.4
1144.619	11420.4
1149.614	11375.4
1154.604	11410.4
1159.589	11411.4
1164.57	11476.4
1169.545	11503.4
1174.515	11464.4
1179.48	11384.4
1184.44	11333.4
1189.395	11241.4
1194.345	11143.4
1199.29	11124.4
1204.23	11079.4
1209.165	11125.4
1214.095	11181.4
1219.021	11242.4
1223.941	11276.4
1228.856	11357.4
1233.766	11419.4
1238.672	11419.4
1243.572	11394.4
1248.467	11258.4
1253.358	11175.4
1258.244	11049.4
1263.124	10860.4
1268	10716.4
1272.871	10533.4
1277.737	10489.4
1282.599	10382.4
1287.455	10448.4
1292.306	10403.4
1297.153	10466.4
1301.995	10510.4
1306.832	10511.4
1311.664	10495.4
1316.491	10476.4
1321.314	10427.4
1326.132	10247.4
1330.945	10010.4
1335.753	9803.4
1340.556	9555.4
1345.354	9420.4
1350.148	9244.4
1354.937	9145.4
1359.722	9087.4
1364.501	9123.4
1369.276	9162.4
1374.046	9268.4
1378.811	9328.4
1383.572	9404.4
1388.327	9455.4
1393.079	9415.4
1397.825	9363.4
1402.567	9221.4
1407.304	9120.4
1412.036	9036.4
1416.764	8992.4
1421.487	8963.4
1426.205	8904.4
1430.919	8894.4
1435.628	8896.4
1440.333	8893.4
1445.032	8901.4
1449.727	8943.4
1454.418	8955.4
1459.104	8813.4
1463.785	8655.4
1468.462	8462.4
1473.134	8307.4
1477.802	8163.4
1482.465	7978.4
1487.123	7894.4
1491.777	7875.4
1496.426	7839.4
1501.071	7937.4
1505.711	7996.4
1510.347	8072.4
1514.978	8228.4
1519.604	8336.4
1524.226	8400.4
1528.844	8430.4
1533.457	8416.4
1538.065	8390.4
1542.669	8304.4
1547.269	8271.4
1551.864	8221.4
1556.454	8181.4
1561.041	8218.4
1565.622	8211.4
1570.199	8223.4
1574.772	8275.4
1579.34	8340.4
1583.904	8426.4
1588.464	8439.4
1593.019	8470.4
1597.569	8444.4
1602.115	8333.4
1606.657	8352.4
1611.195	8224.4
1615.728	8171.4
1620.256	8167.4
1624.78	8158.4
1629.3	8160.4
1633.816	8196.4
1638.327	8201.4
1642.834	8245.4
1647.336	8277.4
1651.834	8295.4
1656.328	8236.4
1660.817	8223.4
1665.302	8094.4
1669.783	7940.4
1674.259	7801.4
1678.732	7553.4
1683.199	7278.4
1687.663	7047.4
1692.122	6836.4
1696.577	6736.4
1701.028	6668.4
1705.474	6605.4
1709.917	6703.4
1714.355	6686.4
1718.788	6676.4
1723.218	6585.4
1727.643	6481.4
1732.064	6398.4
1736.481	6231.4
1740.893	6081.4
1745.301	5901.4
1749.705	5767.4
1754.105	5606.4
1758.501	5429.4
1762.893	5278.4
1767.28	5156.4
1771.663	4997.4
1776.042	4974.4
1780.417	4921.4
1784.787	4894.4
1789.154	4920.4
1793.516	4992.4
1797.874	5061.4
1802.228	5118.4
1806.578	5195.4
1810.924	5186.4
1815.266	5123.4
1819.603	5095.4
1823.937	4996.4
1828.266	4934.4
1832.591	4865.4
1836.913	4828.4
1841.23	4748.4
1845.543	4735.4
1849.852	4694.4
1854.156	4697.4
1858.457	4683.4
1862.754	4682.4
1867.047	4687.4
1871.335	4668.4
1875.62	4668.4
1879.9	4634.4
1884.177	4596.4
1888.449	4578.4
1892.718	4523.4
1896.982	4463.4
1901.243	4405.4
1905.499	4351.4
1909.752	4367.4
1914	4350.4
1918.245	4366.4
1922.485	4411.4
1926.722	4398.4
1930.954	4451.4
1935.183	4534.4
1939.408	4564.4
1943.628	4570.4
1947.845	4603.4
1952.058	4570.4
1956.267	4544.4
1960.472	4463.4
1964.673	4439.4
1968.87	4356.4
1973.063	4283.4
1977.252	4216.4
1981.438	4174.4
1985.619	4146.4
1989.797	4123.4
1993.971	4088.4
1998.14	4076.4
2002.306	4046.4
2006.469	4023.4
2010.627	4022.4
2014.781	3974.4
2018.932	3947.4
2023.078	3922.4
2027.221	3869.4
2031.36	3807.4
2035.495	3771.4
2039.627	3701.4
2043.754	3607.4
2047.878	3584.4
2051.998	3582.4
2056.114	3562.4
2060.226	3569.4
2064.334	3551.4
2068.439	3585.4
2072.54	3597.4
2076.637	3609.4
2080.73	3655.4
2084.82	3653.4
2088.906	3666.4
2092.988	3690.4
2097.066	3634.4
2101.14	3626.4
2105.211	3585.4
2109.278	3568.4
2113.342	3544.4
2117.401	3551.4
2121.457	3516.4
2125.509	3507.4
2129.558	3472.4
2133.602	3444.4
2137.643	3443.4
2141.681	3432.4
2145.714	3416.4
2149.744	3391.4
2153.77	3340.4
2157.793	3358.4
2161.812	3273.4
2165.827	3230.4
2169.838	3188.4
2173.846	3131.4
2177.851	3101.4
2181.851	3065.4
2185.848	3003.4
2189.841	2968.4
2193.831	2931.4
2197.817	2913.4
2201.799	2889.4
2205.778	2879.4
2209.753	2874.4
2213.725	2877.4
2217.693	2861.4
2221.657	2863.4
2225.618	2849.4
2229.575	2841.4
2233.529	2809.4
2237.479	2784.4
2241.425	2734.4
2245.368	2718.4
2249.307	2666.4
2253.243	2598.4
2257.175	2617.4
2261.104	2550.4
2265.029	2530.4
2268.95	2485.4
2272.868	2470.4
2276.783	2446.4
2280.694	2423.4
2284.601	2396.4
2288.505	2374.4
2292.405	2331.4
2296.302	2346.4
2300.195	2292.4
2304.085	2288.4
2307.971	2250.4
2311.854	2219.4
2315.734	2189.4
2319.609	2160.4
2323.482	2133.4
2327.351	2101.4
2331.216	2088.4
2335.078	2080.4
2338.937	2072.4
2342.792	2033.4
2346.643	2049.4
2350.492	2064.4
2354.336	2054.4
2358.178	2056.4
2362.015	2072.4
2365.85	2080.4
2369.681	2083.4
2373.508	2068.4
2377.333	2074.4
2381.153	2068.4
2384.971	2084.4
2388.785	2032.4
2392.595	2018.4
2396.402	2014.4
2400.206	1994.4
2404.007	1978.4
2407.804	1978.4
2411.597	1970.4
2415.388	1943.4
2419.174	1941.4
2422.958	1914.4
2426.738	1914.4
2430.515	1898.4
2434.289	1883.4
2438.059	1856.4
2441.825	1832.4
2445.589	1822.4
2449.349	1821.4
2453.106	1781.4
2456.859	1751.4
2460.61	1756.4
2464.356	1706.4
2468.1	1676.4
2471.84	1664.4
2475.577	1656.4
2479.311	1632.4
2483.041	1639.4
2486.768	1624.4
2490.492	1633.4
2494.213	1622.4
2497.93	1602.4
2501.644	1608.4
2505.355	1584.4
2509.062	1577.4
2512.766	1563.4
2516.467	1575.4
2520.165	1563.4
2523.859	1550.4
2527.551	1529.4
2531.239	1511.4
2534.923	1526.4
2538.605	1510.4
2542.283	1506.4
2545.958	1499.4
2549.63	1497.4
2553.299	1482.4
2556.964	1485.4
2560.626	1476.4
2564.285	1474.4
2567.941	1469.4
2571.594	1435.4
2575.243	1445.4
2578.89	1429.4
2582.533	1406.4
2586.173	1409.4
2589.809	1388.4
2593.443	1375.4
2597.073	1372.4
2600.701	1364.4
2604.325	1346.4
2607.946	1349.4
2611.564	1331.4
2615.178	1322.4
2618.79	1313.4
2622.398	1291.4
2626.004	1273.4
2629.606	1266.4
2633.205	1251.4
2636.801	1223.4
2640.394	1219.4
2643.983	1183.4
2647.57	1169.4
2651.153	1157.4
2654.734	1137.4
2658.311	1106.4
2661.885	1109.4
2665.456	1078.4
2669.025	1079.4
2672.589	1060.4
2676.151	1049.4
2679.71	1060.4
2683.266	1019.4
2686.819	992.4
2690.368	973.4
2693.915	959.4
2697.458	930.4
2700.999	895.4
2704.536	897.4
2708.071	873.4
2711.602	841.4
2715.13	828.4
2718.656	807.4
2722.178	805.4
2725.697	768.4
2729.214	773.4
2732.727	778.4
2736.237	767.4
2739.744	755.4
2743.249	760.4
2746.75	776.4
2750.248	763.4
2753.743	777.4
2757.236	793.4
2760.725	777.4
2764.211	787.4
2767.695	796.4
2771.175	787.4
2774.652	780.4
2778.127	801.4
2781.598	787.4
2785.067	769.4
2788.532	776.4
2791.995	764.4
2795.455	779.4
2798.911	773.4
2802.365	774.4
2805.816	782.4
2809.264	778.4
2812.709	766.4
2816.151	788.4
2819.59	765.4
2823.026	767.4
2826.46	779.4
2829.89	767.4
2833.318	787.4
2836.742	792.4
2840.164	797.4
2843.583	786.4
2846.999	809.4
2850.412	811.4
2853.822	813.4
2857.229	828.4
2860.634	861.4
2864.035	867.4
2867.434	881.4
2870.83	908.4
2874.223	907.4
2877.613	921.4
2881	944.4
2884.385	926.4
2887.766	947.4
2891.145	954.4
2894.521	929.4
2897.894	960.4
2901.264	950.4
2904.631	938.4
2907.996	942.4
2911.358	938.4
2914.717	957.4
2918.073	978.4
2921.426	978.4
2924.777	978.4
2928.124	999.4
2931.469	1013.4
2934.811	1043.4
2938.15	1062.4
2941.487	1069.4
2944.821	1059.4
2948.152	1054.4
2951.48	1049.4
2954.805	1048.4
2958.128	1049.4
2961.447	1011.4
2964.765	1000.4
2968.079	1021.4
2971.39	1022.4
2974.699	1041.4
2978.005	1048.4
2981.308	1099.4
2984.609	1106.4
2987.907	1122.4
2991.202	1107.4
2994.494	1153.4
2997.784	1191.4
3001.07	1189.4
3004.355	1204.4
3007.636	1254.4
3010.915	1246.4
3014.191	1273.4
3017.464	1271.4
3020.734	1266.4
3024.002	1300.4
3027.267	1321.4
3030.53	1313.4
3033.789	1329.4
3037.046	1352.4
3040.301	1380.4
3043.552	1399.4
3046.801	1430.4
3050.048	1465.4
3053.291	1496.4
3056.532	1552.4
3059.771	1605.4
3063.006	1640.4
3066.239	1677.4
3069.469	1739.4
3072.697	1798.4
3075.922	1841.4
3079.144	1872.4
3082.364	1898.4
3085.581	1946.4
3088.795	1984.4
3092.007	2057.4
3095.216	2084.4
3098.423	2133.4
3101.627	2175.4
3104.828	2227.4
3108.026	2274.4
3111.222	2326.4
3114.416	2397.4
3117.607	2424.4
3120.795	2497.4
3123.98	2574.4
3127.163	2576.4
3130.344	2693.4
3133.521	2740.4
3136.696	2790.4
3139.869	2842.4
3143.039	2922.4
3146.206	2943.4
3149.371	3005.4
3152.533	3025.4
3155.693	3033.4
3158.85	3066.4
3162.005	3049.4
3165.157	3082.4
3168.306	3095.4
3171.453	3068.4
3174.597	3103.4
3177.739	3095.4
3180.878	3119.4
3184.014	3121.4
3187.149	3079.4
3190.28	3135.4
3193.409	3099.4
3196.536	3113.4
3199.659	3122.4
3202.781	3153.4
3205.9	3156.4
3209.016	3140.4
3212.13	3120.4
3215.241	3081.4
3218.35	3059.4
3221.456	3002.4
3224.56	3000.4
3227.661	2959.4
3230.76	2933.4
3233.856	2921.4
3236.95	2849.4
3240.041	2842.4
3243.13	2818.4
3246.216	2787.4
3249.3	2779.4
3252.382	2775.4
3255.46	2745.4
3258.537	2738.4
3261.611	2739.4
3264.682	2741.4
3267.751	2738.4
3270.818	2757.4
3273.882	2715.4
3276.943	2728.4
3280.002	2711.4
3283.059	2675.4
3286.113	2655.4
3289.165	2619.4
3292.214	2578.4
3295.261	2505.4
3298.306	2487.4
3301.348	2459.4
3304.387	2417.4
3307.425	2358.4
3310.459	2354.4
3313.492	2294.4
3316.521	2271.4
3319.549	2268.4
3322.574	2243.4
3325.597	2206.4
3328.617	2186.4
3331.635	2197.4
3334.65	2196.4
3337.663	2170.4
3340.674	2156.4
3343.682	2166.4
3346.688	2149.4
3349.691	2132.4
3352.692	2121.4
3355.691	2086.4
3358.687	2105.4
3361.681	2033.4
3364.673	2057.4
3367.662	1998.4
3370.649	1970.4
3373.633	1936.4
3376.615	1912.4
3379.595	1887.4
3382.572	1882.4
3385.547	1827.4
3388.52	1804.4
3391.49	1778.4
3394.458	1766.4
3397.424	1726.4
3400.387	1694.4
3403.348	1668.4
3406.307	1668.4
3409.263	1647.4
3412.217	1638.4
3415.168	1597.4
3418.118	1588.4
3421.065	1574.4
3424.009	1533.4
3426.951	1509.4
3429.891	1484.4
3432.829	1451.4
3435.764	1401.4
3438.697	1378.4
3441.628	1334.4
3444.557	1306.4
3447.483	1247.4
3450.407	1215.4
3453.328	1181.4
3456.247	1137.4
3459.164	1111.4
3462.079	1032.4
3464.991	1009.4
3467.902	968.4
3470.809	927.4
3473.715	892.4
3476.618	852.4
3479.519	827.4
3482.418	799.4
3485.315	780.4
3488.209	747.4
3491.101	709.4
3493.99	675.4
3496.878	657.4
3499.763	646.4
3502.646	611.4
3505.527	570.4
3508.405	554.4
3511.281	519.4
3514.155	472.4
3517.027	454.4
3519.897	425.4
3522.764	392.4
3525.629	360.4
3528.492	321.4
3531.352	299.4
3534.211	254.4
3537.067	221.4
3539.921	206.4
3542.773	176.4
3545.622	147.4
3548.469	135.4
3551.315	108.4
3554.157	91.4
3556.998	58.4
3559.837	45.4
3562.673	21.4
3565.507	8.4
3568.339	-9.6
3571.169	-26.6
3573.996	-40.6
3576.822	-48.6
3579.645	-69.6
3582.466	-87.6
3585.285	-104.6
3588.101	-123.6
3590.916	-132.6
3593.728	-149.6
3596.538	-170.6
3599.346	-176.6
3602.152	-198.6
3604.956	-201.6
3607.757	-211.6
3610.556	-224.6
3613.354	-239.6
3616.149	-250.6
3618.942	-259.6
3621.732	-267.6
3624.521	-271.6
3627.307	-280.6
3630.092	-288.6
3632.874	-305.6
3635.654	-306.6
3638.432	-314.6
3641.208	-322.6
3643.982	-337.6
3646.753	-329.6
3649.523	-341.6
3652.29	-350.6
3655.055	-346.6
3657.818	-369.6
3660.579	-370.6
3663.338	-380.6
3666.095	-391.6
3668.849	-397.6
3671.602	-399.6
3674.352	-405.6
3677.101	-411.6
3679.847	-420.6
3682.591	-418.6
3685.333	-433.6
3688.073	-430.6
3690.811	-438.6
3693.547	-436.6
3696.281	-444.6
3699.013	-445.6
3701.742	-449.6
3704.47	-452.6
3707.195	-467.6
3709.919	-456.6
3712.64	-465.6
3715.359	-474.6
3718.076	-474.6
3720.792	-470.6
3723.505	-476.6
3726.216	-477.6
3728.925	-473.6
3731.632	-478.6
3734.336	-490.6
3737.039	-493.6
3739.74	-484.6
3742.439	-492.6
3745.136	-494.6
3747.83	-498.6
3750.523	-492.6
3753.213	-504.6
3755.902	-499.6
3758.589	-504.6
3761.273	-500.6
3763.956	-512.6
3766.636	-509.6
3769.315	-511.6
3771.991	-507.6
3774.665	-514.6
3777.338	-513.6
3780.008	-510.6
3782.677	-513.6
3785.343	-513.6
3788.007	-518.6
3790.67	-516.6
3793.33	-519.6
3795.989	-520.6
3798.645	-517.6
3801.299	-520.6
3803.952	-526.6
3806.602	-532.6
3809.251	-530.6
3811.897	-525.6
3814.542	-527.6
3817.184	-529.6
3819.825	-518.6
3822.463	-521.6
3825.1	-528.6
3827.735	-523.6
3830.367	-522.6
3832.998	-537.6
3835.627	-533.6
3838.253	-532.6
3840.878	-539.6
3843.501	-531.6
3846.122	-526.6
3848.741	-532.6
3851.358	-533.6
3853.973	-534.6
3856.586	-534.6
3859.197	-537.6
3861.806	-540.6
3864.414	-534.6
3867.019	-531.6
3869.622	-533.6
3872.224	-533.6
3874.823	-521.6
3877.421	-506.6
3880.016	-486.6
3882.61	-462.6
3885.202	-469.6
3887.792	-477.6
3890.38	-508.6
3892.966	-520.6
3895.55	-534.6
3898.132	-544.6
3900.713	-547.6
3903.291	-539.6
3905.868	-547.6
3908.442	-543.6
3911.015	-548.6
3913.586	-540.6
3916.155	-539.6
3918.722	-547.6
3921.287	-540.6
3923.85	-549.6
3926.411	-552.6
3928.971	-553.6
3931.528	-548.6
3934.084	-547.6
3936.638	-547.6
3939.19	-546.6
3941.74	-547.6
3944.288	-549.6
3946.834	-540.6
3949.378	-550.6
3951.921	-545.6
3954.462	-551.6
3957	-544.6
3959.537	-547.6
3962.072	-549.6
3964.606	-545.6
3967.137	-545.6
3969.667	-550.6
3972.194	-542.6
3974.72	-544.6
3977.244	-538.6
3979.766	-534.6
3982.286	-540.6
3984.805	-539.6
3987.321	-540.6
3989.836	-538.6
3992.349	-535.6
3994.86	-534.6
3997.369	-543.6
3999.877	-537.6
4002.382	-532.6
4004.886	-536.6
4007.388	-531.6
4009.888	-533.6
4012.386	-534.6
4014.883	-531.6
4017.377	-533.6
4019.87	-528.6
4022.361	-534.6
4024.85	-535.6
4027.338	-537.6
4029.823	-536.6
4032.307	-541.6
4034.789	-530.6
4037.269	-534.6
4039.747	-542.6
4042.224	-538.6
4044.699	-536.6
4047.172	-538.6
4049.643	-537.6
4052.112	-543.6
4054.58	-545.6
4057.046	-540.6
4059.51	-542.6
4061.972	-540.6
4064.432	-539.6
4066.891	-534.6
4069.348	-535.6
4071.803	-537.6
4074.256	-537.6
4076.708	-537.6
4079.158	-539.6
4081.606	-540.6
4084.052	-546.6
4086.497	-540.6
4088.939	-534.6
4091.38	-539.6
4093.819	-531.6
4096.257	-563.6
4098.693	-567.6
4101.127	-568.6
4103.559	-566.6
4105.989	-321.6
4108.418	-293.6
4110.845	-280.6
4113.27	-262.6
4115.694	-234.6
4118.115	-199.6
4120.535	-532.6
4122.954	-538.6
4125.37	-527.6
4127.785	-540.6
4130.198	-536.6
4132.609	-544.6
4135.019	-567.6
4137.427	-569.6
4139.833	-570.6
4142.237	-560.6
