Data from 2018-2-14_conc=4_n=3_RamanShift_05.txt Node
Date: Wed Feb 14 13:34:55 IST 2018
User: aro
Spectrometer: QEPB0276
Trigger mode: 0
Integration Time (sec): 3.000000E1
Scans to average: 1
Electric dark correction enabled: true
Nonlinearity correction enabled: false
Boxcar width: 0
XAxis mode: Raman Shifts
Number of Pixels in Spectrum: 1044
>>>>>Begin Spectral Data<<<<<
160.701	-151.9
166.742	37.1
172.777	614.1
178.805	2336.1
184.826	6519.1
190.841	13607.1
196.849	21820.1
202.85	27610.1
208.845	29397.1
214.833	29070.1
220.815	28465.1
226.789	28241.1
232.758	28037.1
238.719	27756.1
244.674	27311.1
250.623	26785.1
256.565	26169.1
262.5	25538.1
268.429	25044.1
274.351	24553.1
280.267	24241.1
286.176	23857.1
292.079	23603.1
297.975	23368.1
303.865	23130.1
309.748	22961.1
315.625	22805.1
321.495	22652.1
327.359	22542.1
333.217	22457.1
339.068	22408.1
344.912	22370.1
350.751	22353.1
356.583	22311.1
362.408	22337.1
368.227	22334.1
374.04	22315.1
379.847	22334.1
385.647	22463.1
391.44	22586.1
397.228	22740.1
403.009	22718.1
408.784	22803.1
414.553	22829.1
420.315	22949.1
426.071	22980.1
431.821	23014.1
437.565	22909.1
443.302	22878.1
449.033	22843.1
454.758	22806.1
460.477	22748.1
466.189	22650.1
471.896	22665.1
477.596	22528.1
483.29	22519.1
488.978	22485.1
494.66	22360.1
500.335	22253.1
506.005	21996.1
511.668	21761.1
517.325	21448.1
522.977	21210.1
528.622	21084.1
534.261	20851.1
539.894	20796.1
545.521	20722.1
551.141	20595.1
556.756	20486.1
562.365	20420.1
567.968	20385.1
573.565	20256.1
579.155	20220.1
584.74	20147.1
590.319	20007.1
595.892	19944.1
601.459	19927.1
607.02	19798.1
612.575	19683.1
618.124	19525.1
623.667	19416.1
629.204	19256.1
634.735	19183.1
640.261	19181.1
645.781	19100.1
651.294	19023.1
656.802	18986.1
662.304	18996.1
667.8	18936.1
673.29	18922.1
678.775	18860.1
684.254	18803.1
689.726	18747.1
695.193	18647.1
700.655	18585.1
706.11	18477.1
711.56	18401.1
717.004	18273.1
722.442	18190.1
727.874	18169.1
733.301	18140.1
738.722	17998.1
744.137	17970.1
749.547	17982.1
754.951	17995.1
760.349	17983.1
765.741	18030.1
771.128	18038.1
776.509	18026.1
781.885	18000.1
787.254	17998.1
792.618	17877.1
797.977	17769.1
803.33	17699.1
808.677	17627.1
814.019	17461.1
819.355	17377.1
824.686	17313.1
830.011	17298.1
835.33	17306.1
840.644	17278.1
845.952	17314.1
851.255	17334.1
856.552	17394.1
861.844	17321.1
867.13	17297.1
872.41	17173.1
877.686	17098.1
882.955	17003.1
888.219	16808.1
893.478	16647.1
898.731	16418.1
903.979	16218.1
909.221	16147.1
914.458	16046.1
919.69	16143.1
924.916	16067.1
930.136	16198.1
935.351	16197.1
940.561	16160.1
945.766	16128.1
950.965	16073.1
956.158	15985.1
961.347	15756.1
966.529	15569.1
971.707	15375.1
976.879	15164.1
982.046	15050.1
987.208	15044.1
992.364	15020.1
997.515	15179.1
1002.66	15201.1
1007.801	15448.1
1012.936	15559.1
1018.066	15568.1
1023.19	15603.1
1028.309	15559.1
1033.423	15482.1
1038.532	15471.1
1043.636	15271.1
1048.734	15133.1
1053.827	14934.1
1058.915	14783.1
1063.998	14647.1
1069.075	14610.1
1074.147	14629.1
1079.214	14658.1
1084.276	14727.1
1089.333	14860.1
1094.385	14892.1
1099.431	14962.1
1104.472	15005.1
1109.509	14873.1
1114.54	14770.1
1119.565	14485.1
1124.586	14362.1
1129.602	14159.1
1134.613	14110.1
1139.618	14029.1
1144.619	13981.1
1149.614	14015.1
1154.604	14009.1
1159.589	14016.1
1164.57	14093.1
1169.545	14112.1
1174.515	14076.1
1179.48	14045.1
1184.44	13932.1
1189.395	13838.1
1194.345	13728.1
1199.29	13650.1
1204.23	13679.1
1209.165	13723.1
1214.095	13762.1
1219.021	13866.1
1223.941	13914.1
1228.856	14006.1
1233.766	14062.1
1238.672	14088.1
1243.572	14077.1
1248.467	13993.1
1253.358	13829.1
1258.244	13632.1
1263.124	13458.1
1268	13289.1
1272.871	13081.1
1277.737	13013.1
1282.599	12918.1
1287.455	12898.1
1292.306	12935.1
1297.153	12970.1
1301.995	13072.1
1306.832	13109.1
1311.664	13135.1
1316.491	13075.1
1321.314	12940.1
1326.132	12811.1
1330.945	12533.1
1335.753	12183.1
1340.556	11897.1
1345.354	11628.1
1350.148	11424.1
1354.937	11371.1
1359.722	11347.1
1364.501	11417.1
1369.276	11566.1
1374.046	11738.1
1378.811	11953.1
1383.572	12037.1
1388.327	12064.1
1393.079	11987.1
1397.825	11886.1
1402.567	11664.1
1407.304	11526.1
1412.036	11434.1
1416.764	11342.1
1421.487	11229.1
1426.205	11190.1
1430.919	11139.1
1435.628	11110.1
1440.333	11154.1
1445.032	11162.1
1449.727	11272.1
1454.418	11242.1
1459.104	11087.1
1463.785	10923.1
1468.462	10658.1
1473.134	10432.1
1477.802	10219.1
1482.465	10072.1
1487.123	9951.1
1491.777	9954.1
1496.426	9994.1
1501.071	10104.1
1505.711	10292.1
1510.347	10442.1
1514.978	10668.1
1519.604	10799.1
1524.226	10919.1
1528.844	10900.1
1533.457	10891.1
1538.065	10862.1
1542.669	10760.1
1547.269	10686.1
1551.864	10656.1
1556.454	10601.1
1561.041	10574.1
1565.622	10620.1
1570.199	10611.1
1574.772	10607.1
1579.34	10760.1
1583.904	10841.1
1588.464	10862.1
1593.019	10851.1
1597.569	10848.1
1602.115	10797.1
1606.657	10699.1
1611.195	10660.1
1615.728	10602.1
1620.256	10585.1
1624.78	10566.1
1629.3	10593.1
1633.816	10626.1
1638.327	10660.1
1642.834	10742.1
1647.336	10786.1
1651.834	10805.1
1656.328	10753.1
1660.817	10738.1
1665.302	10593.1
1669.783	10421.1
1674.259	10186.1
1678.732	9857.1
1683.199	9540.1
1687.663	9206.1
1692.122	8940.1
1696.577	8804.1
1701.028	8783.1
1705.474	8774.1
1709.917	8925.1
1714.355	8929.1
1718.788	8819.1
1723.218	8710.1
1727.643	8514.1
1732.064	8392.1
1736.481	8193.1
1740.893	7989.1
1745.301	7741.1
1749.705	7560.1
1754.105	7349.1
1758.501	7107.1
1762.893	6934.1
1767.28	6773.1
1771.663	6631.1
1776.042	6478.1
1780.417	6476.1
1784.787	6443.1
1789.154	6558.1
1793.516	6679.1
1797.874	6777.1
1802.228	6911.1
1806.578	6953.1
1810.924	6958.1
1815.266	6902.1
1819.603	6789.1
1823.937	6689.1
1828.266	6556.1
1832.591	6442.1
1836.913	6339.1
1841.23	6303.1
1845.543	6275.1
1849.852	6279.1
1854.156	6222.1
1858.457	6170.1
1862.754	6196.1
1867.047	6179.1
1871.335	6205.1
1875.62	6163.1
1879.9	6148.1
1884.177	6088.1
1888.449	6053.1
1892.718	5983.1
1896.982	5957.1
1901.243	5888.1
1905.499	5812.1
1909.752	5838.1
1914	5837.1
1918.245	5866.1
1922.485	5892.1
1926.722	5950.1
1930.954	6028.1
1935.183	6135.1
1939.408	6192.1
1943.628	6204.1
1947.845	6249.1
1952.058	6197.1
1956.267	6173.1
1960.472	6085.1
1964.673	5971.1
1968.87	5897.1
1973.063	5801.1
1977.252	5750.1
1981.438	5703.1
1985.619	5614.1
1989.797	5558.1
1993.971	5549.1
1998.14	5512.1
2002.306	5497.1
2006.469	5454.1
2010.627	5463.1
2014.781	5425.1
2018.932	5388.1
2023.078	5354.1
2027.221	5232.1
2031.36	5178.1
2035.495	5106.1
2039.627	5057.1
2043.754	5009.1
2047.878	4906.1
2051.998	4919.1
2056.114	4841.1
2060.226	4864.1
2064.334	4896.1
2068.439	4902.1
2072.54	4942.1
2076.637	4980.1
2080.73	5015.1
2084.82	4996.1
2088.906	5036.1
2092.988	5038.1
2097.066	5014.1
2101.14	4988.1
2105.211	4978.1
2109.278	4950.1
2113.342	4879.1
2117.401	4881.1
2121.457	4827.1
2125.509	4877.1
2129.558	4806.1
2133.602	4801.1
2137.643	4736.1
2141.681	4744.1
2145.714	4724.1
2149.744	4681.1
2153.77	4631.1
2157.793	4575.1
2161.812	4513.1
2165.827	4465.1
2169.838	4371.1
2173.846	4327.1
2177.851	4249.1
2181.851	4205.1
2185.848	4142.1
2189.841	4107.1
2193.831	4042.1
2197.817	4026.1
2201.799	3987.1
2205.778	3973.1
2209.753	3960.1
2213.725	3950.1
2217.693	3908.1
2221.657	3944.1
2225.618	3903.1
2229.575	3924.1
2233.529	3866.1
2237.479	3836.1
2241.425	3793.1
2245.368	3772.1
2249.307	3703.1
2253.243	3635.1
2257.175	3578.1
2261.104	3538.1
2265.029	3507.1
2268.95	3459.1
2272.868	3422.1
2276.783	3393.1
2280.694	3324.1
2284.601	3332.1
2288.505	3286.1
2292.405	3250.1
2296.302	3234.1
2300.195	3191.1
2304.085	3147.1
2307.971	3100.1
2311.854	3062.1
2315.734	3029.1
2319.609	2966.1
2323.482	2920.1
2327.351	2904.1
2331.216	2883.1
2335.078	2883.1
2338.937	2855.1
2342.792	2814.1
2346.643	2825.1
2350.492	2825.1
2354.336	2811.1
2358.178	2813.1
2362.015	2844.1
2365.85	2843.1
2369.681	2822.1
2373.508	2836.1
2377.333	2835.1
2381.153	2836.1
2384.971	2815.1
2388.785	2789.1
2392.595	2739.1
2396.402	2720.1
2400.206	2712.1
2404.007	2682.1
2407.804	2670.1
2411.597	2668.1
2415.388	2617.1
2419.174	2613.1
2422.958	2584.1
2426.738	2566.1
2430.515	2566.1
2434.289	2543.1
2438.059	2531.1
2441.825	2487.1
2445.589	2478.1
2449.349	2467.1
2453.106	2419.1
2456.859	2375.1
2460.61	2375.1
2464.356	2348.1
2468.1	2304.1
2471.84	2267.1
2475.577	2257.1
2479.311	2260.1
2483.041	2230.1
2486.768	2225.1
2490.492	2206.1
2494.213	2218.1
2497.93	2202.1
2501.644	2197.1
2505.355	2175.1
2509.062	2175.1
2512.766	2148.1
2516.467	2157.1
2520.165	2142.1
2523.859	2111.1
2527.551	2127.1
2531.239	2118.1
2534.923	2105.1
2538.605	2076.1
2542.283	2098.1
2545.958	2063.1
2549.63	2089.1
2553.299	2078.1
2556.964	2077.1
2560.626	2066.1
2564.285	2056.1
2567.941	2027.1
2571.594	2004.1
2575.243	2012.1
2578.89	2003.1
2582.533	1979.1
2586.173	1929.1
2589.809	1963.1
2593.443	1956.1
2597.073	1927.1
2600.701	1897.1
2604.325	1876.1
2607.946	1874.1
2611.564	1864.1
2615.178	1861.1
2618.79	1842.1
2622.398	1837.1
2626.004	1811.1
2629.606	1802.1
2633.205	1763.1
2636.801	1737.1
2640.394	1713.1
2643.983	1678.1
2647.57	1666.1
2651.153	1623.1
2654.734	1595.1
2658.311	1599.1
2661.885	1554.1
2665.456	1531.1
2669.025	1529.1
2672.589	1515.1
2676.151	1495.1
2679.71	1467.1
2683.266	1464.1
2686.819	1429.1
2690.368	1385.1
2693.915	1348.1
2697.458	1364.1
2700.999	1314.1
2704.536	1285.1
2708.071	1259.1
2711.602	1230.1
2715.13	1205.1
2718.656	1184.1
2722.178	1157.1
2725.697	1140.1
2729.214	1124.1
2732.727	1132.1
2736.237	1122.1
2739.744	1106.1
2743.249	1131.1
2746.75	1148.1
2750.248	1158.1
2753.743	1173.1
2757.236	1192.1
2760.725	1187.1
2764.211	1205.1
2767.695	1204.1
2771.175	1193.1
2774.652	1179.1
2778.127	1184.1
2781.598	1151.1
2785.067	1162.1
2788.532	1147.1
2791.995	1140.1
2795.455	1148.1
2798.911	1149.1
2802.365	1163.1
2805.816	1142.1
2809.264	1168.1
2812.709	1168.1
2816.151	1163.1
2819.59	1163.1
2823.026	1173.1
2826.46	1172.1
2829.89	1162.1
2833.318	1176.1
2836.742	1175.1
2840.164	1189.1
2843.583	1187.1
2846.999	1212.1
2850.412	1220.1
2853.822	1234.1
2857.229	1241.1
2860.634	1253.1
2864.035	1284.1
2867.434	1308.1
2870.83	1353.1
2874.223	1360.1
2877.613	1393.1
2881	1394.1
2884.385	1398.1
2887.766	1413.1
2891.145	1404.1
2894.521	1401.1
2897.894	1418.1
2901.264	1400.1
2904.631	1389.1
2907.996	1396.1
2911.358	1413.1
2914.717	1432.1
2918.073	1439.1
2921.426	1454.1
2924.777	1469.1
2928.124	1494.1
2931.469	1520.1
2934.811	1560.1
2938.15	1559.1
2941.487	1606.1
2944.821	1589.1
2948.152	1580.1
2951.48	1583.1
2954.805	1562.1
2958.128	1550.1
2961.447	1558.1
2964.765	1545.1
2968.079	1547.1
2971.39	1568.1
2974.699	1561.1
2978.005	1596.1
2981.308	1622.1
2984.609	1649.1
2987.907	1685.1
2991.202	1716.1
2994.494	1748.1
2997.784	1784.1
3001.07	1835.1
3004.355	1849.1
3007.636	1875.1
3010.915	1883.1
3014.191	1915.1
3017.464	1920.1
3020.734	1945.1
3024.002	1950.1
3027.267	1964.1
3030.53	1992.1
3033.789	2017.1
3037.046	2036.1
3040.301	2059.1
3043.552	2092.1
3046.801	2129.1
3050.048	2192.1
3053.291	2247.1
3056.532	2295.1
3059.771	2363.1
3063.006	2421.1
3066.239	2496.1
3069.469	2567.1
3072.697	2650.1
3075.922	2708.1
3079.144	2776.1
3082.364	2843.1
3085.581	2897.1
3088.795	2950.1
3092.007	3012.1
3095.216	3062.1
3098.423	3124.1
3101.627	3211.1
3104.828	3282.1
3108.026	3346.1
3111.222	3457.1
3114.416	3509.1
3117.607	3596.1
3120.795	3660.1
3123.98	3730.1
3127.163	3856.1
3130.344	3936.1
3133.521	4032.1
3136.696	4119.1
3139.869	4201.1
3143.039	4286.1
3146.206	4327.1
3149.371	4369.1
3152.533	4414.1
3155.693	4454.1
3158.85	4474.1
3162.005	4467.1
3165.157	4508.1
3168.306	4554.1
3171.453	4539.1
3174.597	4546.1
3177.739	4559.1
3180.878	4563.1
3184.014	4547.1
3187.149	4556.1
3190.28	4571.1
3193.409	4597.1
3196.536	4587.1
3199.659	4612.1
3202.781	4595.1
3205.9	4600.1
3209.016	4588.1
3212.13	4549.1
3215.241	4521.1
3218.35	4509.1
3221.456	4476.1
3224.56	4439.1
3227.661	4357.1
3230.76	4320.1
3233.856	4252.1
3236.95	4200.1
3240.041	4211.1
3243.13	4154.1
3246.216	4141.1
3249.3	4110.1
3252.382	4100.1
3255.46	4099.1
3258.537	4051.1
3261.611	4081.1
3264.682	4075.1
3267.751	4060.1
3270.818	4054.1
3273.882	4035.1
3276.943	4006.1
3280.002	3990.1
3283.059	3996.1
3286.113	3919.1
3289.165	3888.1
3292.214	3787.1
3295.261	3757.1
3298.306	3708.1
3301.348	3657.1
3304.387	3575.1
3307.425	3524.1
3310.459	3484.1
3313.492	3432.1
3316.521	3398.1
3319.549	3348.1
3322.574	3275.1
3325.597	3285.1
3328.617	3277.1
3331.635	3243.1
3334.65	3212.1
3337.663	3200.1
3340.674	3191.1
3343.682	3195.1
3346.688	3185.1
3349.691	3148.1
3352.692	3137.1
3355.691	3100.1
3358.687	3088.1
3361.681	3057.1
3364.673	2989.1
3367.662	2972.1
3370.649	2920.1
3373.633	2897.1
3376.615	2874.1
3379.595	2797.1
3382.572	2779.1
3385.547	2716.1
3388.52	2703.1
3391.49	2632.1
3394.458	2609.1
3397.424	2560.1
3400.387	2518.1
3403.348	2511.1
3406.307	2468.1
3409.263	2448.1
3412.217	2433.1
3415.168	2383.1
3418.118	2359.1
3421.065	2330.1
3424.009	2327.1
3426.951	2274.1
3429.891	2228.1
3432.829	2187.1
3435.764	2109.1
3438.697	2091.1
3441.628	2015.1
3444.557	1964.1
3447.483	1918.1
3450.407	1842.1
3453.328	1782.1
3456.247	1716.1
3459.164	1655.1
3462.079	1610.1
3464.991	1551.1
3467.902	1491.1
3470.809	1448.1
3473.715	1401.1
3476.618	1336.1
3479.519	1282.1
3482.418	1264.1
3485.315	1209.1
3488.209	1172.1
3491.101	1120.1
3493.99	1084.1
3496.878	1051.1
3499.763	1018.1
3502.646	984.1
3505.527	943.1
3508.405	886.1
3511.281	847.1
3514.155	808.1
3517.027	771.1
3519.897	708.1
3522.764	660.1
3525.629	621.1
3528.492	560.1
3531.352	520.1
3534.211	496.1
3537.067	440.1
3539.921	389.1
3542.773	361.1
3545.622	337.1
3548.469	287.1
3551.315	261.1
3554.157	247.1
3556.998	181.1
3559.837	178.1
3562.673	143.1
3565.507	110.1
3568.339	78.1
3571.169	71.1
3573.996	46.1
3576.822	41.1
3579.645	-6.9
3582.466	-9.9
3585.285	-44.9
3588.101	-58.9
3590.916	-83.9
3593.728	-109.9
3596.538	-131.9
3599.346	-144.9
3602.152	-171.9
3604.956	-183.9
3607.757	-208.9
3610.556	-222.9
3613.354	-247.9
3616.149	-251.9
3618.942	-271.9
3621.732	-281.9
3624.521	-297.9
3627.307	-303.9
3630.092	-307.9
3632.874	-325.9
3635.654	-341.9
3638.432	-347.9
3641.208	-357.9
3643.982	-376.9
3646.753	-374.9
3649.523	-393.9
3652.29	-400.9
3655.055	-404.9
3657.818	-417.9
3660.579	-431.9
3663.338	-446.9
3666.095	-457.9
3668.849	-468.9
3671.602	-480.9
3674.352	-483.9
3677.101	-493.9
3679.847	-507.9
3682.591	-510.9
3685.333	-516.9
3688.073	-522.9
3690.811	-536.9
3693.547	-536.9
3696.281	-530.9
3699.013	-540.9
3701.742	-542.9
3704.47	-552.9
3707.195	-560.9
3709.919	-559.9
3712.64	-564.9
3715.359	-571.9
3718.076	-573.9
3720.792	-576.9
3723.505	-576.9
3726.216	-584.9
3728.925	-590.9
3731.632	-592.9
3734.336	-603.9
3737.039	-598.9
3739.74	-601.9
3742.439	-606.9
3745.136	-614.9
3747.83	-615.9
3750.523	-612.9
3753.213	-611.9
3755.902	-613.9
3758.589	-617.9
3761.273	-623.9
3763.956	-628.9
3766.636	-630.9
3769.315	-634.9
3771.991	-632.9
3774.665	-634.9
3777.338	-632.9
3780.008	-638.9
3782.677	-640.9
3785.343	-637.9
3788.007	-639.9
3790.67	-642.9
3793.33	-643.9
3795.989	-646.9
3798.645	-648.9
3801.299	-642.9
3803.952	-656.9
3806.602	-657.9
3809.251	-657.9
3811.897	-649.9
3814.542	-657.9
3817.184	-650.9
3819.825	-650.9
3822.463	-649.9
3825.1	-656.9
3827.735	-648.9
3830.367	-655.9
3832.998	-658.9
3835.627	-664.9
3838.253	-662.9
3840.878	-666.9
3843.501	-668.9
3846.122	-660.9
3848.741	-660.9
3851.358	-660.9
3853.973	-665.9
3856.586	-663.9
3859.197	-667.9
3861.806	-667.9
3864.414	-664.9
3867.019	-662.9
3869.622	-669.9
3872.224	-661.9
3874.823	-645.9
3877.421	-642.9
3880.016	-622.9
3882.61	-597.9
3885.202	-598.9
3887.792	-616.9
3890.38	-638.9
3892.966	-657.9
3895.55	-665.9
3898.132	-683.9
3900.713	-684.9
3903.291	-675.9
3905.868	-682.9
3908.442	-682.9
3911.015	-682.9
3913.586	-676.9
3916.155	-677.9
3918.722	-683.9
3921.287	-679.9
3923.85	-682.9
3926.411	-684.9
3928.971	-693.9
3931.528	-684.9
3934.084	-686.9
3936.638	-682.9
3939.19	-683.9
3941.74	-680.9
3944.288	-688.9
3946.834	-678.9
3949.378	-683.9
3951.921	-683.9
3954.462	-688.9
3957	-683.9
3959.537	-685.9
3962.072	-680.9
3964.606	-682.9
3967.137	-683.9
3969.667	-684.9
3972.194	-677.9
3974.72	-682.9
3977.244	-674.9
3979.766	-670.9
3982.286	-676.9
3984.805	-674.9
3987.321	-674.9
3989.836	-671.9
3992.349	-667.9
3994.86	-667.9
3997.369	-676.9
3999.877	-670.9
4002.382	-662.9
4004.886	-666.9
4007.388	-662.9
4009.888	-668.9
4012.386	-665.9
4014.883	-668.9
4017.377	-668.9
4019.87	-670.9
4022.361	-669.9
4024.85	-672.9
4027.338	-674.9
4029.823	-673.9
4032.307	-675.9
4034.789	-673.9
4037.269	-669.9
4039.747	-669.9
4042.224	-668.9
4044.699	-680.9
4047.172	-671.9
4049.643	-667.9
4052.112	-678.9
4054.58	-674.9
4057.046	-677.9
4059.51	-673.9
4061.972	-676.9
4064.432	-676.9
4066.891	-673.9
4069.348	-673.9
4071.803	-670.9
4074.256	-669.9
4076.708	-672.9
4079.158	-674.9
4081.606	-673.9
4084.052	-679.9
4086.497	-675.9
4088.939	-669.9
4091.38	-672.9
4093.819	-668.9
4096.257	-708.9
4098.693	-708.9
4101.127	-713.9
4103.559	-709.9
4105.989	-408.9
4108.418	-390.9
4110.845	-367.9
4113.27	-342.9
4115.694	-301.9
4118.115	-243.9
4120.535	-664.9
4122.954	-670.9
4125.37	-663.9
4127.785	-669.9
4130.198	-670.9
4132.609	-677.9
4135.019	-708.9
4137.427	-711.9
4139.833	-709.9
4142.237	-704.9
