Data from 2018-2-14_conc=5_n=3_RamanShift_03.txt Node
Date: Wed Feb 14 14:11:55 IST 2018
User: aro
Spectrometer: QEPB0276
Trigger mode: 0
Integration Time (sec): 3.000000E1
Scans to average: 1
Electric dark correction enabled: true
Nonlinearity correction enabled: false
Boxcar width: 0
XAxis mode: Raman Shifts
Number of Pixels in Spectrum: 1044
>>>>>Begin Spectral Data<<<<<
160.701	-148.8
166.742	44.2
172.777	598.2
178.805	2274.2
184.826	6285.2
190.841	13126.2
196.849	21215.2
202.85	26831.2
208.845	28666.2
214.833	28434.2
220.815	27974.2
226.789	27760.2
232.758	27616.2
238.719	27469.2
244.674	27133.2
250.623	26636.2
256.565	26143.2
262.5	25576.2
268.429	25176.2
274.351	24713.2
280.267	24408.2
286.176	24173.2
292.079	23959.2
297.975	23757.2
303.865	23578.2
309.748	23381.2
315.625	23194.2
321.495	23147.2
327.359	23015.2
333.217	22990.2
339.068	22949.2
344.912	22945.2
350.751	22960.2
356.583	22915.2
362.408	22883.2
368.227	22883.2
374.04	22869.2
379.847	22970.2
385.647	23052.2
391.44	23160.2
397.228	23227.2
403.009	23283.2
408.784	23362.2
414.553	23495.2
420.315	23595.2
426.071	23535.2
431.821	23509.2
437.565	23520.2
443.302	23450.2
449.033	23424.2
454.758	23404.2
460.477	23366.2
466.189	23262.2
471.896	23257.2
477.596	23241.2
483.29	23097.2
488.978	23086.2
494.66	23007.2
500.335	22835.2
506.005	22622.2
511.668	22349.2
517.325	22079.2
522.977	21897.2
528.622	21729.2
534.261	21688.2
539.894	21516.2
545.521	21412.2
551.141	21370.2
556.756	21340.2
562.365	21275.2
567.968	21177.2
573.565	21055.2
579.155	20968.2
584.74	20839.2
590.319	20850.2
595.892	20743.2
601.459	20654.2
607.02	20515.2
612.575	20473.2
618.124	20239.2
623.667	20139.2
629.204	20114.2
634.735	20053.2
640.261	19970.2
645.781	19879.2
651.294	19859.2
656.802	19808.2
662.304	19722.2
667.8	19716.2
673.29	19740.2
678.775	19672.2
684.254	19610.2
689.726	19554.2
695.193	19522.2
700.655	19376.2
706.11	19300.2
711.56	19257.2
717.004	19150.2
722.442	19014.2
727.874	18956.2
733.301	18861.2
738.722	18810.2
744.137	18775.2
749.547	18842.2
754.951	18792.2
760.349	18793.2
765.741	18814.2
771.128	18795.2
776.509	18818.2
781.885	18851.2
787.254	18807.2
792.618	18712.2
797.977	18552.2
803.33	18428.2
808.677	18400.2
814.019	18239.2
819.355	18155.2
824.686	18068.2
830.011	18093.2
835.33	18049.2
840.644	18067.2
845.952	18086.2
851.255	18136.2
856.552	18215.2
861.844	18123.2
867.13	18095.2
872.41	17957.2
877.686	17897.2
882.955	17819.2
888.219	17662.2
893.478	17439.2
898.731	17163.2
903.979	17058.2
909.221	16956.2
914.458	16886.2
919.69	16874.2
924.916	16894.2
930.136	17002.2
935.351	17015.2
940.561	17025.2
945.766	17012.2
950.965	16885.2
956.158	16717.2
961.347	16561.2
966.529	16369.2
971.707	16177.2
976.879	16001.2
982.046	15852.2
987.208	15786.2
992.364	15767.2
997.515	15872.2
1002.66	16087.2
1007.801	16237.2
1012.936	16350.2
1018.066	16410.2
1023.19	16339.2
1028.309	16390.2
1033.423	16374.2
1038.532	16200.2
1043.636	16072.2
1048.734	15899.2
1053.827	15682.2
1058.915	15510.2
1063.998	15390.2
1069.075	15374.2
1074.147	15392.2
1079.214	15440.2
1084.276	15539.2
1089.333	15633.2
1094.385	15697.2
1099.431	15735.2
1104.472	15788.2
1109.509	15627.2
1114.54	15474.2
1119.565	15309.2
1124.586	15125.2
1129.602	14932.2
1134.613	14816.2
1139.618	14795.2
1144.619	14719.2
1149.614	14700.2
1154.604	14742.2
1159.589	14828.2
1164.57	14882.2
1169.545	14801.2
1174.515	14878.2
1179.48	14786.2
1184.44	14675.2
1189.395	14549.2
1194.345	14436.2
1199.29	14376.2
1204.23	14378.2
1209.165	14448.2
1214.095	14470.2
1219.021	14612.2
1223.941	14636.2
1228.856	14771.2
1233.766	14776.2
1238.672	14842.2
1243.572	14823.2
1248.467	14661.2
1253.358	14558.2
1258.244	14328.2
1263.124	14111.2
1268	13924.2
1272.871	13739.2
1277.737	13599.2
1282.599	13567.2
1287.455	13544.2
1292.306	13608.2
1297.153	13662.2
1301.995	13702.2
1306.832	13782.2
1311.664	13762.2
1316.491	13733.2
1321.314	13562.2
1326.132	13397.2
1330.945	13096.2
1335.753	12851.2
1340.556	12474.2
1345.354	12216.2
1350.148	12071.2
1354.937	11985.2
1359.722	11948.2
1364.501	11971.2
1369.276	12154.2
1374.046	12325.2
1378.811	12533.2
1383.572	12684.2
1388.327	12697.2
1393.079	12643.2
1397.825	12434.2
1402.567	12256.2
1407.304	12125.2
1412.036	12006.2
1416.764	11913.2
1421.487	11846.2
1426.205	11739.2
1430.919	11723.2
1435.628	11749.2
1440.333	11762.2
1445.032	11747.2
1449.727	11782.2
1454.418	11801.2
1459.104	11638.2
1463.785	11436.2
1468.462	11232.2
1473.134	11008.2
1477.802	10805.2
1482.465	10619.2
1487.123	10486.2
1491.777	10532.2
1496.426	10574.2
1501.071	10692.2
1505.711	10881.2
1510.347	11051.2
1514.978	11252.2
1519.604	11388.2
1524.226	11491.2
1528.844	11500.2
1533.457	11507.2
1538.065	11380.2
1542.669	11331.2
1547.269	11251.2
1551.864	11153.2
1556.454	11146.2
1561.041	11108.2
1565.622	11067.2
1570.199	11100.2
1574.772	11140.2
1579.34	11219.2
1583.904	11279.2
1588.464	11357.2
1593.019	11319.2
1597.569	11248.2
1602.115	11203.2
1606.657	11113.2
1611.195	11071.2
1615.728	10961.2
1620.256	10911.2
1624.78	10961.2
1629.3	10926.2
1633.816	10963.2
1638.327	11021.2
1642.834	11078.2
1647.336	11123.2
1651.834	11156.2
1656.328	11089.2
1660.817	11068.2
1665.302	10964.2
1669.783	10773.2
1674.259	10551.2
1678.732	10263.2
1683.199	9944.2
1687.663	9629.2
1692.122	9362.2
1696.577	9202.2
1701.028	9177.2
1705.474	9256.2
1709.917	9376.2
1714.355	9429.2
1718.788	9377.2
1723.218	9234.2
1727.643	9048.2
1732.064	8875.2
1736.481	8687.2
1740.893	8453.2
1745.301	8243.2
1749.705	8033.2
1754.105	7787.2
1758.501	7604.2
1762.893	7393.2
1767.28	7237.2
1771.663	7077.2
1776.042	6951.2
1780.417	6888.2
1784.787	6920.2
1789.154	6978.2
1793.516	7106.2
1797.874	7232.2
1802.228	7356.2
1806.578	7427.2
1810.924	7433.2
1815.266	7332.2
1819.603	7280.2
1823.937	7166.2
1828.266	7011.2
1832.591	6919.2
1836.913	6822.2
1841.23	6766.2
1845.543	6698.2
1849.852	6648.2
1854.156	6631.2
1858.457	6613.2
1862.754	6639.2
1867.047	6625.2
1871.335	6623.2
1875.62	6583.2
1879.9	6621.2
1884.177	6567.2
1888.449	6497.2
1892.718	6392.2
1896.982	6341.2
1901.243	6281.2
1905.499	6270.2
1909.752	6227.2
1914	6266.2
1918.245	6285.2
1922.485	6329.2
1926.722	6396.2
1930.954	6522.2
1935.183	6549.2
1939.408	6587.2
1943.628	6625.2
1947.845	6667.2
1952.058	6641.2
1956.267	6584.2
1960.472	6479.2
1964.673	6392.2
1968.87	6289.2
1973.063	6176.2
1977.252	6074.2
1981.438	6046.2
1985.619	5967.2
1989.797	5916.2
1993.971	5863.2
1998.14	5836.2
2002.306	5831.2
2006.469	5784.2
2010.627	5798.2
2014.781	5754.2
2018.932	5670.2
2023.078	5643.2
2027.221	5522.2
2031.36	5475.2
2035.495	5417.2
2039.627	5321.2
2043.754	5249.2
2047.878	5200.2
2051.998	5177.2
2056.114	5159.2
2060.226	5127.2
2064.334	5162.2
2068.439	5145.2
2072.54	5220.2
2076.637	5226.2
2080.73	5265.2
2084.82	5305.2
2088.906	5349.2
2092.988	5314.2
2097.066	5319.2
2101.14	5257.2
2105.211	5243.2
2109.278	5214.2
2113.342	5189.2
2117.401	5145.2
2121.457	5122.2
2125.509	5096.2
2129.558	5057.2
2133.602	5012.2
2137.643	5037.2
2141.681	4982.2
2145.714	4949.2
2149.744	4915.2
2153.77	4890.2
2157.793	4825.2
2161.812	4773.2
2165.827	4688.2
2169.838	4623.2
2173.846	4542.2
2177.851	4488.2
2181.851	4393.2
2185.848	4376.2
2189.841	4264.2
2193.831	4263.2
2197.817	4234.2
2201.799	4177.2
2205.778	4206.2
2209.753	4166.2
2213.725	4149.2
2217.693	4163.2
2221.657	4152.2
2225.618	4148.2
2229.575	4112.2
2233.529	4077.2
2237.479	4022.2
2241.425	3974.2
2245.368	3931.2
2249.307	3890.2
2253.243	3817.2
2257.175	3756.2
2261.104	3707.2
2265.029	3664.2
2268.95	3672.2
2272.868	3575.2
2276.783	3554.2
2280.694	3538.2
2284.601	3478.2
2288.505	3454.2
2292.405	3425.2
2296.302	3367.2
2300.195	3374.2
2304.085	3319.2
2307.971	3265.2
2311.854	3226.2
2315.734	3191.2
2319.609	3112.2
2323.482	3071.2
2327.351	3059.2
2331.216	3034.2
2335.078	3043.2
2338.937	2988.2
2342.792	2972.2
2346.643	2970.2
2350.492	2932.2
2354.336	2981.2
2358.178	2984.2
2362.015	2980.2
2365.85	2994.2
2369.681	2970.2
2373.508	2998.2
2377.333	2979.2
2381.153	2978.2
2384.971	2973.2
2388.785	2929.2
2392.595	2896.2
2396.402	2900.2
2400.206	2851.2
2404.007	2816.2
2407.804	2836.2
2411.597	2819.2
2415.388	2798.2
2419.174	2759.2
2422.958	2758.2
2426.738	2732.2
2430.515	2708.2
2434.289	2708.2
2438.059	2689.2
2441.825	2653.2
2445.589	2597.2
2449.349	2587.2
2453.106	2564.2
2456.859	2511.2
2460.61	2485.2
2464.356	2469.2
2468.1	2420.2
2471.84	2414.2
2475.577	2389.2
2479.311	2370.2
2483.041	2369.2
2486.768	2355.2
2490.492	2359.2
2494.213	2353.2
2497.93	2326.2
2501.644	2338.2
2505.355	2303.2
2509.062	2301.2
2512.766	2303.2
2516.467	2282.2
2520.165	2261.2
2523.859	2279.2
2527.551	2255.2
2531.239	2238.2
2534.923	2250.2
2538.605	2197.2
2542.283	2211.2
2545.958	2208.2
2549.63	2207.2
2553.299	2201.2
2556.964	2189.2
2560.626	2192.2
2564.285	2175.2
2567.941	2175.2
2571.594	2168.2
2575.243	2128.2
2578.89	2118.2
2582.533	2115.2
2586.173	2078.2
2589.809	2084.2
2593.443	2063.2
2597.073	2031.2
2600.701	2021.2
2604.325	1999.2
2607.946	1992.2
2611.564	1976.2
2615.178	1958.2
2618.79	1939.2
2622.398	1912.2
2626.004	1931.2
2629.606	1893.2
2633.205	1888.2
2636.801	1857.2
2640.394	1816.2
2643.983	1771.2
2647.57	1773.2
2651.153	1745.2
2654.734	1713.2
2658.311	1672.2
2661.885	1646.2
2665.456	1632.2
2669.025	1613.2
2672.589	1600.2
2676.151	1595.2
2679.71	1558.2
2683.266	1535.2
2686.819	1504.2
2690.368	1487.2
2693.915	1447.2
2697.458	1416.2
2700.999	1390.2
2704.536	1365.2
2708.071	1318.2
2711.602	1290.2
2715.13	1271.2
2718.656	1258.2
2722.178	1220.2
2725.697	1208.2
2729.214	1197.2
2732.727	1182.2
2736.237	1180.2
2739.744	1159.2
2743.249	1185.2
2746.75	1203.2
2750.248	1214.2
2753.743	1210.2
2757.236	1221.2
2760.725	1244.2
2764.211	1249.2
2767.695	1247.2
2771.175	1256.2
2774.652	1250.2
2778.127	1244.2
2781.598	1238.2
2785.067	1237.2
2788.532	1220.2
2791.995	1210.2
2795.455	1205.2
2798.911	1205.2
2802.365	1217.2
2805.816	1210.2
2809.264	1190.2
2812.709	1218.2
2816.151	1198.2
2819.59	1220.2
2823.026	1198.2
2826.46	1201.2
2829.89	1226.2
2833.318	1204.2
2836.742	1202.2
2840.164	1217.2
2843.583	1241.2
2846.999	1243.2
2850.412	1246.2
2853.822	1260.2
2857.229	1253.2
2860.634	1316.2
2864.035	1300.2
2867.434	1328.2
2870.83	1352.2
2874.223	1368.2
2877.613	1381.2
2881	1398.2
2884.385	1413.2
2887.766	1412.2
2891.145	1379.2
2894.521	1394.2
2897.894	1381.2
2901.264	1376.2
2904.631	1387.2
2907.996	1392.2
2911.358	1384.2
2914.717	1394.2
2918.073	1421.2
2921.426	1417.2
2924.777	1412.2
2928.124	1452.2
2931.469	1472.2
2934.811	1496.2
2938.15	1535.2
2941.487	1551.2
2944.821	1523.2
2948.152	1510.2
2951.48	1510.2
2954.805	1501.2
2958.128	1479.2
2961.447	1481.2
2964.765	1478.2
2968.079	1461.2
2971.39	1487.2
2974.699	1503.2
2978.005	1526.2
2981.308	1543.2
2984.609	1563.2
2987.907	1604.2
2991.202	1641.2
2994.494	1676.2
2997.784	1701.2
3001.07	1721.2
3004.355	1734.2
3007.636	1760.2
3010.915	1803.2
3014.191	1813.2
3017.464	1823.2
3020.734	1819.2
3024.002	1832.2
3027.267	1854.2
3030.53	1860.2
3033.789	1850.2
3037.046	1896.2
3040.301	1921.2
3043.552	1968.2
3046.801	1992.2
3050.048	2021.2
3053.291	2098.2
3056.532	2138.2
3059.771	2199.2
3063.006	2273.2
3066.239	2337.2
3069.469	2391.2
3072.697	2445.2
3075.922	2492.2
3079.144	2555.2
3082.364	2618.2
3085.581	2674.2
3088.795	2744.2
3092.007	2791.2
3095.216	2850.2
3098.423	2891.2
3101.627	2972.2
3104.828	3027.2
3108.026	3082.2
3111.222	3165.2
3114.416	3250.2
3117.607	3298.2
3120.795	3392.2
3123.98	3462.2
3127.163	3533.2
3130.344	3640.2
3133.521	3715.2
3136.696	3767.2
3139.869	3850.2
3143.039	3926.2
3146.206	3984.2
3149.371	3990.2
3152.533	4059.2
3155.693	4071.2
3158.85	4106.2
3162.005	4113.2
3165.157	4146.2
3168.306	4137.2
3171.453	4149.2
3174.597	4127.2
3177.739	4172.2
3180.878	4172.2
3184.014	4172.2
3187.149	4156.2
3190.28	4188.2
3193.409	4185.2
3196.536	4204.2
3199.659	4203.2
3202.781	4204.2
3205.9	4179.2
3209.016	4189.2
3212.13	4170.2
3215.241	4109.2
3218.35	4119.2
3221.456	4047.2
3224.56	4046.2
3227.661	3966.2
3230.76	3948.2
3233.856	3876.2
3236.95	3852.2
3240.041	3825.2
3243.13	3781.2
3246.216	3783.2
3249.3	3804.2
3252.382	3730.2
3255.46	3744.2
3258.537	3720.2
3261.611	3741.2
3264.682	3745.2
3267.751	3695.2
3270.818	3706.2
3273.882	3668.2
3276.943	3673.2
3280.002	3641.2
3283.059	3638.2
3286.113	3569.2
3289.165	3523.2
3292.214	3448.2
3295.261	3423.2
3298.306	3346.2
3301.348	3319.2
3304.387	3250.2
3307.425	3199.2
3310.459	3148.2
3313.492	3098.2
3316.521	3068.2
3319.549	3040.2
3322.574	2980.2
3325.597	2968.2
3328.617	2950.2
3331.635	2920.2
3334.65	2914.2
3337.663	2899.2
3340.674	2866.2
3343.682	2855.2
3346.688	2868.2
3349.691	2854.2
3352.692	2818.2
3355.691	2807.2
3358.687	2781.2
3361.681	2773.2
3364.673	2703.2
3367.662	2664.2
3370.649	2637.2
3373.633	2591.2
3376.615	2546.2
3379.595	2516.2
3382.572	2477.2
3385.547	2468.2
3388.52	2407.2
3391.49	2369.2
3394.458	2344.2
3397.424	2303.2
3400.387	2274.2
3403.348	2251.2
3406.307	2238.2
3409.263	2239.2
3412.217	2186.2
3415.168	2158.2
3418.118	2125.2
3421.065	2114.2
3424.009	2062.2
3426.951	2039.2
3429.891	2009.2
3432.829	1967.2
3435.764	1913.2
3438.697	1870.2
3441.628	1812.2
3444.557	1749.2
3447.483	1707.2
3450.407	1649.2
3453.328	1619.2
3456.247	1555.2
3459.164	1491.2
3462.079	1449.2
3464.991	1376.2
3467.902	1342.2
3470.809	1296.2
3473.715	1242.2
3476.618	1197.2
3479.519	1145.2
3482.418	1126.2
3485.315	1091.2
3488.209	1039.2
3491.101	1010.2
3493.99	968.2
3496.878	931.2
3499.763	899.2
3502.646	873.2
3505.527	805.2
3508.405	791.2
3511.281	750.2
3514.155	703.2
3517.027	663.2
3519.897	614.2
3522.764	575.2
3525.629	526.2
3528.492	486.2
3531.352	437.2
3534.211	410.2
3537.067	366.2
3539.921	329.2
3542.773	291.2
3545.622	261.2
3548.469	229.2
3551.315	199.2
3554.157	182.2
3556.998	137.2
3559.837	122.2
3562.673	94.2
3565.507	74.2
3568.339	58.2
3571.169	30.2
3573.996	5.2
3576.822	-12.8
3579.645	-37.8
3582.466	-61.8
3585.285	-81.8
3588.101	-91.8
3590.916	-123.8
3593.728	-143.8
3596.538	-160.8
3599.346	-179.8
3602.152	-199.8
3604.956	-212.8
3607.757	-231.8
3610.556	-245.8
3613.354	-258.8
3616.149	-263.8
3618.942	-289.8
3621.732	-295.8
3624.521	-306.8
3627.307	-316.8
3630.092	-323.8
3632.874	-333.8
3635.654	-356.8
3638.432	-366.8
3641.208	-365.8
3643.982	-373.8
3646.753	-379.8
3649.523	-395.8
3652.29	-401.8
3655.055	-409.8
3657.818	-425.8
3660.579	-433.8
3663.338	-454.8
3666.095	-453.8
3668.849	-475.8
3671.602	-482.8
3674.352	-480.8
3677.101	-488.8
3679.847	-499.8
3682.591	-508.8
3685.333	-510.8
3688.073	-516.8
3690.811	-517.8
3693.547	-520.8
3696.281	-537.8
3699.013	-535.8
3701.742	-540.8
3704.47	-540.8
3707.195	-555.8
3709.919	-550.8
3712.64	-556.8
3715.359	-562.8
3718.076	-566.8
3720.792	-568.8
3723.505	-570.8
3726.216	-579.8
3728.925	-579.8
3731.632	-585.8
3734.336	-587.8
3737.039	-593.8
3739.74	-590.8
3742.439	-596.8
3745.136	-595.8
3747.83	-603.8
3750.523	-605.8
3753.213	-596.8
3755.902	-602.8
3758.589	-607.8
3761.273	-611.8
3763.956	-614.8
3766.636	-614.8
3769.315	-618.8
3771.991	-612.8
3774.665	-628.8
3777.338	-620.8
3780.008	-617.8
3782.677	-623.8
3785.343	-617.8
3788.007	-623.8
3790.67	-625.8
3793.33	-632.8
3795.989	-631.8
3798.645	-622.8
3801.299	-632.8
3803.952	-634.8
3806.602	-642.8
3809.251	-639.8
3811.897	-638.8
3814.542	-639.8
3817.184	-633.8
3819.825	-637.8
3822.463	-636.8
3825.1	-651.8
3827.735	-638.8
3830.367	-638.8
3832.998	-649.8
3835.627	-649.8
3838.253	-645.8
3840.878	-650.8
3843.501	-644.8
3846.122	-640.8
3848.741	-643.8
3851.358	-645.8
3853.973	-646.8
3856.586	-653.8
3859.197	-650.8
3861.806	-656.8
3864.414	-651.8
3867.019	-643.8
3869.622	-649.8
3872.224	-643.8
3874.823	-638.8
3877.421	-619.8
3880.016	-606.8
3882.61	-583.8
3885.202	-583.8
3887.792	-599.8
3890.38	-627.8
3892.966	-644.8
3895.55	-652.8
3898.132	-665.8
3900.713	-671.8
3903.291	-659.8
3905.868	-663.8
3908.442	-660.8
3911.015	-665.8
3913.586	-661.8
3916.155	-659.8
3918.722	-665.8
3921.287	-659.8
3923.85	-667.8
3926.411	-664.8
3928.971	-673.8
3931.528	-669.8
3934.084	-665.8
3936.638	-666.8
3939.19	-671.8
3941.74	-666.8
3944.288	-668.8
3946.834	-667.8
3949.378	-672.8
3951.921	-672.8
3954.462	-671.8
3957	-665.8
3959.537	-676.8
3962.072	-670.8
3964.606	-673.8
3967.137	-671.8
3969.667	-671.8
3972.194	-664.8
3974.72	-666.8
3977.244	-659.8
3979.766	-654.8
3982.286	-658.8
3984.805	-655.8
3987.321	-654.8
3989.836	-651.8
3992.349	-649.8
3994.86	-649.8
3997.369	-662.8
3999.877	-648.8
4002.382	-646.8
4004.886	-646.8
4007.388	-649.8
4009.888	-647.8
4012.386	-654.8
4014.883	-651.8
4017.377	-651.8
4019.87	-652.8
4022.361	-655.8
4024.85	-656.8
4027.338	-658.8
4029.823	-657.8
4032.307	-659.8
4034.789	-658.8
4037.269	-658.8
4039.747	-658.8
4042.224	-656.8
4044.699	-653.8
4047.172	-652.8
4049.643	-650.8
4052.112	-664.8
4054.58	-661.8
4057.046	-654.8
4059.51	-658.8
4061.972	-657.8
4064.432	-661.8
4066.891	-650.8
4069.348	-659.8
4071.803	-656.8
4074.256	-650.8
4076.708	-655.8
4079.158	-661.8
4081.606	-661.8
4084.052	-664.8
4086.497	-657.8
4088.939	-654.8
4091.38	-657.8
4093.819	-652.8
4096.257	-695.8
4098.693	-690.8
4101.127	-695.8
4103.559	-692.8
4105.989	-398.8
4108.418	-384.8
4110.845	-354.8
4113.27	-314.8
4115.694	-286.8
4118.115	-239.8
4120.535	-651.8
4122.954	-657.8
4125.37	-650.8
4127.785	-653.8
4130.198	-656.8
4132.609	-661.8
4135.019	-690.8
4137.427	-692.8
4139.833	-692.8
4142.237	-691.8
