Data from 2018-2-14_conc=6_n=1_RamanShift_01.txt Node
Date: Wed Feb 14 14:42:25 IST 2018
User: aro
Spectrometer: QEPB0276
Trigger mode: 0
Integration Time (sec): 3.000000E1
Scans to average: 1
Electric dark correction enabled: true
Nonlinearity correction enabled: false
Boxcar width: 0
XAxis mode: Raman Shifts
Number of Pixels in Spectrum: 1044
>>>>>Begin Spectral Data<<<<<
160.701	-147.6
166.742	37.4
172.777	588.4
178.805	2237.4
184.826	6250.4
190.841	13043.4
196.849	20965.4
202.85	26549.4
208.845	28407.4
214.833	27982.4
220.815	27441.4
226.789	27267.4
232.758	27011.4
238.719	26845.4
244.674	26393.4
250.623	25842.4
256.565	25333.4
262.5	24768.4
268.429	24265.4
274.351	23853.4
280.267	23528.4
286.176	23158.4
292.079	22957.4
297.975	22710.4
303.865	22440.4
309.748	22298.4
315.625	22070.4
321.495	21993.4
327.359	21884.4
333.217	21809.4
339.068	21863.4
344.912	21741.4
350.751	21753.4
356.583	21664.4
362.408	21666.4
368.227	21714.4
374.04	21693.4
379.847	21760.4
385.647	21873.4
391.44	21934.4
397.228	22025.4
403.009	22172.4
408.784	22170.4
414.553	22257.4
420.315	22331.4
426.071	22291.4
431.821	22268.4
437.565	22275.4
443.302	22256.4
449.033	22203.4
454.758	22163.4
460.477	22032.4
466.189	22022.4
471.896	21990.4
477.596	21910.4
483.29	21908.4
488.978	21847.4
494.66	21821.4
500.335	21612.4
506.005	21448.4
511.668	21201.4
517.325	20970.4
522.977	20788.4
528.622	20622.4
534.261	20505.4
539.894	20381.4
545.521	20311.4
551.141	20210.4
556.756	20126.4
562.365	20139.4
567.968	20021.4
573.565	19961.4
579.155	19857.4
584.74	19724.4
590.319	19730.4
595.892	19567.4
601.459	19550.4
607.02	19452.4
612.575	19358.4
618.124	19183.4
623.667	19066.4
629.204	19040.4
634.735	18901.4
640.261	18828.4
645.781	18771.4
651.294	18720.4
656.802	18769.4
662.304	18665.4
667.8	18627.4
673.29	18616.4
678.775	18651.4
684.254	18522.4
689.726	18456.4
695.193	18418.4
700.655	18350.4
706.11	18234.4
711.56	18081.4
717.004	18060.4
722.442	17999.4
727.874	17902.4
733.301	17873.4
738.722	17770.4
744.137	17705.4
749.547	17731.4
754.951	17740.4
760.349	17748.4
765.741	17805.4
771.128	17774.4
776.509	17804.4
781.885	17759.4
787.254	17749.4
792.618	17609.4
797.977	17520.4
803.33	17476.4
808.677	17381.4
814.019	17227.4
819.355	17140.4
824.686	17073.4
830.011	17040.4
835.33	17028.4
840.644	17003.4
845.952	17044.4
851.255	17166.4
856.552	17145.4
861.844	17141.4
867.13	17005.4
872.41	17021.4
877.686	16844.4
882.955	16796.4
888.219	16607.4
893.478	16434.4
898.731	16200.4
903.979	16046.4
909.221	15900.4
914.458	15877.4
919.69	15871.4
924.916	15898.4
930.136	15964.4
935.351	16014.4
940.561	16002.4
945.766	15981.4
950.965	15873.4
956.158	15779.4
961.347	15584.4
966.529	15372.4
971.707	15226.4
976.879	15009.4
982.046	14911.4
987.208	14878.4
992.364	14871.4
997.515	14995.4
1002.66	15088.4
1007.801	15249.4
1012.936	15384.4
1018.066	15368.4
1023.19	15353.4
1028.309	15342.4
1033.423	15282.4
1038.532	15278.4
1043.636	15116.4
1048.734	14960.4
1053.827	14755.4
1058.915	14615.4
1063.998	14484.4
1069.075	14407.4
1074.147	14449.4
1079.214	14520.4
1084.276	14651.4
1089.333	14669.4
1094.385	14750.4
1099.431	14822.4
1104.472	14799.4
1109.509	14730.4
1114.54	14550.4
1119.565	14349.4
1124.586	14171.4
1129.602	14013.4
1134.613	13937.4
1139.618	13852.4
1144.619	13807.4
1149.614	13881.4
1154.604	13830.4
1159.589	13907.4
1164.57	13948.4
1169.545	13955.4
1174.515	13944.4
1179.48	13874.4
1184.44	13779.4
1189.395	13656.4
1194.345	13581.4
1199.29	13493.4
1204.23	13513.4
1209.165	13563.4
1214.095	13656.4
1219.021	13708.4
1223.941	13786.4
1228.856	13822.4
1233.766	13895.4
1238.672	13932.4
1243.572	13928.4
1248.467	13834.4
1253.358	13630.4
1258.244	13478.4
1263.124	13313.4
1268	13113.4
1272.871	12920.4
1277.737	12847.4
1282.599	12755.4
1287.455	12785.4
1292.306	12785.4
1297.153	12827.4
1301.995	12889.4
1306.832	12936.4
1311.664	12972.4
1316.491	12965.4
1321.314	12821.4
1326.132	12668.4
1330.945	12343.4
1335.753	12087.4
1340.556	11786.4
1345.354	11511.4
1350.148	11351.4
1354.937	11198.4
1359.722	11261.4
1364.501	11321.4
1369.276	11447.4
1374.046	11653.4
1378.811	11827.4
1383.572	11981.4
1388.327	12010.4
1393.079	11914.4
1397.825	11789.4
1402.567	11611.4
1407.304	11428.4
1412.036	11311.4
1416.764	11203.4
1421.487	11179.4
1426.205	11152.4
1430.919	11058.4
1435.628	11067.4
1440.333	11057.4
1445.032	11116.4
1449.727	11148.4
1454.418	11124.4
1459.104	11020.4
1463.785	10828.4
1468.462	10566.4
1473.134	10343.4
1477.802	10127.4
1482.465	9990.4
1487.123	9889.4
1491.777	9851.4
1496.426	9942.4
1501.071	10007.4
1505.711	10212.4
1510.347	10391.4
1514.978	10581.4
1519.604	10766.4
1524.226	10840.4
1528.844	10880.4
1533.457	10815.4
1538.065	10770.4
1542.669	10657.4
1547.269	10646.4
1551.864	10562.4
1556.454	10508.4
1561.041	10519.4
1565.622	10505.4
1570.199	10518.4
1574.772	10549.4
1579.34	10668.4
1583.904	10686.4
1588.464	10755.4
1593.019	10746.4
1597.569	10688.4
1602.115	10658.4
1606.657	10608.4
1611.195	10543.4
1615.728	10470.4
1620.256	10420.4
1624.78	10427.4
1629.3	10472.4
1633.816	10468.4
1638.327	10479.4
1642.834	10579.4
1647.336	10642.4
1651.834	10615.4
1656.328	10635.4
1660.817	10582.4
1665.302	10457.4
1669.783	10322.4
1674.259	10102.4
1678.732	9768.4
1683.199	9490.4
1687.663	9138.4
1692.122	8825.4
1696.577	8678.4
1701.028	8687.4
1705.474	8760.4
1709.917	8875.4
1714.355	8930.4
1718.788	8867.4
1723.218	8719.4
1727.643	8548.4
1732.064	8355.4
1736.481	8154.4
1740.893	7972.4
1745.301	7781.4
1749.705	7529.4
1754.105	7338.4
1758.501	7105.4
1762.893	6968.4
1767.28	6737.4
1771.663	6635.4
1776.042	6495.4
1780.417	6407.4
1784.787	6411.4
1789.154	6484.4
1793.516	6613.4
1797.874	6755.4
1802.228	6901.4
1806.578	7002.4
1810.924	6995.4
1815.266	6903.4
1819.603	6800.4
1823.937	6733.4
1828.266	6590.4
1832.591	6476.4
1836.913	6400.4
1841.23	6327.4
1845.543	6272.4
1849.852	6258.4
1854.156	6204.4
1858.457	6190.4
1862.754	6219.4
1867.047	6185.4
1871.335	6198.4
1875.62	6161.4
1879.9	6158.4
1884.177	6134.4
1888.449	6064.4
1892.718	5990.4
1896.982	5910.4
1901.243	5859.4
1905.499	5844.4
1909.752	5808.4
1914	5845.4
1918.245	5804.4
1922.485	5908.4
1926.722	5966.4
1930.954	6059.4
1935.183	6108.4
1939.408	6190.4
1943.628	6210.4
1947.845	6265.4
1952.058	6213.4
1956.267	6199.4
1960.472	6053.4
1964.673	6013.4
1968.87	5924.4
1973.063	5803.4
1977.252	5749.4
1981.438	5706.4
1985.619	5645.4
1989.797	5599.4
1993.971	5511.4
1998.14	5519.4
2002.306	5462.4
2006.469	5479.4
2010.627	5471.4
2014.781	5381.4
2018.932	5354.4
2023.078	5334.4
2027.221	5237.4
2031.36	5163.4
2035.495	5087.4
2039.627	5003.4
2043.754	4970.4
2047.878	4918.4
2051.998	4857.4
2056.114	4877.4
2060.226	4862.4
2064.334	4863.4
2068.439	4882.4
2072.54	4936.4
2076.637	4984.4
2080.73	5026.4
2084.82	5010.4
2088.906	5019.4
2092.988	5082.4
2097.066	5047.4
2101.14	4989.4
2105.211	4971.4
2109.278	4949.4
2113.342	4931.4
2117.401	4894.4
2121.457	4849.4
2125.509	4861.4
2129.558	4815.4
2133.602	4777.4
2137.643	4765.4
2141.681	4762.4
2145.714	4715.4
2149.744	4653.4
2153.77	4651.4
2157.793	4574.4
2161.812	4514.4
2165.827	4487.4
2169.838	4400.4
2173.846	4326.4
2177.851	4258.4
2181.851	4204.4
2185.848	4164.4
2189.841	4109.4
2193.831	4037.4
2197.817	4018.4
2201.799	3992.4
2205.778	3981.4
2209.753	3983.4
2213.725	3955.4
2217.693	3927.4
2221.657	3938.4
2225.618	3916.4
2229.575	3893.4
2233.529	3875.4
2237.479	3839.4
2241.425	3786.4
2245.368	3753.4
2249.307	3679.4
2253.243	3632.4
2257.175	3578.4
2261.104	3535.4
2265.029	3501.4
2268.95	3464.4
2272.868	3425.4
2276.783	3429.4
2280.694	3370.4
2284.601	3336.4
2288.505	3312.4
2292.405	3281.4
2296.302	3221.4
2300.195	3201.4
2304.085	3137.4
2307.971	3126.4
2311.854	3081.4
2315.734	3009.4
2319.609	2980.4
2323.482	2920.4
2327.351	2914.4
2331.216	2880.4
2335.078	2865.4
2338.937	2879.4
2342.792	2842.4
2346.643	2797.4
2350.492	2827.4
2354.336	2827.4
2358.178	2843.4
2362.015	2845.4
2365.85	2856.4
2369.681	2838.4
2373.508	2829.4
2377.333	2836.4
2381.153	2843.4
2384.971	2827.4
2388.785	2796.4
2392.595	2773.4
2396.402	2765.4
2400.206	2708.4
2404.007	2713.4
2407.804	2669.4
2411.597	2673.4
2415.388	2659.4
2419.174	2660.4
2422.958	2628.4
2426.738	2590.4
2430.515	2585.4
2434.289	2556.4
2438.059	2525.4
2441.825	2511.4
2445.589	2497.4
2449.349	2447.4
2453.106	2447.4
2456.859	2397.4
2460.61	2406.4
2464.356	2380.4
2468.1	2361.4
2471.84	2284.4
2475.577	2303.4
2479.311	2281.4
2483.041	2283.4
2486.768	2257.4
2490.492	2241.4
2494.213	2245.4
2497.93	2242.4
2501.644	2227.4
2505.355	2238.4
2509.062	2202.4
2512.766	2204.4
2516.467	2176.4
2520.165	2175.4
2523.859	2142.4
2527.551	2131.4
2531.239	2126.4
2534.923	2098.4
2538.605	2101.4
2542.283	2098.4
2545.958	2082.4
2549.63	2109.4
2553.299	2115.4
2556.964	2090.4
2560.626	2080.4
2564.285	2066.4
2567.941	2054.4
2571.594	2055.4
2575.243	2013.4
2578.89	2005.4
2582.533	1995.4
2586.173	1977.4
2589.809	1986.4
2593.443	1963.4
2597.073	1932.4
2600.701	1923.4
2604.325	1912.4
2607.946	1909.4
2611.564	1859.4
2615.178	1870.4
2618.79	1876.4
2622.398	1841.4
2626.004	1818.4
2629.606	1788.4
2633.205	1798.4
2636.801	1772.4
2640.394	1744.4
2643.983	1695.4
2647.57	1692.4
2651.153	1672.4
2654.734	1630.4
2658.311	1592.4
2661.885	1577.4
2665.456	1557.4
2669.025	1538.4
2672.589	1547.4
2676.151	1506.4
2679.71	1485.4
2683.266	1468.4
2686.819	1431.4
2690.368	1413.4
2693.915	1381.4
2697.458	1349.4
2700.999	1317.4
2704.536	1283.4
2708.071	1267.4
2711.602	1249.4
2715.13	1238.4
2718.656	1187.4
2722.178	1162.4
2725.697	1160.4
2729.214	1150.4
2732.727	1137.4
2736.237	1137.4
2739.744	1129.4
2743.249	1133.4
2746.75	1143.4
2750.248	1165.4
2753.743	1177.4
2757.236	1196.4
2760.725	1189.4
2764.211	1208.4
2767.695	1214.4
2771.175	1182.4
2774.652	1200.4
2778.127	1181.4
2781.598	1182.4
2785.067	1178.4
2788.532	1189.4
2791.995	1158.4
2795.455	1169.4
2798.911	1161.4
2802.365	1176.4
2805.816	1173.4
2809.264	1174.4
2812.709	1176.4
2816.151	1170.4
2819.59	1166.4
2823.026	1185.4
2826.46	1169.4
2829.89	1161.4
2833.318	1171.4
2836.742	1186.4
2840.164	1182.4
2843.583	1206.4
2846.999	1227.4
2850.412	1205.4
2853.822	1210.4
2857.229	1232.4
2860.634	1250.4
2864.035	1299.4
2867.434	1310.4
2870.83	1327.4
2874.223	1358.4
2877.613	1378.4
2881	1395.4
2884.385	1394.4
2887.766	1390.4
2891.145	1387.4
2894.521	1362.4
2897.894	1388.4
2901.264	1382.4
2904.631	1388.4
2907.996	1377.4
2911.358	1391.4
2914.717	1427.4
2918.073	1417.4
2921.426	1430.4
2924.777	1450.4
2928.124	1446.4
2931.469	1491.4
2934.811	1516.4
2938.15	1531.4
2941.487	1541.4
2944.821	1552.4
2948.152	1534.4
2951.48	1557.4
2954.805	1517.4
2958.128	1510.4
2961.447	1500.4
2964.765	1503.4
2968.079	1515.4
2971.39	1512.4
2974.699	1543.4
2978.005	1551.4
2981.308	1591.4
2984.609	1628.4
2987.907	1653.4
2991.202	1713.4
2994.494	1743.4
2997.784	1765.4
3001.07	1802.4
3004.355	1822.4
3007.636	1831.4
3010.915	1875.4
3014.191	1885.4
3017.464	1888.4
3020.734	1933.4
3024.002	1921.4
3027.267	1921.4
3030.53	1930.4
3033.789	1941.4
3037.046	1992.4
3040.301	2025.4
3043.552	2041.4
3046.801	2072.4
3050.048	2143.4
3053.291	2209.4
3056.532	2251.4
3059.771	2312.4
3063.006	2374.4
3066.239	2455.4
3069.469	2528.4
3072.697	2593.4
3075.922	2657.4
3079.144	2730.4
3082.364	2775.4
3085.581	2842.4
3088.795	2891.4
3092.007	2937.4
3095.216	3002.4
3098.423	3071.4
3101.627	3154.4
3104.828	3198.4
3108.026	3266.4
3111.222	3368.4
3114.416	3432.4
3117.607	3477.4
3120.795	3576.4
3123.98	3661.4
3127.163	3735.4
3130.344	3853.4
3133.521	3926.4
3136.696	4008.4
3139.869	4076.4
3143.039	4186.4
3146.206	4212.4
3149.371	4285.4
3152.533	4303.4
3155.693	4323.4
3158.85	4347.4
3162.005	4386.4
3165.157	4399.4
3168.306	4412.4
3171.453	4413.4
3174.597	4444.4
3177.739	4445.4
3180.878	4462.4
3184.014	4455.4
3187.149	4397.4
3190.28	4417.4
3193.409	4433.4
3196.536	4427.4
3199.659	4471.4
3202.781	4470.4
3205.9	4436.4
3209.016	4439.4
3212.13	4424.4
3215.241	4387.4
3218.35	4392.4
3221.456	4342.4
3224.56	4278.4
3227.661	4195.4
3230.76	4187.4
3233.856	4147.4
3236.95	4109.4
3240.041	4080.4
3243.13	4048.4
3246.216	4023.4
3249.3	3995.4
3252.382	3977.4
3255.46	3963.4
3258.537	3927.4
3261.611	3951.4
3264.682	3965.4
3267.751	3951.4
3270.818	3983.4
3273.882	3950.4
3276.943	3909.4
3280.002	3902.4
3283.059	3850.4
3286.113	3794.4
3289.165	3736.4
3292.214	3695.4
3295.261	3639.4
3298.306	3581.4
3301.348	3536.4
3304.387	3461.4
3307.425	3393.4
3310.459	3340.4
3313.492	3295.4
3316.521	3253.4
3319.549	3232.4
3322.574	3179.4
3325.597	3121.4
3328.617	3132.4
3331.635	3139.4
3334.65	3087.4
3337.663	3098.4
3340.674	3035.4
3343.682	3056.4
3346.688	3058.4
3349.691	3044.4
3352.692	3002.4
3355.691	2980.4
3358.687	2954.4
3361.681	2907.4
3364.673	2878.4
3367.662	2839.4
3370.649	2805.4
3373.633	2777.4
3376.615	2730.4
3379.595	2682.4
3382.572	2656.4
3385.547	2616.4
3388.52	2563.4
3391.49	2527.4
3394.458	2507.4
3397.424	2481.4
3400.387	2428.4
3403.348	2424.4
3406.307	2396.4
3409.263	2328.4
3412.217	2325.4
3415.168	2329.4
3418.118	2261.4
3421.065	2240.4
3424.009	2201.4
3426.951	2178.4
3429.891	2141.4
3432.829	2065.4
3435.764	2036.4
3438.697	2005.4
3441.628	1934.4
3444.557	1887.4
3447.483	1833.4
3450.407	1775.4
3453.328	1708.4
3456.247	1659.4
3459.164	1612.4
3462.079	1541.4
3464.991	1501.4
3467.902	1452.4
3470.809	1368.4
3473.715	1331.4
3476.618	1293.4
3479.519	1252.4
3482.418	1202.4
3485.315	1169.4
3488.209	1143.4
3491.101	1094.4
3493.99	1052.4
3496.878	1015.4
3499.763	985.4
3502.646	940.4
3505.527	901.4
3508.405	874.4
3511.281	807.4
3514.155	767.4
3517.027	726.4
3519.897	694.4
3522.764	640.4
3525.629	594.4
3528.492	545.4
3531.352	499.4
3534.211	476.4
3537.067	430.4
3539.921	384.4
3542.773	358.4
3545.622	312.4
3548.469	287.4
3551.315	253.4
3554.157	241.4
3556.998	190.4
3559.837	170.4
3562.673	138.4
3565.507	108.4
3568.339	92.4
3571.169	65.4
3573.996	53.4
3576.822	24.4
3579.645	-0.6
3582.466	-26.6
3585.285	-48.6
3588.101	-60.6
3590.916	-76.6
3593.728	-100.6
3596.538	-124.6
3599.346	-136.6
3602.152	-158.6
3604.956	-171.6
3607.757	-196.6
3610.556	-208.6
3613.354	-227.6
3616.149	-242.6
3618.942	-256.6
3621.732	-272.6
3624.521	-279.6
3627.307	-294.6
3630.092	-296.6
3632.874	-316.6
3635.654	-318.6
3638.432	-333.6
3641.208	-342.6
3643.982	-356.6
3646.753	-367.6
3649.523	-370.6
3652.29	-381.6
3655.055	-383.6
3657.818	-404.6
3660.579	-417.6
3663.338	-432.6
3666.095	-437.6
3668.849	-445.6
3671.602	-455.6
3674.352	-460.6
3677.101	-468.6
3679.847	-478.6
3682.591	-482.6
3685.333	-495.6
3688.073	-498.6
3690.811	-502.6
3693.547	-508.6
3696.281	-506.6
3699.013	-519.6
3701.742	-528.6
3704.47	-531.6
3707.195	-538.6
3709.919	-539.6
3712.64	-544.6
3715.359	-544.6
3718.076	-558.6
3720.792	-555.6
3723.505	-558.6
3726.216	-566.6
3728.925	-564.6
3731.632	-574.6
3734.336	-571.6
3737.039	-577.6
3739.74	-575.6
3742.439	-582.6
3745.136	-576.6
3747.83	-583.6
3750.523	-583.6
3753.213	-598.6
3755.902	-587.6
3758.589	-589.6
3761.273	-595.6
3763.956	-599.6
3766.636	-602.6
3769.315	-603.6
3771.991	-601.6
3774.665	-612.6
3777.338	-606.6
3780.008	-610.6
3782.677	-617.6
3785.343	-610.6
3788.007	-611.6
3790.67	-616.6
3793.33	-615.6
3795.989	-616.6
3798.645	-615.6
3801.299	-617.6
3803.952	-620.6
3806.602	-627.6
3809.251	-629.6
3811.897	-621.6
3814.542	-625.6
3817.184	-618.6
3819.825	-625.6
3822.463	-621.6
3825.1	-627.6
3827.735	-628.6
3830.367	-625.6
3832.998	-636.6
3835.627	-637.6
3838.253	-632.6
3840.878	-638.6
3843.501	-639.6
3846.122	-630.6
3848.741	-632.6
3851.358	-640.6
3853.973	-640.6
3856.586	-646.6
3859.197	-641.6
3861.806	-647.6
3864.414	-642.6
3867.019	-641.6
3869.622	-642.6
3872.224	-636.6
3874.823	-615.6
3877.421	-605.6
3880.016	-587.6
3882.61	-568.6
3885.202	-569.6
3887.792	-573.6
3890.38	-606.6
3892.966	-630.6
3895.55	-643.6
3898.132	-651.6
3900.713	-653.6
3903.291	-648.6
3905.868	-649.6
3908.442	-647.6
3911.015	-658.6
3913.586	-639.6
3916.155	-649.6
3918.722	-661.6
3921.287	-651.6
3923.85	-658.6
3926.411	-654.6
3928.971	-668.6
3931.528	-659.6
3934.084	-654.6
3936.638	-656.6
3939.19	-659.6
3941.74	-655.6
3944.288	-663.6
3946.834	-649.6
3949.378	-657.6
3951.921	-662.6
3954.462	-665.6
3957	-652.6
3959.537	-656.6
3962.072	-655.6
3964.606	-657.6
3967.137	-655.6
3969.667	-656.6
3972.194	-651.6
3974.72	-659.6
3977.244	-647.6
3979.766	-640.6
3982.286	-649.6
3984.805	-649.6
3987.321	-642.6
3989.836	-649.6
3992.349	-639.6
3994.86	-645.6
3997.369	-655.6
3999.877	-644.6
4002.382	-639.6
4004.886	-641.6
4007.388	-639.6
4009.888	-640.6
4012.386	-645.6
4014.883	-639.6
4017.377	-638.6
4019.87	-636.6
4022.361	-644.6
4024.85	-644.6
4027.338	-645.6
4029.823	-642.6
4032.307	-649.6
4034.789	-638.6
4037.269	-636.6
4039.747	-646.6
4042.224	-650.6
4044.699	-647.6
4047.172	-645.6
4049.643	-641.6
4052.112	-654.6
4054.58	-651.6
4057.046	-652.6
4059.51	-653.6
4061.972	-654.6
4064.432	-644.6
4066.891	-645.6
4069.348	-648.6
4071.803	-640.6
4074.256	-645.6
4076.708	-651.6
4079.158	-646.6
4081.606	-652.6
4084.052	-655.6
4086.497	-645.6
4088.939	-641.6
4091.38	-645.6
4093.819	-640.6
4096.257	-681.6
4098.693	-676.6
4101.127	-680.6
4103.559	-678.6
4105.989	-396.6
4108.418	-372.6
4110.845	-348.6
4113.27	-318.6
4115.694	-284.6
4118.115	-235.6
4120.535	-646.6
4122.954	-646.6
4125.37	-636.6
4127.785	-646.6
4130.198	-643.6
4132.609	-650.6
4135.019	-678.6
4137.427	-680.6
4139.833	-678.6
4142.237	-677.6
