Data from 2018-2-14_conc=4_n=2_RamanShift_05.txt Node
Date: Wed Feb 14 13:30:25 IST 2018
User: aro
Spectrometer: QEPB0276
Trigger mode: 0
Integration Time (sec): 3.000000E1
Scans to average: 1
Electric dark correction enabled: true
Nonlinearity correction enabled: false
Boxcar width: 0
XAxis mode: Raman Shifts
Number of Pixels in Spectrum: 1044
>>>>>Begin Spectral Data<<<<<
160.701	-157.4
166.742	49.6
172.777	624.6
178.805	2368.6
184.826	6561.6
190.841	13715.6
196.849	21947.6
202.85	27745.6
208.845	29595.6
214.833	29318.6
220.815	28849.6
226.789	28831.6
232.758	28672.6
238.719	28539.6
244.674	28228.6
250.623	27796.6
256.565	27224.6
262.5	26700.6
268.429	26283.6
274.351	25972.6
280.267	25656.6
286.176	25414.6
292.079	25263.6
297.975	25067.6
303.865	24847.6
309.748	24686.6
315.625	24578.6
321.495	24418.6
327.359	24327.6
333.217	24319.6
339.068	24309.6
344.912	24250.6
350.751	24248.6
356.583	24218.6
362.408	24269.6
368.227	24229.6
374.04	24229.6
379.847	24298.6
385.647	24385.6
391.44	24497.6
397.228	24598.6
403.009	24766.6
408.784	24774.6
414.553	24865.6
420.315	24916.6
426.071	24948.6
431.821	24922.6
437.565	24948.6
443.302	24827.6
449.033	24822.6
454.758	24754.6
460.477	24704.6
466.189	24799.6
471.896	24642.6
477.596	24576.6
483.29	24557.6
488.978	24489.6
494.66	24470.6
500.335	24275.6
506.005	24143.6
511.668	23829.6
517.325	23643.6
522.977	23378.6
528.622	23262.6
534.261	23099.6
539.894	23044.6
545.521	22936.6
551.141	22871.6
556.756	22752.6
562.365	22740.6
567.968	22595.6
573.565	22580.6
579.155	22435.6
584.74	22366.6
590.319	22296.6
595.892	22289.6
601.459	22116.6
607.02	22119.6
612.575	21943.6
618.124	21814.6
623.667	21685.6
629.204	21610.6
634.735	21500.6
640.261	21439.6
645.781	21358.6
651.294	21328.6
656.802	21341.6
662.304	21241.6
667.8	21207.6
673.29	21189.6
678.775	21170.6
684.254	21110.6
689.726	21050.6
695.193	20958.6
700.655	20816.6
706.11	20780.6
711.56	20696.6
717.004	20538.6
722.442	20475.6
727.874	20380.6
733.301	20321.6
738.722	20305.6
744.137	20258.6
749.547	20253.6
754.951	20271.6
760.349	20281.6
765.741	20310.6
771.128	20278.6
776.509	20322.6
781.885	20307.6
787.254	20237.6
792.618	20146.6
797.977	20036.6
803.33	19857.6
808.677	19768.6
814.019	19685.6
819.355	19519.6
824.686	19452.6
830.011	19497.6
835.33	19453.6
840.644	19442.6
845.952	19472.6
851.255	19594.6
856.552	19576.6
861.844	19545.6
867.13	19542.6
872.41	19456.6
877.686	19291.6
882.955	19234.6
888.219	19022.6
893.478	18840.6
898.731	18597.6
903.979	18450.6
909.221	18342.6
914.458	18289.6
919.69	18233.6
924.916	18286.6
930.136	18390.6
935.351	18400.6
940.561	18406.6
945.766	18376.6
950.965	18274.6
956.158	18146.6
961.347	17929.6
966.529	17732.6
971.707	17531.6
976.879	17318.6
982.046	17207.6
987.208	17167.6
992.364	17171.6
997.515	17222.6
1002.66	17412.6
1007.801	17582.6
1012.936	17686.6
1018.066	17727.6
1023.19	17686.6
1028.309	17757.6
1033.423	17645.6
1038.532	17558.6
1043.636	17381.6
1048.734	17210.6
1053.827	17034.6
1058.915	16879.6
1063.998	16732.6
1069.075	16658.6
1074.147	16635.6
1079.214	16814.6
1084.276	16836.6
1089.333	16915.6
1094.385	17078.6
1099.431	17072.6
1104.472	17042.6
1109.509	16986.6
1114.54	16787.6
1119.565	16569.6
1124.586	16396.6
1129.602	16218.6
1134.613	16128.6
1139.618	16057.6
1144.619	15966.6
1149.614	15975.6
1154.604	15990.6
1159.589	16093.6
1164.57	16087.6
1169.545	16121.6
1174.515	16106.6
1179.48	16045.6
1184.44	15917.6
1189.395	15819.6
1194.345	15654.6
1199.29	15623.6
1204.23	15643.6
1209.165	15679.6
1214.095	15751.6
1219.021	15853.6
1223.941	15905.6
1228.856	16029.6
1233.766	16064.6
1238.672	16076.6
1243.572	16061.6
1248.467	15958.6
1253.358	15775.6
1258.244	15526.6
1263.124	15327.6
1268	15097.6
1272.871	14907.6
1277.737	14860.6
1282.599	14761.6
1287.455	14724.6
1292.306	14781.6
1297.153	14809.6
1301.995	14950.6
1306.832	14956.6
1311.664	15025.6
1316.491	14923.6
1321.314	14861.6
1326.132	14546.6
1330.945	14264.6
1335.753	13873.6
1340.556	13496.6
1345.354	13187.6
1350.148	12944.6
1354.937	12778.6
1359.722	12773.6
1364.501	12880.6
1369.276	13069.6
1374.046	13299.6
1378.811	13568.6
1383.572	13803.6
1388.327	13863.6
1393.079	13805.6
1397.825	13622.6
1402.567	13344.6
1407.304	13213.6
1412.036	13036.6
1416.764	12867.6
1421.487	12838.6
1426.205	12816.6
1430.919	12705.6
1435.628	12763.6
1440.333	12791.6
1445.032	12816.6
1449.727	12816.6
1454.418	12759.6
1459.104	12616.6
1463.785	12333.6
1468.462	12092.6
1473.134	11783.6
1477.802	11547.6
1482.465	11398.6
1487.123	11202.6
1491.777	11199.6
1496.426	11291.6
1501.071	11402.6
1505.711	11594.6
1510.347	11775.6
1514.978	12059.6
1519.604	12261.6
1524.226	12444.6
1528.844	12408.6
1533.457	12410.6
1538.065	12385.6
1542.669	12289.6
1547.269	12190.6
1551.864	12105.6
1556.454	12058.6
1561.041	11987.6
1565.622	11961.6
1570.199	11997.6
1574.772	12071.6
1579.34	12098.6
1583.904	12215.6
1588.464	12185.6
1593.019	12159.6
1597.569	12160.6
1602.115	12046.6
1606.657	11953.6
1611.195	11854.6
1615.728	11780.6
1620.256	11712.6
1624.78	11658.6
1629.3	11665.6
1633.816	11710.6
1638.327	11748.6
1642.834	11738.6
1647.336	11848.6
1651.834	11814.6
1656.328	11795.6
1660.817	11726.6
1665.302	11598.6
1669.783	11442.6
1674.259	11207.6
1678.732	10857.6
1683.199	10493.6
1687.663	10166.6
1692.122	9792.6
1696.577	9608.6
1701.028	9633.6
1705.474	9760.6
1709.917	9994.6
1714.355	10080.6
1718.788	10095.6
1723.218	9944.6
1727.643	9751.6
1732.064	9535.6
1736.481	9339.6
1740.893	9150.6
1745.301	8878.6
1749.705	8633.6
1754.105	8414.6
1758.501	8188.6
1762.893	7958.6
1767.28	7765.6
1771.663	7567.6
1776.042	7439.6
1780.417	7274.6
1784.787	7318.6
1789.154	7360.6
1793.516	7488.6
1797.874	7644.6
1802.228	7864.6
1806.578	8011.6
1810.924	8005.6
1815.266	7937.6
1819.603	7843.6
1823.937	7728.6
1828.266	7584.6
1832.591	7443.6
1836.913	7341.6
1841.23	7272.6
1845.543	7234.6
1849.852	7179.6
1854.156	7171.6
1858.457	7098.6
1862.754	7095.6
1867.047	7085.6
1871.335	7064.6
1875.62	7070.6
1879.9	7028.6
1884.177	6958.6
1888.449	6926.6
1892.718	6797.6
1896.982	6757.6
1901.243	6671.6
1905.499	6602.6
1909.752	6611.6
1914	6586.6
1918.245	6557.6
1922.485	6641.6
1926.722	6739.6
1930.954	6810.6
1935.183	6910.6
1939.408	6947.6
1943.628	7042.6
1947.845	7064.6
1952.058	7056.6
1956.267	7010.6
1960.472	6959.6
1964.673	6812.6
1968.87	6688.6
1973.063	6602.6
1977.252	6492.6
1981.438	6429.6
1985.619	6400.6
1989.797	6314.6
1993.971	6292.6
1998.14	6292.6
2002.306	6197.6
2006.469	6175.6
2010.627	6172.6
2014.781	6123.6
2018.932	6080.6
2023.078	6005.6
2027.221	5932.6
2031.36	5833.6
2035.495	5756.6
2039.627	5605.6
2043.754	5553.6
2047.878	5494.6
2051.998	5483.6
2056.114	5424.6
2060.226	5442.6
2064.334	5445.6
2068.439	5433.6
2072.54	5473.6
2076.637	5527.6
2080.73	5552.6
2084.82	5571.6
2088.906	5613.6
2092.988	5612.6
2097.066	5578.6
2101.14	5557.6
2105.211	5544.6
2109.278	5494.6
2113.342	5460.6
2117.401	5436.6
2121.457	5388.6
2125.509	5374.6
2129.558	5377.6
2133.602	5332.6
2137.643	5292.6
2141.681	5293.6
2145.714	5258.6
2149.744	5191.6
2153.77	5201.6
2157.793	5128.6
2161.812	5081.6
2165.827	4953.6
2169.838	4902.6
2173.846	4847.6
2177.851	4763.6
2181.851	4689.6
2185.848	4661.6
2189.841	4565.6
2193.831	4533.6
2197.817	4486.6
2201.799	4498.6
2205.778	4457.6
2209.753	4439.6
2213.725	4421.6
2217.693	4406.6
2221.657	4399.6
2225.618	4398.6
2229.575	4373.6
2233.529	4334.6
2237.479	4295.6
2241.425	4248.6
2245.368	4208.6
2249.307	4161.6
2253.243	4064.6
2257.175	4017.6
2261.104	3966.6
2265.029	3921.6
2268.95	3887.6
2272.868	3844.6
2276.783	3825.6
2280.694	3749.6
2284.601	3745.6
2288.505	3713.6
2292.405	3678.6
2296.302	3635.6
2300.195	3584.6
2304.085	3547.6
2307.971	3506.6
2311.854	3444.6
2315.734	3409.6
2319.609	3380.6
2323.482	3311.6
2327.351	3254.6
2331.216	3251.6
2335.078	3264.6
2338.937	3203.6
2342.792	3224.6
2346.643	3211.6
2350.492	3201.6
2354.336	3206.6
2358.178	3224.6
2362.015	3224.6
2365.85	3244.6
2369.681	3218.6
2373.508	3249.6
2377.333	3231.6
2381.153	3203.6
2384.971	3182.6
2388.785	3179.6
2392.595	3139.6
2396.402	3113.6
2400.206	3089.6
2404.007	3062.6
2407.804	3035.6
2411.597	3027.6
2415.388	3037.6
2419.174	2993.6
2422.958	2984.6
2426.738	2927.6
2430.515	2921.6
2434.289	2910.6
2438.059	2897.6
2441.825	2856.6
2445.589	2816.6
2449.349	2760.6
2453.106	2763.6
2456.859	2758.6
2460.61	2687.6
2464.356	2660.6
2468.1	2622.6
2471.84	2587.6
2475.577	2575.6
2479.311	2577.6
2483.041	2557.6
2486.768	2554.6
2490.492	2523.6
2494.213	2532.6
2497.93	2506.6
2501.644	2498.6
2505.355	2473.6
2509.062	2471.6
2512.766	2438.6
2516.467	2441.6
2520.165	2435.6
2523.859	2403.6
2527.551	2392.6
2531.239	2382.6
2534.923	2364.6
2538.605	2336.6
2542.283	2355.6
2545.958	2317.6
2549.63	2340.6
2553.299	2335.6
2556.964	2317.6
2560.626	2335.6
2564.285	2289.6
2567.941	2284.6
2571.594	2277.6
2575.243	2284.6
2578.89	2266.6
2582.533	2232.6
2586.173	2211.6
2589.809	2199.6
2593.443	2210.6
2597.073	2151.6
2600.701	2153.6
2604.325	2115.6
2607.946	2127.6
2611.564	2108.6
2615.178	2095.6
2618.79	2085.6
2622.398	2065.6
2626.004	2056.6
2629.606	2032.6
2633.205	2002.6
2636.801	1966.6
2640.394	1928.6
2643.983	1910.6
2647.57	1893.6
2651.153	1855.6
2654.734	1816.6
2658.311	1782.6
2661.885	1756.6
2665.456	1741.6
2669.025	1737.6
2672.589	1704.6
2676.151	1684.6
2679.71	1673.6
2683.266	1626.6
2686.819	1608.6
2690.368	1573.6
2693.915	1556.6
2697.458	1501.6
2700.999	1459.6
2704.536	1442.6
2708.071	1439.6
2711.602	1394.6
2715.13	1348.6
2718.656	1321.6
2722.178	1310.6
2725.697	1267.6
2729.214	1251.6
2732.727	1235.6
2736.237	1225.6
2739.744	1203.6
2743.249	1240.6
2746.75	1243.6
2750.248	1253.6
2753.743	1252.6
2757.236	1268.6
2760.725	1283.6
2764.211	1311.6
2767.695	1304.6
2771.175	1302.6
2774.652	1304.6
2778.127	1290.6
2781.598	1284.6
2785.067	1276.6
2788.532	1259.6
2791.995	1256.6
2795.455	1267.6
2798.911	1265.6
2802.365	1264.6
2805.816	1254.6
2809.264	1263.6
2812.709	1242.6
2816.151	1239.6
2819.59	1251.6
2823.026	1241.6
2826.46	1250.6
2829.89	1247.6
2833.318	1250.6
2836.742	1286.6
2840.164	1256.6
2843.583	1257.6
2846.999	1280.6
2850.412	1282.6
2853.822	1311.6
2857.229	1306.6
2860.634	1334.6
2864.035	1346.6
2867.434	1359.6
2870.83	1387.6
2874.223	1399.6
2877.613	1396.6
2881	1425.6
2884.385	1433.6
2887.766	1431.6
2891.145	1433.6
2894.521	1395.6
2897.894	1406.6
2901.264	1419.6
2904.631	1413.6
2907.996	1420.6
2911.358	1424.6
2914.717	1424.6
2918.073	1415.6
2921.426	1442.6
2924.777	1452.6
2928.124	1461.6
2931.469	1473.6
2934.811	1514.6
2938.15	1518.6
2941.487	1554.6
2944.821	1539.6
2948.152	1512.6
2951.48	1526.6
2954.805	1483.6
2958.128	1481.6
2961.447	1479.6
2964.765	1453.6
2968.079	1458.6
2971.39	1493.6
2974.699	1497.6
2978.005	1513.6
2981.308	1531.6
2984.609	1580.6
2987.907	1588.6
2991.202	1621.6
2994.494	1638.6
2997.784	1687.6
3001.07	1705.6
3004.355	1753.6
3007.636	1761.6
3010.915	1776.6
3014.191	1810.6
3017.464	1800.6
3020.734	1821.6
3024.002	1820.6
3027.267	1838.6
3030.53	1871.6
3033.789	1878.6
3037.046	1896.6
3040.301	1922.6
3043.552	1948.6
3046.801	1963.6
3050.048	2026.6
3053.291	2068.6
3056.532	2097.6
3059.771	2170.6
3063.006	2240.6
3066.239	2323.6
3069.469	2377.6
3072.697	2407.6
3075.922	2477.6
3079.144	2534.6
3082.364	2581.6
3085.581	2625.6
3088.795	2700.6
3092.007	2745.6
3095.216	2813.6
3098.423	2865.6
3101.627	2921.6
3104.828	2986.6
3108.026	3026.6
3111.222	3094.6
3114.416	3167.6
3117.607	3217.6
3120.795	3320.6
3123.98	3381.6
3127.163	3489.6
3130.344	3557.6
3133.521	3659.6
3136.696	3712.6
3139.869	3777.6
3143.039	3859.6
3146.206	3904.6
3149.371	3934.6
3152.533	3996.6
3155.693	3995.6
3158.85	4017.6
3162.005	4073.6
3165.157	4059.6
3168.306	4050.6
3171.453	4056.6
3174.597	4070.6
3177.739	4091.6
3180.878	4095.6
3184.014	4097.6
3187.149	4060.6
3190.28	4078.6
3193.409	4080.6
3196.536	4083.6
3199.659	4094.6
3202.781	4096.6
3205.9	4098.6
3209.016	4099.6
3212.13	4079.6
3215.241	4021.6
3218.35	4011.6
3221.456	3969.6
3224.56	3940.6
3227.661	3867.6
3230.76	3858.6
3233.856	3814.6
3236.95	3759.6
3240.041	3712.6
3243.13	3702.6
3246.216	3659.6
3249.3	3659.6
3252.382	3656.6
3255.46	3641.6
3258.537	3602.6
3261.611	3615.6
3264.682	3633.6
3267.751	3634.6
3270.818	3609.6
3273.882	3633.6
3276.943	3580.6
3280.002	3545.6
3283.059	3523.6
3286.113	3518.6
3289.165	3440.6
3292.214	3366.6
3295.261	3332.6
3298.306	3281.6
3301.348	3215.6
3304.387	3164.6
3307.425	3124.6
3310.459	3079.6
3313.492	3029.6
3316.521	2975.6
3319.549	2944.6
3322.574	2925.6
3325.597	2895.6
3328.617	2883.6
3331.635	2854.6
3334.65	2806.6
3337.663	2824.6
3340.674	2799.6
3343.682	2811.6
3346.688	2788.6
3349.691	2741.6
3352.692	2737.6
3355.691	2699.6
3358.687	2707.6
3361.681	2652.6
3364.673	2649.6
3367.662	2596.6
3370.649	2532.6
3373.633	2509.6
3376.615	2488.6
3379.595	2434.6
3382.572	2414.6
3385.547	2375.6
3388.52	2334.6
3391.49	2283.6
3394.458	2274.6
3397.424	2245.6
3400.387	2201.6
3403.348	2184.6
3406.307	2145.6
3409.263	2105.6
3412.217	2096.6
3415.168	2068.6
3418.118	2030.6
3421.065	2003.6
3424.009	1984.6
3426.951	1961.6
3429.891	1924.6
3432.829	1877.6
3435.764	1832.6
3438.697	1790.6
3441.628	1738.6
3444.557	1686.6
3447.483	1628.6
3450.407	1581.6
3453.328	1525.6
3456.247	1466.6
3459.164	1424.6
3462.079	1372.6
3464.991	1332.6
3467.902	1267.6
3470.809	1207.6
3473.715	1165.6
3476.618	1132.6
3479.519	1101.6
3482.418	1050.6
3485.315	1021.6
3488.209	977.6
3491.101	932.6
3493.99	915.6
3496.878	864.6
3499.763	838.6
3502.646	801.6
3505.527	772.6
3508.405	728.6
3511.281	682.6
3514.155	643.6
3517.027	612.6
3519.897	561.6
3522.764	518.6
3525.629	480.6
3528.492	435.6
3531.352	411.6
3534.211	346.6
3537.067	325.6
3539.921	281.6
3542.773	245.6
3545.622	219.6
3548.469	181.6
3551.315	150.6
3554.157	127.6
3556.998	104.6
3559.837	71.6
3562.673	64.6
3565.507	32.6
3568.339	7.6
3571.169	-15.4
3573.996	-32.4
3576.822	-49.4
3579.645	-67.4
3582.466	-94.4
3585.285	-120.4
3588.101	-132.4
3590.916	-144.4
3593.728	-181.4
3596.538	-192.4
3599.346	-213.4
3602.152	-228.4
3604.956	-238.4
3607.757	-268.4
3610.556	-280.4
3613.354	-298.4
3616.149	-308.4
3618.942	-325.4
3621.732	-330.4
3624.521	-350.4
3627.307	-343.4
3630.092	-359.4
3632.874	-379.4
3635.654	-383.4
3638.432	-384.4
3641.208	-390.4
3643.982	-414.4
3646.753	-420.4
3649.523	-424.4
3652.29	-439.4
3655.055	-437.4
3657.818	-460.4
3660.579	-465.4
3663.338	-482.4
3666.095	-493.4
3668.849	-493.4
3671.602	-507.4
3674.352	-519.4
3677.101	-518.4
3679.847	-529.4
3682.591	-532.4
3685.333	-534.4
3688.073	-544.4
3690.811	-552.4
3693.547	-557.4
3696.281	-558.4
3699.013	-565.4
3701.742	-572.4
3704.47	-571.4
3707.195	-582.4
3709.919	-576.4
3712.64	-585.4
3715.359	-585.4
3718.076	-594.4
3720.792	-601.4
3723.505	-596.4
3726.216	-609.4
3728.925	-608.4
3731.632	-613.4
3734.336	-612.4
3737.039	-620.4
3739.74	-615.4
3742.439	-619.4
3745.136	-620.4
3747.83	-629.4
3750.523	-627.4
3753.213	-613.4
3755.902	-631.4
3758.589	-635.4
3761.273	-641.4
3763.956	-637.4
3766.636	-639.4
3769.315	-644.4
3771.991	-642.4
3774.665	-651.4
3777.338	-648.4
3780.008	-652.4
3782.677	-658.4
3785.343	-649.4
3788.007	-650.4
3790.67	-658.4
3793.33	-652.4
3795.989	-656.4
3798.645	-651.4
3801.299	-654.4
3803.952	-662.4
3806.602	-671.4
3809.251	-673.4
3811.897	-668.4
3814.542	-665.4
3817.184	-662.4
3819.825	-663.4
3822.463	-664.4
3825.1	-669.4
3827.735	-664.4
3830.367	-661.4
3832.998	-674.4
3835.627	-673.4
3838.253	-681.4
3840.878	-678.4
3843.501	-680.4
3846.122	-674.4
3848.741	-674.4
3851.358	-668.4
3853.973	-669.4
3856.586	-677.4
3859.197	-678.4
3861.806	-679.4
3864.414	-675.4
3867.019	-673.4
3869.622	-674.4
3872.224	-672.4
3874.823	-662.4
3877.421	-646.4
3880.016	-633.4
3882.61	-613.4
3885.202	-621.4
3887.792	-629.4
3890.38	-660.4
3892.966	-672.4
3895.55	-680.4
3898.132	-694.4
3900.713	-697.4
3903.291	-688.4
3905.868	-689.4
3908.442	-693.4
3911.015	-691.4
3913.586	-688.4
3916.155	-687.4
3918.722	-691.4
3921.287	-689.4
3923.85	-694.4
3926.411	-693.4
3928.971	-702.4
3931.528	-694.4
3934.084	-689.4
3936.638	-694.4
3939.19	-700.4
3941.74	-693.4
3944.288	-701.4
3946.834	-692.4
3949.378	-699.4
3951.921	-697.4
3954.462	-701.4
3957	-690.4
3959.537	-696.4
3962.072	-693.4
3964.606	-693.4
3967.137	-692.4
3969.667	-694.4
3972.194	-686.4
3974.72	-691.4
3977.244	-679.4
3979.766	-689.4
3982.286	-687.4
3984.805	-686.4
3987.321	-682.4
3989.836	-685.4
3992.349	-676.4
3994.86	-680.4
3997.369	-690.4
3999.877	-679.4
4002.382	-675.4
4004.886	-681.4
4007.388	-677.4
4009.888	-671.4
4012.386	-683.4
4014.883	-670.4
4017.377	-677.4
4019.87	-673.4
4022.361	-673.4
4024.85	-679.4
4027.338	-681.4
4029.823	-683.4
4032.307	-688.4
4034.789	-682.4
4037.269	-680.4
4039.747	-682.4
4042.224	-687.4
4044.699	-686.4
4047.172	-684.4
4049.643	-678.4
4052.112	-691.4
4054.58	-687.4
4057.046	-683.4
4059.51	-685.4
4061.972	-688.4
4064.432	-687.4
4066.891	-679.4
4069.348	-684.4
4071.803	-684.4
4074.256	-684.4
4076.708	-680.4
4079.158	-686.4
4081.606	-689.4
4084.052	-688.4
4086.497	-684.4
4088.939	-678.4
4091.38	-691.4
4093.819	-682.4
4096.257	-718.4
4098.693	-718.4
4101.127	-723.4
4103.559	-720.4
4105.989	-419.4
4108.418	-400.4
4110.845	-369.4
4113.27	-344.4
4115.694	-299.4
4118.115	-250.4
4120.535	-682.4
4122.954	-681.4
4125.37	-671.4
4127.785	-679.4
4130.198	-682.4
4132.609	-685.4
4135.019	-724.4
4137.427	-720.4
4139.833	-721.4
4142.237	-719.4
