Data from 2018-2-14_conc=0_n=1_RamanShift_10.txt Node
Date: Wed Feb 14 10:31:26 IST 2018
User: aro
Spectrometer: QEPB0276
Trigger mode: 0
Integration Time (sec): 3.000000E1
Scans to average: 1
Electric dark correction enabled: true
Nonlinearity correction enabled: false
Boxcar width: 0
XAxis mode: Raman Shifts
Number of Pixels in Spectrum: 1044
>>>>>Begin Spectral Data<<<<<
160.701	-154.9
166.742	49.1
172.777	581.1
178.805	2306.1
184.826	6358.1
190.841	13199.1
196.849	21039.1
202.85	26582.1
208.845	28351.1
214.833	28011.1
220.815	27592.1
226.789	27385.1
232.758	27209.1
238.719	27082.1
244.674	26752.1
250.623	26275.1
256.565	25731.1
262.5	25197.1
268.429	24766.1
274.351	24411.1
280.267	24050.1
286.176	23855.1
292.079	23583.1
297.975	23352.1
303.865	23161.1
309.748	23035.1
315.625	22878.1
321.495	22801.1
327.359	22717.1
333.217	22665.1
339.068	22609.1
344.912	22593.1
350.751	22613.1
356.583	22546.1
362.408	22488.1
368.227	22557.1
374.04	22512.1
379.847	22615.1
385.647	22685.1
391.44	22836.1
397.228	22878.1
403.009	22994.1
408.784	22991.1
414.553	23124.1
420.315	23166.1
426.071	23162.1
431.821	23162.1
437.565	23142.1
443.302	23094.1
449.033	23107.1
454.758	23093.1
460.477	23007.1
466.189	22950.1
471.896	22844.1
477.596	22840.1
483.29	22766.1
488.978	22780.1
494.66	22576.1
500.335	22571.1
506.005	22243.1
511.668	21977.1
517.325	21730.1
522.977	21523.1
528.622	21381.1
534.261	21289.1
539.894	21204.1
545.521	21072.1
551.141	20999.1
556.756	21053.1
562.365	20853.1
567.968	20752.1
573.565	20607.1
579.155	20603.1
584.74	20489.1
590.319	20476.1
595.892	20423.1
601.459	20325.1
607.02	20200.1
612.575	20092.1
618.124	19972.1
623.667	19858.1
629.204	19815.1
634.735	19676.1
640.261	19605.1
645.781	19548.1
651.294	19482.1
656.802	19438.1
662.304	19426.1
667.8	19360.1
673.29	19400.1
678.775	19311.1
684.254	19292.1
689.726	19144.1
695.193	19207.1
700.655	19098.1
706.11	18985.1
711.56	18812.1
717.004	18745.1
722.442	18712.1
727.874	18591.1
733.301	18572.1
738.722	18509.1
744.137	18491.1
749.547	18482.1
754.951	18475.1
760.349	18503.1
765.741	18424.1
771.128	18512.1
776.509	18488.1
781.885	18501.1
787.254	18467.1
792.618	18379.1
797.977	18232.1
803.33	18149.1
808.677	18039.1
814.019	17936.1
819.355	17829.1
824.686	17775.1
830.011	17751.1
835.33	17757.1
840.644	17732.1
845.952	17779.1
851.255	17794.1
856.552	17819.1
861.844	17787.1
867.13	17737.1
872.41	17638.1
877.686	17545.1
882.955	17494.1
888.219	17271.1
893.478	17098.1
898.731	16919.1
903.979	16741.1
909.221	16576.1
914.458	16547.1
919.69	16566.1
924.916	16605.1
930.136	16687.1
935.351	16716.1
940.561	16637.1
945.766	16624.1
950.965	16552.1
956.158	16440.1
961.347	16248.1
966.529	16087.1
971.707	15925.1
976.879	15666.1
982.046	15538.1
987.208	15525.1
992.364	15495.1
997.515	15620.1
1002.66	15726.1
1007.801	15932.1
1012.936	16038.1
1018.066	16079.1
1023.19	15995.1
1028.309	16022.1
1033.423	15975.1
1038.532	15936.1
1043.636	15807.1
1048.734	15570.1
1053.827	15410.1
1058.915	15235.1
1063.998	15105.1
1069.075	15052.1
1074.147	15098.1
1079.214	15210.1
1084.276	15214.1
1089.333	15349.1
1094.385	15439.1
1099.431	15464.1
1104.472	15461.1
1109.509	15360.1
1114.54	15162.1
1119.565	14967.1
1124.586	14778.1
1129.602	14617.1
1134.613	14514.1
1139.618	14452.1
1144.619	14435.1
1149.614	14404.1
1154.604	14459.1
1159.589	14495.1
1164.57	14489.1
1169.545	14524.1
1174.515	14521.1
1179.48	14414.1
1184.44	14340.1
1189.395	14275.1
1194.345	14128.1
1199.29	14102.1
1204.23	14103.1
1209.165	14140.1
1214.095	14202.1
1219.021	14253.1
1223.941	14330.1
1228.856	14429.1
1233.766	14470.1
1238.672	14434.1
1243.572	14442.1
1248.467	14394.1
1253.358	14206.1
1258.244	13983.1
1263.124	13767.1
1268	13589.1
1272.871	13426.1
1277.737	13297.1
1282.599	13248.1
1287.455	13261.1
1292.306	13296.1
1297.153	13306.1
1301.995	13372.1
1306.832	13419.1
1311.664	13481.1
1316.491	13388.1
1321.314	13309.1
1326.132	13082.1
1330.945	12793.1
1335.753	12441.1
1340.556	12155.1
1345.354	11922.1
1350.148	11702.1
1354.937	11646.1
1359.722	11680.1
1364.501	11766.1
1369.276	11884.1
1374.046	12051.1
1378.811	12211.1
1383.572	12326.1
1388.327	12398.1
1393.079	12325.1
1397.825	12161.1
1402.567	11951.1
1407.304	11838.1
1412.036	11683.1
1416.764	11618.1
1421.487	11533.1
1426.205	11473.1
1430.919	11444.1
1435.628	11452.1
1440.333	11476.1
1445.032	11450.1
1449.727	11520.1
1454.418	11480.1
1459.104	11386.1
1463.785	11117.1
1468.462	10959.1
1473.134	10656.1
1477.802	10506.1
1482.465	10280.1
1487.123	10200.1
1491.777	10211.1
1496.426	10276.1
1501.071	10390.1
1505.711	10530.1
1510.347	10730.1
1514.978	10948.1
1519.604	11127.1
1524.226	11160.1
1528.844	11213.1
1533.457	11185.1
1538.065	11120.1
1542.669	11050.1
1547.269	10917.1
1551.864	10895.1
1556.454	10875.1
1561.041	10834.1
1565.622	10832.1
1570.199	10804.1
1574.772	10825.1
1579.34	10941.1
1583.904	10934.1
1588.464	11018.1
1593.019	11008.1
1597.569	10942.1
1602.115	10882.1
1606.657	10836.1
1611.195	10754.1
1615.728	10652.1
1620.256	10578.1
1624.78	10599.1
1629.3	10616.1
1633.816	10667.1
1638.327	10687.1
1642.834	10739.1
1647.336	10763.1
1651.834	10784.1
1656.328	10797.1
1660.817	10752.1
1665.302	10590.1
1669.783	10498.1
1674.259	10249.1
1678.732	9941.1
1683.199	9636.1
1687.663	9301.1
1692.122	9065.1
1696.577	8917.1
1701.028	8947.1
1705.474	8998.1
1709.917	9083.1
1714.355	9171.1
1718.788	9073.1
1723.218	8926.1
1727.643	8787.1
1732.064	8580.1
1736.481	8426.1
1740.893	8256.1
1745.301	7927.1
1749.705	7775.1
1754.105	7549.1
1758.501	7335.1
1762.893	7146.1
1767.28	6944.1
1771.663	6813.1
1776.042	6694.1
1780.417	6630.1
1784.787	6624.1
1789.154	6729.1
1793.516	6892.1
1797.874	6981.1
1802.228	7119.1
1806.578	7196.1
1810.924	7195.1
1815.266	7125.1
1819.603	7001.1
1823.937	6899.1
1828.266	6748.1
1832.591	6700.1
1836.913	6563.1
1841.23	6513.1
1845.543	6474.1
1849.852	6451.1
1854.156	6434.1
1858.457	6370.1
1862.754	6390.1
1867.047	6401.1
1871.335	6358.1
1875.62	6371.1
1879.9	6316.1
1884.177	6296.1
1888.449	6236.1
1892.718	6160.1
1896.982	6125.1
1901.243	6085.1
1905.499	6026.1
1909.752	6009.1
1914	6035.1
1918.245	6025.1
1922.485	6103.1
1926.722	6181.1
1930.954	6242.1
1935.183	6295.1
1939.408	6381.1
1943.628	6416.1
1947.845	6442.1
1952.058	6430.1
1956.267	6352.1
1960.472	6284.1
1964.673	6154.1
1968.87	6053.1
1973.063	5944.1
1977.252	5848.1
1981.438	5828.1
1985.619	5750.1
1989.797	5699.1
1993.971	5686.1
1998.14	5632.1
2002.306	5615.1
2006.469	5605.1
2010.627	5561.1
2014.781	5498.1
2018.932	5458.1
2023.078	5423.1
2027.221	5348.1
2031.36	5268.1
2035.495	5200.1
2039.627	5102.1
2043.754	5049.1
2047.878	4994.1
2051.998	4966.1
2056.114	4961.1
2060.226	4967.1
2064.334	4956.1
2068.439	4986.1
2072.54	5014.1
2076.637	5034.1
2080.73	5088.1
2084.82	5122.1
2088.906	5109.1
2092.988	5160.1
2097.066	5088.1
2101.14	5083.1
2105.211	5028.1
2109.278	4999.1
2113.342	4980.1
2117.401	4931.1
2121.457	4925.1
2125.509	4891.1
2129.558	4879.1
2133.602	4844.1
2137.643	4836.1
2141.681	4796.1
2145.714	4784.1
2149.744	4716.1
2153.77	4702.1
2157.793	4636.1
2161.812	4588.1
2165.827	4483.1
2169.838	4455.1
2173.846	4355.1
2177.851	4271.1
2181.851	4227.1
2185.848	4197.1
2189.841	4139.1
2193.831	4098.1
2197.817	4071.1
2201.799	4043.1
2205.778	3994.1
2209.753	4011.1
2213.725	3977.1
2217.693	3992.1
2221.657	3973.1
2225.618	3956.1
2229.575	3932.1
2233.529	3924.1
2237.479	3889.1
2241.425	3811.1
2245.368	3754.1
2249.307	3710.1
2253.243	3655.1
2257.175	3627.1
2261.104	3549.1
2265.029	3523.1
2268.95	3470.1
2272.868	3444.1
2276.783	3398.1
2280.694	3407.1
2284.601	3361.1
2288.505	3349.1
2292.405	3266.1
2296.302	3262.1
2300.195	3221.1
2304.085	3183.1
2307.971	3119.1
2311.854	3077.1
2315.734	3047.1
2319.609	3029.1
2323.482	2961.1
2327.351	2920.1
2331.216	2915.1
2335.078	2897.1
2338.937	2863.1
2342.792	2858.1
2346.643	2847.1
2350.492	2841.1
2354.336	2852.1
2358.178	2837.1
2362.015	2862.1
2365.85	2842.1
2369.681	2872.1
2373.508	2892.1
2377.333	2876.1
2381.153	2867.1
2384.971	2839.1
2388.785	2822.1
2392.595	2792.1
2396.402	2743.1
2400.206	2735.1
2404.007	2717.1
2407.804	2719.1
2411.597	2675.1
2415.388	2632.1
2419.174	2627.1
2422.958	2616.1
2426.738	2582.1
2430.515	2579.1
2434.289	2553.1
2438.059	2532.1
2441.825	2515.1
2445.589	2499.1
2449.349	2463.1
2453.106	2437.1
2456.859	2409.1
2460.61	2352.1
2464.356	2338.1
2468.1	2321.1
2471.84	2294.1
2475.577	2284.1
2479.311	2258.1
2483.041	2251.1
2486.768	2237.1
2490.492	2214.1
2494.213	2231.1
2497.93	2229.1
2501.644	2223.1
2505.355	2202.1
2509.062	2198.1
2512.766	2174.1
2516.467	2165.1
2520.165	2166.1
2523.859	2144.1
2527.551	2129.1
2531.239	2104.1
2534.923	2113.1
2538.605	2104.1
2542.283	2093.1
2545.958	2079.1
2549.63	2065.1
2553.299	2092.1
2556.964	2076.1
2560.626	2068.1
2564.285	2048.1
2567.941	2053.1
2571.594	2024.1
2575.243	2012.1
2578.89	2008.1
2582.533	2000.1
2586.173	1970.1
2589.809	1979.1
2593.443	1960.1
2597.073	1945.1
2600.701	1911.1
2604.325	1888.1
2607.946	1885.1
2611.564	1874.1
2615.178	1885.1
2618.79	1854.1
2622.398	1802.1
2626.004	1814.1
2629.606	1766.1
2633.205	1771.1
2636.801	1745.1
2640.394	1722.1
2643.983	1688.1
2647.57	1681.1
2651.153	1658.1
2654.734	1607.1
2658.311	1579.1
2661.885	1565.1
2665.456	1522.1
2669.025	1509.1
2672.589	1491.1
2676.151	1478.1
2679.71	1473.1
2683.266	1438.1
2686.819	1405.1
2690.368	1380.1
2693.915	1365.1
2697.458	1311.1
2700.999	1304.1
2704.536	1262.1
2708.071	1235.1
2711.602	1212.1
2715.13	1184.1
2718.656	1171.1
2722.178	1162.1
2725.697	1140.1
2729.214	1118.1
2732.727	1112.1
2736.237	1121.1
2739.744	1110.1
2743.249	1101.1
2746.75	1115.1
2750.248	1143.1
2753.743	1148.1
2757.236	1157.1
2760.725	1185.1
2764.211	1167.1
2767.695	1195.1
2771.175	1170.1
2774.652	1168.1
2778.127	1154.1
2781.598	1146.1
2785.067	1139.1
2788.532	1134.1
2791.995	1126.1
2795.455	1126.1
2798.911	1139.1
2802.365	1139.1
2805.816	1133.1
2809.264	1146.1
2812.709	1135.1
2816.151	1127.1
2819.59	1132.1
2823.026	1122.1
2826.46	1118.1
2829.89	1136.1
2833.318	1139.1
2836.742	1149.1
2840.164	1130.1
2843.583	1151.1
2846.999	1175.1
2850.412	1156.1
2853.822	1193.1
2857.229	1204.1
2860.634	1217.1
2864.035	1244.1
2867.434	1258.1
2870.83	1286.1
2874.223	1288.1
2877.613	1305.1
2881	1317.1
2884.385	1334.1
2887.766	1330.1
2891.145	1321.1
2894.521	1330.1
2897.894	1336.1
2901.264	1309.1
2904.631	1321.1
2907.996	1308.1
2911.358	1312.1
2914.717	1327.1
2918.073	1338.1
2921.426	1347.1
2924.777	1372.1
2928.124	1414.1
2931.469	1402.1
2934.811	1418.1
2938.15	1441.1
2941.487	1477.1
2944.821	1481.1
2948.152	1459.1
2951.48	1476.1
2954.805	1435.1
2958.128	1423.1
2961.447	1419.1
2964.765	1418.1
2968.079	1424.1
2971.39	1436.1
2974.699	1454.1
2978.005	1468.1
2981.308	1478.1
2984.609	1528.1
2987.907	1533.1
2991.202	1590.1
2994.494	1619.1
2997.784	1679.1
3001.07	1664.1
3004.355	1701.1
3007.636	1724.1
3010.915	1725.1
3014.191	1758.1
3017.464	1746.1
3020.734	1765.1
3024.002	1782.1
3027.267	1805.1
3030.53	1812.1
3033.789	1817.1
3037.046	1860.1
3040.301	1873.1
3043.552	1913.1
3046.801	1960.1
3050.048	1995.1
3053.291	2029.1
3056.532	2103.1
3059.771	2152.1
3063.006	2224.1
3066.239	2270.1
3069.469	2317.1
3072.697	2400.1
3075.922	2450.1
3079.144	2525.1
3082.364	2569.1
3085.581	2639.1
3088.795	2691.1
3092.007	2752.1
3095.216	2800.1
3098.423	2857.1
3101.627	2915.1
3104.828	2999.1
3108.026	3049.1
3111.222	3105.1
3114.416	3187.1
3117.607	3225.1
3120.795	3339.1
3123.98	3417.1
3127.163	3512.1
3130.344	3581.1
3133.521	3648.1
3136.696	3730.1
3139.869	3813.1
3143.039	3880.1
3146.206	3947.1
3149.371	3964.1
3152.533	3996.1
3155.693	4044.1
3158.85	4058.1
3162.005	4058.1
3165.157	4059.1
3168.306	4101.1
3171.453	4082.1
3174.597	4120.1
3177.739	4126.1
3180.878	4116.1
3184.014	4142.1
3187.149	4109.1
3190.28	4128.1
3193.409	4130.1
3196.536	4126.1
3199.659	4152.1
3202.781	4148.1
3205.9	4155.1
3209.016	4155.1
3212.13	4121.1
3215.241	4060.1
3218.35	4059.1
3221.456	4025.1
3224.56	3974.1
3227.661	3945.1
3230.76	3881.1
3233.856	3836.1
3236.95	3817.1
3240.041	3765.1
3243.13	3757.1
3246.216	3747.1
3249.3	3729.1
3252.382	3703.1
3255.46	3686.1
3258.537	3689.1
3261.611	3673.1
3264.682	3668.1
3267.751	3656.1
3270.818	3660.1
3273.882	3648.1
3276.943	3626.1
3280.002	3616.1
3283.059	3558.1
3286.113	3520.1
3289.165	3466.1
3292.214	3412.1
3295.261	3376.1
3298.306	3297.1
3301.348	3270.1
3304.387	3224.1
3307.425	3140.1
3310.459	3109.1
3313.492	3038.1
3316.521	3009.1
3319.549	2980.1
3322.574	2947.1
3325.597	2937.1
3328.617	2891.1
3331.635	2874.1
3334.65	2851.1
3337.663	2847.1
3340.674	2840.1
3343.682	2832.1
3346.688	2811.1
3349.691	2807.1
3352.692	2820.1
3355.691	2746.1
3358.687	2721.1
3361.681	2702.1
3364.673	2684.1
3367.662	2634.1
3370.649	2580.1
3373.633	2582.1
3376.615	2499.1
3379.595	2502.1
3382.572	2461.1
3385.547	2414.1
3388.52	2388.1
3391.49	2337.1
3394.458	2296.1
3397.424	2262.1
3400.387	2254.1
3403.348	2209.1
3406.307	2206.1
3409.263	2170.1
3412.217	2140.1
3415.168	2109.1
3418.118	2117.1
3421.065	2071.1
3424.009	2044.1
3426.951	2021.1
3429.891	1975.1
3432.829	1918.1
3435.764	1864.1
3438.697	1834.1
3441.628	1786.1
3444.557	1724.1
3447.483	1667.1
3450.407	1609.1
3453.328	1570.1
3456.247	1534.1
3459.164	1455.1
3462.079	1405.1
3464.991	1351.1
3467.902	1304.1
3470.809	1262.1
3473.715	1217.1
3476.618	1180.1
3479.519	1121.1
3482.418	1091.1
3485.315	1027.1
3488.209	1015.1
3491.101	990.1
3493.99	932.1
3496.878	903.1
3499.763	867.1
3502.646	829.1
3505.527	788.1
3508.405	752.1
3511.281	719.1
3514.155	676.1
3517.027	632.1
3519.897	588.1
3522.764	546.1
3525.629	513.1
3528.492	460.1
3531.352	431.1
3534.211	398.1
3537.067	347.1
3539.921	310.1
3542.773	273.1
3545.622	247.1
3548.469	230.1
3551.315	191.1
3554.157	162.1
3556.998	137.1
3559.837	105.1
3562.673	77.1
3565.507	60.1
3568.339	31.1
3571.169	9.1
3573.996	-2.9
3576.822	-14.9
3579.645	-47.9
3582.466	-71.9
3585.285	-84.9
3588.101	-106.9
3590.916	-126.9
3593.728	-150.9
3596.538	-154.9
3599.346	-176.9
3602.152	-200.9
3604.956	-220.9
3607.757	-233.9
3610.556	-237.9
3613.354	-264.9
3616.149	-279.9
3618.942	-301.9
3621.732	-297.9
3624.521	-311.9
3627.307	-334.9
3630.092	-334.9
3632.874	-340.9
3635.654	-360.9
3638.432	-362.9
3641.208	-372.9
3643.982	-386.9
3646.753	-385.9
3649.523	-400.9
3652.29	-414.9
3655.055	-416.9
3657.818	-432.9
3660.579	-436.9
3663.338	-456.9
3666.095	-466.9
3668.849	-477.9
3671.602	-479.9
3674.352	-491.9
3677.101	-498.9
3679.847	-492.9
3682.591	-512.9
3685.333	-521.9
3688.073	-511.9
3690.811	-523.9
3693.547	-533.9
3696.281	-537.9
3699.013	-539.9
3701.742	-546.9
3704.47	-549.9
3707.195	-554.9
3709.919	-560.9
3712.64	-566.9
3715.359	-568.9
3718.076	-571.9
3720.792	-573.9
3723.505	-570.9
3726.216	-578.9
3728.925	-581.9
3731.632	-583.9
3734.336	-586.9
3737.039	-592.9
3739.74	-591.9
3742.439	-595.9
3745.136	-599.9
3747.83	-608.9
3750.523	-605.9
3753.213	-593.9
3755.902	-601.9
3758.589	-610.9
3761.273	-614.9
3763.956	-615.9
3766.636	-614.9
3769.315	-615.9
3771.991	-618.9
3774.665	-624.9
3777.338	-619.9
3780.008	-619.9
3782.677	-636.9
3785.343	-626.9
3788.007	-623.9
3790.67	-629.9
3793.33	-630.9
3795.989	-635.9
3798.645	-628.9
3801.299	-625.9
3803.952	-636.9
3806.602	-638.9
3809.251	-638.9
3811.897	-641.9
3814.542	-644.9
3817.184	-637.9
3819.825	-636.9
3822.463	-632.9
3825.1	-642.9
3827.735	-637.9
3830.367	-639.9
3832.998	-648.9
3835.627	-649.9
3838.253	-645.9
3840.878	-651.9
3843.501	-647.9
3846.122	-640.9
3848.741	-646.9
3851.358	-648.9
3853.973	-648.9
3856.586	-653.9
3859.197	-655.9
3861.806	-658.9
3864.414	-653.9
3867.019	-647.9
3869.622	-650.9
3872.224	-646.9
3874.823	-632.9
3877.421	-623.9
3880.016	-608.9
3882.61	-584.9
3885.202	-587.9
3887.792	-596.9
3890.38	-629.9
3892.966	-640.9
3895.55	-656.9
3898.132	-666.9
3900.713	-667.9
3903.291	-656.9
3905.868	-667.9
3908.442	-664.9
3911.015	-663.9
3913.586	-660.9
3916.155	-663.9
3918.722	-669.9
3921.287	-662.9
3923.85	-672.9
3926.411	-669.9
3928.971	-672.9
3931.528	-669.9
3934.084	-669.9
3936.638	-667.9
3939.19	-664.9
3941.74	-670.9
3944.288	-669.9
3946.834	-664.9
3949.378	-670.9
3951.921	-667.9
3954.462	-672.9
3957	-666.9
3959.537	-668.9
3962.072	-662.9
3964.606	-668.9
3967.137	-671.9
3969.667	-668.9
3972.194	-664.9
3974.72	-665.9
3977.244	-655.9
3979.766	-653.9
3982.286	-658.9
3984.805	-653.9
3987.321	-654.9
3989.836	-654.9
3992.349	-645.9
3994.86	-656.9
3997.369	-655.9
3999.877	-655.9
4002.382	-650.9
4004.886	-651.9
4007.388	-654.9
4009.888	-651.9
4012.386	-662.9
4014.883	-655.9
4017.377	-654.9
4019.87	-653.9
4022.361	-653.9
4024.85	-651.9
4027.338	-650.9
4029.823	-654.9
4032.307	-652.9
4034.789	-651.9
4037.269	-652.9
4039.747	-654.9
4042.224	-659.9
4044.699	-658.9
4047.172	-659.9
4049.643	-652.9
4052.112	-662.9
4054.58	-663.9
4057.046	-658.9
4059.51	-656.9
4061.972	-662.9
4064.432	-665.9
4066.891	-657.9
4069.348	-656.9
4071.803	-651.9
4074.256	-652.9
4076.708	-654.9
4079.158	-657.9
4081.606	-661.9
4084.052	-662.9
4086.497	-654.9
4088.939	-654.9
4091.38	-650.9
4093.819	-650.9
4096.257	-692.9
4098.693	-693.9
4101.127	-690.9
4103.559	-688.9
4105.989	-397.9
4108.418	-373.9
4110.845	-352.9
4113.27	-322.9
4115.694	-291.9
4118.115	-231.9
4120.535	-649.9
4122.954	-655.9
4125.37	-644.9
4127.785	-656.9
4130.198	-660.9
4132.609	-660.9
4135.019	-695.9
4137.427	-698.9
4139.833	-696.9
4142.237	-689.9
