Data from 100000CFU1_B_ramanshift_RamanShift_12-28-17-598.txt Node
Date: Sun Jan 01 12:28:17 IST 2017
User: aro
Spectrometer: QEPB0276
Trigger mode: 0
Integration Time (sec): 5.000000E0
Scans to average: 1
Electric dark correction enabled: true
Nonlinearity correction enabled: false
Boxcar width: 0
XAxis mode: Raman Shifts
Number of Pixels in Spectrum: 1044
>>>>>Begin Spectral Data<<<<<
160.701	5.12
166.742	16.12
172.777	63.12
178.805	185.12
184.826	557.12
190.841	1360.12
196.849	2554.12
202.85	3686.12
208.845	4285.12
214.833	4309.12
220.815	4129.12
226.789	3993.12
232.758	3858.12
238.719	3791.12
244.674	3675.12
250.623	3511.12
256.565	3342.12
262.5	3207.12
268.429	3074.12
274.351	2928.12
280.267	2807.12
286.176	2712.12
292.079	2616.12
297.975	2536.12
303.865	2455.12
309.748	2388.12
315.625	2313.12
321.495	2253.12
327.359	2210.12
333.217	2212.12
339.068	2167.12
344.912	2157.12
350.751	2132.12
356.583	2127.12
362.408	2145.12
368.227	2127.12
374.04	2137.12
379.847	2152.12
385.647	2148.12
391.44	2159.12
397.228	2142.12
403.009	2166.12
408.784	2202.12
414.553	2196.12
420.315	2206.12
426.071	2195.12
431.821	2195.12
437.565	2194.12
443.302	2185.12
449.033	2161.12
454.758	2185.12
460.477	2147.12
466.189	2164.12
471.896	2131.12
477.596	2131.12
483.29	2106.12
488.978	2095.12
494.66	2112.12
500.335	2093.12
506.005	2063.12
511.668	2038.12
517.325	2003.12
522.977	1965.12
528.622	1920.12
534.261	1917.12
539.894	1894.12
545.521	1876.12
551.141	1872.12
556.756	1862.12
562.365	1834.12
567.968	1833.12
573.565	1812.12
579.155	1796.12
584.74	1802.12
590.319	1789.12
595.892	1780.12
601.459	1759.12
607.02	1750.12
612.575	1749.12
618.124	1714.12
623.667	1722.12
629.204	1686.12
634.735	1672.12
640.261	1678.12
645.781	1656.12
651.294	1644.12
656.802	1644.12
662.304	1638.12
667.8	1598.12
673.29	1618.12
678.775	1618.12
684.254	1616.12
689.726	1588.12
695.193	1587.12
700.655	1561.12
706.11	1587.12
711.56	1554.12
717.004	1560.12
722.442	1531.12
727.874	1539.12
733.301	1518.12
738.722	1512.12
744.137	1499.12
749.547	1499.12
754.951	1494.12
760.349	1502.12
765.741	1479.12
771.128	1490.12
776.509	1477.12
781.885	1492.12
787.254	1476.12
792.618	1483.12
797.977	1469.12
803.33	1466.12
808.677	1446.12
814.019	1446.12
819.355	1415.12
824.686	1405.12
830.011	1407.12
835.33	1383.12
840.644	1387.12
845.952	1377.12
851.255	1365.12
856.552	1360.12
861.844	1341.12
867.13	1339.12
872.41	1345.12
877.686	1341.12
882.955	1317.12
888.219	1310.12
893.478	1283.12
898.731	1265.12
903.979	1242.12
909.221	1235.12
914.458	1214.12
919.69	1217.12
924.916	1219.12
930.136	1213.12
935.351	1199.12
940.561	1208.12
945.766	1197.12
950.965	1201.12
956.158	1202.12
961.347	1192.12
966.529	1170.12
971.707	1151.12
976.879	1125.12
982.046	1126.12
987.208	1114.12
992.364	1103.12
997.515	1116.12
1002.66	1112.12
1007.801	1115.12
1012.936	1129.12
1018.066	1144.12
1023.19	1153.12
1028.309	1159.12
1033.423	1151.12
1038.532	1152.12
1043.636	1156.12
1048.734	1137.12
1053.827	1127.12
1058.915	1111.12
1063.998	1100.12
1069.075	1111.12
1074.147	1099.12
1079.214	1103.12
1084.276	1115.12
1089.333	1126.12
1094.385	1135.12
1099.431	1133.12
1104.472	1147.12
1109.509	1126.12
1114.54	1128.12
1119.565	1109.12
1124.586	1101.12
1129.602	1082.12
1134.613	1083.12
1139.618	1083.12
1144.619	1073.12
1149.614	1077.12
1154.604	1073.12
1159.589	1080.12
1164.57	1077.12
1169.545	1091.12
1174.515	1090.12
1179.48	1090.12
1184.44	1083.12
1189.395	1066.12
1194.345	1072.12
1199.29	1076.12
1204.23	1068.12
1209.165	1073.12
1214.095	1077.12
1219.021	1090.12
1223.941	1089.12
1228.856	1106.12
1233.766	1101.12
1238.672	1113.12
1243.572	1115.12
1248.467	1111.12
1253.358	1102.12
1258.244	1080.12
1263.124	1068.12
1268	1050.12
1272.871	1024.12
1277.737	1035.12
1282.599	1034.12
1287.455	1030.12
1292.306	1030.12
1297.153	1036.12
1301.995	1046.12
1306.832	1052.12
1311.664	1061.12
1316.491	1052.12
1321.314	1054.12
1326.132	1042.12
1330.945	1045.12
1335.753	1022.12
1340.556	1023.12
1345.354	999.12
1350.148	989.12
1354.937	992.12
1359.722	988.12
1364.501	972.12
1369.276	964.12
1374.046	966.12
1378.811	976.12
1383.572	948.12
1388.327	950.12
1393.079	943.12
1397.825	953.12
1402.567	933.12
1407.304	941.12
1412.036	936.12
1416.764	925.12
1421.487	926.12
1426.205	928.12
1430.919	939.12
1435.628	947.12
1440.333	950.12
1445.032	968.12
1449.727	959.12
1454.418	973.12
1459.104	980.12
1463.785	974.12
1468.462	965.12
1473.134	957.12
1477.802	944.12
1482.465	946.12
1487.123	935.12
1491.777	929.12
1496.426	930.12
1501.071	943.12
1505.711	945.12
1510.347	950.12
1514.978	958.12
1519.604	964.12
1524.226	978.12
1528.844	980.12
1533.457	975.12
1538.065	985.12
1542.669	986.12
1547.269	974.12
1551.864	975.12
1556.454	986.12
1561.041	987.12
1565.622	1006.12
1570.199	1006.12
1574.772	1029.12
1579.34	1047.12
1583.904	1061.12
1588.464	1092.12
1593.019	1093.12
1597.569	1119.12
1602.115	1132.12
1606.657	1137.12
1611.195	1157.12
1615.728	1167.12
1620.256	1188.12
1624.78	1187.12
1629.3	1202.12
1633.816	1211.12
1638.327	1234.12
1642.834	1259.12
1647.336	1265.12
1651.834	1270.12
1656.328	1280.12
1660.817	1269.12
1665.302	1244.12
1669.783	1232.12
1674.259	1193.12
1678.732	1155.12
1683.199	1133.12
1687.663	1106.12
1692.122	1050.12
1696.577	1029.12
1701.028	994.12
1705.474	947.12
1709.917	902.12
1714.355	890.12
1718.788	863.12
1723.218	847.12
1727.643	837.12
1732.064	829.12
1736.481	812.12
1740.893	800.12
1745.301	766.12
1749.705	745.12
1754.105	740.12
1758.501	715.12
1762.893	698.12
1767.28	692.12
1771.663	686.12
1776.042	674.12
1780.417	667.12
1784.787	664.12
1789.154	676.12
1793.516	664.12
1797.874	677.12
1802.228	669.12
1806.578	664.12
1810.924	661.12
1815.266	633.12
1819.603	622.12
1823.937	630.12
1828.266	623.12
1832.591	614.12
1836.913	617.12
1841.23	612.12
1845.543	608.12
1849.852	599.12
1854.156	609.12
1858.457	612.12
1862.754	633.12
1867.047	614.12
1871.335	629.12
1875.62	626.12
1879.9	624.12
1884.177	629.12
1888.449	626.12
1892.718	624.12
1896.982	625.12
1901.243	613.12
1905.499	618.12
1909.752	614.12
1914	619.12
1918.245	615.12
1922.485	610.12
1926.722	609.12
1930.954	612.12
1935.183	617.12
1939.408	614.12
1943.628	615.12
1947.845	620.12
1952.058	616.12
1956.267	620.12
1960.472	617.12
1964.673	600.12
1968.87	590.12
1973.063	596.12
1977.252	590.12
1981.438	581.12
1985.619	579.12
1989.797	581.12
1993.971	591.12
1998.14	585.12
2002.306	587.12
2006.469	587.12
2010.627	597.12
2014.781	592.12
2018.932	601.12
2023.078	603.12
2027.221	603.12
2031.36	604.12
2035.495	588.12
2039.627	597.12
2043.754	587.12
2047.878	579.12
2051.998	583.12
2056.114	582.12
2060.226	586.12
2064.334	587.12
2068.439	581.12
2072.54	594.12
2076.637	587.12
2080.73	600.12
2084.82	599.12
2088.906	589.12
2092.988	590.12
2097.066	595.12
2101.14	585.12
2105.211	589.12
2109.278	588.12
2113.342	580.12
2117.401	583.12
2121.457	564.12
2125.509	577.12
2129.558	576.12
2133.602	564.12
2137.643	564.12
2141.681	570.12
2145.714	566.12
2149.744	556.12
2153.77	557.12
2157.793	557.12
2161.812	555.12
2165.827	541.12
2169.838	541.12
2173.846	538.12
2177.851	528.12
2181.851	519.12
2185.848	513.12
2189.841	513.12
2193.831	503.12
2197.817	505.12
2201.799	493.12
2205.778	503.12
2209.753	493.12
2213.725	493.12
2217.693	487.12
2221.657	491.12
2225.618	493.12
2229.575	495.12
2233.529	490.12
2237.479	483.12
2241.425	476.12
2245.368	471.12
2249.307	459.12
2253.243	464.12
2257.175	454.12
2261.104	449.12
2265.029	443.12
2268.95	444.12
2272.868	436.12
2276.783	427.12
2280.694	418.12
2284.601	416.12
2288.505	412.12
2292.405	405.12
2296.302	399.12
2300.195	402.12
2304.085	399.12
2307.971	392.12
2311.854	387.12
2315.734	385.12
2319.609	367.12
2323.482	370.12
2327.351	369.12
2331.216	358.12
2335.078	353.12
2338.937	363.12
2342.792	360.12
2346.643	349.12
2350.492	345.12
2354.336	355.12
2358.178	355.12
2362.015	348.12
2365.85	349.12
2369.681	354.12
2373.508	351.12
2377.333	355.12
2381.153	356.12
2384.971	356.12
2388.785	343.12
2392.595	345.12
2396.402	346.12
2400.206	345.12
2404.007	348.12
2407.804	349.12
2411.597	343.12
2415.388	338.12
2419.174	338.12
2422.958	338.12
2426.738	333.12
2430.515	332.12
2434.289	333.12
2438.059	328.12
2441.825	331.12
2445.589	329.12
2449.349	330.12
2453.106	322.12
2456.859	325.12
2460.61	320.12
2464.356	307.12
2468.1	313.12
2471.84	315.12
2475.577	304.12
2479.311	312.12
2483.041	311.12
2486.768	299.12
2490.492	305.12
2494.213	306.12
2497.93	313.12
2501.644	304.12
2505.355	314.12
2509.062	306.12
2512.766	313.12
2516.467	308.12
2520.165	310.12
2523.859	313.12
2527.551	292.12
2531.239	295.12
2534.923	300.12
2538.605	296.12
2542.283	287.12
2545.958	289.12
2549.63	287.12
2553.299	289.12
2556.964	284.12
2560.626	280.12
2564.285	275.12
2567.941	284.12
2571.594	279.12
2575.243	278.12
2578.89	273.12
2582.533	264.12
2586.173	275.12
2589.809	272.12
2593.443	267.12
2597.073	265.12
2600.701	259.12
2604.325	266.12
2607.946	260.12
2611.564	258.12
2615.178	260.12
2618.79	267.12
2622.398	258.12
2626.004	267.12
2629.606	264.12
2633.205	259.12
2636.801	260.12
2640.394	248.12
2643.983	251.12
2647.57	250.12
2651.153	244.12
2654.734	238.12
2658.311	242.12
2661.885	239.12
2665.456	226.12
2669.025	236.12
2672.589	228.12
2676.151	228.12
2679.71	232.12
2683.266	232.12
2686.819	218.12
2690.368	226.12
2693.915	231.12
2697.458	222.12
2700.999	218.12
2704.536	212.12
2708.071	220.12
2711.602	216.12
2715.13	212.12
2718.656	209.12
2722.178	209.12
2725.697	214.12
2729.214	210.12
2732.727	218.12
2736.237	215.12
2739.744	215.12
2743.249	212.12
2746.75	208.12
2750.248	211.12
2753.743	212.12
2757.236	210.12
2760.725	209.12
2764.211	207.12
2767.695	210.12
2771.175	208.12
2774.652	199.12
2778.127	204.12
2781.598	204.12
2785.067	200.12
2788.532	201.12
2791.995	199.12
2795.455	210.12
2798.911	211.12
2802.365	204.12
2805.816	209.12
2809.264	205.12
2812.709	214.12
2816.151	213.12
2819.59	212.12
2823.026	212.12
2826.46	220.12
2829.89	217.12
2833.318	218.12
2836.742	214.12
2840.164	220.12
2843.583	216.12
2846.999	222.12
2850.412	222.12
2853.822	234.12
2857.229	231.12
2860.634	221.12
2864.035	235.12
2867.434	238.12
2870.83	229.12
2874.223	229.12
2877.613	237.12
2881	244.12
2884.385	241.12
2887.766	242.12
2891.145	238.12
2894.521	242.12
2897.894	246.12
2901.264	242.12
2904.631	245.12
2907.996	244.12
2911.358	255.12
2914.717	258.12
2918.073	256.12
2921.426	258.12
2924.777	256.12
2928.124	271.12
2931.469	265.12
2934.811	281.12
2938.15	273.12
2941.487	284.12
2944.821	284.12
2948.152	293.12
2951.48	306.12
2954.805	301.12
2958.128	300.12
2961.447	310.12
2964.765	309.12
2968.079	315.12
2971.39	320.12
2974.699	322.12
2978.005	329.12
2981.308	344.12
2984.609	352.12
2987.907	354.12
2991.202	359.12
2994.494	370.12
2997.784	383.12
3001.07	392.12
3004.355	396.12
3007.636	412.12
3010.915	418.12
3014.191	431.12
3017.464	436.12
3020.734	440.12
3024.002	441.12
3027.267	464.12
3030.53	465.12
3033.789	471.12
3037.046	476.12
3040.301	488.12
3043.552	492.12
3046.801	512.12
3050.048	517.12
3053.291	530.12
3056.532	538.12
3059.771	572.12
3063.006	585.12
3066.239	597.12
3069.469	622.12
3072.697	636.12
3075.922	649.12
3079.144	668.12
3082.364	677.12
3085.581	690.12
3088.795	704.12
3092.007	723.12
3095.216	736.12
3098.423	752.12
3101.627	781.12
3104.828	781.12
3108.026	796.12
3111.222	816.12
3114.416	829.12
3117.607	854.12
3120.795	870.12
3123.98	880.12
3127.163	915.12
3130.344	932.12
3133.521	971.12
3136.696	976.12
3139.869	980.12
3143.039	1007.12
3146.206	1029.12
3149.371	1043.12
3152.533	1042.12
3155.693	1053.12
3158.85	1057.12
3162.005	1079.12
3165.157	1082.12
3168.306	1094.12
3171.453	1078.12
3174.597	1102.12
3177.739	1101.12
3180.878	1106.12
3184.014	1100.12
3187.149	1100.12
3190.28	1110.12
3193.409	1110.12
3196.536	1116.12
3199.659	1123.12
3202.781	1126.12
3205.9	1143.12
3209.016	1131.12
3212.13	1136.12
3215.241	1127.12
3218.35	1111.12
3221.456	1104.12
3224.56	1100.12
3227.661	1097.12
3230.76	1098.12
3233.856	1070.12
3236.95	1071.12
3240.041	1054.12
3243.13	1054.12
3246.216	1043.12
3249.3	1032.12
3252.382	1021.12
3255.46	1019.12
3258.537	1020.12
3261.611	1027.12
3264.682	1011.12
3267.751	1018.12
3270.818	1000.12
3273.882	1008.12
3276.943	999.12
3280.002	990.12
3283.059	990.12
3286.113	980.12
3289.165	974.12
3292.214	963.12
3295.261	939.12
3298.306	926.12
3301.348	905.12
3304.387	898.12
3307.425	888.12
3310.459	881.12
3313.492	866.12
3316.521	866.12
3319.549	845.12
3322.574	833.12
3325.597	834.12
3328.617	826.12
3331.635	824.12
3334.65	800.12
3337.663	804.12
3340.674	809.12
3343.682	798.12
3346.688	802.12
3349.691	792.12
3352.692	794.12
3355.691	789.12
3358.687	783.12
3361.681	777.12
3364.673	777.12
3367.662	761.12
3370.649	752.12
3373.633	749.12
3376.615	741.12
3379.595	726.12
3382.572	727.12
3385.547	706.12
3388.52	709.12
3391.49	692.12
3394.458	689.12
3397.424	670.12
3400.387	670.12
3403.348	657.12
3406.307	652.12
3409.263	645.12
3412.217	636.12
3415.168	630.12
3418.118	623.12
3421.065	620.12
3424.009	622.12
3426.951	592.12
3429.891	598.12
3432.829	587.12
3435.764	578.12
3438.697	554.12
3441.628	555.12
3444.557	545.12
3447.483	526.12
3450.407	515.12
3453.328	506.12
3456.247	495.12
3459.164	479.12
3462.079	463.12
3464.991	450.12
3467.902	437.12
3470.809	429.12
3473.715	418.12
3476.618	395.12
3479.519	396.12
3482.418	393.12
3485.315	377.12
3488.209	363.12
3491.101	355.12
3493.99	338.12
3496.878	340.12
3499.763	327.12
3502.646	314.12
3505.527	303.12
3508.405	296.12
3511.281	284.12
3514.155	273.12
3517.027	271.12
3519.897	256.12
3522.764	243.12
3525.629	241.12
3528.492	221.12
3531.352	212.12
3534.211	204.12
3537.067	189.12
3539.921	183.12
3542.773	176.12
3545.622	167.12
3548.469	162.12
3551.315	147.12
3554.157	145.12
3556.998	139.12
3559.837	135.12
3562.673	130.12
3565.507	115.12
3568.339	121.12
3571.169	111.12
3573.996	105.12
3576.822	104.12
3579.645	99.12
3582.466	87.12
3585.285	82.12
3588.101	83.12
3590.916	73.12
3593.728	67.12
3596.538	64.12
3599.346	63.12
3602.152	55.12
3604.956	50.12
3607.757	43.12
3610.556	38.12
3613.354	39.12
3616.149	35.12
3618.942	34.12
3621.732	31.12
3624.521	25.12
3627.307	25.12
3630.092	15.12
3632.874	17.12
3635.654	14.12
3638.432	13.12
3641.208	10.12
3643.982	7.12
3646.753	7.12
3649.523	3.12
3652.29	5.12
3655.055	-0.88
3657.818	-2.88
3660.579	-3.88
3663.338	-8.88
3666.095	-4.88
3668.849	-11.88
3671.602	-16.88
3674.352	-16.88
3677.101	-22.88
3679.847	-20.88
3682.591	-23.88
3685.333	-25.88
3688.073	-30.88
3690.811	-27.88
3693.547	-25.88
3696.281	-39.88
3699.013	-31.88
3701.742	-32.88
3704.47	-32.88
3707.195	-35.88
3709.919	-37.88
3712.64	-37.88
3715.359	-40.88
3718.076	-39.88
3720.792	-40.88
3723.505	-40.88
3726.216	-39.88
3728.925	-43.88
3731.632	-39.88
3734.336	-41.88
3737.039	-41.88
3739.74	-38.88
3742.439	-44.88
3745.136	-43.88
3747.83	-43.88
3750.523	-43.88
3753.213	-42.88
3755.902	-45.88
3758.589	-41.88
3761.273	-48.88
3763.956	-46.88
3766.636	-48.88
3769.315	-47.88
3771.991	-51.88
3774.665	-50.88
3777.338	-47.88
3780.008	-49.88
3782.677	-54.88
3785.343	-51.88
3788.007	-51.88
3790.67	-52.88
3793.33	-54.88
3795.989	-49.88
3798.645	-55.88
3801.299	-53.88
3803.952	-54.88
3806.602	-56.88
3809.251	-56.88
3811.897	-53.88
3814.542	-57.88
3817.184	-56.88
3819.825	-51.88
3822.463	-51.88
3825.1	-53.88
3827.735	-52.88
3830.367	-54.88
3832.998	-55.88
3835.627	-58.88
3838.253	-53.88
3840.878	-60.88
3843.501	-57.88
3846.122	-58.88
3848.741	-60.88
3851.358	-62.88
3853.973	-61.88
3856.586	-58.88
3859.197	-63.88
3861.806	-64.88
3864.414	-60.88
3867.019	-61.88
3869.622	-63.88
3872.224	-61.88
3874.823	-59.88
3877.421	-66.88
3880.016	-59.88
3882.61	-59.88
3885.202	-57.88
3887.792	-51.88
3890.38	-55.88
3892.966	-56.88
3895.55	-59.88
3898.132	-57.88
3900.713	-61.88
3903.291	-63.88
3905.868	-61.88
3908.442	-56.88
3911.015	-57.88
3913.586	-59.88
3916.155	-58.88
3918.722	-60.88
3921.287	-59.88
3923.85	-63.88
3926.411	-58.88
3928.971	-63.88
3931.528	-59.88
3934.084	-63.88
3936.638	-63.88
3939.19	-64.88
3941.74	-61.88
3944.288	-63.88
3946.834	-61.88
3949.378	-66.88
3951.921	-63.88
3954.462	-65.88
3957	-60.88
3959.537	-62.88
3962.072	-64.88
3964.606	-58.88
3967.137	-61.88
3969.667	-63.88
3972.194	-60.88
3974.72	-59.88
3977.244	-62.88
3979.766	-56.88
3982.286	-61.88
3984.805	-59.88
3987.321	-61.88
3989.836	-61.88
3992.349	-61.88
3994.86	-64.88
3997.369	-65.88
3999.877	-62.88
4002.382	-60.88
4004.886	-60.88
4007.388	-66.88
4009.888	-65.88
4012.386	-56.88
4014.883	-62.88
4017.377	-66.88
4019.87	-65.88
4022.361	-65.88
4024.85	-64.88
4027.338	-61.88
4029.823	-62.88
4032.307	-64.88
4034.789	-61.88
4037.269	-63.88
4039.747	-62.88
4042.224	-63.88
4044.699	-62.88
4047.172	-61.88
4049.643	-59.88
4052.112	-59.88
4054.58	-59.88
4057.046	-60.88
4059.51	-61.88
4061.972	-59.88
4064.432	-58.88
4066.891	-58.88
4069.348	-60.88
4071.803	-62.88
4074.256	-61.88
4076.708	-62.88
4079.158	-61.88
4081.606	-61.88
4084.052	-58.88
4086.497	-61.88
4088.939	-61.88
4091.38	-63.88
4093.819	-64.88
4096.257	-65.88
4098.693	-65.88
4101.127	-66.88
4103.559	-66.88
4105.989	-19.88
4108.418	-13.88
4110.845	-17.88
4113.27	-11.88
4115.694	-13.88
4118.115	-4.88
4120.535	-64.88
4122.954	-66.88
4125.37	-63.88
4127.785	-63.88
4130.198	-63.88
4132.609	-60.88
4135.019	-69.88
4137.427	-67.88
4139.833	-65.88
4142.237	-65.88
