Data from 1000000CFU3_A_ramanshift_RamanShift_11-58-17-647.txt Node
Date: Sun Jan 01 11:58:17 IST 2017
User: aro
Spectrometer: QEPB0276
Trigger mode: 0
Integration Time (sec): 5.000000E0
Scans to average: 1
Electric dark correction enabled: true
Nonlinearity correction enabled: false
Boxcar width: 0
XAxis mode: Raman Shifts
Number of Pixels in Spectrum: 1044
>>>>>Begin Spectral Data<<<<<
160.701	1.25
166.742	20.25
172.777	61.25
178.805	193.25
184.826	564.25
190.841	1365.25
196.849	2579.25
202.85	3740.25
208.845	4347.25
214.833	4363.25
220.815	4226.25
226.789	4065.25
232.758	3954.25
238.719	3860.25
244.674	3750.25
250.623	3621.25
256.565	3426.25
262.5	3289.25
268.429	3174.25
274.351	3022.25
280.267	2918.25
286.176	2812.25
292.079	2756.25
297.975	2636.25
303.865	2564.25
309.748	2483.25
315.625	2457.25
321.495	2378.25
327.359	2344.25
333.217	2329.25
339.068	2295.25
344.912	2254.25
350.751	2273.25
356.583	2241.25
362.408	2246.25
368.227	2222.25
374.04	2247.25
379.847	2250.25
385.647	2268.25
391.44	2272.25
397.228	2287.25
403.009	2287.25
408.784	2311.25
414.553	2315.25
420.315	2307.25
426.071	2293.25
431.821	2278.25
437.565	2301.25
443.302	2294.25
449.033	2301.25
454.758	2288.25
460.477	2268.25
466.189	2289.25
471.896	2266.25
477.596	2248.25
483.29	2238.25
488.978	2250.25
494.66	2235.25
500.335	2195.25
506.005	2181.25
511.668	2150.25
517.325	2104.25
522.977	2071.25
528.622	2058.25
534.261	2019.25
539.894	2029.25
545.521	1996.25
551.141	2004.25
556.756	1967.25
562.365	1965.25
567.968	1956.25
573.565	1951.25
579.155	1942.25
584.74	1913.25
590.319	1910.25
595.892	1892.25
601.459	1897.25
607.02	1867.25
612.575	1849.25
618.124	1852.25
623.667	1827.25
629.204	1823.25
634.735	1808.25
640.261	1776.25
645.781	1775.25
651.294	1787.25
656.802	1764.25
662.304	1757.25
667.8	1744.25
673.29	1759.25
678.775	1729.25
684.254	1730.25
689.726	1719.25
695.193	1719.25
700.655	1694.25
706.11	1686.25
711.56	1679.25
717.004	1669.25
722.442	1666.25
727.874	1641.25
733.301	1645.25
738.722	1650.25
744.137	1621.25
749.547	1626.25
754.951	1609.25
760.349	1600.25
765.741	1603.25
771.128	1608.25
776.509	1620.25
781.885	1626.25
787.254	1610.25
792.618	1607.25
797.977	1602.25
803.33	1583.25
808.677	1583.25
814.019	1548.25
819.355	1555.25
824.686	1550.25
830.011	1505.25
835.33	1523.25
840.644	1497.25
845.952	1498.25
851.255	1494.25
856.552	1487.25
861.844	1489.25
867.13	1482.25
872.41	1470.25
877.686	1467.25
882.955	1445.25
888.219	1441.25
893.478	1415.25
898.731	1382.25
903.979	1370.25
909.221	1348.25
914.458	1365.25
919.69	1344.25
924.916	1339.25
930.136	1340.25
935.351	1343.25
940.561	1355.25
945.766	1337.25
950.965	1341.25
956.158	1332.25
961.347	1316.25
966.529	1312.25
971.707	1284.25
976.879	1259.25
982.046	1252.25
987.208	1248.25
992.364	1239.25
997.515	1265.25
1002.66	1243.25
1007.801	1259.25
1012.936	1273.25
1018.066	1269.25
1023.19	1295.25
1028.309	1298.25
1033.423	1296.25
1038.532	1303.25
1043.636	1293.25
1048.734	1271.25
1053.827	1257.25
1058.915	1254.25
1063.998	1253.25
1069.075	1236.25
1074.147	1228.25
1079.214	1228.25
1084.276	1264.25
1089.333	1251.25
1094.385	1263.25
1099.431	1258.25
1104.472	1278.25
1109.509	1256.25
1114.54	1268.25
1119.565	1250.25
1124.586	1230.25
1129.602	1211.25
1134.613	1215.25
1139.618	1203.25
1144.619	1206.25
1149.614	1193.25
1154.604	1218.25
1159.589	1208.25
1164.57	1221.25
1169.545	1235.25
1174.515	1241.25
1179.48	1228.25
1184.44	1239.25
1189.395	1233.25
1194.345	1219.25
1199.29	1207.25
1204.23	1201.25
1209.165	1214.25
1214.095	1211.25
1219.021	1228.25
1223.941	1235.25
1228.856	1246.25
1233.766	1240.25
1238.672	1264.25
1243.572	1255.25
1248.467	1256.25
1253.358	1242.25
1258.244	1227.25
1263.124	1197.25
1268	1188.25
1272.871	1192.25
1277.737	1180.25
1282.599	1162.25
1287.455	1164.25
1292.306	1179.25
1297.153	1168.25
1301.995	1176.25
1306.832	1180.25
1311.664	1193.25
1316.491	1221.25
1321.314	1194.25
1326.132	1190.25
1330.945	1186.25
1335.753	1174.25
1340.556	1157.25
1345.354	1146.25
1350.148	1131.25
1354.937	1122.25
1359.722	1110.25
1364.501	1096.25
1369.276	1096.25
1374.046	1076.25
1378.811	1088.25
1383.572	1087.25
1388.327	1065.25
1393.079	1077.25
1397.825	1078.25
1402.567	1062.25
1407.304	1067.25
1412.036	1053.25
1416.764	1061.25
1421.487	1049.25
1426.205	1056.25
1430.919	1052.25
1435.628	1059.25
1440.333	1087.25
1445.032	1092.25
1449.727	1093.25
1454.418	1108.25
1459.104	1111.25
1463.785	1101.25
1468.462	1106.25
1473.134	1085.25
1477.802	1079.25
1482.465	1077.25
1487.123	1053.25
1491.777	1065.25
1496.426	1059.25
1501.071	1077.25
1505.711	1083.25
1510.347	1101.25
1514.978	1111.25
1519.604	1101.25
1524.226	1111.25
1528.844	1116.25
1533.457	1129.25
1538.065	1118.25
1542.669	1119.25
1547.269	1100.25
1551.864	1112.25
1556.454	1105.25
1561.041	1112.25
1565.622	1127.25
1570.199	1141.25
1574.772	1158.25
1579.34	1174.25
1583.904	1199.25
1588.464	1224.25
1593.019	1216.25
1597.569	1245.25
1602.115	1249.25
1606.657	1268.25
1611.195	1285.25
1615.728	1293.25
1620.256	1282.25
1624.78	1321.25
1629.3	1329.25
1633.816	1353.25
1638.327	1363.25
1642.834	1390.25
1647.336	1398.25
1651.834	1400.25
1656.328	1395.25
1660.817	1401.25
1665.302	1376.25
1669.783	1366.25
1674.259	1339.25
1678.732	1303.25
1683.199	1274.25
1687.663	1242.25
1692.122	1194.25
1696.577	1161.25
1701.028	1099.25
1705.474	1068.25
1709.917	1023.25
1714.355	995.25
1718.788	983.25
1723.218	971.25
1727.643	952.25
1732.064	945.25
1736.481	925.25
1740.893	896.25
1745.301	891.25
1749.705	863.25
1754.105	835.25
1758.501	818.25
1762.893	817.25
1767.28	812.25
1771.663	798.25
1776.042	787.25
1780.417	789.25
1784.787	783.25
1789.154	778.25
1793.516	788.25
1797.874	798.25
1802.228	781.25
1806.578	780.25
1810.924	777.25
1815.266	753.25
1819.603	735.25
1823.937	736.25
1828.266	728.25
1832.591	730.25
1836.913	725.25
1841.23	725.25
1845.543	718.25
1849.852	722.25
1854.156	718.25
1858.457	719.25
1862.754	710.25
1867.047	723.25
1871.335	729.25
1875.62	735.25
1879.9	747.25
1884.177	737.25
1888.449	733.25
1892.718	737.25
1896.982	731.25
1901.243	737.25
1905.499	730.25
1909.752	709.25
1914	723.25
1918.245	723.25
1922.485	718.25
1926.722	728.25
1930.954	727.25
1935.183	723.25
1939.408	735.25
1943.628	727.25
1947.845	729.25
1952.058	735.25
1956.267	732.25
1960.472	717.25
1964.673	731.25
1968.87	700.25
1973.063	705.25
1977.252	696.25
1981.438	697.25
1985.619	694.25
1989.797	681.25
1993.971	685.25
1998.14	690.25
2002.306	694.25
2006.469	707.25
2010.627	708.25
2014.781	706.25
2018.932	703.25
2023.078	703.25
2027.221	697.25
2031.36	703.25
2035.495	702.25
2039.627	690.25
2043.754	695.25
2047.878	680.25
2051.998	673.25
2056.114	674.25
2060.226	678.25
2064.334	687.25
2068.439	683.25
2072.54	687.25
2076.637	694.25
2080.73	697.25
2084.82	687.25
2088.906	697.25
2092.988	690.25
2097.066	679.25
2101.14	686.25
2105.211	687.25
2109.278	674.25
2113.342	672.25
2117.401	666.25
2121.457	669.25
2125.509	668.25
2129.558	660.25
2133.602	664.25
2137.643	655.25
2141.681	659.25
2145.714	658.25
2149.744	649.25
2153.77	649.25
2157.793	653.25
2161.812	642.25
2165.827	640.25
2169.838	634.25
2173.846	616.25
2177.851	611.25
2181.851	603.25
2185.848	597.25
2189.841	604.25
2193.831	583.25
2197.817	586.25
2201.799	580.25
2205.778	583.25
2209.753	576.25
2213.725	582.25
2217.693	577.25
2221.657	567.25
2225.618	568.25
2229.575	577.25
2233.529	571.25
2237.479	561.25
2241.425	556.25
2245.368	559.25
2249.307	548.25
2253.243	535.25
2257.175	529.25
2261.104	522.25
2265.029	511.25
2268.95	509.25
2272.868	509.25
2276.783	511.25
2280.694	499.25
2284.601	496.25
2288.505	496.25
2292.405	482.25
2296.302	483.25
2300.195	478.25
2304.085	471.25
2307.971	469.25
2311.854	457.25
2315.734	450.25
2319.609	439.25
2323.482	434.25
2327.351	437.25
2331.216	431.25
2335.078	430.25
2338.937	428.25
2342.792	419.25
2346.643	408.25
2350.492	416.25
2354.336	419.25
2358.178	426.25
2362.015	415.25
2365.85	416.25
2369.681	420.25
2373.508	432.25
2377.333	421.25
2381.153	420.25
2384.971	427.25
2388.785	421.25
2392.595	415.25
2396.402	425.25
2400.206	416.25
2404.007	411.25
2407.804	413.25
2411.597	417.25
2415.388	403.25
2419.174	402.25
2422.958	409.25
2426.738	409.25
2430.515	405.25
2434.289	401.25
2438.059	395.25
2441.825	383.25
2445.589	387.25
2449.349	393.25
2453.106	392.25
2456.859	384.25
2460.61	378.25
2464.356	372.25
2468.1	368.25
2471.84	373.25
2475.577	371.25
2479.311	371.25
2483.041	367.25
2486.768	370.25
2490.492	367.25
2494.213	367.25
2497.93	373.25
2501.644	373.25
2505.355	371.25
2509.062	365.25
2512.766	374.25
2516.467	365.25
2520.165	369.25
2523.859	372.25
2527.551	367.25
2531.239	357.25
2534.923	359.25
2538.605	351.25
2542.283	350.25
2545.958	351.25
2549.63	350.25
2553.299	352.25
2556.964	338.25
2560.626	341.25
2564.285	339.25
2567.941	342.25
2571.594	332.25
2575.243	328.25
2578.89	326.25
2582.533	333.25
2586.173	330.25
2589.809	324.25
2593.443	321.25
2597.073	320.25
2600.701	310.25
2604.325	314.25
2607.946	314.25
2611.564	312.25
2615.178	307.25
2618.79	321.25
2622.398	309.25
2626.004	312.25
2629.606	307.25
2633.205	306.25
2636.801	302.25
2640.394	299.25
2643.983	296.25
2647.57	300.25
2651.153	297.25
2654.734	293.25
2658.311	290.25
2661.885	288.25
2665.456	287.25
2669.025	292.25
2672.589	281.25
2676.151	283.25
2679.71	279.25
2683.266	282.25
2686.819	271.25
2690.368	268.25
2693.915	271.25
2697.458	268.25
2700.999	260.25
2704.536	267.25
2708.071	259.25
2711.602	261.25
2715.13	262.25
2718.656	257.25
2722.178	258.25
2725.697	252.25
2729.214	252.25
2732.727	253.25
2736.237	251.25
2739.744	255.25
2743.249	258.25
2746.75	252.25
2750.248	252.25
2753.743	260.25
2757.236	260.25
2760.725	254.25
2764.211	247.25
2767.695	251.25
2771.175	248.25
2774.652	244.25
2778.127	238.25
2781.598	238.25
2785.067	239.25
2788.532	245.25
2791.995	232.25
2795.455	245.25
2798.911	239.25
2802.365	246.25
2805.816	242.25
2809.264	246.25
2812.709	252.25
2816.151	254.25
2819.59	251.25
2823.026	257.25
2826.46	260.25
2829.89	249.25
2833.318	248.25
2836.742	255.25
2840.164	255.25
2843.583	253.25
2846.999	258.25
2850.412	263.25
2853.822	260.25
2857.229	258.25
2860.634	262.25
2864.035	265.25
2867.434	273.25
2870.83	276.25
2874.223	267.25
2877.613	275.25
2881	269.25
2884.385	267.25
2887.766	269.25
2891.145	278.25
2894.521	271.25
2897.894	273.25
2901.264	267.25
2904.631	271.25
2907.996	276.25
2911.358	275.25
2914.717	283.25
2918.073	292.25
2921.426	279.25
2924.777	286.25
2928.124	289.25
2931.469	301.25
2934.811	297.25
2938.15	309.25
2941.487	307.25
2944.821	315.25
2948.152	316.25
2951.48	323.25
2954.805	328.25
2958.128	338.25
2961.447	335.25
2964.765	332.25
2968.079	341.25
2971.39	344.25
2974.699	355.25
2978.005	356.25
2981.308	367.25
2984.609	368.25
2987.907	381.25
2991.202	395.25
2994.494	392.25
2997.784	402.25
3001.07	417.25
3004.355	422.25
3007.636	433.25
3010.915	434.25
3014.191	443.25
3017.464	453.25
3020.734	462.25
3024.002	471.25
3027.267	469.25
3030.53	485.25
3033.789	485.25
3037.046	496.25
3040.301	510.25
3043.552	519.25
3046.801	524.25
3050.048	541.25
3053.291	560.25
3056.532	570.25
3059.771	581.25
3063.006	609.25
3066.239	617.25
3069.469	635.25
3072.697	652.25
3075.922	670.25
3079.144	675.25
3082.364	685.25
3085.581	717.25
3088.795	724.25
3092.007	738.25
3095.216	754.25
3098.423	772.25
3101.627	783.25
3104.828	805.25
3108.026	820.25
3111.222	836.25
3114.416	846.25
3117.607	871.25
3120.795	880.25
3123.98	902.25
3127.163	929.25
3130.344	942.25
3133.521	972.25
3136.696	998.25
3139.869	998.25
3143.039	1032.25
3146.206	1035.25
3149.371	1066.25
3152.533	1055.25
3155.693	1064.25
3158.85	1079.25
3162.005	1082.25
3165.157	1095.25
3168.306	1097.25
3171.453	1109.25
3174.597	1090.25
3177.739	1119.25
3180.878	1119.25
3184.014	1126.25
3187.149	1121.25
3190.28	1132.25
3193.409	1121.25
3196.536	1139.25
3199.659	1141.25
3202.781	1146.25
3205.9	1155.25
3209.016	1149.25
3212.13	1130.25
3215.241	1140.25
3218.35	1128.25
3221.456	1138.25
3224.56	1131.25
3227.661	1110.25
3230.76	1108.25
3233.856	1092.25
3236.95	1085.25
3240.041	1072.25
3243.13	1067.25
3246.216	1058.25
3249.3	1052.25
3252.382	1042.25
3255.46	1024.25
3258.537	1031.25
3261.611	1027.25
3264.682	1013.25
3267.751	1020.25
3270.818	1015.25
3273.882	1024.25
3276.943	1014.25
3280.002	1001.25
3283.059	1000.25
3286.113	985.25
3289.165	981.25
3292.214	967.25
3295.261	948.25
3298.306	955.25
3301.348	911.25
3304.387	905.25
3307.425	897.25
3310.459	882.25
3313.492	879.25
3316.521	857.25
3319.549	839.25
3322.574	854.25
3325.597	849.25
3328.617	826.25
3331.635	810.25
3334.65	818.25
3337.663	825.25
3340.674	816.25
3343.682	803.25
3346.688	813.25
3349.691	810.25
3352.692	798.25
3355.691	812.25
3358.687	797.25
3361.681	789.25
3364.673	785.25
3367.662	775.25
3370.649	760.25
3373.633	757.25
3376.615	757.25
3379.595	737.25
3382.572	722.25
3385.547	721.25
3388.52	712.25
3391.49	698.25
3394.458	691.25
3397.424	686.25
3400.387	664.25
3403.348	669.25
3406.307	655.25
3409.263	649.25
3412.217	641.25
3415.168	637.25
3418.118	631.25
3421.065	615.25
3424.009	621.25
3426.951	624.25
3429.891	600.25
3432.829	582.25
3435.764	581.25
3438.697	562.25
3441.628	553.25
3444.557	550.25
3447.483	535.25
3450.407	526.25
3453.328	504.25
3456.247	491.25
3459.164	482.25
3462.079	466.25
3464.991	466.25
3467.902	450.25
3470.809	435.25
3473.715	428.25
3476.618	408.25
3479.519	402.25
3482.418	386.25
3485.315	382.25
3488.209	370.25
3491.101	359.25
3493.99	358.25
3496.878	341.25
3499.763	338.25
3502.646	324.25
3505.527	313.25
3508.405	309.25
3511.281	279.25
3514.155	286.25
3517.027	273.25
3519.897	257.25
3522.764	255.25
3525.629	236.25
3528.492	231.25
3531.352	210.25
3534.211	217.25
3537.067	197.25
3539.921	189.25
3542.773	181.25
3545.622	171.25
3548.469	162.25
3551.315	154.25
3554.157	145.25
3556.998	135.25
3559.837	131.25
3562.673	123.25
3565.507	120.25
3568.339	118.25
3571.169	116.25
3573.996	104.25
3576.822	100.25
3579.645	99.25
3582.466	91.25
3585.285	93.25
3588.101	83.25
3590.916	73.25
3593.728	67.25
3596.538	69.25
3599.346	56.25
3602.152	54.25
3604.956	50.25
3607.757	44.25
3610.556	47.25
3613.354	35.25
3616.149	33.25
3618.942	31.25
3621.732	31.25
3624.521	27.25
3627.307	25.25
3630.092	18.25
3632.874	15.25
3635.654	18.25
3638.432	14.25
3641.208	12.25
3643.982	10.25
3646.753	7.25
3649.523	4.25
3652.29	5.25
3655.055	-1.75
3657.818	-2.75
3660.579	-4.75
3663.338	-7.75
3666.095	-10.75
3668.849	-10.75
3671.602	-14.75
3674.352	-15.75
3677.101	-13.75
3679.847	-24.75
3682.591	-23.75
3685.333	-25.75
3688.073	-30.75
3690.811	-29.75
3693.547	-32.75
3696.281	-36.75
3699.013	-30.75
3701.742	-35.75
3704.47	-35.75
3707.195	-36.75
3709.919	-40.75
3712.64	-40.75
3715.359	-40.75
3718.076	-40.75
3720.792	-45.75
3723.505	-44.75
3726.216	-42.75
3728.925	-46.75
3731.632	-43.75
3734.336	-42.75
3737.039	-46.75
3739.74	-46.75
3742.439	-44.75
3745.136	-42.75
3747.83	-42.75
3750.523	-42.75
3753.213	-45.75
3755.902	-45.75
3758.589	-47.75
3761.273	-50.75
3763.956	-47.75
3766.636	-48.75
3769.315	-49.75
3771.991	-50.75
3774.665	-49.75
3777.338	-52.75
3780.008	-53.75
3782.677	-56.75
3785.343	-52.75
3788.007	-53.75
3790.67	-53.75
3793.33	-53.75
3795.989	-53.75
3798.645	-55.75
3801.299	-56.75
3803.952	-60.75
3806.602	-59.75
3809.251	-57.75
3811.897	-54.75
3814.542	-59.75
3817.184	-57.75
3819.825	-52.75
3822.463	-56.75
3825.1	-56.75
3827.735	-55.75
3830.367	-57.75
3832.998	-60.75
3835.627	-57.75
3838.253	-56.75
3840.878	-63.75
3843.501	-58.75
3846.122	-58.75
3848.741	-61.75
3851.358	-61.75
3853.973	-56.75
3856.586	-60.75
3859.197	-59.75
3861.806	-61.75
3864.414	-58.75
3867.019	-59.75
3869.622	-61.75
3872.224	-60.75
3874.823	-59.75
3877.421	-61.75
3880.016	-57.75
3882.61	-55.75
3885.202	-56.75
3887.792	-50.75
3890.38	-55.75
3892.966	-55.75
3895.55	-59.75
3898.132	-60.75
3900.713	-61.75
3903.291	-64.75
3905.868	-60.75
3908.442	-61.75
3911.015	-64.75
3913.586	-63.75
3916.155	-64.75
3918.722	-62.75
3921.287	-60.75
3923.85	-65.75
3926.411	-62.75
3928.971	-68.75
3931.528	-66.75
3934.084	-66.75
3936.638	-70.75
3939.19	-69.75
3941.74	-67.75
3944.288	-65.75
3946.834	-65.75
3949.378	-69.75
3951.921	-66.75
3954.462	-67.75
3957	-64.75
3959.537	-64.75
3962.072	-66.75
3964.606	-58.75
3967.137	-63.75
3969.667	-66.75
3972.194	-60.75
3974.72	-58.75
3977.244	-58.75
3979.766	-61.75
3982.286	-59.75
3984.805	-63.75
3987.321	-62.75
3989.836	-60.75
3992.349	-60.75
3994.86	-63.75
3997.369	-64.75
3999.877	-64.75
4002.382	-62.75
4004.886	-63.75
4007.388	-65.75
4009.888	-65.75
4012.386	-59.75
4014.883	-67.75
4017.377	-65.75
4019.87	-63.75
4022.361	-64.75
4024.85	-67.75
4027.338	-61.75
4029.823	-61.75
4032.307	-66.75
4034.789	-61.75
4037.269	-63.75
4039.747	-62.75
4042.224	-63.75
4044.699	-64.75
4047.172	-63.75
4049.643	-60.75
4052.112	-61.75
4054.58	-61.75
4057.046	-61.75
4059.51	-62.75
4061.972	-58.75
4064.432	-62.75
4066.891	-59.75
4069.348	-64.75
4071.803	-64.75
4074.256	-61.75
4076.708	-62.75
4079.158	-63.75
4081.606	-63.75
4084.052	-60.75
4086.497	-65.75
4088.939	-64.75
4091.38	-66.75
4093.819	-63.75
4096.257	-67.75
4098.693	-67.75
4101.127	-66.75
4103.559	-67.75
4105.989	-20.75
4108.418	-19.75
4110.845	-15.75
4113.27	-14.75
4115.694	-12.75
4118.115	-5.75
4120.535	-64.75
4122.954	-65.75
4125.37	-64.75
4127.785	-66.75
4130.198	-64.75
4132.609	-65.75
4135.019	-69.75
4137.427	-68.75
4139.833	-66.75
4142.237	-70.75
