##TITLE=AAI0852
##FORMAT=SPECTACLE-ASCII V-1.2
##DATA TYPE=ULTRAVIOLET SPECTRUM
##SECOND TYPE=ULTRAVIOLET SPECTRUM
##DATE=11/28/17
##TIME=13:43:18
##SPECTROMETER/DATA SYSTEM=SPECTACLE
##XUNITS=NM EM
##YUNITS=ENERGY
##YFACTOR=1
##FIRSTX=220
##LASTX=410
##NPOINTS=96
##3DDATA=Equidistant
##ZUNITS=NM EX
##FIRSTZ=210
##LASTZ=400
##ZPOINTS=39
##XYDATA=(Y..Y)
##ZVALUE=210
8.008480
6.981492
6.141663
6.268620
6.536841
6.014705
6.320477
6.506443
5.303621
4.939437
3.736615
4.439950
3.648996
3.858805
3.635883
4.082918
4.118681
4.327893
4.283786
4.541874
4.571676
5.581975
5.402565
4.554987
5.736947
5.588531
6.203651
7.120967
7.713437
7.674694
8.970499
9.196997
11.166930
10.212660
10.495782
12.153983
12.559891
13.540983
15.471578
15.283823
17.583966
16.233921
15.610456
17.232895
17.243624
18.821955
20.383596
19.205809
20.535588
19.513965
20.508766
20.842552
21.598935
22.059679
21.602511
22.726655
22.241473
22.818446
23.176670
25.504827
24.559498
24.972558
26.219487
26.061535
25.976896
28.720498
29.811859
30.400753
31.720996
40.870905
44.070482
47.232509
55.864453
61.918497
69.947839
70.367455
73.183775
74.045658
70.532560
67.464709
67.848563
57.823658
55.991411
50.092936
45.288801
37.057996
34.794807
32.276511
29.279590
29.504895
27.383566
28.742552
28.504729
27.832985
29.118657
30.292869
##ZVALUE=215
19.732714
20.287633
18.121600
13.832450
12.263656
9.869933
10.046959
9.025931
10.292530
10.142922
8.108616
7.576942
5.645752
5.353689
4.680753
5.078912
3.864765
4.325509
5.595684
4.361868
5.482435
5.719662
5.990863
5.417466
6.446838
6.957650
7.137656
7.645488
9.140968
10.566711
10.897517
11.404753
14.457703
15.333891
16.172528
17.820597
20.501614
19.872785
19.738674
21.741986
23.554564
23.479462
24.167895
23.216605
25.392771
25.538802
25.261641
24.718642
24.169683
25.386810
26.091933
25.888681
27.186871
24.913549
25.106668
23.632646
24.526715
25.536418
24.819970
26.770830
26.743412
26.057959
25.094748
28.411746
27.887821
26.221871
28.885603
30.923486
34.134984
37.382841
39.713979
49.315691
52.616000
54.407716
58.942437
63.443780
65.885782
66.539645
60.274601
57.919621
56.057572
52.080750
45.783520
39.239526
35.587549
31.262636
29.186606
25.645494
25.092959
24.960637
24.229884
23.477674
23.132563
23.095608
21.084547
21.831989
##ZVALUE=220
55.663586
56.207776
60.760975
62.066913
52.230954
45.219660
31.123757
24.268627
18.819571
17.163754
18.073916
15.547872
15.663505
14.539957
12.982488
10.783672
9.223819
6.594658
5.202889
4.923940
5.989671
5.247593
6.371737
7.086992
6.805658
7.810593
8.701682
9.549856
12.096763
12.471676
16.248822
18.408895
23.428798
28.544664
31.496882
35.434961
37.378669
41.109920
41.426420
43.946505
44.343472
43.965578
45.440793
45.841932
45.493841
43.102503
43.618679
40.928721
43.627620
38.438439
38.056970
36.692619
36.825538
36.232471
33.555627
33.466816
33.403635
34.949780
32.241940
33.419728
32.907724
32.553673
34.753680
34.258962
33.101439
34.500957
33.322573
36.741495
36.573410
45.017600
45.974851
51.794648
55.533648
60.603619
66.666603
67.273974
66.891909
65.075755
64.874887
63.666701
58.814883
52.027702
48.234463
43.582916
39.339662
34.023523
31.663775
27.892590
25.483966
24.079680
24.562478
25.150776
24.578571
22.175908
23.293495
20.444989
##ZVALUE=225
77.922940
81.476569
104.497671
131.622553
139.298439
138.021708
122.510791
94.628930
70.514679
51.670671
36.168694
30.711889
32.759905
31.133890
30.216575
26.544929
23.784637
20.649433
15.991926
11.383891
9.256601
6.733537
7.053614
7.012486
7.410645
8.731484
9.898543
11.345744
14.317632
20.560622
28.550625
33.848882
39.956570
46.952963
60.053468
65.872669
66.533685
75.758696
79.142451
83.955526
86.110830
84.186792
82.968473
84.469914
83.231926
78.128576
78.354478
73.644519
72.048903
67.304969
68.162680
63.650608
63.425899
60.269833
56.439638
57.596564
52.573681
51.662922
50.207973
51.048994
48.739910
47.182441
48.217773
48.229694
47.147870
50.230622
48.121810
51.590800
51.897764
53.744912
55.443645
60.203671
63.431859
71.038604
70.378780
73.284507
69.737434
68.249702
66.550970
63.753724
56.889653
53.939819
49.307942
44.505596
40.172935
39.204955
34.371614
34.408569
30.632615
30.821562
30.190945
28.599501
29.498935
26.819706
26.538968
25.923848
##ZVALUE=230
58.019757
64.951777
102.196932
171.674490
218.933821
277.970433
290.600657
290.042758
250.810981
211.786628
142.840743
99.705458
62.426925
50.906539
50.341487
50.467849
50.051808
49.255490
45.730472
36.678910
28.534532
19.801855
15.683770
11.049509
9.858608
10.577440
11.205673
16.477704
19.414425
28.895736
36.694407
50.827861
61.277747
72.082877
88.508725
104.952455
114.619732
123.135448
127.459764
131.874681
135.250688
133.107901
135.539770
133.487582
135.304928
125.717521
123.078823
122.231841
114.347935
107.257962
105.066895
100.729465
94.887614
95.314980
89.063644
87.070465
83.132982
81.293583
80.160499
77.601671
75.821877
76.717734
75.753927
77.060461
73.520541
70.769787
72.219968
75.360537
73.550940
77.161789
80.254674
82.172751
85.979700
90.938807
88.752508
90.135932
89.729428
84.427595
80.363750
74.451566
74.599981
66.086650
62.262416
58.197975
53.485632
51.043630
46.237707
43.655634
40.336847
38.194656
37.179589
40.067434
35.481453
34.347773
34.683943
32.130480
##ZVALUE=235
16.019940
16.991496
47.730803
88.740587
141.439438
258.180499
340.546966
465.608835
521.129966
517.022014
466.812849
362.268686
274.918675
166.142583
113.752484
80.292821
74.581504
72.666407
79.125762
79.932809
73.959827
60.219765
49.348474
37.557483
25.516748
20.292997
15.873909
17.081499
22.842884
30.147433
43.684840
53.997636
69.817901
86.619854
103.963614
118.676424
131.947994
139.138699
146.376491
156.435966
158.069730
157.534480
160.143971
161.646008
157.673955
156.633854
154.133439
146.954656
136.162639
133.332610
129.720569
120.475888
122.108459
112.815499
115.125775
110.830665
108.385682
109.736919
109.506845
106.822848
111.821890
110.237002
107.499957
106.895566
107.703805
103.944540
101.275444
103.567839
100.672841
106.804967
101.527572
109.449625
111.836791
114.466548
114.278793
111.738443
113.329887
106.251836
101.014972
97.672939
93.364716
85.341930
79.739690
76.820850
69.112778
65.280795
64.295530
60.056448
57.172775
57.463646
54.919720
50.805807
49.660802
45.890808
48.399568
44.904947
##ZVALUE=240
3.066659
3.493428
7.133484
23.751855
51.795840
118.997693
210.958719
385.589004
549.647808
688.505769
836.845636
862.255692
769.432783
655.364990
469.854474
321.998000
183.180571
125.850439
98.160505
92.067719
99.817514
108.332634
111.116767
99.325776
80.746412
62.854886
51.684976
37.792921
32.064915
31.824708
36.278963
47.725439
55.417418
72.517991
82.719922
91.843605
101.667643
114.769936
118.583441
124.051571
124.931931
135.247707
134.789944
136.168003
132.819414
134.247541
131.501555
128.423572
127.889514
125.630498
128.019452
116.397738
122.806430
121.272802
124.188662
120.824575
123.317838
127.427578
130.927563
130.248666
132.264495
138.849616
139.179826
136.443973
137.301683
138.455629
135.516524
139.440894
136.959553
139.319897
139.171481
141.061544
144.885778
144.933462
143.923759
145.369768
141.526461
130.958557
128.767490
125.276446
114.780664
107.420683
101.228952
97.574592
90.825558
82.972646
79.534650
78.478456
76.022744
70.667863
67.167878
64.159632
62.519908
58.345795
56.873560
55.957437
##ZVALUE=245
2.963543
2.761483
2.783537
3.085732
5.783439
15.261769
47.535896
105.233788
250.469446
407.772660
661.132932
859.352946
1003.550887
1015.976667
1015.976667
865.952969
701.952577
459.357500
309.377909
166.968703
115.129948
99.736452
106.920600
114.155412
120.601654
120.442510
106.980801
93.667507
74.640512
59.624910
48.581958
42.053461
39.741993
40.072799
42.518973
49.050450
52.930713
61.795712
63.109994
66.776872
65.404773
67.852736
69.628954
74.272752
75.253844
75.318813
78.172684
80.689788
84.638000
89.547634
90.784431
97.807646
98.648667
108.174682
116.271973
123.530626
122.868419
130.859613
141.977668
144.141912
148.341656
152.774453
155.717731
156.237483
160.212517
160.407424
157.354474
160.452724
160.235763
163.325667
162.581801
164.821744
166.293979
166.025758
167.683959
153.563619
153.794885
151.753426
141.604543
133.532882
130.102634
119.347572
113.445520
102.692842
96.588731
90.313554
89.316964
81.887841
79.887509
77.851415
69.285631
66.918731
63.779950
59.586763
56.531429
55.595636
##ZVALUE=250
2.589822
2.456903
2.419949
2.773404
2.646446
2.878904
3.833771
12.895465
38.246512
92.067719
226.263404
404.962897
699.786544
912.820697
1015.788913
1015.788913
1015.788913
1015.788913
1004.120708
718.537569
485.438704
253.822803
154.632926
101.591945
95.027685
111.271739
124.858618
130.202770
128.251910
116.699934
104.064941
80.315471
65.676570
47.826767
40.518641
34.707785
33.488870
32.783747
34.535527
34.813881
36.699772
36.968589
40.900707
43.986440
46.286583
52.221417
56.497455
60.461760
65.821409
73.424578
82.538724
90.725422
99.035501
111.239552
116.717815
133.734941
141.352415
148.366690
155.983567
168.052912
173.648596
182.920694
186.897516
193.257928
198.779702
198.707581
198.537707
198.706985
201.848745
198.576450
200.051665
197.996497
196.042657
190.372467
190.669894
182.202458
179.994702
168.983936
161.646605
146.948695
143.137574
131.798983
126.043558
116.619468
112.613440
102.574825
96.101761
91.634989
85.733533
81.104636
72.890520
70.248842
66.222548
65.144897
61.319470
58.074594
##ZVALUE=255
2.067685
2.263784
2.269745
2.500415
2.612472
3.057718
2.643466
2.893806
3.592968
7.640719
24.771690
89.727640
187.542439
413.282514
634.413958
960.269570
1015.788913
1015.788913
1015.788913
1015.788913
1015.788913
948.345661
581.264496
363.797545
173.281431
110.700727
89.581609
97.998977
119.995475
133.381486
139.888525
141.009688
133.254528
112.613440
94.628930
72.193742
58.216453
44.453740
38.489699
35.066605
34.490824
36.958456
38.168430
39.779544
41.848421
47.394633
52.756667
58.739781
64.761639
71.145892
79.567432
89.523792
99.119544
111.780763
120.884776
136.289597
144.122839
162.903666
169.422626
181.161761
193.993449
201.744437
210.103989
213.114619
220.309496
221.818686
224.400759
226.480961
228.178501
224.598646
224.609971
219.822526
218.687654
211.005807
209.071636
202.951431
191.610456
179.328918
174.863935
160.697699
152.137876
139.638782
133.954883
128.602982
120.282769
109.981894
103.264451
97.692609
91.817975
87.905526
81.768632
73.930621
70.712566
63.392520
61.356425
56.813955
##ZVALUE=260
1.843572
1.998544
2.075434
2.031922
2.184510
2.292991
2.132654
2.134442
2.546906
2.854466
3.012419
3.737807
18.831491
50.168633
141.678452
283.553600
584.724545
848.900676
1015.788913
1015.788913
1015.788913
1015.788913
1015.788913
1015.788913
824.788809
468.388796
291.238427
147.525668
95.744729
86.194873
103.071928
125.470757
141.401887
154.794455
153.804421
144.135952
125.996470
102.345943
84.171891
65.640807
55.170655
47.158599
45.332909
45.642853
47.223568
48.634410
54.255724
59.911609
63.051581
68.919659
76.211691
84.453821
92.370510
101.531744
111.151934
124.057531
132.273436
143.352747
156.750679
169.412494
178.340673
188.010931
196.791887
199.465752
206.960440
206.337571
210.828781
214.146972
216.264725
212.194920
212.328434
209.056735
204.301476
196.251869
194.396973
182.489753
180.011988
170.276761
159.788728
153.074861
142.649412
134.630799
128.016472
119.240880
112.853646
104.592443
96.264482
89.355707
83.984733
80.346465
74.876547
67.972541
67.282915
61.175823
57.886839
54.441690
##ZVALUE=265
1.542568
1.700521
1.783967
1.750588
1.865625
1.884699
2.044439
2.173781
2.279878
2.530813
2.601743
2.735853
2.681613
3.514886
6.892681
37.824512
96.552968
247.678757
444.369912
845.555663
1015.622616
1015.622616
1015.622616
1015.622616
1015.622616
1015.622616
1015.622616
761.234760
408.502817
242.851973
148.205757
88.200569
90.149641
118.926764
140.589476
161.633492
173.523426
170.847774
157.922506
136.245489
116.243958
92.691779
77.678561
63.758492
57.420731
54.797530
55.377483
55.397749
57.703853
64.061880
66.950917
71.668625
76.259971
83.757639
88.908672
98.377466
105.491877
112.846494
122.417808
128.667951
134.840608
144.764781
149.520636
155.421495
154.767632
161.484480
161.148906
165.471435
163.493752
163.669586
162.133574
160.466433
160.728693
151.895881
150.850415
142.183900
138.209462
130.467415
124.721527
117.277503
112.942457
105.395913
97.775459
93.057752
88.761449
80.482960
75.828433
73.144436
69.241524
64.606667
60.584545
56.206584
51.942468
48.783422
46.869516
44.137836
##ZVALUE=270
1.685619
1.667738
1.964569
1.618862
1.706481
1.811981
2.052784
2.306700
1.820922
2.481937
2.440810
2.379417
2.577901
2.583861
2.784729
2.784729
5.098581
15.688539
68.048835
160.378814
400.908589
681.724548
1015.788913
1015.788913
1015.788913
1015.788913
1015.788913
1015.788913
1015.788913
1003.632545
709.229708
358.377695
201.474428
103.848577
86.892843
105.227828
127.153993
156.677961
173.038840
180.431604
181.490779
166.300535
151.039958
121.105909
102.526546
81.110001
70.911646
64.240694
59.831738
59.321523
61.404705
63.860416
66.477656
69.839954
70.244670
75.388551
80.678463
85.724592
88.493824
92.490911
95.092654
101.838708
104.341507
104.142427
108.233690
110.132694
107.315779
109.122992
111.475587
108.514428
108.372569
110.083818
108.519793
104.378462
101.112723
102.027655
94.072819
90.075731
87.250471
82.681775
74.677467
73.546767
69.438815
66.719651
61.874986
59.329867
55.633783
52.668452
49.745440
44.415593
43.746829
39.618611
39.470792
36.115646
35.446882
31.746626
##ZVALUE=275
1.873970
1.759529
1.570582
1.903772
1.732707
1.732707
1.701713
1.699924
1.773834
2.073646
2.014637
2.171993
2.172589
2.088547
2.283454
2.509952
2.848506
2.799630
3.168583
8.987784
34.700632
66.226721
289.414525
548.730493
993.493795
1015.788913
1015.788913
1015.788913
1015.788913
1015.788913
1015.788913
1015.788913
888.870955
549.289584
266.181827
146.158934
86.384416
83.660483
108.917952
129.994750
156.206489
172.542930
183.311701
179.342628
165.219903
149.290562
123.040676
104.878545
85.967779
73.633790
65.124631
61.999559
61.449409
61.643720
63.631535
64.412951
68.105459
71.566701
73.411465
75.750947
78.833699
80.160499
82.221627
83.157420
82.904696
84.186792
84.458590
83.491802
85.083842
84.356666
84.222555
85.673928
83.247423
83.329678
80.283880
78.342557
75.973868
72.796941
68.254471
66.413879
61.914921
59.906840
54.110885
52.226782
50.564408
48.750639
45.843720
43.151975
40.581822
38.960576
36.257505
35.041571
33.508539
30.636787
28.975606
28.374791
##ZVALUE=280
1.717806
1.630783
1.578927
1.697540
1.723766
1.777411
1.499653
1.851916
1.940727
1.699924
1.828671
1.951456
1.939535
2.041459
2.256632
2.219677
2.453923
2.522469
2.691746
2.985597
3.418922
5.249977
19.393563
94.378591
225.172043
528.380871
843.264461
1015.788913
1015.788913
1015.788913
1015.788913
1015.788913
1015.788913
1015.788913
1015.788913
687.395930
408.160686
177.621841
98.939538
70.500970
79.260468
105.920434
125.972629
153.301954
166.155696
175.949931
173.546672
158.820748
143.468976
119.302869
102.635622
83.268881
73.527694
64.434409
64.164996
63.443780
65.144897
66.078901
68.694949
72.700977
72.939992
77.045560
77.105761
77.584982
78.441501
78.825951
80.210567
80.778599
79.613924
82.227588
80.025792
80.260634
79.987645
78.848004
76.357722
74.029565
73.183775
69.411993
65.883994
63.290000
62.486529
56.328773
54.700971
51.833987
49.575567
46.645999
45.665503
42.922497
41.693449
38.957596
37.316680
35.064816
33.996701
31.750798
30.805469
29.204488
##ZVALUE=285
1.403689
1.644492
1.586676
1.531839
1.840591
1.580715
1.664758
1.595616
1.694560
1.715422
1.753569
1.688600
1.756549
1.999736
1.745820
2.221465
2.112985
2.203584
2.437830
2.598763
2.918839
3.053546
3.349781
3.720522
11.697412
44.255853
152.403712
319.290757
685.438514
1014.549732
1015.782952
1015.782952
1015.782952
1015.782952
1015.782952
1015.782952
1015.782952
971.397758
626.412630
289.098024
147.358775
65.724850
55.034757
72.279572
90.117455
119.192004
139.219761
155.779719
164.237618
166.341662
156.315565
138.485432
121.963620
101.252794
86.594820
73.277950
68.950653
66.857934
67.025423
71.129799
71.864724
73.251724
75.266957
79.249740
79.833865
80.453753
82.838535
82.598925
82.256794
82.804561
82.671642
82.064867
81.948638
81.223845
80.075860
76.761842
75.865984
72.677732
70.904493
65.598488
64.484477
61.822534
57.963729
55.807829
52.847862
50.794482
49.130917
46.018958
44.372678
42.153597
39.727688
38.057566
36.366582
34.574866
33.828616
31.355619
##ZVALUE=290
1.406670
1.481771
1.415610
1.531839
1.523495
1.515746
1.605749
1.536608
1.567602
1.872778
1.666546
1.693964
1.631975
1.785755
1.831651
1.903772
2.040863
2.015829
2.197623
2.278686
2.473593
2.515912
2.797842
3.048778
3.574491
3.661513
4.849434
23.601651
77.238679
247.565508
477.359891
956.912637
1015.788913
1015.788913
1015.788913
1015.788913
1015.788913
1015.788913
1015.788913
1015.788913
843.479633
417.047739
214.991570
82.607865
47.318935
49.169660
63.731670
85.117817
104.874969
131.536722
149.770975
161.277652
162.007809
154.283643
140.606761
119.798779
104.740858
89.485645
80.058575
73.559880
73.009729
73.675513
74.501634
76.404810
78.093410
79.628825
80.135465
82.053542
83.269477
84.037781
83.638430
83.887577
83.266497
83.109736
81.260800
77.778697
77.017546
73.825717
71.590543
69.170594
65.979958
63.618422
61.196685
58.712959
57.440996
54.705739
52.034855
49.266815
48.083663
44.989586
43.352842
40.269494
37.789941
36.515594
34.479499
33.270717
##ZVALUE=295
1.456738
1.449585
1.459718
1.415610
1.592636
1.441836
1.500845
1.434684
1.421571
1.641512
1.524687
1.622438
1.863837
1.739860
1.728535
1.981854
1.831651
1.823902
1.849532
2.165437
2.070665
2.529621
2.254844
2.764463
2.934933
3.058910
3.294945
3.424883
4.447699
8.556843
48.005581
141.927004
328.873992
773.075819
1015.788913
1015.788913
1015.788913
1015.788913
1015.788913
1015.788913
1015.788913
1015.788913
1015.788913
668.638945
377.171636
141.125917
62.586665
36.848783
44.178963
61.787963
78.370571
104.984641
123.086572
146.711469
156.495571
159.800649
153.541565
137.050748
124.512911
107.740760
95.204711
83.597898
78.492761
76.788664
75.054765
77.052712
78.687668
80.176592
80.182552
82.175732
82.501769
81.459880
82.965493
80.631971
80.106854
78.252554
75.065494
72.297454
70.245862
67.847967
66.584945
63.299537
61.344504
59.218407
56.481957
54.117441
53.237677
49.934983
48.573613
44.952631
43.926835
40.880442
39.649606
37.927628
35.800934
34.149885
##ZVALUE=300
1.470447
1.414418
1.480579
1.540780
1.388788
1.159906
1.475811
1.515746
1.582503
1.640916
1.738667
1.629591
1.681447
1.747608
1.829863
1.839995
1.833439
1.763701
1.942515
1.923442
1.941919
2.058744
2.094507
2.205968
2.553463
2.412796
2.798438
3.010631
3.344417
3.585815
4.166961
4.935861
23.459792
86.100698
292.762518
569.856763
1015.788913
1015.788913
1015.788913
1015.788913
1015.788913
1015.788913
1015.788913
1015.788913
1015.788913
1015.788913
643.396378
356.474519
123.695731
51.103830
34.805536
42.201877
58.609843
75.195432
101.215839
120.170712
143.171549
153.999925
157.580972
155.810714
141.397715
128.977895
113.260746
99.886656
88.761449
83.392859
79.622865
78.655481
78.910589
79.018474
79.735518
80.041885
79.463720
77.548623
77.424645
75.099468
73.180795
70.936680
68.007708
65.336823
63.647628
62.976480
59.724450
57.673454
55.521727
53.543448
50.585866
49.707890
46.997666
44.541955
42.444468
40.741563
38.443804
37.242770
34.959912
33.969879
##ZVALUE=305
1.609921
1.560450
1.388788
1.547933
1.624823
1.382828
1.519918
1.557469
1.556873
1.508594
1.736879
1.657605
1.545548
1.684427
1.686811
1.699924
1.712441
1.711845
1.792908
1.921654
2.019405
2.099872
2.226830
2.281666
2.285838
2.407432
2.570748
2.761483
2.713799
3.321767
3.434420
3.706813
4.023910
4.931688
9.619594
62.827468
183.027387
527.773499
939.651728
1015.788913
1015.788913
1015.788913
1015.788913
1015.788913
1015.788913
1015.788913
1015.788913
1015.788913
967.895389
487.141013
238.319635
73.695779
36.346912
36.051869
44.142604
61.628819
78.408718
102.787614
122.295618
142.634511
154.326558
159.482956
153.320432
143.171549
129.942894
111.671686
100.536942
87.313652
79.940557
77.457428
75.945854
73.911548
74.797869
72.508454
71.852803
69.794655
