Data from Bacilus_0CFU1_RamanShift_1.txt Node
Date: Wed Mar 01 11:46:32 IST 2017
User: aro
Spectrometer: QEPB0276
Trigger mode: 0
Integration Time (sec): 5.000000E0
Scans to average: 1
Electric dark correction enabled: true
Nonlinearity correction enabled: false
Boxcar width: 0
XAxis mode: Raman Shifts
Number of Pixels in Spectrum: 1044
>>>>>Begin Spectral Data<<<<<
160.701	-31.38
166.742	0.62
172.777	90.62
178.805	381.62
184.826	1057.62
190.841	2223.62
196.849	3466.62
202.85	4307.62
208.845	4456.62
214.833	4329.62
220.815	4138.62
226.789	4001.62
232.758	3878.62
238.719	3748.62
244.674	3588.62
250.623	3387.62
256.565	3213.62
262.5	3052.62
268.429	2902.62
274.351	2742.62
280.267	2638.62
286.176	2524.62
292.079	2409.62
297.975	2327.62
303.865	2250.62
309.748	2182.62
315.625	2111.62
321.495	2078.62
327.359	2049.62
333.217	2020.62
339.068	2004.62
344.912	1990.62
350.751	1983.62
356.583	1957.62
362.408	1968.62
368.227	1976.62
374.04	1996.62
379.847	1997.62
385.647	2019.62
391.44	2008.62
397.228	2023.62
403.009	2040.62
408.784	2045.62
414.553	2044.62
420.315	2039.62
426.071	2035.62
431.821	2065.62
437.565	2043.62
443.302	2023.62
449.033	2013.62
454.758	2021.62
460.477	1999.62
466.189	1974.62
471.896	1979.62
477.596	1964.62
483.29	1945.62
488.978	1945.62
494.66	1940.62
500.335	1892.62
506.005	1885.62
511.668	1824.62
517.325	1775.62
522.977	1746.62
528.622	1712.62
534.261	1706.62
539.894	1663.62
545.521	1656.62
551.141	1652.62
556.756	1622.62
562.365	1603.62
567.968	1601.62
573.565	1571.62
579.155	1566.62
584.74	1550.62
590.319	1521.62
595.892	1542.62
601.459	1514.62
607.02	1506.62
612.575	1486.62
618.124	1474.62
623.667	1450.62
629.204	1434.62
634.735	1428.62
640.261	1419.62
645.781	1402.62
651.294	1378.62
656.802	1388.62
662.304	1361.62
667.8	1346.62
673.29	1351.62
678.775	1340.62
684.254	1331.62
689.726	1309.62
695.193	1318.62
700.655	1304.62
706.11	1289.62
711.56	1280.62
717.004	1276.62
722.442	1262.62
727.874	1244.62
733.301	1243.62
738.722	1226.62
744.137	1219.62
749.547	1212.62
754.951	1199.62
760.349	1195.62
765.741	1193.62
771.128	1180.62
776.509	1193.62
781.885	1202.62
787.254	1193.62
792.618	1176.62
797.977	1172.62
803.33	1177.62
808.677	1135.62
814.019	1122.62
819.355	1123.62
824.686	1083.62
830.011	1079.62
835.33	1068.62
840.644	1055.62
845.952	1041.62
851.255	1046.62
856.552	1026.62
861.844	1015.62
867.13	1008.62
872.41	1003.62
877.686	974.62
882.955	961.62
888.219	950.62
893.478	939.62
898.731	925.62
903.979	897.62
909.221	877.62
914.458	873.62
919.69	859.62
924.916	861.62
930.136	847.62
935.351	833.62
940.561	837.62
945.766	828.62
950.965	825.62
956.158	818.62
961.347	815.62
966.529	791.62
971.707	775.62
976.879	764.62
982.046	756.62
987.208	748.62
992.364	738.62
997.515	743.62
1002.66	749.62
1007.801	747.62
1012.936	740.62
1018.066	752.62
1023.19	751.62
1028.309	761.62
1033.423	756.62
1038.532	767.62
1043.636	752.62
1048.734	744.62
1053.827	731.62
1058.915	716.62
1063.998	713.62
1069.075	720.62
1074.147	714.62
1079.214	720.62
1084.276	707.62
1089.333	710.62
1094.385	713.62
1099.431	713.62
1104.472	726.62
1109.509	722.62
1114.54	710.62
1119.565	710.62
1124.586	690.62
1129.602	684.62
1134.613	676.62
1139.618	676.62
1144.619	668.62
1149.614	681.62
1154.604	684.62
1159.589	677.62
1164.57	672.62
1169.545	682.62
1174.515	672.62
1179.48	684.62
1184.44	683.62
1189.395	677.62
1194.345	673.62
1199.29	680.62
1204.23	667.62
1209.165	672.62
1214.095	676.62
1219.021	662.62
1223.941	676.62
1228.856	668.62
1233.766	679.62
1238.672	678.62
1243.572	675.62
1248.467	683.62
1253.358	678.62
1258.244	665.62
1263.124	658.62
1268	634.62
1272.871	630.62
1277.737	639.62
1282.599	610.62
1287.455	621.62
1292.306	623.62
1297.153	625.62
1301.995	634.62
1306.832	618.62
1311.664	635.62
1316.491	629.62
1321.314	643.62
1326.132	621.62
1330.945	611.62
1335.753	599.62
1340.556	588.62
1345.354	576.62
1350.148	568.62
1354.937	551.62
1359.722	558.62
1364.501	558.62
1369.276	565.62
1374.046	566.62
1378.811	571.62
1383.572	579.62
1388.327	581.62
1393.079	576.62
1397.825	571.62
1402.567	572.62
1407.304	539.62
1412.036	543.62
1416.764	537.62
1421.487	530.62
1426.205	538.62
1430.919	519.62
1435.628	525.62
1440.333	542.62
1445.032	536.62
1449.727	545.62
1454.418	552.62
1459.104	547.62
1463.785	540.62
1468.462	544.62
1473.134	539.62
1477.802	525.62
1482.465	526.62
1487.123	529.62
1491.777	535.62
1496.426	551.62
1501.071	555.62
1505.711	555.62
1510.347	564.62
1514.978	581.62
1519.604	590.62
1524.226	588.62
1528.844	607.62
1533.457	620.62
1538.065	605.62
1542.669	610.62
1547.269	609.62
1551.864	614.62
1556.454	628.62
1561.041	635.62
1565.622	643.62
1570.199	646.62
1574.772	654.62
1579.34	685.62
1583.904	705.62
1588.464	718.62
1593.019	744.62
1597.569	746.62
1602.115	783.62
1606.657	809.62
1611.195	812.62
1615.728	825.62
1620.256	848.62
1624.78	862.62
1629.3	883.62
1633.816	904.62
1638.327	888.62
1642.834	915.62
1647.336	919.62
1651.834	907.62
1656.328	914.62
1660.817	906.62
1665.302	884.62
1669.783	871.62
1674.259	836.62
1678.732	799.62
1683.199	758.62
1687.663	718.62
1692.122	669.62
1696.577	644.62
1701.028	617.62
1705.474	591.62
1709.917	583.62
1714.355	554.62
1718.788	522.62
1723.218	495.62
1727.643	473.62
1732.064	459.62
1736.481	440.62
1740.893	409.62
1745.301	399.62
1749.705	379.62
1754.105	363.62
1758.501	342.62
1762.893	325.62
1767.28	310.62
1771.663	310.62
1776.042	301.62
1780.417	301.62
1784.787	291.62
1789.154	299.62
1793.516	295.62
1797.874	306.62
1802.228	309.62
1806.578	293.62
1810.924	294.62
1815.266	293.62
1819.603	286.62
1823.937	270.62
1828.266	269.62
1832.591	258.62
1836.913	258.62
1841.23	258.62
1845.543	252.62
1849.852	242.62
1854.156	250.62
1858.457	243.62
1862.754	252.62
1867.047	254.62
1871.335	249.62
1875.62	252.62
1879.9	258.62
1884.177	248.62
1888.449	251.62
1892.718	249.62
1896.982	241.62
1901.243	244.62
1905.499	250.62
1909.752	251.62
1914	254.62
1918.245	250.62
1922.485	253.62
1926.722	256.62
1930.954	259.62
1935.183	260.62
1939.408	264.62
1943.628	276.62
1947.845	274.62
1952.058	274.62
1956.267	272.62
1960.472	265.62
1964.673	266.62
1968.87	262.62
1973.063	263.62
1977.252	257.62
1981.438	260.62
1985.619	262.62
1989.797	255.62
1993.971	261.62
1998.14	257.62
2002.306	254.62
2006.469	254.62
2010.627	267.62
2014.781	259.62
2018.932	266.62
2023.078	260.62
2027.221	261.62
2031.36	268.62
2035.495	266.62
2039.627	259.62
2043.754	263.62
2047.878	263.62
2051.998	263.62
2056.114	262.62
2060.226	270.62
2064.334	271.62
2068.439	275.62
2072.54	270.62
2076.637	283.62
2080.73	276.62
2084.82	286.62
2088.906	301.62
2092.988	297.62
2097.066	296.62
2101.14	299.62
2105.211	287.62
2109.278	283.62
2113.342	284.62
2117.401	280.62
2121.457	282.62
2125.509	285.62
2129.558	276.62
2133.602	274.62
2137.643	275.62
2141.681	270.62
2145.714	267.62
2149.744	266.62
2153.77	257.62
2157.793	259.62
2161.812	260.62
2165.827	253.62
2169.838	248.62
2173.846	240.62
2177.851	239.62
2181.851	231.62
2185.848	228.62
2189.841	215.62
2193.831	212.62
2197.817	207.62
2201.799	212.62
2205.778	215.62
2209.753	209.62
2213.725	208.62
2217.693	194.62
2221.657	198.62
2225.618	202.62
2229.575	190.62
2233.529	194.62
2237.479	190.62
2241.425	185.62
2245.368	180.62
2249.307	184.62
2253.243	177.62
2257.175	172.62
2261.104	170.62
2265.029	159.62
2268.95	155.62
2272.868	160.62
2276.783	150.62
2280.694	148.62
2284.601	145.62
2288.505	143.62
2292.405	138.62
2296.302	128.62
2300.195	137.62
2304.085	122.62
2307.971	133.62
2311.854	121.62
2315.734	118.62
2319.609	117.62
2323.482	114.62
2327.351	107.62
2331.216	105.62
2335.078	113.62
2338.937	111.62
2342.792	108.62
2346.643	95.62
2350.492	98.62
2354.336	94.62
2358.178	95.62
2362.015	97.62
2365.85	91.62
2369.681	86.62
2373.508	89.62
2377.333	92.62
2381.153	92.62
2384.971	94.62
2388.785	92.62
2392.595	84.62
2396.402	90.62
2400.206	89.62
2404.007	86.62
2407.804	84.62
2411.597	78.62
2415.388	83.62
2419.174	80.62
2422.958	85.62
2426.738	80.62
2430.515	70.62
2434.289	77.62
2438.059	72.62
2441.825	68.62
2445.589	66.62
2449.349	70.62
2453.106	70.62
2456.859	65.62
2460.61	69.62
2464.356	65.62
2468.1	63.62
2471.84	59.62
2475.577	60.62
2479.311	55.62
2483.041	59.62
2486.768	66.62
2490.492	65.62
2494.213	63.62
2497.93	58.62
2501.644	57.62
2505.355	61.62
2509.062	60.62
2512.766	62.62
2516.467	52.62
2520.165	57.62
2523.859	51.62
2527.551	51.62
2531.239	57.62
2534.923	60.62
2538.605	60.62
2542.283	51.62
2545.958	53.62
2549.63	47.62
2553.299	48.62
2556.964	45.62
2560.626	48.62
2564.285	47.62
2567.941	47.62
2571.594	39.62
2575.243	49.62
2578.89	48.62
2582.533	51.62
2586.173	44.62
2589.809	38.62
2593.443	38.62
2597.073	37.62
2600.701	41.62
2604.325	35.62
2607.946	41.62
2611.564	33.62
2615.178	34.62
2618.79	30.62
2622.398	38.62
2626.004	35.62
2629.606	36.62
2633.205	37.62
2636.801	37.62
2640.394	29.62
2643.983	24.62
2647.57	33.62
2651.153	39.62
2654.734	33.62
2658.311	31.62
2661.885	27.62
2665.456	27.62
2669.025	18.62
2672.589	26.62
2676.151	23.62
2679.71	28.62
2683.266	21.62
2686.819	28.62
2690.368	24.62
2693.915	23.62
2697.458	24.62
2700.999	22.62
2704.536	22.62
2708.071	14.62
2711.602	13.62
2715.13	16.62
2718.656	19.62
2722.178	17.62
2725.697	18.62
2729.214	27.62
2732.727	20.62
2736.237	19.62
2739.744	24.62
2743.249	31.62
2746.75	27.62
2750.248	28.62
2753.743	34.62
2757.236	32.62
2760.725	34.62
2764.211	32.62
2767.695	31.62
2771.175	40.62
2774.652	32.62
2778.127	41.62
2781.598	40.62
2785.067	37.62
2788.532	37.62
2791.995	32.62
2795.455	40.62
2798.911	44.62
2802.365	51.62
2805.816	54.62
2809.264	44.62
2812.709	47.62
2816.151	54.62
2819.59	51.62
2823.026	57.62
2826.46	52.62
2829.89	58.62
2833.318	60.62
2836.742	59.62
2840.164	63.62
2843.583	71.62
2846.999	63.62
2850.412	63.62
2853.822	73.62
2857.229	72.62
2860.634	83.62
2864.035	86.62
2867.434	88.62
2870.83	91.62
2874.223	90.62
2877.613	98.62
2881	97.62
2884.385	102.62
2887.766	105.62
2891.145	106.62
2894.521	113.62
2897.894	107.62
2901.264	117.62
2904.631	121.62
2907.996	123.62
2911.358	130.62
2914.717	135.62
2918.073	136.62
2921.426	137.62
2924.777	143.62
2928.124	150.62
2931.469	163.62
2934.811	161.62
2938.15	169.62
2941.487	185.62
2944.821	185.62
2948.152	192.62
2951.48	197.62
2954.805	197.62
2958.128	210.62
2961.447	216.62
2964.765	221.62
2968.079	231.62
2971.39	244.62
2974.699	245.62
2978.005	251.62
2981.308	268.62
2984.609	283.62
2987.907	289.62
2991.202	319.62
2994.494	328.62
2997.784	336.62
3001.07	341.62
3004.355	360.62
3007.636	381.62
3010.915	383.62
3014.191	392.62
3017.464	406.62
3020.734	413.62
3024.002	423.62
3027.267	434.62
3030.53	449.62
3033.789	465.62
3037.046	473.62
3040.301	485.62
3043.552	495.62
3046.801	511.62
3050.048	526.62
3053.291	539.62
3056.532	564.62
3059.771	595.62
3063.006	611.62
3066.239	635.62
3069.469	663.62
3072.697	679.62
3075.922	707.62
3079.144	729.62
3082.364	747.62
3085.581	755.62
3088.795	791.62
3092.007	805.62
3095.216	830.62
3098.423	857.62
3101.627	869.62
3104.828	902.62
3108.026	904.62
3111.222	944.62
3114.416	969.62
3117.607	983.62
3120.795	1021.62
3123.98	1053.62
3127.163	1065.62
3130.344	1089.62
3133.521	1122.62
3136.696	1144.62
3139.869	1175.62
3143.039	1207.62
3146.206	1234.62
3149.371	1248.62
3152.533	1265.62
3155.693	1286.62
3158.85	1286.62
3162.005	1303.62
3165.157	1308.62
3168.306	1327.62
3171.453	1315.62
3174.597	1313.62
3177.739	1327.62
3180.878	1329.62
3184.014	1332.62
3187.149	1348.62
3190.28	1352.62
3193.409	1350.62
3196.536	1357.62
3199.659	1362.62
3202.781	1373.62
3205.9	1379.62
3209.016	1366.62
3212.13	1374.62
3215.241	1374.62
3218.35	1377.62
3221.456	1368.62
3224.56	1366.62
3227.661	1356.62
3230.76	1348.62
3233.856	1317.62
3236.95	1331.62
3240.041	1320.62
3243.13	1300.62
3246.216	1288.62
3249.3	1277.62
3252.382	1278.62
3255.46	1272.62
3258.537	1246.62
3261.611	1265.62
3264.682	1241.62
3267.751	1251.62
3270.818	1232.62
3273.882	1242.62
3276.943	1223.62
3280.002	1203.62
3283.059	1200.62
3286.113	1200.62
3289.165	1166.62
3292.214	1180.62
3295.261	1143.62
3298.306	1132.62
3301.348	1109.62
3304.387	1088.62
3307.425	1083.62
3310.459	1060.62
3313.492	1032.62
3316.521	1030.62
3319.549	1015.62
3322.574	1007.62
3325.597	993.62
3328.617	1004.62
3331.635	987.62
3334.65	983.62
3337.663	983.62
3340.674	960.62
3343.682	964.62
3346.688	964.62
3349.691	967.62
3352.692	961.62
3355.691	964.62
3358.687	957.62
3361.681	945.62
3364.673	938.62
3367.662	908.62
3370.649	912.62
3373.633	891.62
3376.615	888.62
3379.595	874.62
3382.572	870.62
3385.547	845.62
3388.52	847.62
3391.49	844.62
3394.458	818.62
3397.424	803.62
3400.387	798.62
3403.348	785.62
3406.307	782.62
3409.263	776.62
3412.217	766.62
3415.168	752.62
3418.118	749.62
3421.065	745.62
3424.009	729.62
3426.951	733.62
3429.891	709.62
3432.829	713.62
3435.764	707.62
3438.697	683.62
3441.628	665.62
3444.557	649.62
3447.483	635.62
3450.407	614.62
3453.328	603.62
3456.247	579.62
3459.164	571.62
3462.079	551.62
3464.991	536.62
3467.902	523.62
3470.809	504.62
3473.715	496.62
3476.618	479.62
3479.519	464.62
3482.418	451.62
3485.315	444.62
3488.209	427.62
3491.101	415.62
3493.99	409.62
3496.878	391.62
3499.763	378.62
3502.646	373.62
3505.527	353.62
3508.405	354.62
3511.281	342.62
3514.155	330.62
3517.027	311.62
3519.897	305.62
3522.764	296.62
3525.629	269.62
3528.492	261.62
3531.352	243.62
3534.211	231.62
3537.067	223.62
3539.921	215.62
3542.773	195.62
3545.622	184.62
3548.469	186.62
3551.315	167.62
3554.157	155.62
3556.998	144.62
3559.837	140.62
3562.673	131.62
3565.507	132.62
3568.339	119.62
3571.169	119.62
3573.996	104.62
3576.822	95.62
3579.645	89.62
3582.466	74.62
3585.285	77.62
3588.101	64.62
3590.916	65.62
3593.728	59.62
3596.538	58.62
3599.346	48.62
3602.152	46.62
3604.956	30.62
3607.757	26.62
3610.556	27.62
3613.354	23.62
3616.149	15.62
3618.942	11.62
3621.732	6.62
3624.521	7.62
3627.307	-0.38
3630.092	-6.38
3632.874	-9.38
3635.654	-17.38
3638.432	-11.38
3641.208	-13.38
3643.982	-15.38
3646.753	-20.38
3649.523	-24.38
3652.29	-27.38
3655.055	-33.38
3657.818	-34.38
3660.579	-40.38
3663.338	-41.38
3666.095	-43.38
3668.849	-44.38
3671.602	-45.38
3674.352	-46.38
3677.101	-50.38
3679.847	-59.38
3682.591	-61.38
3685.333	-63.38
3688.073	-67.38
3690.811	-67.38
3693.547	-61.38
3696.281	-66.38
3699.013	-64.38
3701.742	-71.38
3704.47	-70.38
3707.195	-79.38
3709.919	-80.38
3712.64	-80.38
3715.359	-81.38
3718.076	-81.38
3720.792	-77.38
3723.505	-79.38
3726.216	-75.38
3728.925	-79.38
3731.632	-84.38
3734.336	-89.38
3737.039	-88.38
3739.74	-87.38
3742.439	-86.38
3745.136	-89.38
3747.83	-83.38
3750.523	-90.38
3753.213	-85.38
3755.902	-90.38
3758.589	-93.38
3761.273	-90.38
3763.956	-93.38
3766.636	-91.38
3769.315	-96.38
3771.991	-92.38
3774.665	-94.38
3777.338	-95.38
3780.008	-92.38
3782.677	-95.38
3785.343	-95.38
3788.007	-97.38
3790.67	-96.38
3793.33	-95.38
3795.989	-97.38
3798.645	-98.38
3801.299	-101.38
3803.952	-97.38
3806.602	-102.38
3809.251	-94.38
3811.897	-96.38
3814.542	-102.38
3817.184	-98.38
3819.825	-100.38
3822.463	-96.38
3825.1	-97.38
3827.735	-97.38
3830.367	-101.38
3832.998	-102.38
3835.627	-100.38
3838.253	-99.38
3840.878	-105.38
3843.501	-100.38
3846.122	-104.38
3848.741	-102.38
3851.358	-101.38
3853.973	-103.38
3856.586	-105.38
3859.197	-101.38
3861.806	-101.38
3864.414	-104.38
3867.019	-101.38
3869.622	-107.38
3872.224	-100.38
3874.823	-105.38
3877.421	-101.38
3880.016	-91.38
3882.61	-91.38
3885.202	-85.38
3887.792	-93.38
3890.38	-98.38
3892.966	-100.38
3895.55	-100.38
3898.132	-101.38
3900.713	-105.38
3903.291	-106.38
3905.868	-105.38
3908.442	-105.38
3911.015	-98.38
3913.586	-103.38
3916.155	-106.38
3918.722	-104.38
3921.287	-103.38
3923.85	-105.38
3926.411	-105.38
3928.971	-105.38
3931.528	-105.38
3934.084	-101.38
3936.638	-104.38
3939.19	-109.38
3941.74	-100.38
3944.288	-106.38
3946.834	-107.38
3949.378	-108.38
3951.921	-106.38
3954.462	-105.38
3957	-106.38
3959.537	-105.38
3962.072	-107.38
3964.606	-103.38
3967.137	-104.38
3969.667	-106.38
3972.194	-103.38
3974.72	-105.38
3977.244	-108.38
3979.766	-105.38
3982.286	-102.38
3984.805	-102.38
3987.321	-104.38
3989.836	-99.38
3992.349	-104.38
3994.86	-106.38
3997.369	-103.38
3999.877	-104.38
4002.382	-104.38
4004.886	-100.38
4007.388	-102.38
4009.888	-101.38
4012.386	-104.38
4014.883	-105.38
4017.377	-100.38
4019.87	-103.38
4022.361	-105.38
4024.85	-104.38
4027.338	-102.38
4029.823	-108.38
4032.307	-105.38
4034.789	-104.38
4037.269	-104.38
4039.747	-105.38
4042.224	-103.38
4044.699	-96.38
4047.172	-102.38
4049.643	-102.38
4052.112	-106.38
4054.58	-108.38
4057.046	-107.38
4059.51	-108.38
4061.972	-106.38
4064.432	-106.38
4066.891	-102.38
4069.348	-106.38
4071.803	-102.38
4074.256	-108.38
4076.708	-105.38
4079.158	-104.38
4081.606	-101.38
4084.052	-107.38
4086.497	-109.38
4088.939	-105.38
4091.38	-104.38
4093.819	-105.38
4096.257	-107.38
4098.693	-106.38
4101.127	-111.38
4103.559	-111.38
4105.989	-65.38
4108.418	-69.38
4110.845	-66.38
4113.27	-57.38
4115.694	-55.38
4118.115	-43.38
4120.535	-103.38
4122.954	-104.38
4125.37	-105.38
4127.785	-104.38
4130.198	-104.38
4132.609	-102.38
4135.019	-108.38
4137.427	-110.38
4139.833	-112.38
4142.237	-110.38
