Data from Bacilus_dil11_B2_RamanShift_1.txt Node
Date: Wed Mar 01 12:52:07 IST 2017
User: aro
Spectrometer: QEPB0276
Trigger mode: 0
Integration Time (sec): 5.000000E0
Scans to average: 1
Electric dark correction enabled: true
Nonlinearity correction enabled: false
Boxcar width: 0
XAxis mode: Raman Shifts
Number of Pixels in Spectrum: 1044
>>>>>Begin Spectral Data<<<<<
160.701	-18
166.742	0
172.777	76
178.805	310
184.826	867
190.841	1835
196.849	2882
202.85	3586
208.845	3760
214.833	3630
220.815	3510
226.789	3384
232.758	3291
238.719	3207
244.674	3066
250.623	2930
256.565	2798
262.5	2648
268.429	2539
274.351	2428
280.267	2336
286.176	2232
292.079	2168
297.975	2082
303.865	2013
309.748	1964
315.625	1913
321.495	1880
327.359	1866
333.217	1838
339.068	1822
344.912	1816
350.751	1814
356.583	1805
362.408	1801
368.227	1816
374.04	1811
379.847	1818
385.647	1831
391.44	1850
397.228	1865
403.009	1867
408.784	1868
414.553	1888
420.315	1895
426.071	1884
431.821	1904
437.565	1882
443.302	1880
449.033	1850
454.758	1841
460.477	1842
466.189	1821
471.896	1828
477.596	1821
483.29	1811
488.978	1797
494.66	1807
500.335	1770
506.005	1726
511.668	1699
517.325	1635
522.977	1633
528.622	1616
534.261	1575
539.894	1560
545.521	1543
551.141	1545
556.756	1518
562.365	1510
567.968	1495
573.565	1500
579.155	1482
584.74	1476
590.319	1445
595.892	1464
601.459	1458
607.02	1444
612.575	1426
618.124	1409
623.667	1393
629.204	1384
634.735	1371
640.261	1343
645.781	1352
651.294	1334
656.802	1326
662.304	1312
667.8	1306
673.29	1303
678.775	1300
684.254	1302
689.726	1290
695.193	1295
700.655	1276
706.11	1271
711.56	1268
717.004	1248
722.442	1235
727.874	1232
733.301	1236
738.722	1211
744.137	1202
749.547	1210
754.951	1191
760.349	1192
765.741	1190
771.128	1191
776.509	1195
781.885	1191
787.254	1196
792.618	1202
797.977	1192
803.33	1184
808.677	1166
814.019	1141
819.355	1143
824.686	1123
830.011	1111
835.33	1103
840.644	1095
845.952	1080
851.255	1063
856.552	1072
861.844	1060
867.13	1064
872.41	1047
877.686	1046
882.955	1009
888.219	1027
893.478	1001
898.731	988
903.979	957
909.221	948
914.458	945
919.69	939
924.916	915
930.136	918
935.351	903
940.561	930
945.766	909
950.965	894
956.158	901
961.347	879
966.529	883
971.707	846
976.879	860
982.046	838
987.208	837
992.364	834
997.515	835
1002.66	837
1007.801	836
1012.936	836
1018.066	846
1023.19	843
1028.309	850
1033.423	852
1038.532	857
1043.636	867
1048.734	858
1053.827	837
1058.915	833
1063.998	818
1069.075	811
1074.147	814
1079.214	817
1084.276	822
1089.333	819
1094.385	833
1099.431	830
1104.472	832
1109.509	832
1114.54	821
1119.565	812
1124.586	799
1129.602	793
1134.613	776
1139.618	785
1144.619	783
1149.614	786
1154.604	777
1159.589	779
1164.57	793
1169.545	794
1174.515	797
1179.48	789
1184.44	793
1189.395	789
1194.345	782
1199.29	763
1204.23	775
1209.165	782
1214.095	778
1219.021	776
1223.941	779
1228.856	792
1233.766	789
1238.672	792
1243.572	797
1248.467	783
1253.358	787
1258.244	764
1263.124	756
1268	740
1272.871	729
1277.737	736
1282.599	722
1287.455	722
1292.306	719
1297.153	727
1301.995	727
1306.832	735
1311.664	746
1316.491	740
1321.314	741
1326.132	740
1330.945	720
1335.753	695
1340.556	691
1345.354	681
1350.148	666
1354.937	657
1359.722	669
1364.501	664
1369.276	667
1374.046	683
1378.811	694
1383.572	686
1388.327	691
1393.079	682
1397.825	675
1402.567	666
1407.304	639
1412.036	656
1416.764	631
1421.487	637
1426.205	633
1430.919	647
1435.628	639
1440.333	629
1445.032	649
1449.727	647
1454.418	648
1459.104	645
1463.785	657
1468.462	647
1473.134	631
1477.802	625
1482.465	620
1487.123	624
1491.777	622
1496.426	639
1501.071	632
1505.711	644
1510.347	658
1514.978	675
1519.604	688
1524.226	702
1528.844	698
1533.457	691
1538.065	710
1542.669	706
1547.269	708
1551.864	706
1556.454	710
1561.041	709
1565.622	715
1570.199	728
1574.772	722
1579.34	737
1583.904	762
1588.464	780
1593.019	782
1597.569	811
1602.115	829
1606.657	833
1611.195	842
1615.728	844
1620.256	865
1624.78	886
1629.3	891
1633.816	906
1638.327	900
1642.834	913
1647.336	936
1651.834	933
1656.328	939
1660.817	911
1665.302	897
1669.783	885
1674.259	861
1678.732	828
1683.199	793
1687.663	755
1692.122	719
1696.577	689
1701.028	672
1705.474	651
1709.917	658
1714.355	632
1718.788	594
1723.218	574
1727.643	559
1732.064	544
1736.481	529
1740.893	503
1745.301	494
1749.705	468
1754.105	449
1758.501	430
1762.893	428
1767.28	417
1771.663	414
1776.042	390
1780.417	396
1784.787	398
1789.154	400
1793.516	396
1797.874	395
1802.228	407
1806.578	414
1810.924	401
1815.266	406
1819.603	383
1823.937	389
1828.266	385
1832.591	367
1836.913	354
1841.23	352
1845.543	362
1849.852	347
1854.156	346
1858.457	345
1862.754	351
1867.047	351
1871.335	350
1875.62	349
1879.9	355
1884.177	355
1888.449	348
1892.718	351
1896.982	353
1901.243	348
1905.499	352
1909.752	348
1914	352
1918.245	334
1922.485	361
1926.722	356
1930.954	353
1935.183	360
1939.408	361
1943.628	368
1947.845	376
1952.058	372
1956.267	361
1960.472	363
1964.673	366
1968.87	352
1973.063	352
1977.252	349
1981.438	353
1985.619	351
1989.797	356
1993.971	346
1998.14	344
2002.306	339
2006.469	343
2010.627	348
2014.781	344
2018.932	342
2023.078	346
2027.221	357
2031.36	348
2035.495	342
2039.627	342
2043.754	332
2047.878	334
2051.998	346
2056.114	342
2060.226	345
2064.334	345
2068.439	354
2072.54	347
2076.637	340
2080.73	355
2084.82	355
2088.906	359
2092.988	370
2097.066	363
2101.14	362
2105.211	358
2109.278	360
2113.342	363
2117.401	352
2121.457	343
2125.509	354
2129.558	352
2133.602	339
2137.643	345
2141.681	345
2145.714	331
2149.744	324
2153.77	329
2157.793	323
2161.812	324
2165.827	323
2169.838	309
2173.846	314
2177.851	299
2181.851	296
2185.848	289
2189.841	288
2193.831	283
2197.817	274
2201.799	269
2205.778	277
2209.753	276
2213.725	275
2217.693	273
2221.657	268
2225.618	270
2229.575	257
2233.529	272
2237.479	271
2241.425	268
2245.368	252
2249.307	250
2253.243	256
2257.175	243
2261.104	237
2265.029	230
2268.95	220
2272.868	226
2276.783	227
2280.694	214
2284.601	216
2288.505	212
2292.405	209
2296.302	211
2300.195	203
2304.085	193
2307.971	195
2311.854	194
2315.734	185
2319.609	189
2323.482	184
2327.351	177
2331.216	179
2335.078	170
2338.937	174
2342.792	176
2346.643	169
2350.492	170
2354.336	168
2358.178	160
2362.015	158
2365.85	161
2369.681	159
2373.508	161
2377.333	159
2381.153	165
2384.971	168
2388.785	157
2392.595	153
2396.402	147
2400.206	156
2404.007	150
2407.804	151
2411.597	147
2415.388	146
2419.174	152
2422.958	145
2426.738	146
2430.515	145
2434.289	140
2438.059	140
2441.825	133
2445.589	129
2449.349	136
2453.106	132
2456.859	137
2460.61	133
2464.356	126
2468.1	131
2471.84	118
2475.577	131
2479.311	119
2483.041	122
2486.768	127
2490.492	122
2494.213	123
2497.93	127
2501.644	126
2505.355	125
2509.062	125
2512.766	120
2516.467	119
2520.165	120
2523.859	111
2527.551	113
2531.239	121
2534.923	118
2538.605	118
2542.283	112
2545.958	118
2549.63	116
2553.299	115
2556.964	110
2560.626	110
2564.285	108
2567.941	101
2571.594	106
2575.243	102
2578.89	104
2582.533	105
2586.173	102
2589.809	105
2593.443	103
2597.073	103
2600.701	100
2604.325	96
2607.946	94
2611.564	99
2615.178	88
2618.79	95
2622.398	93
2626.004	99
2629.606	95
2633.205	97
2636.801	92
2640.394	83
2643.983	85
2647.57	87
2651.153	88
2654.734	89
2658.311	86
2661.885	82
2665.456	84
2669.025	79
2672.589	80
2676.151	80
2679.71	81
2683.266	71
2686.819	82
2690.368	69
2693.915	72
2697.458	74
2700.999	78
2704.536	70
2708.071	61
2711.602	65
2715.13	58
2718.656	70
2722.178	66
2725.697	68
2729.214	69
2732.727	62
2736.237	67
2739.744	74
2743.249	70
2746.75	74
2750.248	77
2753.743	73
2757.236	83
2760.725	82
2764.211	70
2767.695	77
2771.175	81
2774.652	82
2778.127	75
2781.598	80
2785.067	81
2788.532	73
2791.995	80
2795.455	80
2798.911	83
2802.365	87
2805.816	84
2809.264	79
2812.709	85
2816.151	92
2819.59	81
2823.026	90
2826.46	91
2829.89	92
2833.318	98
2836.742	89
2840.164	99
2843.583	96
2846.999	97
2850.412	97
2853.822	104
2857.229	104
2860.634	109
2864.035	118
2867.434	115
2870.83	120
2874.223	112
2877.613	124
2881	123
2884.385	133
2887.766	134
2891.145	137
2894.521	142
2897.894	137
2901.264	142
2904.631	132
2907.996	139
2911.358	141
2914.717	150
2918.073	151
2921.426	163
2924.777	161
2928.124	165
2931.469	167
2934.811	167
2938.15	174
2941.487	182
2944.821	185
2948.152	198
2951.48	197
2954.805	201
2958.128	208
2961.447	214
2964.765	217
2968.079	229
2971.39	229
2974.699	240
2978.005	243
2981.308	256
2984.609	267
2987.907	276
2991.202	294
2994.494	287
2997.784	305
3001.07	325
3004.355	334
3007.636	341
3010.915	349
3014.191	363
3017.464	367
3020.734	369
3024.002	380
3027.267	401
3030.53	417
3033.789	417
3037.046	418
3040.301	426
3043.552	452
3046.801	458
3050.048	478
3053.291	483
3056.532	492
3059.771	519
3063.006	532
3066.239	558
3069.469	571
3072.697	588
3075.922	604
3079.144	620
3082.364	635
3085.581	651
3088.795	685
3092.007	707
3095.216	712
3098.423	742
3101.627	753
3104.828	774
3108.026	790
3111.222	818
3114.416	833
3117.607	853
3120.795	862
3123.98	892
3127.163	922
3130.344	941
3133.521	970
3136.696	990
3139.869	1003
3143.039	1026
3146.206	1032
3149.371	1059
3152.533	1060
3155.693	1086
3158.85	1087
3162.005	1098
3165.157	1113
3168.306	1102
3171.453	1129
3174.597	1133
3177.739	1124
3180.878	1123
3184.014	1130
3187.149	1141
3190.28	1145
3193.409	1149
3196.536	1146
3199.659	1158
3202.781	1171
3205.9	1171
3209.016	1166
3212.13	1171
3215.241	1149
3218.35	1152
3221.456	1145
3224.56	1153
3227.661	1136
3230.76	1133
3233.856	1109
3236.95	1125
3240.041	1113
3243.13	1106
3246.216	1091
3249.3	1075
3252.382	1075
3255.46	1058
3258.537	1069
3261.611	1049
3264.682	1042
3267.751	1046
3270.818	1049
3273.882	1042
3276.943	1028
3280.002	1025
3283.059	1030
3286.113	1001
3289.165	1002
3292.214	986
3295.261	959
3298.306	954
3301.348	942
3304.387	922
3307.425	916
3310.459	902
3313.492	878
3316.521	874
3319.549	871
3322.574	844
3325.597	849
3328.617	838
3331.635	844
3334.65	823
3337.663	821
3340.674	819
3343.682	804
3346.688	815
3349.691	805
3352.692	809
3355.691	808
3358.687	806
3361.681	788
3364.673	792
3367.662	780
3370.649	761
3373.633	760
3376.615	744
3379.595	729
3382.572	728
3385.547	716
3388.52	712
3391.49	708
3394.458	693
3397.424	686
3400.387	688
3403.348	672
3406.307	665
3409.263	654
3412.217	636
3415.168	641
3418.118	634
3421.065	621
3424.009	627
3426.951	621
3429.891	598
3432.829	592
3435.764	587
3438.697	580
3441.628	565
3444.557	550
3447.483	536
3450.407	513
3453.328	497
3456.247	492
3459.164	486
3462.079	467
3464.991	458
3467.902	441
3470.809	434
3473.715	414
3476.618	404
3479.519	387
3482.418	378
3485.315	366
3488.209	365
3491.101	351
3493.99	358
3496.878	337
3499.763	324
3502.646	311
3505.527	309
3508.405	295
3511.281	287
3514.155	280
3517.027	256
3519.897	261
3522.764	251
3525.629	234
3528.492	229
3531.352	212
3534.211	199
3537.067	195
3539.921	178
3542.773	161
3545.622	155
3548.469	155
3551.315	148
3554.157	140
3556.998	125
3559.837	122
3562.673	116
3565.507	116
3568.339	112
3571.169	98
3573.996	92
3576.822	84
3579.645	80
3582.466	74
3585.285	65
3588.101	59
3590.916	63
3593.728	58
3596.538	54
3599.346	45
3602.152	47
3604.956	30
3607.757	30
3610.556	31
3613.354	22
3616.149	20
3618.942	19
3621.732	14
3624.521	17
3627.307	8
3630.092	2
3632.874	1
3635.654	-7
3638.432	1
3641.208	-6
3643.982	-8
3646.753	-10
3649.523	-12
3652.29	-16
3655.055	-17
3657.818	-30
3660.579	-28
3663.338	-29
3666.095	-30
3668.849	-32
3671.602	-39
3674.352	-33
3677.101	-39
3679.847	-43
3682.591	-40
3685.333	-46
3688.073	-49
3690.811	-53
3693.547	-50
3696.281	-51
3699.013	-53
3701.742	-51
3704.47	-55
3707.195	-57
3709.919	-58
3712.64	-58
3715.359	-64
3718.076	-63
3720.792	-63
3723.505	-68
3726.216	-67
3728.925	-67
3731.632	-63
3734.336	-67
3737.039	-70
3739.74	-66
3742.439	-64
3745.136	-70
3747.83	-69
3750.523	-75
3753.213	-72
3755.902	-72
3758.589	-74
3761.273	-71
3763.956	-71
3766.636	-67
3769.315	-73
3771.991	-69
3774.665	-74
3777.338	-78
3780.008	-75
3782.677	-77
3785.343	-74
3788.007	-77
3790.67	-75
3793.33	-71
3795.989	-72
3798.645	-66
3801.299	-77
3803.952	-78
3806.602	-85
3809.251	-76
3811.897	-78
3814.542	-76
3817.184	-81
3819.825	-76
3822.463	-77
3825.1	-74
3827.735	-76
3830.367	-82
3832.998	-82
3835.627	-80
3838.253	-80
3840.878	-79
3843.501	-82
3846.122	-79
3848.741	-79
3851.358	-77
3853.973	-81
3856.586	-79
3859.197	-83
3861.806	-80
3864.414	-86
3867.019	-80
3869.622	-81
3872.224	-77
3874.823	-82
3877.421	-79
3880.016	-69
3882.61	-68
3885.202	-66
3887.792	-71
3890.38	-75
3892.966	-77
3895.55	-79
3898.132	-82
3900.713	-83
3903.291	-84
3905.868	-85
3908.442	-84
3911.015	-81
3913.586	-83
3916.155	-83
3918.722	-81
3921.287	-78
3923.85	-85
3926.411	-88
3928.971	-85
3931.528	-86
3934.084	-80
3936.638	-82
3939.19	-83
3941.74	-79
3944.288	-85
3946.834	-84
3949.378	-87
3951.921	-84
3954.462	-84
3957	-87
3959.537	-88
3962.072	-87
3964.606	-85
3967.137	-84
3969.667	-80
3972.194	-84
3974.72	-80
3977.244	-86
3979.766	-86
3982.286	-84
3984.805	-83
3987.321	-86
3989.836	-78
3992.349	-83
3994.86	-81
3997.369	-82
3999.877	-79
4002.382	-81
4004.886	-83
4007.388	-88
4009.888	-84
4012.386	-86
4014.883	-84
4017.377	-79
4019.87	-78
4022.361	-82
4024.85	-84
4027.338	-82
4029.823	-85
4032.307	-86
4034.789	-83
4037.269	-84
4039.747	-79
4042.224	-80
4044.699	-75
4047.172	-83
4049.643	-82
4052.112	-87
4054.58	-87
4057.046	-85
4059.51	-84
4061.972	-88
4064.432	-85
4066.891	-81
4069.348	-84
4071.803	-80
4074.256	-84
4076.708	-84
4079.158	-84
4081.606	-83
4084.052	-85
4086.497	-88
4088.939	-83
4091.38	-83
4093.819	-85
4096.257	-89
4098.693	-83
4101.127	-92
4103.559	-92
4105.989	-50
4108.418	-51
4110.845	-51
4113.27	-42
4115.694	-34
4118.115	-31
4120.535	-83
4122.954	-83
4125.37	-83
4127.785	-81
4130.198	-85
4132.609	-81
4135.019	-89
4137.427	-92
4139.833	-95
4142.237	-92
