Data from Bacilus_dil1105_A2_RamanShift_1.txt Node
Date: Wed Mar 01 11:59:47 IST 2017
User: aro
Spectrometer: QEPB0276
Trigger mode: 0
Integration Time (sec): 5.000000E0
Scans to average: 1
Electric dark correction enabled: true
Nonlinearity correction enabled: false
Boxcar width: 0
XAxis mode: Raman Shifts
Number of Pixels in Spectrum: 1044
>>>>>Begin Spectral Data<<<<<
160.701	-23.75
166.742	-4.75
172.777	86.25
178.805	366.25
184.826	1021.25
190.841	2139.25
196.849	3355.25
202.85	4147.25
208.845	4316.25
214.833	4185.25
220.815	4006.25
226.789	3868.25
232.758	3732.25
238.719	3638.25
244.674	3459.25
250.623	3337.25
256.565	3144.25
262.5	2969.25
268.429	2840.25
274.351	2701.25
280.267	2568.25
286.176	2464.25
292.079	2380.25
297.975	2296.25
303.865	2196.25
309.748	2147.25
315.625	2092.25
321.495	2044.25
327.359	2014.25
333.217	1973.25
339.068	1978.25
344.912	1952.25
350.751	1955.25
356.583	1946.25
362.408	1948.25
368.227	1948.25
374.04	1942.25
379.847	1966.25
385.647	1973.25
391.44	1995.25
397.228	1990.25
403.009	2007.25
408.784	1996.25
414.553	2048.25
420.315	2014.25
426.071	2025.25
431.821	2029.25
437.565	2014.25
443.302	2000.25
449.033	2006.25
454.758	1986.25
460.477	1980.25
466.189	1967.25
471.896	1959.25
477.596	1945.25
483.29	1917.25
488.978	1933.25
494.66	1912.25
500.335	1883.25
506.005	1862.25
511.668	1803.25
517.325	1756.25
522.977	1723.25
528.622	1691.25
534.261	1688.25
539.894	1658.25
545.521	1627.25
551.141	1615.25
556.756	1626.25
562.365	1603.25
567.968	1570.25
573.565	1576.25
579.155	1563.25
584.74	1539.25
590.319	1539.25
595.892	1533.25
601.459	1521.25
607.02	1508.25
612.575	1492.25
618.124	1454.25
623.667	1451.25
629.204	1442.25
634.735	1421.25
640.261	1416.25
645.781	1404.25
651.294	1399.25
656.802	1360.25
662.304	1372.25
667.8	1370.25
673.29	1356.25
678.775	1340.25
684.254	1334.25
689.726	1324.25
695.193	1330.25
700.655	1326.25
706.11	1297.25
711.56	1290.25
717.004	1277.25
722.442	1269.25
727.874	1261.25
733.301	1251.25
738.722	1235.25
744.137	1236.25
749.547	1228.25
754.951	1222.25
760.349	1221.25
765.741	1212.25
771.128	1208.25
776.509	1200.25
781.885	1189.25
787.254	1190.25
792.618	1206.25
797.977	1194.25
803.33	1176.25
808.677	1169.25
814.019	1148.25
819.355	1134.25
824.686	1130.25
830.011	1094.25
835.33	1088.25
840.644	1080.25
845.952	1064.25
851.255	1068.25
856.552	1051.25
861.844	1030.25
867.13	1036.25
872.41	1027.25
877.686	1024.25
882.955	1006.25
888.219	983.25
893.478	971.25
898.731	955.25
903.979	926.25
909.221	907.25
914.458	885.25
919.69	889.25
924.916	878.25
930.136	872.25
935.351	869.25
940.561	870.25
945.766	861.25
950.965	854.25
956.158	831.25
961.347	837.25
966.529	828.25
971.707	810.25
976.879	791.25
982.046	789.25
987.208	780.25
992.364	783.25
997.515	776.25
1002.66	773.25
1007.801	778.25
1012.936	779.25
1018.066	786.25
1023.19	787.25
1028.309	805.25
1033.423	790.25
1038.532	803.25
1043.636	798.25
1048.734	775.25
1053.827	778.25
1058.915	760.25
1063.998	750.25
1069.075	747.25
1074.147	738.25
1079.214	743.25
1084.276	757.25
1089.333	763.25
1094.385	754.25
1099.431	771.25
1104.472	765.25
1109.509	771.25
1114.54	766.25
1119.565	751.25
1124.586	741.25
1129.602	730.25
1134.613	718.25
1139.618	710.25
1144.619	711.25
1149.614	715.25
1154.604	717.25
1159.589	724.25
1164.57	715.25
1169.545	722.25
1174.515	720.25
1179.48	736.25
1184.44	724.25
1189.395	714.25
1194.345	714.25
1199.29	719.25
1204.23	707.25
1209.165	709.25
1214.095	708.25
1219.021	705.25
1223.941	720.25
1228.856	718.25
1233.766	727.25
1238.672	725.25
1243.572	713.25
1248.467	721.25
1253.358	728.25
1258.244	702.25
1263.124	700.25
1268	675.25
1272.871	670.25
1277.737	662.25
1282.599	665.25
1287.455	658.25
1292.306	650.25
1297.153	659.25
1301.995	676.25
1306.832	676.25
1311.664	672.25
1316.491	679.25
1321.314	664.25
1326.132	655.25
1330.945	655.25
1335.753	637.25
1340.556	633.25
1345.354	623.25
1350.148	606.25
1354.937	590.25
1359.722	599.25
1364.501	606.25
1369.276	607.25
1374.046	626.25
1378.811	626.25
1383.572	628.25
1388.327	620.25
1393.079	614.25
1397.825	613.25
1402.567	600.25
1407.304	594.25
1412.036	590.25
1416.764	587.25
1421.487	575.25
1426.205	582.25
1430.919	568.25
1435.628	578.25
1440.333	581.25
1445.032	589.25
1449.727	589.25
1454.418	592.25
1459.104	588.25
1463.785	594.25
1468.462	593.25
1473.134	572.25
1477.802	563.25
1482.465	569.25
1487.123	561.25
1491.777	570.25
1496.426	587.25
1501.071	583.25
1505.711	601.25
1510.347	606.25
1514.978	607.25
1519.604	627.25
1524.226	640.25
1528.844	637.25
1533.457	653.25
1538.065	643.25
1542.669	660.25
1547.269	655.25
1551.864	667.25
1556.454	671.25
1561.041	674.25
1565.622	677.25
1570.199	687.25
1574.772	701.25
1579.34	726.25
1583.904	735.25
1588.464	749.25
1593.019	775.25
1597.569	792.25
1602.115	804.25
1606.657	817.25
1611.195	833.25
1615.728	855.25
1620.256	866.25
1624.78	870.25
1629.3	892.25
1633.816	920.25
1638.327	930.25
1642.834	945.25
1647.336	942.25
1651.834	942.25
1656.328	942.25
1660.817	927.25
1665.302	912.25
1669.783	880.25
1674.259	866.25
1678.732	825.25
1683.199	786.25
1687.663	747.25
1692.122	705.25
1696.577	661.25
1701.028	645.25
1705.474	625.25
1709.917	613.25
1714.355	585.25
1718.788	567.25
1723.218	541.25
1727.643	511.25
1732.064	497.25
1736.481	479.25
1740.893	451.25
1745.301	432.25
1749.705	413.25
1754.105	389.25
1758.501	376.25
1762.893	371.25
1767.28	357.25
1771.663	352.25
1776.042	344.25
1780.417	347.25
1784.787	335.25
1789.154	339.25
1793.516	340.25
1797.874	345.25
1802.228	356.25
1806.578	353.25
1810.924	351.25
1815.266	340.25
1819.603	323.25
1823.937	325.25
1828.266	313.25
1832.591	312.25
1836.913	303.25
1841.23	295.25
1845.543	295.25
1849.852	291.25
1854.156	297.25
1858.457	298.25
1862.754	295.25
1867.047	288.25
1871.335	291.25
1875.62	288.25
1879.9	286.25
1884.177	297.25
1888.449	286.25
1892.718	297.25
1896.982	292.25
1901.243	296.25
1905.499	295.25
1909.752	285.25
1914	285.25
1918.245	290.25
1922.485	291.25
1926.722	290.25
1930.954	297.25
1935.183	305.25
1939.408	311.25
1943.628	317.25
1947.845	317.25
1952.058	318.25
1956.267	307.25
1960.472	306.25
1964.673	312.25
1968.87	303.25
1973.063	302.25
1977.252	296.25
1981.438	304.25
1985.619	302.25
1989.797	294.25
1993.971	299.25
1998.14	296.25
2002.306	299.25
2006.469	299.25
2010.627	294.25
2014.781	298.25
2018.932	305.25
2023.078	311.25
2027.221	310.25
2031.36	307.25
2035.495	299.25
2039.627	308.25
2043.754	297.25
2047.878	296.25
2051.998	298.25
2056.114	300.25
2060.226	300.25
2064.334	310.25
2068.439	310.25
2072.54	315.25
2076.637	311.25
2080.73	306.25
2084.82	322.25
2088.906	329.25
2092.988	319.25
2097.066	321.25
2101.14	327.25
2105.211	322.25
2109.278	320.25
2113.342	316.25
2117.401	309.25
2121.457	314.25
2125.509	313.25
2129.558	302.25
2133.602	306.25
2137.643	312.25
2141.681	305.25
2145.714	298.25
2149.744	298.25
2153.77	293.25
2157.793	292.25
2161.812	287.25
2165.827	288.25
2169.838	278.25
2173.846	279.25
2177.851	268.25
2181.851	267.25
2185.848	257.25
2189.841	252.25
2193.831	246.25
2197.817	249.25
2201.799	242.25
2205.778	232.25
2209.753	239.25
2213.725	232.25
2217.693	238.25
2221.657	236.25
2225.618	237.25
2229.575	224.25
2233.529	226.25
2237.479	225.25
2241.425	225.25
2245.368	221.25
2249.307	212.25
2253.243	206.25
2257.175	201.25
2261.104	198.25
2265.029	195.25
2268.95	189.25
2272.868	193.25
2276.783	186.25
2280.694	177.25
2284.601	172.25
2288.505	172.25
2292.405	166.25
2296.302	162.25
2300.195	163.25
2304.085	160.25
2307.971	154.25
2311.854	157.25
2315.734	152.25
2319.609	150.25
2323.482	141.25
2327.351	132.25
2331.216	139.25
2335.078	138.25
2338.937	134.25
2342.792	123.25
2346.643	124.25
2350.492	131.25
2354.336	129.25
2358.178	125.25
2362.015	129.25
2365.85	130.25
2369.681	120.25
2373.508	125.25
2377.333	115.25
2381.153	124.25
2384.971	129.25
2388.785	121.25
2392.595	117.25
2396.402	114.25
2400.206	119.25
2404.007	106.25
2407.804	113.25
2411.597	106.25
2415.388	111.25
2419.174	108.25
2422.958	112.25
2426.738	108.25
2430.515	108.25
2434.289	101.25
2438.059	101.25
2441.825	105.25
2445.589	92.25
2449.349	100.25
2453.106	89.25
2456.859	98.25
2460.61	105.25
2464.356	84.25
2468.1	94.25
2471.84	84.25
2475.577	88.25
2479.311	84.25
2483.041	84.25
2486.768	83.25
2490.492	96.25
2494.213	87.25
2497.93	89.25
2501.644	88.25
2505.355	85.25
2509.062	85.25
2512.766	75.25
2516.467	79.25
2520.165	83.25
2523.859	81.25
2527.551	80.25
2531.239	82.25
2534.923	82.25
2538.605	73.25
2542.283	81.25
2545.958	77.25
2549.63	80.25
2553.299	74.25
2556.964	78.25
2560.626	76.25
2564.285	70.25
2567.941	69.25
2571.594	72.25
2575.243	68.25
2578.89	65.25
2582.533	75.25
2586.173	72.25
2589.809	74.25
2593.443	69.25
2597.073	64.25
2600.701	64.25
2604.325	60.25
2607.946	62.25
2611.564	64.25
2615.178	62.25
2618.79	68.25
2622.398	59.25
2626.004	59.25
2629.606	61.25
2633.205	62.25
2636.801	52.25
2640.394	46.25
2643.983	54.25
2647.57	53.25
2651.153	58.25
2654.734	59.25
2658.311	55.25
2661.885	49.25
2665.456	52.25
2669.025	46.25
2672.589	49.25
2676.151	44.25
2679.71	44.25
2683.266	40.25
2686.819	52.25
2690.368	48.25
2693.915	47.25
2697.458	43.25
2700.999	47.25
2704.536	48.25
2708.071	43.25
2711.602	32.25
2715.13	31.25
2718.656	41.25
2722.178	37.25
2725.697	33.25
2729.214	44.25
2732.727	42.25
2736.237	48.25
2739.744	47.25
2743.249	49.25
2746.75	42.25
2750.248	51.25
2753.743	49.25
2757.236	54.25
2760.725	55.25
2764.211	52.25
2767.695	54.25
2771.175	63.25
2774.652	51.25
2778.127	56.25
2781.598	53.25
2785.067	53.25
2788.532	50.25
2791.995	52.25
2795.455	57.25
2798.911	58.25
2802.365	57.25
2805.816	72.25
2809.264	64.25
2812.709	58.25
2816.151	65.25
2819.59	57.25
2823.026	67.25
2826.46	68.25
2829.89	67.25
2833.318	83.25
2836.742	85.25
2840.164	82.25
2843.583	83.25
2846.999	79.25
2850.412	83.25
2853.822	86.25
2857.229	92.25
2860.634	93.25
2864.035	97.25
2867.434	102.25
2870.83	114.25
2874.223	101.25
2877.613	113.25
2881	111.25
2884.385	117.25
2887.766	122.25
2891.145	122.25
2894.521	121.25
2897.894	129.25
2901.264	122.25
2904.631	131.25
2907.996	131.25
2911.358	137.25
2914.717	141.25
2918.073	142.25
2921.426	151.25
2924.777	149.25
2928.124	157.25
2931.469	170.25
2934.811	166.25
2938.15	170.25
2941.487	181.25
2944.821	182.25
2948.152	190.25
2951.48	198.25
2954.805	205.25
2958.128	208.25
2961.447	227.25
2964.765	223.25
2968.079	237.25
2971.39	242.25
2974.699	238.25
2978.005	256.25
2981.308	271.25
2984.609	288.25
2987.907	295.25
2991.202	304.25
2994.494	318.25
2997.784	328.25
3001.07	349.25
3004.355	354.25
3007.636	369.25
3010.915	383.25
3014.191	392.25
3017.464	408.25
3020.734	423.25
3024.002	419.25
3027.267	430.25
3030.53	438.25
3033.789	452.25
3037.046	458.25
3040.301	474.25
3043.552	486.25
3046.801	500.25
3050.048	515.25
3053.291	535.25
3056.532	555.25
3059.771	576.25
3063.006	587.25
3066.239	612.25
3069.469	627.25
3072.697	652.25
3075.922	675.25
3079.144	714.25
3082.364	707.25
3085.581	733.25
3088.795	760.25
3092.007	783.25
3095.216	810.25
3098.423	822.25
3101.627	853.25
3104.828	863.25
3108.026	882.25
3111.222	903.25
3114.416	928.25
3117.607	943.25
3120.795	971.25
3123.98	997.25
3127.163	1018.25
3130.344	1043.25
3133.521	1076.25
3136.696	1112.25
3139.869	1128.25
3143.039	1136.25
3146.206	1172.25
3149.371	1181.25
3152.533	1208.25
3155.693	1226.25
3158.85	1233.25
3162.005	1245.25
3165.157	1230.25
3168.306	1257.25
3171.453	1251.25
3174.597	1264.25
3177.739	1278.25
3180.878	1278.25
3184.014	1275.25
3187.149	1279.25
3190.28	1278.25
3193.409	1294.25
3196.536	1298.25
3199.659	1304.25
3202.781	1316.25
3205.9	1320.25
3209.016	1324.25
3212.13	1322.25
3215.241	1311.25
3218.35	1318.25
3221.456	1310.25
3224.56	1303.25
3227.661	1304.25
3230.76	1279.25
3233.856	1282.25
3236.95	1247.25
3240.041	1249.25
3243.13	1236.25
3246.216	1230.25
3249.3	1208.25
3252.382	1218.25
3255.46	1214.25
3258.537	1200.25
3261.611	1184.25
3264.682	1175.25
3267.751	1194.25
3270.818	1185.25
3273.882	1176.25
3276.943	1159.25
3280.002	1169.25
3283.059	1136.25
3286.113	1141.25
3289.165	1129.25
3292.214	1106.25
3295.261	1094.25
3298.306	1075.25
3301.348	1061.25
3304.387	1044.25
3307.425	1035.25
3310.459	1022.25
3313.492	1000.25
3316.521	988.25
3319.549	973.25
3322.574	977.25
3325.597	973.25
3328.617	952.25
3331.635	949.25
3334.65	948.25
3337.663	939.25
3340.674	920.25
3343.682	934.25
3346.688	943.25
3349.691	926.25
3352.692	920.25
3355.691	918.25
3358.687	916.25
3361.681	898.25
3364.673	899.25
3367.662	882.25
3370.649	863.25
3373.633	858.25
3376.615	846.25
3379.595	829.25
3382.572	823.25
3385.547	817.25
3388.52	809.25
3391.49	808.25
3394.458	787.25
3397.424	778.25
3400.387	771.25
3403.348	759.25
3406.307	764.25
3409.263	753.25
3412.217	726.25
3415.168	729.25
3418.118	729.25
3421.065	709.25
3424.009	693.25
3426.951	689.25
3429.891	678.25
3432.829	686.25
3435.764	669.25
3438.697	645.25
3441.628	637.25
3444.557	621.25
3447.483	604.25
3450.407	577.25
3453.328	579.25
3456.247	562.25
3459.164	532.25
3462.079	534.25
3464.991	517.25
3467.902	502.25
3470.809	488.25
3473.715	458.25
3476.618	462.25
3479.519	442.25
3482.418	433.25
3485.315	428.25
3488.209	407.25
3491.101	402.25
3493.99	392.25
3496.878	389.25
3499.763	372.25
3502.646	363.25
3505.527	350.25
3508.405	336.25
3511.281	324.25
3514.155	315.25
3517.027	297.25
3519.897	301.25
3522.764	279.25
3525.629	265.25
3528.492	252.25
3531.352	237.25
3534.211	233.25
3537.067	220.25
3539.921	208.25
3542.773	184.25
3545.622	180.25
3548.469	178.25
3551.315	167.25
3554.157	157.25
3556.998	148.25
3559.837	141.25
3562.673	134.25
3565.507	126.25
3568.339	115.25
3571.169	111.25
3573.996	114.25
3576.822	102.25
3579.645	88.25
3582.466	90.25
3585.285	81.25
3588.101	74.25
3590.916	72.25
3593.728	62.25
3596.538	58.25
3599.346	51.25
3602.152	49.25
3604.956	40.25
3607.757	30.25
3610.556	33.25
3613.354	34.25
3616.149	20.25
3618.942	18.25
3621.732	15.25
3624.521	8.25
3627.307	1.25
3630.092	3.25
3632.874	-2.75
3635.654	-11.75
3638.432	-3.75
3641.208	-9.75
3643.982	-6.75
3646.753	-15.75
3649.523	-12.75
3652.29	-25.75
3655.055	-25.75
3657.818	-28.75
3660.579	-30.75
3663.338	-32.75
3666.095	-39.75
3668.849	-45.75
3671.602	-45.75
3674.352	-38.75
3677.101	-43.75
3679.847	-47.75
3682.591	-49.75
3685.333	-56.75
3688.073	-59.75
3690.811	-63.75
3693.547	-59.75
3696.281	-64.75
3699.013	-59.75
3701.742	-61.75
3704.47	-61.75
3707.195	-64.75
3709.919	-68.75
3712.64	-68.75
3715.359	-75.75
3718.076	-77.75
3720.792	-73.75
3723.505	-77.75
3726.216	-69.75
3728.925	-75.75
3731.632	-80.75
3734.336	-81.75
3737.039	-81.75
3739.74	-80.75
3742.439	-78.75
3745.136	-79.75
3747.83	-79.75
3750.523	-83.75
3753.213	-77.75
3755.902	-82.75
3758.589	-80.75
3761.273	-84.75
3763.956	-88.75
3766.636	-80.75
3769.315	-87.75
3771.991	-85.75
3774.665	-92.75
3777.338	-91.75
3780.008	-85.75
3782.677	-87.75
3785.343	-84.75
3788.007	-88.75
3790.67	-88.75
3793.33	-89.75
3795.989	-87.75
3798.645	-87.75
3801.299	-94.75
3803.952	-89.75
3806.602	-93.75
3809.251	-86.75
3811.897	-90.75
3814.542	-91.75
3817.184	-91.75
3819.825	-91.75
3822.463	-90.75
3825.1	-92.75
3827.735	-94.75
3830.367	-95.75
3832.998	-90.75
3835.627	-93.75
3838.253	-97.75
3840.878	-94.75
3843.501	-94.75
3846.122	-92.75
3848.741	-92.75
3851.358	-94.75
3853.973	-96.75
3856.586	-95.75
3859.197	-97.75
3861.806	-92.75
3864.414	-98.75
3867.019	-92.75
3869.622	-93.75
3872.224	-92.75
3874.823	-98.75
3877.421	-91.75
3880.016	-84.75
3882.61	-86.75
3885.202	-82.75
3887.792	-83.75
3890.38	-89.75
3892.966	-90.75
3895.55	-93.75
3898.132	-94.75
3900.713	-98.75
3903.291	-100.75
3905.868	-101.75
3908.442	-97.75
3911.015	-95.75
3913.586	-98.75
3916.155	-99.75
3918.722	-95.75
3921.287	-92.75
3923.85	-95.75
3926.411	-97.75
3928.971	-101.75
3931.528	-99.75
3934.084	-96.75
3936.638	-100.75
3939.19	-99.75
3941.74	-93.75
3944.288	-94.75
3946.834	-99.75
3949.378	-99.75
3951.921	-99.75
3954.462	-96.75
3957	-103.75
3959.537	-99.75
3962.072	-103.75
3964.606	-102.75
3967.137	-99.75
3969.667	-90.75
3972.194	-97.75
3974.72	-93.75
3977.244	-100.75
3979.766	-98.75
3982.286	-96.75
3984.805	-95.75
3987.321	-101.75
3989.836	-94.75
3992.349	-95.75
3994.86	-95.75
3997.369	-98.75
3999.877	-91.75
4002.382	-95.75
4004.886	-97.75
4007.388	-98.75
4009.888	-97.75
4012.386	-97.75
4014.883	-96.75
4017.377	-90.75
4019.87	-94.75
4022.361	-95.75
4024.85	-96.75
4027.338	-94.75
4029.823	-99.75
4032.307	-99.75
4034.789	-98.75
4037.269	-96.75
4039.747	-98.75
4042.224	-96.75
4044.699	-93.75
4047.172	-98.75
4049.643	-97.75
4052.112	-98.75
4054.58	-103.75
4057.046	-98.75
4059.51	-100.75
4061.972	-100.75
4064.432	-98.75
4066.891	-96.75
4069.348	-98.75
4071.803	-95.75
4074.256	-99.75
4076.708	-102.75
4079.158	-97.75
4081.606	-96.75
4084.052	-100.75
4086.497	-100.75
4088.939	-95.75
4091.38	-97.75
4093.819	-98.75
4096.257	-100.75
4098.693	-98.75
4101.127	-104.75
4103.559	-106.75
4105.989	-65.75
4108.418	-62.75
4110.845	-59.75
4113.27	-51.75
4115.694	-42.75
4118.115	-35.75
4120.535	-95.75
4122.954	-100.75
4125.37	-95.75
4127.785	-96.75
4130.198	-97.75
4132.609	-99.75
4135.019	-105.75
4137.427	-105.75
4139.833	-106.75
4142.237	-105.75
