Data from Bacilus_dil110_B3_RamanShift_1.txt Node
Date: Wed Mar 01 12:50:27 IST 2017
User: aro
Spectrometer: QEPB0276
Trigger mode: 0
Integration Time (sec): 5.000000E0
Scans to average: 1
Electric dark correction enabled: true
Nonlinearity correction enabled: false
Boxcar width: 0
XAxis mode: Raman Shifts
Number of Pixels in Spectrum: 1044
>>>>>Begin Spectral Data<<<<<
160.701	-25.38
166.742	-2.38
172.777	82.62
178.805	357.62
184.826	976.62
190.841	2033.62
196.849	3249.62
202.85	4035.62
208.845	4239.62
214.833	4053.62
220.815	3895.62
226.789	3762.62
232.758	3651.62
238.719	3536.62
244.674	3390.62
250.623	3194.62
256.565	3071.62
262.5	2898.62
268.429	2737.62
274.351	2619.62
280.267	2510.62
286.176	2411.62
292.079	2331.62
297.975	2212.62
303.865	2155.62
309.748	2084.62
315.625	2031.62
321.495	1973.62
327.359	1933.62
333.217	1926.62
339.068	1922.62
344.912	1894.62
350.751	1896.62
356.583	1896.62
362.408	1884.62
368.227	1888.62
374.04	1907.62
379.847	1909.62
385.647	1904.62
391.44	1930.62
397.228	1946.62
403.009	1965.62
408.784	1962.62
414.553	1969.62
420.315	1963.62
426.071	1959.62
431.821	1980.62
437.565	1969.62
443.302	1960.62
449.033	1945.62
454.758	1920.62
460.477	1939.62
466.189	1902.62
471.896	1899.62
477.596	1879.62
483.29	1882.62
488.978	1861.62
494.66	1852.62
500.335	1832.62
506.005	1795.62
511.668	1756.62
517.325	1712.62
522.977	1681.62
528.622	1653.62
534.261	1629.62
539.894	1600.62
545.521	1573.62
551.141	1561.62
556.756	1543.62
562.365	1531.62
567.968	1518.62
573.565	1519.62
579.155	1503.62
584.74	1481.62
590.319	1482.62
595.892	1457.62
601.459	1454.62
607.02	1446.62
612.575	1433.62
618.124	1403.62
623.667	1393.62
629.204	1374.62
634.735	1368.62
640.261	1352.62
645.781	1345.62
651.294	1315.62
656.802	1314.62
662.304	1299.62
667.8	1292.62
673.29	1278.62
678.775	1293.62
684.254	1285.62
689.726	1284.62
695.193	1276.62
700.655	1260.62
706.11	1232.62
711.56	1232.62
717.004	1229.62
722.442	1209.62
727.874	1193.62
733.301	1180.62
738.722	1194.62
744.137	1184.62
749.547	1162.62
754.951	1151.62
760.349	1162.62
765.741	1145.62
771.128	1153.62
776.509	1148.62
781.885	1156.62
787.254	1147.62
792.618	1153.62
797.977	1132.62
803.33	1120.62
808.677	1122.62
814.019	1086.62
819.355	1085.62
824.686	1069.62
830.011	1040.62
835.33	1054.62
840.644	1036.62
845.952	1013.62
851.255	1006.62
856.552	998.62
861.844	987.62
867.13	984.62
872.41	979.62
877.686	969.62
882.955	967.62
888.219	949.62
893.478	916.62
898.731	896.62
903.979	880.62
909.221	869.62
914.458	858.62
919.69	843.62
924.916	832.62
930.136	826.62
935.351	829.62
940.561	809.62
945.766	813.62
950.965	806.62
956.158	799.62
961.347	789.62
966.529	783.62
971.707	761.62
976.879	754.62
982.046	745.62
987.208	734.62
992.364	739.62
997.515	731.62
1002.66	723.62
1007.801	730.62
1012.936	729.62
1018.066	739.62
1023.19	734.62
1028.309	751.62
1033.423	758.62
1038.532	752.62
1043.636	753.62
1048.734	749.62
1053.827	742.62
1058.915	716.62
1063.998	698.62
1069.075	705.62
1074.147	709.62
1079.214	708.62
1084.276	710.62
1089.333	717.62
1094.385	722.62
1099.431	715.62
1104.472	720.62
1109.509	722.62
1114.54	704.62
1119.565	705.62
1124.586	698.62
1129.602	675.62
1134.613	678.62
1139.618	665.62
1144.619	669.62
1149.614	665.62
1154.604	673.62
1159.589	667.62
1164.57	672.62
1169.545	689.62
1174.515	675.62
1179.48	680.62
1184.44	684.62
1189.395	681.62
1194.345	665.62
1199.29	670.62
1204.23	667.62
1209.165	671.62
1214.095	663.62
1219.021	665.62
1223.941	678.62
1228.856	666.62
1233.766	680.62
1238.672	675.62
1243.572	681.62
1248.467	672.62
1253.358	672.62
1258.244	656.62
1263.124	652.62
1268	638.62
1272.871	634.62
1277.737	620.62
1282.599	618.62
1287.455	626.62
1292.306	617.62
1297.153	613.62
1301.995	624.62
1306.832	639.62
1311.664	612.62
1316.491	639.62
1321.314	628.62
1326.132	616.62
1330.945	609.62
1335.753	598.62
1340.556	583.62
1345.354	560.62
1350.148	560.62
1354.937	553.62
1359.722	542.62
1364.501	562.62
1369.276	562.62
1374.046	582.62
1378.811	582.62
1383.572	591.62
1388.327	583.62
1393.079	575.62
1397.825	566.62
1402.567	550.62
1407.304	539.62
1412.036	547.62
1416.764	541.62
1421.487	546.62
1426.205	532.62
1430.919	533.62
1435.628	536.62
1440.333	545.62
1445.032	541.62
1449.727	550.62
1454.418	546.62
1459.104	544.62
1463.785	559.62
1468.462	549.62
1473.134	537.62
1477.802	547.62
1482.465	534.62
1487.123	535.62
1491.777	534.62
1496.426	532.62
1501.071	544.62
1505.711	547.62
1510.347	565.62
1514.978	572.62
1519.604	576.62
1524.226	604.62
1528.844	599.62
1533.457	613.62
1538.065	602.62
1542.669	598.62
1547.269	614.62
1551.864	609.62
1556.454	632.62
1561.041	626.62
1565.622	627.62
1570.199	633.62
1574.772	656.62
1579.34	665.62
1583.904	667.62
1588.464	710.62
1593.019	720.62
1597.569	735.62
1602.115	752.62
1606.657	763.62
1611.195	799.62
1615.728	787.62
1620.256	807.62
1624.78	828.62
1629.3	843.62
1633.816	854.62
1638.327	873.62
1642.834	889.62
1647.336	901.62
1651.834	895.62
1656.328	901.62
1660.817	868.62
1665.302	872.62
1669.783	841.62
1674.259	796.62
1678.732	777.62
1683.199	729.62
1687.663	702.62
1692.122	668.62
1696.577	625.62
1701.028	601.62
1705.474	571.62
1709.917	566.62
1714.355	554.62
1718.788	522.62
1723.218	502.62
1727.643	473.62
1732.064	466.62
1736.481	434.62
1740.893	410.62
1745.301	399.62
1749.705	374.62
1754.105	354.62
1758.501	351.62
1762.893	339.62
1767.28	327.62
1771.663	308.62
1776.042	309.62
1780.417	302.62
1784.787	302.62
1789.154	303.62
1793.516	300.62
1797.874	303.62
1802.228	301.62
1806.578	305.62
1810.924	300.62
1815.266	305.62
1819.603	294.62
1823.937	283.62
1828.266	278.62
1832.591	267.62
1836.913	264.62
1841.23	256.62
1845.543	255.62
1849.852	254.62
1854.156	256.62
1858.457	266.62
1862.754	255.62
1867.047	255.62
1871.335	253.62
1875.62	257.62
1879.9	262.62
1884.177	261.62
1888.449	257.62
1892.718	257.62
1896.982	258.62
1901.243	260.62
1905.499	257.62
1909.752	254.62
1914	256.62
1918.245	257.62
1922.485	253.62
1926.722	268.62
1930.954	262.62
1935.183	263.62
1939.408	266.62
1943.628	278.62
1947.845	291.62
1952.058	287.62
1956.267	271.62
1960.472	273.62
1964.673	276.62
1968.87	270.62
1973.063	267.62
1977.252	269.62
1981.438	267.62
1985.619	260.62
1989.797	260.62
1993.971	267.62
1998.14	263.62
2002.306	268.62
2006.469	261.62
2010.627	269.62
2014.781	270.62
2018.932	265.62
2023.078	266.62
2027.221	275.62
2031.36	261.62
2035.495	266.62
2039.627	267.62
2043.754	265.62
2047.878	262.62
2051.998	269.62
2056.114	270.62
2060.226	266.62
2064.334	268.62
2068.439	273.62
2072.54	270.62
2076.637	278.62
2080.73	285.62
2084.82	292.62
2088.906	292.62
2092.988	295.62
2097.066	299.62
2101.14	297.62
2105.211	286.62
2109.278	284.62
2113.342	288.62
2117.401	283.62
2121.457	275.62
2125.509	282.62
2129.558	286.62
2133.602	282.62
2137.643	273.62
2141.681	269.62
2145.714	262.62
2149.744	263.62
2153.77	264.62
2157.793	258.62
2161.812	255.62
2165.827	249.62
2169.838	247.62
2173.846	244.62
2177.851	243.62
2181.851	237.62
2185.848	228.62
2189.841	232.62
2193.831	221.62
2197.817	222.62
2201.799	221.62
2205.778	216.62
2209.753	220.62
2213.725	211.62
2217.693	215.62
2221.657	209.62
2225.618	205.62
2229.575	203.62
2233.529	200.62
2237.479	203.62
2241.425	188.62
2245.368	200.62
2249.307	195.62
2253.243	194.62
2257.175	180.62
2261.104	169.62
2265.029	169.62
2268.95	159.62
2272.868	162.62
2276.783	159.62
2280.694	148.62
2284.601	154.62
2288.505	157.62
2292.405	143.62
2296.302	140.62
2300.195	141.62
2304.085	144.62
2307.971	132.62
2311.854	130.62
2315.734	127.62
2319.609	126.62
2323.482	114.62
2327.351	110.62
2331.216	120.62
2335.078	119.62
2338.937	121.62
2342.792	109.62
2346.643	109.62
2350.492	107.62
2354.336	110.62
2358.178	105.62
2362.015	105.62
2365.85	110.62
2369.681	104.62
2373.508	96.62
2377.333	107.62
2381.153	107.62
2384.971	106.62
2388.785	105.62
2392.595	103.62
2396.402	102.62
2400.206	100.62
2404.007	95.62
2407.804	89.62
2411.597	88.62
2415.388	92.62
2419.174	94.62
2422.958	89.62
2426.738	86.62
2430.515	79.62
2434.289	86.62
2438.059	84.62
2441.825	81.62
2445.589	76.62
2449.349	81.62
2453.106	81.62
2456.859	87.62
2460.61	84.62
2464.356	69.62
2468.1	82.62
2471.84	72.62
2475.577	76.62
2479.311	68.62
2483.041	68.62
2486.768	71.62
2490.492	78.62
2494.213	74.62
2497.93	70.62
2501.644	70.62
2505.355	79.62
2509.062	74.62
2512.766	68.62
2516.467	69.62
2520.165	61.62
2523.859	66.62
2527.551	68.62
2531.239	71.62
2534.923	73.62
2538.605	67.62
2542.283	59.62
2545.958	65.62
2549.63	63.62
2553.299	54.62
2556.964	62.62
2560.626	58.62
2564.285	58.62
2567.941	59.62
2571.594	59.62
2575.243	55.62
2578.89	56.62
2582.533	61.62
2586.173	50.62
2589.809	47.62
2593.443	51.62
2597.073	52.62
2600.701	53.62
2604.325	50.62
2607.946	56.62
2611.564	50.62
2615.178	47.62
2618.79	53.62
2622.398	49.62
2626.004	50.62
2629.606	44.62
2633.205	48.62
2636.801	44.62
2640.394	38.62
2643.983	44.62
2647.57	48.62
2651.153	43.62
2654.734	43.62
2658.311	43.62
2661.885	36.62
2665.456	36.62
2669.025	36.62
2672.589	38.62
2676.151	29.62
2679.71	30.62
2683.266	32.62
2686.819	35.62
2690.368	36.62
2693.915	37.62
2697.458	30.62
2700.999	33.62
2704.536	29.62
2708.071	31.62
2711.602	27.62
2715.13	18.62
2718.656	26.62
2722.178	27.62
2725.697	37.62
2729.214	41.62
2732.727	41.62
2736.237	37.62
2739.744	36.62
2743.249	42.62
2746.75	32.62
2750.248	39.62
2753.743	37.62
2757.236	44.62
2760.725	44.62
2764.211	38.62
2767.695	49.62
2771.175	48.62
2774.652	39.62
2778.127	47.62
2781.598	44.62
2785.067	44.62
2788.532	46.62
2791.995	40.62
2795.455	50.62
2798.911	50.62
2802.365	54.62
2805.816	60.62
2809.264	57.62
2812.709	57.62
2816.151	55.62
2819.59	57.62
2823.026	64.62
2826.46	61.62
2829.89	65.62
2833.318	68.62
2836.742	71.62
2840.164	69.62
2843.583	71.62
2846.999	77.62
2850.412	71.62
2853.822	84.62
2857.229	84.62
2860.634	91.62
2864.035	92.62
2867.434	92.62
2870.83	95.62
2874.223	100.62
2877.613	98.62
2881	103.62
2884.385	107.62
2887.766	117.62
2891.145	119.62
2894.521	129.62
2897.894	115.62
2901.264	126.62
2904.631	123.62
2907.996	127.62
2911.358	133.62
2914.717	138.62
2918.073	142.62
2921.426	152.62
2924.777	158.62
2928.124	156.62
2931.469	164.62
2934.811	171.62
2938.15	174.62
2941.487	185.62
2944.821	182.62
2948.152	196.62
2951.48	199.62
2954.805	204.62
2958.128	213.62
2961.447	215.62
2964.765	217.62
2968.079	235.62
2971.39	232.62
2974.699	248.62
2978.005	263.62
2981.308	264.62
2984.609	276.62
2987.907	295.62
2991.202	301.62
2994.494	314.62
2997.784	327.62
3001.07	333.62
3004.355	342.62
3007.636	356.62
3010.915	373.62
3014.191	384.62
3017.464	398.62
3020.734	400.62
3024.002	409.62
3027.267	422.62
3030.53	433.62
3033.789	448.62
3037.046	452.62
3040.301	468.62
3043.552	478.62
3046.801	500.62
3050.048	521.62
3053.291	528.62
3056.532	546.62
3059.771	564.62
3063.006	579.62
3066.239	612.62
3069.469	631.62
3072.697	649.62
3075.922	660.62
3079.144	691.62
3082.364	710.62
3085.581	733.62
3088.795	758.62
3092.007	775.62
3095.216	807.62
3098.423	822.62
3101.627	845.62
3104.828	867.62
3108.026	868.62
3111.222	895.62
3114.416	911.62
3117.607	949.62
3120.795	970.62
3123.98	1004.62
3127.163	1018.62
3130.344	1065.62
3133.521	1074.62
3136.696	1100.62
3139.869	1123.62
3143.039	1143.62
3146.206	1166.62
3149.371	1185.62
3152.533	1191.62
3155.693	1211.62
3158.85	1214.62
3162.005	1230.62
3165.157	1225.62
3168.306	1248.62
3171.453	1255.62
3174.597	1279.62
3177.739	1278.62
3180.878	1268.62
3184.014	1270.62
3187.149	1279.62
3190.28	1268.62
3193.409	1284.62
3196.536	1291.62
3199.659	1288.62
3202.781	1303.62
3205.9	1324.62
3209.016	1321.62
3212.13	1308.62
3215.241	1319.62
3218.35	1312.62
3221.456	1315.62
3224.56	1298.62
3227.661	1276.62
3230.76	1271.62
3233.856	1274.62
3236.95	1251.62
3240.041	1250.62
3243.13	1234.62
3246.216	1222.62
3249.3	1220.62
3252.382	1225.62
3255.46	1207.62
3258.537	1199.62
3261.611	1189.62
3264.682	1196.62
3267.751	1190.62
3270.818	1180.62
3273.882	1174.62
3276.943	1161.62
3280.002	1174.62
3283.059	1142.62
3286.113	1135.62
3289.165	1125.62
3292.214	1117.62
3295.261	1089.62
3298.306	1077.62
3301.348	1051.62
3304.387	1040.62
3307.425	1030.62
3310.459	1012.62
3313.492	999.62
3316.521	987.62
3319.549	981.62
3322.574	964.62
3325.597	957.62
3328.617	961.62
3331.635	957.62
3334.65	939.62
3337.663	919.62
3340.674	920.62
3343.682	934.62
3346.688	929.62
3349.691	930.62
3352.692	913.62
3355.691	912.62
3358.687	910.62
3361.681	893.62
3364.673	893.62
3367.662	884.62
3370.649	861.62
3373.633	854.62
3376.615	844.62
3379.595	841.62
3382.572	822.62
3385.547	815.62
3388.52	787.62
3391.49	804.62
3394.458	788.62
3397.424	775.62
3400.387	763.62
3403.348	763.62
3406.307	751.62
3409.263	739.62
3412.217	731.62
3415.168	722.62
3418.118	714.62
3421.065	714.62
3424.009	705.62
3426.951	688.62
3429.891	671.62
3432.829	672.62
3435.764	673.62
3438.697	659.62
3441.628	632.62
3444.557	637.62
3447.483	601.62
3450.407	601.62
3453.328	566.62
3456.247	549.62
3459.164	544.62
3462.079	527.62
3464.991	520.62
3467.902	499.62
3470.809	498.62
3473.715	482.62
3476.618	465.62
3479.519	437.62
3482.418	432.62
3485.315	426.62
3488.209	402.62
3491.101	398.62
3493.99	385.62
3496.878	382.62
3499.763	372.62
3502.646	361.62
3505.527	344.62
3508.405	341.62
3511.281	322.62
3514.155	310.62
3517.027	298.62
3519.897	294.62
3522.764	281.62
3525.629	260.62
3528.492	255.62
3531.352	234.62
3534.211	226.62
3537.067	227.62
3539.921	211.62
3542.773	185.62
3545.622	187.62
3548.469	178.62
3551.315	165.62
3554.157	152.62
3556.998	144.62
3559.837	135.62
3562.673	134.62
3565.507	138.62
3568.339	115.62
3571.169	113.62
3573.996	101.62
3576.822	98.62
3579.645	88.62
3582.466	81.62
3585.285	85.62
3588.101	72.62
3590.916	67.62
3593.728	64.62
3596.538	60.62
3599.346	56.62
3602.152	47.62
3604.956	42.62
3607.757	34.62
3610.556	33.62
3613.354	30.62
3616.149	15.62
3618.942	16.62
3621.732	22.62
3624.521	12.62
3627.307	3.62
3630.092	2.62
3632.874	-4.38
3635.654	-8.38
3638.432	0.62
3641.208	-5.38
3643.982	-8.38
3646.753	-14.38
3649.523	-11.38
3652.29	-19.38
3655.055	-23.38
3657.818	-26.38
3660.579	-29.38
3663.338	-29.38
3666.095	-37.38
3668.849	-37.38
3671.602	-43.38
3674.352	-38.38
3677.101	-38.38
3679.847	-44.38
3682.591	-50.38
3685.333	-48.38
3688.073	-53.38
3690.811	-58.38
3693.547	-56.38
3696.281	-61.38
3699.013	-59.38
3701.742	-59.38
3704.47	-62.38
3707.195	-61.38
3709.919	-68.38
3712.64	-66.38
3715.359	-75.38
3718.076	-69.38
3720.792	-73.38
3723.505	-73.38
3726.216	-71.38
3728.925	-71.38
3731.632	-72.38
3734.336	-74.38
3737.039	-78.38
3739.74	-79.38
3742.439	-75.38
3745.136	-78.38
3747.83	-79.38
3750.523	-83.38
3753.213	-76.38
3755.902	-85.38
3758.589	-86.38
3761.273	-82.38
3763.956	-82.38
3766.636	-82.38
3769.315	-82.38
3771.991	-82.38
3774.665	-86.38
3777.338	-85.38
3780.008	-87.38
3782.677	-86.38
3785.343	-83.38
3788.007	-88.38
3790.67	-80.38
3793.33	-83.38
3795.989	-81.38
3798.645	-81.38
3801.299	-90.38
3803.952	-92.38
3806.602	-92.38
3809.251	-90.38
3811.897	-89.38
3814.542	-89.38
3817.184	-88.38
3819.825	-89.38
3822.463	-90.38
3825.1	-86.38
3827.735	-90.38
3830.367	-97.38
3832.998	-94.38
3835.627	-94.38
3838.253	-93.38
3840.878	-92.38
3843.501	-92.38
3846.122	-90.38
3848.741	-91.38
3851.358	-88.38
3853.973	-93.38
3856.586	-93.38
3859.197	-95.38
3861.806	-91.38
3864.414	-95.38
3867.019	-88.38
3869.622	-92.38
3872.224	-88.38
3874.823	-88.38
3877.421	-87.38
3880.016	-83.38
3882.61	-85.38
3885.202	-84.38
3887.792	-83.38
3890.38	-91.38
3892.966	-90.38
3895.55	-93.38
3898.132	-93.38
3900.713	-98.38
3903.291	-97.38
3905.868	-91.38
3908.442	-93.38
3911.015	-90.38
3913.586	-94.38
3916.155	-97.38
3918.722	-92.38
3921.287	-94.38
3923.85	-92.38
3926.411	-94.38
3928.971	-98.38
3931.528	-99.38
3934.084	-90.38
3936.638	-94.38
3939.19	-96.38
3941.74	-90.38
3944.288	-94.38
3946.834	-95.38
3949.378	-96.38
3951.921	-93.38
3954.462	-94.38
3957	-99.38
3959.537	-95.38
3962.072	-99.38
3964.606	-95.38
3967.137	-91.38
3969.667	-92.38
3972.194	-93.38
3974.72	-89.38
3977.244	-97.38
3979.766	-94.38
3982.286	-91.38
3984.805	-94.38
3987.321	-95.38
3989.836	-87.38
3992.349	-94.38
3994.86	-91.38
3997.369	-93.38
3999.877	-89.38
4002.382	-93.38
4004.886	-94.38
4007.388	-97.38
4009.888	-98.38
4012.386	-94.38
4014.883	-97.38
4017.377	-85.38
4019.87	-93.38
4022.361	-91.38
4024.85	-90.38
4027.338	-93.38
4029.823	-97.38
4032.307	-98.38
4034.789	-96.38
4037.269	-94.38
4039.747	-91.38
4042.224	-92.38
4044.699	-88.38
4047.172	-96.38
4049.643	-96.38
4052.112	-98.38
4054.58	-98.38
4057.046	-99.38
4059.51	-97.38
4061.972	-95.38
4064.432	-92.38
4066.891	-92.38
4069.348	-94.38
4071.803	-92.38
4074.256	-98.38
4076.708	-94.38
4079.158	-93.38
4081.606	-96.38
4084.052	-96.38
4086.497	-100.38
4088.939	-93.38
4091.38	-92.38
4093.819	-94.38
4096.257	-101.38
4098.693	-97.38
4101.127	-103.38
4103.559	-103.38
4105.989	-60.38
4108.418	-62.38
4110.845	-58.38
4113.27	-55.38
4115.694	-40.38
4118.115	-37.38
4120.535	-97.38
4122.954	-97.38
4125.37	-93.38
4127.785	-96.38
4130.198	-97.38
4132.609	-96.38
4135.019	-104.38
4137.427	-101.38
4139.833	-103.38
4142.237	-103.38
