Data from Bacilus_dil1103_A1_RamanShift_1.txt Node
Date: Wed Mar 01 12:09:32 IST 2017
User: aro
Spectrometer: QEPB0276
Trigger mode: 0
Integration Time (sec): 5.000000E0
Scans to average: 1
Electric dark correction enabled: true
Nonlinearity correction enabled: false
Boxcar width: 0
XAxis mode: Raman Shifts
Number of Pixels in Spectrum: 1044
>>>>>Begin Spectral Data<<<<<
160.701	-20.38
166.742	-3.38
172.777	86.62
178.805	362.62
184.826	1019.62
190.841	2098.62
196.849	3366.62
202.85	4177.62
208.845	4333.62
214.833	4185.62
220.815	4014.62
226.789	3894.62
232.758	3762.62
238.719	3633.62
244.674	3509.62
250.623	3327.62
256.565	3151.62
262.5	2987.62
268.429	2846.62
274.351	2694.62
280.267	2595.62
286.176	2463.62
292.079	2385.62
297.975	2303.62
303.865	2230.62
309.748	2150.62
315.625	2114.62
321.495	2065.62
327.359	2017.62
333.217	2014.62
339.068	1984.62
344.912	1975.62
350.751	1973.62
356.583	1967.62
362.408	1974.62
368.227	1973.62
374.04	1983.62
379.847	1989.62
385.647	1990.62
391.44	2021.62
397.228	2030.62
403.009	2030.62
408.784	2033.62
414.553	2044.62
420.315	2058.62
426.071	2042.62
431.821	2059.62
437.565	2037.62
443.302	2031.62
449.033	2035.62
454.758	2011.62
460.477	1990.62
466.189	1988.62
471.896	1968.62
477.596	1948.62
483.29	1933.62
488.978	1946.62
494.66	1923.62
500.335	1887.62
506.005	1839.62
511.668	1803.62
517.325	1772.62
522.977	1722.62
528.622	1696.62
534.261	1675.62
539.894	1655.62
545.521	1626.62
551.141	1623.62
556.756	1611.62
562.365	1565.62
567.968	1570.62
573.565	1554.62
579.155	1562.62
584.74	1544.62
590.319	1503.62
595.892	1507.62
601.459	1499.62
607.02	1496.62
612.575	1464.62
618.124	1459.62
623.667	1417.62
629.204	1428.62
634.735	1407.62
640.261	1398.62
645.781	1381.62
651.294	1366.62
656.802	1360.62
662.304	1351.62
667.8	1325.62
673.29	1319.62
678.775	1321.62
684.254	1308.62
689.726	1312.62
695.193	1298.62
700.655	1289.62
706.11	1284.62
711.56	1260.62
717.004	1262.62
722.442	1233.62
727.874	1236.62
733.301	1228.62
738.722	1222.62
744.137	1196.62
749.547	1196.62
754.951	1206.62
760.349	1197.62
765.741	1187.62
771.128	1165.62
776.509	1173.62
781.885	1186.62
787.254	1172.62
792.618	1174.62
797.977	1168.62
803.33	1155.62
808.677	1152.62
814.019	1122.62
819.355	1111.62
824.686	1094.62
830.011	1075.62
835.33	1075.62
840.644	1054.62
845.952	1049.62
851.255	1029.62
856.552	1025.62
861.844	1021.62
867.13	1007.62
872.41	1003.62
877.686	989.62
882.955	972.62
888.219	967.62
893.478	942.62
898.731	932.62
903.979	903.62
909.221	892.62
914.458	860.62
919.69	851.62
924.916	846.62
930.136	830.62
935.351	847.62
940.561	830.62
945.766	815.62
950.965	829.62
956.158	815.62
961.347	804.62
966.529	801.62
971.707	780.62
976.879	765.62
982.046	755.62
987.208	761.62
992.364	755.62
997.515	734.62
1002.66	751.62
1007.801	756.62
1012.936	756.62
1018.066	761.62
1023.19	766.62
1028.309	769.62
1033.423	771.62
1038.532	774.62
1043.636	765.62
1048.734	766.62
1053.827	752.62
1058.915	729.62
1063.998	722.62
1069.075	727.62
1074.147	727.62
1079.214	732.62
1084.276	717.62
1089.333	733.62
1094.385	739.62
1099.431	737.62
1104.472	738.62
1109.509	732.62
1114.54	726.62
1119.565	707.62
1124.586	704.62
1129.602	712.62
1134.613	691.62
1139.618	677.62
1144.619	696.62
1149.614	690.62
1154.604	685.62
1159.589	697.62
1164.57	685.62
1169.545	687.62
1174.515	688.62
1179.48	689.62
1184.44	681.62
1189.395	701.62
1194.345	688.62
1199.29	687.62
1204.23	678.62
1209.165	689.62
1214.095	679.62
1219.021	691.62
1223.941	695.62
1228.856	689.62
1233.766	699.62
1238.672	696.62
1243.572	698.62
1248.467	698.62
1253.358	682.62
1258.244	683.62
1263.124	664.62
1268	664.62
1272.871	641.62
1277.737	647.62
1282.599	626.62
1287.455	631.62
1292.306	636.62
1297.153	658.62
1301.995	653.62
1306.832	648.62
1311.664	645.62
1316.491	642.62
1321.314	649.62
1326.132	638.62
1330.945	628.62
1335.753	610.62
1340.556	609.62
1345.354	589.62
1350.148	574.62
1354.937	581.62
1359.722	575.62
1364.501	582.62
1369.276	578.62
1374.046	597.62
1378.811	610.62
1383.572	610.62
1388.327	601.62
1393.079	599.62
1397.825	597.62
1402.567	575.62
1407.304	563.62
1412.036	556.62
1416.764	560.62
1421.487	544.62
1426.205	553.62
1430.919	548.62
1435.628	553.62
1440.333	558.62
1445.032	570.62
1449.727	556.62
1454.418	574.62
1459.104	579.62
1463.785	580.62
1468.462	567.62
1473.134	560.62
1477.802	545.62
1482.465	551.62
1487.123	547.62
1491.777	550.62
1496.426	568.62
1501.071	581.62
1505.711	581.62
1510.347	584.62
1514.978	593.62
1519.604	609.62
1524.226	628.62
1528.844	617.62
1533.457	630.62
1538.065	619.62
1542.669	645.62
1547.269	641.62
1551.864	634.62
1556.454	636.62
1561.041	640.62
1565.622	652.62
1570.199	663.62
1574.772	680.62
1579.34	684.62
1583.904	705.62
1588.464	737.62
1593.019	744.62
1597.569	776.62
1602.115	791.62
1606.657	804.62
1611.195	820.62
1615.728	834.62
1620.256	843.62
1624.78	853.62
1629.3	884.62
1633.816	916.62
1638.327	914.62
1642.834	920.62
1647.336	946.62
1651.834	928.62
1656.328	933.62
1660.817	933.62
1665.302	897.62
1669.783	893.62
1674.259	850.62
1678.732	812.62
1683.199	781.62
1687.663	745.62
1692.122	707.62
1696.577	671.62
1701.028	650.62
1705.474	620.62
1709.917	606.62
1714.355	572.62
1718.788	544.62
1723.218	511.62
1727.643	503.62
1732.064	480.62
1736.481	454.62
1740.893	438.62
1745.301	421.62
1749.705	394.62
1754.105	375.62
1758.501	350.62
1762.893	342.62
1767.28	335.62
1771.663	339.62
1776.042	322.62
1780.417	321.62
1784.787	327.62
1789.154	328.62
1793.516	317.62
1797.874	327.62
1802.228	334.62
1806.578	326.62
1810.924	318.62
1815.266	315.62
1819.603	302.62
1823.937	299.62
1828.266	292.62
1832.591	283.62
1836.913	286.62
1841.23	277.62
1845.543	272.62
1849.852	271.62
1854.156	266.62
1858.457	274.62
1862.754	270.62
1867.047	273.62
1871.335	281.62
1875.62	271.62
1879.9	276.62
1884.177	272.62
1888.449	284.62
1892.718	270.62
1896.982	279.62
1901.243	274.62
1905.499	267.62
1909.752	275.62
1914	280.62
1918.245	269.62
1922.485	276.62
1926.722	284.62
1930.954	286.62
1935.183	290.62
1939.408	297.62
1943.628	294.62
1947.845	293.62
1952.058	307.62
1956.267	293.62
1960.472	303.62
1964.673	286.62
1968.87	283.62
1973.063	295.62
1977.252	282.62
1981.438	279.62
1985.619	285.62
1989.797	290.62
1993.971	280.62
1998.14	278.62
2002.306	285.62
2006.469	289.62
2010.627	283.62
2014.781	283.62
2018.932	295.62
2023.078	293.62
2027.221	286.62
2031.36	289.62
2035.495	280.62
2039.627	289.62
2043.754	286.62
2047.878	286.62
2051.998	293.62
2056.114	288.62
2060.226	292.62
2064.334	296.62
2068.439	297.62
2072.54	307.62
2076.637	304.62
2080.73	302.62
2084.82	317.62
2088.906	321.62
2092.988	313.62
2097.066	317.62
2101.14	317.62
2105.211	314.62
2109.278	309.62
2113.342	309.62
2117.401	301.62
2121.457	299.62
2125.509	305.62
2129.558	308.62
2133.602	294.62
2137.643	296.62
2141.681	296.62
2145.714	286.62
2149.744	289.62
2153.77	283.62
2157.793	282.62
2161.812	281.62
2165.827	273.62
2169.838	275.62
2173.846	263.62
2177.851	264.62
2181.851	258.62
2185.848	240.62
2189.841	237.62
2193.831	243.62
2197.817	241.62
2201.799	234.62
2205.778	236.62
2209.753	225.62
2213.725	225.62
2217.693	227.62
2221.657	224.62
2225.618	226.62
2229.575	219.62
2233.529	222.62
2237.479	212.62
2241.425	211.62
2245.368	217.62
2249.307	204.62
2253.243	203.62
2257.175	202.62
2261.104	187.62
2265.029	185.62
2268.95	172.62
2272.868	180.62
2276.783	175.62
2280.694	170.62
2284.601	171.62
2288.505	164.62
2292.405	161.62
2296.302	156.62
2300.195	159.62
2304.085	147.62
2307.971	141.62
2311.854	138.62
2315.734	135.62
2319.609	140.62
2323.482	130.62
2327.351	128.62
2331.216	140.62
2335.078	130.62
2338.937	127.62
2342.792	123.62
2346.643	115.62
2350.492	115.62
2354.336	118.62
2358.178	119.62
2362.015	117.62
2365.85	115.62
2369.681	115.62
2373.508	111.62
2377.333	116.62
2381.153	119.62
2384.971	112.62
2388.785	112.62
2392.595	108.62
2396.402	107.62
2400.206	105.62
2404.007	106.62
2407.804	104.62
2411.597	100.62
2415.388	99.62
2419.174	101.62
2422.958	101.62
2426.738	97.62
2430.515	89.62
2434.289	94.62
2438.059	92.62
2441.825	82.62
2445.589	88.62
2449.349	84.62
2453.106	94.62
2456.859	97.62
2460.61	86.62
2464.356	72.62
2468.1	88.62
2471.84	75.62
2475.577	77.62
2479.311	72.62
2483.041	78.62
2486.768	84.62
2490.492	75.62
2494.213	81.62
2497.93	73.62
2501.644	74.62
2505.355	80.62
2509.062	79.62
2512.766	71.62
2516.467	77.62
2520.165	75.62
2523.859	79.62
2527.551	73.62
2531.239	71.62
2534.923	70.62
2538.605	74.62
2542.283	65.62
2545.958	60.62
2549.63	63.62
2553.299	63.62
2556.964	63.62
2560.626	66.62
2564.285	67.62
2567.941	62.62
2571.594	63.62
2575.243	62.62
2578.89	57.62
2582.533	63.62
2586.173	58.62
2589.809	54.62
2593.443	57.62
2597.073	54.62
2600.701	56.62
2604.325	52.62
2607.946	61.62
2611.564	51.62
2615.178	54.62
2618.79	54.62
2622.398	57.62
2626.004	54.62
2629.606	50.62
2633.205	54.62
2636.801	49.62
2640.394	42.62
2643.983	43.62
2647.57	47.62
2651.153	42.62
2654.734	43.62
2658.311	47.62
2661.885	39.62
2665.456	36.62
2669.025	40.62
2672.589	36.62
2676.151	38.62
2679.71	40.62
2683.266	38.62
2686.819	42.62
2690.368	44.62
2693.915	38.62
2697.458	31.62
2700.999	38.62
2704.536	37.62
2708.071	38.62
2711.602	29.62
2715.13	28.62
2718.656	36.62
2722.178	31.62
2725.697	32.62
2729.214	38.62
2732.727	30.62
2736.237	37.62
2739.744	42.62
2743.249	40.62
2746.75	44.62
2750.248	45.62
2753.743	44.62
2757.236	43.62
2760.725	46.62
2764.211	47.62
2767.695	56.62
2771.175	50.62
2774.652	50.62
2778.127	54.62
2781.598	52.62
2785.067	47.62
2788.532	48.62
2791.995	47.62
2795.455	56.62
2798.911	62.62
2802.365	58.62
2805.816	59.62
2809.264	60.62
2812.709	54.62
2816.151	58.62
2819.59	60.62
2823.026	68.62
2826.46	69.62
2829.89	70.62
2833.318	80.62
2836.742	77.62
2840.164	76.62
2843.583	78.62
2846.999	77.62
2850.412	83.62
2853.822	87.62
2857.229	81.62
2860.634	96.62
2864.035	105.62
2867.434	106.62
2870.83	107.62
2874.223	107.62
2877.613	109.62
2881	117.62
2884.385	122.62
2887.766	118.62
2891.145	128.62
2894.521	124.62
2897.894	132.62
2901.264	130.62
2904.631	134.62
2907.996	139.62
2911.358	146.62
2914.717	148.62
2918.073	147.62
2921.426	159.62
2924.777	163.62
2928.124	167.62
2931.469	175.62
2934.811	179.62
2938.15	189.62
2941.487	189.62
2944.821	190.62
2948.152	202.62
2951.48	217.62
2954.805	211.62
2958.128	218.62
2961.447	230.62
2964.765	238.62
2968.079	249.62
2971.39	251.62
2974.699	251.62
2978.005	275.62
2981.308	285.62
2984.609	300.62
2987.907	307.62
2991.202	323.62
2994.494	330.62
2997.784	345.62
3001.07	362.62
3004.355	374.62
3007.636	382.62
3010.915	392.62
3014.191	401.62
3017.464	421.62
3020.734	433.62
3024.002	432.62
3027.267	449.62
3030.53	455.62
3033.789	457.62
3037.046	488.62
3040.301	497.62
3043.552	503.62
3046.801	527.62
3050.048	548.62
3053.291	541.62
3056.532	574.62
3059.771	608.62
3063.006	611.62
3066.239	644.62
3069.469	676.62
3072.697	690.62
3075.922	696.62
3079.144	737.62
3082.364	747.62
3085.581	769.62
3088.795	793.62
3092.007	813.62
3095.216	835.62
3098.423	854.62
3101.627	887.62
3104.828	906.62
3108.026	930.62
3111.222	933.62
3114.416	972.62
3117.607	1006.62
3120.795	1033.62
3123.98	1050.62
3127.163	1057.62
3130.344	1104.62
3133.521	1127.62
3136.696	1158.62
3139.869	1176.62
3143.039	1213.62
3146.206	1219.62
3149.371	1253.62
3152.533	1262.62
3155.693	1280.62
3158.85	1286.62
3162.005	1284.62
3165.157	1320.62
3168.306	1305.62
3171.453	1320.62
3174.597	1328.62
3177.739	1317.62
3180.878	1333.62
3184.014	1348.62
3187.149	1353.62
3190.28	1355.62
3193.409	1348.62
3196.536	1365.62
3199.659	1365.62
3202.781	1389.62
3205.9	1383.62
3209.016	1381.62
3212.13	1390.62
3215.241	1398.62
3218.35	1389.62
3221.456	1385.62
3224.56	1365.62
3227.661	1360.62
3230.76	1365.62
3233.856	1337.62
3236.95	1337.62
3240.041	1329.62
3243.13	1320.62
3246.216	1296.62
3249.3	1293.62
3252.382	1296.62
3255.46	1273.62
3258.537	1261.62
3261.611	1274.62
3264.682	1253.62
3267.751	1264.62
3270.818	1252.62
3273.882	1245.62
3276.943	1235.62
3280.002	1229.62
3283.059	1226.62
3286.113	1199.62
3289.165	1192.62
3292.214	1170.62
3295.261	1164.62
3298.306	1150.62
3301.348	1120.62
3304.387	1107.62
3307.425	1096.62
3310.459	1066.62
3313.492	1055.62
3316.521	1048.62
3319.549	1033.62
3322.574	1020.62
3325.597	1011.62
3328.617	999.62
3331.635	998.62
3334.65	985.62
3337.663	995.62
3340.674	973.62
3343.682	970.62
3346.688	991.62
3349.691	968.62
3352.692	966.62
3355.691	946.62
3358.687	962.62
3361.681	938.62
3364.673	927.62
3367.662	932.62
3370.649	917.62
3373.633	895.62
3376.615	891.62
3379.595	881.62
3382.572	878.62
3385.547	860.62
3388.52	856.62
3391.49	840.62
3394.458	831.62
3397.424	818.62
3400.387	799.62
3403.348	796.62
3406.307	798.62
3409.263	788.62
3412.217	781.62
3415.168	761.62
3418.118	767.62
3421.065	749.62
3424.009	743.62
3426.951	726.62
3429.891	724.62
3432.829	723.62
3435.764	697.62
3438.697	687.62
3441.628	685.62
3444.557	660.62
3447.483	646.62
3450.407	633.62
3453.328	613.62
3456.247	594.62
3459.164	580.62
3462.079	566.62
3464.991	537.62
3467.902	542.62
3470.809	511.62
3473.715	500.62
3476.618	504.62
3479.519	474.62
3482.418	463.62
3485.315	456.62
3488.209	438.62
3491.101	441.62
3493.99	422.62
3496.878	404.62
3499.763	403.62
3502.646	374.62
3505.527	376.62
3508.405	359.62
3511.281	348.62
3514.155	332.62
3517.027	323.62
3519.897	316.62
3522.764	301.62
3525.629	284.62
3528.492	271.62
3531.352	257.62
3534.211	245.62
3537.067	228.62
3539.921	221.62
3542.773	207.62
3545.622	199.62
3548.469	189.62
3551.315	181.62
3554.157	167.62
3556.998	153.62
3559.837	148.62
3562.673	138.62
3565.507	144.62
3568.339	134.62
3571.169	126.62
3573.996	113.62
3576.822	109.62
3579.645	99.62
3582.466	95.62
3585.285	87.62
3588.101	79.62
3590.916	76.62
3593.728	65.62
3596.538	61.62
3599.346	58.62
3602.152	54.62
3604.956	46.62
3607.757	38.62
3610.556	41.62
3613.354	24.62
3616.149	24.62
3618.942	21.62
3621.732	15.62
3624.521	17.62
3627.307	6.62
3630.092	2.62
3632.874	1.62
3635.654	-3.38
3638.432	-0.38
3641.208	-8.38
3643.982	-12.38
3646.753	-11.38
3649.523	-18.38
3652.29	-21.38
3655.055	-24.38
3657.818	-29.38
3660.579	-30.38
3663.338	-31.38
3666.095	-32.38
3668.849	-39.38
3671.602	-46.38
3674.352	-46.38
3677.101	-48.38
3679.847	-52.38
3682.591	-56.38
3685.333	-53.38
3688.073	-55.38
3690.811	-56.38
3693.547	-60.38
3696.281	-63.38
3699.013	-59.38
3701.742	-63.38
3704.47	-66.38
3707.195	-69.38
3709.919	-71.38
3712.64	-64.38
3715.359	-75.38
3718.076	-72.38
3720.792	-75.38
3723.505	-77.38
3726.216	-72.38
3728.925	-81.38
3731.632	-82.38
3734.336	-85.38
3737.039	-86.38
3739.74	-78.38
3742.439	-77.38
3745.136	-84.38
3747.83	-81.38
3750.523	-87.38
3753.213	-79.38
3755.902	-88.38
3758.589	-89.38
3761.273	-88.38
3763.956	-87.38
3766.636	-86.38
3769.315	-85.38
3771.991	-89.38
3774.665	-90.38
3777.338	-94.38
3780.008	-90.38
3782.677	-95.38
3785.343	-90.38
3788.007	-92.38
3790.67	-89.38
3793.33	-90.38
3795.989	-85.38
3798.645	-91.38
3801.299	-89.38
3803.952	-93.38
3806.602	-97.38
3809.251	-97.38
3811.897	-93.38
3814.542	-99.38
3817.184	-94.38
3819.825	-92.38
3822.463	-91.38
3825.1	-92.38
3827.735	-95.38
3830.367	-101.38
3832.998	-99.38
3835.627	-99.38
3838.253	-98.38
3840.878	-99.38
3843.501	-96.38
3846.122	-96.38
3848.741	-93.38
3851.358	-95.38
3853.973	-92.38
3856.586	-100.38
3859.197	-96.38
3861.806	-99.38
3864.414	-102.38
3867.019	-98.38
3869.622	-97.38
3872.224	-92.38
3874.823	-95.38
3877.421	-94.38
3880.016	-84.38
3882.61	-89.38
3885.202	-80.38
3887.792	-86.38
3890.38	-94.38
3892.966	-93.38
3895.55	-95.38
3898.132	-95.38
3900.713	-98.38
3903.291	-98.38
3905.868	-99.38
3908.442	-101.38
3911.015	-96.38
3913.586	-101.38
3916.155	-100.38
3918.722	-102.38
3921.287	-95.38
3923.85	-99.38
3926.411	-99.38
3928.971	-98.38
3931.528	-99.38
3934.084	-95.38
3936.638	-100.38
3939.19	-102.38
3941.74	-100.38
3944.288	-100.38
3946.834	-102.38
3949.378	-107.38
3951.921	-101.38
3954.462	-99.38
3957	-101.38
3959.537	-103.38
3962.072	-103.38
3964.606	-100.38
3967.137	-98.38
3969.667	-99.38
3972.194	-100.38
3974.72	-99.38
3977.244	-107.38
3979.766	-103.38
3982.286	-97.38
3984.805	-99.38
3987.321	-103.38
3989.836	-96.38
3992.349	-96.38
3994.86	-97.38
3997.369	-101.38
3999.877	-97.38
4002.382	-97.38
4004.886	-99.38
4007.388	-102.38
4009.888	-103.38
4012.386	-99.38
4014.883	-99.38
4017.377	-93.38
4019.87	-99.38
4022.361	-99.38
4024.85	-99.38
4027.338	-98.38
4029.823	-103.38
4032.307	-105.38
4034.789	-98.38
4037.269	-99.38
4039.747	-100.38
4042.224	-99.38
4044.699	-90.38
4047.172	-98.38
4049.643	-102.38
4052.112	-104.38
4054.58	-107.38
4057.046	-99.38
4059.51	-99.38
4061.972	-98.38
4064.432	-97.38
4066.891	-98.38
4069.348	-103.38
4071.803	-101.38
4074.256	-104.38
4076.708	-108.38
4079.158	-101.38
4081.606	-99.38
4084.052	-104.38
4086.497	-103.38
4088.939	-96.38
4091.38	-97.38
4093.819	-101.38
4096.257	-104.38
4098.693	-101.38
4101.127	-107.38
4103.559	-110.38
4105.989	-63.38
4108.418	-70.38
4110.845	-60.38
4113.27	-55.38
4115.694	-43.38
4118.115	-38.38
4120.535	-99.38
4122.954	-107.38
4125.37	-104.38
4127.785	-102.38
4130.198	-101.38
4132.609	-99.38
4135.019	-104.38
4137.427	-103.38
4139.833	-107.38
4142.237	-110.38
