Data from Learning_RamanShift_02.txt Node
Date: Sun Mar 19 13:13:33 IST 2017
User: aro
Spectrometer: QEPB0276
Trigger mode: 0
Integration Time (sec): 5.000000E0
Scans to average: 1
Electric dark correction enabled: true
Nonlinearity correction enabled: false
Boxcar width: 0
XAxis mode: Raman Shifts
Number of Pixels in Spectrum: 1044
>>>>>Begin Spectral Data<<<<<
160.701	-37.88
166.742	-3.88
172.777	99.12
178.805	441.12
184.826	1231.12
190.841	2591.12
196.849	4078.12
202.85	4976.12
208.845	5149.12
214.833	5035.12
220.815	4907.12
226.789	4797.12
232.758	4709.12
238.719	4602.12
244.674	4487.12
250.623	4363.12
256.565	4220.12
262.5	4077.12
268.429	3936.12
274.351	3845.12
280.267	3737.12
286.176	3624.12
292.079	3561.12
297.975	3450.12
303.865	3384.12
309.748	3307.12
315.625	3242.12
321.495	3199.12
327.359	3112.12
333.217	3091.12
339.068	3055.12
344.912	3014.12
350.751	2989.12
356.583	2967.12
362.408	2975.12
368.227	2968.12
374.04	2933.12
379.847	2948.12
385.647	2963.12
391.44	2954.12
397.228	2966.12
403.009	2957.12
408.784	2967.12
414.553	2983.12
420.315	3001.12
426.071	2958.12
431.821	2978.12
437.565	2961.12
443.302	2982.12
449.033	2959.12
454.758	2934.12
460.477	2944.12
466.189	2938.12
471.896	2906.12
477.596	2926.12
483.29	2888.12
488.978	2856.12
494.66	2864.12
500.335	2851.12
506.005	2810.12
511.668	2785.12
517.325	2743.12
522.977	2713.12
528.622	2701.12
534.261	2656.12
539.894	2633.12
545.521	2629.12
551.141	2633.12
556.756	2629.12
562.365	2598.12
567.968	2617.12
573.565	2599.12
579.155	2593.12
584.74	2581.12
590.319	2573.12
595.892	2561.12
601.459	2570.12
607.02	2526.12
612.575	2509.12
618.124	2497.12
623.667	2487.12
629.204	2465.12
634.735	2464.12
640.261	2437.12
645.781	2428.12
651.294	2426.12
656.802	2420.12
662.304	2408.12
667.8	2413.12
673.29	2425.12
678.775	2377.12
684.254	2387.12
689.726	2385.12
695.193	2383.12
700.655	2362.12
706.11	2381.12
711.56	2363.12
717.004	2325.12
722.442	2333.12
727.874	2335.12
733.301	2325.12
738.722	2317.12
744.137	2298.12
749.547	2310.12
754.951	2325.12
760.349	2316.12
765.741	2322.12
771.128	2327.12
776.509	2346.12
781.885	2330.12
787.254	2327.12
792.618	2322.12
797.977	2312.12
803.33	2300.12
808.677	2289.12
814.019	2300.12
819.355	2280.12
824.686	2246.12
830.011	2240.12
835.33	2246.12
840.644	2249.12
845.952	2242.12
851.255	2252.12
856.552	2248.12
861.844	2239.12
867.13	2270.12
872.41	2283.12
877.686	2260.12
882.955	2265.12
888.219	2238.12
893.478	2205.12
898.731	2144.12
903.979	2120.12
909.221	2110.12
914.458	2116.12
919.69	2121.12
924.916	2130.12
930.136	2120.12
935.351	2141.12
940.561	2120.12
945.766	2118.12
950.965	2113.12
956.158	2117.12
961.347	2098.12
966.529	2051.12
971.707	2058.12
976.879	2021.12
982.046	2015.12
987.208	2001.12
992.364	2023.12
997.515	2027.12
1002.66	2041.12
1007.801	2079.12
1012.936	2081.12
1018.066	2097.12
1023.19	2145.12
1028.309	2130.12
1033.423	2138.12
1038.532	2103.12
1043.636	2114.12
1048.734	2102.12
1053.827	2082.12
1058.915	2063.12
1063.998	2049.12
1069.075	2058.12
1074.147	2063.12
1079.214	2061.12
1084.276	2089.12
1089.333	2120.12
1094.385	2143.12
1099.431	2157.12
1104.472	2143.12
1109.509	2126.12
1114.54	2105.12
1119.565	2096.12
1124.586	2065.12
1129.602	2056.12
1134.613	2035.12
1139.618	2015.12
1144.619	2030.12
1149.614	2040.12
1154.604	2051.12
1159.589	2057.12
1164.57	2073.12
1169.545	2105.12
1174.515	2096.12
1179.48	2092.12
1184.44	2049.12
1189.395	2052.12
1194.345	2053.12
1199.29	2046.12
1204.23	2049.12
1209.165	2050.12
1214.095	2072.12
1219.021	2088.12
1223.941	2084.12
1228.856	2116.12
1233.766	2149.12
1238.672	2140.12
1243.572	2135.12
1248.467	2123.12
1253.358	2115.12
1258.244	2085.12
1263.124	2059.12
1268	2029.12
1272.871	2008.12
1277.737	2000.12
1282.599	2002.12
1287.455	2016.12
1292.306	2002.12
1297.153	2037.12
1301.995	2046.12
1306.832	2056.12
1311.664	2063.12
1316.491	2064.12
1321.314	2046.12
1326.132	2042.12
1330.945	1977.12
1335.753	1957.12
1340.556	1918.12
1345.354	1880.12
1350.148	1866.12
1354.937	1834.12
1359.722	1865.12
1364.501	1921.12
1369.276	1959.12
1374.046	1995.12
1378.811	2035.12
1383.572	2032.12
1388.327	2016.12
1393.079	2013.12
1397.825	1966.12
1402.567	1922.12
1407.304	1901.12
1412.036	1884.12
1416.764	1874.12
1421.487	1857.12
1426.205	1893.12
1430.919	1877.12
1435.628	1910.12
1440.333	1921.12
1445.032	1917.12
1449.727	1948.12
1454.418	1939.12
1459.104	1944.12
1463.785	1938.12
1468.462	1903.12
1473.134	1900.12
1477.802	1861.12
1482.465	1874.12
1487.123	1881.12
1491.777	1866.12
1496.426	1895.12
1501.071	1907.12
1505.711	1925.12
1510.347	1977.12
1514.978	1995.12
1519.604	2005.12
1524.226	2023.12
1528.844	2036.12
1533.457	2040.12
1538.065	2024.12
1542.669	2014.12
1547.269	1991.12
1551.864	2011.12
1556.454	1999.12
1561.041	2009.12
1565.622	2009.12
1570.199	2026.12
1574.772	2028.12
1579.34	2042.12
1583.904	2071.12
1588.464	2078.12
1593.019	2081.12
1597.569	2107.12
1602.115	2086.12
1606.657	2093.12
1611.195	2083.12
1615.728	2071.12
1620.256	2098.12
1624.78	2099.12
1629.3	2112.12
1633.816	2134.12
1638.327	2160.12
1642.834	2189.12
1647.336	2208.12
1651.834	2217.12
1656.328	2219.12
1660.817	2198.12
1665.302	2203.12
1669.783	2166.12
1674.259	2101.12
1678.732	2071.12
1683.199	2025.12
1687.663	1943.12
1692.122	1885.12
1696.577	1860.12
1701.028	1867.12
1705.474	1885.12
1709.917	1885.12
1714.355	1865.12
1718.788	1823.12
1723.218	1789.12
1727.643	1761.12
1732.064	1742.12
1736.481	1707.12
1740.893	1672.12
1745.301	1643.12
1749.705	1611.12
1754.105	1567.12
1758.501	1536.12
1762.893	1546.12
1767.28	1498.12
1771.663	1515.12
1776.042	1492.12
1780.417	1496.12
1784.787	1512.12
1789.154	1536.12
1793.516	1552.12
1797.874	1570.12
1802.228	1589.12
1806.578	1600.12
1810.924	1614.12
1815.266	1585.12
1819.603	1560.12
1823.937	1540.12
1828.266	1515.12
1832.591	1499.12
1836.913	1474.12
1841.23	1474.12
1845.543	1466.12
1849.852	1460.12
1854.156	1462.12
1858.457	1470.12
1862.754	1473.12
1867.047	1449.12
1871.335	1478.12
1875.62	1477.12
1879.9	1467.12
1884.177	1464.12
1888.449	1470.12
1892.718	1452.12
1896.982	1454.12
1901.243	1448.12
1905.499	1440.12
1909.752	1465.12
1914	1457.12
1918.245	1447.12
1922.485	1454.12
1926.722	1464.12
1930.954	1478.12
1935.183	1476.12
1939.408	1504.12
1943.628	1493.12
1947.845	1514.12
1952.058	1513.12
1956.267	1501.12
1960.472	1507.12
1964.673	1469.12
1968.87	1458.12
1973.063	1445.12
1977.252	1432.12
1981.438	1444.12
1985.619	1439.12
1989.797	1415.12
1993.971	1422.12
1998.14	1408.12
2002.306	1419.12
2006.469	1431.12
2010.627	1415.12
2014.781	1398.12
2018.932	1414.12
2023.078	1399.12
2027.221	1380.12
2031.36	1390.12
2035.495	1358.12
2039.627	1343.12
2043.754	1344.12
2047.878	1346.12
2051.998	1317.12
2056.114	1324.12
2060.226	1335.12
2064.334	1345.12
2068.439	1361.12
2072.54	1347.12
2076.637	1368.12
2080.73	1348.12
2084.82	1375.12
2088.906	1378.12
2092.988	1377.12
2097.066	1364.12
2101.14	1367.12
2105.211	1352.12
2109.278	1353.12
2113.342	1348.12
2117.401	1340.12
2121.457	1342.12
2125.509	1325.12
2129.558	1327.12
2133.602	1334.12
2137.643	1328.12
2141.681	1327.12
2145.714	1324.12
2149.744	1309.12
2153.77	1304.12
2157.793	1296.12
2161.812	1286.12
2165.827	1252.12
2169.838	1242.12
2173.846	1233.12
2177.851	1224.12
2181.851	1193.12
2185.848	1189.12
2189.841	1195.12
2193.831	1186.12
2197.817	1166.12
2201.799	1161.12
2205.778	1148.12
2209.753	1168.12
2213.725	1156.12
2217.693	1166.12
2221.657	1157.12
2225.618	1158.12
2229.575	1162.12
2233.529	1144.12
2237.479	1145.12
2241.425	1135.12
2245.368	1125.12
2249.307	1110.12
2253.243	1091.12
2257.175	1078.12
2261.104	1084.12
2265.029	1081.12
2268.95	1053.12
2272.868	1054.12
2276.783	1051.12
2280.694	1040.12
2284.601	1026.12
2288.505	1017.12
2292.405	1008.12
2296.302	994.12
2300.195	998.12
2304.085	973.12
2307.971	964.12
2311.854	955.12
2315.734	933.12
2319.609	928.12
2323.482	913.12
2327.351	910.12
2331.216	897.12
2335.078	878.12
2338.937	886.12
2342.792	886.12
2346.643	872.12
2350.492	874.12
2354.336	874.12
2358.178	886.12
2362.015	899.12
2365.85	897.12
2369.681	884.12
2373.508	886.12
2377.333	885.12
2381.153	884.12
2384.971	878.12
2388.785	872.12
2392.595	862.12
2396.402	858.12
2400.206	855.12
2404.007	846.12
2407.804	836.12
2411.597	841.12
2415.388	843.12
2419.174	835.12
2422.958	835.12
2426.738	836.12
2430.515	831.12
2434.289	828.12
2438.059	819.12
2441.825	819.12
2445.589	806.12
2449.349	815.12
2453.106	808.12
2456.859	789.12
2460.61	786.12
2464.356	776.12
2468.1	782.12
2471.84	781.12
2475.577	775.12
2479.311	772.12
2483.041	770.12
2486.768	771.12
2490.492	762.12
2494.213	779.12
2497.93	777.12
2501.644	775.12
2505.355	768.12
2509.062	777.12
2512.766	769.12
2516.467	769.12
2520.165	762.12
2523.859	765.12
2527.551	756.12
2531.239	745.12
2534.923	742.12
2538.605	736.12
2542.283	744.12
2545.958	738.12
2549.63	738.12
2553.299	730.12
2556.964	731.12
2560.626	720.12
2564.285	704.12
2567.941	717.12
2571.594	716.12
2575.243	711.12
2578.89	709.12
2582.533	696.12
2586.173	688.12
2589.809	691.12
2593.443	692.12
2597.073	696.12
2600.701	676.12
2604.325	676.12
2607.946	674.12
2611.564	675.12
2615.178	670.12
2618.79	666.12
2622.398	671.12
2626.004	670.12
2629.606	658.12
2633.205	659.12
2636.801	652.12
2640.394	650.12
2643.983	631.12
2647.57	626.12
2651.153	618.12
2654.734	607.12
2658.311	608.12
2661.885	609.12
2665.456	601.12
2669.025	593.12
2672.589	592.12
2676.151	582.12
2679.71	566.12
2683.266	572.12
2686.819	575.12
2690.368	570.12
2693.915	556.12
2697.458	550.12
2700.999	548.12
2704.536	525.12
2708.071	524.12
2711.602	521.12
2715.13	516.12
2718.656	517.12
2722.178	511.12
2725.697	510.12
2729.214	516.12
2732.727	510.12
2736.237	502.12
2739.744	520.12
2743.249	517.12
2746.75	522.12
2750.248	522.12
2753.743	534.12
2757.236	517.12
2760.725	530.12
2764.211	519.12
2767.695	519.12
2771.175	519.12
2774.652	516.12
2778.127	518.12
2781.598	506.12
2785.067	517.12
2788.532	504.12
2791.995	506.12
2795.455	503.12
2798.911	499.12
2802.365	497.12
2805.816	499.12
2809.264	492.12
2812.709	502.12
2816.151	491.12
2819.59	485.12
2823.026	489.12
2826.46	481.12
2829.89	481.12
2833.318	483.12
2836.742	477.12
2840.164	481.12
2843.583	485.12
2846.999	482.12
2850.412	477.12
2853.822	483.12
2857.229	478.12
2860.634	477.12
2864.035	502.12
2867.434	487.12
2870.83	500.12
2874.223	499.12
2877.613	492.12
2881	508.12
2884.385	491.12
2887.766	487.12
2891.145	486.12
2894.521	483.12
2897.894	494.12
2901.264	479.12
2904.631	493.12
2907.996	470.12
2911.358	485.12
2914.717	469.12
2918.073	483.12
2921.426	486.12
2924.777	485.12
2928.124	488.12
2931.469	492.12
2934.811	491.12
2938.15	506.12
2941.487	505.12
2944.821	509.12
2948.152	509.12
2951.48	507.12
2954.805	504.12
2958.128	507.12
2961.447	495.12
2964.765	493.12
2968.079	510.12
2971.39	508.12
2974.699	515.12
2978.005	526.12
2981.308	538.12
2984.609	547.12
2987.907	562.12
2991.202	572.12
2994.494	583.12
2997.784	577.12
3001.07	590.12
3004.355	611.12
3007.636	621.12
3010.915	614.12
3014.191	617.12
3017.464	642.12
3020.734	625.12
3024.002	628.12
3027.267	635.12
3030.53	644.12
3033.789	650.12
3037.046	654.12
3040.301	656.12
3043.552	669.12
3046.801	678.12
3050.048	673.12
3053.291	710.12
3056.532	723.12
3059.771	734.12
3063.006	757.12
3066.239	765.12
3069.469	783.12
3072.697	801.12
3075.922	820.12
3079.144	826.12
3082.364	840.12
3085.581	855.12
3088.795	875.12
3092.007	880.12
3095.216	887.12
3098.423	925.12
3101.627	935.12
3104.828	938.12
3108.026	960.12
3111.222	967.12
3114.416	992.12
3117.607	1014.12
3120.795	1038.12
3123.98	1065.12
3127.163	1080.12
3130.344	1089.12
3133.521	1122.12
3136.696	1149.12
3139.869	1153.12
3143.039	1173.12
3146.206	1176.12
3149.371	1207.12
3152.533	1210.12
3155.693	1220.12
3158.85	1215.12
3162.005	1222.12
3165.157	1216.12
3168.306	1218.12
3171.453	1227.12
3174.597	1234.12
3177.739	1228.12
3180.878	1235.12
3184.014	1242.12
3187.149	1242.12
3190.28	1246.12
3193.409	1253.12
3196.536	1245.12
3199.659	1232.12
3202.781	1262.12
3205.9	1241.12
3209.016	1249.12
3212.13	1252.12
3215.241	1244.12
3218.35	1223.12
3221.456	1229.12
3224.56	1211.12
3227.661	1210.12
3230.76	1189.12
3233.856	1193.12
3236.95	1165.12
3240.041	1161.12
3243.13	1153.12
3246.216	1145.12
3249.3	1145.12
3252.382	1146.12
3255.46	1132.12
3258.537	1129.12
3261.611	1111.12
3264.682	1127.12
3267.751	1128.12
3270.818	1112.12
3273.882	1116.12
3276.943	1118.12
3280.002	1100.12
3283.059	1080.12
3286.113	1072.12
3289.165	1062.12
3292.214	1053.12
3295.261	1024.12
3298.306	1015.12
3301.348	1003.12
3304.387	981.12
3307.425	975.12
3310.459	943.12
3313.492	939.12
3316.521	924.12
3319.549	906.12
3322.574	905.12
3325.597	884.12
3328.617	879.12
3331.635	870.12
3334.65	865.12
3337.663	872.12
3340.674	850.12
3343.682	851.12
3346.688	856.12
3349.691	855.12
3352.692	843.12
3355.691	836.12
3358.687	832.12
3361.681	817.12
3364.673	816.12
3367.662	793.12
3370.649	790.12
3373.633	788.12
3376.615	760.12
3379.595	751.12
3382.572	747.12
3385.547	734.12
3388.52	717.12
3391.49	725.12
3394.458	703.12
3397.424	703.12
3400.387	687.12
3403.348	676.12
3406.307	668.12
3409.263	671.12
3412.217	655.12
3415.168	654.12
3418.118	649.12
3421.065	641.12
3424.009	645.12
3426.951	616.12
3429.891	626.12
3432.829	605.12
3435.764	585.12
3438.697	580.12
3441.628	561.12
3444.557	554.12
3447.483	536.12
3450.407	519.12
3453.328	496.12
3456.247	493.12
3459.164	481.12
3462.079	469.12
3464.991	454.12
3467.902	433.12
3470.809	430.12
3473.715	418.12
3476.618	402.12
3479.519	388.12
3482.418	386.12
3485.315	377.12
3488.209	363.12
3491.101	354.12
3493.99	342.12
3496.878	331.12
3499.763	320.12
3502.646	309.12
3505.527	304.12
3508.405	295.12
3511.281	280.12
3514.155	269.12
3517.027	256.12
3519.897	236.12
3522.764	238.12
3525.629	222.12
3528.492	211.12
3531.352	193.12
3534.211	191.12
3537.067	186.12
3539.921	163.12
3542.773	155.12
3545.622	144.12
3548.469	131.12
3551.315	129.12
3554.157	125.12
3556.998	121.12
3559.837	107.12
3562.673	109.12
3565.507	101.12
3568.339	92.12
3571.169	83.12
3573.996	86.12
3576.822	71.12
3579.645	63.12
3582.466	66.12
3585.285	58.12
3588.101	50.12
3590.916	45.12
3593.728	36.12
3596.538	30.12
3599.346	22.12
3602.152	21.12
3604.956	15.12
3607.757	11.12
3610.556	12.12
3613.354	6.12
3616.149	-4.88
3618.942	-0.88
3621.732	-9.88
3624.521	-14.88
3627.307	-16.88
3630.092	-19.88
3632.874	-16.88
3635.654	-24.88
3638.432	-22.88
3641.208	-29.88
3643.982	-27.88
3646.753	-40.88
3649.523	-39.88
3652.29	-42.88
3655.055	-44.88
3657.818	-46.88
3660.579	-48.88
3663.338	-51.88
3666.095	-53.88
3668.849	-58.88
3671.602	-59.88
3674.352	-64.88
3677.101	-67.88
3679.847	-68.88
3682.591	-68.88
3685.333	-71.88
3688.073	-72.88
3690.811	-74.88
3693.547	-73.88
3696.281	-78.88
3699.013	-82.88
3701.742	-84.88
3704.47	-74.88
3707.195	-81.88
3709.919	-85.88
3712.64	-86.88
3715.359	-86.88
3718.076	-89.88
3720.792	-92.88
3723.505	-92.88
3726.216	-92.88
3728.925	-92.88
3731.632	-92.88
3734.336	-95.88
3737.039	-90.88
3739.74	-94.88
3742.439	-89.88
3745.136	-99.88
3747.83	-99.88
3750.523	-99.88
3753.213	-100.88
3755.902	-97.88
3758.589	-98.88
3761.273	-100.88
3763.956	-99.88
3766.636	-101.88
3769.315	-101.88
3771.991	-105.88
3774.665	-103.88
3777.338	-108.88
3780.008	-105.88
3782.677	-103.88
3785.343	-103.88
3788.007	-103.88
3790.67	-105.88
3793.33	-103.88
3795.989	-109.88
3798.645	-109.88
3801.299	-112.88
3803.952	-108.88
3806.602	-105.88
3809.251	-108.88
3811.897	-103.88
3814.542	-105.88
3817.184	-110.88
3819.825	-110.88
3822.463	-113.88
3825.1	-113.88
3827.735	-114.88
3830.367	-109.88
3832.998	-113.88
3835.627	-113.88
3838.253	-113.88
3840.878	-108.88
3843.501	-115.88
3846.122	-116.88
3848.741	-111.88
3851.358	-113.88
3853.973	-111.88
3856.586	-115.88
3859.197	-112.88
3861.806	-117.88
3864.414	-116.88
3867.019	-113.88
3869.622	-112.88
3872.224	-113.88
3874.823	-112.88
3877.421	-114.88
3880.016	-109.88
3882.61	-110.88
3885.202	-106.88
3887.792	-109.88
3890.38	-109.88
3892.966	-116.88
3895.55	-111.88
3898.132	-114.88
3900.713	-115.88
3903.291	-120.88
3905.868	-122.88
3908.442	-118.88
3911.015	-122.88
3913.586	-123.88
3916.155	-117.88
3918.722	-115.88
3921.287	-115.88
3923.85	-118.88
3926.411	-121.88
3928.971	-120.88
3931.528	-121.88
3934.084	-122.88
3936.638	-120.88
3939.19	-124.88
3941.74	-119.88
3944.288	-117.88
3946.834	-117.88
3949.378	-122.88
3951.921	-119.88
3954.462	-121.88
3957	-122.88
3959.537	-124.88
3962.072	-121.88
3964.606	-119.88
3967.137	-120.88
3969.667	-117.88
3972.194	-121.88
3974.72	-118.88
3977.244	-117.88
3979.766	-117.88
3982.286	-123.88
3984.805	-120.88
3987.321	-122.88
3989.836	-119.88
3992.349	-119.88
3994.86	-117.88
3997.369	-117.88
3999.877	-116.88
4002.382	-120.88
4004.886	-116.88
4007.388	-117.88
4009.888	-118.88
4012.386	-118.88
4014.883	-120.88
4017.377	-121.88
4019.87	-117.88
4022.361	-121.88
4024.85	-119.88
4027.338	-122.88
4029.823	-116.88
4032.307	-118.88
4034.789	-119.88
4037.269	-117.88
4039.747	-122.88
4042.224	-120.88
4044.699	-121.88
4047.172	-118.88
4049.643	-125.88
4052.112	-122.88
4054.58	-124.88
4057.046	-120.88
4059.51	-117.88
4061.972	-118.88
4064.432	-119.88
4066.891	-119.88
4069.348	-120.88
4071.803	-120.88
4074.256	-122.88
4076.708	-118.88
4079.158	-124.88
4081.606	-121.88
4084.052	-118.88
4086.497	-116.88
4088.939	-118.88
4091.38	-117.88
4093.819	-121.88
4096.257	-126.88
4098.693	-126.88
4101.127	-122.88
4103.559	-123.88
4105.989	-76.88
4108.418	-80.88
4110.845	-77.88
4113.27	-73.88
4115.694	-65.88
4118.115	-61.88
4120.535	-120.88
4122.954	-123.88
4125.37	-122.88
4127.785	-124.88
4130.198	-125.88
4132.609	-121.88
4135.019	-124.88
4137.427	-124.88
4139.833	-124.88
4142.237	-123.88
