Data from Learning #16 - 15s_RamanShift_01.txt Node
Date: Sun Mar 19 14:12:14 IST 2017
User: aro
Spectrometer: QEPB0276
Trigger mode: 0
Integration Time (sec): 1.500000E1
Scans to average: 1
Electric dark correction enabled: true
Nonlinearity correction enabled: false
Boxcar width: 0
XAxis mode: Raman Shifts
Number of Pixels in Spectrum: 1044
>>>>>Begin Spectral Data<<<<<
160.701	-53.88
166.742	20.12
172.777	252.12
178.805	993.12
184.826	2843.12
190.841	6061.12
196.849	9733.12
202.85	12107.12
208.845	12721.12
214.833	12422.12
220.815	12117.12
226.789	11983.12
232.758	11894.12
238.719	11794.12
244.674	11581.12
250.623	11400.12
256.565	11194.12
262.5	11000.12
268.429	10847.12
274.351	10707.12
280.267	10553.12
286.176	10347.12
292.079	10059.12
297.975	9797.12
303.865	9529.12
309.748	9351.12
315.625	9069.12
321.495	8885.12
327.359	8732.12
333.217	8601.12
339.068	8510.12
344.912	8449.12
350.751	8332.12
356.583	8300.12
362.408	8281.12
368.227	8270.12
374.04	8349.12
379.847	8384.12
385.647	8483.12
391.44	8634.12
397.228	8810.12
403.009	9087.12
408.784	9496.12
414.553	10062.12
420.315	11053.12
426.071	12490.12
431.821	14195.12
437.565	15432.12
443.302	15516.12
449.033	14346.12
454.758	12721.12
460.477	11328.12
466.189	10289.12
471.896	9606.12
477.596	9132.12
483.29	8865.12
488.978	8577.12
494.66	8466.12
500.335	8262.12
506.005	8064.12
511.668	7891.12
517.325	7711.12
522.977	7542.12
528.622	7457.12
534.261	7392.12
539.894	7322.12
545.521	7254.12
551.141	7228.12
556.756	7215.12
562.365	7191.12
567.968	7182.12
573.565	7140.12
579.155	7086.12
584.74	7084.12
590.319	7043.12
595.892	7064.12
601.459	6978.12
607.02	6967.12
612.575	6909.12
618.124	6865.12
623.667	6838.12
629.204	6773.12
634.735	6808.12
640.261	6757.12
645.781	6747.12
651.294	6751.12
656.802	6734.12
662.304	6720.12
667.8	6712.12
673.29	6741.12
678.775	6734.12
684.254	6743.12
689.726	6725.12
695.193	6710.12
700.655	6705.12
706.11	6696.12
711.56	6706.12
717.004	6662.12
722.442	6695.12
727.874	6704.12
733.301	6737.12
738.722	6754.12
744.137	6723.12
749.547	6805.12
754.951	6833.12
760.349	6873.12
765.741	6925.12
771.128	7028.12
776.509	7149.12
781.885	7212.12
787.254	7268.12
792.618	7379.12
797.977	7490.12
803.33	7607.12
808.677	7734.12
814.019	7899.12
819.355	7981.12
824.686	8058.12
830.011	8204.12
835.33	8402.12
840.644	8779.12
845.952	9229.12
851.255	9997.12
856.552	11231.12
861.844	13511.12
867.13	18196.12
872.41	28356.12
877.686	45518.12
882.955	62450.12
888.219	62866.12
893.478	52248.12
898.731	31313.12
903.979	18936.12
909.221	13464.12
914.458	11060.12
919.69	9804.12
924.916	9007.12
930.136	8605.12
935.351	8318.12
940.561	8112.12
945.766	7917.12
950.965	7788.12
956.158	7709.12
961.347	7649.12
966.529	7543.12
971.707	7522.12
976.879	7487.12
982.046	7490.12
987.208	7619.12
992.364	7861.12
997.515	8217.12
1002.66	8650.12
1007.801	9414.12
1012.936	10448.12
1018.066	11741.12
1023.19	13057.12
1028.309	14369.12
1033.423	15958.12
1038.532	18237.12
1043.636	21899.12
1048.734	26051.12
1053.827	28187.12
1058.915	26592.12
1063.998	22860.12
1069.075	19812.12
1074.147	19196.12
1079.214	20595.12
1084.276	23450.12
1089.333	26841.12
1094.385	28694.12
1099.431	27301.12
1104.472	23149.12
1109.509	18723.12
1114.54	15766.12
1119.565	14273.12
1124.586	13380.12
1129.602	12688.12
1134.613	11817.12
1139.618	10804.12
1144.619	9988.12
1149.614	9440.12
1154.604	9070.12
1159.589	8827.12
1164.57	8608.12
1169.545	8366.12
1174.515	8108.12
1179.48	7883.12
1184.44	7702.12
1189.395	7589.12
1194.345	7493.12
1199.29	7448.12
1204.23	7427.12
1209.165	7534.12
1214.095	7572.12
1219.021	7696.12
1223.941	7839.12
1228.856	8037.12
1233.766	8230.12
1238.672	8392.12
1243.572	8641.12
1248.467	8914.12
1253.358	9183.12
1258.244	9607.12
1263.124	10206.12
1268	11336.12
1272.871	13063.12
1277.737	14996.12
1282.599	16121.12
1287.455	15449.12
1292.306	13609.12
1297.153	11872.12
1301.995	10720.12
1306.832	10048.12
1311.664	9679.12
1316.491	9459.12
1321.314	9265.12
1326.132	9122.12
1330.945	8981.12
1335.753	8851.12
1340.556	8750.12
1345.354	8661.12
1350.148	8650.12
1354.937	8711.12
1359.722	8855.12
1364.501	9084.12
1369.276	9356.12
1374.046	9705.12
1378.811	10260.12
1383.572	10851.12
1388.327	11292.12
1393.079	11487.12
1397.825	11551.12
1402.567	11562.12
1407.304	11860.12
1412.036	12221.12
1416.764	12784.12
1421.487	13482.12
1426.205	14225.12
1430.919	15234.12
1435.628	16480.12
1440.333	18333.12
1445.032	21275.12
1449.727	26197.12
1454.418	32165.12
1459.104	35979.12
1463.785	34220.12
1468.462	28305.12
1473.134	22583.12
1477.802	19446.12
1482.465	18410.12
1487.123	18163.12
1491.777	17521.12
1496.426	15975.12
1501.071	14095.12
1505.711	12591.12
1510.347	11631.12
1514.978	10995.12
1519.604	10541.12
1524.226	10117.12
1528.844	9699.12
1533.457	9368.12
1538.065	9055.12
1542.669	8741.12
1547.269	8480.12
1551.864	8210.12
1556.454	8033.12
1561.041	7939.12
1565.622	7733.12
1570.199	7608.12
1574.772	7501.12
1579.34	7440.12
1583.904	7332.12
1588.464	7263.12
1593.019	7242.12
1597.569	7127.12
1602.115	7014.12
1606.657	6949.12
1611.195	6901.12
1615.728	6822.12
1620.256	6830.12
1624.78	6835.12
1629.3	6869.12
1633.816	6849.12
1638.327	6798.12
1642.834	6802.12
1647.336	6817.12
1651.834	6821.12
1656.328	6831.12
1660.817	6830.12
1665.302	6774.12
1669.783	6763.12
1674.259	6656.12
1678.732	6601.12
1683.199	6478.12
1687.663	6347.12
1692.122	6233.12
1696.577	6135.12
1701.028	6068.12
1705.474	6042.12
1709.917	6009.12
1714.355	5963.12
1718.788	5941.12
1723.218	5900.12
1727.643	5817.12
1732.064	5787.12
1736.481	5661.12
1740.893	5584.12
1745.301	5503.12
1749.705	5375.12
1754.105	5278.12
1758.501	5206.12
1762.893	5174.12
1767.28	5094.12
1771.663	5082.12
1776.042	5063.12
1780.417	5075.12
1784.787	5102.12
1789.154	5139.12
1793.516	5123.12
1797.874	5186.12
1802.228	5185.12
1806.578	5187.12
1810.924	5156.12
1815.266	5138.12
1819.603	5052.12
1823.937	5000.12
1828.266	4968.12
1832.591	4905.12
1836.913	4884.12
1841.23	4844.12
1845.543	4822.12
1849.852	4837.12
1854.156	4819.12
1858.457	4867.12
1862.754	4876.12
1867.047	4933.12
1871.335	4931.12
1875.62	4957.12
1879.9	4947.12
1884.177	4968.12
1888.449	4932.12
1892.718	4916.12
1896.982	4928.12
1901.243	4915.12
1905.499	4875.12
1909.752	4912.12
1914	4909.12
1918.245	4890.12
1922.485	4908.12
1926.722	4894.12
1930.954	4908.12
1935.183	4935.12
1939.408	4961.12
1943.628	4947.12
1947.845	4970.12
1952.058	4957.12
1956.267	4905.12
1960.472	4901.12
1964.673	4877.12
1968.87	4847.12
1973.063	4798.12
1977.252	4752.12
1981.438	4708.12
1985.619	4689.12
1989.797	4688.12
1993.971	4646.12
1998.14	4666.12
2002.306	4686.12
2006.469	4679.12
2010.627	4695.12
2014.781	4680.12
2018.932	4665.12
2023.078	4655.12
2027.221	4620.12
2031.36	4576.12
2035.495	4540.12
2039.627	4505.12
2043.754	4477.12
2047.878	4454.12
2051.998	4456.12
2056.114	4442.12
2060.226	4484.12
2064.334	4500.12
2068.439	4522.12
2072.54	4576.12
2076.637	4604.12
2080.73	4643.12
2084.82	4663.12
2088.906	4684.12
2092.988	4667.12
2097.066	4651.12
2101.14	4620.12
2105.211	4559.12
2109.278	4549.12
2113.342	4527.12
2117.401	4525.12
2121.457	4496.12
2125.509	4507.12
2129.558	4476.12
2133.602	4449.12
2137.643	4510.12
2141.681	4498.12
2145.714	4500.12
2149.744	4480.12
2153.77	4443.12
2157.793	4423.12
2161.812	4382.12
2165.827	4353.12
2169.838	4314.12
2173.846	4277.12
2177.851	4241.12
2181.851	4223.12
2185.848	4196.12
2189.841	4168.12
2193.831	4142.12
2197.817	4141.12
2201.799	4116.12
2205.778	4129.12
2209.753	4159.12
2213.725	4132.12
2217.693	4163.12
2221.657	4160.12
2225.618	4180.12
2229.575	4183.12
2233.529	4193.12
2237.479	4206.12
2241.425	4199.12
2245.368	4178.12
2249.307	4151.12
2253.243	4138.12
2257.175	4124.12
2261.104	4100.12
2265.029	4060.12
2268.95	4044.12
2272.868	4034.12
2276.783	3980.12
2280.694	4021.12
2284.601	3972.12
2288.505	3958.12
2292.405	3937.12
2296.302	3879.12
2300.195	3873.12
2304.085	3785.12
2307.971	3763.12
2311.854	3701.12
2315.734	3644.12
2319.609	3597.12
2323.482	3560.12
2327.351	3527.12
2331.216	3517.12
2335.078	3497.12
2338.937	3500.12
2342.792	3443.12
2346.643	3423.12
2350.492	3415.12
2354.336	3400.12
2358.178	3436.12
2362.015	3455.12
2365.85	3448.12
2369.681	3447.12
2373.508	3463.12
2377.333	3440.12
2381.153	3474.12
2384.971	3424.12
2388.785	3433.12
2392.595	3401.12
2396.402	3381.12
2400.206	3386.12
2404.007	3374.12
2407.804	3344.12
2411.597	3368.12
2415.388	3366.12
2419.174	3363.12
2422.958	3363.12
2426.738	3373.12
2430.515	3350.12
2434.289	3348.12
2438.059	3374.12
2441.825	3346.12
2445.589	3334.12
2449.349	3369.12
2453.106	3346.12
2456.859	3338.12
2460.61	3329.12
2464.356	3333.12
2468.1	3301.12
2471.84	3297.12
2475.577	3272.12
2479.311	3299.12
2483.041	3291.12
2486.768	3292.12
2490.492	3279.12
2494.213	3319.12
2497.93	3293.12
2501.644	3326.12
2505.355	3321.12
2509.062	3319.12
2512.766	3329.12
2516.467	3343.12
2520.165	3360.12
2523.859	3323.12
2527.551	3368.12
2531.239	3373.12
2534.923	3391.12
2538.605	3405.12
2542.283	3468.12
2545.958	3504.12
2549.63	3507.12
2553.299	3502.12
2556.964	3478.12
2560.626	3470.12
2564.285	3431.12
2567.941	3393.12
2571.594	3373.12
2575.243	3345.12
2578.89	3332.12
2582.533	3307.12
2586.173	3307.12
2589.809	3301.12
2593.443	3303.12
2597.073	3289.12
2600.701	3276.12
2604.325	3273.12
2607.946	3275.12
2611.564	3283.12
2615.178	3267.12
2618.79	3265.12
2622.398	3266.12
2626.004	3237.12
2629.606	3209.12
2633.205	3218.12
2636.801	3205.12
2640.394	3212.12
2643.983	3168.12
2647.57	3162.12
2651.153	3150.12
2654.734	3162.12
2658.311	3187.12
2661.885	3201.12
2665.456	3202.12
2669.025	3189.12
2672.589	3239.12
2676.151	3264.12
2679.71	3308.12
2683.266	3361.12
2686.819	3420.12
2690.368	3487.12
2693.915	3582.12
2697.458	3689.12
2700.999	3844.12
2704.536	3984.12
2708.071	4187.12
2711.602	4402.12
2715.13	4616.12
2718.656	4822.12
2722.178	4919.12
2725.697	5027.12
2729.214	5085.12
2732.727	5083.12
2736.237	5035.12
2739.744	4967.12
2743.249	4904.12
2746.75	4870.12
2750.248	4887.12
2753.743	4939.12
2757.236	4957.12
2760.725	4917.12
2764.211	4830.12
2767.695	4735.12
2771.175	4600.12
2774.652	4479.12
2778.127	4420.12
2781.598	4394.12
2785.067	4400.12
2788.532	4415.12
2791.995	4510.12
2795.455	4577.12
2798.911	4701.12
2802.365	4830.12
2805.816	5021.12
2809.264	5251.12
2812.709	5442.12
2816.151	5757.12
2819.59	6089.12
2823.026	6455.12
2826.46	6887.12
2829.89	7352.12
2833.318	7956.12
2836.742	8520.12
2840.164	9098.12
2843.583	9641.12
2846.999	10039.12
2850.412	10464.12
2853.822	10919.12
2857.229	11450.12
2860.634	12166.12
2864.035	13143.12
2867.434	14312.12
2870.83	15948.12
2874.223	17953.12
2877.613	20054.12
2881	22025.12
2884.385	23062.12
2887.766	23376.12
2891.145	23127.12
2894.521	22624.12
2897.894	22100.12
2901.264	21554.12
2904.631	21023.12
2907.996	20504.12
2911.358	20226.12
2914.717	20220.12
2918.073	20751.12
2921.426	21835.12
2924.777	23605.12
2928.124	26228.12
2931.469	28999.12
2934.811	30701.12
2938.15	30378.12
2941.487	28506.12
2944.821	25784.12
2948.152	23077.12
2951.48	20649.12
2954.805	18598.12
2958.128	16992.12
2961.447	15893.12
2964.765	15135.12
2968.079	14851.12
2971.39	15017.12
2974.699	15281.12
2978.005	15467.12
2981.308	15372.12
2984.609	14750.12
2987.907	13761.12
2991.202	12542.12
2994.494	11277.12
2997.784	10002.12
3001.07	8958.12
3004.355	8082.12
3007.636	7314.12
3010.915	6679.12
3014.191	6137.12
3017.464	5646.12
3020.734	5276.12
3024.002	4911.12
3027.267	4659.12
3030.53	4360.12
3033.789	4161.12
3037.046	3967.12
3040.301	3774.12
3043.552	3643.12
3046.801	3508.12
3050.048	3386.12
3053.291	3312.12
3056.532	3222.12
3059.771	3177.12
3063.006	3102.12
3066.239	3046.12
3069.469	3002.12
3072.697	2963.12
3075.922	2932.12
3079.144	2882.12
3082.364	2815.12
3085.581	2797.12
3088.795	2764.12
3092.007	2726.12
3095.216	2703.12
3098.423	2689.12
3101.627	2682.12
3104.828	2647.12
3108.026	2606.12
3111.222	2607.12
3114.416	2592.12
3117.607	2609.12
3120.795	2585.12
3123.98	2608.12
3127.163	2637.12
3130.344	2627.12
3133.521	2651.12
3136.696	2669.12
3139.869	2669.12
3143.039	2679.12
3146.206	2666.12
3149.371	2674.12
3152.533	2650.12
3155.693	2670.12
3158.85	2656.12
3162.005	2663.12
3165.157	2640.12
3168.306	2620.12
3171.453	2597.12
3174.597	2622.12
3177.739	2615.12
3180.878	2589.12
3184.014	2595.12
3187.149	2601.12
3190.28	2604.12
3193.409	2599.12
3196.536	2600.12
3199.659	2613.12
3202.781	2569.12
3205.9	2578.12
3209.016	2592.12
3212.13	2597.12
3215.241	2582.12
3218.35	2566.12
3221.456	2549.12
3224.56	2525.12
3227.661	2505.12
3230.76	2477.12
3233.856	2438.12
3236.95	2435.12
3240.041	2426.12
3243.13	2404.12
3246.216	2366.12
3249.3	2359.12
3252.382	2329.12
3255.46	2342.12
3258.537	2319.12
3261.611	2318.12
3264.682	2296.12
3267.751	2293.12
3270.818	2271.12
3273.882	2263.12
3276.943	2237.12
3280.002	2216.12
3283.059	2198.12
3286.113	2169.12
3289.165	2143.12
3292.214	2100.12
3295.261	2070.12
3298.306	2047.12
3301.348	1998.12
3304.387	1972.12
3307.425	1944.12
3310.459	1916.12
3313.492	1872.12
3316.521	1854.12
3319.549	1827.12
3322.574	1797.12
3325.597	1803.12
3328.617	1784.12
3331.635	1767.12
3334.65	1758.12
3337.663	1748.12
3340.674	1734.12
3343.682	1753.12
3346.688	1729.12
3349.691	1711.12
3352.692	1710.12
3355.691	1693.12
3358.687	1680.12
3361.681	1650.12
3364.673	1635.12
3367.662	1612.12
3370.649	1578.12
3373.633	1571.12
3376.615	1545.12
3379.595	1550.12
3382.572	1510.12
3385.547	1496.12
3388.52	1485.12
3391.49	1456.12
3394.458	1451.12
3397.424	1413.12
3400.387	1420.12
3403.348	1395.12
3406.307	1373.12
3409.263	1378.12
3412.217	1338.12
3415.168	1353.12
3418.118	1331.12
3421.065	1310.12
3424.009	1292.12
3426.951	1278.12
3429.891	1248.12
3432.829	1244.12
3435.764	1209.12
3438.697	1204.12
3441.628	1150.12
3444.557	1152.12
3447.483	1123.12
3450.407	1078.12
3453.328	1056.12
3456.247	1012.12
3459.164	1001.12
3462.079	950.12
3464.991	935.12
3467.902	908.12
3470.809	880.12
3473.715	835.12
3476.618	832.12
3479.519	806.12
3482.418	799.12
3485.315	758.12
3488.209	736.12
3491.101	724.12
3493.99	690.12
3496.878	659.12
3499.763	646.12
3502.646	636.12
3505.527	609.12
3508.405	590.12
3511.281	563.12
3514.155	542.12
3517.027	509.12
3519.897	486.12
3522.764	461.12
3525.629	442.12
3528.492	411.12
3531.352	385.12
3534.211	359.12
3537.067	355.12
3539.921	328.12
3542.773	290.12
3545.622	287.12
3548.469	272.12
3551.315	258.12
3554.157	238.12
3556.998	220.12
3559.837	198.12
3562.673	184.12
3565.507	181.12
3568.339	156.12
3571.169	141.12
3573.996	136.12
3576.822	127.12
3579.645	114.12
3582.466	97.12
3585.285	82.12
3588.101	76.12
3590.916	67.12
3593.728	52.12
3596.538	40.12
3599.346	20.12
3602.152	16.12
3604.956	19.12
3607.757	-0.88
3610.556	-5.88
3613.354	-23.88
3616.149	-25.88
3618.942	-32.88
3621.732	-46.88
3624.521	-36.88
3627.307	-53.88
3630.092	-57.88
3632.874	-59.88
3635.654	-60.88
3638.432	-63.88
3641.208	-80.88
3643.982	-84.88
3646.753	-91.88
3649.523	-83.88
3652.29	-105.88
3655.055	-112.88
3657.818	-107.88
3660.579	-115.88
3663.338	-110.88
3666.095	-115.88
3668.849	-120.88
3671.602	-131.88
3674.352	-128.88
3677.101	-136.88
3679.847	-151.88
3682.591	-140.88
3685.333	-145.88
3688.073	-148.88
3690.811	-153.88
3693.547	-153.88
3696.281	-162.88
3699.013	-166.88
3701.742	-165.88
3704.47	-158.88
3707.195	-171.88
3709.919	-173.88
3712.64	-171.88
3715.359	-172.88
3718.076	-180.88
3720.792	-185.88
3723.505	-186.88
3726.216	-188.88
3728.925	-188.88
3731.632	-191.88
3734.336	-199.88
3737.039	-193.88
3739.74	-190.88
3742.439	-182.88
3745.136	-198.88
3747.83	-206.88
3750.523	-208.88
3753.213	-172.88
3755.902	-204.88
3758.589	-197.88
3761.273	-202.88
3763.956	-212.88
3766.636	-202.88
3769.315	-216.88
3771.991	-212.88
3774.665	-212.88
3777.338	-216.88
3780.008	-217.88
3782.677	-211.88
3785.343	-212.88
3788.007	-213.88
3790.67	-215.88
3793.33	-217.88
3795.989	-215.88
3798.645	-228.88
3801.299	-217.88
3803.952	-221.88
3806.602	-222.88
3809.251	-232.88
3811.897	-224.88
3814.542	-224.88
3817.184	-224.88
3819.825	-227.88
3822.463	-230.88
3825.1	-232.88
3827.735	-227.88
3830.367	-234.88
3832.998	-236.88
3835.627	-241.88
3838.253	-236.88
3840.878	-238.88
3843.501	-240.88
3846.122	-244.88
3848.741	-237.88
3851.358	-243.88
3853.973	-231.88
3856.586	-238.88
3859.197	-237.88
3861.806	-244.88
3864.414	-245.88
3867.019	-240.88
3869.622	-241.88
3872.224	-242.88
3874.823	-238.88
3877.421	-229.88
3880.016	-221.88
3882.61	-218.88
3885.202	-217.88
3887.792	-226.88
3890.38	-237.88
3892.966	-247.88
3895.55	-242.88
3898.132	-246.88
3900.713	-255.88
3903.291	-249.88
3905.868	-249.88
3908.442	-259.88
3911.015	-262.88
3913.586	-258.88
3916.155	-260.88
3918.722	-256.88
3921.287	-259.88
3923.85	-258.88
3926.411	-263.88
3928.971	-263.88
3931.528	-262.88
3934.084	-262.88
3936.638	-263.88
3939.19	-262.88
3941.74	-260.88
3944.288	-264.88
3946.834	-258.88
3949.378	-267.88
3951.921	-258.88
3954.462	-260.88
3957	-265.88
3959.537	-264.88
3962.072	-257.88
3964.606	-254.88
3967.137	-264.88
3969.667	-262.88
3972.194	-257.88
3974.72	-253.88
3977.244	-247.88
3979.766	-254.88
3982.286	-255.88
3984.805	-259.88
3987.321	-261.88
3989.836	-252.88
3992.349	-257.88
3994.86	-259.88
3997.369	-251.88
3999.877	-259.88
4002.382	-261.88
4004.886	-253.88
4007.388	-258.88
4009.888	-257.88
4012.386	-260.88
4014.883	-256.88
4017.377	-253.88
4019.87	-260.88
4022.361	-259.88
4024.85	-261.88
4027.338	-267.88
4029.823	-258.88
4032.307	-261.88
4034.789	-266.88
4037.269	-259.88
4039.747	-256.88
4042.224	-258.88
4044.699	-250.88
4047.172	-254.88
4049.643	-265.88
4052.112	-257.88
4054.58	-263.88
4057.046	-261.88
4059.51	-258.88
4061.972	-261.88
4064.432	-254.88
4066.891	-263.88
4069.348	-260.88
4071.803	-266.88
4074.256	-259.88
4076.708	-257.88
4079.158	-258.88
4081.606	-266.88
4084.052	-253.88
4086.497	-261.88
4088.939	-258.88
4091.38	-254.88
4093.819	-257.88
4096.257	-299.88
4098.693	-297.88
4101.127	-303.88
4103.559	-302.88
4105.989	-158.88
4108.418	-150.88
4110.845	-136.88
4113.27	-137.88
4115.694	-115.88
4118.115	-85.88
4120.535	-266.88
4122.954	-264.88
4125.37	-271.88
4127.785	-267.88
4130.198	-270.88
4132.609	-261.88
4135.019	-304.88
4137.427	-300.88
4139.833	-302.88
4142.237	-302.88
