Data from Learning #13 - 15s_RamanShift_01.txt Node
Date: Sun Mar 19 14:19:52 IST 2017
User: aro
Spectrometer: QEPB0276
Trigger mode: 0
Integration Time (sec): 1.500000E1
Scans to average: 1
Electric dark correction enabled: true
Nonlinearity correction enabled: false
Boxcar width: 0
XAxis mode: Raman Shifts
Number of Pixels in Spectrum: 1044
>>>>>Begin Spectral Data<<<<<
160.701	-98.38
166.742	9.62
172.777	375.62
178.805	1536.62
184.826	4424.62
190.841	9378.62
196.849	15001.62
202.85	18579.62
208.845	19422.62
214.833	18908.62
220.815	18463.62
226.789	18087.62
232.758	17834.62
238.719	17556.62
244.674	17139.62
250.623	16629.62
256.565	16093.62
262.5	15600.62
268.429	15116.62
274.351	14816.62
280.267	14441.62
286.176	14150.62
292.079	13848.62
297.975	13538.62
303.865	13198.62
309.748	12908.62
315.625	12657.62
321.495	12398.62
327.359	12207.62
333.217	12073.62
339.068	11911.62
344.912	11864.62
350.751	11701.62
356.583	11585.62
362.408	11583.62
368.227	11498.62
374.04	11481.62
379.847	11438.62
385.647	11514.62
391.44	11510.62
397.228	11516.62
403.009	11508.62
408.784	11550.62
414.553	11516.62
420.315	11540.62
426.071	11520.62
431.821	11547.62
437.565	11482.62
443.302	11482.62
449.033	11457.62
454.758	11382.62
460.477	11355.62
466.189	11348.62
471.896	11281.62
477.596	11264.62
483.29	11185.62
488.978	11148.62
494.66	11156.62
500.335	11035.62
506.005	10905.62
511.668	10766.62
517.325	10652.62
522.977	10524.62
528.622	10455.62
534.261	10373.62
539.894	10331.62
545.521	10269.62
551.141	10284.62
556.756	10235.62
562.365	10248.62
567.968	10161.62
573.565	10163.62
579.155	10115.62
584.74	10107.62
590.319	10049.62
595.892	10024.62
601.459	9939.62
607.02	9888.62
612.575	9825.62
618.124	9789.62
623.667	9651.62
629.204	9608.62
634.735	9566.62
640.261	9558.62
645.781	9501.62
651.294	9515.62
656.802	9530.62
662.304	9443.62
667.8	9431.62
673.29	9484.62
678.775	9414.62
684.254	9437.62
689.726	9422.62
695.193	9402.62
700.655	9320.62
706.11	9322.62
711.56	9284.62
717.004	9243.62
722.442	9225.62
727.874	9225.62
733.301	9188.62
738.722	9180.62
744.137	9142.62
749.547	9198.62
754.951	9145.62
760.349	9182.62
765.741	9190.62
771.128	9201.62
776.509	9176.62
781.885	9230.62
787.254	9246.62
792.618	9202.62
797.977	9106.62
803.33	9113.62
808.677	9065.62
814.019	8999.62
819.355	8946.62
824.686	8950.62
830.011	8907.62
835.33	8923.62
840.644	8892.62
845.952	8902.62
851.255	8946.62
856.552	8969.62
861.844	8935.62
867.13	8939.62
872.41	8897.62
877.686	8880.62
882.955	8810.62
888.219	8776.62
893.478	8689.62
898.731	8592.62
903.979	8501.62
909.221	8519.62
914.458	8477.62
919.69	8483.62
924.916	8498.62
930.136	8541.62
935.351	8528.62
940.561	8580.62
945.766	8556.62
950.965	8513.62
956.158	8497.62
961.347	8423.62
966.529	8373.62
971.707	8277.62
976.879	8178.62
982.046	8119.62
987.208	8126.62
992.364	8128.62
997.515	8226.62
1002.66	8320.62
1007.801	8340.62
1012.936	8442.62
1018.066	8563.62
1023.19	8584.62
1028.309	8585.62
1033.423	8596.62
1038.532	8551.62
1043.636	8518.62
1048.734	8430.62
1053.827	8336.62
1058.915	8290.62
1063.998	8262.62
1069.075	8312.62
1074.147	8286.62
1079.214	8361.62
1084.276	8451.62
1089.333	8534.62
1094.385	8574.62
1099.431	8648.62
1104.472	8631.62
1109.509	8618.62
1114.54	8546.62
1119.565	8466.62
1124.586	8380.62
1129.602	8320.62
1134.613	8274.62
1139.618	8289.62
1144.619	8274.62
1149.614	8308.62
1154.604	8342.62
1159.589	8407.62
1164.57	8420.62
1169.545	8446.62
1174.515	8473.62
1179.48	8456.62
1184.44	8423.62
1189.395	8372.62
1194.345	8303.62
1199.29	8312.62
1204.23	8329.62
1209.165	8377.62
1214.095	8440.62
1219.021	8491.62
1223.941	8599.62
1228.856	8669.62
1233.766	8692.62
1238.672	8709.62
1243.572	8683.62
1248.467	8664.62
1253.358	8554.62
1258.244	8469.62
1263.124	8318.62
1268	8249.62
1272.871	8172.62
1277.737	8166.62
1282.599	8179.62
1287.455	8162.62
1292.306	8244.62
1297.153	8267.62
1301.995	8361.62
1306.832	8375.62
1311.664	8455.62
1316.491	8497.62
1321.314	8461.62
1326.132	8392.62
1330.945	8247.62
1335.753	8054.62
1340.556	7939.62
1345.354	7739.62
1350.148	7657.62
1354.937	7618.62
1359.722	7671.62
1364.501	7837.62
1369.276	8004.62
1374.046	8178.62
1378.811	8279.62
1383.572	8287.62
1388.327	8255.62
1393.079	8182.62
1397.825	8034.62
1402.567	7916.62
1407.304	7787.62
1412.036	7718.62
1416.764	7674.62
1421.487	7698.62
1426.205	7717.62
1430.919	7738.62
1435.628	7828.62
1440.333	7881.62
1445.032	7931.62
1449.727	7945.62
1454.418	7966.62
1459.104	7935.62
1463.785	7904.62
1468.462	7803.62
1473.134	7689.62
1477.802	7647.62
1482.465	7677.62
1487.123	7619.62
1491.777	7674.62
1496.426	7782.62
1501.071	7850.62
1505.711	7923.62
1510.347	8008.62
1514.978	8141.62
1519.604	8219.62
1524.226	8284.62
1528.844	8301.62
1533.457	8325.62
1538.065	8329.62
1542.669	8323.62
1547.269	8240.62
1551.864	8250.62
1556.454	8203.62
1561.041	8245.62
1565.622	8248.62
1570.199	8294.62
1574.772	8340.62
1579.34	8436.62
1583.904	8459.62
1588.464	8543.62
1593.019	8564.62
1597.569	8589.62
1602.115	8566.62
1606.657	8498.62
1611.195	8520.62
1615.728	8503.62
1620.256	8508.62
1624.78	8570.62
1629.3	8596.62
1633.816	8666.62
1638.327	8758.62
1642.834	8844.62
1647.336	8893.62
1651.834	8972.62
1656.328	8983.62
1660.817	8967.62
1665.302	8890.62
1669.783	8793.62
1674.259	8697.62
1678.732	8460.62
1683.199	8225.62
1687.663	7967.62
1692.122	7725.62
1696.577	7619.62
1701.028	7603.62
1705.474	7714.62
1709.917	7706.62
1714.355	7681.62
1718.788	7545.62
1723.218	7457.62
1727.643	7306.62
1732.064	7193.62
1736.481	7079.62
1740.893	6979.62
1745.301	6858.62
1749.705	6739.62
1754.105	6612.62
1758.501	6502.62
1762.893	6390.62
1767.28	6309.62
1771.663	6264.62
1776.042	6277.62
1780.417	6240.62
1784.787	6325.62
1789.154	6422.62
1793.516	6499.62
1797.874	6636.62
1802.228	6690.62
1806.578	6720.62
1810.924	6662.62
1815.266	6650.62
1819.603	6573.62
1823.937	6480.62
1828.266	6353.62
1832.591	6305.62
1836.913	6232.62
1841.23	6191.62
1845.543	6190.62
1849.852	6149.62
1854.156	6169.62
1858.457	6181.62
1862.754	6186.62
1867.047	6187.62
1871.335	6157.62
1875.62	6215.62
1879.9	6194.62
1884.177	6188.62
1888.449	6179.62
1892.718	6168.62
1896.982	6110.62
1901.243	6075.62
1905.499	6090.62
1909.752	6059.62
1914	6074.62
1918.245	6127.62
1922.485	6119.62
1926.722	6175.62
1930.954	6220.62
1935.183	6266.62
1939.408	6295.62
1943.628	6307.62
1947.845	6304.62
1952.058	6314.62
1956.267	6299.62
1960.472	6256.62
1964.673	6233.62
1968.87	6163.62
1973.063	6117.62
1977.252	6055.62
1981.438	6030.62
1985.619	5991.62
1989.797	5987.62
1993.971	5978.62
1998.14	5980.62
2002.306	5968.62
2006.469	5957.62
2010.627	5979.62
2014.781	5927.62
2018.932	5957.62
2023.078	5924.62
2027.221	5862.62
2031.36	5793.62
2035.495	5715.62
2039.627	5731.62
2043.754	5669.62
2047.878	5617.62
2051.998	5619.62
2056.114	5618.62
2060.226	5630.62
2064.334	5685.62
2068.439	5651.62
2072.54	5689.62
2076.637	5705.62
2080.73	5730.62
2084.82	5782.62
2088.906	5756.62
2092.988	5713.62
2097.066	5746.62
2101.14	5695.62
2105.211	5646.62
2109.278	5648.62
2113.342	5629.62
2117.401	5614.62
2121.457	5630.62
2125.509	5596.62
2129.558	5576.62
2133.602	5569.62
2137.643	5556.62
2141.681	5554.62
2145.714	5508.62
2149.744	5521.62
2153.77	5469.62
2157.793	5471.62
2161.812	5384.62
2165.827	5326.62
2169.838	5228.62
2173.846	5174.62
2177.851	5119.62
2181.851	5109.62
2185.848	5030.62
2189.841	5013.62
2193.831	4963.62
2197.817	4934.62
2201.799	4875.62
2205.778	4937.62
2209.753	4900.62
2213.725	4895.62
2217.693	4898.62
2221.657	4895.62
2225.618	4895.62
2229.575	4915.62
2233.529	4879.62
2237.479	4823.62
2241.425	4815.62
2245.368	4771.62
2249.307	4715.62
2253.243	4653.62
2257.175	4635.62
2261.104	4601.62
2265.029	4502.62
2268.95	4502.62
2272.868	4462.62
2276.783	4433.62
2280.694	4385.62
2284.601	4371.62
2288.505	4346.62
2292.405	4308.62
2296.302	4247.62
2300.195	4206.62
2304.085	4202.62
2307.971	4131.62
2311.854	4074.62
2315.734	3993.62
2319.609	3966.62
2323.482	3886.62
2327.351	3861.62
2331.216	3819.62
2335.078	3802.62
2338.937	3824.62
2342.792	3801.62
2346.643	3799.62
2350.492	3767.62
2354.336	3773.62
2358.178	3817.62
2362.015	3806.62
2365.85	3800.62
2369.681	3808.62
2373.508	3822.62
2377.333	3810.62
2381.153	3817.62
2384.971	3786.62
2388.785	3742.62
2392.595	3742.62
2396.402	3690.62
2400.206	3673.62
2404.007	3666.62
2407.804	3649.62
2411.597	3664.62
2415.388	3643.62
2419.174	3630.62
2422.958	3628.62
2426.738	3615.62
2430.515	3599.62
2434.289	3560.62
2438.059	3549.62
2441.825	3559.62
2445.589	3533.62
2449.349	3507.62
2453.106	3484.62
2456.859	3461.62
2460.61	3451.62
2464.356	3408.62
2468.1	3385.62
2471.84	3376.62
2475.577	3368.62
2479.311	3324.62
2483.041	3338.62
2486.768	3382.62
2490.492	3367.62
2494.213	3352.62
2497.93	3342.62
2501.644	3364.62
2505.355	3374.62
2509.062	3365.62
2512.766	3356.62
2516.467	3344.62
2520.165	3338.62
2523.859	3305.62
2527.551	3268.62
2531.239	3245.62
2534.923	3263.62
2538.605	3204.62
2542.283	3220.62
2545.958	3209.62
2549.63	3205.62
2553.299	3186.62
2556.964	3142.62
2560.626	3157.62
2564.285	3146.62
2567.941	3133.62
2571.594	3110.62
2575.243	3093.62
2578.89	3091.62
2582.533	3051.62
2586.173	3054.62
2589.809	3030.62
2593.443	3032.62
2597.073	2998.62
2600.701	2977.62
2604.325	2981.62
2607.946	2972.62
2611.564	2958.62
2615.178	2986.62
2618.79	2953.62
2622.398	2952.62
2626.004	2925.62
2629.606	2900.62
2633.205	2885.62
2636.801	2847.62
2640.394	2831.62
2643.983	2806.62
2647.57	2791.62
2651.153	2776.62
2654.734	2715.62
2658.311	2695.62
2661.885	2700.62
2665.456	2658.62
2669.025	2643.62
2672.589	2603.62
2676.151	2597.62
2679.71	2555.62
2683.266	2566.62
2686.819	2525.62
2690.368	2465.62
2693.915	2439.62
2697.458	2422.62
2700.999	2375.62
2704.536	2354.62
2708.071	2349.62
2711.602	2310.62
2715.13	2295.62
2718.656	2283.62
2722.178	2249.62
2725.697	2275.62
2729.214	2244.62
2732.727	2246.62
2736.237	2274.62
2739.744	2270.62
2743.249	2292.62
2746.75	2284.62
2750.248	2308.62
2753.743	2316.62
2757.236	2309.62
2760.725	2297.62
2764.211	2306.62
2767.695	2304.62
2771.175	2286.62
2774.652	2278.62
2778.127	2265.62
2781.598	2244.62
2785.067	2225.62
2788.532	2215.62
2791.995	2221.62
2795.455	2193.62
2798.911	2201.62
2802.365	2203.62
2805.816	2172.62
2809.264	2143.62
2812.709	2143.62
2816.151	2146.62
2819.59	2134.62
2823.026	2128.62
2826.46	2102.62
2829.89	2092.62
2833.318	2090.62
2836.742	2081.62
2840.164	2075.62
2843.583	2098.62
2846.999	2070.62
2850.412	2081.62
2853.822	2081.62
2857.229	2081.62
2860.634	2084.62
2864.035	2088.62
2867.434	2082.62
2870.83	2117.62
2874.223	2108.62
2877.613	2096.62
2881	2070.62
2884.385	2086.62
2887.766	2043.62
2891.145	2043.62
2894.521	2038.62
2897.894	2042.62
2901.264	1995.62
2904.631	2005.62
2907.996	2008.62
2911.358	1999.62
2914.717	2004.62
2918.073	1995.62
2921.426	2010.62
2924.777	2012.62
2928.124	1999.62
2931.469	2011.62
2934.811	2030.62
2938.15	2024.62
2941.487	2040.62
2944.821	2015.62
2948.152	2044.62
2951.48	2031.62
2954.805	2030.62
2958.128	2035.62
2961.447	2036.62
2964.765	2036.62
2968.079	2060.62
2971.39	2084.62
2974.699	2115.62
2978.005	2123.62
2981.308	2139.62
2984.609	2173.62
2987.907	2208.62
2991.202	2243.62
2994.494	2284.62
2997.784	2306.62
3001.07	2369.62
3004.355	2402.62
3007.636	2426.62
3010.915	2454.62
3014.191	2461.62
3017.464	2480.62
3020.734	2477.62
3024.002	2478.62
3027.267	2494.62
3030.53	2507.62
3033.789	2532.62
3037.046	2542.62
3040.301	2553.62
3043.552	2591.62
3046.801	2614.62
3050.048	2643.62
3053.291	2676.62
3056.532	2744.62
3059.771	2799.62
3063.006	2852.62
3066.239	2903.62
3069.469	2976.62
3072.697	3023.62
3075.922	3078.62
3079.144	3119.62
3082.364	3186.62
3085.581	3221.62
3088.795	3280.62
3092.007	3327.62
3095.216	3356.62
3098.423	3425.62
3101.627	3500.62
3104.828	3524.62
3108.026	3607.62
3111.222	3654.62
3114.416	3712.62
3117.607	3756.62
3120.795	3840.62
3123.98	3907.62
3127.163	3992.62
3130.344	4062.62
3133.521	4103.62
3136.696	4191.62
3139.869	4240.62
3143.039	4312.62
3146.206	4361.62
3149.371	4402.62
3152.533	4421.62
3155.693	4457.62
3158.85	4463.62
3162.005	4488.62
3165.157	4501.62
3168.306	4536.62
3171.453	4463.62
3174.597	4491.62
3177.739	4516.62
3180.878	4501.62
3184.014	4493.62
3187.149	4514.62
3190.28	4515.62
3193.409	4498.62
3196.536	4522.62
3199.659	4537.62
3202.781	4556.62
3205.9	4584.62
3209.016	4581.62
3212.13	4560.62
3215.241	4546.62
3218.35	4495.62
3221.456	4456.62
3224.56	4425.62
3227.661	4372.62
3230.76	4334.62
3233.856	4304.62
3236.95	4291.62
3240.041	4243.62
3243.13	4192.62
3246.216	4194.62
3249.3	4176.62
3252.382	4118.62
3255.46	4140.62
3258.537	4117.62
3261.611	4119.62
3264.682	4070.62
3267.751	4069.62
3270.818	4067.62
3273.882	4035.62
3276.943	4023.62
3280.002	3986.62
3283.059	3960.62
3286.113	3891.62
3289.165	3827.62
3292.214	3793.62
3295.261	3731.62
3298.306	3722.62
3301.348	3645.62
3304.387	3559.62
3307.425	3521.62
3310.459	3461.62
3313.492	3426.62
3316.521	3369.62
3319.549	3335.62
3322.574	3321.62
3325.597	3276.62
3328.617	3217.62
3331.635	3198.62
3334.65	3190.62
3337.663	3165.62
3340.674	3139.62
3343.682	3172.62
3346.688	3124.62
3349.691	3113.62
3352.692	3128.62
3355.691	3080.62
3358.687	3041.62
3361.681	3025.62
3364.673	2971.62
3367.662	2962.62
3370.649	2908.62
3373.633	2872.62
3376.615	2852.62
3379.595	2813.62
3382.572	2768.62
3385.547	2740.62
3388.52	2681.62
3391.49	2645.62
3394.458	2626.62
3397.424	2583.62
3400.387	2557.62
3403.348	2515.62
3406.307	2493.62
3409.263	2478.62
3412.217	2444.62
3415.168	2419.62
3418.118	2411.62
3421.065	2384.62
3424.009	2345.62
3426.951	2308.62
3429.891	2265.62
3432.829	2253.62
3435.764	2184.62
3438.697	2159.62
3441.628	2097.62
3444.557	2032.62
3447.483	2013.62
3450.407	1953.62
3453.328	1896.62
3456.247	1837.62
3459.164	1794.62
3462.079	1746.62
3464.991	1696.62
3467.902	1631.62
3470.809	1589.62
3473.715	1527.62
3476.618	1508.62
3479.519	1466.62
3482.418	1455.62
3485.315	1382.62
3488.209	1352.62
3491.101	1308.62
3493.99	1290.62
3496.878	1232.62
3499.763	1208.62
3502.646	1166.62
3505.527	1154.62
3508.405	1109.62
3511.281	1056.62
3514.155	1018.62
3517.027	971.62
3519.897	912.62
3522.764	884.62
3525.629	844.62
3528.492	814.62
3531.352	766.62
3534.211	715.62
3537.067	686.62
3539.921	661.62
3542.773	613.62
3545.622	581.62
3548.469	550.62
3551.315	516.62
3554.157	496.62
3556.998	457.62
3559.837	444.62
3562.673	419.62
3565.507	402.62
3568.339	361.62
3571.169	338.62
3573.996	323.62
3576.822	304.62
3579.645	288.62
3582.466	263.62
3585.285	237.62
3588.101	218.62
3590.916	211.62
3593.728	171.62
3596.538	149.62
3599.346	127.62
3602.152	118.62
3604.956	86.62
3607.757	71.62
3610.556	58.62
3613.354	52.62
3616.149	40.62
3618.942	16.62
3621.732	2.62
3624.521	4.62
3627.307	-17.38
3630.092	-33.38
3632.874	-42.38
3635.654	-45.38
3638.432	-50.38
3641.208	-62.38
3643.982	-80.38
3646.753	-94.38
3649.523	-92.38
3652.29	-105.38
3655.055	-119.38
3657.818	-133.38
3660.579	-137.38
3663.338	-152.38
3666.095	-155.38
3668.849	-168.38
3671.602	-182.38
3674.352	-197.38
3677.101	-208.38
3679.847	-211.38
3682.591	-217.38
3685.333	-221.38
3688.073	-225.38
3690.811	-239.38
3693.547	-242.38
3696.281	-244.38
3699.013	-258.38
3701.742	-255.38
3704.47	-256.38
3707.195	-271.38
3709.919	-274.38
3712.64	-278.38
3715.359	-279.38
3718.076	-289.38
3720.792	-289.38
3723.505	-293.38
3726.216	-305.38
3728.925	-304.38
3731.632	-305.38
3734.336	-308.38
3737.039	-312.38
3739.74	-307.38
3742.439	-301.38
3745.136	-324.38
3747.83	-327.38
3750.523	-332.38
3753.213	-300.38
3755.902	-332.38
3758.589	-319.38
3761.273	-328.38
3763.956	-332.38
3766.636	-332.38
3769.315	-340.38
3771.991	-335.38
3774.665	-346.38
3777.338	-349.38
3780.008	-350.38
3782.677	-342.38
3785.343	-343.38
3788.007	-350.38
3790.67	-355.38
3793.33	-356.38
3795.989	-354.38
3798.645	-358.38
3801.299	-356.38
3803.952	-359.38
3806.602	-358.38
3809.251	-367.38
3811.897	-366.38
3814.542	-363.38
3817.184	-370.38
3819.825	-374.38
3822.463	-376.38
3825.1	-375.38
3827.735	-368.38
3830.367	-372.38
3832.998	-376.38
3835.627	-379.38
3838.253	-379.38
3840.878	-382.38
3843.501	-388.38
3846.122	-389.38
3848.741	-384.38
3851.358	-386.38
3853.973	-378.38
3856.586	-382.38
3859.197	-387.38
3861.806	-392.38
3864.414	-391.38
3867.019	-389.38
3869.622	-387.38
3872.224	-390.38
3874.823	-382.38
3877.421	-379.38
3880.016	-377.38
3882.61	-368.38
3885.202	-369.38
3887.792	-372.38
3890.38	-386.38
3892.966	-396.38
3895.55	-394.38
3898.132	-398.38
3900.713	-406.38
3903.291	-398.38
3905.868	-401.38
3908.442	-411.38
3911.015	-409.38
3913.586	-405.38
3916.155	-409.38
3918.722	-406.38
3921.287	-411.38
3923.85	-407.38
3926.411	-413.38
3928.971	-412.38
3931.528	-410.38
3934.084	-415.38
3936.638	-412.38
3939.19	-415.38
3941.74	-418.38
3944.288	-415.38
3946.834	-411.38
3949.378	-416.38
3951.921	-412.38
3954.462	-411.38
3957	-417.38
3959.537	-416.38
3962.072	-411.38
3964.606	-406.38
3967.137	-419.38
3969.667	-409.38
3972.194	-412.38
3974.72	-407.38
3977.244	-400.38
3979.766	-402.38
3982.286	-403.38
3984.805	-408.38
3987.321	-411.38
3989.836	-406.38
3992.349	-406.38
3994.86	-402.38
3997.369	-403.38
3999.877	-405.38
4002.382	-411.38
4004.886	-411.38
4007.388	-409.38
4009.888	-411.38
4012.386	-410.38
4014.883	-413.38
4017.377	-409.38
4019.87	-404.38
4022.361	-406.38
4024.85	-408.38
4027.338	-416.38
4029.823	-411.38
4032.307	-411.38
4034.789	-418.38
4037.269	-411.38
4039.747	-407.38
4042.224	-412.38
4044.699	-406.38
4047.172	-410.38
4049.643	-417.38
4052.112	-408.38
4054.58	-415.38
4057.046	-416.38
4059.51	-410.38
4061.972	-415.38
4064.432	-400.38
4066.891	-417.38
4069.348	-411.38
4071.803	-418.38
4074.256	-418.38
4076.708	-413.38
4079.158	-411.38
4081.606	-421.38
4084.052	-410.38
4086.497	-415.38
4088.939	-412.38
4091.38	-415.38
4093.819	-414.38
4096.257	-455.38
4098.693	-453.38
4101.127	-456.38
4103.559	-455.38
4105.989	-279.38
4108.418	-265.38
4110.845	-250.38
4113.27	-231.38
4115.694	-206.38
4118.115	-162.38
4120.535	-422.38
4122.954	-417.38
4125.37	-424.38
4127.785	-421.38
4130.198	-423.38
4132.609	-420.38
4135.019	-458.38
4137.427	-455.38
4139.833	-455.38
4142.237	-454.38
