Data from Learning #10_RamanShift_01.txt Node
Date: Sun Mar 19 13:26:23 IST 2017
User: aro
Spectrometer: QEPB0276
Trigger mode: 0
Integration Time (sec): 3.000000E1
Scans to average: 1
Electric dark correction enabled: true
Nonlinearity correction enabled: false
Boxcar width: 0
XAxis mode: Raman Shifts
Number of Pixels in Spectrum: 1044
>>>>>Begin Spectral Data<<<<<
160.701	-217.88
166.742	22.12
172.777	736.12
178.805	2988.12
184.826	8491.12
190.841	17820.12
196.849	28245.12
202.85	34835.12
208.845	36247.12
214.833	35301.12
220.815	34296.12
226.789	33615.12
232.758	33009.12
238.719	32366.12
244.674	31438.12
250.623	30451.12
256.565	29440.12
262.5	28397.12
268.429	27470.12
274.351	26697.12
280.267	26029.12
286.176	25426.12
292.079	24817.12
297.975	24219.12
303.865	23580.12
309.748	23123.12
315.625	22632.12
321.495	22106.12
327.359	21828.12
333.217	21449.12
339.068	21283.12
344.912	21063.12
350.751	20861.12
356.583	20715.12
362.408	20637.12
368.227	20612.12
374.04	20497.12
379.847	20485.12
385.647	20476.12
391.44	20569.12
397.228	20565.12
403.009	20704.12
408.784	20640.12
414.553	20646.12
420.315	20670.12
426.071	20673.12
431.821	20683.12
437.565	20640.12
443.302	20590.12
449.033	20567.12
454.758	20479.12
460.477	20380.12
466.189	20302.12
471.896	20175.12
477.596	20045.12
483.29	20040.12
488.978	19967.12
494.66	19922.12
500.335	19689.12
506.005	19455.12
511.668	19180.12
517.325	18958.12
522.977	18697.12
528.622	18546.12
534.261	18407.12
539.894	18354.12
545.521	18179.12
551.141	18173.12
556.756	18151.12
562.365	18093.12
567.968	18001.12
573.565	17930.12
579.155	17893.12
584.74	17761.12
590.319	17722.12
595.892	17628.12
601.459	17557.12
607.02	17486.12
612.575	17373.12
618.124	17207.12
623.667	17070.12
629.204	16953.12
634.735	16831.12
640.261	16774.12
645.781	16733.12
651.294	16716.12
656.802	16645.12
662.304	16638.12
667.8	16592.12
673.29	16532.12
678.775	16567.12
684.254	16490.12
689.726	16471.12
695.193	16379.12
700.655	16360.12
706.11	16287.12
711.56	16204.12
717.004	16129.12
722.442	16108.12
727.874	16027.12
733.301	15990.12
738.722	15937.12
744.137	15929.12
749.547	15991.12
754.951	15887.12
760.349	15941.12
765.741	15998.12
771.128	16019.12
776.509	15997.12
781.885	16015.12
787.254	16001.12
792.618	15992.12
797.977	15925.12
803.33	15770.12
808.677	15788.12
814.019	15630.12
819.355	15537.12
824.686	15489.12
830.011	15428.12
835.33	15431.12
840.644	15428.12
845.952	15405.12
851.255	15411.12
856.552	15434.12
861.844	15444.12
867.13	15471.12
872.41	15568.12
877.686	15616.12
882.955	15669.12
888.219	15431.12
893.478	15199.12
898.731	14860.12
903.979	14664.12
909.221	14543.12
914.458	14544.12
919.69	14456.12
924.916	14513.12
930.136	14549.12
935.351	14575.12
940.561	14581.12
945.766	14573.12
950.965	14540.12
956.158	14419.12
961.347	14311.12
966.529	14172.12
971.707	14016.12
976.879	13856.12
982.046	13741.12
987.208	13786.12
992.364	13803.12
997.515	13904.12
1002.66	14040.12
1007.801	14100.12
1012.936	14305.12
1018.066	14459.12
1023.19	14592.12
1028.309	14614.12
1033.423	14579.12
1038.532	14537.12
1043.636	14545.12
1048.734	14479.12
1053.827	14340.12
1058.915	14197.12
1063.998	14066.12
1069.075	14085.12
1074.147	14174.12
1079.214	14247.12
1084.276	14401.12
1089.333	14487.12
1094.385	14622.12
1099.431	14655.12
1104.472	14643.12
1109.509	14562.12
1114.54	14437.12
1119.565	14339.12
1124.586	14162.12
1129.602	14050.12
1134.613	13969.12
1139.618	14019.12
1144.619	13929.12
1149.614	14000.12
1154.604	14102.12
1159.589	14178.12
1164.57	14157.12
1169.545	14276.12
1174.515	14343.12
1179.48	14230.12
1184.44	14183.12
1189.395	14052.12
1194.345	14042.12
1199.29	13993.12
1204.23	13990.12
1209.165	14123.12
1214.095	14266.12
1219.021	14340.12
1223.941	14494.12
1228.856	14570.12
1233.766	14634.12
1238.672	14652.12
1243.572	14645.12
1248.467	14554.12
1253.358	14393.12
1258.244	14258.12
1263.124	14010.12
1268	13905.12
1272.871	13764.12
1277.737	13760.12
1282.599	13705.12
1287.455	13786.12
1292.306	13811.12
1297.153	13923.12
1301.995	14037.12
1306.832	14101.12
1311.664	14164.12
1316.491	14149.12
1321.314	14104.12
1326.132	13918.12
1330.945	13696.12
1335.753	13409.12
1340.556	13164.12
1345.354	12975.12
1350.148	12772.12
1354.937	12746.12
1359.722	12870.12
1364.501	13147.12
1369.276	13413.12
1374.046	13674.12
1378.811	13881.12
1383.572	13887.12
1388.327	13776.12
1393.079	13673.12
1397.825	13424.12
1402.567	13196.12
1407.304	12994.12
1412.036	12930.12
1416.764	12905.12
1421.487	12804.12
1426.205	12883.12
1430.919	12948.12
1435.628	13081.12
1440.333	13242.12
1445.032	13290.12
1449.727	13415.12
1454.418	13417.12
1459.104	13433.12
1463.785	13335.12
1468.462	13088.12
1473.134	12959.12
1477.802	12803.12
1482.465	12894.12
1487.123	12854.12
1491.777	12978.12
1496.426	13061.12
1501.071	13187.12
1505.711	13322.12
1510.347	13534.12
1514.978	13674.12
1519.604	13873.12
1524.226	13896.12
1528.844	13919.12
1533.457	13922.12
1538.065	13958.12
1542.669	13926.12
1547.269	13854.12
1551.864	13793.12
1556.454	13843.12
1561.041	13855.12
1565.622	13834.12
1570.199	13961.12
1574.772	14051.12
1579.34	14179.12
1583.904	14313.12
1588.464	14506.12
1593.019	14472.12
1597.569	14479.12
1602.115	14493.12
1606.657	14500.12
1611.195	14475.12
1615.728	14450.12
1620.256	14501.12
1624.78	14620.12
1629.3	14749.12
1633.816	14905.12
1638.327	14998.12
1642.834	15162.12
1647.336	15291.12
1651.834	15391.12
1656.328	15355.12
1660.817	15344.12
1665.302	15256.12
1669.783	15052.12
1674.259	14808.12
1678.732	14380.12
1683.199	13916.12
1687.663	13504.12
1692.122	13095.12
1696.577	12885.12
1701.028	12963.12
1705.474	13098.12
1709.917	13117.12
1714.355	12942.12
1718.788	12716.12
1723.218	12530.12
1727.643	12275.12
1732.064	12038.12
1736.481	11822.12
1740.893	11584.12
1745.301	11353.12
1749.705	11165.12
1754.105	10924.12
1758.501	10707.12
1762.893	10523.12
1767.28	10441.12
1771.663	10376.12
1776.042	10344.12
1780.417	10389.12
1784.787	10460.12
1789.154	10647.12
1793.516	10804.12
1797.874	10913.12
1802.228	11033.12
1806.578	11123.12
1810.924	11062.12
1815.266	11068.12
1819.603	10818.12
1823.937	10684.12
1828.266	10506.12
1832.591	10413.12
1836.913	10261.12
1841.23	10181.12
1845.543	10178.12
1849.852	10139.12
1854.156	10136.12
1858.457	10181.12
1862.754	10148.12
1867.047	10194.12
1871.335	10210.12
1875.62	10225.12
1879.9	10222.12
1884.177	10205.12
1888.449	10125.12
1892.718	10127.12
1896.982	10077.12
1901.243	10068.12
1905.499	10044.12
1909.752	10062.12
1914	10089.12
1918.245	10102.12
1922.485	10182.12
1926.722	10260.12
1930.954	10328.12
1935.183	10371.12
1939.408	10392.12
1943.628	10452.12
1947.845	10447.12
1952.058	10482.12
1956.267	10423.12
1960.472	10373.12
1964.673	10246.12
1968.87	10195.12
1973.063	10113.12
1977.252	10020.12
1981.438	9956.12
1985.619	9949.12
1989.797	9895.12
1993.971	9843.12
1998.14	9854.12
2002.306	9877.12
2006.469	9887.12
2010.627	9904.12
2014.781	9887.12
2018.932	9816.12
2023.078	9767.12
2027.221	9697.12
2031.36	9566.12
2035.495	9508.12
2039.627	9470.12
2043.754	9336.12
2047.878	9362.12
2051.998	9332.12
2056.114	9365.12
2060.226	9438.12
2064.334	9421.12
2068.439	9481.12
2072.54	9509.12
2076.637	9540.12
2080.73	9588.12
2084.82	9640.12
2088.906	9662.12
2092.988	9611.12
2097.066	9565.12
2101.14	9490.12
2105.211	9445.12
2109.278	9411.12
2113.342	9354.12
2117.401	9401.12
2121.457	9337.12
2125.509	9357.12
2129.558	9271.12
2133.602	9262.12
2137.643	9245.12
2141.681	9249.12
2145.714	9207.12
2149.744	9125.12
2153.77	9139.12
2157.793	9038.12
2161.812	8963.12
2165.827	8836.12
2169.838	8667.12
2173.846	8603.12
2177.851	8512.12
2181.851	8416.12
2185.848	8315.12
2189.841	8244.12
2193.831	8185.12
2197.817	8148.12
2201.799	8126.12
2205.778	8097.12
2209.753	8109.12
2213.725	8122.12
2217.693	8118.12
2221.657	8079.12
2225.618	8094.12
2229.575	8096.12
2233.529	8063.12
2237.479	8007.12
2241.425	7938.12
2245.368	7820.12
2249.307	7764.12
2253.243	7654.12
2257.175	7594.12
2261.104	7562.12
2265.029	7435.12
2268.95	7387.12
2272.868	7375.12
2276.783	7273.12
2280.694	7206.12
2284.601	7176.12
2288.505	7126.12
2292.405	7052.12
2296.302	6975.12
2300.195	6908.12
2304.085	6821.12
2307.971	6722.12
2311.854	6652.12
2315.734	6538.12
2319.609	6502.12
2323.482	6391.12
2327.351	6330.12
2331.216	6251.12
2335.078	6198.12
2338.937	6202.12
2342.792	6201.12
2346.643	6183.12
2350.492	6134.12
2354.336	6158.12
2358.178	6169.12
2362.015	6188.12
2365.85	6153.12
2369.681	6198.12
2373.508	6160.12
2377.333	6179.12
2381.153	6148.12
2384.971	6125.12
2388.785	6089.12
2392.595	6044.12
2396.402	6034.12
2400.206	5993.12
2404.007	5930.12
2407.804	5897.12
2411.597	5902.12
2415.388	5900.12
2419.174	5865.12
2422.958	5842.12
2426.738	5785.12
2430.515	5766.12
2434.289	5733.12
2438.059	5733.12
2441.825	5723.12
2445.589	5668.12
2449.349	5654.12
2453.106	5594.12
2456.859	5549.12
2460.61	5538.12
2464.356	5481.12
2468.1	5433.12
2471.84	5403.12
2475.577	5405.12
2479.311	5410.12
2483.041	5381.12
2486.768	5364.12
2490.492	5399.12
2494.213	5395.12
2497.93	5401.12
2501.644	5408.12
2505.355	5404.12
2509.062	5378.12
2512.766	5386.12
2516.467	5387.12
2520.165	5363.12
2523.859	5342.12
2527.551	5288.12
2531.239	5271.12
2534.923	5228.12
2538.605	5207.12
2542.283	5148.12
2545.958	5173.12
2549.63	5152.12
2553.299	5153.12
2556.964	5103.12
2560.626	5086.12
2564.285	5034.12
2567.941	5066.12
2571.594	5013.12
2575.243	4958.12
2578.89	4959.12
2582.533	4926.12
2586.173	4896.12
2589.809	4866.12
2593.443	4905.12
2597.073	4836.12
2600.701	4798.12
2604.325	4768.12
2607.946	4761.12
2611.564	4745.12
2615.178	4761.12
2618.79	4716.12
2622.398	4740.12
2626.004	4658.12
2629.606	4660.12
2633.205	4629.12
2636.801	4539.12
2640.394	4552.12
2643.983	4486.12
2647.57	4454.12
2651.153	4422.12
2654.734	4330.12
2658.311	4304.12
2661.885	4294.12
2665.456	4230.12
2669.025	4203.12
2672.589	4168.12
2676.151	4132.12
2679.71	4075.12
2683.266	4063.12
2686.819	4072.12
2690.368	3947.12
2693.915	3909.12
2697.458	3858.12
2700.999	3813.12
2704.536	3769.12
2708.071	3707.12
2711.602	3666.12
2715.13	3671.12
2718.656	3642.12
2722.178	3624.12
2725.697	3598.12
2729.214	3594.12
2732.727	3604.12
2736.237	3643.12
2739.744	3669.12
2743.249	3725.12
2746.75	3736.12
2750.248	3742.12
2753.743	3761.12
2757.236	3748.12
2760.725	3731.12
2764.211	3740.12
2767.695	3728.12
2771.175	3689.12
2774.652	3661.12
2778.127	3697.12
2781.598	3628.12
2785.067	3636.12
2788.532	3617.12
2791.995	3579.12
2795.455	3571.12
2798.911	3587.12
2802.365	3560.12
2805.816	3523.12
2809.264	3484.12
2812.709	3522.12
2816.151	3479.12
2819.59	3492.12
2823.026	3476.12
2826.46	3462.12
2829.89	3419.12
2833.318	3458.12
2836.742	3411.12
2840.164	3445.12
2843.583	3415.12
2846.999	3427.12
2850.412	3442.12
2853.822	3455.12
2857.229	3476.12
2860.634	3475.12
2864.035	3489.12
2867.434	3480.12
2870.83	3530.12
2874.223	3544.12
2877.613	3535.12
2881	3571.12
2884.385	3573.12
2887.766	3528.12
2891.145	3540.12
2894.521	3535.12
2897.894	3489.12
2901.264	3469.12
2904.631	3472.12
2907.996	3482.12
2911.358	3456.12
2914.717	3438.12
2918.073	3454.12
2921.426	3445.12
2924.777	3491.12
2928.124	3503.12
2931.469	3528.12
2934.811	3627.12
2938.15	3647.12
2941.487	3674.12
2944.821	3616.12
2948.152	3636.12
2951.48	3619.12
2954.805	3587.12
2958.128	3593.12
2961.447	3610.12
2964.765	3592.12
2968.079	3644.12
2971.39	3659.12
2974.699	3729.12
2978.005	3809.12
2981.308	3871.12
2984.609	3941.12
2987.907	3976.12
2991.202	4062.12
2994.494	4131.12
2997.784	4138.12
3001.07	4239.12
3004.355	4283.12
3007.636	4358.12
3010.915	4384.12
3014.191	4419.12
3017.464	4468.12
3020.734	4476.12
3024.002	4502.12
3027.267	4498.12
3030.53	4551.12
3033.789	4576.12
3037.046	4629.12
3040.301	4657.12
3043.552	4712.12
3046.801	4777.12
3050.048	4858.12
3053.291	4930.12
3056.532	5055.12
3059.771	5172.12
3063.006	5303.12
3066.239	5368.12
3069.469	5484.12
3072.697	5639.12
3075.922	5728.12
3079.144	5835.12
3082.364	5917.12
3085.581	6042.12
3088.795	6107.12
3092.007	6246.12
3095.216	6317.12
3098.423	6429.12
3101.627	6570.12
3104.828	6660.12
3108.026	6768.12
3111.222	6834.12
3114.416	7001.12
3117.607	7135.12
3120.795	7258.12
3123.98	7448.12
3127.163	7597.12
3130.344	7700.12
3133.521	7873.12
3136.696	8006.12
3139.869	8148.12
3143.039	8254.12
3146.206	8308.12
3149.371	8392.12
3152.533	8493.12
3155.693	8569.12
3158.85	8571.12
3162.005	8604.12
3165.157	8590.12
3168.306	8649.12
3171.453	8637.12
3174.597	8684.12
3177.739	8706.12
3180.878	8687.12
3184.014	8696.12
3187.149	8704.12
3190.28	8742.12
3193.409	8729.12
3196.536	8817.12
3199.659	8752.12
3202.781	8829.12
3205.9	8850.12
3209.016	8846.12
3212.13	8842.12
3215.241	8801.12
3218.35	8737.12
3221.456	8655.12
3224.56	8595.12
3227.661	8474.12
3230.76	8450.12
3233.856	8434.12
3236.95	8373.12
3240.041	8289.12
3243.13	8258.12
3246.216	8171.12
3249.3	8146.12
3252.382	8115.12
3255.46	8104.12
3258.537	8073.12
3261.611	8071.12
3264.682	8035.12
3267.751	8009.12
3270.818	7949.12
3273.882	7946.12
3276.943	7873.12
3280.002	7805.12
3283.059	7750.12
3286.113	7650.12
3289.165	7483.12
3292.214	7440.12
3295.261	7304.12
3298.306	7174.12
3301.348	7082.12
3304.387	6991.12
3307.425	6830.12
3310.459	6700.12
3313.492	6625.12
3316.521	6561.12
3319.549	6501.12
3322.574	6431.12
3325.597	6373.12
3328.617	6300.12
3331.635	6265.12
3334.65	6253.12
3337.663	6155.12
3340.674	6139.12
3343.682	6143.12
3346.688	6087.12
3349.691	6074.12
3352.692	6047.12
3355.691	5997.12
3358.687	5924.12
3361.681	5855.12
3364.673	5782.12
3367.662	5708.12
3370.649	5619.12
3373.633	5603.12
3376.615	5500.12
3379.595	5451.12
3382.572	5352.12
3385.547	5293.12
3388.52	5214.12
3391.49	5128.12
3394.458	5083.12
3397.424	5035.12
3400.387	4976.12
3403.348	4925.12
3406.307	4837.12
3409.263	4834.12
3412.217	4725.12
3415.168	4709.12
3418.118	4658.12
3421.065	4639.12
3424.009	4543.12
3426.951	4505.12
3429.891	4424.12
3432.829	4353.12
3435.764	4278.12
3438.697	4192.12
3441.628	4078.12
3444.557	4010.12
3447.483	3908.12
3450.407	3767.12
3453.328	3681.12
3456.247	3599.12
3459.164	3484.12
3462.079	3400.12
3464.991	3314.12
3467.902	3227.12
3470.809	3114.12
3473.715	3005.12
3476.618	2943.12
3479.519	2866.12
3482.418	2793.12
3485.315	2720.12
3488.209	2677.12
3491.101	2572.12
3493.99	2526.12
3496.878	2452.12
3499.763	2381.12
3502.646	2301.12
3505.527	2270.12
3508.405	2175.12
3511.281	2086.12
3514.155	2013.12
3517.027	1911.12
3519.897	1826.12
3522.764	1759.12
3525.629	1654.12
3528.492	1588.12
3531.352	1493.12
3534.211	1434.12
3537.067	1364.12
3539.921	1295.12
3542.773	1207.12
3545.622	1144.12
3548.469	1089.12
3551.315	1024.12
3554.157	961.12
3556.998	912.12
3559.837	855.12
3562.673	807.12
3565.507	784.12
3568.339	744.12
3571.169	692.12
3573.996	651.12
3576.822	614.12
3579.645	573.12
3582.466	519.12
3585.285	463.12
3588.101	431.12
3590.916	392.12
3593.728	353.12
3596.538	309.12
3599.346	274.12
3602.152	237.12
3604.956	197.12
3607.757	162.12
3610.556	132.12
3613.354	82.12
3616.149	60.12
3618.942	43.12
3621.732	5.12
3624.521	22.12
3627.307	-16.88
3630.092	-51.88
3632.874	-75.88
3635.654	-72.88
3638.432	-98.88
3641.208	-122.88
3643.982	-151.88
3646.753	-186.88
3649.523	-158.88
3652.29	-201.88
3655.055	-250.88
3657.818	-258.88
3660.579	-284.88
3663.338	-285.88
3666.095	-307.88
3668.849	-317.88
3671.602	-370.88
3674.352	-357.88
3677.101	-401.88
3679.847	-417.88
3682.591	-421.88
3685.333	-426.88
3688.073	-446.88
3690.811	-460.88
3693.547	-449.88
3696.281	-484.88
3699.013	-496.88
3701.742	-501.88
3704.47	-499.88
3707.195	-528.88
3709.919	-537.88
3712.64	-528.88
3715.359	-540.88
3718.076	-560.88
3720.792	-570.88
3723.505	-578.88
3726.216	-591.88
3728.925	-572.88
3731.632	-592.88
3734.336	-595.88
3737.039	-607.88
3739.74	-610.88
3742.439	-583.88
3745.136	-621.88
3747.83	-636.88
3750.523	-643.88
3753.213	-565.88
3755.902	-646.88
3758.589	-623.88
3761.273	-637.88
3763.956	-659.88
3766.636	-638.88
3769.315	-673.88
3771.991	-659.88
3774.665	-665.88
3777.338	-676.88
3780.008	-673.88
3782.677	-671.88
3785.343	-671.88
3788.007	-666.88
3790.67	-691.88
3793.33	-684.88
3795.989	-692.88
3798.645	-706.88
3801.299	-689.88
3803.952	-696.88
3806.602	-705.88
3809.251	-715.88
3811.897	-710.88
3814.542	-702.88
3817.184	-712.88
3819.825	-711.88
3822.463	-720.88
3825.1	-727.88
3827.735	-726.88
3830.367	-721.88
3832.998	-735.88
3835.627	-735.88
3838.253	-746.88
3840.878	-733.88
3843.501	-745.88
3846.122	-740.88
3848.741	-744.88
3851.358	-747.88
3853.973	-714.88
3856.586	-746.88
3859.197	-745.88
3861.806	-759.88
3864.414	-751.88
3867.019	-742.88
3869.622	-754.88
3872.224	-746.88
3874.823	-735.88
3877.421	-727.88
3880.016	-712.88
3882.61	-702.88
3885.202	-683.88
3887.792	-704.88
3890.38	-731.88
3892.966	-748.88
3895.55	-737.88
3898.132	-770.88
3900.713	-772.88
3903.291	-765.88
3905.868	-763.88
3908.442	-777.88
3911.015	-787.88
3913.586	-780.88
3916.155	-785.88
3918.722	-774.88
3921.287	-781.88
3923.85	-773.88
3926.411	-786.88
3928.971	-784.88
3931.528	-788.88
3934.084	-792.88
3936.638	-795.88
3939.19	-794.88
3941.74	-795.88
3944.288	-793.88
3946.834	-781.88
3949.378	-800.88
3951.921	-775.88
3954.462	-781.88
3957	-803.88
3959.537	-795.88
3962.072	-777.88
3964.606	-772.88
3967.137	-797.88
3969.667	-786.88
3972.194	-788.88
3974.72	-768.88
3977.244	-758.88
3979.766	-766.88
3982.286	-772.88
3984.805	-780.88
3987.321	-789.88
3989.836	-773.88
3992.349	-773.88
3994.86	-778.88
3997.369	-776.88
3999.877	-775.88
4002.382	-775.88
4004.886	-775.88
4007.388	-775.88
4009.888	-775.88
4012.386	-784.88
4014.883	-779.88
4017.377	-782.88
4019.87	-778.88
4022.361	-773.88
4024.85	-785.88
4027.338	-788.88
4029.823	-787.88
4032.307	-789.88
4034.789	-791.88
4037.269	-781.88
4039.747	-769.88
4042.224	-783.88
4044.699	-770.88
4047.172	-780.88
4049.643	-801.88
4052.112	-777.88
4054.58	-796.88
4057.046	-789.88
4059.51	-786.88
4061.972	-789.88
4064.432	-762.88
4066.891	-791.88
4069.348	-789.88
4071.803	-797.88
4074.256	-794.88
4076.708	-795.88
4079.158	-788.88
4081.606	-810.88
4084.052	-780.88
4086.497	-803.88
4088.939	-791.88
4091.38	-783.88
4093.819	-798.88
4096.257	-874.88
4098.693	-868.88
4101.127	-874.88
4103.559	-871.88
4105.989	-529.88
4108.418	-513.88
4110.845	-486.88
4113.27	-456.88
4115.694	-398.88
4118.115	-322.88
4120.535	-804.88
4122.954	-798.88
4125.37	-806.88
4127.785	-801.88
4130.198	-795.88
4132.609	-794.88
4135.019	-881.88
4137.427	-880.88
4139.833	-883.88
4142.237	-881.88
