Data from Learning_RamanShift_09.txt Node
Date: Sun Mar 19 13:22:21 IST 2017
User: aro
Spectrometer: QEPB0276
Trigger mode: 0
Integration Time (sec): 1.000000E1
Scans to average: 1
Electric dark correction enabled: true
Nonlinearity correction enabled: false
Boxcar width: 0
XAxis mode: Raman Shifts
Number of Pixels in Spectrum: 1044
>>>>>Begin Spectral Data<<<<<
160.701	-77.88
166.742	-1.88
172.777	236.12
178.805	1004.12
184.826	2830.12
190.841	5954.12
196.849	9381.12
202.85	11536.12
208.845	11991.12
214.833	11666.12
220.815	11301.12
226.789	11033.12
232.758	10908.12
238.719	10649.12
244.674	10363.12
250.623	10070.12
256.565	9728.12
262.5	9427.12
268.429	9115.12
274.351	8857.12
280.267	8627.12
286.176	8396.12
292.079	8205.12
297.975	7961.12
303.865	7798.12
309.748	7613.12
315.625	7455.12
321.495	7320.12
327.359	7183.12
333.217	7106.12
339.068	7017.12
344.912	6966.12
350.751	6885.12
356.583	6863.12
362.408	6813.12
368.227	6762.12
374.04	6729.12
379.847	6769.12
385.647	6765.12
391.44	6774.12
397.228	6810.12
403.009	6811.12
408.784	6790.12
414.553	6828.12
420.315	6799.12
426.071	6839.12
431.821	6816.12
437.565	6801.12
443.302	6795.12
449.033	6783.12
454.758	6757.12
460.477	6727.12
466.189	6676.12
471.896	6656.12
477.596	6646.12
483.29	6615.12
488.978	6619.12
494.66	6573.12
500.335	6533.12
506.005	6452.12
511.668	6336.12
517.325	6268.12
522.977	6184.12
528.622	6145.12
534.261	6079.12
539.894	6062.12
545.521	6030.12
551.141	6006.12
556.756	5991.12
562.365	5982.12
567.968	5962.12
573.565	5936.12
579.155	5921.12
584.74	5868.12
590.319	5861.12
595.892	5842.12
601.459	5813.12
607.02	5778.12
612.575	5708.12
618.124	5672.12
623.667	5655.12
629.204	5632.12
634.735	5609.12
640.261	5557.12
645.781	5508.12
651.294	5529.12
656.802	5519.12
662.304	5488.12
667.8	5532.12
673.29	5490.12
678.775	5481.12
684.254	5486.12
689.726	5454.12
695.193	5464.12
700.655	5429.12
706.11	5370.12
711.56	5370.12
717.004	5335.12
722.442	5337.12
727.874	5323.12
733.301	5298.12
738.722	5265.12
744.137	5265.12
749.547	5289.12
754.951	5270.12
760.349	5302.12
765.741	5287.12
771.128	5307.12
776.509	5290.12
781.885	5320.12
787.254	5348.12
792.618	5315.12
797.977	5296.12
803.33	5244.12
808.677	5219.12
814.019	5194.12
819.355	5149.12
824.686	5152.12
830.011	5105.12
835.33	5141.12
840.644	5101.12
845.952	5100.12
851.255	5136.12
856.552	5099.12
861.844	5115.12
867.13	5122.12
872.41	5168.12
877.686	5189.12
882.955	5178.12
888.219	5168.12
893.478	5021.12
898.731	4921.12
903.979	4881.12
909.221	4816.12
914.458	4813.12
919.69	4835.12
924.916	4822.12
930.136	4820.12
935.351	4845.12
940.561	4843.12
945.766	4854.12
950.965	4808.12
956.158	4793.12
961.347	4771.12
966.529	4691.12
971.707	4658.12
976.879	4621.12
982.046	4597.12
987.208	4564.12
992.364	4578.12
997.515	4620.12
1002.66	4664.12
1007.801	4709.12
1012.936	4772.12
1018.066	4823.12
1023.19	4844.12
1028.309	4850.12
1033.423	4853.12
1038.532	4849.12
1043.636	4805.12
1048.734	4786.12
1053.827	4744.12
1058.915	4717.12
1063.998	4668.12
1069.075	4685.12
1074.147	4700.12
1079.214	4731.12
1084.276	4774.12
1089.333	4846.12
1094.385	4875.12
1099.431	4905.12
1104.472	4889.12
1109.509	4855.12
1114.54	4804.12
1119.565	4764.12
1124.586	4712.12
1129.602	4664.12
1134.613	4620.12
1139.618	4616.12
1144.619	4648.12
1149.614	4654.12
1154.604	4674.12
1159.589	4711.12
1164.57	4723.12
1169.545	4768.12
1174.515	4758.12
1179.48	4742.12
1184.44	4738.12
1189.395	4689.12
1194.345	4650.12
1199.29	4646.12
1204.23	4656.12
1209.165	4701.12
1214.095	4720.12
1219.021	4758.12
1223.941	4820.12
1228.856	4847.12
1233.766	4833.12
1238.672	4817.12
1243.572	4853.12
1248.467	4836.12
1253.358	4781.12
1258.244	4714.12
1263.124	4677.12
1268	4647.12
1272.871	4578.12
1277.737	4535.12
1282.599	4560.12
1287.455	4596.12
1292.306	4567.12
1297.153	4627.12
1301.995	4658.12
1306.832	4687.12
1311.664	4715.12
1316.491	4707.12
1321.314	4695.12
1326.132	4640.12
1330.945	4536.12
1335.753	4452.12
1340.556	4370.12
1345.354	4312.12
1350.148	4236.12
1354.937	4227.12
1359.722	4284.12
1364.501	4345.12
1369.276	4438.12
1374.046	4576.12
1378.811	4613.12
1383.572	4638.12
1388.327	4590.12
1393.079	4587.12
1397.825	4462.12
1402.567	4389.12
1407.304	4363.12
1412.036	4318.12
1416.764	4273.12
1421.487	4272.12
1426.205	4293.12
1430.919	4345.12
1435.628	4369.12
1440.333	4382.12
1445.032	4388.12
1449.727	4448.12
1454.418	4446.12
1459.104	4464.12
1463.785	4434.12
1468.462	4326.12
1473.134	4274.12
1477.802	4276.12
1482.465	4279.12
1487.123	4253.12
1491.777	4287.12
1496.426	4308.12
1501.071	4375.12
1505.711	4414.12
1510.347	4477.12
1514.978	4536.12
1519.604	4571.12
1524.226	4594.12
1528.844	4641.12
1533.457	4638.12
1538.065	4640.12
1542.669	4629.12
1547.269	4587.12
1551.864	4576.12
1556.454	4589.12
1561.041	4593.12
1565.622	4591.12
1570.199	4622.12
1574.772	4666.12
1579.34	4726.12
1583.904	4777.12
1588.464	4765.12
1593.019	4794.12
1597.569	4806.12
1602.115	4822.12
1606.657	4829.12
1611.195	4783.12
1615.728	4786.12
1620.256	4803.12
1624.78	4854.12
1629.3	4897.12
1633.816	4946.12
1638.327	4974.12
1642.834	5007.12
1647.336	5037.12
1651.834	5091.12
1656.328	5113.12
1660.817	5097.12
1665.302	5037.12
1669.783	4957.12
1674.259	4899.12
1678.732	4781.12
1683.199	4645.12
1687.663	4469.12
1692.122	4338.12
1696.577	4265.12
1701.028	4292.12
1705.474	4362.12
1709.917	4359.12
1714.355	4311.12
1718.788	4188.12
1723.218	4128.12
1727.643	4063.12
1732.064	3979.12
1736.481	3926.12
1740.893	3834.12
1745.301	3766.12
1749.705	3702.12
1754.105	3632.12
1758.501	3550.12
1762.893	3524.12
1767.28	3478.12
1771.663	3433.12
1776.042	3425.12
1780.417	3427.12
1784.787	3491.12
1789.154	3541.12
1793.516	3605.12
1797.874	3633.12
1802.228	3668.12
1806.578	3692.12
1810.924	3667.12
1815.266	3674.12
1819.603	3596.12
1823.937	3545.12
1828.266	3497.12
1832.591	3436.12
1836.913	3407.12
1841.23	3392.12
1845.543	3363.12
1849.852	3379.12
1854.156	3365.12
1858.457	3360.12
1862.754	3377.12
1867.047	3365.12
1871.335	3374.12
1875.62	3414.12
1879.9	3397.12
1884.177	3403.12
1888.449	3389.12
1892.718	3361.12
1896.982	3314.12
1901.243	3350.12
1905.499	3340.12
1909.752	3346.12
1914	3376.12
1918.245	3364.12
1922.485	3378.12
1926.722	3400.12
1930.954	3419.12
1935.183	3454.12
1939.408	3464.12
1943.628	3493.12
1947.845	3462.12
1952.058	3484.12
1956.267	3460.12
1960.472	3416.12
1964.673	3402.12
1968.87	3394.12
1973.063	3367.12
1977.252	3328.12
1981.438	3315.12
1985.619	3319.12
1989.797	3289.12
1993.971	3275.12
1998.14	3256.12
2002.306	3268.12
2006.469	3293.12
2010.627	3277.12
2014.781	3287.12
2018.932	3265.12
2023.078	3229.12
2027.221	3222.12
2031.36	3182.12
2035.495	3175.12
2039.627	3138.12
2043.754	3110.12
2047.878	3094.12
2051.998	3103.12
2056.114	3071.12
2060.226	3115.12
2064.334	3124.12
2068.439	3118.12
2072.54	3149.12
2076.637	3183.12
2080.73	3166.12
2084.82	3185.12
2088.906	3200.12
2092.988	3204.12
2097.066	3176.12
2101.14	3182.12
2105.211	3139.12
2109.278	3130.12
2113.342	3095.12
2117.401	3116.12
2121.457	3084.12
2125.509	3105.12
2129.558	3075.12
2133.602	3066.12
2137.643	3052.12
2141.681	3061.12
2145.714	3060.12
2149.744	3027.12
2153.77	3033.12
2157.793	2999.12
2161.812	2964.12
2165.827	2945.12
2169.838	2911.12
2173.846	2870.12
2177.851	2816.12
2181.851	2779.12
2185.848	2748.12
2189.841	2754.12
2193.831	2719.12
2197.817	2692.12
2201.799	2695.12
2205.778	2694.12
2209.753	2697.12
2213.725	2698.12
2217.693	2694.12
2221.657	2671.12
2225.618	2684.12
2229.575	2682.12
2233.529	2666.12
2237.479	2657.12
2241.425	2626.12
2245.368	2610.12
2249.307	2570.12
2253.243	2545.12
2257.175	2519.12
2261.104	2499.12
2265.029	2456.12
2268.95	2466.12
2272.868	2456.12
2276.783	2407.12
2280.694	2409.12
2284.601	2376.12
2288.505	2363.12
2292.405	2347.12
2296.302	2321.12
2300.195	2285.12
2304.085	2267.12
2307.971	2223.12
2311.854	2216.12
2315.734	2184.12
2319.609	2141.12
2323.482	2112.12
2327.351	2091.12
2331.216	2085.12
2335.078	2067.12
2338.937	2059.12
2342.792	2078.12
2346.643	2034.12
2350.492	2019.12
2354.336	2048.12
2358.178	2038.12
2362.015	2046.12
2365.85	2047.12
2369.681	2037.12
2373.508	2053.12
2377.333	2057.12
2381.153	2044.12
2384.971	2028.12
2388.785	2000.12
2392.595	2010.12
2396.402	1983.12
2400.206	1998.12
2404.007	1982.12
2407.804	1982.12
2411.597	1947.12
2415.388	1952.12
2419.174	1940.12
2422.958	1952.12
2426.738	1913.12
2430.515	1911.12
2434.289	1908.12
2438.059	1913.12
2441.825	1909.12
2445.589	1878.12
2449.349	1882.12
2453.106	1866.12
2456.859	1855.12
2460.61	1841.12
2464.356	1813.12
2468.1	1809.12
2471.84	1807.12
2475.577	1792.12
2479.311	1781.12
2483.041	1797.12
2486.768	1792.12
2490.492	1792.12
2494.213	1782.12
2497.93	1806.12
2501.644	1771.12
2505.355	1784.12
2509.062	1806.12
2512.766	1781.12
2516.467	1786.12
2520.165	1764.12
2523.859	1757.12
2527.551	1772.12
2531.239	1749.12
2534.923	1736.12
2538.605	1729.12
2542.283	1721.12
2545.958	1713.12
2549.63	1702.12
2553.299	1695.12
2556.964	1706.12
2560.626	1672.12
2564.285	1689.12
2567.941	1677.12
2571.594	1657.12
2575.243	1660.12
2578.89	1648.12
2582.533	1653.12
2586.173	1625.12
2589.809	1630.12
2593.443	1618.12
2597.073	1592.12
2600.701	1580.12
2604.325	1588.12
2607.946	1603.12
2611.564	1570.12
2615.178	1580.12
2618.79	1562.12
2622.398	1582.12
2626.004	1531.12
2629.606	1550.12
2633.205	1523.12
2636.801	1536.12
2640.394	1498.12
2643.983	1485.12
2647.57	1468.12
2651.153	1452.12
2654.734	1439.12
2658.311	1436.12
2661.885	1424.12
2665.456	1417.12
2669.025	1389.12
2672.589	1386.12
2676.151	1375.12
2679.71	1352.12
2683.266	1367.12
2686.819	1337.12
2690.368	1307.12
2693.915	1284.12
2697.458	1275.12
2700.999	1276.12
2704.536	1265.12
2708.071	1242.12
2711.602	1226.12
2715.13	1210.12
2718.656	1203.12
2722.178	1193.12
2725.697	1197.12
2729.214	1182.12
2732.727	1197.12
2736.237	1186.12
2739.744	1224.12
2743.249	1232.12
2746.75	1229.12
2750.248	1247.12
2753.743	1241.12
2757.236	1236.12
2760.725	1242.12
2764.211	1234.12
2767.695	1214.12
2771.175	1239.12
2774.652	1220.12
2778.127	1209.12
2781.598	1205.12
2785.067	1201.12
2788.532	1210.12
2791.995	1186.12
2795.455	1191.12
2798.911	1184.12
2802.365	1183.12
2805.816	1171.12
2809.264	1162.12
2812.709	1164.12
2816.151	1162.12
2819.59	1158.12
2823.026	1136.12
2826.46	1145.12
2829.89	1132.12
2833.318	1138.12
2836.742	1136.12
2840.164	1117.12
2843.583	1143.12
2846.999	1136.12
2850.412	1135.12
2853.822	1131.12
2857.229	1134.12
2860.634	1146.12
2864.035	1162.12
2867.434	1146.12
2870.83	1175.12
2874.223	1174.12
2877.613	1165.12
2881	1181.12
2884.385	1177.12
2887.766	1169.12
2891.145	1156.12
2894.521	1156.12
2897.894	1165.12
2901.264	1141.12
2904.631	1148.12
2907.996	1124.12
2911.358	1138.12
2914.717	1142.12
2918.073	1143.12
2921.426	1143.12
2924.777	1157.12
2928.124	1163.12
2931.469	1170.12
2934.811	1180.12
2938.15	1199.12
2941.487	1209.12
2944.821	1196.12
2948.152	1200.12
2951.48	1181.12
2954.805	1180.12
2958.128	1175.12
2961.447	1190.12
2964.765	1189.12
2968.079	1194.12
2971.39	1218.12
2974.699	1237.12
2978.005	1250.12
2981.308	1283.12
2984.609	1303.12
2987.907	1321.12
2991.202	1336.12
2994.494	1371.12
2997.784	1378.12
3001.07	1403.12
3004.355	1431.12
3007.636	1448.12
3010.915	1445.12
3014.191	1473.12
3017.464	1474.12
3020.734	1492.12
3024.002	1484.12
3027.267	1481.12
3030.53	1525.12
3033.789	1520.12
3037.046	1530.12
3040.301	1547.12
3043.552	1569.12
3046.801	1597.12
3050.048	1623.12
3053.291	1631.12
3056.532	1667.12
3059.771	1713.12
3063.006	1745.12
3066.239	1780.12
3069.469	1805.12
3072.697	1858.12
3075.922	1902.12
3079.144	1918.12
3082.364	1942.12
3085.581	1995.12
3088.795	2027.12
3092.007	2048.12
3095.216	2109.12
3098.423	2148.12
3101.627	2195.12
3104.828	2197.12
3108.026	2221.12
3111.222	2277.12
3114.416	2316.12
3117.607	2370.12
3120.795	2422.12
3123.98	2474.12
3127.163	2512.12
3130.344	2551.12
3133.521	2604.12
3136.696	2624.12
3139.869	2710.12
3143.039	2724.12
3146.206	2751.12
3149.371	2787.12
3152.533	2813.12
3155.693	2825.12
3158.85	2823.12
3162.005	2840.12
3165.157	2839.12
3168.306	2833.12
3171.453	2856.12
3174.597	2857.12
3177.739	2861.12
3180.878	2870.12
3184.014	2865.12
3187.149	2891.12
3190.28	2898.12
3193.409	2894.12
3196.536	2885.12
3199.659	2903.12
3202.781	2909.12
3205.9	2916.12
3209.016	2921.12
3212.13	2913.12
3215.241	2905.12
3218.35	2867.12
3221.456	2861.12
3224.56	2849.12
3227.661	2799.12
3230.76	2787.12
3233.856	2793.12
3236.95	2749.12
3240.041	2737.12
3243.13	2721.12
3246.216	2703.12
3249.3	2689.12
3252.382	2666.12
3255.46	2675.12
3258.537	2654.12
3261.611	2664.12
3264.682	2635.12
3267.751	2648.12
3270.818	2630.12
3273.882	2609.12
3276.943	2583.12
3280.002	2581.12
3283.059	2556.12
3286.113	2523.12
3289.165	2470.12
3292.214	2431.12
3295.261	2395.12
3298.306	2360.12
3301.348	2332.12
3304.387	2298.12
3307.425	2262.12
3310.459	2228.12
3313.492	2188.12
3316.521	2153.12
3319.549	2115.12
3322.574	2112.12
3325.597	2097.12
3328.617	2064.12
3331.635	2056.12
3334.65	2042.12
3337.663	2029.12
3340.674	2018.12
3343.682	2019.12
3346.688	2005.12
3349.691	1986.12
3352.692	1997.12
3355.691	1967.12
3358.687	1939.12
3361.681	1924.12
3364.673	1907.12
3367.662	1872.12
3370.649	1855.12
3373.633	1852.12
3376.615	1818.12
3379.595	1788.12
3382.572	1774.12
3385.547	1729.12
3388.52	1717.12
3391.49	1674.12
3394.458	1670.12
3397.424	1627.12
3400.387	1631.12
3403.348	1615.12
3406.307	1596.12
3409.263	1579.12
3412.217	1556.12
3415.168	1539.12
3418.118	1539.12
3421.065	1525.12
3424.009	1497.12
3426.951	1485.12
3429.891	1465.12
3432.829	1416.12
3435.764	1394.12
3438.697	1369.12
3441.628	1344.12
3444.557	1289.12
3447.483	1273.12
3450.407	1248.12
3453.328	1207.12
3456.247	1183.12
3459.164	1137.12
3462.079	1098.12
3464.991	1077.12
3467.902	1064.12
3470.809	1025.12
3473.715	982.12
3476.618	960.12
3479.519	949.12
3482.418	922.12
3485.315	882.12
3488.209	867.12
3491.101	850.12
3493.99	819.12
3496.878	807.12
3499.763	780.12
3502.646	748.12
3505.527	738.12
3508.405	723.12
3511.281	685.12
3514.155	636.12
3517.027	628.12
3519.897	589.12
3522.764	576.12
3525.629	544.12
3528.492	514.12
3531.352	477.12
3534.211	463.12
3537.067	444.12
3539.921	422.12
3542.773	379.12
3545.622	361.12
3548.469	355.12
3551.315	319.12
3554.157	311.12
3556.998	294.12
3559.837	273.12
3562.673	256.12
3565.507	257.12
3568.339	233.12
3571.169	217.12
3573.996	205.12
3576.822	193.12
3579.645	180.12
3582.466	153.12
3585.285	137.12
3588.101	141.12
3590.916	122.12
3593.728	104.12
3596.538	94.12
3599.346	73.12
3602.152	75.12
3604.956	53.12
3607.757	48.12
3610.556	38.12
3613.354	28.12
3616.149	21.12
3618.942	1.12
3621.732	-8.88
3624.521	-5.88
3627.307	-11.88
3630.092	-18.88
3632.874	-30.88
3635.654	-34.88
3638.432	-37.88
3641.208	-54.88
3643.982	-69.88
3646.753	-71.88
3649.523	-66.88
3652.29	-73.88
3655.055	-89.88
3657.818	-94.88
3660.579	-96.88
3663.338	-102.88
3666.095	-113.88
3668.849	-120.88
3671.602	-130.88
3674.352	-131.88
3677.101	-142.88
3679.847	-147.88
3682.591	-144.88
3685.333	-146.88
3688.073	-156.88
3690.811	-157.88
3693.547	-150.88
3696.281	-164.88
3699.013	-167.88
3701.742	-175.88
3704.47	-173.88
3707.195	-180.88
3709.919	-184.88
3712.64	-185.88
3715.359	-188.88
3718.076	-189.88
3720.792	-191.88
3723.505	-198.88
3726.216	-204.88
3728.925	-200.88
3731.632	-199.88
3734.336	-202.88
3737.039	-205.88
3739.74	-206.88
3742.439	-202.88
3745.136	-212.88
3747.83	-216.88
3750.523	-219.88
3753.213	-205.88
3755.902	-219.88
3758.589	-213.88
3761.273	-215.88
3763.956	-225.88
3766.636	-218.88
3769.315	-226.88
3771.991	-227.88
3774.665	-229.88
3777.338	-235.88
3780.008	-231.88
3782.677	-226.88
3785.343	-226.88
3788.007	-227.88
3790.67	-228.88
3793.33	-231.88
3795.989	-236.88
3798.645	-242.88
3801.299	-240.88
3803.952	-236.88
3806.602	-235.88
3809.251	-246.88
3811.897	-238.88
3814.542	-239.88
3817.184	-241.88
3819.825	-246.88
3822.463	-245.88
3825.1	-246.88
3827.735	-245.88
3830.367	-241.88
3832.998	-249.88
3835.627	-248.88
3838.253	-252.88
3840.878	-246.88
3843.501	-254.88
3846.122	-253.88
3848.741	-248.88
3851.358	-253.88
3853.973	-246.88
3856.586	-251.88
3859.197	-251.88
3861.806	-259.88
3864.414	-258.88
3867.019	-251.88
3869.622	-257.88
3872.224	-254.88
3874.823	-250.88
3877.421	-246.88
3880.016	-240.88
3882.61	-238.88
3885.202	-229.88
3887.792	-240.88
3890.38	-248.88
3892.966	-257.88
3895.55	-254.88
3898.132	-263.88
3900.713	-264.88
3903.291	-258.88
3905.868	-262.88
3908.442	-260.88
3911.015	-265.88
3913.586	-268.88
3916.155	-264.88
3918.722	-265.88
3921.287	-262.88
3923.85	-266.88
3926.411	-269.88
3928.971	-265.88
3931.528	-269.88
3934.084	-267.88
3936.638	-269.88
3939.19	-272.88
3941.74	-266.88
3944.288	-268.88
3946.834	-265.88
3949.378	-270.88
3951.921	-267.88
3954.462	-266.88
3957	-271.88
3959.537	-270.88
3962.072	-264.88
3964.606	-261.88
3967.137	-270.88
3969.667	-264.88
3972.194	-265.88
3974.72	-259.88
3977.244	-259.88
3979.766	-259.88
3982.286	-265.88
3984.805	-268.88
3987.321	-272.88
3989.836	-261.88
3992.349	-260.88
3994.86	-262.88
3997.369	-263.88
3999.877	-261.88
4002.382	-267.88
4004.886	-261.88
4007.388	-263.88
4009.888	-264.88
4012.386	-266.88
4014.883	-266.88
4017.377	-265.88
4019.87	-263.88
4022.361	-261.88
4024.85	-264.88
4027.338	-267.88
4029.823	-266.88
4032.307	-267.88
4034.789	-273.88
4037.269	-268.88
4039.747	-266.88
4042.224	-268.88
4044.699	-260.88
4047.172	-262.88
4049.643	-272.88
4052.112	-265.88
4054.58	-268.88
4057.046	-267.88
4059.51	-267.88
4061.972	-267.88
4064.432	-260.88
4066.891	-271.88
4069.348	-270.88
4071.803	-270.88
4074.256	-268.88
4076.708	-266.88
4079.158	-269.88
4081.606	-270.88
4084.052	-263.88
4086.497	-268.88
4088.939	-265.88
4091.38	-271.88
4093.819	-269.88
4096.257	-291.88
4098.693	-290.88
4101.127	-292.88
4103.559	-288.88
4105.989	-180.88
4108.418	-174.88
4110.845	-166.88
4113.27	-157.88
4115.694	-138.88
4118.115	-112.88
4120.535	-271.88
4122.954	-272.88
4125.37	-270.88
4127.785	-272.88
4130.198	-269.88
4132.609	-265.88
4135.019	-287.88
4137.427	-288.88
4139.833	-292.88
4142.237	-290.88
