Data from Learning_RamanShift_04.txt Node
Date: Sun Mar 19 13:15:48 IST 2017
User: aro
Spectrometer: QEPB0276
Trigger mode: 0
Integration Time (sec): 5.000000E0
Scans to average: 1
Electric dark correction enabled: true
Nonlinearity correction enabled: false
Boxcar width: 0
XAxis mode: Raman Shifts
Number of Pixels in Spectrum: 1044
>>>>>Begin Spectral Data<<<<<
160.701	-6.75
166.742	-0.75
172.777	17.25
178.805	78.25
184.826	208.25
190.841	440.25
196.849	697.25
202.85	842.25
208.845	872.25
214.833	869.25
220.815	826.25
226.789	810.25
232.758	807.25
238.719	777.25
244.674	766.25
250.623	729.25
256.565	710.25
262.5	675.25
268.429	661.25
274.351	652.25
280.267	630.25
286.176	617.25
292.079	597.25
297.975	589.25
303.865	573.25
309.748	559.25
315.625	550.25
321.495	546.25
327.359	524.25
333.217	516.25
339.068	519.25
344.912	516.25
350.751	505.25
356.583	507.25
362.408	502.25
368.227	502.25
374.04	501.25
379.847	493.25
385.647	496.25
391.44	504.25
397.228	500.25
403.009	493.25
408.784	507.25
414.553	505.25
420.315	507.25
426.071	508.25
431.821	498.25
437.565	495.25
443.302	491.25
449.033	499.25
454.758	487.25
460.477	494.25
466.189	494.25
471.896	500.25
477.596	494.25
483.29	487.25
488.978	491.25
494.66	478.25
500.335	479.25
506.005	470.25
511.668	465.25
517.325	467.25
522.977	452.25
528.622	458.25
534.261	457.25
539.894	446.25
545.521	443.25
551.141	438.25
556.756	439.25
562.365	439.25
567.968	444.25
573.565	438.25
579.155	438.25
584.74	443.25
590.319	432.25
595.892	438.25
601.459	438.25
607.02	417.25
612.575	427.25
618.124	424.25
623.667	418.25
629.204	411.25
634.735	423.25
640.261	411.25
645.781	404.25
651.294	415.25
656.802	406.25
662.304	417.25
667.8	405.25
673.29	410.25
678.775	412.25
684.254	409.25
689.726	412.25
695.193	401.25
700.655	405.25
706.11	393.25
711.56	392.25
717.004	401.25
722.442	389.25
727.874	386.25
733.301	396.25
738.722	397.25
744.137	391.25
749.547	388.25
754.951	392.25
760.349	393.25
765.741	389.25
771.128	383.25
776.509	399.25
781.885	394.25
787.254	399.25
792.618	400.25
797.977	389.25
803.33	384.25
808.677	397.25
814.019	397.25
819.355	387.25
824.686	386.25
830.011	387.25
835.33	382.25
840.644	377.25
845.952	381.25
851.255	375.25
856.552	380.25
861.844	383.25
867.13	379.25
872.41	376.25
877.686	388.25
882.955	380.25
888.219	369.25
893.478	368.25
898.731	365.25
903.979	360.25
909.221	359.25
914.458	364.25
919.69	365.25
924.916	357.25
930.136	360.25
935.351	359.25
940.561	369.25
945.766	349.25
950.965	358.25
956.158	357.25
961.347	359.25
966.529	347.25
971.707	344.25
976.879	340.25
982.046	344.25
987.208	341.25
992.364	343.25
997.515	341.25
1002.66	345.25
1007.801	351.25
1012.936	354.25
1018.066	352.25
1023.19	353.25
1028.309	359.25
1033.423	355.25
1038.532	359.25
1043.636	352.25
1048.734	358.25
1053.827	349.25
1058.915	350.25
1063.998	348.25
1069.075	354.25
1074.147	343.25
1079.214	348.25
1084.276	361.25
1089.333	357.25
1094.385	356.25
1099.431	362.25
1104.472	361.25
1109.509	358.25
1114.54	351.25
1119.565	355.25
1124.586	350.25
1129.602	344.25
1134.613	345.25
1139.618	343.25
1144.619	341.25
1149.614	349.25
1154.604	349.25
1159.589	356.25
1164.57	356.25
1169.545	352.25
1174.515	354.25
1179.48	348.25
1184.44	351.25
1189.395	345.25
1194.345	347.25
1199.29	346.25
1204.23	348.25
1209.165	348.25
1214.095	347.25
1219.021	355.25
1223.941	359.25
1228.856	363.25
1233.766	359.25
1238.672	351.25
1243.572	364.25
1248.467	362.25
1253.358	356.25
1258.244	356.25
1263.124	347.25
1268	339.25
1272.871	333.25
1277.737	333.25
1282.599	339.25
1287.455	328.25
1292.306	341.25
1297.153	351.25
1301.995	344.25
1306.832	344.25
1311.664	349.25
1316.491	353.25
1321.314	350.25
1326.132	343.25
1330.945	333.25
1335.753	329.25
1340.556	335.25
1345.354	318.25
1350.148	320.25
1354.937	315.25
1359.722	317.25
1364.501	318.25
1369.276	332.25
1374.046	340.25
1378.811	350.25
1383.572	340.25
1388.327	346.25
1393.079	343.25
1397.825	335.25
1402.567	330.25
1407.304	320.25
1412.036	309.25
1416.764	312.25
1421.487	317.25
1426.205	316.25
1430.919	324.25
1435.628	326.25
1440.333	332.25
1445.032	329.25
1449.727	326.25
1454.418	325.25
1459.104	326.25
1463.785	327.25
1468.462	322.25
1473.134	321.25
1477.802	314.25
1482.465	313.25
1487.123	324.25
1491.777	327.25
1496.426	328.25
1501.071	325.25
1505.711	330.25
1510.347	329.25
1514.978	337.25
1519.604	338.25
1524.226	340.25
1528.844	346.25
1533.457	342.25
1538.065	346.25
1542.669	342.25
1547.269	336.25
1551.864	341.25
1556.454	337.25
1561.041	336.25
1565.622	340.25
1570.199	340.25
1574.772	342.25
1579.34	340.25
1583.904	346.25
1588.464	346.25
1593.019	352.25
1597.569	348.25
1602.115	356.25
1606.657	346.25
1611.195	352.25
1615.728	350.25
1620.256	351.25
1624.78	359.25
1629.3	364.25
1633.816	360.25
1638.327	363.25
1642.834	369.25
1647.336	380.25
1651.834	378.25
1656.328	382.25
1660.817	373.25
1665.302	373.25
1669.783	363.25
1674.259	359.25
1678.732	353.25
1683.199	338.25
1687.663	323.25
1692.122	321.25
1696.577	320.25
1701.028	314.25
1705.474	324.25
1709.917	319.25
1714.355	316.25
1718.788	310.25
1723.218	315.25
1727.643	302.25
1732.064	293.25
1736.481	287.25
1740.893	285.25
1745.301	279.25
1749.705	273.25
1754.105	261.25
1758.501	269.25
1762.893	262.25
1767.28	259.25
1771.663	253.25
1776.042	253.25
1780.417	255.25
1784.787	263.25
1789.154	259.25
1793.516	266.25
1797.874	267.25
1802.228	268.25
1806.578	273.25
1810.924	273.25
1815.266	260.25
1819.603	266.25
1823.937	266.25
1828.266	252.25
1832.591	259.25
1836.913	249.25
1841.23	248.25
1845.543	245.25
1849.852	248.25
1854.156	251.25
1858.457	244.25
1862.754	250.25
1867.047	246.25
1871.335	253.25
1875.62	246.25
1879.9	243.25
1884.177	246.25
1888.449	245.25
1892.718	243.25
1896.982	247.25
1901.243	242.25
1905.499	246.25
1909.752	244.25
1914	256.25
1918.245	250.25
1922.485	240.25
1926.722	242.25
1930.954	248.25
1935.183	247.25
1939.408	263.25
1943.628	256.25
1947.845	259.25
1952.058	253.25
1956.267	259.25
1960.472	245.25
1964.673	248.25
1968.87	242.25
1973.063	244.25
1977.252	245.25
1981.438	237.25
1985.619	247.25
1989.797	248.25
1993.971	243.25
1998.14	245.25
2002.306	241.25
2006.469	239.25
2010.627	235.25
2014.781	239.25
2018.932	234.25
2023.078	249.25
2027.221	240.25
2031.36	236.25
2035.495	237.25
2039.627	242.25
2043.754	227.25
2047.878	222.25
2051.998	231.25
2056.114	225.25
2060.226	232.25
2064.334	217.25
2068.439	230.25
2072.54	226.25
2076.637	235.25
2080.73	229.25
2084.82	234.25
2088.906	230.25
2092.988	227.25
2097.066	233.25
2101.14	229.25
2105.211	231.25
2109.278	228.25
2113.342	232.25
2117.401	234.25
2121.457	226.25
2125.509	233.25
2129.558	229.25
2133.602	225.25
2137.643	227.25
2141.681	226.25
2145.714	218.25
2149.744	221.25
2153.77	216.25
2157.793	221.25
2161.812	215.25
2165.827	210.25
2169.838	212.25
2173.846	210.25
2177.851	203.25
2181.851	201.25
2185.848	200.25
2189.841	203.25
2193.831	199.25
2197.817	196.25
2201.799	193.25
2205.778	188.25
2209.753	204.25
2213.725	188.25
2217.693	195.25
2221.657	193.25
2225.618	197.25
2229.575	201.25
2233.529	191.25
2237.479	187.25
2241.425	189.25
2245.368	190.25
2249.307	189.25
2253.243	179.25
2257.175	183.25
2261.104	189.25
2265.029	181.25
2268.95	176.25
2272.868	177.25
2276.783	182.25
2280.694	176.25
2284.601	168.25
2288.505	169.25
2292.405	174.25
2296.302	172.25
2300.195	172.25
2304.085	167.25
2307.971	163.25
2311.854	156.25
2315.734	147.25
2319.609	151.25
2323.482	147.25
2327.351	149.25
2331.216	155.25
2335.078	149.25
2338.937	142.25
2342.792	149.25
2346.643	151.25
2350.492	144.25
2354.336	153.25
2358.178	148.25
2362.015	148.25
2365.85	153.25
2369.681	153.25
2373.508	148.25
2377.333	149.25
2381.153	152.25
2384.971	142.25
2388.785	144.25
2392.595	149.25
2396.402	140.25
2400.206	146.25
2404.007	144.25
2407.804	147.25
2411.597	141.25
2415.388	144.25
2419.174	139.25
2422.958	135.25
2426.738	138.25
2430.515	136.25
2434.289	140.25
2438.059	140.25
2441.825	139.25
2445.589	138.25
2449.349	135.25
2453.106	137.25
2456.859	135.25
2460.61	128.25
2464.356	131.25
2468.1	131.25
2471.84	132.25
2475.577	135.25
2479.311	120.25
2483.041	130.25
2486.768	131.25
2490.492	127.25
2494.213	129.25
2497.93	126.25
2501.644	125.25
2505.355	131.25
2509.062	126.25
2512.766	124.25
2516.467	126.25
2520.165	128.25
2523.859	121.25
2527.551	127.25
2531.239	131.25
2534.923	128.25
2538.605	125.25
2542.283	128.25
2545.958	122.25
2549.63	133.25
2553.299	117.25
2556.964	119.25
2560.626	124.25
2564.285	122.25
2567.941	126.25
2571.594	119.25
2575.243	120.25
2578.89	117.25
2582.533	113.25
2586.173	119.25
2589.809	112.25
2593.443	115.25
2597.073	117.25
2600.701	110.25
2604.325	118.25
2607.946	116.25
2611.564	113.25
2615.178	115.25
2618.79	117.25
2622.398	107.25
2626.004	108.25
2629.606	106.25
2633.205	110.25
2636.801	112.25
2640.394	106.25
2643.983	103.25
2647.57	105.25
2651.153	100.25
2654.734	103.25
2658.311	106.25
2661.885	103.25
2665.456	101.25
2669.025	99.25
2672.589	99.25
2676.151	95.25
2679.71	102.25
2683.266	95.25
2686.819	94.25
2690.368	95.25
2693.915	93.25
2697.458	92.25
2700.999	88.25
2704.536	85.25
2708.071	84.25
2711.602	82.25
2715.13	89.25
2718.656	89.25
2722.178	84.25
2725.697	87.25
2729.214	89.25
2732.727	85.25
2736.237	78.25
2739.744	79.25
2743.249	82.25
2746.75	83.25
2750.248	93.25
2753.743	92.25
2757.236	91.25
2760.725	88.25
2764.211	89.25
2767.695	88.25
2771.175	87.25
2774.652	83.25
2778.127	85.25
2781.598	83.25
2785.067	88.25
2788.532	85.25
2791.995	85.25
2795.455	89.25
2798.911	83.25
2802.365	80.25
2805.816	83.25
2809.264	84.25
2812.709	80.25
2816.151	81.25
2819.59	76.25
2823.026	82.25
2826.46	82.25
2829.89	80.25
2833.318	84.25
2836.742	84.25
2840.164	79.25
2843.583	81.25
2846.999	83.25
2850.412	85.25
2853.822	81.25
2857.229	80.25
2860.634	75.25
2864.035	78.25
2867.434	86.25
2870.83	83.25
2874.223	85.25
2877.613	90.25
2881	84.25
2884.385	81.25
2887.766	83.25
2891.145	80.25
2894.521	78.25
2897.894	79.25
2901.264	83.25
2904.631	86.25
2907.996	83.25
2911.358	86.25
2914.717	78.25
2918.073	82.25
2921.426	74.25
2924.777	77.25
2928.124	79.25
2931.469	82.25
2934.811	83.25
2938.15	88.25
2941.487	90.25
2944.821	89.25
2948.152	91.25
2951.48	85.25
2954.805	76.25
2958.128	81.25
2961.447	80.25
2964.765	86.25
2968.079	87.25
2971.39	88.25
2974.699	92.25
2978.005	93.25
2981.308	90.25
2984.609	89.25
2987.907	94.25
2991.202	95.25
2994.494	91.25
2997.784	100.25
3001.07	100.25
3004.355	104.25
3007.636	105.25
3010.915	106.25
3014.191	110.25
3017.464	102.25
3020.734	104.25
3024.002	105.25
3027.267	108.25
3030.53	108.25
3033.789	112.25
3037.046	113.25
3040.301	111.25
3043.552	109.25
3046.801	118.25
3050.048	111.25
3053.291	112.25
3056.532	121.25
3059.771	119.25
3063.006	124.25
3066.239	133.25
3069.469	130.25
3072.697	138.25
3075.922	133.25
3079.144	134.25
3082.364	141.25
3085.581	149.25
3088.795	151.25
3092.007	144.25
3095.216	151.25
3098.423	161.25
3101.627	160.25
3104.828	165.25
3108.026	163.25
3111.222	164.25
3114.416	170.25
3117.607	170.25
3120.795	178.25
3123.98	179.25
3127.163	182.25
3130.344	184.25
3133.521	188.25
3136.696	195.25
3139.869	200.25
3143.039	199.25
3146.206	207.25
3149.371	203.25
3152.533	207.25
3155.693	200.25
3158.85	211.25
3162.005	212.25
3165.157	211.25
3168.306	214.25
3171.453	198.25
3174.597	210.25
3177.739	213.25
3180.878	212.25
3184.014	210.25
3187.149	219.25
3190.28	205.25
3193.409	205.25
3196.536	208.25
3199.659	210.25
3202.781	208.25
3205.9	209.25
3209.016	212.25
3212.13	207.25
3215.241	213.25
3218.35	210.25
3221.456	210.25
3224.56	205.25
3227.661	204.25
3230.76	191.25
3233.856	192.25
3236.95	198.25
3240.041	199.25
3243.13	193.25
3246.216	193.25
3249.3	204.25
3252.382	193.25
3255.46	194.25
3258.537	192.25
3261.611	187.25
3264.682	185.25
3267.751	184.25
3270.818	186.25
3273.882	186.25
3276.943	187.25
3280.002	186.25
3283.059	184.25
3286.113	182.25
3289.165	171.25
3292.214	171.25
3295.261	175.25
3298.306	168.25
3301.348	167.25
3304.387	162.25
3307.425	166.25
3310.459	158.25
3313.492	158.25
3316.521	159.25
3319.549	157.25
3322.574	155.25
3325.597	153.25
3328.617	154.25
3331.635	153.25
3334.65	148.25
3337.663	150.25
3340.674	136.25
3343.682	143.25
3346.688	142.25
3349.691	139.25
3352.692	138.25
3355.691	139.25
3358.687	138.25
3361.681	136.25
3364.673	135.25
3367.662	134.25
3370.649	127.25
3373.633	131.25
3376.615	126.25
3379.595	132.25
3382.572	124.25
3385.547	122.25
3388.52	125.25
3391.49	121.25
3394.458	119.25
3397.424	119.25
3400.387	115.25
3403.348	112.25
3406.307	109.25
3409.263	107.25
3412.217	107.25
3415.168	104.25
3418.118	110.25
3421.065	119.25
3424.009	111.25
3426.951	104.25
3429.891	104.25
3432.829	100.25
3435.764	93.25
3438.697	94.25
3441.628	95.25
3444.557	91.25
3447.483	86.25
3450.407	86.25
3453.328	86.25
3456.247	82.25
3459.164	82.25
3462.079	76.25
3464.991	72.25
3467.902	68.25
3470.809	74.25
3473.715	68.25
3476.618	62.25
3479.519	68.25
3482.418	65.25
3485.315	62.25
3488.209	63.25
3491.101	57.25
3493.99	56.25
3496.878	54.25
3499.763	54.25
3502.646	54.25
3505.527	54.25
3508.405	49.25
3511.281	43.25
3514.155	41.25
3517.027	35.25
3519.897	38.25
3522.764	39.25
3525.629	35.25
3528.492	37.25
3531.352	26.25
3534.211	33.25
3537.067	28.25
3539.921	29.25
3542.773	23.25
3545.622	22.25
3548.469	23.25
3551.315	17.25
3554.157	18.25
3556.998	21.25
3559.837	17.25
3562.673	20.25
3565.507	18.25
3568.339	17.25
3571.169	8.25
3573.996	15.25
3576.822	7.25
3579.645	9.25
3582.466	5.25
3585.285	6.25
3588.101	4.25
3590.916	5.25
3593.728	3.25
3596.538	2.25
3599.346	0.25
3602.152	3.25
3604.956	0.25
3607.757	-0.75
3610.556	-1.75
3613.354	0.25
3616.149	-3.75
3618.942	-2.75
3621.732	-4.75
3624.521	-3.75
3627.307	-1.75
3630.092	-4.75
3632.874	-5.75
3635.654	-5.75
3638.432	-4.75
3641.208	-7.75
3643.982	-8.75
3646.753	-10.75
3649.523	-6.75
3652.29	-8.75
3655.055	-6.75
3657.818	-7.75
3660.579	-10.75
3663.338	-7.75
3666.095	-7.75
3668.849	-12.75
3671.602	-13.75
3674.352	-17.75
3677.101	-15.75
3679.847	-14.75
3682.591	-16.75
3685.333	-9.75
3688.073	-10.75
3690.811	-16.75
3693.547	-10.75
3696.281	-13.75
3699.013	-16.75
3701.742	-18.75
3704.47	-14.75
3707.195	-16.75
3709.919	-18.75
3712.64	-15.75
3715.359	-17.75
3718.076	-13.75
3720.792	-16.75
3723.505	-14.75
3726.216	-16.75
3728.925	-20.75
3731.632	-17.75
3734.336	-18.75
3737.039	-16.75
3739.74	-17.75
3742.439	-18.75
3745.136	-19.75
3747.83	-19.75
3750.523	-14.75
3753.213	-17.75
3755.902	-17.75
3758.589	-17.75
3761.273	-22.75
3763.956	-16.75
3766.636	-17.75
3769.315	-21.75
3771.991	-22.75
3774.665	-22.75
3777.338	-20.75
3780.008	-18.75
3782.677	-15.75
3785.343	-16.75
3788.007	-19.75
3790.67	-18.75
3793.33	-18.75
3795.989	-19.75
3798.645	-21.75
3801.299	-25.75
3803.952	-18.75
3806.602	-13.75
3809.251	-20.75
3811.897	-13.75
3814.542	-18.75
3817.184	-17.75
3819.825	-21.75
3822.463	-25.75
3825.1	-23.75
3827.735	-22.75
3830.367	-19.75
3832.998	-22.75
3835.627	-18.75
3838.253	-20.75
3840.878	-20.75
3843.501	-22.75
3846.122	-21.75
3848.741	-17.75
3851.358	-21.75
3853.973	-19.75
3856.586	-20.75
3859.197	-18.75
3861.806	-20.75
3864.414	-21.75
3867.019	-19.75
3869.622	-22.75
3872.224	-22.75
3874.823	-20.75
3877.421	-19.75
3880.016	-18.75
3882.61	-20.75
3885.202	-19.75
3887.792	-20.75
3890.38	-18.75
3892.966	-24.75
3895.55	-22.75
3898.132	-16.75
3900.713	-18.75
3903.291	-20.75
3905.868	-22.75
3908.442	-25.75
3911.015	-22.75
3913.586	-28.75
3916.155	-20.75
3918.722	-20.75
3921.287	-16.75
3923.85	-18.75
3926.411	-21.75
3928.971	-19.75
3931.528	-20.75
3934.084	-23.75
3936.638	-21.75
3939.19	-25.75
3941.74	-20.75
3944.288	-19.75
3946.834	-19.75
3949.378	-19.75
3951.921	-19.75
3954.462	-20.75
3957	-22.75
3959.537	-24.75
3962.072	-24.75
3964.606	-21.75
3967.137	-23.75
3969.667	-19.75
3972.194	-21.75
3974.72	-19.75
3977.244	-22.75
3979.766	-17.75
3982.286	-24.75
3984.805	-19.75
3987.321	-23.75
3989.836	-19.75
3992.349	-22.75
3994.86	-22.75
3997.369	-20.75
3999.877	-20.75
4002.382	-22.75
4004.886	-20.75
4007.388	-23.75
4009.888	-21.75
4012.386	-19.75
4014.883	-24.75
4017.377	-22.75
4019.87	-19.75
4022.361	-23.75
4024.85	-20.75
4027.338	-24.75
4029.823	-21.75
4032.307	-22.75
4034.789	-21.75
4037.269	-24.75
4039.747	-25.75
4042.224	-23.75
4044.699	-20.75
4047.172	-21.75
4049.643	-20.75
4052.112	-20.75
4054.58	-23.75
4057.046	-24.75
4059.51	-19.75
4061.972	-21.75
4064.432	-20.75
4066.891	-21.75
4069.348	-20.75
4071.803	-25.75
4074.256	-22.75
4076.708	-19.75
4079.158	-25.75
4081.606	-22.75
4084.052	-19.75
4086.497	-20.75
4088.939	-22.75
4091.38	-25.75
4093.819	-25.75
4096.257	-21.75
4098.693	-19.75
4101.127	-20.75
4103.559	-22.75
4105.989	-12.75
4108.418	-16.75
4110.845	-19.75
4113.27	-16.75
4115.694	-16.75
4118.115	-11.75
4120.535	-22.75
4122.954	-25.75
4125.37	-19.75
4127.785	-22.75
4130.198	-22.75
4132.609	-17.75
4135.019	-21.75
4137.427	-21.75
4139.833	-21.75
4142.237	-22.75
