Data from B.sub_water_1000CFUA3_RamanShift_1.txt Node
Date: Wed Mar 08 15:06:42 IST 2017
User: aro
Spectrometer: QEPB0276
Trigger mode: 0
Integration Time (sec): 5.000000E0
Scans to average: 1
Electric dark correction enabled: true
Nonlinearity correction enabled: false
Boxcar width: 0
XAxis mode: Raman Shifts
Number of Pixels in Spectrum: 1044
>>>>>Begin Spectral Data<<<<<
160.701	-34.38
166.742	0.62
172.777	81.62
178.805	362.62
184.826	984.62
190.841	2046.62
196.849	3231.62
202.85	3991.62
208.845	4164.62
214.833	4009.62
220.815	3850.62
226.789	3729.62
232.758	3645.62
238.719	3495.62
244.674	3386.62
250.623	3211.62
256.565	3079.62
262.5	2950.62
268.429	2787.62
274.351	2654.62
280.267	2566.62
286.176	2469.62
292.079	2388.62
297.975	2299.62
303.865	2244.62
309.748	2198.62
315.625	2148.62
321.495	2105.62
327.359	2069.62
333.217	2035.62
339.068	2018.62
344.912	2008.62
350.751	2005.62
356.583	1979.62
362.408	1994.62
368.227	2007.62
374.04	1985.62
379.847	2010.62
385.647	2027.62
391.44	2034.62
397.228	2052.62
403.009	2045.62
408.784	2063.62
414.553	2076.62
420.315	2073.62
426.071	2088.62
431.821	2074.62
437.565	2063.62
443.302	2040.62
449.033	2061.62
454.758	2057.62
460.477	2023.62
466.189	2014.62
471.896	2016.62
477.596	1991.62
483.29	1962.62
488.978	1976.62
494.66	1950.62
500.335	1927.62
506.005	1900.62
511.668	1858.62
517.325	1789.62
522.977	1764.62
528.622	1748.62
534.261	1718.62
539.894	1694.62
545.521	1686.62
551.141	1671.62
556.756	1681.62
562.365	1650.62
567.968	1648.62
573.565	1635.62
579.155	1614.62
584.74	1608.62
590.319	1598.62
595.892	1572.62
601.459	1567.62
607.02	1558.62
612.575	1562.62
618.124	1525.62
623.667	1497.62
629.204	1490.62
634.735	1470.62
640.261	1478.62
645.781	1451.62
651.294	1435.62
656.802	1431.62
662.304	1422.62
667.8	1424.62
673.29	1415.62
678.775	1420.62
684.254	1401.62
689.726	1384.62
695.193	1360.62
700.655	1373.62
706.11	1357.62
711.56	1354.62
717.004	1329.62
722.442	1327.62
727.874	1315.62
733.301	1305.62
738.722	1302.62
744.137	1293.62
749.547	1289.62
754.951	1279.62
760.349	1279.62
765.741	1284.62
771.128	1288.62
776.509	1263.62
781.885	1260.62
787.254	1248.62
792.618	1244.62
797.977	1250.62
803.33	1226.62
808.677	1207.62
814.019	1200.62
819.355	1196.62
824.686	1178.62
830.011	1173.62
835.33	1156.62
840.644	1145.62
845.952	1138.62
851.255	1125.62
856.552	1120.62
861.844	1111.62
867.13	1115.62
872.41	1095.62
877.686	1084.62
882.955	1067.62
888.219	1050.62
893.478	1027.62
898.731	1017.62
903.979	995.62
909.221	981.62
914.458	973.62
919.69	955.62
924.916	960.62
930.136	955.62
935.351	957.62
940.561	932.62
945.766	937.62
950.965	927.62
956.158	933.62
961.347	920.62
966.529	900.62
971.707	872.62
976.879	871.62
982.046	862.62
987.208	841.62
992.364	860.62
997.515	844.62
1002.66	864.62
1007.801	877.62
1012.936	875.62
1018.066	874.62
1023.19	889.62
1028.309	875.62
1033.423	876.62
1038.532	878.62
1043.636	868.62
1048.734	855.62
1053.827	852.62
1058.915	823.62
1063.998	826.62
1069.075	834.62
1074.147	827.62
1079.214	842.62
1084.276	833.62
1089.333	838.62
1094.385	840.62
1099.431	848.62
1104.472	844.62
1109.509	836.62
1114.54	824.62
1119.565	827.62
1124.586	807.62
1129.602	807.62
1134.613	805.62
1139.618	808.62
1144.619	788.62
1149.614	789.62
1154.604	807.62
1159.589	803.62
1164.57	798.62
1169.545	811.62
1174.515	800.62
1179.48	811.62
1184.44	799.62
1189.395	788.62
1194.345	799.62
1199.29	772.62
1204.23	780.62
1209.165	785.62
1214.095	787.62
1219.021	802.62
1223.941	798.62
1228.856	801.62
1233.766	808.62
1238.672	803.62
1243.572	797.62
1248.467	808.62
1253.358	781.62
1258.244	770.62
1263.124	767.62
1268	758.62
1272.871	743.62
1277.737	745.62
1282.599	724.62
1287.455	739.62
1292.306	744.62
1297.153	737.62
1301.995	746.62
1306.832	753.62
1311.664	758.62
1316.491	753.62
1321.314	753.62
1326.132	733.62
1330.945	719.62
1335.753	699.62
1340.556	680.62
1345.354	682.62
1350.148	666.62
1354.937	652.62
1359.722	668.62
1364.501	684.62
1369.276	686.62
1374.046	701.62
1378.811	712.62
1383.572	692.62
1388.327	697.62
1393.079	688.62
1397.825	672.62
1402.567	659.62
1407.304	661.62
1412.036	659.62
1416.764	641.62
1421.487	645.62
1426.205	641.62
1430.919	641.62
1435.628	648.62
1440.333	653.62
1445.032	654.62
1449.727	658.62
1454.418	661.62
1459.104	654.62
1463.785	649.62
1468.462	650.62
1473.134	633.62
1477.802	631.62
1482.465	636.62
1487.123	624.62
1491.777	640.62
1496.426	641.62
1501.071	668.62
1505.711	675.62
1510.347	679.62
1514.978	688.62
1519.604	711.62
1524.226	704.62
1528.844	707.62
1533.457	708.62
1538.065	719.62
1542.669	725.62
1547.269	713.62
1551.864	726.62
1556.454	720.62
1561.041	733.62
1565.622	733.62
1570.199	747.62
1574.772	764.62
1579.34	769.62
1583.904	791.62
1588.464	798.62
1593.019	826.62
1597.569	835.62
1602.115	860.62
1606.657	858.62
1611.195	867.62
1615.728	884.62
1620.256	898.62
1624.78	907.62
1629.3	943.62
1633.816	952.62
1638.327	966.62
1642.834	988.62
1647.336	981.62
1651.834	986.62
1656.328	974.62
1660.817	954.62
1665.302	943.62
1669.783	918.62
1674.259	892.62
1678.732	848.62
1683.199	819.62
1687.663	775.62
1692.122	729.62
1696.577	710.62
1701.028	694.62
1705.474	688.62
1709.917	675.62
1714.355	654.62
1718.788	614.62
1723.218	583.62
1727.643	571.62
1732.064	554.62
1736.481	526.62
1740.893	513.62
1745.301	495.62
1749.705	484.62
1754.105	464.62
1758.501	441.62
1762.893	428.62
1767.28	412.62
1771.663	407.62
1776.042	403.62
1780.417	404.62
1784.787	402.62
1789.154	398.62
1793.516	404.62
1797.874	417.62
1802.228	415.62
1806.578	411.62
1810.924	409.62
1815.266	408.62
1819.603	397.62
1823.937	380.62
1828.266	369.62
1832.591	361.62
1836.913	356.62
1841.23	362.62
1845.543	350.62
1849.852	352.62
1854.156	355.62
1858.457	359.62
1862.754	348.62
1867.047	350.62
1871.335	361.62
1875.62	356.62
1879.9	360.62
1884.177	354.62
1888.449	350.62
1892.718	363.62
1896.982	356.62
1901.243	349.62
1905.499	349.62
1909.752	352.62
1914	344.62
1918.245	355.62
1922.485	355.62
1926.722	358.62
1930.954	366.62
1935.183	370.62
1939.408	367.62
1943.628	365.62
1947.845	372.62
1952.058	375.62
1956.267	372.62
1960.472	360.62
1964.673	359.62
1968.87	348.62
1973.063	359.62
1977.252	353.62
1981.438	346.62
1985.619	343.62
1989.797	350.62
1993.971	344.62
1998.14	350.62
2002.306	339.62
2006.469	356.62
2010.627	365.62
2014.781	360.62
2018.932	350.62
2023.078	349.62
2027.221	344.62
2031.36	345.62
2035.495	335.62
2039.627	341.62
2043.754	335.62
2047.878	340.62
2051.998	340.62
2056.114	342.62
2060.226	344.62
2064.334	354.62
2068.439	347.62
2072.54	353.62
2076.637	353.62
2080.73	341.62
2084.82	363.62
2088.906	357.62
2092.988	355.62
2097.066	360.62
2101.14	350.62
2105.211	358.62
2109.278	349.62
2113.342	353.62
2117.401	345.62
2121.457	350.62
2125.509	346.62
2129.558	348.62
2133.602	351.62
2137.643	348.62
2141.681	342.62
2145.714	333.62
2149.744	337.62
2153.77	322.62
2157.793	324.62
2161.812	312.62
2165.827	314.62
2169.838	308.62
2173.846	295.62
2177.851	299.62
2181.851	291.62
2185.848	292.62
2189.841	288.62
2193.831	278.62
2197.817	266.62
2201.799	265.62
2205.778	276.62
2209.753	268.62
2213.725	265.62
2217.693	272.62
2221.657	264.62
2225.618	266.62
2229.575	259.62
2233.529	254.62
2237.479	253.62
2241.425	247.62
2245.368	245.62
2249.307	239.62
2253.243	240.62
2257.175	241.62
2261.104	226.62
2265.029	228.62
2268.95	220.62
2272.868	219.62
2276.783	212.62
2280.694	207.62
2284.601	202.62
2288.505	203.62
2292.405	209.62
2296.302	200.62
2300.195	195.62
2304.085	185.62
2307.971	187.62
2311.854	180.62
2315.734	173.62
2319.609	168.62
2323.482	165.62
2327.351	169.62
2331.216	169.62
2335.078	171.62
2338.937	160.62
2342.792	153.62
2346.643	150.62
2350.492	150.62
2354.336	151.62
2358.178	151.62
2362.015	150.62
2365.85	143.62
2369.681	156.62
2373.508	144.62
2377.333	152.62
2381.153	149.62
2384.971	141.62
2388.785	142.62
2392.595	141.62
2396.402	137.62
2400.206	137.62
2404.007	125.62
2407.804	132.62
2411.597	131.62
2415.388	135.62
2419.174	137.62
2422.958	133.62
2426.738	131.62
2430.515	128.62
2434.289	135.62
2438.059	128.62
2441.825	123.62
2445.589	118.62
2449.349	119.62
2453.106	117.62
2456.859	115.62
2460.61	109.62
2464.356	107.62
2468.1	109.62
2471.84	105.62
2475.577	106.62
2479.311	109.62
2483.041	108.62
2486.768	111.62
2490.492	109.62
2494.213	109.62
2497.93	108.62
2501.644	110.62
2505.355	105.62
2509.062	113.62
2512.766	106.62
2516.467	106.62
2520.165	100.62
2523.859	98.62
2527.551	100.62
2531.239	95.62
2534.923	100.62
2538.605	98.62
2542.283	94.62
2545.958	89.62
2549.63	95.62
2553.299	99.62
2556.964	97.62
2560.626	101.62
2564.285	97.62
2567.941	91.62
2571.594	97.62
2575.243	89.62
2578.89	83.62
2582.533	87.62
2586.173	82.62
2589.809	79.62
2593.443	87.62
2597.073	81.62
2600.701	84.62
2604.325	82.62
2607.946	90.62
2611.564	84.62
2615.178	84.62
2618.79	79.62
2622.398	83.62
2626.004	75.62
2629.606	77.62
2633.205	71.62
2636.801	70.62
2640.394	75.62
2643.983	69.62
2647.57	68.62
2651.153	71.62
2654.734	72.62
2658.311	66.62
2661.885	66.62
2665.456	72.62
2669.025	62.62
2672.589	65.62
2676.151	62.62
2679.71	60.62
2683.266	60.62
2686.819	57.62
2690.368	57.62
2693.915	54.62
2697.458	49.62
2700.999	51.62
2704.536	53.62
2708.071	55.62
2711.602	57.62
2715.13	54.62
2718.656	57.62
2722.178	51.62
2725.697	46.62
2729.214	53.62
2732.727	45.62
2736.237	54.62
2739.744	52.62
2743.249	55.62
2746.75	54.62
2750.248	55.62
2753.743	65.62
2757.236	63.62
2760.725	60.62
2764.211	58.62
2767.695	60.62
2771.175	64.62
2774.652	67.62
2778.127	68.62
2781.598	61.62
2785.067	62.62
2788.532	66.62
2791.995	61.62
2795.455	65.62
2798.911	67.62
2802.365	65.62
2805.816	61.62
2809.264	65.62
2812.709	74.62
2816.151	72.62
2819.59	69.62
2823.026	75.62
2826.46	77.62
2829.89	79.62
2833.318	78.62
2836.742	77.62
2840.164	78.62
2843.583	82.62
2846.999	80.62
2850.412	82.62
2853.822	90.62
2857.229	92.62
2860.634	90.62
2864.035	102.62
2867.434	104.62
2870.83	108.62
2874.223	109.62
2877.613	108.62
2881	117.62
2884.385	110.62
2887.766	112.62
2891.145	112.62
2894.521	108.62
2897.894	118.62
2901.264	121.62
2904.631	120.62
2907.996	128.62
2911.358	134.62
2914.717	130.62
2918.073	133.62
2921.426	141.62
2924.777	141.62
2928.124	150.62
2931.469	151.62
2934.811	155.62
2938.15	161.62
2941.487	174.62
2944.821	163.62
2948.152	169.62
2951.48	181.62
2954.805	182.62
2958.128	188.62
2961.447	190.62
2964.765	205.62
2968.079	206.62
2971.39	216.62
2974.699	226.62
2978.005	238.62
2981.308	233.62
2984.609	253.62
2987.907	255.62
2991.202	274.62
2994.494	263.62
2997.784	285.62
3001.07	295.62
3004.355	308.62
3007.636	329.62
3010.915	327.62
3014.191	338.62
3017.464	342.62
3020.734	357.62
3024.002	360.62
3027.267	368.62
3030.53	367.62
3033.789	381.62
3037.046	393.62
3040.301	404.62
3043.552	422.62
3046.801	427.62
3050.048	451.62
3053.291	454.62
3056.532	473.62
3059.771	489.62
3063.006	512.62
3066.239	520.62
3069.469	546.62
3072.697	551.62
3075.922	579.62
3079.144	595.62
3082.364	607.62
3085.581	620.62
3088.795	635.62
3092.007	653.62
3095.216	682.62
3098.423	698.62
3101.627	711.62
3104.828	731.62
3108.026	757.62
3111.222	770.62
3114.416	779.62
3117.607	811.62
3120.795	827.62
3123.98	843.62
3127.163	857.62
3130.344	885.62
3133.521	909.62
3136.696	947.62
3139.869	944.62
3143.039	985.62
3146.206	982.62
3149.371	1003.62
3152.533	1015.62
3155.693	1025.62
3158.85	1031.62
3162.005	1032.62
3165.157	1031.62
3168.306	1054.62
3171.453	1048.62
3174.597	1050.62
3177.739	1063.62
3180.878	1061.62
3184.014	1065.62
3187.149	1078.62
3190.28	1081.62
3193.409	1083.62
3196.536	1092.62
3199.659	1091.62
3202.781	1105.62
3205.9	1103.62
3209.016	1087.62
3212.13	1104.62
3215.241	1072.62
3218.35	1095.62
3221.456	1080.62
3224.56	1071.62
3227.661	1060.62
3230.76	1057.62
3233.856	1050.62
3236.95	1031.62
3240.041	1038.62
3243.13	1028.62
3246.216	1012.62
3249.3	1014.62
3252.382	1006.62
3255.46	989.62
3258.537	992.62
3261.611	993.62
3264.682	978.62
3267.751	968.62
3270.818	971.62
3273.882	981.62
3276.943	975.62
3280.002	963.62
3283.059	949.62
3286.113	952.62
3289.165	936.62
3292.214	905.62
3295.261	900.62
3298.306	888.62
3301.348	872.62
3304.387	855.62
3307.425	835.62
3310.459	835.62
3313.492	832.62
3316.521	823.62
3319.549	814.62
3322.574	800.62
3325.597	803.62
3328.617	795.62
3331.635	778.62
3334.65	785.62
3337.663	790.62
3340.674	758.62
3343.682	760.62
3346.688	769.62
3349.691	759.62
3352.692	741.62
3355.691	741.62
3358.687	745.62
3361.681	738.62
3364.673	731.62
3367.662	717.62
3370.649	710.62
3373.633	709.62
3376.615	693.62
3379.595	682.62
3382.572	681.62
3385.547	653.62
3388.52	662.62
3391.49	648.62
3394.458	643.62
3397.424	643.62
3400.387	640.62
3403.348	631.62
3406.307	608.62
3409.263	613.62
3412.217	596.62
3415.168	590.62
3418.118	594.62
3421.065	587.62
3424.009	577.62
3426.951	561.62
3429.891	555.62
3432.829	559.62
3435.764	527.62
3438.697	530.62
3441.628	502.62
3444.557	502.62
3447.483	486.62
3450.407	469.62
3453.328	456.62
3456.247	443.62
3459.164	440.62
3462.079	428.62
3464.991	409.62
3467.902	399.62
3470.809	371.62
3473.715	368.62
3476.618	358.62
3479.519	345.62
3482.418	339.62
3485.315	325.62
3488.209	321.62
3491.101	306.62
3493.99	303.62
3496.878	293.62
3499.763	284.62
3502.646	267.62
3505.527	261.62
3508.405	253.62
3511.281	249.62
3514.155	234.62
3517.027	229.62
3519.897	214.62
3522.764	200.62
3525.629	190.62
3528.492	178.62
3531.352	166.62
3534.211	164.62
3537.067	149.62
3539.921	133.62
3542.773	131.62
3545.622	125.62
3548.469	115.62
3551.315	105.62
3554.157	103.62
3556.998	92.62
3559.837	91.62
3562.673	80.62
3565.507	71.62
3568.339	66.62
3571.169	69.62
3573.996	53.62
3576.822	54.62
3579.645	49.62
3582.466	44.62
3585.285	35.62
3588.101	25.62
3590.916	25.62
3593.728	28.62
3596.538	22.62
3599.346	19.62
3602.152	16.62
3604.956	7.62
3607.757	5.62
3610.556	-0.38
3613.354	-7.38
3616.149	-15.38
3618.942	-10.38
3621.732	-17.38
3624.521	-20.38
3627.307	-24.38
3630.092	-20.38
3632.874	-25.38
3635.654	-26.38
3638.432	-27.38
3641.208	-30.38
3643.982	-34.38
3646.753	-34.38
3649.523	-43.38
3652.29	-41.38
3655.055	-44.38
3657.818	-47.38
3660.579	-49.38
3663.338	-50.38
3666.095	-55.38
3668.849	-60.38
3671.602	-61.38
3674.352	-61.38
3677.101	-63.38
3679.847	-68.38
3682.591	-63.38
3685.333	-67.38
3688.073	-70.38
3690.811	-70.38
3693.547	-77.38
3696.281	-72.38
3699.013	-76.38
3701.742	-78.38
3704.47	-80.38
3707.195	-76.38
3709.919	-79.38
3712.64	-78.38
3715.359	-77.38
3718.076	-81.38
3720.792	-82.38
3723.505	-85.38
3726.216	-83.38
3728.925	-84.38
3731.632	-84.38
3734.336	-85.38
3737.039	-85.38
3739.74	-87.38
3742.439	-86.38
3745.136	-91.38
3747.83	-90.38
3750.523	-89.38
3753.213	-89.38
3755.902	-88.38
3758.589	-89.38
3761.273	-88.38
3763.956	-90.38
3766.636	-92.38
3769.315	-93.38
3771.991	-91.38
3774.665	-96.38
3777.338	-97.38
3780.008	-97.38
3782.677	-97.38
3785.343	-93.38
3788.007	-95.38
3790.67	-93.38
3793.33	-92.38
3795.989	-95.38
3798.645	-94.38
3801.299	-92.38
3803.952	-95.38
3806.602	-93.38
3809.251	-98.38
3811.897	-97.38
3814.542	-96.38
3817.184	-95.38
3819.825	-99.38
3822.463	-98.38
3825.1	-97.38
3827.735	-97.38
3830.367	-100.38
3832.998	-102.38
3835.627	-99.38
3838.253	-99.38
3840.878	-97.38
3843.501	-97.38
3846.122	-98.38
3848.741	-96.38
3851.358	-100.38
3853.973	-96.38
3856.586	-97.38
3859.197	-103.38
3861.806	-102.38
3864.414	-100.38
3867.019	-102.38
3869.622	-99.38
3872.224	-100.38
3874.823	-94.38
3877.421	-93.38
3880.016	-93.38
3882.61	-87.38
3885.202	-88.38
3887.792	-91.38
3890.38	-94.38
3892.966	-93.38
3895.55	-101.38
3898.132	-101.38
3900.713	-96.38
3903.291	-101.38
3905.868	-101.38
3908.442	-102.38
3911.015	-104.38
3913.586	-104.38
3916.155	-101.38
3918.722	-104.38
3921.287	-98.38
3923.85	-97.38
3926.411	-101.38
3928.971	-102.38
3931.528	-100.38
3934.084	-105.38
3936.638	-106.38
3939.19	-102.38
3941.74	-101.38
3944.288	-106.38
3946.834	-101.38
3949.378	-102.38
3951.921	-102.38
3954.462	-100.38
3957	-103.38
3959.537	-102.38
3962.072	-101.38
3964.606	-103.38
3967.137	-104.38
3969.667	-102.38
3972.194	-104.38
3974.72	-103.38
3977.244	-103.38
3979.766	-102.38
3982.286	-99.38
3984.805	-104.38
3987.321	-99.38
3989.836	-101.38
3992.349	-100.38
3994.86	-101.38
3997.369	-103.38
3999.877	-103.38
4002.382	-102.38
4004.886	-98.38
4007.388	-98.38
4009.888	-97.38
4012.386	-105.38
4014.883	-102.38
4017.377	-105.38
4019.87	-100.38
4022.361	-101.38
4024.85	-98.38
4027.338	-100.38
4029.823	-102.38
4032.307	-100.38
4034.789	-98.38
4037.269	-102.38
4039.747	-99.38
4042.224	-99.38
4044.699	-101.38
4047.172	-106.38
4049.643	-102.38
4052.112	-106.38
4054.58	-101.38
4057.046	-103.38
4059.51	-104.38
4061.972	-101.38
4064.432	-100.38
4066.891	-100.38
4069.348	-98.38
4071.803	-104.38
4074.256	-101.38
4076.708	-103.38
4079.158	-104.38
4081.606	-103.38
4084.052	-99.38
4086.497	-98.38
4088.939	-101.38
4091.38	-100.38
4093.819	-103.38
4096.257	-106.38
4098.693	-107.38
4101.127	-106.38
4103.559	-105.38
4105.989	-67.38
4108.418	-61.38
4110.845	-56.38
4113.27	-54.38
4115.694	-57.38
4118.115	-48.38
4120.535	-105.38
4122.954	-103.38
4125.37	-106.38
4127.785	-105.38
4130.198	-100.38
4132.609	-98.38
4135.019	-102.38
4137.427	-101.38
4139.833	-104.38
4142.237	-102.38
