Data from B.sub_water_100CFUB3_RamanShift_1.txt Node
Date: Wed Mar 08 15:55:52 IST 2017
User: aro
Spectrometer: QEPB0276
Trigger mode: 0
Integration Time (sec): 5.000000E0
Scans to average: 1
Electric dark correction enabled: true
Nonlinearity correction enabled: false
Boxcar width: 0
XAxis mode: Raman Shifts
Number of Pixels in Spectrum: 1044
>>>>>Begin Spectral Data<<<<<
160.701	-30.75
166.742	-2.75
172.777	78.25
178.805	354.25
184.826	951.25
190.841	1999.25
196.849	3139.25
202.85	3873.25
208.845	4040.25
214.833	3889.25
220.815	3710.25
226.789	3576.25
232.758	3490.25
238.719	3365.25
244.674	3206.25
250.623	3103.25
256.565	2931.25
262.5	2789.25
268.429	2634.25
274.351	2524.25
280.267	2408.25
286.176	2319.25
292.079	2223.25
297.975	2170.25
303.865	2072.25
309.748	2042.25
315.625	1962.25
321.495	1931.25
327.359	1928.25
333.217	1899.25
339.068	1868.25
344.912	1868.25
350.751	1850.25
356.583	1849.25
362.408	1865.25
368.227	1861.25
374.04	1859.25
379.847	1869.25
385.647	1861.25
391.44	1874.25
397.228	1883.25
403.009	1891.25
408.784	1919.25
414.553	1921.25
420.315	1904.25
426.071	1920.25
431.821	1921.25
437.565	1915.25
443.302	1911.25
449.033	1888.25
454.758	1873.25
460.477	1867.25
466.189	1865.25
471.896	1846.25
477.596	1821.25
483.29	1819.25
488.978	1817.25
494.66	1785.25
500.335	1764.25
506.005	1736.25
511.668	1696.25
517.325	1677.25
522.977	1626.25
528.622	1612.25
534.261	1588.25
539.894	1568.25
545.521	1562.25
551.141	1532.25
556.756	1541.25
562.365	1508.25
567.968	1493.25
573.565	1474.25
579.155	1477.25
584.74	1456.25
590.319	1436.25
595.892	1421.25
601.459	1434.25
607.02	1425.25
612.575	1387.25
618.124	1381.25
623.667	1371.25
629.204	1362.25
634.735	1347.25
640.261	1323.25
645.781	1304.25
651.294	1315.25
656.802	1309.25
662.304	1296.25
667.8	1279.25
673.29	1306.25
678.775	1260.25
684.254	1258.25
689.726	1261.25
695.193	1239.25
700.655	1221.25
706.11	1212.25
711.56	1205.25
717.004	1192.25
722.442	1186.25
727.874	1176.25
733.301	1177.25
738.722	1153.25
744.137	1157.25
749.547	1150.25
754.951	1137.25
760.349	1169.25
765.741	1140.25
771.128	1138.25
776.509	1112.25
781.885	1129.25
787.254	1099.25
792.618	1112.25
797.977	1105.25
803.33	1091.25
808.677	1074.25
814.019	1061.25
819.355	1041.25
824.686	1046.25
830.011	1032.25
835.33	1008.25
840.644	1006.25
845.952	1001.25
851.255	997.25
856.552	985.25
861.844	982.25
867.13	971.25
872.41	952.25
877.686	954.25
882.955	925.25
888.219	907.25
893.478	884.25
898.731	870.25
903.979	860.25
909.221	836.25
914.458	836.25
919.69	822.25
924.916	833.25
930.136	824.25
935.351	818.25
940.561	811.25
945.766	803.25
950.965	799.25
956.158	786.25
961.347	776.25
966.529	769.25
971.707	754.25
976.879	736.25
982.046	727.25
987.208	729.25
992.364	720.25
997.515	723.25
1002.66	728.25
1007.801	736.25
1012.936	735.25
1018.066	738.25
1023.19	754.25
1028.309	739.25
1033.423	745.25
1038.532	734.25
1043.636	729.25
1048.734	707.25
1053.827	715.25
1058.915	702.25
1063.998	702.25
1069.075	684.25
1074.147	687.25
1079.214	696.25
1084.276	697.25
1089.333	711.25
1094.385	721.25
1099.431	713.25
1104.472	704.25
1109.509	696.25
1114.54	693.25
1119.565	686.25
1124.586	674.25
1129.602	662.25
1134.613	674.25
1139.618	668.25
1144.619	663.25
1149.614	662.25
1154.604	673.25
1159.589	672.25
1164.57	672.25
1169.545	674.25
1174.515	672.25
1179.48	671.25
1184.44	676.25
1189.395	665.25
1194.345	657.25
1199.29	663.25
1204.23	657.25
1209.165	660.25
1214.095	664.25
1219.021	668.25
1223.941	669.25
1228.856	668.25
1233.766	681.25
1238.672	677.25
1243.572	675.25
1248.467	663.25
1253.358	657.25
1258.244	643.25
1263.124	633.25
1268	624.25
1272.871	626.25
1277.737	608.25
1282.599	611.25
1287.455	612.25
1292.306	616.25
1297.153	620.25
1301.995	622.25
1306.832	630.25
1311.664	620.25
1316.491	629.25
1321.314	624.25
1326.132	608.25
1330.945	591.25
1335.753	581.25
1340.556	562.25
1345.354	562.25
1350.148	549.25
1354.937	550.25
1359.722	552.25
1364.501	560.25
1369.276	568.25
1374.046	579.25
1378.811	578.25
1383.572	568.25
1388.327	569.25
1393.079	561.25
1397.825	547.25
1402.567	551.25
1407.304	530.25
1412.036	517.25
1416.764	515.25
1421.487	527.25
1426.205	512.25
1430.919	523.25
1435.628	534.25
1440.333	535.25
1445.032	541.25
1449.727	544.25
1454.418	541.25
1459.104	551.25
1463.785	530.25
1468.462	536.25
1473.134	523.25
1477.802	511.25
1482.465	517.25
1487.123	524.25
1491.777	531.25
1496.426	520.25
1501.071	552.25
1505.711	552.25
1510.347	560.25
1514.978	575.25
1519.604	577.25
1524.226	597.25
1528.844	595.25
1533.457	592.25
1538.065	586.25
1542.669	596.25
1547.269	591.25
1551.864	600.25
1556.454	607.25
1561.041	622.25
1565.622	617.25
1570.199	620.25
1574.772	635.25
1579.34	647.25
1583.904	672.25
1588.464	691.25
1593.019	696.25
1597.569	711.25
1602.115	742.25
1606.657	753.25
1611.195	768.25
1615.728	777.25
1620.256	799.25
1624.78	802.25
1629.3	820.25
1633.816	838.25
1638.327	853.25
1642.834	867.25
1647.336	865.25
1651.834	860.25
1656.328	858.25
1660.817	841.25
1665.302	830.25
1669.783	805.25
1674.259	777.25
1678.732	739.25
1683.199	711.25
1687.663	683.25
1692.122	648.25
1696.577	615.25
1701.028	588.25
1705.474	583.25
1709.917	559.25
1714.355	542.25
1718.788	517.25
1723.218	484.25
1727.643	464.25
1732.064	449.25
1736.481	429.25
1740.893	415.25
1745.301	400.25
1749.705	388.25
1754.105	366.25
1758.501	347.25
1762.893	347.25
1767.28	324.25
1771.663	320.25
1776.042	318.25
1780.417	312.25
1784.787	301.25
1789.154	309.25
1793.516	313.25
1797.874	318.25
1802.228	316.25
1806.578	311.25
1810.924	315.25
1815.266	310.25
1819.603	298.25
1823.937	291.25
1828.266	282.25
1832.591	273.25
1836.913	280.25
1841.23	273.25
1845.543	262.25
1849.852	271.25
1854.156	266.25
1858.457	264.25
1862.754	262.25
1867.047	261.25
1871.335	263.25
1875.62	269.25
1879.9	266.25
1884.177	264.25
1888.449	266.25
1892.718	263.25
1896.982	262.25
1901.243	262.25
1905.499	259.25
1909.752	260.25
1914	259.25
1918.245	260.25
1922.485	258.25
1926.722	269.25
1930.954	280.25
1935.183	269.25
1939.408	283.25
1943.628	274.25
1947.845	280.25
1952.058	283.25
1956.267	276.25
1960.472	271.25
1964.673	279.25
1968.87	280.25
1973.063	267.25
1977.252	269.25
1981.438	270.25
1985.619	258.25
1989.797	265.25
1993.971	273.25
1998.14	268.25
2002.306	267.25
2006.469	278.25
2010.627	270.25
2014.781	278.25
2018.932	278.25
2023.078	272.25
2027.221	272.25
2031.36	272.25
2035.495	264.25
2039.627	266.25
2043.754	272.25
2047.878	264.25
2051.998	269.25
2056.114	266.25
2060.226	267.25
2064.334	276.25
2068.439	281.25
2072.54	274.25
2076.637	281.25
2080.73	278.25
2084.82	276.25
2088.906	286.25
2092.988	286.25
2097.066	295.25
2101.14	296.25
2105.211	287.25
2109.278	271.25
2113.342	281.25
2117.401	275.25
2121.457	274.25
2125.509	278.25
2129.558	275.25
2133.602	269.25
2137.643	273.25
2141.681	265.25
2145.714	258.25
2149.744	266.25
2153.77	261.25
2157.793	253.25
2161.812	246.25
2165.827	243.25
2169.838	244.25
2173.846	238.25
2177.851	228.25
2181.851	227.25
2185.848	232.25
2189.841	219.25
2193.831	216.25
2197.817	209.25
2201.799	208.25
2205.778	206.25
2209.753	208.25
2213.725	202.25
2217.693	198.25
2221.657	208.25
2225.618	205.25
2229.575	190.25
2233.529	199.25
2237.479	193.25
2241.425	182.25
2245.368	185.25
2249.307	186.25
2253.243	179.25
2257.175	178.25
2261.104	173.25
2265.029	163.25
2268.95	170.25
2272.868	159.25
2276.783	162.25
2280.694	158.25
2284.601	153.25
2288.505	146.25
2292.405	149.25
2296.302	148.25
2300.195	141.25
2304.085	140.25
2307.971	133.25
2311.854	129.25
2315.734	121.25
2319.609	119.25
2323.482	113.25
2327.351	119.25
2331.216	117.25
2335.078	115.25
2338.937	112.25
2342.792	110.25
2346.643	113.25
2350.492	110.25
2354.336	105.25
2358.178	105.25
2362.015	99.25
2365.85	105.25
2369.681	102.25
2373.508	98.25
2377.333	101.25
2381.153	99.25
2384.971	101.25
2388.785	91.25
2392.595	95.25
2396.402	89.25
2400.206	83.25
2404.007	84.25
2407.804	90.25
2411.597	93.25
2415.388	90.25
2419.174	90.25
2422.958	87.25
2426.738	80.25
2430.515	78.25
2434.289	81.25
2438.059	77.25
2441.825	76.25
2445.589	82.25
2449.349	78.25
2453.106	81.25
2456.859	77.25
2460.61	72.25
2464.356	73.25
2468.1	72.25
2471.84	68.25
2475.577	73.25
2479.311	69.25
2483.041	63.25
2486.768	65.25
2490.492	69.25
2494.213	66.25
2497.93	67.25
2501.644	69.25
2505.355	66.25
2509.062	67.25
2512.766	65.25
2516.467	63.25
2520.165	67.25
2523.859	68.25
2527.551	65.25
2531.239	63.25
2534.923	62.25
2538.605	64.25
2542.283	64.25
2545.958	55.25
2549.63	57.25
2553.299	55.25
2556.964	50.25
2560.626	56.25
2564.285	57.25
2567.941	48.25
2571.594	55.25
2575.243	52.25
2578.89	54.25
2582.533	48.25
2586.173	50.25
2589.809	49.25
2593.443	48.25
2597.073	52.25
2600.701	51.25
2604.325	43.25
2607.946	49.25
2611.564	44.25
2615.178	47.25
2618.79	45.25
2622.398	45.25
2626.004	43.25
2629.606	43.25
2633.205	44.25
2636.801	46.25
2640.394	49.25
2643.983	39.25
2647.57	36.25
2651.153	38.25
2654.734	35.25
2658.311	34.25
2661.885	34.25
2665.456	29.25
2669.025	32.25
2672.589	36.25
2676.151	32.25
2679.71	34.25
2683.266	32.25
2686.819	32.25
2690.368	28.25
2693.915	25.25
2697.458	25.25
2700.999	28.25
2704.536	33.25
2708.071	24.25
2711.602	31.25
2715.13	27.25
2718.656	25.25
2722.178	21.25
2725.697	20.25
2729.214	25.25
2732.727	22.25
2736.237	30.25
2739.744	31.25
2743.249	27.25
2746.75	32.25
2750.248	42.25
2753.743	41.25
2757.236	42.25
2760.725	32.25
2764.211	34.25
2767.695	35.25
2771.175	36.25
2774.652	38.25
2778.127	39.25
2781.598	43.25
2785.067	39.25
2788.532	39.25
2791.995	38.25
2795.455	42.25
2798.911	42.25
2802.365	45.25
2805.816	38.25
2809.264	48.25
2812.709	50.25
2816.151	44.25
2819.59	50.25
2823.026	55.25
2826.46	49.25
2829.89	54.25
2833.318	59.25
2836.742	60.25
2840.164	58.25
2843.583	59.25
2846.999	62.25
2850.412	60.25
2853.822	64.25
2857.229	74.25
2860.634	72.25
2864.035	80.25
2867.434	76.25
2870.83	85.25
2874.223	79.25
2877.613	88.25
2881	92.25
2884.385	98.25
2887.766	92.25
2891.145	97.25
2894.521	98.25
2897.894	102.25
2901.264	106.25
2904.631	112.25
2907.996	107.25
2911.358	111.25
2914.717	109.25
2918.073	113.25
2921.426	122.25
2924.777	126.25
2928.124	123.25
2931.469	143.25
2934.811	153.25
2938.15	144.25
2941.487	160.25
2944.821	159.25
2948.152	161.25
2951.48	168.25
2954.805	178.25
2958.128	171.25
2961.447	189.25
2964.765	186.25
2968.079	187.25
2971.39	201.25
2974.699	201.25
2978.005	219.25
2981.308	215.25
2984.609	230.25
2987.907	241.25
2991.202	253.25
2994.494	265.25
2997.784	280.25
3001.07	277.25
3004.355	300.25
3007.636	314.25
3010.915	319.25
3014.191	322.25
3017.464	331.25
3020.734	340.25
3024.002	347.25
3027.267	363.25
3030.53	365.25
3033.789	377.25
3037.046	397.25
3040.301	397.25
3043.552	418.25
3046.801	414.25
3050.048	441.25
3053.291	447.25
3056.532	466.25
3059.771	483.25
3063.006	492.25
3066.239	510.25
3069.469	530.25
3072.697	551.25
3075.922	575.25
3079.144	592.25
3082.364	603.25
3085.581	621.25
3088.795	646.25
3092.007	648.25
3095.216	670.25
3098.423	689.25
3101.627	727.25
3104.828	730.25
3108.026	741.25
3111.222	769.25
3114.416	792.25
3117.607	812.25
3120.795	820.25
3123.98	846.25
3127.163	861.25
3130.344	889.25
3133.521	915.25
3136.696	928.25
3139.869	945.25
3143.039	973.25
3146.206	1000.25
3149.371	1001.25
3152.533	1010.25
3155.693	1022.25
3158.85	1030.25
3162.005	1043.25
3165.157	1028.25
3168.306	1048.25
3171.453	1041.25
3174.597	1064.25
3177.739	1063.25
3180.878	1078.25
3184.014	1069.25
3187.149	1081.25
3190.28	1090.25
3193.409	1087.25
3196.536	1074.25
3199.659	1091.25
3202.781	1101.25
3205.9	1103.25
3209.016	1097.25
3212.13	1099.25
3215.241	1095.25
3218.35	1081.25
3221.456	1066.25
3224.56	1065.25
3227.661	1071.25
3230.76	1033.25
3233.856	1031.25
3236.95	1027.25
3240.041	1021.25
3243.13	1022.25
3246.216	1021.25
3249.3	995.25
3252.382	994.25
3255.46	1001.25
3258.537	982.25
3261.611	989.25
3264.682	992.25
3267.751	978.25
3270.818	983.25
3273.882	967.25
3276.943	966.25
3280.002	964.25
3283.059	942.25
3286.113	936.25
3289.165	937.25
3292.214	924.25
3295.261	897.25
3298.306	872.25
3301.348	879.25
3304.387	864.25
3307.425	843.25
3310.459	838.25
3313.492	824.25
3316.521	814.25
3319.549	803.25
3322.574	794.25
3325.597	793.25
3328.617	789.25
3331.635	785.25
3334.65	776.25
3337.663	784.25
3340.674	760.25
3343.682	773.25
3346.688	762.25
3349.691	768.25
3352.692	760.25
3355.691	750.25
3358.687	749.25
3361.681	734.25
3364.673	742.25
3367.662	715.25
3370.649	716.25
3373.633	703.25
3376.615	692.25
3379.595	681.25
3382.572	676.25
3385.547	667.25
3388.52	659.25
3391.49	652.25
3394.458	637.25
3397.424	640.25
3400.387	633.25
3403.348	625.25
3406.307	615.25
3409.263	620.25
3412.217	594.25
3415.168	597.25
3418.118	583.25
3421.065	592.25
3424.009	584.25
3426.951	564.25
3429.891	566.25
3432.829	543.25
3435.764	529.25
3438.697	520.25
3441.628	514.25
3444.557	499.25
3447.483	489.25
3450.407	480.25
3453.328	460.25
3456.247	446.25
3459.164	426.25
3462.079	416.25
3464.991	415.25
3467.902	390.25
3470.809	374.25
3473.715	369.25
3476.618	361.25
3479.519	352.25
3482.418	342.25
3485.315	325.25
3488.209	320.25
3491.101	317.25
3493.99	299.25
3496.878	292.25
3499.763	284.25
3502.646	280.25
3505.527	259.25
3508.405	242.25
3511.281	237.25
3514.155	234.25
3517.027	226.25
3519.897	211.25
3522.764	186.25
3525.629	188.25
3528.492	180.25
3531.352	166.25
3534.211	152.25
3537.067	157.25
3539.921	140.25
3542.773	130.25
3545.622	125.25
3548.469	121.25
3551.315	106.25
3554.157	98.25
3556.998	89.25
3559.837	85.25
3562.673	82.25
3565.507	78.25
3568.339	72.25
3571.169	67.25
3573.996	57.25
3576.822	59.25
3579.645	48.25
3582.466	42.25
3585.285	37.25
3588.101	32.25
3590.916	31.25
3593.728	21.25
3596.538	22.25
3599.346	13.25
3602.152	10.25
3604.956	9.25
3607.757	-1.75
3610.556	-0.75
3613.354	-9.75
3616.149	-11.75
3618.942	-10.75
3621.732	-12.75
3624.521	-19.75
3627.307	-18.75
3630.092	-20.75
3632.874	-21.75
3635.654	-29.75
3638.432	-24.75
3641.208	-33.75
3643.982	-32.75
3646.753	-37.75
3649.523	-41.75
3652.29	-41.75
3655.055	-43.75
3657.818	-43.75
3660.579	-45.75
3663.338	-50.75
3666.095	-52.75
3668.849	-57.75
3671.602	-61.75
3674.352	-63.75
3677.101	-59.75
3679.847	-61.75
3682.591	-62.75
3685.333	-63.75
3688.073	-68.75
3690.811	-71.75
3693.547	-72.75
3696.281	-69.75
3699.013	-74.75
3701.742	-75.75
3704.47	-76.75
3707.195	-74.75
3709.919	-75.75
3712.64	-75.75
3715.359	-77.75
3718.076	-76.75
3720.792	-78.75
3723.505	-83.75
3726.216	-81.75
3728.925	-82.75
3731.632	-81.75
3734.336	-83.75
3737.039	-84.75
3739.74	-82.75
3742.439	-83.75
3745.136	-87.75
3747.83	-84.75
3750.523	-84.75
3753.213	-85.75
3755.902	-87.75
3758.589	-86.75
3761.273	-85.75
3763.956	-89.75
3766.636	-85.75
3769.315	-86.75
3771.991	-85.75
3774.665	-94.75
3777.338	-91.75
3780.008	-99.75
3782.677	-92.75
3785.343	-96.75
3788.007	-91.75
3790.67	-90.75
3793.33	-84.75
3795.989	-86.75
3798.645	-91.75
3801.299	-91.75
3803.952	-92.75
3806.602	-94.75
3809.251	-95.75
3811.897	-95.75
3814.542	-94.75
3817.184	-94.75
3819.825	-94.75
3822.463	-98.75
3825.1	-93.75
3827.735	-95.75
3830.367	-96.75
3832.998	-96.75
3835.627	-92.75
3838.253	-96.75
3840.878	-94.75
3843.501	-94.75
3846.122	-95.75
3848.741	-93.75
3851.358	-95.75
3853.973	-94.75
3856.586	-96.75
3859.197	-100.75
3861.806	-97.75
3864.414	-97.75
3867.019	-95.75
3869.622	-94.75
3872.224	-94.75
3874.823	-92.75
3877.421	-89.75
3880.016	-91.75
3882.61	-88.75
3885.202	-85.75
3887.792	-91.75
3890.38	-93.75
3892.966	-91.75
3895.55	-96.75
3898.132	-99.75
3900.713	-96.75
3903.291	-97.75
3905.868	-97.75
3908.442	-99.75
3911.015	-98.75
3913.586	-100.75
3916.155	-98.75
3918.722	-97.75
3921.287	-93.75
3923.85	-91.75
3926.411	-96.75
3928.971	-99.75
3931.528	-95.75
3934.084	-98.75
3936.638	-100.75
3939.19	-102.75
3941.74	-99.75
3944.288	-103.75
3946.834	-101.75
3949.378	-99.75
3951.921	-100.75
3954.462	-93.75
3957	-98.75
3959.537	-101.75
3962.072	-95.75
3964.606	-98.75
3967.137	-103.75
3969.667	-99.75
3972.194	-98.75
3974.72	-97.75
3977.244	-95.75
3979.766	-97.75
3982.286	-95.75
3984.805	-100.75
3987.321	-98.75
3989.836	-99.75
3992.349	-99.75
3994.86	-98.75
3997.369	-98.75
3999.877	-99.75
4002.382	-97.75
4004.886	-93.75
4007.388	-96.75
4009.888	-98.75
4012.386	-99.75
4014.883	-97.75
4017.377	-99.75
4019.87	-95.75
4022.361	-98.75
4024.85	-95.75
4027.338	-96.75
4029.823	-101.75
4032.307	-102.75
4034.789	-99.75
4037.269	-99.75
4039.747	-97.75
4042.224	-97.75
4044.699	-96.75
4047.172	-100.75
4049.643	-98.75
4052.112	-99.75
4054.58	-94.75
4057.046	-98.75
4059.51	-100.75
4061.972	-99.75
4064.432	-96.75
4066.891	-97.75
4069.348	-99.75
4071.803	-102.75
4074.256	-99.75
4076.708	-102.75
4079.158	-101.75
4081.606	-98.75
4084.052	-101.75
4086.497	-97.75
4088.939	-95.75
4091.38	-97.75
4093.819	-96.75
4096.257	-100.75
4098.693	-105.75
4101.127	-102.75
4103.559	-102.75
4105.989	-69.75
4108.418	-59.75
4110.845	-57.75
4113.27	-55.75
4115.694	-52.75
4118.115	-44.75
4120.535	-100.75
4122.954	-101.75
4125.37	-99.75
4127.785	-99.75
4130.198	-96.75
4132.609	-96.75
4135.019	-100.75
4137.427	-96.75
4139.833	-102.75
4142.237	-98.75
