Data from B.sub_water_100CFUA3_RamanShift_1.txt Node
Date: Wed Mar 08 14:59:32 IST 2017
User: aro
Spectrometer: QEPB0276
Trigger mode: 0
Integration Time (sec): 5.000000E0
Scans to average: 1
Electric dark correction enabled: true
Nonlinearity correction enabled: false
Boxcar width: 0
XAxis mode: Raman Shifts
Number of Pixels in Spectrum: 1044
>>>>>Begin Spectral Data<<<<<
160.701	-33.88
166.742	-5.88
172.777	81.12
178.805	354.12
184.826	971.12
190.841	2025.12
196.849	3150.12
202.85	3906.12
208.845	4029.12
214.833	3893.12
220.815	3728.12
226.789	3612.12
232.758	3484.12
238.719	3359.12
244.674	3249.12
250.623	3105.12
256.565	2941.12
262.5	2782.12
268.429	2666.12
274.351	2529.12
280.267	2426.12
286.176	2335.12
292.079	2232.12
297.975	2184.12
303.865	2094.12
309.748	2036.12
315.625	1976.12
321.495	1955.12
327.359	1917.12
333.217	1916.12
339.068	1886.12
344.912	1871.12
350.751	1850.12
356.583	1866.12
362.408	1847.12
368.227	1853.12
374.04	1848.12
379.847	1847.12
385.647	1887.12
391.44	1877.12
397.228	1889.12
403.009	1891.12
408.784	1904.12
414.553	1932.12
420.315	1915.12
426.071	1915.12
431.821	1925.12
437.565	1913.12
443.302	1908.12
449.033	1887.12
454.758	1887.12
460.477	1874.12
466.189	1836.12
471.896	1846.12
477.596	1844.12
483.29	1830.12
488.978	1807.12
494.66	1820.12
500.335	1771.12
506.005	1748.12
511.668	1693.12
517.325	1668.12
522.977	1634.12
528.622	1586.12
534.261	1570.12
539.894	1569.12
545.521	1543.12
551.141	1528.12
556.756	1511.12
562.365	1497.12
567.968	1503.12
573.565	1477.12
579.155	1463.12
584.74	1462.12
590.319	1444.12
595.892	1418.12
601.459	1426.12
607.02	1410.12
612.575	1387.12
618.124	1376.12
623.667	1353.12
629.204	1346.12
634.735	1330.12
640.261	1319.12
645.781	1322.12
651.294	1287.12
656.802	1294.12
662.304	1284.12
667.8	1272.12
673.29	1268.12
678.775	1266.12
684.254	1250.12
689.726	1248.12
695.193	1235.12
700.655	1213.12
706.11	1185.12
711.56	1186.12
717.004	1185.12
722.442	1182.12
727.874	1161.12
733.301	1151.12
738.722	1150.12
744.137	1138.12
749.547	1137.12
754.951	1143.12
760.349	1124.12
765.741	1127.12
771.128	1109.12
776.509	1114.12
781.885	1133.12
787.254	1100.12
792.618	1092.12
797.977	1096.12
803.33	1080.12
808.677	1066.12
814.019	1064.12
819.355	1042.12
824.686	1039.12
830.011	1029.12
835.33	1000.12
840.644	986.12
845.952	998.12
851.255	988.12
856.552	981.12
861.844	965.12
867.13	961.12
872.41	939.12
877.686	930.12
882.955	914.12
888.219	905.12
893.478	873.12
898.731	871.12
903.979	834.12
909.221	835.12
914.458	832.12
919.69	812.12
924.916	806.12
930.136	811.12
935.351	800.12
940.561	795.12
945.766	797.12
950.965	797.12
956.158	780.12
961.347	766.12
966.529	756.12
971.707	735.12
976.879	726.12
982.046	728.12
987.208	712.12
992.364	713.12
997.515	714.12
1002.66	719.12
1007.801	729.12
1012.936	719.12
1018.066	729.12
1023.19	744.12
1028.309	729.12
1033.423	737.12
1038.532	735.12
1043.636	706.12
1048.734	709.12
1053.827	699.12
1058.915	687.12
1063.998	683.12
1069.075	684.12
1074.147	686.12
1079.214	685.12
1084.276	707.12
1089.333	693.12
1094.385	697.12
1099.431	706.12
1104.472	704.12
1109.509	691.12
1114.54	688.12
1119.565	680.12
1124.586	669.12
1129.602	664.12
1134.613	660.12
1139.618	651.12
1144.619	664.12
1149.614	648.12
1154.604	663.12
1159.589	662.12
1164.57	656.12
1169.545	665.12
1174.515	663.12
1179.48	663.12
1184.44	654.12
1189.395	644.12
1194.345	642.12
1199.29	640.12
1204.23	648.12
1209.165	654.12
1214.095	656.12
1219.021	654.12
1223.941	669.12
1228.856	664.12
1233.766	671.12
1238.672	663.12
1243.572	666.12
1248.467	658.12
1253.358	643.12
1258.244	649.12
1263.124	639.12
1268	621.12
1272.871	604.12
1277.737	608.12
1282.599	593.12
1287.455	604.12
1292.306	602.12
1297.153	601.12
1301.995	602.12
1306.832	618.12
1311.664	613.12
1316.491	619.12
1321.314	616.12
1326.132	602.12
1330.945	584.12
1335.753	567.12
1340.556	570.12
1345.354	541.12
1350.148	548.12
1354.937	545.12
1359.722	543.12
1364.501	550.12
1369.276	562.12
1374.046	565.12
1378.811	570.12
1383.572	561.12
1388.327	558.12
1393.079	553.12
1397.825	548.12
1402.567	531.12
1407.304	526.12
1412.036	537.12
1416.764	520.12
1421.487	525.12
1426.205	512.12
1430.919	515.12
1435.628	526.12
1440.333	529.12
1445.032	530.12
1449.727	529.12
1454.418	524.12
1459.104	531.12
1463.785	524.12
1468.462	523.12
1473.134	513.12
1477.802	505.12
1482.465	522.12
1487.123	509.12
1491.777	532.12
1496.426	529.12
1501.071	538.12
1505.711	552.12
1510.347	559.12
1514.978	571.12
1519.604	576.12
1524.226	581.12
1528.844	588.12
1533.457	595.12
1538.065	591.12
1542.669	577.12
1547.269	584.12
1551.864	588.12
1556.454	600.12
1561.041	603.12
1565.622	626.12
1570.199	619.12
1574.772	646.12
1579.34	649.12
1583.904	672.12
1588.464	690.12
1593.019	700.12
1597.569	707.12
1602.115	729.12
1606.657	738.12
1611.195	751.12
1615.728	769.12
1620.256	790.12
1624.78	810.12
1629.3	820.12
1633.816	828.12
1638.327	857.12
1642.834	865.12
1647.336	859.12
1651.834	875.12
1656.328	851.12
1660.817	855.12
1665.302	839.12
1669.783	808.12
1674.259	767.12
1678.732	746.12
1683.199	715.12
1687.663	677.12
1692.122	638.12
1696.577	605.12
1701.028	583.12
1705.474	573.12
1709.917	561.12
1714.355	530.12
1718.788	508.12
1723.218	478.12
1727.643	464.12
1732.064	445.12
1736.481	417.12
1740.893	417.12
1745.301	391.12
1749.705	369.12
1754.105	357.12
1758.501	338.12
1762.893	329.12
1767.28	319.12
1771.663	317.12
1776.042	306.12
1780.417	312.12
1784.787	299.12
1789.154	313.12
1793.516	315.12
1797.874	309.12
1802.228	317.12
1806.578	296.12
1810.924	299.12
1815.266	296.12
1819.603	279.12
1823.937	279.12
1828.266	277.12
1832.591	262.12
1836.913	262.12
1841.23	264.12
1845.543	262.12
1849.852	261.12
1854.156	258.12
1858.457	260.12
1862.754	249.12
1867.047	255.12
1871.335	255.12
1875.62	261.12
1879.9	258.12
1884.177	256.12
1888.449	254.12
1892.718	263.12
1896.982	259.12
1901.243	252.12
1905.499	258.12
1909.752	259.12
1914	262.12
1918.245	257.12
1922.485	266.12
1926.722	268.12
1930.954	267.12
1935.183	270.12
1939.408	276.12
1943.628	264.12
1947.845	274.12
1952.058	279.12
1956.267	275.12
1960.472	270.12
1964.673	269.12
1968.87	268.12
1973.063	271.12
1977.252	274.12
1981.438	267.12
1985.619	262.12
1989.797	256.12
1993.971	259.12
1998.14	262.12
2002.306	266.12
2006.469	267.12
2010.627	274.12
2014.781	272.12
2018.932	275.12
2023.078	266.12
2027.221	273.12
2031.36	267.12
2035.495	259.12
2039.627	268.12
2043.754	265.12
2047.878	264.12
2051.998	269.12
2056.114	266.12
2060.226	261.12
2064.334	276.12
2068.439	275.12
2072.54	274.12
2076.637	275.12
2080.73	277.12
2084.82	286.12
2088.906	290.12
2092.988	290.12
2097.066	286.12
2101.14	286.12
2105.211	284.12
2109.278	278.12
2113.342	269.12
2117.401	276.12
2121.457	275.12
2125.509	276.12
2129.558	273.12
2133.602	271.12
2137.643	270.12
2141.681	278.12
2145.714	267.12
2149.744	264.12
2153.77	259.12
2157.793	255.12
2161.812	259.12
2165.827	242.12
2169.838	248.12
2173.846	234.12
2177.851	236.12
2181.851	222.12
2185.848	217.12
2189.841	219.12
2193.831	212.12
2197.817	213.12
2201.799	215.12
2205.778	207.12
2209.753	208.12
2213.725	205.12
2217.693	208.12
2221.657	206.12
2225.618	207.12
2229.575	207.12
2233.529	197.12
2237.479	187.12
2241.425	186.12
2245.368	182.12
2249.307	180.12
2253.243	180.12
2257.175	176.12
2261.104	173.12
2265.029	171.12
2268.95	168.12
2272.868	165.12
2276.783	162.12
2280.694	151.12
2284.601	156.12
2288.505	141.12
2292.405	152.12
2296.302	140.12
2300.195	148.12
2304.085	140.12
2307.971	134.12
2311.854	139.12
2315.734	128.12
2319.609	123.12
2323.482	117.12
2327.351	116.12
2331.216	126.12
2335.078	129.12
2338.937	121.12
2342.792	111.12
2346.643	102.12
2350.492	105.12
2354.336	103.12
2358.178	99.12
2362.015	105.12
2365.85	103.12
2369.681	112.12
2373.508	108.12
2377.333	109.12
2381.153	98.12
2384.971	105.12
2388.785	97.12
2392.595	94.12
2396.402	91.12
2400.206	87.12
2404.007	91.12
2407.804	93.12
2411.597	90.12
2415.388	91.12
2419.174	88.12
2422.958	85.12
2426.738	87.12
2430.515	83.12
2434.289	84.12
2438.059	83.12
2441.825	79.12
2445.589	80.12
2449.349	88.12
2453.106	78.12
2456.859	74.12
2460.61	76.12
2464.356	70.12
2468.1	74.12
2471.84	72.12
2475.577	69.12
2479.311	73.12
2483.041	65.12
2486.768	69.12
2490.492	68.12
2494.213	76.12
2497.93	64.12
2501.644	71.12
2505.355	67.12
2509.062	67.12
2512.766	69.12
2516.467	63.12
2520.165	70.12
2523.859	67.12
2527.551	69.12
2531.239	67.12
2534.923	60.12
2538.605	64.12
2542.283	58.12
2545.958	60.12
2549.63	55.12
2553.299	57.12
2556.964	58.12
2560.626	63.12
2564.285	64.12
2567.941	54.12
2571.594	60.12
2575.243	56.12
2578.89	52.12
2582.533	53.12
2586.173	55.12
2589.809	51.12
2593.443	51.12
2597.073	53.12
2600.701	47.12
2604.325	43.12
2607.946	46.12
2611.564	46.12
2615.178	41.12
2618.79	45.12
2622.398	48.12
2626.004	46.12
2629.606	42.12
2633.205	44.12
2636.801	47.12
2640.394	40.12
2643.983	44.12
2647.57	37.12
2651.153	41.12
2654.734	38.12
2658.311	36.12
2661.885	30.12
2665.456	34.12
2669.025	33.12
2672.589	41.12
2676.151	29.12
2679.71	35.12
2683.266	35.12
2686.819	30.12
2690.368	29.12
2693.915	29.12
2697.458	29.12
2700.999	25.12
2704.536	31.12
2708.071	28.12
2711.602	28.12
2715.13	26.12
2718.656	35.12
2722.178	26.12
2725.697	27.12
2729.214	26.12
2732.727	28.12
2736.237	30.12
2739.744	33.12
2743.249	32.12
2746.75	32.12
2750.248	42.12
2753.743	34.12
2757.236	35.12
2760.725	37.12
2764.211	39.12
2767.695	37.12
2771.175	37.12
2774.652	39.12
2778.127	36.12
2781.598	44.12
2785.067	40.12
2788.532	43.12
2791.995	47.12
2795.455	46.12
2798.911	46.12
2802.365	43.12
2805.816	45.12
2809.264	44.12
2812.709	51.12
2816.151	51.12
2819.59	45.12
2823.026	56.12
2826.46	59.12
2829.89	53.12
2833.318	62.12
2836.742	57.12
2840.164	53.12
2843.583	57.12
2846.999	62.12
2850.412	71.12
2853.822	73.12
2857.229	75.12
2860.634	71.12
2864.035	75.12
2867.434	83.12
2870.83	86.12
2874.223	89.12
2877.613	90.12
2881	92.12
2884.385	95.12
2887.766	92.12
2891.145	97.12
2894.521	99.12
2897.894	100.12
2901.264	102.12
2904.631	113.12
2907.996	112.12
2911.358	114.12
2914.717	119.12
2918.073	119.12
2921.426	131.12
2924.777	128.12
2928.124	134.12
2931.469	137.12
2934.811	145.12
2938.15	147.12
2941.487	154.12
2944.821	150.12
2948.152	162.12
2951.48	168.12
2954.805	171.12
2958.128	189.12
2961.447	181.12
2964.765	198.12
2968.079	198.12
2971.39	207.12
2974.699	202.12
2978.005	224.12
2981.308	228.12
2984.609	235.12
2987.907	244.12
2991.202	258.12
2994.494	262.12
2997.784	275.12
3001.07	294.12
3004.355	298.12
3007.636	311.12
3010.915	328.12
3014.191	331.12
3017.464	338.12
3020.734	336.12
3024.002	360.12
3027.267	355.12
3030.53	364.12
3033.789	385.12
3037.046	390.12
3040.301	401.12
3043.552	418.12
3046.801	426.12
3050.048	436.12
3053.291	449.12
3056.532	462.12
3059.771	491.12
3063.006	503.12
3066.239	530.12
3069.469	550.12
3072.697	560.12
3075.922	583.12
3079.144	593.12
3082.364	602.12
3085.581	634.12
3088.795	645.12
3092.007	652.12
3095.216	672.12
3098.423	697.12
3101.627	713.12
3104.828	738.12
3108.026	743.12
3111.222	765.12
3114.416	775.12
3117.607	809.12
3120.795	831.12
3123.98	859.12
3127.163	863.12
3130.344	907.12
3133.521	911.12
3136.696	942.12
3139.869	974.12
3143.039	961.12
3146.206	1002.12
3149.371	996.12
3152.533	1017.12
3155.693	1031.12
3158.85	1033.12
3162.005	1034.12
3165.157	1039.12
3168.306	1056.12
3171.453	1061.12
3174.597	1060.12
3177.739	1060.12
3180.878	1075.12
3184.014	1074.12
3187.149	1071.12
3190.28	1087.12
3193.409	1072.12
3196.536	1101.12
3199.659	1106.12
3202.781	1102.12
3205.9	1105.12
3209.016	1111.12
3212.13	1102.12
3215.241	1091.12
3218.35	1095.12
3221.456	1086.12
3224.56	1063.12
3227.661	1063.12
3230.76	1046.12
3233.856	1041.12
3236.95	1034.12
3240.041	1032.12
3243.13	1020.12
3246.216	1029.12
3249.3	1009.12
3252.382	1001.12
3255.46	1011.12
3258.537	998.12
3261.611	998.12
3264.682	980.12
3267.751	967.12
3270.818	978.12
3273.882	974.12
3276.943	970.12
3280.002	959.12
3283.059	957.12
3286.113	943.12
3289.165	934.12
3292.214	907.12
3295.261	901.12
3298.306	886.12
3301.348	874.12
3304.387	867.12
3307.425	852.12
3310.459	852.12
3313.492	832.12
3316.521	832.12
3319.549	816.12
3322.574	801.12
3325.597	798.12
3328.617	793.12
3331.635	783.12
3334.65	789.12
3337.663	776.12
3340.674	778.12
3343.682	775.12
3346.688	779.12
3349.691	772.12
3352.692	771.12
3355.691	763.12
3358.687	757.12
3361.681	740.12
3364.673	741.12
3367.662	724.12
3370.649	718.12
3373.633	709.12
3376.615	701.12
3379.595	685.12
3382.572	674.12
3385.547	676.12
3388.52	664.12
3391.49	662.12
3394.458	647.12
3397.424	636.12
3400.387	629.12
3403.348	623.12
3406.307	620.12
3409.263	623.12
3412.217	602.12
3415.168	596.12
3418.118	590.12
3421.065	585.12
3424.009	570.12
3426.951	578.12
3429.891	560.12
3432.829	558.12
3435.764	545.12
3438.697	532.12
3441.628	512.12
3444.557	505.12
3447.483	495.12
3450.407	475.12
3453.328	464.12
3456.247	447.12
3459.164	426.12
3462.079	427.12
3464.991	405.12
3467.902	405.12
3470.809	383.12
3473.715	369.12
3476.618	363.12
3479.519	349.12
3482.418	345.12
3485.315	329.12
3488.209	326.12
3491.101	320.12
3493.99	309.12
3496.878	295.12
3499.763	274.12
3502.646	272.12
3505.527	259.12
3508.405	248.12
3511.281	241.12
3514.155	238.12
3517.027	226.12
3519.897	227.12
3522.764	201.12
3525.629	193.12
3528.492	182.12
3531.352	162.12
3534.211	163.12
3537.067	148.12
3539.921	136.12
3542.773	132.12
3545.622	126.12
3548.469	115.12
3551.315	109.12
3554.157	107.12
3556.998	98.12
3559.837	89.12
3562.673	79.12
3565.507	74.12
3568.339	81.12
3571.169	67.12
3573.996	59.12
3576.822	58.12
3579.645	50.12
3582.466	38.12
3585.285	40.12
3588.101	33.12
3590.916	28.12
3593.728	23.12
3596.538	19.12
3599.346	17.12
3602.152	18.12
3604.956	9.12
3607.757	8.12
3610.556	3.12
3613.354	-5.88
3616.149	-6.88
3618.942	-7.88
3621.732	-14.88
3624.521	-19.88
3627.307	-20.88
3630.092	-17.88
3632.874	-18.88
3635.654	-23.88
3638.432	-23.88
3641.208	-30.88
3643.982	-29.88
3646.753	-34.88
3649.523	-39.88
3652.29	-42.88
3655.055	-43.88
3657.818	-45.88
3660.579	-48.88
3663.338	-48.88
3666.095	-50.88
3668.849	-53.88
3671.602	-60.88
3674.352	-51.88
3677.101	-60.88
3679.847	-60.88
3682.591	-62.88
3685.333	-65.88
3688.073	-64.88
3690.811	-65.88
3693.547	-71.88
3696.281	-69.88
3699.013	-76.88
3701.742	-73.88
3704.47	-71.88
3707.195	-73.88
3709.919	-74.88
3712.64	-72.88
3715.359	-75.88
3718.076	-79.88
3720.792	-78.88
3723.505	-78.88
3726.216	-79.88
3728.925	-81.88
3731.632	-82.88
3734.336	-82.88
3737.039	-83.88
3739.74	-82.88
3742.439	-84.88
3745.136	-86.88
3747.83	-88.88
3750.523	-85.88
3753.213	-88.88
3755.902	-82.88
3758.589	-87.88
3761.273	-84.88
3763.956	-90.88
3766.636	-87.88
3769.315	-89.88
3771.991	-85.88
3774.665	-90.88
3777.338	-89.88
3780.008	-94.88
3782.677	-88.88
3785.343	-89.88
3788.007	-88.88
3790.67	-87.88
3793.33	-85.88
3795.989	-87.88
3798.645	-92.88
3801.299	-91.88
3803.952	-92.88
3806.602	-95.88
3809.251	-94.88
3811.897	-95.88
3814.542	-91.88
3817.184	-92.88
3819.825	-89.88
3822.463	-92.88
3825.1	-91.88
3827.735	-90.88
3830.367	-96.88
3832.998	-96.88
3835.627	-93.88
3838.253	-95.88
3840.878	-92.88
3843.501	-93.88
3846.122	-94.88
3848.741	-91.88
3851.358	-93.88
3853.973	-91.88
3856.586	-95.88
3859.197	-98.88
3861.806	-93.88
3864.414	-93.88
3867.019	-94.88
3869.622	-91.88
3872.224	-97.88
3874.823	-94.88
3877.421	-87.88
3880.016	-90.88
3882.61	-85.88
3885.202	-85.88
3887.792	-86.88
3890.38	-91.88
3892.966	-91.88
3895.55	-94.88
3898.132	-93.88
3900.713	-91.88
3903.291	-95.88
3905.868	-98.88
3908.442	-96.88
3911.015	-96.88
3913.586	-96.88
3916.155	-96.88
3918.722	-97.88
3921.287	-93.88
3923.85	-95.88
3926.411	-95.88
3928.971	-98.88
3931.528	-95.88
3934.084	-97.88
3936.638	-99.88
3939.19	-96.88
3941.74	-95.88
3944.288	-101.88
3946.834	-100.88
3949.378	-98.88
3951.921	-96.88
3954.462	-95.88
3957	-96.88
3959.537	-98.88
3962.072	-97.88
3964.606	-97.88
3967.137	-95.88
3969.667	-95.88
3972.194	-97.88
3974.72	-97.88
3977.244	-94.88
3979.766	-96.88
3982.286	-95.88
3984.805	-100.88
3987.321	-94.88
3989.836	-97.88
3992.349	-97.88
3994.86	-94.88
3997.369	-97.88
3999.877	-96.88
4002.382	-98.88
4004.886	-93.88
4007.388	-94.88
4009.888	-96.88
4012.386	-98.88
4014.883	-97.88
4017.377	-98.88
4019.87	-97.88
4022.361	-96.88
4024.85	-94.88
4027.338	-95.88
4029.823	-97.88
4032.307	-95.88
4034.789	-93.88
4037.269	-95.88
4039.747	-94.88
4042.224	-98.88
4044.699	-98.88
4047.172	-101.88
4049.643	-97.88
4052.112	-99.88
4054.58	-97.88
4057.046	-94.88
4059.51	-97.88
4061.972	-98.88
4064.432	-92.88
4066.891	-94.88
4069.348	-95.88
4071.803	-98.88
4074.256	-101.88
4076.708	-98.88
4079.158	-96.88
4081.606	-99.88
4084.052	-100.88
4086.497	-96.88
4088.939	-94.88
4091.38	-93.88
4093.819	-92.88
4096.257	-98.88
4098.693	-99.88
4101.127	-102.88
4103.559	-99.88
4105.989	-64.88
4108.418	-60.88
4110.845	-59.88
4113.27	-54.88
4115.694	-52.88
4118.115	-44.88
4120.535	-96.88
4122.954	-95.88
4125.37	-99.88
4127.785	-97.88
4130.198	-97.88
4132.609	-95.88
4135.019	-100.88
4137.427	-96.88
4139.833	-99.88
4142.237	-97.88
