Data from B.sub_water_1000000CFUA1_RamanShift_1.txt Node
Date: Wed Mar 08 15:20:22 IST 2017
User: aro
Spectrometer: QEPB0276
Trigger mode: 0
Integration Time (sec): 5.000000E0
Scans to average: 1
Electric dark correction enabled: true
Nonlinearity correction enabled: false
Boxcar width: 0
XAxis mode: Raman Shifts
Number of Pixels in Spectrum: 1044
>>>>>Begin Spectral Data<<<<<
160.701	-27.38
166.742	-3.38
172.777	69.62
178.805	296.62
184.826	812.62
190.841	1686.62
196.849	2677.62
202.85	3313.62
208.845	3432.62
214.833	3320.62
220.815	3212.62
226.789	3120.62
232.758	3040.62
238.719	2944.62
244.674	2817.62
250.623	2708.62
256.565	2603.62
262.5	2480.62
268.429	2360.62
274.351	2277.62
280.267	2174.62
286.176	2125.62
292.079	2046.62
297.975	1980.62
303.865	1921.62
309.748	1891.62
315.625	1848.62
321.495	1820.62
327.359	1789.62
333.217	1770.62
339.068	1740.62
344.912	1747.62
350.751	1743.62
356.583	1728.62
362.408	1739.62
368.227	1756.62
374.04	1750.62
379.847	1754.62
385.647	1762.62
391.44	1790.62
397.228	1784.62
403.009	1783.62
408.784	1792.62
414.553	1784.62
420.315	1804.62
426.071	1792.62
431.821	1812.62
437.565	1784.62
443.302	1800.62
449.033	1781.62
454.758	1779.62
460.477	1762.62
466.189	1770.62
471.896	1764.62
477.596	1738.62
483.29	1741.62
488.978	1737.62
494.66	1719.62
500.335	1671.62
506.005	1652.62
511.668	1613.62
517.325	1586.62
522.977	1571.62
528.622	1532.62
534.261	1522.62
539.894	1501.62
545.521	1464.62
551.141	1482.62
556.756	1462.62
562.365	1452.62
567.968	1427.62
573.565	1430.62
579.155	1420.62
584.74	1416.62
590.319	1397.62
595.892	1395.62
601.459	1386.62
607.02	1386.62
612.575	1374.62
618.124	1339.62
623.667	1329.62
629.204	1318.62
634.735	1302.62
640.261	1317.62
645.781	1299.62
651.294	1287.62
656.802	1267.62
662.304	1282.62
667.8	1250.62
673.29	1251.62
678.775	1251.62
684.254	1248.62
689.726	1232.62
695.193	1239.62
700.655	1213.62
706.11	1208.62
711.56	1199.62
717.004	1197.62
722.442	1185.62
727.874	1171.62
733.301	1174.62
738.722	1174.62
744.137	1155.62
749.547	1161.62
754.951	1149.62
760.349	1156.62
765.741	1136.62
771.128	1162.62
776.509	1137.62
781.885	1134.62
787.254	1134.62
792.618	1140.62
797.977	1113.62
803.33	1116.62
808.677	1094.62
814.019	1087.62
819.355	1066.62
824.686	1064.62
830.011	1052.62
835.33	1050.62
840.644	1044.62
845.952	1036.62
851.255	1022.62
856.552	1024.62
861.844	1015.62
867.13	1012.62
872.41	990.62
877.686	981.62
882.955	972.62
888.219	955.62
893.478	923.62
898.731	920.62
903.979	910.62
909.221	896.62
914.458	899.62
919.69	898.62
924.916	887.62
930.136	883.62
935.351	884.62
940.561	884.62
945.766	871.62
950.965	868.62
956.158	871.62
961.347	854.62
966.529	843.62
971.707	830.62
976.879	816.62
982.046	820.62
987.208	797.62
992.364	800.62
997.515	791.62
1002.66	811.62
1007.801	817.62
1012.936	812.62
1018.066	828.62
1023.19	830.62
1028.309	830.62
1033.423	824.62
1038.532	825.62
1043.636	813.62
1048.734	805.62
1053.827	797.62
1058.915	788.62
1063.998	780.62
1069.075	777.62
1074.147	785.62
1079.214	784.62
1084.276	797.62
1089.333	804.62
1094.385	802.62
1099.431	801.62
1104.472	815.62
1109.509	808.62
1114.54	786.62
1119.565	767.62
1124.586	766.62
1129.602	754.62
1134.613	757.62
1139.618	756.62
1144.619	757.62
1149.614	743.62
1154.604	753.62
1159.589	755.62
1164.57	751.62
1169.545	764.62
1174.515	759.62
1179.48	750.62
1184.44	751.62
1189.395	744.62
1194.345	733.62
1199.29	738.62
1204.23	738.62
1209.165	740.62
1214.095	745.62
1219.021	762.62
1223.941	762.62
1228.856	763.62
1233.766	756.62
1238.672	754.62
1243.572	757.62
1248.467	758.62
1253.358	756.62
1258.244	747.62
1263.124	723.62
1268	705.62
1272.871	716.62
1277.737	697.62
1282.599	689.62
1287.455	693.62
1292.306	710.62
1297.153	701.62
1301.995	700.62
1306.832	694.62
1311.664	707.62
1316.491	712.62
1321.314	710.62
1326.132	702.62
1330.945	701.62
1335.753	673.62
1340.556	651.62
1345.354	642.62
1350.148	625.62
1354.937	633.62
1359.722	636.62
1364.501	628.62
1369.276	652.62
1374.046	662.62
1378.811	667.62
1383.572	655.62
1388.327	663.62
1393.079	652.62
1397.825	640.62
1402.567	635.62
1407.304	616.62
1412.036	617.62
1416.764	609.62
1421.487	608.62
1426.205	600.62
1430.919	615.62
1435.628	615.62
1440.333	616.62
1445.032	629.62
1449.727	630.62
1454.418	633.62
1459.104	632.62
1463.785	621.62
1468.462	614.62
1473.134	607.62
1477.802	605.62
1482.465	584.62
1487.123	606.62
1491.777	601.62
1496.426	623.62
1501.071	625.62
1505.711	631.62
1510.347	637.62
1514.978	653.62
1519.604	657.62
1524.226	667.62
1528.844	670.62
1533.457	667.62
1538.065	666.62
1542.669	666.62
1547.269	656.62
1551.864	666.62
1556.454	675.62
1561.041	679.62
1565.622	681.62
1570.199	700.62
1574.772	701.62
1579.34	712.62
1583.904	737.62
1588.464	745.62
1593.019	748.62
1597.569	751.62
1602.115	779.62
1606.657	780.62
1611.195	797.62
1615.728	795.62
1620.256	805.62
1624.78	822.62
1629.3	835.62
1633.816	854.62
1638.327	864.62
1642.834	877.62
1647.336	884.62
1651.834	887.62
1656.328	873.62
1660.817	872.62
1665.302	858.62
1669.783	839.62
1674.259	798.62
1678.732	779.62
1683.199	734.62
1687.663	699.62
1692.122	675.62
1696.577	651.62
1701.028	643.62
1705.474	625.62
1709.917	615.62
1714.355	593.62
1718.788	579.62
1723.218	552.62
1727.643	535.62
1732.064	515.62
1736.481	512.62
1740.893	491.62
1745.301	474.62
1749.705	458.62
1754.105	437.62
1758.501	425.62
1762.893	418.62
1767.28	404.62
1771.663	402.62
1776.042	387.62
1780.417	394.62
1784.787	399.62
1789.154	399.62
1793.516	402.62
1797.874	408.62
1802.228	404.62
1806.578	406.62
1810.924	404.62
1815.266	392.62
1819.603	378.62
1823.937	381.62
1828.266	368.62
1832.591	360.62
1836.913	362.62
1841.23	356.62
1845.543	355.62
1849.852	354.62
1854.156	351.62
1858.457	343.62
1862.754	352.62
1867.047	348.62
1871.335	352.62
1875.62	351.62
1879.9	356.62
1884.177	347.62
1888.449	346.62
1892.718	359.62
1896.982	344.62
1901.243	339.62
1905.499	343.62
1909.752	343.62
1914	336.62
1918.245	343.62
1922.485	350.62
1926.722	359.62
1930.954	365.62
1935.183	363.62
1939.408	361.62
1943.628	359.62
1947.845	368.62
1952.058	363.62
1956.267	358.62
1960.472	366.62
1964.673	348.62
1968.87	349.62
1973.063	353.62
1977.252	348.62
1981.438	349.62
1985.619	338.62
1989.797	339.62
1993.971	340.62
1998.14	333.62
2002.306	344.62
2006.469	346.62
2010.627	347.62
2014.781	343.62
2018.932	348.62
2023.078	345.62
2027.221	343.62
2031.36	334.62
2035.495	337.62
2039.627	339.62
2043.754	329.62
2047.878	325.62
2051.998	330.62
2056.114	333.62
2060.226	339.62
2064.334	336.62
2068.439	341.62
2072.54	338.62
2076.637	347.62
2080.73	332.62
2084.82	347.62
2088.906	350.62
2092.988	354.62
2097.066	349.62
2101.14	352.62
2105.211	342.62
2109.278	347.62
2113.342	341.62
2117.401	335.62
2121.457	330.62
2125.509	331.62
2129.558	342.62
2133.602	330.62
2137.643	332.62
2141.681	327.62
2145.714	325.62
2149.744	323.62
2153.77	320.62
2157.793	317.62
2161.812	310.62
2165.827	304.62
2169.838	298.62
2173.846	291.62
2177.851	290.62
2181.851	289.62
2185.848	282.62
2189.841	284.62
2193.831	273.62
2197.817	271.62
2201.799	274.62
2205.778	275.62
2209.753	268.62
2213.725	268.62
2217.693	261.62
2221.657	271.62
2225.618	263.62
2229.575	255.62
2233.529	256.62
2237.479	261.62
2241.425	252.62
2245.368	249.62
2249.307	248.62
2253.243	242.62
2257.175	247.62
2261.104	237.62
2265.029	226.62
2268.95	228.62
2272.868	222.62
2276.783	218.62
2280.694	218.62
2284.601	207.62
2288.505	206.62
2292.405	208.62
2296.302	210.62
2300.195	198.62
2304.085	198.62
2307.971	188.62
2311.854	191.62
2315.734	181.62
2319.609	184.62
2323.482	170.62
2327.351	179.62
2331.216	173.62
2335.078	167.62
2338.937	172.62
2342.792	167.62
2346.643	162.62
2350.492	159.62
2354.336	166.62
2358.178	156.62
2362.015	161.62
2365.85	166.62
2369.681	165.62
2373.508	162.62
2377.333	162.62
2381.153	163.62
2384.971	161.62
2388.785	152.62
2392.595	151.62
2396.402	148.62
2400.206	147.62
2404.007	145.62
2407.804	148.62
2411.597	151.62
2415.388	145.62
2419.174	154.62
2422.958	147.62
2426.738	143.62
2430.515	143.62
2434.289	141.62
2438.059	140.62
2441.825	139.62
2445.589	140.62
2449.349	140.62
2453.106	130.62
2456.859	131.62
2460.61	135.62
2464.356	130.62
2468.1	118.62
2471.84	123.62
2475.577	129.62
2479.311	127.62
2483.041	117.62
2486.768	124.62
2490.492	128.62
2494.213	132.62
2497.93	123.62
2501.644	127.62
2505.355	115.62
2509.062	118.62
2512.766	126.62
2516.467	122.62
2520.165	119.62
2523.859	111.62
2527.551	123.62
2531.239	114.62
2534.923	122.62
2538.605	113.62
2542.283	120.62
2545.958	112.62
2549.63	114.62
2553.299	110.62
2556.964	115.62
2560.626	107.62
2564.285	109.62
2567.941	109.62
2571.594	102.62
2575.243	109.62
2578.89	98.62
2582.533	100.62
2586.173	104.62
2589.809	100.62
2593.443	99.62
2597.073	101.62
2600.701	104.62
2604.325	101.62
2607.946	102.62
2611.564	99.62
2615.178	97.62
2618.79	94.62
2622.398	97.62
2626.004	97.62
2629.606	95.62
2633.205	97.62
2636.801	99.62
2640.394	91.62
2643.983	90.62
2647.57	92.62
2651.153	83.62
2654.734	86.62
2658.311	84.62
2661.885	82.62
2665.456	81.62
2669.025	78.62
2672.589	83.62
2676.151	80.62
2679.71	85.62
2683.266	78.62
2686.819	73.62
2690.368	68.62
2693.915	73.62
2697.458	66.62
2700.999	73.62
2704.536	71.62
2708.071	72.62
2711.602	69.62
2715.13	73.62
2718.656	67.62
2722.178	64.62
2725.697	64.62
2729.214	60.62
2732.727	67.62
2736.237	69.62
2739.744	67.62
2743.249	72.62
2746.75	68.62
2750.248	73.62
2753.743	80.62
2757.236	81.62
2760.725	75.62
2764.211	74.62
2767.695	76.62
2771.175	71.62
2774.652	73.62
2778.127	74.62
2781.598	80.62
2785.067	75.62
2788.532	73.62
2791.995	81.62
2795.455	80.62
2798.911	80.62
2802.365	76.62
2805.816	80.62
2809.264	79.62
2812.709	80.62
2816.151	81.62
2819.59	78.62
2823.026	79.62
2826.46	83.62
2829.89	83.62
2833.318	86.62
2836.742	82.62
2840.164	86.62
2843.583	86.62
2846.999	89.62
2850.412	93.62
2853.822	97.62
2857.229	98.62
2860.634	98.62
2864.035	105.62
2867.434	108.62
2870.83	111.62
2874.223	109.62
2877.613	112.62
2881	109.62
2884.385	118.62
2887.766	114.62
2891.145	111.62
2894.521	115.62
2897.894	117.62
2901.264	125.62
2904.631	128.62
2907.996	129.62
2911.358	132.62
2914.717	124.62
2918.073	132.62
2921.426	134.62
2924.777	135.62
2928.124	145.62
2931.469	153.62
2934.811	155.62
2938.15	141.62
2941.487	164.62
2944.821	159.62
2948.152	161.62
2951.48	168.62
2954.805	168.62
2958.128	177.62
2961.447	173.62
2964.765	180.62
2968.079	185.62
2971.39	196.62
2974.699	203.62
2978.005	206.62
2981.308	212.62
2984.609	218.62
2987.907	234.62
2991.202	242.62
2994.494	243.62
2997.784	251.62
3001.07	246.62
3004.355	279.62
3007.636	283.62
3010.915	287.62
3014.191	289.62
3017.464	301.62
3020.734	306.62
3024.002	310.62
3027.267	314.62
3030.53	317.62
3033.789	338.62
3037.046	344.62
3040.301	355.62
3043.552	368.62
3046.801	369.62
3050.048	382.62
3053.291	395.62
3056.532	400.62
3059.771	421.62
3063.006	438.62
3066.239	444.62
3069.469	450.62
3072.697	477.62
3075.922	491.62
3079.144	513.62
3082.364	513.62
3085.581	527.62
3088.795	543.62
3092.007	553.62
3095.216	561.62
3098.423	591.62
3101.627	606.62
3104.828	612.62
3108.026	611.62
3111.222	651.62
3114.416	649.62
3117.607	680.62
3120.795	696.62
3123.98	713.62
3127.163	721.62
3130.344	737.62
3133.521	758.62
3136.696	782.62
3139.869	806.62
3143.039	819.62
3146.206	826.62
3149.371	835.62
3152.533	844.62
3155.693	844.62
3158.85	862.62
3162.005	866.62
3165.157	879.62
3168.306	868.62
3171.453	885.62
3174.597	891.62
3177.739	895.62
3180.878	895.62
3184.014	895.62
3187.149	890.62
3190.28	897.62
3193.409	904.62
3196.536	901.62
3199.659	912.62
3202.781	910.62
3205.9	912.62
3209.016	920.62
3212.13	908.62
3215.241	908.62
3218.35	909.62
3221.456	902.62
3224.56	893.62
3227.661	888.62
3230.76	879.62
3233.856	871.62
3236.95	864.62
3240.041	857.62
3243.13	856.62
3246.216	855.62
3249.3	831.62
3252.382	829.62
3255.46	832.62
3258.537	833.62
3261.611	819.62
3264.682	816.62
3267.751	812.62
3270.818	824.62
3273.882	816.62
3276.943	811.62
3280.002	793.62
3283.059	797.62
3286.113	785.62
3289.165	779.62
3292.214	774.62
3295.261	749.62
3298.306	739.62
3301.348	738.62
3304.387	722.62
3307.425	708.62
3310.459	701.62
3313.492	706.62
3316.521	669.62
3319.549	671.62
3322.574	668.62
3325.597	662.62
3328.617	659.62
3331.635	651.62
3334.65	659.62
3337.663	666.62
3340.674	649.62
3343.682	647.62
3346.688	634.62
3349.691	634.62
3352.692	632.62
3355.691	631.62
3358.687	616.62
3361.681	619.62
3364.673	619.62
3367.662	597.62
3370.649	601.62
3373.633	597.62
3376.615	579.62
3379.595	570.62
3382.572	568.62
3385.547	551.62
3388.52	558.62
3391.49	540.62
3394.458	538.62
3397.424	532.62
3400.387	525.62
3403.348	522.62
3406.307	513.62
3409.263	509.62
3412.217	509.62
3415.168	489.62
3418.118	498.62
3421.065	482.62
3424.009	484.62
3426.951	472.62
3429.891	463.62
3432.829	467.62
3435.764	450.62
3438.697	435.62
3441.628	426.62
3444.557	414.62
3447.483	403.62
3450.407	398.62
3453.328	386.62
3456.247	372.62
3459.164	372.62
3462.079	352.62
3464.991	340.62
3467.902	333.62
3470.809	328.62
3473.715	316.62
3476.618	298.62
3479.519	297.62
3482.418	283.62
3485.315	275.62
3488.209	268.62
3491.101	261.62
3493.99	249.62
3496.878	246.62
3499.763	242.62
3502.646	225.62
3505.527	222.62
3508.405	214.62
3511.281	208.62
3514.155	199.62
3517.027	189.62
3519.897	188.62
3522.764	163.62
3525.629	167.62
3528.492	158.62
3531.352	149.62
3534.211	133.62
3537.067	123.62
3539.921	114.62
3542.773	113.62
3545.622	106.62
3548.469	96.62
3551.315	99.62
3554.157	85.62
3556.998	81.62
3559.837	73.62
3562.673	70.62
3565.507	63.62
3568.339	61.62
3571.169	59.62
3573.996	55.62
3576.822	55.62
3579.645	47.62
3582.466	41.62
3585.285	35.62
3588.101	27.62
3590.916	24.62
3593.728	21.62
3596.538	15.62
3599.346	17.62
3602.152	15.62
3604.956	10.62
3607.757	7.62
3610.556	-2.38
3613.354	-3.38
3616.149	-5.38
3618.942	-5.38
3621.732	-8.38
3624.521	-17.38
3627.307	-18.38
3630.092	-13.38
3632.874	-17.38
3635.654	-26.38
3638.432	-21.38
3641.208	-27.38
3643.982	-24.38
3646.753	-30.38
3649.523	-28.38
3652.29	-29.38
3655.055	-32.38
3657.818	-33.38
3660.579	-34.38
3663.338	-41.38
3666.095	-44.38
3668.849	-42.38
3671.602	-51.38
3674.352	-49.38
3677.101	-50.38
3679.847	-50.38
3682.591	-55.38
3685.333	-49.38
3688.073	-57.38
3690.811	-57.38
3693.547	-59.38
3696.281	-58.38
3699.013	-58.38
3701.742	-60.38
3704.47	-62.38
3707.195	-62.38
3709.919	-65.38
3712.64	-64.38
3715.359	-65.38
3718.076	-64.38
3720.792	-64.38
3723.505	-64.38
3726.216	-68.38
3728.925	-66.38
3731.632	-68.38
3734.336	-67.38
3737.039	-65.38
3739.74	-72.38
3742.439	-69.38
3745.136	-72.38
3747.83	-74.38
3750.523	-71.38
3753.213	-74.38
3755.902	-70.38
3758.589	-71.38
3761.273	-69.38
3763.956	-71.38
3766.636	-74.38
3769.315	-71.38
3771.991	-70.38
3774.665	-76.38
3777.338	-76.38
3780.008	-80.38
3782.677	-77.38
3785.343	-77.38
3788.007	-77.38
3790.67	-77.38
3793.33	-74.38
3795.989	-74.38
3798.645	-74.38
3801.299	-74.38
3803.952	-76.38
3806.602	-76.38
3809.251	-77.38
3811.897	-83.38
3814.542	-77.38
3817.184	-75.38
3819.825	-77.38
3822.463	-81.38
3825.1	-79.38
3827.735	-80.38
3830.367	-84.38
3832.998	-80.38
3835.627	-78.38
3838.253	-79.38
3840.878	-78.38
3843.501	-79.38
3846.122	-76.38
3848.741	-74.38
3851.358	-76.38
3853.973	-78.38
3856.586	-81.38
3859.197	-84.38
3861.806	-80.38
3864.414	-80.38
3867.019	-82.38
3869.622	-83.38
3872.224	-79.38
3874.823	-77.38
3877.421	-72.38
3880.016	-76.38
3882.61	-69.38
3885.202	-71.38
3887.792	-74.38
3890.38	-78.38
3892.966	-77.38
3895.55	-82.38
3898.132	-80.38
3900.713	-80.38
3903.291	-84.38
3905.868	-86.38
3908.442	-81.38
3911.015	-81.38
3913.586	-80.38
3916.155	-80.38
3918.722	-79.38
3921.287	-75.38
3923.85	-79.38
3926.411	-78.38
3928.971	-83.38
3931.528	-80.38
3934.084	-82.38
3936.638	-84.38
3939.19	-84.38
3941.74	-81.38
3944.288	-87.38
3946.834	-86.38
3949.378	-80.38
3951.921	-81.38
3954.462	-80.38
3957	-82.38
3959.537	-80.38
3962.072	-78.38
3964.606	-82.38
3967.137	-85.38
3969.667	-83.38
3972.194	-85.38
3974.72	-81.38
3977.244	-85.38
3979.766	-82.38
3982.286	-81.38
3984.805	-84.38
3987.321	-79.38
3989.836	-81.38
3992.349	-82.38
3994.86	-81.38
3997.369	-82.38
3999.877	-83.38
4002.382	-84.38
4004.886	-81.38
4007.388	-81.38
4009.888	-81.38
4012.386	-83.38
4014.883	-80.38
4017.377	-86.38
4019.87	-83.38
4022.361	-86.38
4024.85	-82.38
4027.338	-84.38
4029.823	-81.38
4032.307	-85.38
4034.789	-79.38
4037.269	-79.38
4039.747	-80.38
4042.224	-80.38
4044.699	-81.38
4047.172	-86.38
4049.643	-83.38
4052.112	-82.38
4054.58	-79.38
4057.046	-82.38
4059.51	-83.38
4061.972	-85.38
4064.432	-81.38
4066.891	-80.38
4069.348	-82.38
4071.803	-86.38
4074.256	-84.38
4076.708	-86.38
4079.158	-79.38
4081.606	-78.38
4084.052	-81.38
4086.497	-78.38
4088.939	-79.38
4091.38	-78.38
4093.819	-83.38
4096.257	-87.38
4098.693	-87.38
4101.127	-86.38
4103.559	-85.38
4105.989	-54.38
4108.418	-47.38
4110.845	-47.38
4113.27	-40.38
4115.694	-41.38
4118.115	-33.38
4120.535	-81.38
4122.954	-86.38
4125.37	-84.38
4127.785	-87.38
4130.198	-84.38
4132.609	-82.38
4135.019	-85.38
4137.427	-83.38
4139.833	-85.38
4142.237	-81.38
