Data from B.sub_water_10CFUA2_RamanShift_1.txt Node
Date: Wed Mar 08 14:49:12 IST 2017
User: aro
Spectrometer: QEPB0276
Trigger mode: 0
Integration Time (sec): 5.000000E0
Scans to average: 1
Electric dark correction enabled: true
Nonlinearity correction enabled: false
Boxcar width: 0
XAxis mode: Raman Shifts
Number of Pixels in Spectrum: 1044
>>>>>Begin Spectral Data<<<<<
160.701	-38.62
166.742	-7.62
172.777	89.38
178.805	393.38
184.826	1073.38
190.841	2232.38
196.849	3478.38
202.85	4255.38
208.845	4404.38
214.833	4258.38
220.815	4075.38
226.789	3972.38
232.758	3835.38
238.719	3699.38
244.674	3566.38
250.623	3405.38
256.565	3265.38
262.5	3076.38
268.429	2942.38
274.351	2812.38
280.267	2708.38
286.176	2581.38
292.079	2488.38
297.975	2395.38
303.865	2333.38
309.748	2267.38
315.625	2203.38
321.495	2168.38
327.359	2135.38
333.217	2131.38
339.068	2101.38
344.912	2093.38
350.751	2078.38
356.583	2078.38
362.408	2076.38
368.227	2094.38
374.04	2060.38
379.847	2095.38
385.647	2102.38
391.44	2101.38
397.228	2118.38
403.009	2107.38
408.784	2140.38
414.553	2129.38
420.315	2135.38
426.071	2147.38
431.821	2146.38
437.565	2137.38
443.302	2138.38
449.033	2124.38
454.758	2125.38
460.477	2104.38
466.189	2099.38
471.896	2081.38
477.596	2060.38
483.29	2056.38
488.978	2039.38
494.66	2024.38
500.335	2010.38
506.005	1967.38
511.668	1906.38
517.325	1877.38
522.977	1856.38
528.622	1823.38
534.261	1789.38
539.894	1754.38
545.521	1749.38
551.141	1745.38
556.756	1719.38
562.365	1705.38
567.968	1679.38
573.565	1683.38
579.155	1662.38
584.74	1651.38
590.319	1640.38
595.892	1627.38
601.459	1617.38
607.02	1600.38
612.575	1595.38
618.124	1573.38
623.667	1545.38
629.204	1532.38
634.735	1524.38
640.261	1502.38
645.781	1487.38
651.294	1482.38
656.802	1470.38
662.304	1463.38
667.8	1464.38
673.29	1448.38
678.775	1444.38
684.254	1423.38
689.726	1435.38
695.193	1425.38
700.655	1412.38
706.11	1393.38
711.56	1380.38
717.004	1367.38
722.442	1347.38
727.874	1350.38
733.301	1328.38
738.722	1320.38
744.137	1318.38
749.547	1319.38
754.951	1317.38
760.349	1303.38
765.741	1297.38
771.128	1307.38
776.509	1297.38
781.885	1299.38
787.254	1301.38
792.618	1276.38
797.977	1272.38
803.33	1258.38
808.677	1241.38
814.019	1221.38
819.355	1199.38
824.686	1211.38
830.011	1182.38
835.33	1184.38
840.644	1152.38
845.952	1160.38
851.255	1156.38
856.552	1148.38
861.844	1127.38
867.13	1116.38
872.41	1102.38
877.686	1093.38
882.955	1075.38
888.219	1070.38
893.478	1030.38
898.731	1016.38
903.979	1004.38
909.221	992.38
914.458	988.38
919.69	970.38
924.916	973.38
930.136	959.38
935.351	971.38
940.561	954.38
945.766	942.38
950.965	935.38
956.158	910.38
961.347	906.38
966.529	914.38
971.707	876.38
976.879	880.38
982.046	857.38
987.208	862.38
992.364	849.38
997.515	852.38
1002.66	853.38
1007.801	887.38
1012.936	887.38
1018.066	882.38
1023.19	896.38
1028.309	882.38
1033.423	885.38
1038.532	875.38
1043.636	859.38
1048.734	841.38
1053.827	843.38
1058.915	831.38
1063.998	830.38
1069.075	827.38
1074.147	839.38
1079.214	835.38
1084.276	840.38
1089.333	856.38
1094.385	842.38
1099.431	862.38
1104.472	856.38
1109.509	837.38
1114.54	828.38
1119.565	819.38
1124.586	813.38
1129.602	803.38
1134.613	797.38
1139.618	796.38
1144.619	795.38
1149.614	796.38
1154.604	805.38
1159.589	790.38
1164.57	813.38
1169.545	800.38
1174.515	813.38
1179.48	810.38
1184.44	790.38
1189.395	796.38
1194.345	804.38
1199.29	781.38
1204.23	796.38
1209.165	788.38
1214.095	809.38
1219.021	799.38
1223.941	809.38
1228.856	795.38
1233.766	810.38
1238.672	798.38
1243.572	810.38
1248.467	800.38
1253.358	788.38
1258.244	780.38
1263.124	767.38
1268	766.38
1272.871	757.38
1277.737	735.38
1282.599	733.38
1287.455	731.38
1292.306	741.38
1297.153	735.38
1301.995	744.38
1306.832	738.38
1311.664	742.38
1316.491	755.38
1321.314	751.38
1326.132	735.38
1330.945	721.38
1335.753	708.38
1340.556	685.38
1345.354	693.38
1350.148	668.38
1354.937	670.38
1359.722	666.38
1364.501	666.38
1369.276	685.38
1374.046	692.38
1378.811	697.38
1383.572	700.38
1388.327	698.38
1393.079	682.38
1397.825	666.38
1402.567	658.38
1407.304	649.38
1412.036	652.38
1416.764	643.38
1421.487	628.38
1426.205	636.38
1430.919	634.38
1435.628	657.38
1440.333	649.38
1445.032	655.38
1449.727	658.38
1454.418	669.38
1459.104	658.38
1463.785	651.38
1468.462	649.38
1473.134	633.38
1477.802	625.38
1482.465	633.38
1487.123	624.38
1491.777	623.38
1496.426	637.38
1501.071	655.38
1505.711	667.38
1510.347	681.38
1514.978	685.38
1519.604	702.38
1524.226	712.38
1528.844	711.38
1533.457	700.38
1538.065	707.38
1542.669	718.38
1547.269	709.38
1551.864	724.38
1556.454	725.38
1561.041	735.38
1565.622	747.38
1570.199	752.38
1574.772	769.38
1579.34	780.38
1583.904	816.38
1588.464	817.38
1593.019	835.38
1597.569	851.38
1602.115	862.38
1606.657	869.38
1611.195	885.38
1615.728	905.38
1620.256	916.38
1624.78	943.38
1629.3	958.38
1633.816	976.38
1638.327	984.38
1642.834	996.38
1647.336	1001.38
1651.834	996.38
1656.328	991.38
1660.817	994.38
1665.302	967.38
1669.783	960.38
1674.259	912.38
1678.732	883.38
1683.199	831.38
1687.663	793.38
1692.122	744.38
1696.577	732.38
1701.028	700.38
1705.474	691.38
1709.917	674.38
1714.355	651.38
1718.788	623.38
1723.218	594.38
1727.643	570.38
1732.064	554.38
1736.481	522.38
1740.893	516.38
1745.301	484.38
1749.705	466.38
1754.105	449.38
1758.501	443.38
1762.893	422.38
1767.28	410.38
1771.663	397.38
1776.042	391.38
1780.417	395.38
1784.787	386.38
1789.154	390.38
1793.516	384.38
1797.874	391.38
1802.228	410.38
1806.578	398.38
1810.924	386.38
1815.266	399.38
1819.603	380.38
1823.937	372.38
1828.266	359.38
1832.591	359.38
1836.913	356.38
1841.23	342.38
1845.543	346.38
1849.852	336.38
1854.156	337.38
1858.457	341.38
1862.754	337.38
1867.047	342.38
1871.335	338.38
1875.62	348.38
1879.9	351.38
1884.177	345.38
1888.449	335.38
1892.718	337.38
1896.982	329.38
1901.243	346.38
1905.499	340.38
1909.752	333.38
1914	331.38
1918.245	326.38
1922.485	344.38
1926.722	345.38
1930.954	346.38
1935.183	351.38
1939.408	361.38
1943.628	359.38
1947.845	360.38
1952.058	363.38
1956.267	359.38
1960.472	351.38
1964.673	353.38
1968.87	345.38
1973.063	340.38
1977.252	346.38
1981.438	334.38
1985.619	340.38
1989.797	337.38
1993.971	340.38
1998.14	342.38
2002.306	349.38
2006.469	346.38
2010.627	345.38
2014.781	342.38
2018.932	350.38
2023.078	343.38
2027.221	350.38
2031.36	345.38
2035.495	341.38
2039.627	343.38
2043.754	337.38
2047.878	337.38
2051.998	328.38
2056.114	341.38
2060.226	338.38
2064.334	346.38
2068.439	347.38
2072.54	344.38
2076.637	358.38
2080.73	346.38
2084.82	359.38
2088.906	356.38
2092.988	354.38
2097.066	359.38
2101.14	359.38
2105.211	357.38
2109.278	351.38
2113.342	342.38
2117.401	339.38
2121.457	344.38
2125.509	346.38
2129.558	341.38
2133.602	341.38
2137.643	351.38
2141.681	344.38
2145.714	337.38
2149.744	339.38
2153.77	327.38
2157.793	323.38
2161.812	320.38
2165.827	306.38
2169.838	303.38
2173.846	302.38
2177.851	291.38
2181.851	293.38
2185.848	285.38
2189.841	275.38
2193.831	272.38
2197.817	274.38
2201.799	264.38
2205.778	268.38
2209.753	261.38
2213.725	268.38
2217.693	258.38
2221.657	256.38
2225.618	263.38
2229.575	256.38
2233.529	254.38
2237.479	246.38
2241.425	252.38
2245.368	236.38
2249.307	246.38
2253.243	241.38
2257.175	234.38
2261.104	226.38
2265.029	215.38
2268.95	210.38
2272.868	215.38
2276.783	208.38
2280.694	202.38
2284.601	203.38
2288.505	191.38
2292.405	195.38
2296.302	195.38
2300.195	188.38
2304.085	180.38
2307.971	189.38
2311.854	176.38
2315.734	168.38
2319.609	156.38
2323.482	163.38
2327.351	157.38
2331.216	157.38
2335.078	155.38
2338.937	159.38
2342.792	150.38
2346.643	149.38
2350.492	150.38
2354.336	148.38
2358.178	144.38
2362.015	144.38
2365.85	136.38
2369.681	141.38
2373.508	140.38
2377.333	144.38
2381.153	140.38
2384.971	140.38
2388.785	140.38
2392.595	139.38
2396.402	125.38
2400.206	132.38
2404.007	136.38
2407.804	128.38
2411.597	129.38
2415.388	126.38
2419.174	126.38
2422.958	119.38
2426.738	122.38
2430.515	109.38
2434.289	114.38
2438.059	119.38
2441.825	115.38
2445.589	113.38
2449.349	124.38
2453.106	115.38
2456.859	118.38
2460.61	109.38
2464.356	111.38
2468.1	106.38
2471.84	98.38
2475.577	103.38
2479.311	101.38
2483.041	97.38
2486.768	104.38
2490.492	100.38
2494.213	106.38
2497.93	102.38
2501.644	105.38
2505.355	99.38
2509.062	103.38
2512.766	101.38
2516.467	98.38
2520.165	97.38
2523.859	101.38
2527.551	92.38
2531.239	89.38
2534.923	97.38
2538.605	91.38
2542.283	95.38
2545.958	89.38
2549.63	94.38
2553.299	91.38
2556.964	93.38
2560.626	84.38
2564.285	88.38
2567.941	88.38
2571.594	87.38
2575.243	82.38
2578.89	82.38
2582.533	83.38
2586.173	78.38
2589.809	83.38
2593.443	74.38
2597.073	85.38
2600.701	79.38
2604.325	81.38
2607.946	76.38
2611.564	72.38
2615.178	75.38
2618.79	71.38
2622.398	76.38
2626.004	68.38
2629.606	72.38
2633.205	75.38
2636.801	71.38
2640.394	74.38
2643.983	70.38
2647.57	69.38
2651.153	64.38
2654.734	67.38
2658.311	64.38
2661.885	56.38
2665.456	58.38
2669.025	54.38
2672.589	59.38
2676.151	61.38
2679.71	58.38
2683.266	58.38
2686.819	56.38
2690.368	54.38
2693.915	56.38
2697.458	54.38
2700.999	45.38
2704.536	47.38
2708.071	50.38
2711.602	46.38
2715.13	54.38
2718.656	42.38
2722.178	44.38
2725.697	44.38
2729.214	49.38
2732.727	47.38
2736.237	49.38
2739.744	52.38
2743.249	51.38
2746.75	59.38
2750.248	54.38
2753.743	56.38
2757.236	55.38
2760.725	60.38
2764.211	56.38
2767.695	60.38
2771.175	58.38
2774.652	61.38
2778.127	63.38
2781.598	65.38
2785.067	68.38
2788.532	65.38
2791.995	60.38
2795.455	67.38
2798.911	63.38
2802.365	63.38
2805.816	64.38
2809.264	69.38
2812.709	72.38
2816.151	76.38
2819.59	76.38
2823.026	71.38
2826.46	75.38
2829.89	80.38
2833.318	72.38
2836.742	70.38
2840.164	80.38
2843.583	81.38
2846.999	87.38
2850.412	91.38
2853.822	94.38
2857.229	95.38
2860.634	99.38
2864.035	102.38
2867.434	104.38
2870.83	108.38
2874.223	110.38
2877.613	109.38
2881	112.38
2884.385	117.38
2887.766	115.38
2891.145	115.38
2894.521	117.38
2897.894	131.38
2901.264	126.38
2904.631	131.38
2907.996	141.38
2911.358	126.38
2914.717	138.38
2918.073	136.38
2921.426	142.38
2924.777	143.38
2928.124	148.38
2931.469	167.38
2934.811	174.38
2938.15	169.38
2941.487	178.38
2944.821	182.38
2948.152	180.38
2951.48	196.38
2954.805	194.38
2958.128	204.38
2961.447	212.38
2964.765	211.38
2968.079	223.38
2971.39	223.38
2974.699	228.38
2978.005	242.38
2981.308	254.38
2984.609	252.38
2987.907	284.38
2991.202	287.38
2994.494	291.38
2997.784	307.38
3001.07	312.38
3004.355	330.38
3007.636	337.38
3010.915	352.38
3014.191	355.38
3017.464	367.38
3020.734	380.38
3024.002	387.38
3027.267	391.38
3030.53	400.38
3033.789	409.38
3037.046	434.38
3040.301	437.38
3043.552	447.38
3046.801	461.38
3050.048	465.38
3053.291	504.38
3056.532	515.38
3059.771	532.38
3063.006	567.38
3066.239	567.38
3069.469	587.38
3072.697	606.38
3075.922	637.38
3079.144	648.38
3082.364	672.38
3085.581	670.38
3088.795	696.38
3092.007	711.38
3095.216	723.38
3098.423	749.38
3101.627	768.38
3104.828	791.38
3108.026	804.38
3111.222	838.38
3114.416	851.38
3117.607	879.38
3120.795	895.38
3123.98	913.38
3127.163	948.38
3130.344	972.38
3133.521	989.38
3136.696	1019.38
3139.869	1042.38
3143.039	1056.38
3146.206	1083.38
3149.371	1092.38
3152.533	1103.38
3155.693	1107.38
3158.85	1115.38
3162.005	1124.38
3165.157	1133.38
3168.306	1136.38
3171.453	1146.38
3174.597	1160.38
3177.739	1154.38
3180.878	1155.38
3184.014	1161.38
3187.149	1170.38
3190.28	1182.38
3193.409	1174.38
3196.536	1171.38
3199.659	1184.38
3202.781	1179.38
3205.9	1177.38
3209.016	1185.38
3212.13	1171.38
3215.241	1181.38
3218.35	1180.38
3221.456	1141.38
3224.56	1155.38
3227.661	1148.38
3230.76	1138.38
3233.856	1121.38
3236.95	1109.38
3240.041	1101.38
3243.13	1084.38
3246.216	1092.38
3249.3	1080.38
3252.382	1071.38
3255.46	1069.38
3258.537	1064.38
3261.611	1071.38
3264.682	1050.38
3267.751	1054.38
3270.818	1053.38
3273.882	1045.38
3276.943	1052.38
3280.002	1035.38
3283.059	1028.38
3286.113	1007.38
3289.165	994.38
3292.214	980.38
3295.261	966.38
3298.306	947.38
3301.348	939.38
3304.387	915.38
3307.425	920.38
3310.459	907.38
3313.492	888.38
3316.521	871.38
3319.549	859.38
3322.574	859.38
3325.597	850.38
3328.617	855.38
3331.635	844.38
3334.65	841.38
3337.663	845.38
3340.674	815.38
3343.682	817.38
3346.688	827.38
3349.691	824.38
3352.692	830.38
3355.691	803.38
3358.687	806.38
3361.681	793.38
3364.673	788.38
3367.662	779.38
3370.649	760.38
3373.633	759.38
3376.615	743.38
3379.595	738.38
3382.572	726.38
3385.547	711.38
3388.52	721.38
3391.49	696.38
3394.458	690.38
3397.424	683.38
3400.387	672.38
3403.348	669.38
3406.307	665.38
3409.263	652.38
3412.217	643.38
3415.168	637.38
3418.118	622.38
3421.065	621.38
3424.009	609.38
3426.951	619.38
3429.891	600.38
3432.829	585.38
3435.764	584.38
3438.697	570.38
3441.628	544.38
3444.557	527.38
3447.483	517.38
3450.407	504.38
3453.328	490.38
3456.247	484.38
3459.164	467.38
3462.079	453.38
3464.991	437.38
3467.902	422.38
3470.809	414.38
3473.715	401.38
3476.618	391.38
3479.519	385.38
3482.418	361.38
3485.315	351.38
3488.209	337.38
3491.101	333.38
3493.99	324.38
3496.878	310.38
3499.763	301.38
3502.646	292.38
3505.527	285.38
3508.405	265.38
3511.281	258.38
3514.155	249.38
3517.027	235.38
3519.897	229.38
3522.764	212.38
3525.629	205.38
3528.492	188.38
3531.352	175.38
3534.211	166.38
3537.067	157.38
3539.921	145.38
3542.773	140.38
3545.622	129.38
3548.469	125.38
3551.315	120.38
3554.157	113.38
3556.998	98.38
3559.837	86.38
3562.673	85.38
3565.507	81.38
3568.339	72.38
3571.169	71.38
3573.996	60.38
3576.822	56.38
3579.645	49.38
3582.466	43.38
3585.285	36.38
3588.101	35.38
3590.916	29.38
3593.728	18.38
3596.538	22.38
3599.346	14.38
3602.152	11.38
3604.956	7.38
3607.757	-0.62
3610.556	-6.62
3613.354	-10.62
3616.149	-11.62
3618.942	-14.62
3621.732	-20.62
3624.521	-22.62
3627.307	-19.62
3630.092	-27.62
3632.874	-27.62
3635.654	-26.62
3638.432	-36.62
3641.208	-42.62
3643.982	-37.62
3646.753	-44.62
3649.523	-44.62
3652.29	-46.62
3655.055	-47.62
3657.818	-52.62
3660.579	-52.62
3663.338	-56.62
3666.095	-58.62
3668.849	-62.62
3671.602	-65.62
3674.352	-61.62
3677.101	-67.62
3679.847	-72.62
3682.591	-77.62
3685.333	-72.62
3688.073	-74.62
3690.811	-75.62
3693.547	-76.62
3696.281	-76.62
3699.013	-81.62
3701.742	-80.62
3704.47	-81.62
3707.195	-82.62
3709.919	-82.62
3712.64	-85.62
3715.359	-89.62
3718.076	-89.62
3720.792	-89.62
3723.505	-87.62
3726.216	-91.62
3728.925	-93.62
3731.632	-90.62
3734.336	-91.62
3737.039	-89.62
3739.74	-92.62
3742.439	-94.62
3745.136	-94.62
3747.83	-94.62
3750.523	-94.62
3753.213	-100.62
3755.902	-101.62
3758.589	-96.62
3761.273	-93.62
3763.956	-97.62
3766.636	-96.62
3769.315	-95.62
3771.991	-95.62
3774.665	-101.62
3777.338	-100.62
3780.008	-103.62
3782.677	-102.62
3785.343	-100.62
3788.007	-99.62
3790.67	-100.62
3793.33	-97.62
3795.989	-100.62
3798.645	-100.62
3801.299	-98.62
3803.952	-101.62
3806.602	-102.62
3809.251	-99.62
3811.897	-105.62
3814.542	-102.62
3817.184	-104.62
3819.825	-104.62
3822.463	-105.62
3825.1	-106.62
3827.735	-103.62
3830.367	-106.62
3832.998	-104.62
3835.627	-102.62
3838.253	-105.62
3840.878	-101.62
3843.501	-104.62
3846.122	-106.62
3848.741	-104.62
3851.358	-107.62
3853.973	-106.62
3856.586	-106.62
3859.197	-107.62
3861.806	-106.62
3864.414	-105.62
3867.019	-103.62
3869.622	-101.62
3872.224	-103.62
3874.823	-102.62
3877.421	-99.62
3880.016	-102.62
3882.61	-97.62
3885.202	-97.62
3887.792	-103.62
3890.38	-103.62
3892.966	-100.62
3895.55	-107.62
3898.132	-106.62
3900.713	-104.62
3903.291	-106.62
3905.868	-108.62
3908.442	-108.62
3911.015	-110.62
3913.586	-109.62
3916.155	-110.62
3918.722	-111.62
3921.287	-107.62
3923.85	-106.62
3926.411	-106.62
3928.971	-108.62
3931.528	-105.62
3934.084	-108.62
3936.638	-113.62
3939.19	-110.62
3941.74	-107.62
3944.288	-111.62
3946.834	-111.62
3949.378	-110.62
3951.921	-110.62
3954.462	-107.62
3957	-106.62
3959.537	-107.62
3962.072	-110.62
3964.606	-110.62
3967.137	-107.62
3969.667	-110.62
3972.194	-107.62
3974.72	-107.62
3977.244	-108.62
3979.766	-109.62
3982.286	-106.62
3984.805	-111.62
3987.321	-105.62
3989.836	-105.62
3992.349	-104.62
3994.86	-108.62
3997.369	-107.62
3999.877	-108.62
4002.382	-107.62
4004.886	-105.62
4007.388	-109.62
4009.888	-107.62
4012.386	-111.62
4014.883	-107.62
4017.377	-109.62
4019.87	-102.62
4022.361	-108.62
4024.85	-103.62
4027.338	-107.62
4029.823	-106.62
4032.307	-109.62
4034.789	-108.62
4037.269	-107.62
4039.747	-108.62
4042.224	-107.62
4044.699	-112.62
4047.172	-112.62
4049.643	-109.62
4052.112	-110.62
4054.58	-105.62
4057.046	-104.62
4059.51	-106.62
4061.972	-108.62
4064.432	-104.62
4066.891	-108.62
4069.348	-108.62
4071.803	-113.62
4074.256	-110.62
4076.708	-110.62
4079.158	-106.62
4081.606	-107.62
4084.052	-107.62
4086.497	-103.62
4088.939	-104.62
4091.38	-103.62
4093.819	-110.62
4096.257	-114.62
4098.693	-113.62
4101.127	-113.62
4103.559	-108.62
4105.989	-73.62
4108.418	-67.62
4110.845	-62.62
4113.27	-57.62
4115.694	-59.62
4118.115	-48.62
4120.535	-112.62
4122.954	-110.62
4125.37	-111.62
4127.785	-111.62
4130.198	-107.62
4132.609	-107.62
4135.019	-109.62
4137.427	-108.62
4139.833	-110.62
4142.237	-107.62
