Data from B.sub_water_1000000CFUA3_RamanShift_1.txt Node
Date: Wed Mar 08 15:24:17 IST 2017
User: aro
Spectrometer: QEPB0276
Trigger mode: 0
Integration Time (sec): 5.000000E0
Scans to average: 1
Electric dark correction enabled: true
Nonlinearity correction enabled: false
Boxcar width: 0
XAxis mode: Raman Shifts
Number of Pixels in Spectrum: 1044
>>>>>Begin Spectral Data<<<<<
160.701	-26.62
166.742	-0.62
172.777	74.38
178.805	311.38
184.826	867.38
190.841	1811.38
196.849	2840.38
202.85	3521.38
208.845	3679.38
214.833	3501.38
220.815	3393.38
226.789	3286.38
232.758	3189.38
238.719	3080.38
244.674	2976.38
250.623	2828.38
256.565	2712.38
262.5	2562.38
268.429	2448.38
274.351	2351.38
280.267	2257.38
286.176	2168.38
292.079	2090.38
297.975	2020.38
303.865	1953.38
309.748	1919.38
315.625	1862.38
321.495	1828.38
327.359	1816.38
333.217	1794.38
339.068	1782.38
344.912	1779.38
350.751	1780.38
356.583	1750.38
362.408	1766.38
368.227	1770.38
374.04	1775.38
379.847	1755.38
385.647	1780.38
391.44	1788.38
397.228	1815.38
403.009	1803.38
408.784	1838.38
414.553	1819.38
420.315	1818.38
426.071	1835.38
431.821	1830.38
437.565	1820.38
443.302	1829.38
449.033	1800.38
454.758	1806.38
460.477	1790.38
466.189	1793.38
471.896	1771.38
477.596	1752.38
483.29	1740.38
488.978	1727.38
494.66	1737.38
500.335	1690.38
506.005	1645.38
511.668	1622.38
517.325	1584.38
522.977	1571.38
528.622	1544.38
534.261	1526.38
539.894	1495.38
545.521	1477.38
551.141	1469.38
556.756	1460.38
562.365	1448.38
567.968	1428.38
573.565	1422.38
579.155	1427.38
584.74	1404.38
590.319	1390.38
595.892	1392.38
601.459	1373.38
607.02	1357.38
612.575	1344.38
618.124	1313.38
623.667	1317.38
629.204	1309.38
634.735	1292.38
640.261	1280.38
645.781	1259.38
651.294	1262.38
656.802	1250.38
662.304	1250.38
667.8	1241.38
673.29	1225.38
678.775	1229.38
684.254	1216.38
689.726	1222.38
695.193	1198.38
700.655	1184.38
706.11	1183.38
711.56	1172.38
717.004	1157.38
722.442	1145.38
727.874	1148.38
733.301	1113.38
738.722	1135.38
744.137	1119.38
749.547	1133.38
754.951	1134.38
760.349	1100.38
765.741	1114.38
771.128	1103.38
776.509	1105.38
781.885	1109.38
787.254	1100.38
792.618	1082.38
797.977	1092.38
803.33	1065.38
808.677	1059.38
814.019	1049.38
819.355	1037.38
824.686	1028.38
830.011	1015.38
835.33	1012.38
840.644	993.38
845.952	993.38
851.255	979.38
856.552	976.38
861.844	976.38
867.13	948.38
872.41	954.38
877.686	931.38
882.955	924.38
888.219	924.38
893.478	873.38
898.731	874.38
903.979	860.38
909.221	859.38
914.458	848.38
919.69	834.38
924.916	827.38
930.136	827.38
935.351	835.38
940.561	817.38
945.766	824.38
950.965	812.38
956.158	806.38
961.347	786.38
966.529	779.38
971.707	768.38
976.879	751.38
982.046	742.38
987.208	741.38
992.364	737.38
997.515	736.38
1002.66	737.38
1007.801	762.38
1012.936	755.38
1018.066	756.38
1023.19	772.38
1028.309	760.38
1033.423	758.38
1038.532	755.38
1043.636	753.38
1048.734	747.38
1053.827	737.38
1058.915	721.38
1063.998	719.38
1069.075	728.38
1074.147	710.38
1079.214	725.38
1084.276	721.38
1089.333	740.38
1094.385	741.38
1099.431	737.38
1104.472	736.38
1109.509	729.38
1114.54	711.38
1119.565	700.38
1124.586	694.38
1129.602	687.38
1134.613	683.38
1139.618	681.38
1144.619	684.38
1149.614	686.38
1154.604	688.38
1159.589	686.38
1164.57	693.38
1169.545	686.38
1174.515	688.38
1179.48	684.38
1184.44	689.38
1189.395	687.38
1194.345	679.38
1199.29	668.38
1204.23	667.38
1209.165	677.38
1214.095	685.38
1219.021	689.38
1223.941	690.38
1228.856	684.38
1233.766	691.38
1238.672	696.38
1243.572	696.38
1248.467	684.38
1253.358	682.38
1258.244	666.38
1263.124	661.38
1268	640.38
1272.871	644.38
1277.737	634.38
1282.599	629.38
1287.455	628.38
1292.306	632.38
1297.153	639.38
1301.995	637.38
1306.832	644.38
1311.664	642.38
1316.491	636.38
1321.314	627.38
1326.132	626.38
1330.945	615.38
1335.753	598.38
1340.556	592.38
1345.354	579.38
1350.148	567.38
1354.937	565.38
1359.722	574.38
1364.501	578.38
1369.276	580.38
1374.046	595.38
1378.811	596.38
1383.572	595.38
1388.327	598.38
1393.079	565.38
1397.825	580.38
1402.567	567.38
1407.304	550.38
1412.036	547.38
1416.764	552.38
1421.487	548.38
1426.205	532.38
1430.919	549.38
1435.628	550.38
1440.333	556.38
1445.032	562.38
1449.727	563.38
1454.418	567.38
1459.104	565.38
1463.785	556.38
1468.462	540.38
1473.134	541.38
1477.802	529.38
1482.465	538.38
1487.123	543.38
1491.777	544.38
1496.426	537.38
1501.071	556.38
1505.711	577.38
1510.347	579.38
1514.978	595.38
1519.604	601.38
1524.226	610.38
1528.844	612.38
1533.457	604.38
1538.065	599.38
1542.669	603.38
1547.269	610.38
1551.864	618.38
1556.454	612.38
1561.041	622.38
1565.622	628.38
1570.199	634.38
1574.772	639.38
1579.34	657.38
1583.904	665.38
1588.464	678.38
1593.019	700.38
1597.569	721.38
1602.115	718.38
1606.657	732.38
1611.195	731.38
1615.728	759.38
1620.256	767.38
1624.78	796.38
1629.3	796.38
1633.816	824.38
1638.327	834.38
1642.834	839.38
1647.336	853.38
1651.834	850.38
1656.328	840.38
1660.817	824.38
1665.302	822.38
1669.783	778.38
1674.259	760.38
1678.732	732.38
1683.199	704.38
1687.663	672.38
1692.122	642.38
1696.577	606.38
1701.028	599.38
1705.474	584.38
1709.917	574.38
1714.355	548.38
1718.788	519.38
1723.218	496.38
1727.643	481.38
1732.064	460.38
1736.481	448.38
1740.893	431.38
1745.301	414.38
1749.705	395.38
1754.105	383.38
1758.501	368.38
1762.893	358.38
1767.28	356.38
1771.663	341.38
1776.042	335.38
1780.417	327.38
1784.787	342.38
1789.154	341.38
1793.516	335.38
1797.874	341.38
1802.228	347.38
1806.578	341.38
1810.924	328.38
1815.266	336.38
1819.603	323.38
1823.937	309.38
1828.266	307.38
1832.591	303.38
1836.913	301.38
1841.23	291.38
1845.543	294.38
1849.852	295.38
1854.156	290.38
1858.457	291.38
1862.754	292.38
1867.047	289.38
1871.335	291.38
1875.62	296.38
1879.9	293.38
1884.177	289.38
1888.449	293.38
1892.718	297.38
1896.982	294.38
1901.243	286.38
1905.499	287.38
1909.752	280.38
1914	289.38
1918.245	287.38
1922.485	292.38
1926.722	300.38
1930.954	297.38
1935.183	300.38
1939.408	304.38
1943.628	302.38
1947.845	301.38
1952.058	295.38
1956.267	305.38
1960.472	303.38
1964.673	298.38
1968.87	297.38
1973.063	292.38
1977.252	291.38
1981.438	290.38
1985.619	288.38
1989.797	275.38
1993.971	280.38
1998.14	288.38
2002.306	282.38
2006.469	291.38
2010.627	299.38
2014.781	294.38
2018.932	302.38
2023.078	288.38
2027.221	290.38
2031.36	290.38
2035.495	276.38
2039.627	284.38
2043.754	285.38
2047.878	278.38
2051.998	274.38
2056.114	279.38
2060.226	282.38
2064.334	283.38
2068.439	299.38
2072.54	294.38
2076.637	299.38
2080.73	293.38
2084.82	307.38
2088.906	301.38
2092.988	314.38
2097.066	299.38
2101.14	305.38
2105.211	300.38
2109.278	289.38
2113.342	293.38
2117.401	291.38
2121.457	290.38
2125.509	286.38
2129.558	288.38
2133.602	298.38
2137.643	285.38
2141.681	289.38
2145.714	281.38
2149.744	280.38
2153.77	276.38
2157.793	272.38
2161.812	274.38
2165.827	260.38
2169.838	259.38
2173.846	250.38
2177.851	244.38
2181.851	245.38
2185.848	231.38
2189.841	235.38
2193.831	226.38
2197.817	232.38
2201.799	227.38
2205.778	232.38
2209.753	229.38
2213.725	218.38
2217.693	222.38
2221.657	223.38
2225.618	229.38
2229.575	217.38
2233.529	214.38
2237.479	213.38
2241.425	198.38
2245.368	203.38
2249.307	195.38
2253.243	194.38
2257.175	190.38
2261.104	187.38
2265.029	186.38
2268.95	189.38
2272.868	181.38
2276.783	183.38
2280.694	180.38
2284.601	168.38
2288.505	166.38
2292.405	172.38
2296.302	162.38
2300.195	161.38
2304.085	164.38
2307.971	147.38
2311.854	155.38
2315.734	140.38
2319.609	132.38
2323.482	135.38
2327.351	136.38
2331.216	137.38
2335.078	142.38
2338.937	135.38
2342.792	134.38
2346.643	131.38
2350.492	125.38
2354.336	127.38
2358.178	125.38
2362.015	122.38
2365.85	124.38
2369.681	124.38
2373.508	117.38
2377.333	117.38
2381.153	119.38
2384.971	118.38
2388.785	110.38
2392.595	108.38
2396.402	106.38
2400.206	113.38
2404.007	114.38
2407.804	109.38
2411.597	106.38
2415.388	112.38
2419.174	105.38
2422.958	104.38
2426.738	103.38
2430.515	94.38
2434.289	102.38
2438.059	99.38
2441.825	103.38
2445.589	92.38
2449.349	98.38
2453.106	96.38
2456.859	94.38
2460.61	87.38
2464.356	91.38
2468.1	83.38
2471.84	90.38
2475.577	82.38
2479.311	87.38
2483.041	80.38
2486.768	94.38
2490.492	91.38
2494.213	94.38
2497.93	96.38
2501.644	87.38
2505.355	88.38
2509.062	83.38
2512.766	84.38
2516.467	84.38
2520.165	88.38
2523.859	87.38
2527.551	81.38
2531.239	84.38
2534.923	79.38
2538.605	77.38
2542.283	82.38
2545.958	74.38
2549.63	73.38
2553.299	77.38
2556.964	76.38
2560.626	75.38
2564.285	77.38
2567.941	75.38
2571.594	71.38
2575.243	70.38
2578.89	69.38
2582.533	76.38
2586.173	73.38
2589.809	69.38
2593.443	68.38
2597.073	70.38
2600.701	65.38
2604.325	65.38
2607.946	63.38
2611.564	57.38
2615.178	63.38
2618.79	58.38
2622.398	59.38
2626.004	63.38
2629.606	59.38
2633.205	65.38
2636.801	65.38
2640.394	60.38
2643.983	55.38
2647.57	54.38
2651.153	54.38
2654.734	55.38
2658.311	54.38
2661.885	53.38
2665.456	46.38
2669.025	51.38
2672.589	52.38
2676.151	47.38
2679.71	51.38
2683.266	47.38
2686.819	43.38
2690.368	46.38
2693.915	39.38
2697.458	41.38
2700.999	43.38
2704.536	42.38
2708.071	41.38
2711.602	40.38
2715.13	41.38
2718.656	42.38
2722.178	41.38
2725.697	40.38
2729.214	36.38
2732.727	41.38
2736.237	35.38
2739.744	40.38
2743.249	39.38
2746.75	49.38
2750.248	44.38
2753.743	47.38
2757.236	51.38
2760.725	46.38
2764.211	46.38
2767.695	50.38
2771.175	50.38
2774.652	51.38
2778.127	50.38
2781.598	52.38
2785.067	52.38
2788.532	53.38
2791.995	57.38
2795.455	53.38
2798.911	56.38
2802.365	60.38
2805.816	56.38
2809.264	55.38
2812.709	57.38
2816.151	62.38
2819.59	63.38
2823.026	65.38
2826.46	66.38
2829.89	67.38
2833.318	69.38
2836.742	62.38
2840.164	60.38
2843.583	68.38
2846.999	69.38
2850.412	72.38
2853.822	72.38
2857.229	82.38
2860.634	81.38
2864.035	89.38
2867.434	89.38
2870.83	94.38
2874.223	96.38
2877.613	98.38
2881	99.38
2884.385	99.38
2887.766	102.38
2891.145	103.38
2894.521	100.38
2897.894	101.38
2901.264	104.38
2904.631	107.38
2907.996	113.38
2911.358	119.38
2914.717	115.38
2918.073	118.38
2921.426	130.38
2924.777	129.38
2928.124	136.38
2931.469	141.38
2934.811	136.38
2938.15	143.38
2941.487	153.38
2944.821	147.38
2948.152	162.38
2951.48	165.38
2954.805	161.38
2958.128	165.38
2961.447	180.38
2964.765	180.38
2968.079	185.38
2971.39	191.38
2974.699	197.38
2978.005	210.38
2981.308	215.38
2984.609	223.38
2987.907	236.38
2991.202	247.38
2994.494	245.38
2997.784	263.38
3001.07	261.38
3004.355	281.38
3007.636	292.38
3010.915	299.38
3014.191	302.38
3017.464	308.38
3020.734	316.38
3024.002	328.38
3027.267	332.38
3030.53	349.38
3033.789	350.38
3037.046	354.38
3040.301	366.38
3043.552	377.38
3046.801	387.38
3050.048	396.38
3053.291	415.38
3056.532	426.38
3059.771	444.38
3063.006	453.38
3066.239	472.38
3069.469	498.38
3072.697	517.38
3075.922	534.38
3079.144	538.38
3082.364	557.38
3085.581	576.38
3088.795	589.38
3092.007	606.38
3095.216	611.38
3098.423	630.38
3101.627	646.38
3104.828	666.38
3108.026	679.38
3111.222	701.38
3114.416	729.38
3117.607	741.38
3120.795	755.38
3123.98	788.38
3127.163	778.38
3130.344	815.38
3133.521	837.38
3136.696	844.38
3139.869	871.38
3143.039	882.38
3146.206	897.38
3149.371	913.38
3152.533	944.38
3155.693	931.38
3158.85	940.38
3162.005	938.38
3165.157	951.38
3168.306	954.38
3171.453	967.38
3174.597	963.38
3177.739	959.38
3180.878	964.38
3184.014	978.38
3187.149	974.38
3190.28	975.38
3193.409	982.38
3196.536	993.38
3199.659	978.38
3202.781	996.38
3205.9	997.38
3209.016	1003.38
3212.13	999.38
3215.241	996.38
3218.35	985.38
3221.456	980.38
3224.56	975.38
3227.661	946.38
3230.76	944.38
3233.856	945.38
3236.95	931.38
3240.041	946.38
3243.13	934.38
3246.216	918.38
3249.3	925.38
3252.382	913.38
3255.46	901.38
3258.537	897.38
3261.611	892.38
3264.682	910.38
3267.751	898.38
3270.818	894.38
3273.882	883.38
3276.943	879.38
3280.002	877.38
3283.059	865.38
3286.113	859.38
3289.165	849.38
3292.214	830.38
3295.261	821.38
3298.306	806.38
3301.348	801.38
3304.387	797.38
3307.425	777.38
3310.459	773.38
3313.492	753.38
3316.521	761.38
3319.549	731.38
3322.574	724.38
3325.597	734.38
3328.617	725.38
3331.635	722.38
3334.65	699.38
3337.663	711.38
3340.674	697.38
3343.682	709.38
3346.688	693.38
3349.691	697.38
3352.692	688.38
3355.691	680.38
3358.687	679.38
3361.681	686.38
3364.673	673.38
3367.662	660.38
3370.649	657.38
3373.633	639.38
3376.615	641.38
3379.595	623.38
3382.572	622.38
3385.547	602.38
3388.52	609.38
3391.49	591.38
3394.458	589.38
3397.424	577.38
3400.387	574.38
3403.348	575.38
3406.307	558.38
3409.263	561.38
3412.217	548.38
3415.168	546.38
3418.118	537.38
3421.065	536.38
3424.009	535.38
3426.951	521.38
3429.891	506.38
3432.829	491.38
3435.764	507.38
3438.697	485.38
3441.628	467.38
3444.557	464.38
3447.483	446.38
3450.407	428.38
3453.328	425.38
3456.247	412.38
3459.164	401.38
3462.079	386.38
3464.991	375.38
3467.902	370.38
3470.809	346.38
3473.715	339.38
3476.618	330.38
3479.519	329.38
3482.418	319.38
3485.315	306.38
3488.209	298.38
3491.101	294.38
3493.99	277.38
3496.878	264.38
3499.763	257.38
3502.646	244.38
3505.527	242.38
3508.405	233.38
3511.281	225.38
3514.155	218.38
3517.027	206.38
3519.897	195.38
3522.764	176.38
3525.629	177.38
3528.492	168.38
3531.352	161.38
3534.211	144.38
3537.067	138.38
3539.921	132.38
3542.773	128.38
3545.622	121.38
3548.469	107.38
3551.315	97.38
3554.157	96.38
3556.998	84.38
3559.837	82.38
3562.673	73.38
3565.507	69.38
3568.339	72.38
3571.169	64.38
3573.996	58.38
3576.822	54.38
3579.645	51.38
3582.466	46.38
3585.285	41.38
3588.101	34.38
3590.916	31.38
3593.728	21.38
3596.538	20.38
3599.346	17.38
3602.152	11.38
3604.956	8.38
3607.757	0.38
3610.556	-0.62
3613.354	-0.62
3616.149	-4.62
3618.942	-7.62
3621.732	-12.62
3624.521	-9.62
3627.307	-13.62
3630.092	-14.62
3632.874	-14.62
3635.654	-18.62
3638.432	-21.62
3641.208	-30.62
3643.982	-29.62
3646.753	-34.62
3649.523	-35.62
3652.29	-37.62
3655.055	-39.62
3657.818	-41.62
3660.579	-39.62
3663.338	-42.62
3666.095	-44.62
3668.849	-50.62
3671.602	-49.62
3674.352	-50.62
3677.101	-53.62
3679.847	-56.62
3682.591	-53.62
3685.333	-54.62
3688.073	-60.62
3690.811	-63.62
3693.547	-63.62
3696.281	-62.62
3699.013	-63.62
3701.742	-64.62
3704.47	-68.62
3707.195	-65.62
3709.919	-65.62
3712.64	-67.62
3715.359	-65.62
3718.076	-66.62
3720.792	-66.62
3723.505	-68.62
3726.216	-72.62
3728.925	-72.62
3731.632	-73.62
3734.336	-75.62
3737.039	-74.62
3739.74	-76.62
3742.439	-72.62
3745.136	-77.62
3747.83	-78.62
3750.523	-74.62
3753.213	-79.62
3755.902	-76.62
3758.589	-76.62
3761.273	-75.62
3763.956	-80.62
3766.636	-79.62
3769.315	-78.62
3771.991	-74.62
3774.665	-83.62
3777.338	-82.62
3780.008	-84.62
3782.677	-83.62
3785.343	-79.62
3788.007	-78.62
3790.67	-82.62
3793.33	-78.62
3795.989	-79.62
3798.645	-81.62
3801.299	-78.62
3803.952	-80.62
3806.602	-83.62
3809.251	-83.62
3811.897	-82.62
3814.542	-83.62
3817.184	-82.62
3819.825	-81.62
3822.463	-81.62
3825.1	-84.62
3827.735	-83.62
3830.367	-88.62
3832.998	-84.62
3835.627	-86.62
3838.253	-84.62
3840.878	-84.62
3843.501	-85.62
3846.122	-81.62
3848.741	-82.62
3851.358	-83.62
3853.973	-82.62
3856.586	-84.62
3859.197	-88.62
3861.806	-88.62
3864.414	-84.62
3867.019	-83.62
3869.622	-83.62
3872.224	-87.62
3874.823	-81.62
3877.421	-79.62
3880.016	-85.62
3882.61	-76.62
3885.202	-76.62
3887.792	-78.62
3890.38	-80.62
3892.966	-80.62
3895.55	-85.62
3898.132	-85.62
3900.713	-82.62
3903.291	-86.62
3905.868	-88.62
3908.442	-90.62
3911.015	-87.62
3913.586	-90.62
3916.155	-88.62
3918.722	-90.62
3921.287	-84.62
3923.85	-83.62
3926.411	-85.62
3928.971	-90.62
3931.528	-83.62
3934.084	-88.62
3936.638	-89.62
3939.19	-90.62
3941.74	-84.62
3944.288	-91.62
3946.834	-89.62
3949.378	-87.62
3951.921	-87.62
3954.462	-86.62
3957	-89.62
3959.537	-90.62
3962.072	-90.62
3964.606	-88.62
3967.137	-88.62
3969.667	-85.62
3972.194	-87.62
3974.72	-85.62
3977.244	-87.62
3979.766	-85.62
3982.286	-84.62
3984.805	-89.62
3987.321	-83.62
3989.836	-85.62
3992.349	-86.62
3994.86	-90.62
3997.369	-91.62
3999.877	-92.62
4002.382	-90.62
4004.886	-84.62
4007.388	-84.62
4009.888	-83.62
4012.386	-87.62
4014.883	-84.62
4017.377	-88.62
4019.87	-83.62
4022.361	-88.62
4024.85	-85.62
4027.338	-88.62
4029.823	-86.62
4032.307	-91.62
4034.789	-87.62
4037.269	-86.62
4039.747	-89.62
4042.224	-88.62
4044.699	-89.62
4047.172	-89.62
4049.643	-89.62
4052.112	-87.62
4054.58	-85.62
4057.046	-84.62
4059.51	-85.62
4061.972	-87.62
4064.432	-87.62
4066.891	-90.62
4069.348	-87.62
4071.803	-92.62
4074.256	-90.62
4076.708	-90.62
4079.158	-87.62
4081.606	-83.62
4084.052	-88.62
4086.497	-85.62
4088.939	-81.62
4091.38	-84.62
4093.819	-83.62
4096.257	-87.62
4098.693	-91.62
4101.127	-90.62
4103.559	-91.62
4105.989	-59.62
4108.418	-54.62
4110.845	-51.62
4113.27	-46.62
4115.694	-51.62
4118.115	-37.62
4120.535	-87.62
4122.954	-89.62
4125.37	-86.62
4127.785	-91.62
4130.198	-90.62
4132.609	-88.62
4135.019	-89.62
4137.427	-90.62
4139.833	-90.62
4142.237	-87.62
