Data from B.sub_water_10000CFUA2_RamanShift_1.txt Node
Date: Wed Mar 08 15:10:22 IST 2017
User: aro
Spectrometer: QEPB0276
Trigger mode: 0
Integration Time (sec): 5.000000E0
Scans to average: 1
Electric dark correction enabled: true
Nonlinearity correction enabled: false
Boxcar width: 0
XAxis mode: Raman Shifts
Number of Pixels in Spectrum: 1044
>>>>>Begin Spectral Data<<<<<
160.701	-35.38
166.742	-7.38
172.777	77.62
178.805	353.62
184.826	973.62
190.841	2019.62
196.849	3183.62
202.85	3889.62
208.845	4048.62
214.833	3919.62
220.815	3737.62
226.789	3620.62
232.758	3521.62
238.719	3358.62
244.674	3231.62
250.623	3107.62
256.565	2936.62
262.5	2787.62
268.429	2670.62
274.351	2534.62
280.267	2449.62
286.176	2324.62
292.079	2231.62
297.975	2174.62
303.865	2099.62
309.748	2037.62
315.625	1995.62
321.495	1947.62
327.359	1902.62
333.217	1887.62
339.068	1871.62
344.912	1865.62
350.751	1856.62
356.583	1855.62
362.408	1854.62
368.227	1862.62
374.04	1857.62
379.847	1867.62
385.647	1864.62
391.44	1895.62
397.228	1882.62
403.009	1882.62
408.784	1908.62
414.553	1918.62
420.315	1904.62
426.071	1920.62
431.821	1900.62
437.565	1907.62
443.302	1895.62
449.033	1902.62
454.758	1902.62
460.477	1862.62
466.189	1869.62
471.896	1846.62
477.596	1822.62
483.29	1810.62
488.978	1807.62
494.66	1805.62
500.335	1762.62
506.005	1731.62
511.668	1676.62
517.325	1641.62
522.977	1604.62
528.622	1590.62
534.261	1566.62
539.894	1558.62
545.521	1524.62
551.141	1521.62
556.756	1499.62
562.365	1487.62
567.968	1471.62
573.565	1472.62
579.155	1454.62
584.74	1438.62
590.319	1420.62
595.892	1415.62
601.459	1407.62
607.02	1399.62
612.575	1383.62
618.124	1355.62
623.667	1341.62
629.204	1322.62
634.735	1321.62
640.261	1327.62
645.781	1297.62
651.294	1272.62
656.802	1281.62
662.304	1265.62
667.8	1250.62
673.29	1237.62
678.775	1237.62
684.254	1222.62
689.726	1222.62
695.193	1202.62
700.655	1203.62
706.11	1199.62
711.56	1180.62
717.004	1163.62
722.442	1172.62
727.874	1147.62
733.301	1145.62
738.722	1133.62
744.137	1126.62
749.547	1119.62
754.951	1108.62
760.349	1112.62
765.741	1117.62
771.128	1103.62
776.509	1098.62
781.885	1110.62
787.254	1100.62
792.618	1095.62
797.977	1080.62
803.33	1052.62
808.677	1057.62
814.019	1044.62
819.355	1037.62
824.686	1016.62
830.011	996.62
835.33	989.62
840.644	974.62
845.952	968.62
851.255	967.62
856.552	947.62
861.844	935.62
867.13	927.62
872.41	915.62
877.686	903.62
882.955	889.62
888.219	879.62
893.478	857.62
898.731	837.62
903.979	807.62
909.221	802.62
914.458	794.62
919.69	793.62
924.916	794.62
930.136	778.62
935.351	778.62
940.561	781.62
945.766	754.62
950.965	759.62
956.158	740.62
961.347	738.62
966.529	731.62
971.707	718.62
976.879	705.62
982.046	683.62
987.208	682.62
992.364	691.62
997.515	682.62
1002.66	687.62
1007.801	692.62
1012.936	681.62
1018.066	706.62
1023.19	700.62
1028.309	697.62
1033.423	708.62
1038.532	696.62
1043.636	696.62
1048.734	677.62
1053.827	672.62
1058.915	655.62
1063.998	650.62
1069.075	652.62
1074.147	648.62
1079.214	658.62
1084.276	663.62
1089.333	664.62
1094.385	668.62
1099.431	671.62
1104.472	661.62
1109.509	664.62
1114.54	662.62
1119.565	640.62
1124.586	638.62
1129.602	622.62
1134.613	636.62
1139.618	617.62
1144.619	623.62
1149.614	626.62
1154.604	618.62
1159.589	616.62
1164.57	624.62
1169.545	625.62
1174.515	627.62
1179.48	621.62
1184.44	615.62
1189.395	623.62
1194.345	609.62
1199.29	612.62
1204.23	613.62
1209.165	616.62
1214.095	621.62
1219.021	627.62
1223.941	620.62
1228.856	623.62
1233.766	631.62
1238.672	619.62
1243.572	621.62
1248.467	628.62
1253.358	600.62
1258.244	608.62
1263.124	601.62
1268	579.62
1272.871	569.62
1277.737	564.62
1282.599	566.62
1287.455	559.62
1292.306	567.62
1297.153	571.62
1301.995	571.62
1306.832	577.62
1311.664	588.62
1316.491	574.62
1321.314	573.62
1326.132	564.62
1330.945	562.62
1335.753	541.62
1340.556	528.62
1345.354	506.62
1350.148	514.62
1354.937	500.62
1359.722	513.62
1364.501	504.62
1369.276	514.62
1374.046	517.62
1378.811	514.62
1383.572	514.62
1388.327	513.62
1393.079	509.62
1397.825	521.62
1402.567	497.62
1407.304	487.62
1412.036	488.62
1416.764	477.62
1421.487	484.62
1426.205	482.62
1430.919	484.62
1435.628	502.62
1440.333	496.62
1445.032	493.62
1449.727	501.62
1454.418	499.62
1459.104	494.62
1463.785	490.62
1468.462	480.62
1473.134	472.62
1477.802	469.62
1482.465	466.62
1487.123	475.62
1491.777	474.62
1496.426	472.62
1501.071	483.62
1505.711	501.62
1510.347	503.62
1514.978	513.62
1519.604	539.62
1524.226	520.62
1528.844	536.62
1533.457	539.62
1538.065	543.62
1542.669	544.62
1547.269	546.62
1551.864	543.62
1556.454	554.62
1561.041	566.62
1565.622	566.62
1570.199	576.62
1574.772	602.62
1579.34	613.62
1583.904	622.62
1588.464	652.62
1593.019	651.62
1597.569	669.62
1602.115	683.62
1606.657	694.62
1611.195	720.62
1615.728	734.62
1620.256	738.62
1624.78	753.62
1629.3	758.62
1633.816	787.62
1638.327	805.62
1642.834	812.62
1647.336	814.62
1651.834	814.62
1656.328	804.62
1660.817	802.62
1665.302	793.62
1669.783	763.62
1674.259	731.62
1678.732	699.62
1683.199	657.62
1687.663	614.62
1692.122	580.62
1696.577	556.62
1701.028	528.62
1705.474	515.62
1709.917	498.62
1714.355	473.62
1718.788	455.62
1723.218	451.62
1727.643	419.62
1732.064	397.62
1736.481	391.62
1740.893	358.62
1745.301	344.62
1749.705	334.62
1754.105	317.62
1758.501	294.62
1762.893	289.62
1767.28	271.62
1771.663	275.62
1776.042	263.62
1780.417	264.62
1784.787	258.62
1789.154	269.62
1793.516	262.62
1797.874	268.62
1802.228	278.62
1806.578	273.62
1810.924	257.62
1815.266	255.62
1819.603	243.62
1823.937	232.62
1828.266	231.62
1832.591	231.62
1836.913	229.62
1841.23	226.62
1845.543	221.62
1849.852	219.62
1854.156	215.62
1858.457	218.62
1862.754	215.62
1867.047	222.62
1871.335	215.62
1875.62	227.62
1879.9	224.62
1884.177	219.62
1888.449	216.62
1892.718	218.62
1896.982	223.62
1901.243	219.62
1905.499	207.62
1909.752	214.62
1914	214.62
1918.245	222.62
1922.485	222.62
1926.722	226.62
1930.954	223.62
1935.183	231.62
1939.408	229.62
1943.628	221.62
1947.845	228.62
1952.058	232.62
1956.267	230.62
1960.472	233.62
1964.673	225.62
1968.87	218.62
1973.063	220.62
1977.252	232.62
1981.438	222.62
1985.619	222.62
1989.797	214.62
1993.971	226.62
1998.14	223.62
2002.306	229.62
2006.469	228.62
2010.627	229.62
2014.781	240.62
2018.932	235.62
2023.078	227.62
2027.221	232.62
2031.36	228.62
2035.495	223.62
2039.627	228.62
2043.754	223.62
2047.878	226.62
2051.998	218.62
2056.114	231.62
2060.226	232.62
2064.334	230.62
2068.439	230.62
2072.54	231.62
2076.637	234.62
2080.73	229.62
2084.82	244.62
2088.906	245.62
2092.988	244.62
2097.066	244.62
2101.14	242.62
2105.211	244.62
2109.278	234.62
2113.342	234.62
2117.401	232.62
2121.457	233.62
2125.509	232.62
2129.558	234.62
2133.602	225.62
2137.643	225.62
2141.681	222.62
2145.714	223.62
2149.744	224.62
2153.77	217.62
2157.793	212.62
2161.812	216.62
2165.827	208.62
2169.838	212.62
2173.846	198.62
2177.851	191.62
2181.851	196.62
2185.848	185.62
2189.841	181.62
2193.831	183.62
2197.817	181.62
2201.799	176.62
2205.778	172.62
2209.753	168.62
2213.725	177.62
2217.693	168.62
2221.657	173.62
2225.618	166.62
2229.575	165.62
2233.529	159.62
2237.479	160.62
2241.425	151.62
2245.368	149.62
2249.307	146.62
2253.243	145.62
2257.175	144.62
2261.104	135.62
2265.029	133.62
2268.95	131.62
2272.868	127.62
2276.783	125.62
2280.694	122.62
2284.601	118.62
2288.505	117.62
2292.405	120.62
2296.302	116.62
2300.195	111.62
2304.085	112.62
2307.971	102.62
2311.854	105.62
2315.734	93.62
2319.609	92.62
2323.482	86.62
2327.351	90.62
2331.216	92.62
2335.078	88.62
2338.937	90.62
2342.792	81.62
2346.643	85.62
2350.492	84.62
2354.336	82.62
2358.178	77.62
2362.015	75.62
2365.85	78.62
2369.681	80.62
2373.508	75.62
2377.333	77.62
2381.153	82.62
2384.971	72.62
2388.785	77.62
2392.595	70.62
2396.402	68.62
2400.206	71.62
2404.007	58.62
2407.804	63.62
2411.597	64.62
2415.388	59.62
2419.174	63.62
2422.958	65.62
2426.738	63.62
2430.515	61.62
2434.289	56.62
2438.059	54.62
2441.825	61.62
2445.589	61.62
2449.349	59.62
2453.106	59.62
2456.859	55.62
2460.61	51.62
2464.356	43.62
2468.1	46.62
2471.84	45.62
2475.577	44.62
2479.311	45.62
2483.041	45.62
2486.768	47.62
2490.492	45.62
2494.213	44.62
2497.93	47.62
2501.644	48.62
2505.355	47.62
2509.062	42.62
2512.766	49.62
2516.467	41.62
2520.165	44.62
2523.859	40.62
2527.551	33.62
2531.239	35.62
2534.923	35.62
2538.605	38.62
2542.283	38.62
2545.958	35.62
2549.63	37.62
2553.299	38.62
2556.964	36.62
2560.626	36.62
2564.285	36.62
2567.941	36.62
2571.594	30.62
2575.243	31.62
2578.89	29.62
2582.533	27.62
2586.173	25.62
2589.809	26.62
2593.443	28.62
2597.073	25.62
2600.701	25.62
2604.325	26.62
2607.946	31.62
2611.564	29.62
2615.178	22.62
2618.79	25.62
2622.398	26.62
2626.004	20.62
2629.606	17.62
2633.205	27.62
2636.801	17.62
2640.394	23.62
2643.983	18.62
2647.57	18.62
2651.153	13.62
2654.734	15.62
2658.311	14.62
2661.885	15.62
2665.456	17.62
2669.025	15.62
2672.589	19.62
2676.151	15.62
2679.71	17.62
2683.266	19.62
2686.819	17.62
2690.368	11.62
2693.915	10.62
2697.458	11.62
2700.999	12.62
2704.536	9.62
2708.071	13.62
2711.602	6.62
2715.13	10.62
2718.656	12.62
2722.178	7.62
2725.697	7.62
2729.214	8.62
2732.727	4.62
2736.237	12.62
2739.744	17.62
2743.249	19.62
2746.75	16.62
2750.248	25.62
2753.743	22.62
2757.236	17.62
2760.725	18.62
2764.211	14.62
2767.695	15.62
2771.175	23.62
2774.652	17.62
2778.127	20.62
2781.598	24.62
2785.067	27.62
2788.532	20.62
2791.995	22.62
2795.455	24.62
2798.911	33.62
2802.365	25.62
2805.816	27.62
2809.264	26.62
2812.709	33.62
2816.151	35.62
2819.59	32.62
2823.026	34.62
2826.46	34.62
2829.89	39.62
2833.318	43.62
2836.742	38.62
2840.164	41.62
2843.583	49.62
2846.999	46.62
2850.412	48.62
2853.822	55.62
2857.229	51.62
2860.634	58.62
2864.035	65.62
2867.434	70.62
2870.83	63.62
2874.223	68.62
2877.613	78.62
2881	70.62
2884.385	79.62
2887.766	77.62
2891.145	77.62
2894.521	79.62
2897.894	83.62
2901.264	86.62
2904.631	93.62
2907.996	98.62
2911.358	91.62
2914.717	85.62
2918.073	105.62
2921.426	108.62
2924.777	109.62
2928.124	113.62
2931.469	114.62
2934.811	131.62
2938.15	140.62
2941.487	142.62
2944.821	143.62
2948.152	149.62
2951.48	155.62
2954.805	153.62
2958.128	156.62
2961.447	169.62
2964.765	172.62
2968.079	181.62
2971.39	182.62
2974.699	184.62
2978.005	197.62
2981.308	206.62
2984.609	210.62
2987.907	219.62
2991.202	229.62
2994.494	246.62
2997.784	259.62
3001.07	267.62
3004.355	278.62
3007.636	289.62
3010.915	292.62
3014.191	298.62
3017.464	306.62
3020.734	313.62
3024.002	323.62
3027.267	334.62
3030.53	342.62
3033.789	357.62
3037.046	363.62
3040.301	380.62
3043.552	394.62
3046.801	388.62
3050.048	426.62
3053.291	425.62
3056.532	439.62
3059.771	458.62
3063.006	467.62
3066.239	492.62
3069.469	514.62
3072.697	534.62
3075.922	543.62
3079.144	555.62
3082.364	577.62
3085.581	583.62
3088.795	601.62
3092.007	626.62
3095.216	648.62
3098.423	654.62
3101.627	681.62
3104.828	697.62
3108.026	702.62
3111.222	734.62
3114.416	753.62
3117.607	765.62
3120.795	792.62
3123.98	790.62
3127.163	825.62
3130.344	847.62
3133.521	874.62
3136.696	882.62
3139.869	905.62
3143.039	924.62
3146.206	943.62
3149.371	957.62
3152.533	968.62
3155.693	972.62
3158.85	987.62
3162.005	989.62
3165.157	1005.62
3168.306	1005.62
3171.453	999.62
3174.597	1020.62
3177.739	1023.62
3180.878	1010.62
3184.014	1027.62
3187.149	1027.62
3190.28	1032.62
3193.409	1034.62
3196.536	1042.62
3199.659	1034.62
3202.781	1047.62
3205.9	1059.62
3209.016	1055.62
3212.13	1050.62
3215.241	1043.62
3218.35	1039.62
3221.456	1028.62
3224.56	1016.62
3227.661	1016.62
3230.76	990.62
3233.856	993.62
3236.95	972.62
3240.041	983.62
3243.13	969.62
3246.216	964.62
3249.3	950.62
3252.382	956.62
3255.46	946.62
3258.537	951.62
3261.611	942.62
3264.682	947.62
3267.751	934.62
3270.818	944.62
3273.882	931.62
3276.943	930.62
3280.002	926.62
3283.059	894.62
3286.113	899.62
3289.165	882.62
3292.214	872.62
3295.261	853.62
3298.306	846.62
3301.348	835.62
3304.387	823.62
3307.425	814.62
3310.459	805.62
3313.492	802.62
3316.521	785.62
3319.549	772.62
3322.574	767.62
3325.597	760.62
3328.617	759.62
3331.635	762.62
3334.65	737.62
3337.663	751.62
3340.674	752.62
3343.682	744.62
3346.688	750.62
3349.691	732.62
3352.692	724.62
3355.691	728.62
3358.687	710.62
3361.681	701.62
3364.673	697.62
3367.662	691.62
3370.649	684.62
3373.633	680.62
3376.615	671.62
3379.595	657.62
3382.572	647.62
3385.547	640.62
3388.52	638.62
3391.49	610.62
3394.458	621.62
3397.424	610.62
3400.387	609.62
3403.348	589.62
3406.307	597.62
3409.263	582.62
3412.217	573.62
3415.168	556.62
3418.118	561.62
3421.065	556.62
3424.009	568.62
3426.951	551.62
3429.891	521.62
3432.829	527.62
3435.764	509.62
3438.697	500.62
3441.628	483.62
3444.557	475.62
3447.483	467.62
3450.407	453.62
3453.328	440.62
3456.247	434.62
3459.164	416.62
3462.079	401.62
3464.991	384.62
3467.902	379.62
3470.809	358.62
3473.715	348.62
3476.618	338.62
3479.519	328.62
3482.418	321.62
3485.315	316.62
3488.209	305.62
3491.101	290.62
3493.99	279.62
3496.878	275.62
3499.763	264.62
3502.646	251.62
3505.527	249.62
3508.405	236.62
3511.281	226.62
3514.155	219.62
3517.027	206.62
3519.897	200.62
3522.764	184.62
3525.629	173.62
3528.492	163.62
3531.352	155.62
3534.211	145.62
3537.067	138.62
3539.921	128.62
3542.773	125.62
3545.622	116.62
3548.469	108.62
3551.315	102.62
3554.157	98.62
3556.998	84.62
3559.837	81.62
3562.673	73.62
3565.507	69.62
3568.339	62.62
3571.169	55.62
3573.996	51.62
3576.822	51.62
3579.645	41.62
3582.466	37.62
3585.285	34.62
3588.101	24.62
3590.916	24.62
3593.728	18.62
3596.538	9.62
3599.346	12.62
3602.152	12.62
3604.956	3.62
3607.757	-4.38
3610.556	-6.38
3613.354	-10.38
3616.149	-16.38
3618.942	-15.38
3621.732	-17.38
3624.521	-22.38
3627.307	-19.38
3630.092	-22.38
3632.874	-22.38
3635.654	-22.38
3638.432	-29.38
3641.208	-33.38
3643.982	-32.38
3646.753	-40.38
3649.523	-41.38
3652.29	-41.38
3655.055	-45.38
3657.818	-43.38
3660.579	-48.38
3663.338	-49.38
3666.095	-50.38
3668.849	-54.38
3671.602	-59.38
3674.352	-54.38
3677.101	-59.38
3679.847	-65.38
3682.591	-59.38
3685.333	-66.38
3688.073	-65.38
3690.811	-73.38
3693.547	-71.38
3696.281	-65.38
3699.013	-77.38
3701.742	-72.38
3704.47	-74.38
3707.195	-71.38
3709.919	-73.38
3712.64	-72.38
3715.359	-76.38
3718.076	-79.38
3720.792	-81.38
3723.505	-81.38
3726.216	-82.38
3728.925	-81.38
3731.632	-83.38
3734.336	-84.38
3737.039	-83.38
3739.74	-85.38
3742.439	-83.38
3745.136	-86.38
3747.83	-85.38
3750.523	-87.38
3753.213	-88.38
3755.902	-85.38
3758.589	-83.38
3761.273	-82.38
3763.956	-87.38
3766.636	-86.38
3769.315	-88.38
3771.991	-87.38
3774.665	-95.38
3777.338	-90.38
3780.008	-92.38
3782.677	-91.38
3785.343	-88.38
3788.007	-88.38
3790.67	-88.38
3793.33	-86.38
3795.989	-91.38
3798.645	-91.38
3801.299	-86.38
3803.952	-92.38
3806.602	-92.38
3809.251	-93.38
3811.897	-94.38
3814.542	-92.38
3817.184	-93.38
3819.825	-92.38
3822.463	-94.38
3825.1	-91.38
3827.735	-91.38
3830.367	-93.38
3832.998	-92.38
3835.627	-92.38
3838.253	-92.38
3840.878	-94.38
3843.501	-92.38
3846.122	-94.38
3848.741	-92.38
3851.358	-95.38
3853.973	-91.38
3856.586	-96.38
3859.197	-100.38
3861.806	-97.38
3864.414	-94.38
3867.019	-94.38
3869.622	-92.38
3872.224	-95.38
3874.823	-90.38
3877.421	-87.38
3880.016	-90.38
3882.61	-86.38
3885.202	-85.38
3887.792	-89.38
3890.38	-93.38
3892.966	-91.38
3895.55	-98.38
3898.132	-95.38
3900.713	-96.38
3903.291	-94.38
3905.868	-98.38
3908.442	-98.38
3911.015	-98.38
3913.586	-99.38
3916.155	-96.38
3918.722	-96.38
3921.287	-92.38
3923.85	-93.38
3926.411	-94.38
3928.971	-98.38
3931.528	-97.38
3934.084	-98.38
3936.638	-101.38
3939.19	-99.38
3941.74	-97.38
3944.288	-103.38
3946.834	-99.38
3949.378	-98.38
3951.921	-97.38
3954.462	-95.38
3957	-96.38
3959.537	-98.38
3962.072	-99.38
3964.606	-97.38
3967.137	-101.38
3969.667	-96.38
3972.194	-98.38
3974.72	-96.38
3977.244	-97.38
3979.766	-98.38
3982.286	-97.38
3984.805	-98.38
3987.321	-96.38
3989.836	-93.38
3992.349	-97.38
3994.86	-96.38
3997.369	-97.38
3999.877	-99.38
4002.382	-97.38
4004.886	-93.38
4007.388	-96.38
4009.888	-96.38
4012.386	-101.38
4014.883	-98.38
4017.377	-101.38
4019.87	-97.38
4022.361	-99.38
4024.85	-95.38
4027.338	-94.38
4029.823	-93.38
4032.307	-98.38
4034.789	-92.38
4037.269	-96.38
4039.747	-94.38
4042.224	-96.38
4044.699	-99.38
4047.172	-99.38
4049.643	-98.38
4052.112	-98.38
4054.58	-98.38
4057.046	-99.38
4059.51	-98.38
4061.972	-100.38
4064.432	-96.38
4066.891	-93.38
4069.348	-95.38
4071.803	-99.38
4074.256	-96.38
4076.708	-98.38
4079.158	-98.38
4081.606	-94.38
4084.052	-96.38
4086.497	-94.38
4088.939	-93.38
4091.38	-93.38
4093.819	-99.38
4096.257	-100.38
4098.693	-100.38
4101.127	-100.38
4103.559	-100.38
4105.989	-66.38
4108.418	-61.38
4110.845	-57.38
4113.27	-52.38
4115.694	-54.38
4118.115	-49.38
4120.535	-100.38
4122.954	-98.38
4125.37	-101.38
4127.785	-101.38
4130.198	-100.38
4132.609	-95.38
4135.019	-98.38
4137.427	-97.38
4139.833	-97.38
4142.237	-95.38
