##TITLE=FSH701
##FORMAT=SPECTACLE-ASCII V-1.2
##DATA TYPE=ULTRAVIOLET SPECTRUM
##SECOND TYPE=ULTRAVIOLET SPECTRUM
##DATE=04/30/18
##TIME=15:11:22
##SPECTROMETER/DATA SYSTEM=SPECTACLE
##XUNITS=NM EM
##YUNITS=ENERGY
##YFACTOR=1
##FIRSTX=220
##LASTX=410
##NPOINTS=96
##3DDATA=Equidistant
##ZUNITS=NM EX
##FIRSTZ=210
##LASTZ=400
##ZPOINTS=39
##XYDATA=(Y..Y)
##ZVALUE=210
1.481771
1.421571
1.914501
1.860857
1.706481
1.825690
1.996756
2.319813
1.983643
1.747608
2.374649
2.194643
2.842546
2.509952
2.700686
2.898574
2.936721
2.918839
3.298521
3.936887
3.509521
3.569722
3.701448
3.582835
4.564524
4.247427
4.473925
4.129410
4.972816
4.590750
5.153418
5.114675
5.639791
4.920959
5.582571
6.033778
5.841851
5.819798
6.224513
4.667640
5.074739
6.443858
5.288720
5.661845
5.271435
6.023645
6.555915
5.377531
5.775690
5.694628
6.766915
6.692410
5.733967
6.080866
5.850792
6.815791
6.794930
5.882978
5.998611
7.015467
6.238818
6.881952
6.729960
6.831884
6.445646
7.113814
7.719994
8.226633
10.156631
12.989640
13.983846
15.345812
17.597675
20.536780
23.814440
25.190711
27.412772
27.342439
25.082827
24.134517
23.572445
19.217730
16.287565
13.259649
11.862516
9.199977
7.441640
7.142425
6.999969
7.713437
7.196665
6.689429
6.601810
6.649494
6.511807
7.383823
##ZVALUE=215
3.687739
3.632903
3.858805
2.661943
3.006458
2.980828
2.563000
2.951622
3.383756
3.394485
3.142953
3.334880
3.621578
3.042817
2.798438
3.062487
3.361702
3.259778
2.879500
3.543496
3.297925
4.145503
4.841685
4.220605
4.593730
4.842877
4.812479
4.880428
5.262494
5.952716
5.790591
4.934669
6.448627
7.566810
5.939603
6.137490
5.757809
6.281734
6.631613
5.992651
5.631447
5.799532
6.120801
6.680489
6.316900
6.096959
6.199479
6.234646
6.242990
6.696582
6.275773
6.731749
6.574988
6.428957
7.348657
7.028580
6.645918
6.982684
7.565618
6.631613
6.470680
7.762909
6.780624
7.014871
7.296801
8.009672
8.038878
9.045601
8.949637
10.526776
12.115836
14.148951
16.029477
18.906593
19.081831
20.567775
21.384954
23.370981
21.390915
23.268461
20.492673
20.172596
16.617775
15.125871
13.819933
11.370778
8.734465
8.671880
8.471608
7.325411
7.109642
7.284880
7.827878
8.158684
6.775856
7.844567
##ZVALUE=220
11.535883
12.087822
12.091994
12.801886
11.323690
9.426475
8.566976
7.442832
5.877614
6.982684
6.655455
8.400679
7.397532
8.074641
6.752610
5.648732
4.467964
3.463626
3.544688
3.879666
4.063845
3.999472
4.232526
4.242659
3.881454
4.751682
4.714727
5.053878
5.675554
6.351471
7.009506
6.634593
7.512569
7.810593
7.251501
8.245707
7.168651
7.858872
8.307695
8.252859
8.216500
7.500648
7.798672
8.382797
7.109642
7.337928
6.378889
7.754564
7.422566
7.634759
7.334948
7.190704
7.563829
7.056594
7.158518
6.848574
7.696748
8.160472
7.660985
7.551908
7.278919
7.058978
8.061528
7.709861
7.538795
7.552505
8.629560
8.202791
10.229945
9.698868
11.145473
13.596416
16.614795
16.197562
17.896891
18.962622
19.746423
18.991828
19.382834
18.204451
17.137527
15.189648
13.537407
12.700558
11.154413
10.667443
9.522438
9.664893
9.388924
9.600520
9.098649
8.335710
9.324551
9.496808
8.955598
8.942485
##ZVALUE=225
22.297502
23.630857
29.460788
37.209988
41.835904
45.280457
41.021705
34.813881
26.226640
23.630857
15.806556
16.405582
17.068982
17.256737
19.247532
19.770861
15.070438
13.301969
11.582971
7.475615
6.043911
4.787445
4.032850
3.370643
4.401803
4.964471
4.748702
5.395412
5.566478
7.132888
8.216500
8.780956
9.250641
8.662939
8.670688
10.450482
9.607673
10.403991
10.445714
10.984540
8.700490
9.190440
9.568930
9.659529
8.247495
9.227991
9.211898
9.595752
8.617640
8.762479
8.987784
8.334517
8.724928
7.568598
9.039640
9.045601
9.414554
8.477569
9.662509
9.680986
9.314418
10.072589
9.127855
8.912683
10.429621
11.353493
10.439754
11.918545
13.504624
13.418794
14.948845
16.260743
16.358495
17.800927
18.068552
19.668937
19.435883
20.576715
18.928647
17.715693
17.405748
17.419457
16.654730
16.855597
15.091896
14.736652
14.302731
13.615489
14.602542
13.546944
13.758540
12.604594
13.015866
13.643503
13.098717
14.368892
##ZVALUE=230
23.164749
24.403930
40.563941
65.403581
87.824464
111.032724
122.394562
124.551654
121.760964
93.855858
73.535442
51.641464
40.852427
34.859776
35.584569
37.485957
41.100979
41.602850
37.732720
31.724572
23.949742
17.381907
11.108518
8.296967
6.585717
5.695820
5.646944
5.933642
7.081628
7.053614
8.295774
9.111762
9.745955
10.135770
11.525750
10.144711
11.531711
11.649728
11.685491
10.562539
11.363626
12.468696
10.218620
11.402965
11.162758
10.314584
11.497736
10.745525
11.652708
11.018515
10.067821
11.170506
10.505915
11.883974
10.398626
12.071729
12.268424
12.785792
12.697577
13.327599
14.254451
13.475418
14.830828
14.513731
15.030503
15.482903
16.433597
16.357899
18.792748
19.394755
23.917556
22.595525
23.256540
27.290583
28.648973
27.471781
28.864741
28.067827
27.140975
25.863647
28.167963
26.464462
27.081966
24.921894
23.713708
26.934743
25.156736
24.632812
25.009513
26.028752
24.629831
24.134517
24.573803
24.947524
23.570657
23.568869
##ZVALUE=235
9.614825
10.732412
24.787784
56.600571
86.400509
146.870613
195.217729
253.129601
283.385515
284.891725
254.903436
219.278932
148.637891
111.729503
79.056621
66.103935
64.728856
64.698458
75.908899
76.108575
73.857903
58.227777
46.922565
32.246709
23.502707
14.590621
10.891557
8.026958
7.547736
6.487966
8.572936
8.025765
8.556843
8.636713
9.341836
11.435747
10.330677
10.637641
10.542870
10.466576
11.870861
10.483861
11.686683
11.677742
12.754798
12.035966
11.915565
12.620687
11.809468
10.963678
11.945963
12.877584
11.604428
13.366938
13.796687
13.212562
13.580918
14.548898
15.745759
14.891624
14.983416
17.531514
19.015670
19.045472
20.641685
22.939444
21.189451
24.392605
26.213527
28.562546
29.527545
30.971766
32.274723
34.215450
36.598444
38.272738
38.293600
39.234757
39.478540
39.685965
41.317940
38.261414
40.832758
39.922595
40.178895
39.503574
41.069984
38.931966
39.061904
39.825439
40.495992
39.488673
38.035512
40.630698
36.991835
40.319562
##ZVALUE=240
2.158880
2.112985
6.197691
14.970899
41.829944
76.514482
150.913596
232.131481
342.832804
422.060490
488.270521
502.748489
464.596748
380.229950
294.618607
192.343593
135.442615
100.245476
86.833835
93.701482
106.965899
109.665990
107.089877
97.945929
78.103542
64.932704
46.274662
32.764673
19.195676
14.646649
10.618567
9.024739
8.872747
9.419918
10.143518
10.466576
11.695623
10.731816
11.405945
11.300445
10.929704
11.569858
12.159944
11.747479
12.493730
12.720823
13.144612
12.912750
12.289882
13.581514
13.042688
13.237000
13.418794
14.127493
14.958978
14.730692
15.225410
17.789602
17.462969
17.935634
20.608902
21.187663
21.628737
23.925900
25.705695
26.690960
27.200580
29.862523
32.355785
34.191608
37.573576
38.026571
40.273666
43.335557
44.070482
46.429634
46.332479
50.288439
50.910711
53.326488
52.473545
55.231452
53.564906
55.725574
54.775476
54.657459
55.840611
53.977966
54.622889
53.368807
58.301687
54.598451
55.170655
54.902434
53.604841
53.004622
##ZVALUE=245
1.406670
1.176000
1.590848
1.961589
3.826618
14.428496
34.204721
88.574886
153.770447
253.340602
403.275490
511.833429
606.981516
634.429455
591.725707
510.990620
379.774570
286.296606
243.693590
123.771429
101.443529
95.633864
107.048750
121.106505
124.735832
118.214488
107.351542
88.214874
70.759654
52.225590
36.156774
23.147464
16.197562
11.804700
10.102987
9.639859
10.033846
10.235906
10.510683
10.315776
11.833906
11.960864
11.247993
11.392832
12.125969
11.981726
11.106730
12.568831
12.889504
12.420416
12.171865
14.369488
13.243556
12.804866
13.003945
14.800429
14.677644
15.973449
17.099977
16.687512
18.165708
19.158721
21.127462
22.217631
23.735762
24.346709
27.203560
27.634501
29.131770
31.808615
34.830570
37.773848
40.257573
41.507483
42.065978
45.864582
47.832727
47.029853
49.205422
50.069690
52.671432
52.496791
55.122972
53.632855
57.214499
54.762959
54.610968
55.934787
58.384538
54.423809
55.146813
54.898858
57.238936
57.589412
56.333542
59.016943
##ZVALUE=250
1.238585
1.081824
1.563430
1.430511
1.730919
1.517534
2.689958
7.569790
31.895638
67.938566
162.911415
266.900659
389.536619
548.136830
649.153590
722.265840
715.620518
645.923615
535.311699
378.400683
254.547000
171.227455
103.603601
91.713667
101.450682
115.508437
131.920576
137.970448
131.412745
123.099685
106.415749
80.651641
59.618950
38.169622
27.537942
18.138885
13.499856
11.905432
13.092756
12.423992
12.428761
12.532473
12.523532
11.881590
12.074709
11.962652
12.448430
13.484955
12.666583
13.205409
12.411475
12.607574
14.825463
13.949871
13.705492
14.528632
14.845729
15.782714
15.781522
17.219782
17.481446
16.889572
19.259453
21.285415
21.178722
23.064613
24.660826
25.716424
27.804971
27.802587
32.886863
33.962727
36.100745
38.285851
40.465593
40.962696
43.474436
43.753982
44.189692
47.984719
48.424602
52.077770
51.172972
50.338507
51.777959
51.826835
52.606463
56.666732
54.263473
51.443577
54.443479
55.837631
55.740476
55.089593
55.367947
57.617426
##ZVALUE=255
1.133680
1.049638
1.014471
1.173615
1.291633
1.151562
1.274943
1.305938
1.568794
4.094839
21.943450
52.523613
106.310844
226.831436
353.971720
544.013977
671.995878
789.026618
826.621652
774.938464
671.436787
531.252623
340.050459
218.723416
123.250484
92.705488
87.532997
102.067590
123.359561
136.357546
147.702694
143.808722
134.782791
108.535886
87.094903
60.179830
43.628812
29.307604
22.048950
17.257929
14.686584
14.538765
15.750527
15.280843
15.321970
14.637709
14.654994
15.257597
14.624000
15.294552
15.558600
16.481876
15.059710
15.464425
15.339851
16.240478
16.174912
16.866922
16.510487
18.165708
17.707944
18.337965
19.643903
20.803809
20.076632
22.490621
22.635460
25.281906
25.890470
29.937625
30.296445
31.213760
33.502579
34.893751
36.116838
38.339496
40.194988
42.024851
40.937662
43.627620
45.167804
46.390891
47.644973
47.853589
48.921704
49.315691
49.864650
50.845742
50.793886
51.288605
52.359700
50.767660
52.305460
53.984523
51.247478
53.773522
##ZVALUE=260
0.918508
0.918508
0.992417
0.873804
1.039505
1.044869
0.833869
1.017451
1.321435
1.224875
1.671910
2.087951
7.408857
34.342408
77.597499
183.535814
300.174952
488.229990
644.630790
829.514861
907.287598
909.080505
808.064938
656.495690
442.299843
305.363536
178.537965
113.452673
81.469417
83.728433
102.108717
131.968856
146.697760
158.800483
155.882835
141.837597
120.968819
91.145635
71.328878
46.958923
34.994483
24.814606
20.474792
18.782616
17.345548
18.423796
17.751455
17.015934
17.426610
17.634630
17.457604
17.589927
18.186569
16.946793
17.675757
17.408729
17.379522
18.359423
18.467903
19.211769
19.742846
19.720793
19.412637
19.517541
21.048784
22.595525
22.852421
24.345517
25.456548
26.722550
27.349591
29.683709
31.167865
33.110976
34.918785
35.687685
37.793517
38.471818
38.964748
39.548874
42.466521
42.014718
43.512583
44.096708
47.038794
45.214891
46.553612
48.077703
48.167706
49.172640
49.123764
49.312711
50.325990
50.613880
51.088929
51.372647
##ZVALUE=265
0.848770
0.685453
1.039505
0.789762
0.737906
0.767708
1.099706
1.305938
1.125932
1.372695
1.057982
1.446605
1.858473
1.610518
4.574656
24.399757
59.664845
147.420764
257.076621
468.055010
642.958879
805.108547
966.949463
996.006727
909.445882
783.922672
579.040647
410.636663
230.075717
144.481659
90.003610
77.037811
87.620616
117.557645
140.959620
160.702467
167.205930
160.996914
147.444606
122.215748
98.603964
69.849491
53.931475
35.027862
28.467774
23.112893
21.276474
19.794703
19.307733
19.490719
19.564629
19.490719
19.183755
19.227862
18.537641
18.674731
19.337535
19.636750
20.153522
19.575953
20.151734
20.966530
20.961761
21.209717
21.816492
22.924542
23.055673
24.934411
25.290847
27.886629
27.766824
29.104948
31.551719
32.393932
33.997893
33.959746
36.094785
36.900640
38.199425
37.969947
39.808750
41.245818
41.996837
42.878985
43.314695
45.056939
45.545697
45.871735
45.500994
46.191812
46.565533
46.367645
47.260523
47.225952
47.115684
48.145652
##ZVALUE=270
0.889897
0.795722
0.760555
0.712872
0.871420
0.904799
0.940561
1.093745
0.976920
1.276731
1.221895
1.282692
1.535416
1.196861
1.440644
1.822710
2.234578
9.997487
31.803846
100.308657
200.687647
341.053605
594.915748
789.407492
988.522768
1016.031504
1016.031504
938.202739
729.791522
547.742844
381.866693
204.787850
120.754838
73.656440
71.460605
95.535517
118.281841
145.019889
159.837604
171.077847
164.087415
147.797465
126.874447
99.870563
75.145960
51.135421
39.033890
28.284788
24.248958
20.979643
20.072460
19.542575
19.825697
18.747449
19.879937
20.124912
19.848943
20.434856
20.207763
20.485520
20.101666
20.927787
22.134781
22.332668
22.968650
23.254752
23.088455
24.650693
24.811625
27.265549
27.818680
29.761791
30.492544
32.306910
31.456947
34.336448
34.754872
36.206841
38.021803
38.063526
37.950873
38.388968
40.829778
40.775537
41.442513
42.317510
42.228699
43.639541
43.994784
44.916868
43.642521
45.007467
44.349432
44.519901
46.508908
46.570897
##ZVALUE=275
0.615716
0.628829
0.739694
0.763535
0.868440
0.721812
0.712872
0.818968
0.828505
0.999570
0.954866
0.905991
1.081824
1.204610
1.169443
1.397729
1.433492
1.652837
1.686811
5.064607
18.864870
55.328608
158.128738
293.313861
531.421900
722.957850
930.727720
1016.027927
1016.027927
1016.027927
914.338827
678.919554
490.608811
265.311003
159.201622
79.541802
60.903430
69.074631
88.893771
118.084550
141.222477
159.652829
168.438554
161.253810
145.935416
118.497610
97.910762
71.124434
54.032803
37.245750
30.001998
22.164583
20.635724
19.495487
19.334555
20.310879
19.575953
19.824505
19.724965
20.455718
20.628572
21.954775
21.525621
22.571683
22.946000
24.240613
24.196506
25.709867
25.532842
27.745962
28.513670
29.544830
30.903816
32.790899
33.180714
33.624768
34.985542
36.761761
36.416650
37.561655
38.920641
39.124489
39.463639
40.154457
40.487647
40.262938
41.362643
41.285753
42.459965
41.091442
43.054819
41.921735
44.133663
42.818785
43.032765
42.884946
##ZVALUE=280
0.765920
0.576973
0.744462
0.681877
0.855923
0.745654
0.647902
0.703931
0.740886
0.717640
0.845790
0.869632
0.979900
0.823736
1.081824
1.056790
1.112819
1.262426
1.192689
1.535416
1.634955
2.208948
12.658834
41.122437
125.433803
230.291486
423.229933
610.292554
853.532553
1003.992558
1016.031504
1016.031504
997.048616
769.164562
567.793846
328.215957
197.287798
91.689825
58.547854
50.253868
62.409639
88.993907
112.408996
140.854716
154.350996
161.705613
157.470703
138.743520
120.723844
91.637969
69.909692
47.903657
36.262870
25.605559
21.887422
19.678473
18.739700
19.360781
19.423962
20.481944
20.555854
20.916462
22.025704
22.053719
23.583770
24.276972
24.693608
25.793910
26.864409
27.880669
29.211640
29.823780
31.407475
31.998754
32.718778
34.727454
35.331845
35.781860
37.210584
38.326979
38.646460
38.596988
38.877726
39.317608
39.360523
40.103793
41.385889
40.719509
41.634440
40.789843
40.196776
40.407777
41.976571
40.999651
41.378736
42.702556
##ZVALUE=285
0.640750
0.494719
0.416636
0.568628
0.777841
0.632405
0.481606
0.653863
0.913739
0.740886
0.586510
0.724792
0.565648
0.771880
0.786781
0.958443
1.179576
1.212955
1.216531
1.167655
1.174808
1.700521
1.484752
1.762509
6.155968
21.350980
72.287917
148.068666
309.904814
483.279824
676.138997
931.269526
1016.028523
1016.028523
1016.028523
896.707773
699.108839
440.801978
274.960399
130.847692
70.408583
39.254427
39.967895
59.228539
78.309774
108.662844
127.906799
147.453547
153.166652
150.461793
139.612556
114.436746
94.709992
66.887736
49.578547
34.511685
26.535988
21.431446
20.269752
20.092726
19.729733
21.175742
21.330714
22.259951
23.697615
24.275780
25.056601
26.263595
27.364492
29.397607
30.666590
31.184554
32.426715
32.766461
33.613443
34.935474
36.166906
36.953688
37.418604
37.132502
38.861632
39.940476
39.456487
39.883852
40.555000
40.802956
40.007830
40.992498
40.351748
40.935874
39.943457
41.432977
40.850639
41.592717
40.977001
40.426850
##ZVALUE=290
0.569820
0.555515
0.405908
0.620484
0.690818
0.463724
0.438690
0.481606
0.533462
0.619888
0.662804
0.676513
0.611544
0.576973
0.778437
0.660419
0.729561
0.942945
1.183748
1.008511
1.009703
1.171827
1.154542
1.411438
1.372695
1.538992
2.505779
9.051561
41.763783
94.617009
217.268467
371.441841
571.918488
850.827694
1008.056998
1016.033888
1016.033888
986.973643
806.875825
548.303723
359.549522
185.048580
96.199512
40.489435
28.502941
38.070679
51.429868
75.806975
95.866919
122.755766
138.257742
147.496462
146.309733
133.427978
115.235448
88.631511
68.320632
47.080517
36.724806
26.750565
22.694468
21.077991
21.157861
22.081733
23.376942
24.139881
25.357604
26.290417
27.125478
29.206872
30.114651
32.197833
32.689571
33.357739
34.935474
35.196543
36.133528
37.306547
38.233995
38.773417
38.336515
39.349794
40.274858
40.977597
41.517615
41.158795
41.921735
41.424632
41.807890
41.800737
41.038990
40.694475
41.345954
40.195584
40.555596
41.079521
##ZVALUE=295
0.458956
0.560880
0.604987
0.541806
0.500679
0.592470
0.437498
0.551939
0.695586
0.578761
0.671744
0.671744
0.590682
0.596642
0.875592
0.649691
0.801682
0.700951
0.876784
0.910759
0.774860
0.946522
0.871420
1.040697
1.179576
1.138449
1.270771
1.547933
1.849532
3.672838
20.014644
57.283640
129.079819
299.747586
479.516983
754.173994
940.230489
1016.030908
1016.030908
1016.030908
919.962525
655.340552
452.609658
236.888528
132.041574
52.553415
28.247833
23.667812
30.959845
49.631000
67.616701
94.195604
111.740828
134.799480
142.116547
140.461922
127.731562
109.491944
90.161562
65.978765
51.728487
37.064552
29.564500
25.035739
23.975968
23.794770
24.197698
25.906563
27.357936
28.364658
29.513836
31.204820
32.465458
33.753514
34.324527
36.782622
36.679506
37.786961
38.516521
38.717985
39.584637
40.141940
41.274428
41.428804
41.188002
42.075515
42.424798
41.809678
42.260885
42.239428
42.225718
43.044686
41.653514
41.563511
40.182471
40.757656
##ZVALUE=300
0.509620
0.401735
0.317693
0.372529
0.402927
0.387430
0.421405
0.657439
0.500679
0.616908
0.498891
0.575781
0.723600
0.452995
0.703931
0.615716
0.604987
0.593662
0.678897
0.759959
0.736713
0.882745
0.712872
0.818968
0.952482
0.933409
1.089573
1.291633
1.207590
1.635551
1.566410
2.091527
5.967617
35.137534
87.321997
219.624639
366.632938
627.956986
830.318928
1016.031504
1016.031504
1016.031504
1002.014875
775.184631
563.831925
311.598778
187.236667
86.409450
42.486787
19.250512
19.589663
29.318929
41.889548
63.844919
84.405541
109.039545
125.827789
135.931969
134.747624
124.611855
109.540820
87.311864
71.034431
51.078796
40.776730
31.702518
27.789474
26.338696
26.926994
28.000474
28.770566
30.784607
32.532811
33.371449
35.277605
35.819411
36.276579
37.643909
38.551688
39.639473
39.947629
42.076707
41.883588
42.305589
42.425990
43.160915
43.346882
43.147802
43.303967
42.818785
42.730570
42.329431
42.084455
42.317510
41.939616
42.557716
##ZVALUE=305
0.457764
0.294447
0.392795
0.410676
0.236630
0.445843
0.458956
0.530481
0.439882
0.370741
0.491738
0.556707
0.649691
0.526905
0.468493
0.646710
0.602603
0.576973
0.576973
0.544786
0.838637
0.546575
0.674725
0.639558
0.548959
0.675917
0.989437
0.816584
0.957847
1.167655
1.266599
1.367927
1.298785
1.711845
3.318787
21.212697
57.153702
160.156488
287.066698
523.372889
722.326636
974.725485
1016.032696
1016.032696
1016.032696
851.405859
662.097931
415.334702
261.191726
119.912624
59.760809
23.120642
16.043782
19.040704
27.560592
44.057965
60.470700
83.876848
102.084875
121.271610
130.451918
130.026937
122.495890
105.310678
89.827776
68.730712
54.328442
41.366816
34.678578
31.023622
30.338764
30.684471
32.097697
33.784509
34.586787
36.492944
37.329793
38.610697
39.502978
41.401982
41.881800
42.303801
43.477416
44.043660
44.013858
44.451952
45.106411
44.507980
45.147538
44.526458
44.512749
42.894483
43.690801
42.940974
42.784810
43.397546
##ZVALUE=310
0.621676
0.496507
0.597835
0.647902
0.629425
0.639558
0.537634
0.673532
0.402927
0.605583
0.563860
0.530481
0.710487
0.810623
0.667572
0.652671
0.700951
0.655651
0.591874
0.637770
0.696778
0.782609
0.730753
0.863671
0.947714
0.925660
1.150966
0.974536
1.034737
1.075864
0.988841
1.292825
1.340508
1.450777
1.373887
1.723766
1.916885
8.711815
28.759837
96.629858
192.153454
393.264890
586.755872
855.513811
1012.159586
