Data from SERS_DW_20uL_I=0.5_T=20s_RamanShift_1.txt Node
Date: Wed Jun 14 14:18:41 IDT 2017
User: aro
Spectrometer: QEPB0276
Trigger mode: 0
Integration Time (sec): 2.000000E1
Scans to average: 1
Electric dark correction enabled: true
Nonlinearity correction enabled: false
Boxcar width: 0
XAxis mode: Raman Shifts
Number of Pixels in Spectrum: 1044
>>>>>Begin Spectral Data<<<<<
160.701	-2.88
166.742	8.12
172.777	48.12
178.805	167.12
184.826	467.12
190.841	1018.12
196.849	1703.12
202.85	2246.12
208.845	2465.12
214.833	2524.12
220.815	2526.12
226.789	2566.12
232.758	2609.12
238.719	2640.12
244.674	2675.12
250.623	2645.12
256.565	2647.12
262.5	2639.12
268.429	2607.12
274.351	2625.12
280.267	2595.12
286.176	2598.12
292.079	2618.12
297.975	2664.12
303.865	2681.12
309.748	2678.12
315.625	2633.12
321.495	2598.12
327.359	2531.12
333.217	2523.12
339.068	2468.12
344.912	2460.12
350.751	2447.12
356.583	2429.12
362.408	2397.12
368.227	2384.12
374.04	2364.12
379.847	2358.12
385.647	2372.12
391.44	2337.12
397.228	2310.12
403.009	2288.12
408.784	2316.12
414.553	2374.12
420.315	2456.12
426.071	2457.12
431.821	2274.12
437.565	2164.12
443.302	2082.12
449.033	2008.12
454.758	1951.12
460.477	1891.12
466.189	1823.12
471.896	1740.12
477.596	1661.12
483.29	1620.12
488.978	1511.12
494.66	1387.12
500.335	1246.12
506.005	1135.12
511.668	1156.12
517.325	1370.12
522.977	1799.12
528.622	2178.12
534.261	2366.12
539.894	2365.12
545.521	2290.12
551.141	2244.12
556.756	2194.12
562.365	2157.12
567.968	2098.12
573.565	2075.12
579.155	2021.12
584.74	1990.12
590.319	1947.12
595.892	1910.12
601.459	1842.12
607.02	1793.12
612.575	1733.12
618.124	1720.12
623.667	1740.12
629.204	1764.12
634.735	1787.12
640.261	1798.12
645.781	1821.12
651.294	1829.12
656.802	1814.12
662.304	1748.12
667.8	1730.12
673.29	1715.12
678.775	1690.12
684.254	1679.12
689.726	1639.12
695.193	1621.12
700.655	1596.12
706.11	1601.12
711.56	1585.12
717.004	1579.12
722.442	1541.12
727.874	1526.12
733.301	1531.12
738.722	1523.12
744.137	1510.12
749.547	1521.12
754.951	1520.12
760.349	1499.12
765.741	1496.12
771.128	1498.12
776.509	1491.12
781.885	1496.12
787.254	1493.12
792.618	1466.12
797.977	1459.12
803.33	1449.12
808.677	1413.12
814.019	1430.12
819.355	1409.12
824.686	1390.12
830.011	1386.12
835.33	1379.12
840.644	1355.12
845.952	1357.12
851.255	1353.12
856.552	1372.12
861.844	1344.12
867.13	1342.12
872.41	1348.12
877.686	1306.12
882.955	1301.12
888.219	1304.12
893.478	1272.12
898.731	1274.12
903.979	1260.12
909.221	1241.12
914.458	1259.12
919.69	1277.12
924.916	1283.12
930.136	1303.12
935.351	1345.12
940.561	1393.12
945.766	1416.12
950.965	1431.12
956.158	1393.12
961.347	1355.12
966.529	1333.12
971.707	1297.12
976.879	1287.12
982.046	1262.12
987.208	1234.12
992.364	1207.12
997.515	1181.12
1002.66	1162.12
1007.801	1155.12
1012.936	1146.12
1018.066	1151.12
1023.19	1153.12
1028.309	1175.12
1033.423	1140.12
1038.532	1125.12
1043.636	1113.12
1048.734	1123.12
1053.827	1099.12
1058.915	1079.12
1063.998	1061.12
1069.075	1068.12
1074.147	1061.12
1079.214	1063.12
1084.276	1075.12
1089.333	1086.12
1094.385	1078.12
1099.431	1092.12
1104.472	1084.12
1109.509	1058.12
1114.54	1059.12
1119.565	1040.12
1124.586	1016.12
1129.602	1023.12
1134.613	1016.12
1139.618	989.12
1144.619	993.12
1149.614	1003.12
1154.604	993.12
1159.589	998.12
1164.57	1008.12
1169.545	1004.12
1174.515	999.12
1179.48	1002.12
1184.44	983.12
1189.395	979.12
1194.345	967.12
1199.29	970.12
1204.23	971.12
1209.165	968.12
1214.095	986.12
1219.021	983.12
1223.941	973.12
1228.856	996.12
1233.766	981.12
1238.672	990.12
1243.572	982.12
1248.467	975.12
1253.358	969.12
1258.244	950.12
1263.124	936.12
1268	913.12
1272.871	901.12
1277.737	904.12
1282.599	892.12
1287.455	886.12
1292.306	897.12
1297.153	909.12
1301.995	906.12
1306.832	912.12
1311.664	918.12
1316.491	918.12
1321.314	911.12
1326.132	919.12
1330.945	914.12
1335.753	916.12
1340.556	911.12
1345.354	915.12
1350.148	912.12
1354.937	900.12
1359.722	869.12
1364.501	849.12
1369.276	818.12
1374.046	803.12
1378.811	770.12
1383.572	756.12
1388.327	749.12
1393.079	732.12
1397.825	746.12
1402.567	756.12
1407.304	750.12
1412.036	748.12
1416.764	749.12
1421.487	767.12
1426.205	781.12
1430.919	780.12
1435.628	784.12
1440.333	788.12
1445.032	808.12
1449.727	802.12
1454.418	800.12
1459.104	817.12
1463.785	812.12
1468.462	806.12
1473.134	804.12
1477.802	801.12
1482.465	797.12
1487.123	814.12
1491.777	796.12
1496.426	810.12
1501.071	805.12
1505.711	791.12
1510.347	801.12
1514.978	783.12
1519.604	763.12
1524.226	752.12
1528.844	748.12
1533.457	718.12
1538.065	720.12
1542.669	707.12
1547.269	696.12
1551.864	703.12
1556.454	719.12
1561.041	717.12
1565.622	711.12
1570.199	713.12
1574.772	720.12
1579.34	729.12
1583.904	731.12
1588.464	737.12
1593.019	739.12
1597.569	749.12
1602.115	737.12
1606.657	744.12
1611.195	729.12
1615.728	720.12
1620.256	725.12
1624.78	722.12
1629.3	730.12
1633.816	757.12
1638.327	760.12
1642.834	755.12
1647.336	781.12
1651.834	789.12
1656.328	798.12
1660.817	798.12
1665.302	811.12
1669.783	812.12
1674.259	806.12
1678.732	824.12
1683.199	829.12
1687.663	825.12
1692.122	812.12
1696.577	799.12
1701.028	780.12
1705.474	723.12
1709.917	720.12
1714.355	690.12
1718.788	693.12
1723.218	710.12
1727.643	710.12
1732.064	712.12
1736.481	726.12
1740.893	708.12
1745.301	709.12
1749.705	693.12
1754.105	679.12
1758.501	676.12
1762.893	686.12
1767.28	713.12
1771.663	704.12
1776.042	716.12
1780.417	746.12
1784.787	748.12
1789.154	748.12
1793.516	748.12
1797.874	745.12
1802.228	713.12
1806.578	696.12
1810.924	687.12
1815.266	672.12
1819.603	656.12
1823.937	678.12
1828.266	677.12
1832.591	690.12
1836.913	688.12
1841.23	697.12
1845.543	718.12
1849.852	724.12
1854.156	737.12
1858.457	750.12
1862.754	768.12
1867.047	773.12
1871.335	795.12
1875.62	797.12
1879.9	801.12
1884.177	808.12
1888.449	825.12
1892.718	848.12
1896.982	835.12
1901.243	848.12
1905.499	849.12
1909.752	862.12
1914	863.12
1918.245	883.12
1922.485	887.12
1926.722	887.12
1930.954	909.12
1935.183	905.12
1939.408	904.12
1943.628	887.12
1947.845	880.12
1952.058	865.12
1956.267	850.12
1960.472	839.12
1964.673	837.12
1968.87	814.12
1973.063	812.12
1977.252	805.12
1981.438	800.12
1985.619	807.12
1989.797	811.12
1993.971	816.12
1998.14	826.12
2002.306	827.12
2006.469	848.12
2010.627	875.12
2014.781	878.12
2018.932	877.12
2023.078	880.12
2027.221	885.12
2031.36	891.12
2035.495	887.12
2039.627	887.12
2043.754	890.12
2047.878	912.12
2051.998	917.12
2056.114	932.12
2060.226	959.12
2064.334	973.12
2068.439	967.12
2072.54	990.12
2076.637	1011.12
2080.73	1029.12
2084.82	1032.12
2088.906	1030.12
2092.988	1031.12
2097.066	1018.12
2101.14	1038.12
2105.211	1008.12
2109.278	1000.12
2113.342	999.12
2117.401	991.12
2121.457	992.12
2125.509	987.12
2129.558	989.12
2133.602	994.12
2137.643	1009.12
2141.681	994.12
2145.714	1003.12
2149.744	1005.12
2153.77	1042.12
2157.793	1041.12
2161.812	1036.12
2165.827	1048.12
2169.838	1037.12
2173.846	1032.12
2177.851	1034.12
2181.851	1055.12
2185.848	1031.12
2189.841	1047.12
2193.831	1065.12
2197.817	1064.12
2201.799	1074.12
2205.778	1087.12
2209.753	1107.12
2213.725	1094.12
2217.693	1124.12
2221.657	1128.12
2225.618	1161.12
2229.575	1163.12
2233.529	1159.12
2237.479	1157.12
2241.425	1166.12
2245.368	1167.12
2249.307	1150.12
2253.243	1180.12
2257.175	1156.12
2261.104	1162.12
2265.029	1164.12
2268.95	1177.12
2272.868	1155.12
2276.783	1170.12
2280.694	1174.12
2284.601	1174.12
2288.505	1179.12
2292.405	1188.12
2296.302	1174.12
2300.195	1189.12
2304.085	1189.12
2307.971	1196.12
2311.854	1179.12
2315.734	1191.12
2319.609	1170.12
2323.482	1191.12
2327.351	1191.12
2331.216	1209.12
2335.078	1214.12
2338.937	1235.12
2342.792	1233.12
2346.643	1249.12
2350.492	1262.12
2354.336	1287.12
2358.178	1300.12
2362.015	1319.12
2365.85	1360.12
2369.681	1366.12
2373.508	1390.12
2377.333	1406.12
2381.153	1430.12
2384.971	1443.12
2388.785	1461.12
2392.595	1460.12
2396.402	1477.12
2400.206	1493.12
2404.007	1519.12
2407.804	1522.12
2411.597	1533.12
2415.388	1553.12
2419.174	1580.12
2422.958	1605.12
2426.738	1618.12
2430.515	1632.12
2434.289	1643.12
2438.059	1660.12
2441.825	1660.12
2445.589	1698.12
2449.349	1698.12
2453.106	1702.12
2456.859	1724.12
2460.61	1731.12
2464.356	1737.12
2468.1	1753.12
2471.84	1755.12
2475.577	1778.12
2479.311	1800.12
2483.041	1819.12
2486.768	1843.12
2490.492	1859.12
2494.213	1892.12
2497.93	1924.12
2501.644	1943.12
2505.355	1976.12
2509.062	2021.12
2512.766	2021.12
2516.467	2029.12
2520.165	2082.12
2523.859	2083.12
2527.551	2085.12
2531.239	2107.12
2534.923	2137.12
2538.605	2134.12
2542.283	2148.12
2545.958	2152.12
2549.63	2188.12
2553.299	2182.12
2556.964	2221.12
2560.626	2197.12
2564.285	2237.12
2567.941	2229.12
2571.594	2227.12
2575.243	2249.12
2578.89	2236.12
2582.533	2236.12
2586.173	2243.12
2589.809	2211.12
2593.443	2233.12
2597.073	2227.12
2600.701	2239.12
2604.325	2236.12
2607.946	2234.12
2611.564	2257.12
2615.178	2272.12
2618.79	2274.12
2622.398	2263.12
2626.004	2275.12
2629.606	2298.12
2633.205	2297.12
2636.801	2297.12
2640.394	2319.12
2643.983	2309.12
2647.57	2312.12
2651.153	2305.12
2654.734	2326.12
2658.311	2321.12
2661.885	2327.12
2665.456	2352.12
2669.025	2349.12
2672.589	2384.12
2676.151	2399.12
2679.71	2391.12
2683.266	2379.12
2686.819	2407.12
2690.368	2406.12
2693.915	2406.12
2697.458	2412.12
2700.999	2437.12
2704.536	2425.12
2708.071	2429.12
2711.602	2432.12
2715.13	2454.12
2718.656	2494.12
2722.178	2514.12
2725.697	2555.12
2729.214	2574.12
2732.727	2635.12
2736.237	2674.12
2739.744	2696.12
2743.249	2732.12
2746.75	2735.12
2750.248	2735.12
2753.743	2703.12
2757.236	2655.12
2760.725	2606.12
2764.211	2550.12
2767.695	2519.12
2771.175	2496.12
2774.652	2473.12
2778.127	2454.12
2781.598	2465.12
2785.067	2516.12
2788.532	2541.12
2791.995	2574.12
2795.455	2627.12
2798.911	2654.12
2802.365	2685.12
2805.816	2734.12
2809.264	2772.12
2812.709	2781.12
2816.151	2775.12
2819.59	2817.12
2823.026	2812.12
2826.46	2822.12
2829.89	2808.12
2833.318	2834.12
2836.742	2845.12
2840.164	2829.12
2843.583	2847.12
2846.999	2846.12
2850.412	2860.12
2853.822	2853.12
2857.229	2854.12
2860.634	2885.12
2864.035	2852.12
2867.434	2890.12
2870.83	2886.12
2874.223	2849.12
2877.613	2832.12
2881	2798.12
2884.385	2820.12
2887.766	2778.12
2891.145	2755.12
2894.521	2772.12
2897.894	2770.12
2901.264	2711.12
2904.631	2719.12
2907.996	2701.12
2911.358	2689.12
2914.717	2699.12
2918.073	2700.12
2921.426	2715.12
2924.777	2713.12
2928.124	2730.12
2931.469	2722.12
2934.811	2738.12
2938.15	2752.12
2941.487	2764.12
2944.821	2766.12
2948.152	2751.12
2951.48	2776.12
2954.805	2756.12
2958.128	2783.12
2961.447	2779.12
2964.765	2764.12
2968.079	2806.12
2971.39	2788.12
2974.699	2792.12
2978.005	2825.12
2981.308	2800.12
2984.609	2823.12
2987.907	2823.12
2991.202	2800.12
2994.494	2810.12
2997.784	2780.12
3001.07	2739.12
3004.355	2719.12
3007.636	2687.12
3010.915	2654.12
3014.191	2619.12
3017.464	2585.12
3020.734	2584.12
3024.002	2543.12
3027.267	2533.12
3030.53	2516.12
3033.789	2525.12
3037.046	2529.12
3040.301	2541.12
3043.552	2536.12
3046.801	2544.12
3050.048	2579.12
3053.291	2587.12
3056.532	2613.12
3059.771	2615.12
3063.006	2641.12
3066.239	2685.12
3069.469	2687.12
3072.697	2695.12
3075.922	2719.12
3079.144	2708.12
3082.364	2717.12
3085.581	2720.12
3088.795	2729.12
3092.007	2707.12
3095.216	2730.12
3098.423	2732.12
3101.627	2702.12
3104.828	2701.12
3108.026	2700.12
3111.222	2700.12
3114.416	2700.12
3117.607	2726.12
3120.795	2705.12
3123.98	2706.12
3127.163	2715.12
3130.344	2723.12
3133.521	2707.12
3136.696	2691.12
3139.869	2688.12
3143.039	2700.12
3146.206	2661.12
3149.371	2653.12
3152.533	2616.12
3155.693	2598.12
3158.85	2578.12
3162.005	2531.12
3165.157	2507.12
3168.306	2455.12
3171.453	2459.12
3174.597	2430.12
3177.739	2400.12
3180.878	2388.12
3184.014	2350.12
3187.149	2362.12
3190.28	2340.12
3193.409	2332.12
3196.536	2314.12
3199.659	2309.12
3202.781	2306.12
3205.9	2315.12
3209.016	2290.12
3212.13	2275.12
3215.241	2247.12
3218.35	2263.12
3221.456	2241.12
3224.56	2218.12
3227.661	2210.12
3230.76	2172.12
3233.856	2154.12
3236.95	2143.12
3240.041	2141.12
3243.13	2108.12
3246.216	2098.12
3249.3	2089.12
3252.382	2088.12
3255.46	2066.12
3258.537	2068.12
3261.611	2033.12
3264.682	2003.12
3267.751	2017.12
3270.818	1998.12
3273.882	1971.12
3276.943	1956.12
3280.002	1923.12
3283.059	1913.12
3286.113	1907.12
3289.165	1879.12
3292.214	1864.12
3295.261	1829.12
3298.306	1813.12
3301.348	1794.12
3304.387	1762.12
3307.425	1757.12
3310.459	1751.12
3313.492	1741.12
3316.521	1707.12
3319.549	1705.12
3322.574	1714.12
3325.597	1699.12
3328.617	1704.12
3331.635	1690.12
3334.65	1713.12
3337.663	1690.12
3340.674	1683.12
3343.682	1697.12
3346.688	1698.12
3349.691	1691.12
3352.692	1703.12
3355.691	1683.12
3358.687	1676.12
3361.681	1664.12
3364.673	1652.12
3367.662	1636.12
3370.649	1646.12
3373.633	1607.12
3376.615	1596.12
3379.595	1580.12
3382.572	1559.12
3385.547	1573.12
3388.52	1543.12
3391.49	1523.12
3394.458	1512.12
3397.424	1483.12
3400.387	1474.12
3403.348	1470.12
3406.307	1469.12
3409.263	1470.12
3412.217	1455.12
3415.168	1451.12
3418.118	1443.12
3421.065	1431.12
3424.009	1435.12
3426.951	1423.12
3429.891	1417.12
3432.829	1402.12
3435.764	1373.12
3438.697	1351.12
3441.628	1342.12
3444.557	1319.12
3447.483	1310.12
3450.407	1287.12
3453.328	1284.12
3456.247	1246.12
3459.164	1215.12
3462.079	1197.12
3464.991	1183.12
3467.902	1186.12
3470.809	1157.12
3473.715	1138.12
3476.618	1112.12
3479.519	1112.12
3482.418	1097.12
3485.315	1080.12
3488.209	1074.12
3491.101	1056.12
3493.99	1057.12
3496.878	1040.12
3499.763	1023.12
3502.646	1002.12
3505.527	989.12
3508.405	988.12
3511.281	970.12
3514.155	955.12
3517.027	930.12
3519.897	912.12
3522.764	896.12
3525.629	867.12
3528.492	852.12
3531.352	833.12
3534.211	811.12
3537.067	776.12
3539.921	778.12
3542.773	748.12
3545.622	736.12
3548.469	733.12
3551.315	709.12
3554.157	695.12
3556.998	698.12
3559.837	691.12
3562.673	668.12
3565.507	649.12
3568.339	648.12
3571.169	634.12
3573.996	629.12
3576.822	619.12
3579.645	614.12
3582.466	596.12
3585.285	573.12
3588.101	582.12
3590.916	568.12
3593.728	554.12
3596.538	543.12
3599.346	530.12
3602.152	512.12
3604.956	501.12
3607.757	491.12
3610.556	478.12
3613.354	466.12
3616.149	458.12
3618.942	451.12
3621.732	439.12
3624.521	446.12
3627.307	427.12
3630.092	434.12
3632.874	411.12
3635.654	415.12
3638.432	413.12
3641.208	404.12
3643.982	400.12
3646.753	407.12
3649.523	398.12
3652.29	388.12
3655.055	379.12
3657.818	382.12
3660.579	364.12
3663.338	365.12
3666.095	364.12
3668.849	357.12
3671.602	353.12
3674.352	351.12
3677.101	359.12
3679.847	348.12
3682.591	351.12
3685.333	351.12
3688.073	345.12
3690.811	358.12
3693.547	348.12
3696.281	355.12
3699.013	358.12
3701.742	355.12
3704.47	361.12
3707.195	355.12
3709.919	356.12
3712.64	353.12
3715.359	360.12
3718.076	355.12
3720.792	348.12
3723.505	338.12
3726.216	331.12
3728.925	337.12
3731.632	328.12
3734.336	318.12
3737.039	320.12
3739.74	310.12
3742.439	308.12
3745.136	317.12
3747.83	308.12
3750.523	305.12
3753.213	307.12
3755.902	302.12
3758.589	312.12
3761.273	310.12
3763.956	306.12
3766.636	297.12
3769.315	297.12
3771.991	304.12
3774.665	286.12
3777.338	289.12
3780.008	277.12
3782.677	269.12
3785.343	268.12
3788.007	260.12
3790.67	249.12
3793.33	248.12
3795.989	234.12
3798.645	240.12
3801.299	237.12
3803.952	236.12
3806.602	234.12
3809.251	232.12
3811.897	228.12
3814.542	226.12
3817.184	221.12
3819.825	218.12
3822.463	215.12
3825.1	213.12
3827.735	198.12
3830.367	200.12
3832.998	194.12
3835.627	197.12
3838.253	180.12
3840.878	169.12
3843.501	172.12
3846.122	171.12
3848.741	170.12
3851.358	160.12
3853.973	155.12
3856.586	144.12
3859.197	150.12
3861.806	137.12
3864.414	137.12
3867.019	134.12
3869.622	133.12
3872.224	133.12
3874.823	124.12
3877.421	121.12
3880.016	119.12
3882.61	117.12
3885.202	119.12
3887.792	108.12
3890.38	95.12
3892.966	87.12
3895.55	83.12
3898.132	77.12
3900.713	66.12
3903.291	54.12
3905.868	54.12
3908.442	49.12
3911.015	47.12
3913.586	42.12
3916.155	35.12
3918.722	30.12
3921.287	36.12
3923.85	25.12
3926.411	31.12
3928.971	29.12
3931.528	22.12
3934.084	25.12
3936.638	22.12
3939.19	18.12
3941.74	15.12
3944.288	13.12
3946.834	7.12
3949.378	8.12
3951.921	6.12
3954.462	0.12
3957	5.12
3959.537	7.12
3962.072	8.12
3964.606	3.12
3967.137	8.12
3969.667	6.12
3972.194	-1.88
3974.72	8.12
3977.244	-3.88
3979.766	-0.88
3982.286	-2.88
3984.805	0.12
3987.321	-4.88
3989.836	-4.88
3992.349	-5.88
3994.86	-4.88
3997.369	-5.88
3999.877	-11.88
4002.382	-13.88
4004.886	-8.88
4007.388	-11.88
4009.888	-10.88
4012.386	-17.88
4014.883	-16.88
4017.377	-13.88
4019.87	-14.88
4022.361	-15.88
4024.85	-13.88
4027.338	-19.88
4029.823	-16.88
4032.307	-18.88
4034.789	-15.88
4037.269	-12.88
4039.747	-16.88
4042.224	-23.88
4044.699	-14.88
4047.172	-21.88
4049.643	-19.88
4052.112	-22.88
4054.58	-18.88
4057.046	-21.88
4059.51	-25.88
4061.972	-24.88
4064.432	-27.88
4066.891	-28.88
4069.348	-32.88
4071.803	-26.88
4074.256	-34.88
4076.708	-31.88
4079.158	-31.88
4081.606	-33.88
4084.052	-33.88
4086.497	-35.88
4088.939	-33.88
4091.38	-36.88
4093.819	-32.88
4096.257	-55.88
4098.693	-54.88
4101.127	-54.88
4103.559	-56.88
4105.989	-20.88
4108.418	-17.88
4110.845	-20.88
4113.27	-11.88
4115.694	-20.88
4118.115	-8.88
4120.535	-35.88
4122.954	-33.88
4125.37	-42.88
4127.785	-37.88
4130.198	-41.88
4132.609	-42.88
4135.019	-54.88
4137.427	-54.88
4139.833	-56.88
4142.237	-53.88
