##TITLE=FSH702
##FORMAT=SPECTACLE-ASCII V-1.2
##DATA TYPE=ULTRAVIOLET SPECTRUM
##SECOND TYPE=ULTRAVIOLET SPECTRUM
##DATE=03/27/18
##TIME=17:53:17
##SPECTROMETER/DATA SYSTEM=SPECTACLE
##XUNITS=NM EM
##YUNITS=ENERGY
##YFACTOR=1
##FIRSTX=220
##LASTX=410
##NPOINTS=96
##3DDATA=Equidistant
##ZUNITS=NM EX
##FIRSTZ=210
##LASTZ=400
##ZPOINTS=39
##XYDATA=(Y..Y)
##ZVALUE=210
2.679825
2.199411
2.638698
2.346635
2.909899
2.502799
2.834797
2.838969
3.314614
2.631545
2.658963
3.583431
3.177524
2.903938
3.098845
3.605485
3.710985
3.502965
3.835559
4.332662
4.086494
4.767776
5.450845
5.268455
4.656911
4.947782
5.841851
5.042553
5.220771
5.230904
5.896688
5.826950
6.337762
6.238818
6.468892
6.859899
7.870793
6.023645
6.507635
6.317496
6.028414
6.778836
7.096529
6.421804
6.965995
6.274581
7.293820
6.663799
5.921721
6.284714
6.689429
6.416440
6.959438
6.080866
6.571412
7.167459
6.966591
6.926656
7.723570
6.590486
6.558895
7.272959
6.918907
6.735921
7.355809
7.346869
7.303953
9.160638
8.899570
11.107922
11.744499
12.997985
15.827417
17.649531
19.289851
17.351508
19.362569
18.478632
17.133951
16.974807
15.103817
13.843775
13.013482
11.327863
10.258555
9.413958
9.227991
7.609725
7.708669
7.366538
6.980896
6.534457
7.696748
6.653666
7.503629
7.634759
##ZVALUE=215
4.917979
4.322529
3.538728
3.863573
3.298521
3.244877
3.908873
3.835559
4.589558
4.327893
5.306602
3.836751
4.683733
4.119873
4.062653
3.436804
4.345775
3.533959
3.763437
4.116893
4.163980
4.703999
4.852414
5.361438
5.185604
5.234480
5.391836
6.140471
6.592870
7.717609
7.055998
7.845759
7.197857
7.929802
7.866621
7.091761
7.917881
7.811785
8.159876
7.671714
7.493496
8.001924
8.331537
7.146597
7.837415
7.350445
7.536411
7.705688
7.296801
8.568764
7.641912
7.794499
8.163452
7.941723
7.954836
7.912517
7.218719
6.513596
7.553697
7.952452
7.270575
8.103848
7.548928
7.320642
7.868409
7.352829
8.778572
7.998943
9.630919
10.553598
11.903644
12.848973
15.300512
16.568899
17.402768
17.611980
17.493963
18.572807
17.248988
16.393661
16.438961
13.655424
12.419820
10.786653
9.936690
9.917617
8.040667
8.362532
9.005666
7.378459
7.609725
7.077456
7.954836
7.215738
7.824898
7.637739
##ZVALUE=220
15.339851
16.149879
17.098784
15.812516
14.596581
10.264516
9.071827
9.083748
7.524490
7.581711
8.716583
8.875728
8.741617
8.523464
7.733703
6.727576
5.543828
5.256534
4.864931
5.237460
5.066991
4.792809
5.679727
4.933476
6.136894
6.040931
6.133914
7.561445
8.421540
9.367466
10.164976
9.643435
10.876656
10.913610
11.964440
10.258555
11.277795
11.653900
11.436939
11.905432
11.229515
10.763407
10.912418
10.072589
10.794997
9.638667
9.785891
9.329915
9.516478
9.657741
9.317994
10.018945
8.869767
9.338856
8.368492
9.040833
9.248853
8.071661
8.630753
9.102821
9.085536
8.641481
8.797646
9.253621
9.492636
9.287596
9.672642
9.479523
10.030866
12.665987
13.138652
14.718771
15.051961
17.622709
18.126965
17.858744
19.023418
18.880963
18.525720
17.214417
17.190576
15.837550
15.445948
13.859868
13.310909
11.336803
10.518432
9.965897
9.721518
10.092854
10.354519
10.308623
9.276867
10.063648
9.459853
10.539889
##ZVALUE=225
32.166839
32.354593
42.582750
51.821470
52.613616
56.296587
48.852563
37.215948
30.557513
24.791956
18.146634
17.757416
17.830729
19.423962
20.460486
20.630956
17.549992
14.944673
12.126565
9.285808
7.000566
5.374551
6.589890
5.323887
6.091595
7.455945
7.927418
9.134412
9.348989
9.959936
11.160970
13.030767
13.673902
13.605952
13.541579
14.070868
13.908744
14.467835
13.200641
14.257431
14.831424
14.475584
13.325810
13.410449
12.544990
13.709664
12.945533
12.269616
12.049675
11.323690
11.657476
10.363460
9.943843
10.645986
11.254549
11.244416
11.309981
11.542439
11.587739
10.732412
11.298656
11.203885
12.134910
11.773705
11.746883
12.529492
12.212992
13.312697
14.065504
14.601946
16.944408
18.405914
19.302964
20.848513
21.741986
23.002625
22.173524
21.524429
21.009445
21.116734
20.862818
18.635988
18.876791
17.804503
17.760992
16.573668
15.574694
16.408563
16.602874
15.933514
14.693737
15.182495
17.433763
14.135838
15.687943
15.096664
##ZVALUE=230
32.968521
36.821961
54.437518
90.446472
117.098689
146.855712
153.254867
154.972672
149.505734
117.279887
86.667538
64.470768
43.164492
36.266446
37.361979
38.997531
42.773485
40.339828
37.295818
34.543872
26.204586
18.265843
11.542439
9.751916
8.558631
8.430481
8.440614
9.029508
8.919835
10.197759
12.383461
13.003945
13.641715
13.961792
14.915466
16.134977
15.569925
15.260577
14.740825
16.049743
16.115904
15.051961
14.921427
14.967918
14.454722
13.807416
13.772845
14.347434
13.078451
13.241768
13.207793
13.943911
13.966560
13.855696
14.293790
14.380813
13.988614
12.656450
14.352798
14.922619
16.139746
15.501976
16.845465
15.898943
16.407967
18.867850
17.918944
18.947721
20.885468
23.067594
22.116899
25.707483
27.490854
28.403997
29.626489
30.247569
29.403567
29.420853
30.887723
31.046867
29.223561
28.365850
28.997660
27.358532
27.209520
29.368997
26.998520
27.131438
26.854873
26.135445
25.504827
28.264523
24.731755
26.353598
26.093721
26.878715
##ZVALUE=235
13.713837
14.465451
32.442808
75.190663
125.239491
196.592808
254.514813
325.974822
357.451439
358.589888
325.540900
269.485712
187.784433
131.026506
90.299845
70.695877
68.443418
67.242980
75.622797
76.131821
70.331693
60.916543
50.373673
34.710765
24.255514
16.917586
12.326837
10.421872
9.986758
9.953976
11.127591
12.448430
11.643767
11.743903
13.440847
12.688637
14.071465
13.950467
13.964772
14.979839
15.250444
15.150905
14.338493
14.888644
14.889836
15.119910
14.383793
14.501810
13.853908
14.378428
14.549494
14.682412
16.026497
14.946461
13.886690
16.615987
16.563535
18.172860
18.486977
18.721819
18.431544
19.796491
20.397902
23.171902
23.857951
24.281740
23.870468
26.973486
25.958419
30.951500
32.087564
33.214688
35.690665
39.755702
40.558577
40.800571
44.002533
42.947531
42.162538
45.505762
45.489669
43.446422
41.210651
42.742491
44.985414
42.967796
42.068958
43.547750
43.870807
43.633580
43.160915
43.477416
44.072866
43.776631
42.539835
44.052601
##ZVALUE=240
3.268719
3.340840
8.026958
18.972754
54.442883
104.177594
206.906796
310.124755
456.234813
540.571809
612.971783
618.682504
572.515726
457.983613
359.607935
220.873952
155.394673
105.492473
95.022917
92.014670
103.132725
108.244419
110.351443
95.059872
78.987479
64.989924
46.812892
34.950972
22.921562
16.422868
13.871789
12.464523
10.759830
12.672544
13.317466
13.514757
13.433695
14.038682
14.201999
13.548732
14.840961
15.657544
14.168620
15.903711
17.014742
14.695525
15.763640
16.072989
15.451908
17.251968
15.988946
15.268922
17.028451
15.972853
17.636418
17.375946
18.511415
19.300580
20.136833
20.206571
21.203756
23.040771
22.507906
23.803711
27.451515
29.352903
30.550957
31.034946
32.557845
35.521984
39.171576
40.924549
43.736696
47.596693
48.779845
53.088665
50.217509
52.840710
54.067969
52.170753
53.649545
53.444505
54.953694
56.092739
56.778789
56.337714
57.922602
55.964589
55.652857
53.814650
58.155656
57.733655
56.260824
57.165623
55.082440
56.784749
##ZVALUE=245
2.541542
2.548695
2.640486
2.376437
5.942583
16.505718
51.998496
110.480785
228.408575
354.110003
546.732545
671.265721
768.172741
807.075500
763.405561
637.467504
503.040552
341.563821
231.295824
138.893723
104.549527
98.526478
110.375881
122.447610
124.630928
120.297670
109.508634
96.356869
72.047710
55.895448
39.511919
27.048588
21.114945
16.296506
13.924837
14.668703
15.586615
15.407801
15.656948
15.876889
15.462637
15.806556
15.390515
16.821623
15.782714
17.073750
15.668869
16.119480
16.687512
15.063882
16.911626
16.380548
16.368628
16.217828
16.249418
16.763806
17.979741
17.445683
18.240809
18.345714
20.357966
21.787882
21.450520
23.993850
25.500655
27.183890
27.976632
29.781461
29.671788
34.993887
38.073659
38.692951
44.376850
43.997765
46.065450
47.347546
48.679709
53.245425
51.189661
53.287745
53.317547
53.534508
54.634809
57.561994
57.517886
55.994987
55.977702
60.223937
59.481859
57.704449
56.995749
56.812763
57.390928
57.944655
59.787631
59.221983
##ZVALUE=250
2.531409
2.166629
2.218485
2.556443
2.800822
2.793670
4.079938
10.574460
45.051575
97.341537
220.328569
366.957784
522.821546
733.504891
862.372518
954.355001
932.890773
827.368498
686.912537
471.867919
320.534706
207.046866
120.990872
98.628998
102.445483
116.245747
133.715868
139.282942
137.322545
124.294758
107.366443
85.069537
66.753626
44.557452
31.307936
23.017526
19.907951
20.024776
19.276738
19.347668
18.153787
19.059777
18.353462
17.954707
18.459558
18.111467
17.487407
17.268658
17.801523
17.069578
18.030405
17.827749
17.584562
17.479658
17.602444
18.190742
18.224716
17.108917
19.586682
19.460917
19.097924
21.044612
21.605492
23.397803
24.261475
25.772452
26.094913
27.224422
28.345585
31.624436
33.924580
36.463737
37.568808
40.110946
43.872595
45.159459
44.826865
48.775673
49.670935
49.322844
51.112771
48.474669
52.371621
52.556992
52.861571
54.376721
56.123734
56.745410
54.754615
57.556629
54.645538
56.925416
56.778789
59.070587
57.873726
58.049560
##ZVALUE=255
1.906753
2.089739
2.418756
2.298951
2.467632
2.168417
2.164841
2.789497
3.174543
6.640553
31.847954
75.261593
152.585506
320.400596
486.848950
742.374659
904.764533
1015.605927
1015.605927
1008.572578
866.565704
698.171854
431.571007
274.919868
147.363544
104.025602
93.526840
106.244683
127.937794
142.367482
153.526664
151.478648
139.891505
112.589598
93.156695
69.228411
54.238439
36.015511
29.950738
25.489926
23.875833
23.843646
23.058653
22.701621
23.072958
20.786524
21.171570
21.030903
20.340681
19.909739
20.209551
19.696951
20.374656
19.086599
19.353628
18.724799
20.190477
19.081831
18.178821
20.046830
19.256473
20.746589
19.892454
20.703673
21.314621
23.600459
23.736954
26.425719
27.863979
28.618574
29.965639
32.772422
35.098791
37.980676
38.619637
40.790439
40.235519
42.972565
43.142438
44.252872
45.226812
46.635866
48.527718
49.792528
49.772859
50.722957
51.842928
54.347515
53.788424
52.032471
52.928925
54.022670
54.442883
55.894852
56.373477
55.165887
##ZVALUE=260
1.741648
1.933575
1.834631
1.809597
2.132654
2.185702
2.533793
2.852678
2.619624
2.564788
2.774596
4.152656
12.386441
48.986673
112.088919
262.913704
427.143574
688.138604
894.719958
1015.605927
1015.605927
1015.605927
1015.605927
859.963894
562.458634
384.463668
219.787955
137.384534
90.958476
93.504786
110.409856
139.856935
157.848597
168.341994
165.617466
146.489739
128.392577
99.917650
81.898570
58.313608
47.041774
35.360456
30.495524
29.166937
27.958751
26.575923
25.301576
24.629831
23.957491
22.657514
22.998452
22.265911
22.318959
21.472573
20.392537
20.731688
21.121502
20.785928
20.470619
20.548701
20.600557
21.582842
20.794868
22.403598
22.705793
22.786856
23.717880
24.209619
26.198626
27.781725
29.519796
30.666590
32.770634
34.697652
35.982728
36.469698
37.086606
39.412975
39.925575
42.776465
42.625666
43.772459
47.466755
46.689510
47.162771
47.590733
47.877431
48.999786
48.967600
51.446557
50.017834
49.779415
51.246881
51.791668
52.835941
53.078532
##ZVALUE=265
1.807809
1.733899
1.710653
1.794696
1.817942
1.866817
1.783967
2.069473
2.086759
2.262592
2.246499
2.253652
2.740622
3.342628
7.057786
34.712553
81.611872
201.599002
355.532765
650.228858
895.629525
1015.473008
1015.473008
1015.473008
1015.473008
1007.339954
760.134459
542.438626
305.974483
189.318657
121.628642
90.997815
100.579858
132.379532
150.757432
174.558759
179.787874
169.622898
158.184767
132.233500
109.994411
81.817508
64.211488
47.295690
37.862659
32.189488
30.090809
27.489662
27.062893
26.273727
24.459958
24.527907
24.106503
22.532940
22.862554
21.313429
20.906925
20.518899
20.705462
20.902753
20.529628
20.461679
21.176934
22.229552
21.981001
22.260547
22.773743
24.501681
25.460720
27.312636
27.990937
29.885769
32.646656
32.226443
34.443736
34.628510
36.466718
37.267804
39.417744
38.760900
40.841699
40.715933
43.405890
42.347908
44.385791
45.678616
45.909882
46.022534
47.198534
46.935678
46.942830
47.626495
48.828721
47.651529
49.983859
50.081611
##ZVALUE=270
1.752973
1.742840
1.710653
1.834631
1.937747
1.920462
1.938939
1.940727
1.856685
2.037883
2.307892
2.295971
2.270937
2.405643
2.526641
2.727509
4.259944
13.943911
56.437850
136.505961
266.757011
543.980598
803.367496
1015.605927
1015.605927
1015.605927
1015.605927
1015.605927
990.888476
684.801936
468.253493
247.071981
153.270960
91.764927
87.208748
106.724501
130.822659
158.015490
174.566507
181.479454
176.532865
156.154633
134.881735
105.399489
83.910823
57.383776
46.696663
35.522580
30.397773
26.553869
26.587844
25.153756
23.742914
22.732615
22.823811
21.665692
21.073818
21.413565
20.608902
20.105839
21.292567
21.295547
21.248460
22.022724
21.378994
22.545457
23.176670
24.501681
25.016665
26.011467
27.899742
29.242635
30.345917
32.064915
34.125447
35.688877
35.309792
36.746860
37.044883
38.864613
39.090514
40.757656
41.243434
41.957498
43.604970
43.306947
44.002533
44.166446
44.199824
44.915676
45.792460
45.878887
46.060681
45.419931
47.176480
47.463775
##ZVALUE=275
1.620650
1.650453
1.636744
1.767874
1.577735
1.804829
1.793504
1.824498
1.975894
1.976490
2.006888
2.157688
2.057552
2.283454
2.203584
2.275705
2.681613
2.644658
3.091693
6.095767
32.575727
88.438988
246.839523
433.154702
703.842640
1000.077724
1015.605927
1015.605927
1015.605927
1015.605927
1015.605927
877.833962
627.551675
346.995592
207.318664
104.243755
73.238611
79.264641
98.755956
126.048923
146.703720
168.342590
172.499418
167.168975
152.204633
124.208927
103.729963
77.320933
58.401823
41.042566
32.419562
26.245713
23.408532
21.897554
21.264553
20.487905
20.063519
20.056963
20.119548
19.483566
21.071434
20.667911
20.467639
22.375584
22.077560
22.681952
23.745894
24.536848
24.956465
27.775764
27.983785
29.542446
30.725598
32.259822
33.257604
34.749508
35.622716
35.070777
36.295652
38.266778
38.132668
39.649606
39.646626
40.933490
41.032434
42.445660
43.035746
44.299960
43.768883
44.231415
44.520497
43.554902
43.899417
43.496490
44.276714
45.253634
##ZVALUE=280
1.684427
1.691580
1.616478
1.611710
1.513958
1.430511
1.526475
1.602769
1.912713
1.732707
1.819730
2.040863
1.906753
1.857877
1.947880
2.066493
2.184510
2.237558
2.288818
2.650619
3.075600
4.927516
17.832518
58.299899
182.974935
330.107808
597.283840
866.786838
1015.605927
1015.605927
1015.605927
1015.605927
1015.605927
1015.605927
712.430477
471.704602
234.094858
129.813552
63.617826
53.447485
68.463683
89.840889
116.277933
136.615634
158.809423
160.875916
156.840682
143.392682
119.685531
96.299648
69.350600
51.790476
36.201477
27.921796
21.802783
20.288825
18.244982
18.568635
18.820763
19.200444
19.980669
19.959807
21.388531
21.691918
22.458434
22.582412
23.829937
24.954677
26.391745
27.864575
27.724504
30.270815
30.717850
32.389760
34.327507
34.104586
36.150813
36.060810
36.984682
37.093759
40.384531
39.321780
40.484667
41.257739
42.406917
43.124557
42.391419
43.096542
42.228699
42.965412
42.772889
42.515993
42.921901
44.200420
43.396950
43.893456
##ZVALUE=285
1.527667
1.611710
1.307726
1.242757
1.642704
1.497865
1.428723
1.691580
1.708865
1.862645
1.853704
1.772642
1.920462
1.793504
1.527667
1.762509
1.992583
2.206564
2.109408
2.204776
2.525449
2.563596
3.057718
3.453493
10.079741
34.205914
89.628696
235.500932
407.367945
720.144510
980.195999
1015.605927
1015.605927
1015.605927
1015.605927
1015.605927
939.893723
569.075942
358.703732
170.980692
88.728666
44.488907
42.727590
60.315728
79.539418
109.309554
126.443505
145.529509
151.077509
147.886872
137.173533
114.002824
94.356537
68.585873
51.361918
34.400821
27.353764
20.955801
19.169450
19.501448
19.801855
19.078851
20.819902
22.439957
22.350550
23.411512
25.553703
25.696754
26.807785
28.550625
29.423833
31.363964
31.599998
33.368468
34.396648
34.332871
35.178661
37.557483
38.143992
38.927794
39.429665
39.470792
41.080713
40.782690
41.390657
41.587949
42.667985
42.481422
42.182803
42.936802
43.784976
44.009686
43.073893
44.074655
43.380857
43.940544
##ZVALUE=290
1.465678
1.479983
1.417994
1.470447
1.447797
1.508594
1.507998
1.513958
1.598597
1.552701
1.465678
1.536608
1.501441
1.716614
1.724958
1.920462
1.788735
1.858473
1.793504
2.140999
2.146959
2.233982
2.313852
2.623796
3.021955
3.018975
4.316568
12.468696
56.249499
133.372545
260.779858
535.863638
812.448859
1015.605927
1015.605927
1015.605927
1015.605927
1015.605927
1015.605927
733.729601
481.793880
240.011811
124.578476
50.669909
31.964779
39.628744
53.231716
76.081753
96.848607
123.768449
137.987733
147.162676
145.042539
132.967830
116.503835
88.107586
68.929791
47.943592
36.027431
26.861429
23.085475
21.253824
20.848513
21.812916
22.346973
23.848414
24.972558
26.038885
28.156638
28.829575
30.673742
31.073689
33.006668
33.952594
35.676956
36.837459
37.713647
38.291812
39.333701
39.727688
40.436983
41.326880
41.237473
42.411685
42.386651
42.457581
43.825507
44.351816
43.688416
43.372512
43.945909
43.737888
44.073462
43.382645
43.964982
43.285489
##ZVALUE=295
1.330972
1.403689
1.420975
1.471639
1.395941
1.483560
1.326799
1.366735
1.487732
1.496673
1.566410
1.623631
1.411438
1.531839
1.560450
1.625419
1.718998
1.548529
1.761913
1.873970
1.945496
2.077818
2.053976
2.175570
2.028942
2.366900
2.584457
2.656579
3.269911
5.693436
20.590425
84.219575
186.957717
434.178710
685.983896
1015.600562
1015.600562
1015.600562
1015.600562
1015.600562
1015.600562
888.432860
611.465573
326.245427
174.201727
64.852834
33.166409
25.416613
33.160448
50.184727
67.276955
93.967915
113.742948
132.194757
139.853954
138.613582
128.699541
108.776689
88.980794
65.474510
51.463842
36.522746
29.980540
25.577545
24.132729
24.112463
24.916530
26.520491
27.819872
29.529929
30.865669
33.172965
33.211708
34.793615
36.282539
37.654638
38.203597
39.993525
41.294694
41.294694
42.438507
43.148994
42.956471
43.726563
44.711828
45.280457
45.252442
45.452714
45.175552
45.324564
44.441819
45.151711
44.310689
43.999553
43.888688
44.839978
##ZVALUE=300
1.211762
1.194477
1.433492
1.399517
1.260638
1.334548
1.381636
1.455545
1.333952
1.428723
1.378655
1.430511
1.321435
1.476407
1.384616
1.647472
1.475811
1.659989
1.668930
1.668930
1.692772
1.830459
1.739860
1.879930
1.787543
1.980662
2.235770
2.109408
2.536774
3.016591
3.197789
3.657937
9.106994
49.417615
122.392774
308.830738
521.073937
886.758566
1015.606523
1015.606523
1015.606523
1015.606523
1015.606523
1008.706689
766.766071
429.371595
250.663757
110.563636
52.196980
22.366643
21.067858
30.604601
43.439865
64.297915
83.771944
110.083818
125.211477
136.277676
134.759545
123.460889
110.612512
85.937977
71.019530
52.081943
41.160583
32.053590
29.118657
27.273893
27.852654
30.002594
30.023456
33.015609
33.656955
35.940409
36.461949
38.054585
39.243698
40.562749
40.710568
41.874647
43.695569
44.421554
44.565797
45.473576
45.790672
46.268702
46.244860
46.694875
46.692491
46.393871
46.617985
45.763850
45.363903
45.370460
45.205951
45.662522
##ZVALUE=305
1.207590
1.223683
1.209974
1.239777
1.230836
1.319647
1.332760
1.412630
1.369715
1.337528
1.349449
1.327991
1.348853
1.114607
1.316667
1.414418
1.631975
1.546741
1.630783
1.590848
1.539588
1.658797
1.658797
1.770854
1.906753
1.881719
1.970530
2.025962
2.150536
2.074838
2.526641
2.547503
2.548695
3.050566
5.235672
29.697418
80.820918
226.311684
400.722027
729.428530
994.457006
1015.605927
1015.605927
1015.605927
1015.605927
1015.605927
901.366472
561.401844
348.791480
156.965852
75.692534
27.264953
17.836690
20.520687
28.352737
44.209957
60.354471
85.305572
102.444887
122.197866
130.333900
129.544735
123.768449
106.974840
91.174841
68.780780
56.247711
42.961836
37.244558
33.667684
32.538772
33.742785
34.469962
35.958886
37.228465
38.394928
39.698482
41.856766
42.233467
43.587685
44.407845
45.878887
46.300888
47.525764
47.867894
47.468543
48.601627
48.291683
48.339963
48.197508
48.000813
46.632886
46.485662
46.373606
47.162771
46.656728
##ZVALUE=310
1.268983
1.192689
1.293421
1.181960
1.211762
1.138449
1.207590
1.501441
1.426935
1.360774
1.390576
1.279712
1.227856
1.457930
1.515746
1.202822
1.385808
1.293421
1.431704
1.448989
1.700521
1.366735
1.469851
1.550913
1.623631
1.715422
1.759529
1.852512
2.017617
1.828671
1.966953
1.907945
2.234578
2.401471
