Data from .25_RamanShift_03.txt Node
Date: Wed Mar 21 15:12:12 IST 2018
User: aro
Spectrometer: QEPB0276
Trigger mode: 0
Integration Time (sec): 5.000000E0
Scans to average: 1
Electric dark correction enabled: true
Nonlinearity correction enabled: false
Boxcar width: 0
XAxis mode: Raman Shifts
Number of Pixels in Spectrum: 1044
>>>>>Begin Spectral Data<<<<<
160.701	0.8
166.742	1.8
172.777	4.8
178.805	16.8
184.826	35.8
190.841	79.8
196.849	119.8
202.85	158.8
208.845	163.8
214.833	166.8
220.815	149.8
226.789	154.8
232.758	151.8
238.719	156.8
244.674	146.8
250.623	141.8
256.565	141.8
262.5	136.8
268.429	130.8
274.351	130.8
280.267	131.8
286.176	119.8
292.079	124.8
297.975	119.8
303.865	117.8
309.748	119.8
315.625	114.8
321.495	118.8
327.359	117.8
333.217	117.8
339.068	119.8
344.912	116.8
350.751	115.8
356.583	117.8
362.408	119.8
368.227	120.8
374.04	129.8
379.847	129.8
385.647	136.8
391.44	132.8
397.228	129.8
403.009	131.8
408.784	143.8
414.553	150.8
420.315	176.8
426.071	177.8
431.821	147.8
437.565	127.8
443.302	125.8
449.033	123.8
454.758	121.8
460.477	119.8
466.189	121.8
471.896	115.8
477.596	115.8
483.29	110.8
488.978	114.8
494.66	110.8
500.335	106.8
506.005	98.8
511.668	95.8
517.325	88.8
522.977	78.8
528.622	78.8
534.261	79.8
539.894	72.8
545.521	73.8
551.141	67.8
556.756	73.8
562.365	75.8
567.968	72.8
573.565	67.8
579.155	68.8
584.74	71.8
590.319	73.8
595.892	68.8
601.459	69.8
607.02	68.8
612.575	73.8
618.124	68.8
623.667	66.8
629.204	64.8
634.735	63.8
640.261	67.8
645.781	73.8
651.294	73.8
656.802	75.8
662.304	70.8
667.8	62.8
673.29	55.8
678.775	59.8
684.254	57.8
689.726	61.8
695.193	56.8
700.655	60.8
706.11	52.8
711.56	59.8
717.004	57.8
722.442	57.8
727.874	58.8
733.301	51.8
738.722	52.8
744.137	50.8
749.547	51.8
754.951	56.8
760.349	55.8
765.741	54.8
771.128	53.8
776.509	58.8
781.885	54.8
787.254	58.8
792.618	55.8
797.977	52.8
803.33	50.8
808.677	55.8
814.019	53.8
819.355	52.8
824.686	56.8
830.011	52.8
835.33	49.8
840.644	53.8
845.952	59.8
851.255	58.8
856.552	46.8
861.844	49.8
867.13	50.8
872.41	52.8
877.686	53.8
882.955	49.8
888.219	45.8
893.478	45.8
898.731	42.8
903.979	41.8
909.221	45.8
914.458	38.8
919.69	38.8
924.916	41.8
930.136	43.8
935.351	47.8
940.561	42.8
945.766	42.8
950.965	41.8
956.158	39.8
961.347	39.8
966.529	39.8
971.707	37.8
976.879	33.8
982.046	33.8
987.208	35.8
992.364	38.8
997.515	38.8
1002.66	34.8
1007.801	35.8
1012.936	36.8
1018.066	34.8
1023.19	35.8
1028.309	32.8
1033.423	32.8
1038.532	35.8
1043.636	36.8
1048.734	37.8
1053.827	33.8
1058.915	35.8
1063.998	31.8
1069.075	29.8
1074.147	29.8
1079.214	34.8
1084.276	37.8
1089.333	39.8
1094.385	38.8
1099.431	34.8
1104.472	30.8
1109.509	34.8
1114.54	30.8
1119.565	33.8
1124.586	32.8
1129.602	27.8
1134.613	34.8
1139.618	33.8
1144.619	33.8
1149.614	38.8
1154.604	37.8
1159.589	31.8
1164.57	32.8
1169.545	33.8
1174.515	31.8
1179.48	36.8
1184.44	34.8
1189.395	34.8
1194.345	31.8
1199.29	37.8
1204.23	30.8
1209.165	34.8
1214.095	32.8
1219.021	29.8
1223.941	32.8
1228.856	36.8
1233.766	29.8
1238.672	35.8
1243.572	32.8
1248.467	32.8
1253.358	25.8
1258.244	31.8
1263.124	29.8
1268	26.8
1272.871	27.8
1277.737	25.8
1282.599	27.8
1287.455	25.8
1292.306	26.8
1297.153	28.8
1301.995	29.8
1306.832	25.8
1311.664	26.8
1316.491	28.8
1321.314	28.8
1326.132	26.8
1330.945	25.8
1335.753	27.8
1340.556	25.8
1345.354	23.8
1350.148	32.8
1354.937	23.8
1359.722	25.8
1364.501	26.8
1369.276	26.8
1374.046	25.8
1378.811	28.8
1383.572	27.8
1388.327	29.8
1393.079	27.8
1397.825	23.8
1402.567	28.8
1407.304	25.8
1412.036	27.8
1416.764	23.8
1421.487	21.8
1426.205	25.8
1430.919	27.8
1435.628	23.8
1440.333	27.8
1445.032	22.8
1449.727	25.8
1454.418	19.8
1459.104	22.8
1463.785	27.8
1468.462	28.8
1473.134	26.8
1477.802	24.8
1482.465	22.8
1487.123	18.8
1491.777	22.8
1496.426	19.8
1501.071	21.8
1505.711	21.8
1510.347	23.8
1514.978	22.8
1519.604	22.8
1524.226	23.8
1528.844	21.8
1533.457	25.8
1538.065	22.8
1542.669	19.8
1547.269	18.8
1551.864	22.8
1556.454	23.8
1561.041	28.8
1565.622	26.8
1570.199	28.8
1574.772	24.8
1579.34	28.8
1583.904	23.8
1588.464	25.8
1593.019	23.8
1597.569	32.8
1602.115	33.8
1606.657	26.8
1611.195	32.8
1615.728	33.8
1620.256	32.8
1624.78	29.8
1629.3	32.8
1633.816	32.8
1638.327	32.8
1642.834	31.8
1647.336	33.8
1651.834	35.8
1656.328	29.8
1660.817	34.8
1665.302	28.8
1669.783	28.8
1674.259	27.8
1678.732	23.8
1683.199	24.8
1687.663	17.8
1692.122	22.8
1696.577	21.8
1701.028	24.8
1705.474	19.8
1709.917	17.8
1714.355	23.8
1718.788	17.8
1723.218	12.8
1727.643	15.8
1732.064	13.8
1736.481	12.8
1740.893	16.8
1745.301	18.8
1749.705	17.8
1754.105	13.8
1758.501	13.8
1762.893	11.8
1767.28	16.8
1771.663	12.8
1776.042	16.8
1780.417	23.8
1784.787	24.8
1789.154	18.8
1793.516	15.8
1797.874	14.8
1802.228	15.8
1806.578	9.8
1810.924	12.8
1815.266	7.8
1819.603	9.8
1823.937	12.8
1828.266	9.8
1832.591	9.8
1836.913	8.8
1841.23	13.8
1845.543	9.8
1849.852	8.8
1854.156	5.8
1858.457	8.8
1862.754	11.8
1867.047	8.8
1871.335	6.8
1875.62	7.8
1879.9	8.8
1884.177	8.8
1888.449	8.8
1892.718	8.8
1896.982	7.8
1901.243	5.8
1905.499	13.8
1909.752	9.8
1914	5.8
1918.245	7.8
1922.485	13.8
1926.722	7.8
1930.954	9.8
1935.183	10.8
1939.408	8.8
1943.628	7.8
1947.845	10.8
1952.058	7.8
1956.267	8.8
1960.472	11.8
1964.673	10.8
1968.87	10.8
1973.063	12.8
1977.252	10.8
1981.438	9.8
1985.619	9.8
1989.797	10.8
1993.971	4.8
1998.14	8.8
2002.306	4.8
2006.469	6.8
2010.627	10.8
2014.781	9.8
2018.932	11.8
2023.078	8.8
2027.221	5.8
2031.36	5.8
2035.495	5.8
2039.627	2.8
2043.754	3.8
2047.878	6.8
2051.998	3.8
2056.114	6.8
2060.226	3.8
2064.334	7.8
2068.439	10.8
2072.54	11.8
2076.637	7.8
2080.73	4.8
2084.82	8.8
2088.906	4.8
2092.988	2.8
2097.066	7.8
2101.14	5.8
2105.211	10.8
2109.278	11.8
2113.342	9.8
2117.401	7.8
2121.457	7.8
2125.509	5.8
2129.558	8.8
2133.602	6.8
2137.643	5.8
2141.681	7.8
2145.714	9.8
2149.744	9.8
2153.77	7.8
2157.793	8.8
2161.812	4.8
2165.827	2.8
2169.838	5.8
2173.846	7.8
2177.851	5.8
2181.851	5.8
2185.848	5.8
2189.841	8.8
2193.831	8.8
2197.817	2.8
2201.799	3.8
2205.778	0.8
2209.753	2.8
2213.725	0.8
2217.693	5.8
2221.657	5.8
2225.618	5.8
2229.575	6.8
2233.529	0.8
2237.479	4.8
2241.425	3.8
2245.368	4.8
2249.307	2.8
2253.243	4.8
2257.175	5.8
2261.104	4.8
2265.029	5.8
2268.95	3.8
2272.868	4.8
2276.783	7.8
2280.694	2.8
2284.601	5.8
2288.505	-0.2
2292.405	2.8
2296.302	1.8
2300.195	-0.2
2304.085	3.8
2307.971	4.8
2311.854	3.8
2315.734	5.8
2319.609	4.8
2323.482	0.8
2327.351	-0.2
2331.216	4.8
2335.078	-1.2
2338.937	-0.2
2342.792	3.8
2346.643	0.8
2350.492	2.8
2354.336	1.8
2358.178	0.8
2362.015	0.8
2365.85	0.8
2369.681	1.8
2373.508	-3.2
2377.333	-4.2
2381.153	1.8
2384.971	-0.2
2388.785	0.8
2392.595	2.8
2396.402	1.8
2400.206	2.8
2404.007	0.8
2407.804	-1.2
2411.597	-1.2
2415.388	-4.2
2419.174	-0.2
2422.958	3.8
2426.738	1.8
2430.515	1.8
2434.289	2.8
2438.059	0.8
2441.825	2.8
2445.589	1.8
2449.349	-2.2
2453.106	1.8
2456.859	1.8
2460.61	1.8
2464.356	2.8
2468.1	1.8
2471.84	3.8
2475.577	1.8
2479.311	2.8
2483.041	0.8
2486.768	2.8
2490.492	-3.2
2494.213	-2.2
2497.93	-0.2
2501.644	3.8
2505.355	0.8
2509.062	0.8
2512.766	0.8
2516.467	1.8
2520.165	1.8
2523.859	-2.2
2527.551	-1.2
2531.239	-0.2
2534.923	-1.2
2538.605	-0.2
2542.283	-1.2
2545.958	0.8
2549.63	0.8
2553.299	0.8
2556.964	-0.2
2560.626	0.8
2564.285	-1.2
2567.941	-0.2
2571.594	0.8
2575.243	-4.2
2578.89	2.8
2582.533	-0.2
2586.173	-2.2
2589.809	-1.2
2593.443	-2.2
2597.073	-2.2
2600.701	-3.2
2604.325	-2.2
2607.946	-1.2
2611.564	-4.2
2615.178	-0.2
2618.79	-5.2
2622.398	-1.2
2626.004	-2.2
2629.606	0.8
2633.205	-1.2
2636.801	-4.2
2640.394	-4.2
2643.983	-1.2
2647.57	-4.2
2651.153	-6.2
2654.734	-2.2
2658.311	-0.2
2661.885	1.8
2665.456	2.8
2669.025	-2.2
2672.589	3.8
2676.151	-1.2
2679.71	-2.2
2683.266	-2.2
2686.819	-3.2
2690.368	0.8
2693.915	1.8
2697.458	2.8
2700.999	1.8
2704.536	-1.2
2708.071	-2.2
2711.602	-4.2
2715.13	-5.2
2718.656	-2.2
2722.178	-6.2
2725.697	-1.2
2729.214	-0.2
2732.727	-0.2
2736.237	0.8
2739.744	-0.2
2743.249	-4.2
2746.75	-5.2
2750.248	-4.2
2753.743	-4.2
2757.236	-5.2
2760.725	-3.2
2764.211	-2.2
2767.695	0.8
2771.175	-2.2
2774.652	-1.2
2778.127	-3.2
2781.598	-3.2
2785.067	-4.2
2788.532	-4.2
2791.995	-5.2
2795.455	0.8
2798.911	-1.2
2802.365	3.8
2805.816	-0.2
2809.264	0.8
2812.709	-2.2
2816.151	-2.2
2819.59	2.8
2823.026	-3.2
2826.46	-1.2
2829.89	-1.2
2833.318	6.8
2836.742	2.8
2840.164	1.8
2843.583	2.8
2846.999	-1.2
2850.412	1.8
2853.822	1.8
2857.229	0.8
2860.634	1.8
2864.035	2.8
2867.434	1.8
2870.83	1.8
2874.223	6.8
2877.613	10.8
2881	11.8
2884.385	6.8
2887.766	0.8
2891.145	-2.2
2894.521	3.8
2897.894	0.8
2901.264	2.8
2904.631	1.8
2907.996	5.8
2911.358	2.8
2914.717	-1.2
2918.073	-1.2
2921.426	-2.2
2924.777	0.8
2928.124	-4.2
2931.469	1.8
2934.811	1.8
2938.15	1.8
2941.487	4.8
2944.821	1.8
2948.152	1.8
2951.48	3.8
2954.805	-1.2
2958.128	1.8
2961.447	3.8
2964.765	6.8
2968.079	4.8
2971.39	7.8
2974.699	3.8
2978.005	3.8
2981.308	4.8
2984.609	3.8
2987.907	3.8
2991.202	5.8
2994.494	6.8
2997.784	-0.2
3001.07	3.8
3004.355	8.8
3007.636	3.8
3010.915	5.8
3014.191	7.8
3017.464	6.8
3020.734	8.8
3024.002	7.8
3027.267	7.8
3030.53	11.8
3033.789	6.8
3037.046	12.8
3040.301	8.8
3043.552	3.8
3046.801	7.8
3050.048	9.8
3053.291	4.8
3056.532	6.8
3059.771	12.8
3063.006	11.8
3066.239	14.8
3069.469	9.8
3072.697	10.8
3075.922	10.8
3079.144	10.8
3082.364	13.8
3085.581	14.8
3088.795	15.8
3092.007	15.8
3095.216	18.8
3098.423	18.8
3101.627	18.8
3104.828	20.8
3108.026	15.8
3111.222	16.8
3114.416	21.8
3117.607	22.8
3120.795	21.8
3123.98	21.8
3127.163	25.8
3130.344	26.8
3133.521	24.8
3136.696	22.8
3139.869	24.8
3143.039	25.8
3146.206	25.8
3149.371	24.8
3152.533	27.8
3155.693	25.8
3158.85	26.8
3162.005	29.8
3165.157	30.8
3168.306	27.8
3171.453	32.8
3174.597	29.8
3177.739	29.8
3180.878	22.8
3184.014	26.8
3187.149	23.8
3190.28	27.8
3193.409	29.8
3196.536	27.8
3199.659	29.8
3202.781	23.8
3205.9	22.8
3209.016	27.8
3212.13	24.8
3215.241	29.8
3218.35	28.8
3221.456	31.8
3224.56	26.8
3227.661	31.8
3230.76	26.8
3233.856	25.8
3236.95	21.8
3240.041	21.8
3243.13	28.8
3246.216	27.8
3249.3	25.8
3252.382	24.8
3255.46	28.8
3258.537	28.8
3261.611	26.8
3264.682	23.8
3267.751	26.8
3270.818	22.8
3273.882	21.8
3276.943	22.8
3280.002	22.8
3283.059	22.8
3286.113	23.8
3289.165	25.8
3292.214	21.8
3295.261	21.8
3298.306	22.8
3301.348	18.8
3304.387	20.8
3307.425	20.8
3310.459	19.8
3313.492	21.8
3316.521	18.8
3319.549	21.8
3322.574	20.8
3325.597	20.8
3328.617	14.8
3331.635	18.8
3334.65	18.8
3337.663	18.8
3340.674	16.8
3343.682	16.8
3346.688	21.8
3349.691	23.8
3352.692	13.8
3355.691	20.8
3358.687	20.8
3361.681	19.8
3364.673	15.8
3367.662	21.8
3370.649	15.8
3373.633	22.8
3376.615	18.8
3379.595	16.8
3382.572	17.8
3385.547	16.8
3388.52	19.8
3391.49	18.8
3394.458	17.8
3397.424	14.8
3400.387	14.8
3403.348	16.8
3406.307	9.8
3409.263	13.8
3412.217	15.8
3415.168	15.8
3418.118	14.8
3421.065	17.8
3424.009	7.8
3426.951	13.8
3429.891	12.8
3432.829	14.8
3435.764	11.8
3438.697	11.8
3441.628	10.8
3444.557	9.8
3447.483	12.8
3450.407	10.8
3453.328	9.8
3456.247	9.8
3459.164	6.8
3462.079	9.8
3464.991	6.8
3467.902	11.8
3470.809	6.8
3473.715	9.8
3476.618	9.8
3479.519	9.8
3482.418	11.8
3485.315	10.8
3488.209	8.8
3491.101	9.8
3493.99	8.8
3496.878	10.8
3499.763	9.8
3502.646	8.8
3505.527	12.8
3508.405	8.8
3511.281	5.8
3514.155	11.8
3517.027	2.8
3519.897	2.8
3522.764	4.8
3525.629	3.8
3528.492	4.8
3531.352	5.8
3534.211	7.8
3537.067	3.8
3539.921	3.8
3542.773	5.8
3545.622	3.8
3548.469	2.8
3551.315	-0.2
3554.157	1.8
3556.998	-1.2
3559.837	0.8
3562.673	2.8
3565.507	2.8
3568.339	-0.2
3571.169	2.8
3573.996	0.8
3576.822	-3.2
3579.645	-1.2
3582.466	-1.2
3585.285	0.8
3588.101	0.8
3590.916	-0.2
3593.728	0.8
3596.538	0.8
3599.346	0.8
3602.152	3.8
3604.956	3.8
3607.757	-0.2
3610.556	-2.2
3613.354	-3.2
3616.149	-2.2
3618.942	-2.2
3621.732	-0.2
3624.521	-1.2
3627.307	5.8
3630.092	-1.2
3632.874	0.8
3635.654	-2.2
3638.432	-3.2
3641.208	-6.2
3643.982	-2.2
3646.753	-6.2
3649.523	-4.2
3652.29	-2.2
3655.055	2.8
3657.818	-3.2
3660.579	0.8
3663.338	-8.2
3666.095	-2.2
3668.849	-5.2
3671.602	-5.2
3674.352	-6.2
3677.101	-2.2
3679.847	-1.2
3682.591	-2.2
3685.333	-6.2
3688.073	-4.2
3690.811	-6.2
3693.547	-10.2
3696.281	-8.2
3699.013	-8.2
3701.742	-8.2
3704.47	-4.2
3707.195	-7.2
3709.919	-3.2
3712.64	-6.2
3715.359	-4.2
3718.076	-5.2
3720.792	-10.2
3723.505	-6.2
3726.216	-3.2
3728.925	-7.2
3731.632	-5.2
3734.336	-6.2
3737.039	-4.2
3739.74	-1.2
3742.439	-4.2
3745.136	-4.2
3747.83	-4.2
3750.523	-6.2
3753.213	-4.2
3755.902	-6.2
3758.589	-5.2
3761.273	-9.2
3763.956	-6.2
3766.636	-5.2
3769.315	-4.2
3771.991	-6.2
3774.665	-3.2
3777.338	-4.2
3780.008	-4.2
3782.677	-8.2
3785.343	-6.2
3788.007	-8.2
3790.67	-7.2
3793.33	-6.2
3795.989	-6.2
3798.645	-6.2
3801.299	-3.2
3803.952	-5.2
3806.602	-7.2
3809.251	-7.2
3811.897	-7.2
3814.542	-7.2
3817.184	-8.2
3819.825	-6.2
3822.463	-6.2
3825.1	-5.2
3827.735	-9.2
3830.367	-8.2
3832.998	-8.2
3835.627	-10.2
3838.253	-11.2
3840.878	-8.2
3843.501	-7.2
3846.122	-7.2
3848.741	-4.2
3851.358	-3.2
3853.973	-4.2
3856.586	-5.2
3859.197	-7.2
3861.806	-7.2
3864.414	-3.2
3867.019	-9.2
3869.622	-3.2
3872.224	-2.2
3874.823	-3.2
3877.421	-0.2
3880.016	1.8
3882.61	-1.2
3885.202	-1.2
3887.792	-2.2
3890.38	-8.2
3892.966	-7.2
3895.55	-6.2
3898.132	-3.2
3900.713	-3.2
3903.291	-5.2
3905.868	-6.2
3908.442	-10.2
3911.015	-7.2
3913.586	-10.2
3916.155	-10.2
3918.722	-10.2
3921.287	-10.2
3923.85	-7.2
3926.411	-7.2
3928.971	-9.2
3931.528	-10.2
3934.084	-8.2
3936.638	-7.2
3939.19	-10.2
3941.74	-12.2
3944.288	-7.2
3946.834	-9.2
3949.378	-9.2
3951.921	-8.2
3954.462	-6.2
3957	-9.2
3959.537	-9.2
3962.072	-7.2
3964.606	-9.2
3967.137	-8.2
3969.667	-7.2
3972.194	-8.2
3974.72	-3.2
3977.244	-3.2
3979.766	-1.2
3982.286	-1.2
3984.805	-7.2
3987.321	-4.2
3989.836	-7.2
3992.349	-4.2
3994.86	-4.2
3997.369	-6.2
3999.877	-6.2
4002.382	-1.2
4004.886	-7.2
4007.388	-1.2
4009.888	1.8
4012.386	-5.2
4014.883	-6.2
4017.377	-7.2
4019.87	-3.2
4022.361	-2.2
4024.85	-8.2
4027.338	1.8
4029.823	-5.2
4032.307	-4.2
4034.789	-7.2
4037.269	-7.2
4039.747	-8.2
4042.224	-12.2
4044.699	-5.2
4047.172	-7.2
4049.643	-8.2
4052.112	-5.2
4054.58	-7.2
4057.046	-7.2
4059.51	-9.2
4061.972	-10.2
4064.432	-8.2
4066.891	-8.2
4069.348	-11.2
4071.803	-9.2
4074.256	-10.2
4076.708	-7.2
4079.158	-6.2
4081.606	-5.2
4084.052	-8.2
4086.497	-7.2
4088.939	-6.2
4091.38	-9.2
4093.819	-7.2
4096.257	-9.2
4098.693	-9.2
4101.127	-10.2
4103.559	-9.2
4105.989	1.8
4108.418	-3.2
4110.845	-2.2
4113.27	-1.2
4115.694	-3.2
4118.115	-2.2
4120.535	-4.2
4122.954	-5.2
4125.37	-6.2
4127.785	-7.2
4130.198	-7.2
4132.609	-4.2
4135.019	-7.2
4137.427	-8.2
4139.833	-2.2
4142.237	-6.2
