Data from 2018-3-6_conc=6_n=7_RamanShift_03.txt Node
Date: Tue Mar 06 15:14:18 GMT+02:00 2018
User: LAB3
Spectrometer: QEPB0276
Trigger mode: 0
Integration Time (sec): 3.000000E1
Scans to average: 1
Electric dark correction enabled: true
Nonlinearity correction enabled: false
Boxcar width: 0
XAxis mode: Raman Shifts
Number of Pixels in Spectrum: 1044
>>>>>Begin Spectral Data<<<<<
160.701	41.5
166.742	51.5
172.777	76.5
178.805	157.5
184.826	359.5
190.841	738.5
196.849	1143.5
202.85	1440.5
208.845	1530.5
214.833	1487.5
220.815	1468.5
226.789	1433.5
232.758	1435.5
238.719	1412.5
244.674	1409.5
250.623	1367.5
256.565	1338.5
262.5	1325.5
268.429	1303.5
274.351	1297.5
280.267	1275.5
286.176	1262.5
292.079	1285.5
297.975	1257.5
303.865	1263.5
309.748	1260.5
315.625	1255.5
321.495	1250.5
327.359	1249.5
333.217	1241.5
339.068	1237.5
344.912	1240.5
350.751	1256.5
356.583	1248.5
362.408	1267.5
368.227	1261.5
374.04	1263.5
379.847	1255.5
385.647	1283.5
391.44	1258.5
397.228	1284.5
403.009	1285.5
408.784	1306.5
414.553	1294.5
420.315	1309.5
426.071	1273.5
431.821	1309.5
437.565	1307.5
443.302	1284.5
449.033	1276.5
454.758	1272.5
460.477	1254.5
466.189	1233.5
471.896	1252.5
477.596	1236.5
483.29	1211.5
488.978	1211.5
494.66	1202.5
500.335	1156.5
506.005	1113.5
511.668	1061.5
517.325	990.5
522.977	958.5
528.622	911.5
534.261	907.5
539.894	885.5
545.521	871.5
551.141	846.5
556.756	829.5
562.365	832.5
567.968	833.5
573.565	822.5
579.155	827.5
584.74	813.5
590.319	834.5
595.892	810.5
601.459	828.5
607.02	805.5
612.575	809.5
618.124	807.5
623.667	771.5
629.204	764.5
634.735	759.5
640.261	740.5
645.781	712.5
651.294	737.5
656.802	730.5
662.304	750.5
667.8	738.5
673.29	727.5
678.775	735.5
684.254	729.5
689.726	704.5
695.193	719.5
700.655	702.5
706.11	696.5
711.56	705.5
717.004	708.5
722.442	681.5
727.874	691.5
733.301	699.5
738.722	678.5
744.137	685.5
749.547	683.5
754.951	673.5
760.349	683.5
765.741	691.5
771.128	696.5
776.509	695.5
781.885	711.5
787.254	721.5
792.618	723.5
797.977	716.5
803.33	728.5
808.677	712.5
814.019	716.5
819.355	709.5
824.686	688.5
830.011	690.5
835.33	701.5
840.644	694.5
845.952	669.5
851.255	680.5
856.552	670.5
861.844	666.5
867.13	637.5
872.41	645.5
877.686	647.5
882.955	646.5
888.219	633.5
893.478	619.5
898.731	607.5
903.979	615.5
909.221	593.5
914.458	592.5
919.69	601.5
924.916	587.5
930.136	588.5
935.351	592.5
940.561	604.5
945.766	601.5
950.965	588.5
956.158	582.5
961.347	566.5
966.529	580.5
971.707	575.5
976.879	563.5
982.046	555.5
987.208	542.5
992.364	555.5
997.515	551.5
1002.66	561.5
1007.801	533.5
1012.936	555.5
1018.066	542.5
1023.19	562.5
1028.309	568.5
1033.423	566.5
1038.532	577.5
1043.636	556.5
1048.734	553.5
1053.827	550.5
1058.915	537.5
1063.998	545.5
1069.075	532.5
1074.147	523.5
1079.214	533.5
1084.276	551.5
1089.333	532.5
1094.385	540.5
1099.431	526.5
1104.472	537.5
1109.509	521.5
1114.54	515.5
1119.565	515.5
1124.586	527.5
1129.602	493.5
1134.613	488.5
1139.618	486.5
1144.619	487.5
1149.614	496.5
1154.604	490.5
1159.589	487.5
1164.57	516.5
1169.545	508.5
1174.515	504.5
1179.48	502.5
1184.44	501.5
1189.395	515.5
1194.345	483.5
1199.29	491.5
1204.23	472.5
1209.165	473.5
1214.095	489.5
1219.021	491.5
1223.941	480.5
1228.856	491.5
1233.766	505.5
1238.672	498.5
1243.572	496.5
1248.467	492.5
1253.358	484.5
1258.244	470.5
1263.124	484.5
1268	468.5
1272.871	448.5
1277.737	447.5
1282.599	447.5
1287.455	436.5
1292.306	453.5
1297.153	430.5
1301.995	449.5
1306.832	443.5
1311.664	456.5
1316.491	449.5
1321.314	450.5
1326.132	434.5
1330.945	453.5
1335.753	436.5
1340.556	422.5
1345.354	419.5
1350.148	418.5
1354.937	409.5
1359.722	395.5
1364.501	396.5
1369.276	409.5
1374.046	420.5
1378.811	399.5
1383.572	414.5
1388.327	402.5
1393.079	389.5
1397.825	383.5
1402.567	389.5
1407.304	377.5
1412.036	378.5
1416.764	386.5
1421.487	367.5
1426.205	365.5
1430.919	368.5
1435.628	376.5
1440.333	369.5
1445.032	378.5
1449.727	391.5
1454.418	396.5
1459.104	396.5
1463.785	382.5
1468.462	386.5
1473.134	375.5
1477.802	372.5
1482.465	339.5
1487.123	363.5
1491.777	336.5
1496.426	333.5
1501.071	357.5
1505.711	352.5
1510.347	360.5
1514.978	368.5
1519.604	356.5
1524.226	383.5
1528.844	350.5
1533.457	364.5
1538.065	353.5
1542.669	357.5
1547.269	353.5
1551.864	347.5
1556.454	338.5
1561.041	344.5
1565.622	333.5
1570.199	339.5
1574.772	350.5
1579.34	354.5
1583.904	364.5
1588.464	365.5
1593.019	370.5
1597.569	344.5
1602.115	347.5
1606.657	346.5
1611.195	368.5
1615.728	361.5
1620.256	340.5
1624.78	326.5
1629.3	343.5
1633.816	345.5
1638.327	332.5
1642.834	358.5
1647.336	340.5
1651.834	366.5
1656.328	359.5
1660.817	356.5
1665.302	351.5
1669.783	341.5
1674.259	328.5
1678.732	331.5
1683.199	328.5
1687.663	307.5
1692.122	311.5
1696.577	316.5
1701.028	307.5
1705.474	295.5
1709.917	285.5
1714.355	291.5
1718.788	280.5
1723.218	270.5
1727.643	253.5
1732.064	269.5
1736.481	244.5
1740.893	264.5
1745.301	249.5
1749.705	229.5
1754.105	241.5
1758.501	227.5
1762.893	240.5
1767.28	214.5
1771.663	217.5
1776.042	208.5
1780.417	217.5
1784.787	219.5
1789.154	227.5
1793.516	221.5
1797.874	213.5
1802.228	213.5
1806.578	204.5
1810.924	219.5
1815.266	99.5
1819.603	224.5
1823.937	200.5
1828.266	210.5
1832.591	212.5
1836.913	202.5
1841.23	196.5
1845.543	191.5
1849.852	207.5
1854.156	189.5
1858.457	200.5
1862.754	192.5
1867.047	202.5
1871.335	209.5
1875.62	198.5
1879.9	192.5
1884.177	189.5
1888.449	194.5
1892.718	199.5
1896.982	198.5
1901.243	183.5
1905.499	194.5
1909.752	180.5
1914	175.5
1918.245	197.5
1922.485	197.5
1926.722	191.5
1930.954	177.5
1935.183	196.5
1939.408	203.5
1943.628	196.5
1947.845	182.5
1952.058	191.5
1956.267	183.5
1960.472	194.5
1964.673	183.5
1968.87	185.5
1973.063	180.5
1977.252	177.5
1981.438	175.5
1985.619	170.5
1989.797	160.5
1993.971	161.5
1998.14	180.5
2002.306	166.5
2006.469	168.5
2010.627	152.5
2014.781	160.5
2018.932	154.5
2023.078	174.5
2027.221	160.5
2031.36	154.5
2035.495	157.5
2039.627	153.5
2043.754	151.5
2047.878	149.5
2051.998	151.5
2056.114	143.5
2060.226	152.5
2064.334	155.5
2068.439	159.5
2072.54	155.5
2076.637	147.5
2080.73	154.5
2084.82	158.5
2088.906	146.5
2092.988	144.5
2097.066	152.5
2101.14	156.5
2105.211	153.5
2109.278	145.5
2113.342	142.5
2117.401	132.5
2121.457	128.5
2125.509	128.5
2129.558	143.5
2133.602	131.5
2137.643	128.5
2141.681	132.5
2145.714	136.5
2149.744	137.5
2153.77	133.5
2157.793	119.5
2161.812	103.5
2165.827	102.5
2169.838	125.5
2173.846	112.5
2177.851	110.5
2181.851	114.5
2185.848	113.5
2189.841	117.5
2193.831	106.5
2197.817	112.5
2201.799	113.5
2205.778	95.5
2209.753	104.5
2213.725	100.5
2217.693	103.5
2221.657	94.5
2225.618	107.5
2229.575	107.5
2233.529	107.5
2237.479	113.5
2241.425	95.5
2245.368	89.5
2249.307	96.5
2253.243	94.5
2257.175	100.5
2261.104	90.5
2265.029	96.5
2268.95	96.5
2272.868	87.5
2276.783	83.5
2280.694	90.5
2284.601	90.5
2288.505	82.5
2292.405	91.5
2296.302	72.5
2300.195	77.5
2304.085	51.5
2307.971	76.5
2311.854	65.5
2315.734	73.5
2319.609	78.5
2323.482	50.5
2327.351	67.5
2331.216	71.5
2335.078	73.5
2338.937	69.5
2342.792	60.5
2346.643	58.5
2350.492	74.5
2354.336	64.5
2358.178	69.5
2362.015	75.5
2365.85	63.5
2369.681	65.5
2373.508	65.5
2377.333	74.5
2381.153	72.5
2384.971	65.5
2388.785	67.5
2392.595	53.5
2396.402	58.5
2400.206	40.5
2404.007	50.5
2407.804	60.5
2411.597	60.5
2415.388	53.5
2419.174	53.5
2422.958	58.5
2426.738	53.5
2430.515	61.5
2434.289	50.5
2438.059	42.5
2441.825	49.5
2445.589	60.5
2449.349	36.5
2453.106	50.5
2456.859	51.5
2460.61	53.5
2464.356	43.5
2468.1	41.5
2471.84	43.5
2475.577	44.5
2479.311	40.5
2483.041	43.5
2486.768	52.5
2490.492	56.5
2494.213	42.5
2497.93	38.5
2501.644	32.5
2505.355	44.5
2509.062	40.5
2512.766	44.5
2516.467	39.5
2520.165	37.5
2523.859	27.5
2527.551	62.5
2531.239	39.5
2534.923	49.5
2538.605	36.5
2542.283	40.5
2545.958	44.5
2549.63	50.5
2553.299	48.5
2556.964	30.5
2560.626	30.5
2564.285	41.5
2567.941	25.5
2571.594	25.5
2575.243	45.5
2578.89	29.5
2582.533	35.5
2586.173	37.5
2589.809	35.5
2593.443	16.5
2597.073	32.5
2600.701	30.5
2604.325	27.5
2607.946	19.5
2611.564	40.5
2615.178	34.5
2618.79	31.5
2622.398	21.5
2626.004	28.5
2629.606	27.5
2633.205	21.5
2636.801	31.5
2640.394	31.5
2643.983	24.5
2647.57	19.5
2651.153	19.5
2654.734	30.5
2658.311	-2.5
2661.885	15.5
2665.456	19.5
2669.025	19.5
2672.589	18.5
2676.151	32.5
2679.71	35.5
2683.266	19.5
2686.819	18.5
2690.368	23.5
2693.915	28.5
2697.458	22.5
2700.999	27.5
2704.536	28.5
2708.071	23.5
2711.602	23.5
2715.13	19.5
2718.656	4.5
2722.178	18.5
2725.697	6.5
2729.214	12.5
2732.727	21.5
2736.237	1.5
2739.744	6.5
2743.249	6.5
2746.75	14.5
2750.248	6.5
2753.743	16.5
2757.236	13.5
2760.725	23.5
2764.211	-14.5
2767.695	17.5
2771.175	11.5
2774.652	17.5
2778.127	8.5
2781.598	11.5
2785.067	11.5
2788.532	3.5
2791.995	11.5
2795.455	7.5
2798.911	16.5
2802.365	8.5
2805.816	18.5
2809.264	27.5
2812.709	11.5
2816.151	17.5
2819.59	5.5
2823.026	9.5
2826.46	9.5
2829.89	15.5
2833.318	-3.5
2836.742	13.5
2840.164	11.5
2843.583	10.5
2846.999	5.5
2850.412	14.5
2853.822	10.5
2857.229	19.5
2860.634	14.5
2864.035	-1.5
2867.434	19.5
2870.83	21.5
2874.223	6.5
2877.613	11.5
2881	4.5
2884.385	4.5
2887.766	8.5
2891.145	11.5
2894.521	7.5
2897.894	-1.5
2901.264	16.5
2904.631	11.5
2907.996	18.5
2911.358	25.5
2914.717	19.5
2918.073	15.5
2921.426	5.5
2924.777	-3.5
2928.124	13.5
2931.469	25.5
2934.811	4.5
2938.15	28.5
2941.487	15.5
2944.821	37.5
2948.152	15.5
2951.48	28.5
2954.805	14.5
2958.128	32.5
2961.447	18.5
2964.765	37.5
2968.079	18.5
2971.39	25.5
2974.699	27.5
2978.005	25.5
2981.308	24.5
2984.609	19.5
2987.907	31.5
2991.202	29.5
2994.494	16.5
2997.784	26.5
3001.07	22.5
3004.355	19.5
3007.636	32.5
3010.915	26.5
3014.191	25.5
3017.464	24.5
3020.734	26.5
3024.002	28.5
3027.267	29.5
3030.53	27.5
3033.789	42.5
3037.046	33.5
3040.301	25.5
3043.552	28.5
3046.801	39.5
3050.048	42.5
3053.291	58.5
3056.532	44.5
3059.771	31.5
3063.006	49.5
3066.239	45.5
3069.469	50.5
3072.697	44.5
3075.922	38.5
3079.144	48.5
3082.364	65.5
3085.581	44.5
3088.795	63.5
3092.007	62.5
3095.216	65.5
3098.423	61.5
3101.627	37.5
3104.828	66.5
3108.026	55.5
3111.222	77.5
3114.416	79.5
3117.607	70.5
3120.795	73.5
3123.98	76.5
3127.163	66.5
3130.344	78.5
3133.521	71.5
3136.696	89.5
3139.869	86.5
3143.039	71.5
3146.206	101.5
3149.371	100.5
3152.533	92.5
3155.693	78.5
3158.85	96.5
3162.005	92.5
3165.157	91.5
3168.306	95.5
3171.453	105.5
3174.597	90.5
3177.739	88.5
3180.878	97.5
3184.014	100.5
3187.149	97.5
3190.28	93.5
3193.409	104.5
3196.536	104.5
3199.659	109.5
3202.781	106.5
3205.9	85.5
3209.016	101.5
3212.13	95.5
3215.241	94.5
3218.35	102.5
3221.456	93.5
3224.56	83.5
3227.661	89.5
3230.76	91.5
3233.856	82.5
3236.95	91.5
3240.041	82.5
3243.13	96.5
3246.216	90.5
3249.3	95.5
3252.382	91.5
3255.46	86.5
3258.537	38.5
3261.611	77.5
3264.682	89.5
3267.751	85.5
3270.818	77.5
3273.882	86.5
3276.943	86.5
3280.002	100.5
3283.059	81.5
3286.113	80.5
3289.165	75.5
3292.214	69.5
3295.261	90.5
3298.306	61.5
3301.348	80.5
3304.387	64.5
3307.425	81.5
3310.459	67.5
3313.492	82.5
3316.521	65.5
3319.549	74.5
3322.574	72.5
3325.597	65.5
3328.617	68.5
3331.635	66.5
3334.65	50.5
3337.663	64.5
3340.674	67.5
3343.682	63.5
3346.688	78.5
3349.691	58.5
3352.692	67.5
3355.691	72.5
3358.687	66.5
3361.681	70.5
3364.673	61.5
3367.662	68.5
3370.649	72.5
3373.633	54.5
3376.615	62.5
3379.595	41.5
3382.572	54.5
3385.547	43.5
3388.52	44.5
3391.49	48.5
3394.458	51.5
3397.424	55.5
3400.387	43.5
3403.348	51.5
3406.307	45.5
3409.263	49.5
3412.217	53.5
3415.168	46.5
3418.118	54.5
3421.065	40.5
3424.009	55.5
3426.951	38.5
3429.891	38.5
3432.829	46.5
3435.764	45.5
3438.697	34.5
3441.628	45.5
3444.557	25.5
3447.483	29.5
3450.407	43.5
3453.328	31.5
3456.247	30.5
3459.164	15.5
3462.079	43.5
3464.991	29.5
3467.902	26.5
3470.809	25.5
3473.715	25.5
3476.618	19.5
3479.519	21.5
3482.418	1.5
3485.315	7.5
3488.209	9.5
3491.101	8.5
3493.99	-1.5
3496.878	2.5
3499.763	6.5
3502.646	9.5
3505.527	-0.5
3508.405	-8.5
3511.281	-12.5
3514.155	2.5
3517.027	2.5
3519.897	-15.5
3522.764	2.5
3525.629	-27.5
3528.492	-2.5
3531.352	-6.5
3534.211	-3.5
3537.067	-12.5
3539.921	-8.5
3542.773	-2.5
3545.622	-14.5
3548.469	-21.5
3551.315	-17.5
3554.157	-11.5
3556.998	-19.5
3559.837	-16.5
3562.673	-11.5
3565.507	-24.5
3568.339	-25.5
3571.169	-20.5
3573.996	-14.5
3576.822	-37.5
3579.645	-23.5
3582.466	-25.5
3585.285	-19.5
3588.101	-22.5
3590.916	-28.5
3593.728	-13.5
3596.538	-30.5
3599.346	-23.5
3602.152	-34.5
3604.956	-25.5
3607.757	-23.5
3610.556	-38.5
3613.354	-24.5
3616.149	-22.5
3618.942	-23.5
3621.732	-26.5
3624.521	-30.5
3627.307	-38.5
3630.092	-34.5
3632.874	-17.5
3635.654	-27.5
3638.432	-31.5
3641.208	-30.5
3643.982	-31.5
3646.753	-18.5
3649.523	-53.5
3652.29	-32.5
3655.055	-22.5
3657.818	-27.5
3660.579	-34.5
3663.338	-40.5
3666.095	-30.5
3668.849	-53.5
3671.602	-24.5
3674.352	-38.5
3677.101	-21.5
3679.847	-19.5
3682.591	-41.5
3685.333	-48.5
3688.073	-31.5
3690.811	-41.5
3693.547	-43.5
3696.281	-43.5
3699.013	-25.5
3701.742	-37.5
3704.47	-48.5
3707.195	-30.5
3709.919	-30.5
3712.64	-33.5
3715.359	-47.5
3718.076	-29.5
3720.792	-34.5
3723.505	-31.5
3726.216	-24.5
3728.925	-33.5
3731.632	-43.5
3734.336	-29.5
3737.039	-35.5
3739.74	-33.5
3742.439	-62.5
3745.136	-28.5
3747.83	-28.5
3750.523	-28.5
3753.213	-99.5
3755.902	-33.5
3758.589	-49.5
3761.273	-38.5
3763.956	-25.5
3766.636	-53.5
3769.315	-25.5
3771.991	-35.5
3774.665	-41.5
3777.338	-28.5
3780.008	-45.5
3782.677	-38.5
3785.343	-49.5
3788.007	-52.5
3790.67	-28.5
3793.33	-44.5
3795.989	-38.5
3798.645	-31.5
3801.299	-50.5
3803.952	-50.5
3806.602	-42.5
3809.251	-29.5
3811.897	-41.5
3814.542	-43.5
3817.184	-39.5
3819.825	-33.5
3822.463	-55.5
3825.1	-41.5
3827.735	-35.5
3830.367	-48.5
3832.998	-19.5
3835.627	-38.5
3838.253	-25.5
3840.878	-35.5
3843.501	-22.5
3846.122	-28.5
3848.741	-30.5
3851.358	-25.5
3853.973	-45.5
3856.586	-27.5
3859.197	-41.5
3861.806	-29.5
3864.414	-42.5
3867.019	-34.5
3869.622	-29.5
3872.224	-28.5
3874.823	-22.5
3877.421	-10.5
3880.016	-0.5
3882.61	22.5
3885.202	41.5
3887.792	24.5
3890.38	3.5
3892.966	-20.5
3895.55	-38.5
3898.132	-30.5
3900.713	-26.5
3903.291	-29.5
3905.868	-41.5
3908.442	-34.5
3911.015	-36.5
3913.586	-40.5
3916.155	-38.5
3918.722	-39.5
3921.287	-44.5
3923.85	-51.5
3926.411	-39.5
3928.971	-39.5
3931.528	-30.5
3934.084	-35.5
3936.638	-49.5
3939.19	-34.5
3941.74	-36.5
3944.288	-31.5
3946.834	-36.5
3949.378	-27.5
3951.921	-35.5
3954.462	-35.5
3957	-32.5
3959.537	-21.5
3962.072	-38.5
3964.606	-47.5
3967.137	-34.5
3969.667	-39.5
3972.194	-28.5
3974.72	-37.5
3977.244	-57.5
3979.766	-40.5
3982.286	-44.5
3984.805	-32.5
3987.321	-25.5
3989.836	-34.5
3992.349	-41.5
3994.86	-35.5
3997.369	-39.5
3999.877	-36.5
4002.382	-39.5
4004.886	-33.5
4007.388	-33.5
4009.888	-29.5
4012.386	-31.5
4014.883	-31.5
4017.377	-35.5
4019.87	-32.5
4022.361	-48.5
4024.85	-36.5
4027.338	-35.5
4029.823	-38.5
4032.307	-36.5
4034.789	-34.5
4037.269	-37.5
4039.747	-45.5
4042.224	-21.5
4044.699	-39.5
4047.172	-33.5
4049.643	-28.5
4052.112	-55.5
4054.58	-30.5
4057.046	-43.5
4059.51	-34.5
4061.972	-34.5
4064.432	-53.5
4066.891	-20.5
4069.348	-33.5
4071.803	-32.5
4074.256	-41.5
4076.708	-32.5
4079.158	-32.5
4081.606	-18.5
4084.052	-33.5
4086.497	-32.5
4088.939	-37.5
4091.38	-36.5
4093.819	-31.5
4096.257	-0.5
4098.693	-6.5
4101.127	-4.5
4103.559	1.5
4105.989	41.5
4108.418	50.5
4110.845	34.5
4113.27	44.5
4115.694	37.5
4118.115	29.5
4120.535	-36.5
4122.954	-30.5
4125.37	-27.5
4127.785	-30.5
4130.198	-28.5
4132.609	-30.5
4135.019	7.5
4137.427	3.5
4139.833	2.5
4142.237	-3.5
