Data from 2018-3-6_conc=0_n=9_RamanShift_03.txt Node
Date: Tue Mar 06 12:35:19 GMT+02:00 2018
User: LAB3
Spectrometer: QEPB0276
Trigger mode: 0
Integration Time (sec): 3.000000E1
Scans to average: 1
Electric dark correction enabled: true
Nonlinearity correction enabled: false
Boxcar width: 0
XAxis mode: Raman Shifts
Number of Pixels in Spectrum: 1044
>>>>>Begin Spectral Data<<<<<
160.701	160
166.742	202
172.777	306
178.805	657
184.826	1497
190.841	3032
196.849	4826
202.85	6205
208.845	6749
214.833	6783
220.815	6743
226.789	6775
232.758	6851
238.719	6869
244.674	6821
250.623	6807
256.565	6806
262.5	6764
268.429	6740
274.351	6728
280.267	6734
286.176	6763
292.079	6777
297.975	6803
303.865	6880
309.748	6862
315.625	6889
321.495	6886
327.359	6929
333.217	6927
339.068	6964
344.912	7013
350.751	7041
356.583	7088
362.408	7108
368.227	7126
374.04	7178
379.847	7216
385.647	7271
391.44	7303
397.228	7328
403.009	7373
408.784	7431
414.553	7499
420.315	7479
426.071	7502
431.821	7489
437.565	7512
443.302	7497
449.033	7453
454.758	7443
460.477	7361
466.189	7288
471.896	7184
477.596	7174
483.29	7119
488.978	7074
494.66	7039
500.335	6882
506.005	6545
511.668	6206
517.325	5874
522.977	5671
528.622	5448
534.261	5324
539.894	5213
545.521	5160
551.141	5072
556.756	5016
562.365	4956
567.968	4912
573.565	4876
579.155	4851
584.74	4823
590.319	4814
595.892	4810
601.459	4802
607.02	4782
612.575	4771
618.124	4741
623.667	4629
629.204	4579
634.735	4512
640.261	4452
645.781	4384
651.294	4410
656.802	4385
662.304	4382
667.8	4364
673.29	4351
678.775	4345
684.254	4325
689.726	4269
695.193	4260
700.655	4239
706.11	4257
711.56	4211
717.004	4195
722.442	4168
727.874	4152
733.301	4129
738.722	4098
744.137	4096
749.547	4102
754.951	4095
760.349	4116
765.741	4127
771.128	4201
776.509	4222
781.885	4298
787.254	4335
792.618	4336
797.977	4342
803.33	4309
808.677	4293
814.019	4270
819.355	4215
824.686	4217
830.011	4170
835.33	4149
840.644	4117
845.952	4091
851.255	4054
856.552	4037
861.844	3950
867.13	3946
872.41	3957
877.686	3995
882.955	3985
888.219	3925
893.478	3842
898.731	3745
903.979	3657
909.221	3597
914.458	3602
919.69	3603
924.916	3596
930.136	3597
935.351	3589
940.561	3606
945.766	3564
950.965	3562
956.158	3513
961.347	3492
966.529	3458
971.707	3439
976.879	3390
982.046	3354
987.208	3344
992.364	3345
997.515	3355
1002.66	3370
1007.801	3416
1012.936	3452
1018.066	3430
1023.19	3459
1028.309	3493
1033.423	3473
1038.532	3503
1043.636	3482
1048.734	3492
1053.827	3441
1058.915	3433
1063.998	3383
1069.075	3370
1074.147	3379
1079.214	3337
1084.276	3407
1089.333	3414
1094.385	3418
1099.431	3398
1104.472	3382
1109.509	3296
1114.54	3258
1119.565	3206
1124.586	3176
1129.602	3136
1134.613	3111
1139.618	3080
1144.619	3061
1149.614	3096
1154.604	3096
1159.589	3116
1164.57	3123
1169.545	3127
1174.515	3107
1179.48	3089
1184.44	3092
1189.395	3060
1194.345	3045
1199.29	3018
1204.23	3011
1209.165	3014
1214.095	3043
1219.021	3043
1223.941	3041
1228.856	3075
1233.766	3081
1238.672	3075
1243.572	3092
1248.467	3051
1253.358	2996
1258.244	2961
1263.124	2913
1268	2873
1272.871	2818
1277.737	2834
1282.599	2826
1287.455	2820
1292.306	2790
1297.153	2795
1301.995	2846
1306.832	2832
1311.664	2860
1316.491	2851
1321.314	2849
1326.132	2799
1330.945	2809
1335.753	2714
1340.556	2700
1345.354	2658
1350.148	2653
1354.937	2635
1359.722	2611
1364.501	2612
1369.276	2611
1374.046	2599
1378.811	2555
1383.572	2598
1388.327	2584
1393.079	2556
1397.825	2526
1402.567	2474
1407.304	2465
1412.036	2435
1416.764	2433
1421.487	2423
1426.205	2423
1430.919	2442
1435.628	2452
1440.333	2481
1445.032	2529
1449.727	2553
1454.418	2595
1459.104	2593
1463.785	2562
1468.462	2546
1473.134	2509
1477.802	2456
1482.465	2414
1487.123	2412
1491.777	2409
1496.426	2418
1501.071	2449
1505.711	2433
1510.347	2475
1514.978	2488
1519.604	2461
1524.226	2477
1528.844	2454
1533.457	2425
1538.065	2396
1542.669	2378
1547.269	2324
1551.864	2320
1556.454	2294
1561.041	2284
1565.622	2253
1570.199	2282
1574.772	2285
1579.34	2310
1583.904	2342
1588.464	2331
1593.019	2329
1597.569	2338
1602.115	2307
1606.657	2301
1611.195	2297
1615.728	2280
1620.256	2276
1624.78	2275
1629.3	2277
1633.816	2299
1638.327	2317
1642.834	2328
1647.336	2347
1651.834	2375
1656.328	2377
1660.817	2374
1665.302	2380
1669.783	2358
1674.259	2316
1678.732	2291
1683.199	2258
1687.663	2221
1692.122	2188
1696.577	2164
1701.028	2153
1705.474	2109
1709.917	2085
1714.355	2047
1718.788	2007
1723.218	1985
1727.643	1950
1732.064	1935
1736.481	1868
1740.893	1863
1745.301	1803
1749.705	1771
1754.105	1750
1758.501	1706
1762.893	1704
1767.28	1654
1771.663	1680
1776.042	1641
1780.417	1660
1784.787	1679
1789.154	1701
1793.516	1715
1797.874	1708
1802.228	1709
1806.578	1692
1810.924	1668
1815.266	1567
1819.603	1616
1823.937	1582
1828.266	1569
1832.591	1539
1836.913	1515
1841.23	1511
1845.543	1496
1849.852	1499
1854.156	1490
1858.457	1496
1862.754	1513
1867.047	1535
1871.335	1530
1875.62	1536
1879.9	1542
1884.177	1526
1888.449	1536
1892.718	1547
1896.982	1550
1901.243	1519
1905.499	1523
1909.752	1519
1914	1510
1918.245	1533
1922.485	1549
1926.722	1561
1930.954	1559
1935.183	1569
1939.408	1579
1943.628	1588
1947.845	1557
1952.058	1538
1956.267	1511
1960.472	1511
1964.673	1450
1968.87	1433
1973.063	1396
1977.252	1380
1981.438	1351
1985.619	1336
1989.797	1307
1993.971	1304
1998.14	1315
2002.306	1285
2006.469	1293
2010.627	1271
2014.781	1251
2018.932	1259
2023.078	1284
2027.221	1271
2031.36	1232
2035.495	1227
2039.627	1210
2043.754	1205
2047.878	1188
2051.998	1192
2056.114	1196
2060.226	1185
2064.334	1213
2068.439	1212
2072.54	1226
2076.637	1206
2080.73	1226
2084.82	1226
2088.906	1240
2092.988	1238
2097.066	1236
2101.14	1232
2105.211	1216
2109.278	1167
2113.342	1178
2117.401	1146
2121.457	1133
2125.509	1121
2129.558	1123
2133.602	1103
2137.643	1081
2141.681	1082
2145.714	1077
2149.744	1068
2153.77	1073
2157.793	1048
2161.812	993
2165.827	979
2169.838	1003
2173.846	983
2177.851	959
2181.851	946
2185.848	934
2189.841	916
2193.831	911
2197.817	917
2201.799	895
2205.778	893
2209.753	877
2213.725	873
2217.693	882
2221.657	862
2225.618	873
2229.575	867
2233.529	863
2237.479	869
2241.425	845
2245.368	819
2249.307	819
2253.243	804
2257.175	796
2261.104	782
2265.029	779
2268.95	760
2272.868	754
2276.783	736
2280.694	730
2284.601	731
2288.505	719
2292.405	709
2296.302	673
2300.195	693
2304.085	651
2307.971	667
2311.854	628
2315.734	634
2319.609	635
2323.482	604
2327.351	607
2331.216	598
2335.078	616
2338.937	598
2342.792	584
2346.643	582
2350.492	598
2354.336	582
2358.178	585
2362.015	580
2365.85	577
2369.681	585
2373.508	586
2377.333	580
2381.153	576
2384.971	566
2388.785	573
2392.595	545
2396.402	550
2400.206	531
2404.007	541
2407.804	549
2411.597	540
2415.388	537
2419.174	529
2422.958	540
2426.738	539
2430.515	542
2434.289	517
2438.059	511
2441.825	515
2445.589	522
2449.349	502
2453.106	524
2456.859	501
2460.61	501
2464.356	483
2468.1	481
2471.84	488
2475.577	477
2479.311	488
2483.041	483
2486.768	496
2490.492	490
2494.213	484
2497.93	472
2501.644	466
2505.355	478
2509.062	479
2512.766	481
2516.467	462
2520.165	469
2523.859	458
2527.551	487
2531.239	464
2534.923	469
2538.605	455
2542.283	466
2545.958	476
2549.63	467
2553.299	466
2556.964	457
2560.626	456
2564.285	459
2567.941	441
2571.594	437
2575.243	446
2578.89	449
2582.533	431
2586.173	428
2589.809	427
2593.443	402
2597.073	412
2600.701	413
2604.325	411
2607.946	388
2611.564	406
2615.178	411
2618.79	393
2622.398	386
2626.004	384
2629.606	388
2633.205	379
2636.801	383
2640.394	373
2643.983	364
2647.57	362
2651.153	352
2654.734	362
2658.311	330
2661.885	337
2665.456	342
2669.025	335
2672.589	323
2676.151	346
2679.71	339
2683.266	325
2686.819	308
2690.368	316
2693.915	316
2697.458	318
2700.999	322
2704.536	321
2708.071	305
2711.602	310
2715.13	315
2718.656	286
2722.178	309
2725.697	289
2729.214	303
2732.727	307
2736.237	292
2739.744	302
2743.249	309
2746.75	303
2750.248	308
2753.743	312
2757.236	313
2760.725	317
2764.211	292
2767.695	308
2771.175	297
2774.652	306
2778.127	296
2781.598	288
2785.067	295
2788.532	282
2791.995	292
2795.455	283
2798.911	294
2802.365	288
2805.816	291
2809.264	298
2812.709	294
2816.151	290
2819.59	280
2823.026	278
2826.46	286
2829.89	299
2833.318	280
2836.742	298
2840.164	298
2843.583	307
2846.999	301
2850.412	312
2853.822	303
2857.229	317
2860.634	317
2864.035	305
2867.434	331
2870.83	336
2874.223	334
2877.613	335
2881	338
2884.385	348
2887.766	364
2891.145	353
2894.521	351
2897.894	332
2901.264	355
2904.631	357
2907.996	350
2911.358	359
2914.717	354
2918.073	343
2921.426	347
2924.777	338
2928.124	377
2931.469	396
2934.811	380
2938.15	417
2941.487	396
2944.821	418
2948.152	403
2951.48	395
2954.805	381
2958.128	404
2961.447	379
2964.765	386
2968.079	371
2971.39	380
2974.699	377
2978.005	391
2981.308	388
2984.609	387
2987.907	401
2991.202	407
2994.494	384
2997.784	406
3001.07	389
3004.355	393
3007.636	392
3010.915	393
3014.191	385
3017.464	395
3020.734	390
3024.002	392
3027.267	386
3030.53	388
3033.789	390
3037.046	394
3040.301	385
3043.552	416
3046.801	411
3050.048	433
3053.291	442
3056.532	439
3059.771	432
3063.006	463
3066.239	464
3069.469	482
3072.697	488
3075.922	493
3079.144	503
3082.364	535
3085.581	518
3088.795	554
3092.007	553
3095.216	565
3098.423	561
3101.627	559
3104.828	593
3108.026	584
3111.222	620
3114.416	636
3117.607	636
3120.795	644
3123.98	662
3127.163	655
3130.344	685
3133.521	690
3136.696	731
3139.869	722
3143.039	711
3146.206	761
3149.371	771
3152.533	757
3155.693	752
3158.85	767
3162.005	769
3165.157	764
3168.306	766
3171.453	776
3174.597	762
3177.739	766
3180.878	781
3184.014	780
3187.149	794
3190.28	789
3193.409	783
3196.536	795
3199.659	804
3202.781	796
3205.9	783
3209.016	792
3212.13	795
3215.241	793
3218.35	784
3221.456	775
3224.56	765
3227.661	766
3230.76	759
3233.856	749
3236.95	754
3240.041	733
3243.13	751
3246.216	749
3249.3	733
3252.382	743
3255.46	722
3258.537	681
3261.611	717
3264.682	710
3267.751	723
3270.818	699
3273.882	726
3276.943	712
3280.002	719
3283.059	690
3286.113	696
3289.165	680
3292.214	656
3295.261	666
3298.306	637
3301.348	646
3304.387	622
3307.425	631
3310.459	613
3313.492	610
3316.521	595
3319.549	612
3322.574	605
3325.597	594
3328.617	581
3331.635	590
3334.65	565
3337.663	581
3340.674	575
3343.682	579
3346.688	583
3349.691	566
3352.692	565
3355.691	568
3358.687	573
3361.681	558
3364.673	558
3367.662	544
3370.649	554
3373.633	525
3376.615	538
3379.595	515
3382.572	515
3385.547	505
3388.52	502
3391.49	497
3394.458	496
3397.424	487
3400.387	479
3403.348	493
3406.307	484
3409.263	470
3412.217	466
3415.168	469
3418.118	475
3421.065	449
3424.009	465
3426.951	452
3429.891	437
3432.829	435
3435.764	445
3438.697	423
3441.628	418
3444.557	401
3447.483	386
3450.407	396
3453.328	383
3456.247	363
3459.164	348
3462.079	352
3464.991	356
3467.902	323
3470.809	328
3473.715	332
3476.618	306
3479.519	297
3482.418	286
3485.315	284
3488.209	276
3491.101	270
3493.99	252
3496.878	260
3499.763	256
3502.646	253
3505.527	236
3508.405	229
3511.281	217
3514.155	219
3517.027	206
3519.897	189
3522.764	197
3525.629	173
3528.492	184
3531.352	174
3534.211	169
3537.067	158
3539.921	155
3542.773	158
3545.622	133
3548.469	123
3551.315	130
3554.157	124
3556.998	111
3559.837	108
3562.673	117
3565.507	105
3568.339	96
3571.169	94
3573.996	93
3576.822	69
3579.645	79
3582.466	73
3585.285	80
3588.101	73
3590.916	67
3593.728	68
3596.538	64
3599.346	61
3602.152	49
3604.956	56
3607.757	54
3610.556	36
3613.354	55
3616.149	46
3618.942	48
3621.732	45
3624.521	32
3627.307	24
3630.092	27
3632.874	41
3635.654	35
3638.432	14
3641.208	21
3643.982	18
3646.753	27
3649.523	-5
3652.29	18
3655.055	20
3657.818	17
3660.579	7
3663.338	6
3666.095	1
3668.849	-17
3671.602	10
3674.352	-6
3677.101	10
3679.847	8
3682.591	-10
3685.333	-19
3688.073	-3
3690.811	-17
3693.547	-16
3696.281	-25
3699.013	-9
3701.742	-9
3704.47	-20
3707.195	-5
3709.919	-8
3712.64	-17
3715.359	-27
3718.076	-6
3720.792	-17
3723.505	-8
3726.216	-6
3728.925	-19
3731.632	-25
3734.336	-21
3737.039	-17
3739.74	-17
3742.439	-43
3745.136	-13
3747.83	-15
3750.523	-14
3753.213	-86
3755.902	-21
3758.589	-41
3761.273	-24
3763.956	-17
3766.636	-42
3769.315	-16
3771.991	-25
3774.665	-27
3777.338	-25
3780.008	-36
3782.677	-29
3785.343	-41
3788.007	-42
3790.67	-21
3793.33	-41
3795.989	-34
3798.645	-26
3801.299	-39
3803.952	-35
3806.602	-29
3809.251	-21
3811.897	-25
3814.542	-32
3817.184	-29
3819.825	-28
3822.463	-41
3825.1	-31
3827.735	-28
3830.367	-35
3832.998	-17
3835.627	-28
3838.253	-19
3840.878	-32
3843.501	-16
3846.122	-28
3848.741	-21
3851.358	-19
3853.973	-39
3856.586	-19
3859.197	-37
3861.806	-32
3864.414	-42
3867.019	-29
3869.622	-15
3872.224	-18
3874.823	8
3877.421	35
3880.016	52
3882.61	99
3885.202	115
3887.792	87
3890.38	42
3892.966	1
3895.55	-22
3898.132	-21
3900.713	-17
3903.291	-26
3905.868	-35
3908.442	-28
3911.015	-28
3913.586	-32
3916.155	-28
3918.722	-33
3921.287	-40
3923.85	-39
3926.411	-38
3928.971	-32
3931.528	-27
3934.084	-30
3936.638	-43
3939.19	-28
3941.74	-29
3944.288	-34
3946.834	-30
3949.378	-24
3951.921	-36
3954.462	-39
3957	-26
3959.537	-17
3962.072	-30
3964.606	-41
3967.137	-30
3969.667	-32
3972.194	-28
3974.72	-31
3977.244	-54
3979.766	-37
3982.286	-37
3984.805	-25
3987.321	-15
3989.836	-24
3992.349	-37
3994.86	-32
3997.369	-35
3999.877	-28
4002.382	-34
4004.886	-22
4007.388	-25
4009.888	-17
4012.386	-21
4014.883	-24
4017.377	-26
4019.87	-27
4022.361	-38
4024.85	-26
4027.338	-26
4029.823	-37
4032.307	-26
4034.789	-26
4037.269	-29
4039.747	-40
4042.224	-19
4044.699	-35
4047.172	-33
4049.643	-19
4052.112	-55
4054.58	-25
4057.046	-36
4059.51	-28
4061.972	-24
4064.432	-41
4066.891	-17
4069.348	-29
4071.803	-25
4074.256	-29
4076.708	-19
4079.158	-24
4081.606	-16
4084.052	-25
4086.497	-19
4088.939	-24
4091.38	-24
4093.819	-20
4096.257	0
4098.693	-5
4101.127	-8
4103.559	0
4105.989	132
4108.418	130
4110.845	116
4113.27	132
4115.694	141
4118.115	140
4120.535	-23
4122.954	-17
4125.37	-9
4127.785	-22
4130.198	-14
4132.609	-24
4135.019	10
4137.427	1
4139.833	8
4142.237	-6
