Data from 2018-3-6_conc=6_n=8_RamanShift_05.txt Node
Date: Tue Mar 06 15:17:48 GMT+02:00 2018
User: LAB3
Spectrometer: QEPB0276
Trigger mode: 0
Integration Time (sec): 3.000000E1
Scans to average: 1
Electric dark correction enabled: true
Nonlinearity correction enabled: false
Boxcar width: 0
XAxis mode: Raman Shifts
Number of Pixels in Spectrum: 1044
>>>>>Begin Spectral Data<<<<<
160.701	31.5
166.742	49.5
172.777	76.5
178.805	135.5
184.826	345.5
190.841	699.5
196.849	1093.5
202.85	1368.5
208.845	1438.5
214.833	1438.5
220.815	1398.5
226.789	1384.5
232.758	1401.5
238.719	1371.5
244.674	1333.5
250.623	1321.5
256.565	1313.5
262.5	1293.5
268.429	1275.5
274.351	1255.5
280.267	1265.5
286.176	1247.5
292.079	1259.5
297.975	1237.5
303.865	1248.5
309.748	1249.5
315.625	1240.5
321.495	1247.5
327.359	1236.5
333.217	1243.5
339.068	1229.5
344.912	1232.5
350.751	1243.5
356.583	1237.5
362.408	1251.5
368.227	1247.5
374.04	1269.5
379.847	1260.5
385.647	1273.5
391.44	1255.5
397.228	1279.5
403.009	1278.5
408.784	1278.5
414.553	1303.5
420.315	1292.5
426.071	1275.5
431.821	1305.5
437.565	1289.5
443.302	1269.5
449.033	1266.5
454.758	1269.5
460.477	1258.5
466.189	1235.5
471.896	1248.5
477.596	1225.5
483.29	1213.5
488.978	1223.5
494.66	1189.5
500.335	1163.5
506.005	1109.5
511.668	1079.5
517.325	1020.5
522.977	964.5
528.622	944.5
534.261	922.5
539.894	888.5
545.521	897.5
551.141	857.5
556.756	862.5
562.365	852.5
567.968	847.5
573.565	840.5
579.155	850.5
584.74	825.5
590.319	842.5
595.892	839.5
601.459	824.5
607.02	822.5
612.575	823.5
618.124	828.5
623.667	786.5
629.204	789.5
634.735	765.5
640.261	766.5
645.781	742.5
651.294	738.5
656.802	758.5
662.304	750.5
667.8	762.5
673.29	751.5
678.775	753.5
684.254	744.5
689.726	730.5
695.193	731.5
700.655	731.5
706.11	723.5
711.56	723.5
717.004	726.5
722.442	702.5
727.874	720.5
733.301	717.5
738.722	704.5
744.137	700.5
749.547	684.5
754.951	709.5
760.349	691.5
765.741	717.5
771.128	701.5
776.509	711.5
781.885	720.5
787.254	742.5
792.618	742.5
797.977	750.5
803.33	738.5
808.677	717.5
814.019	724.5
819.355	716.5
824.686	710.5
830.011	698.5
835.33	714.5
840.644	716.5
845.952	682.5
851.255	701.5
856.552	679.5
861.844	666.5
867.13	662.5
872.41	652.5
877.686	650.5
882.955	665.5
888.219	640.5
893.478	627.5
898.731	623.5
903.979	630.5
909.221	604.5
914.458	615.5
919.69	611.5
924.916	616.5
930.136	603.5
935.351	614.5
940.561	606.5
945.766	590.5
950.965	620.5
956.158	594.5
961.347	588.5
966.529	601.5
971.707	588.5
976.879	577.5
982.046	570.5
987.208	554.5
992.364	562.5
997.515	563.5
1002.66	572.5
1007.801	565.5
1012.936	574.5
1018.066	560.5
1023.19	585.5
1028.309	573.5
1033.423	583.5
1038.532	587.5
1043.636	568.5
1048.734	574.5
1053.827	548.5
1058.915	556.5
1063.998	549.5
1069.075	552.5
1074.147	570.5
1079.214	535.5
1084.276	562.5
1089.333	558.5
1094.385	565.5
1099.431	535.5
1104.472	577.5
1109.509	538.5
1114.54	537.5
1119.565	540.5
1124.586	526.5
1129.602	525.5
1134.613	495.5
1139.618	497.5
1144.619	499.5
1149.614	506.5
1154.604	505.5
1159.589	496.5
1164.57	522.5
1169.545	529.5
1174.515	521.5
1179.48	513.5
1184.44	515.5
1189.395	516.5
1194.345	498.5
1199.29	511.5
1204.23	485.5
1209.165	477.5
1214.095	503.5
1219.021	503.5
1223.941	498.5
1228.856	500.5
1233.766	498.5
1238.672	515.5
1243.572	515.5
1248.467	502.5
1253.358	495.5
1258.244	479.5
1263.124	488.5
1268	478.5
1272.871	453.5
1277.737	456.5
1282.599	460.5
1287.455	454.5
1292.306	457.5
1297.153	453.5
1301.995	457.5
1306.832	461.5
1311.664	458.5
1316.491	467.5
1321.314	458.5
1326.132	454.5
1330.945	447.5
1335.753	450.5
1340.556	437.5
1345.354	430.5
1350.148	427.5
1354.937	418.5
1359.722	412.5
1364.501	409.5
1369.276	417.5
1374.046	432.5
1378.811	409.5
1383.572	420.5
1388.327	403.5
1393.079	394.5
1397.825	390.5
1402.567	393.5
1407.304	386.5
1412.036	383.5
1416.764	391.5
1421.487	374.5
1426.205	375.5
1430.919	389.5
1435.628	381.5
1440.333	388.5
1445.032	393.5
1449.727	396.5
1454.418	402.5
1459.104	404.5
1463.785	376.5
1468.462	397.5
1473.134	380.5
1477.802	377.5
1482.465	351.5
1487.123	371.5
1491.777	349.5
1496.426	353.5
1501.071	377.5
1505.711	358.5
1510.347	375.5
1514.978	380.5
1519.604	372.5
1524.226	387.5
1528.844	354.5
1533.457	378.5
1538.065	372.5
1542.669	360.5
1547.269	357.5
1551.864	375.5
1556.454	348.5
1561.041	354.5
1565.622	344.5
1570.199	358.5
1574.772	364.5
1579.34	369.5
1583.904	365.5
1588.464	377.5
1593.019	386.5
1597.569	359.5
1602.115	364.5
1606.657	363.5
1611.195	375.5
1615.728	381.5
1620.256	356.5
1624.78	344.5
1629.3	343.5
1633.816	348.5
1638.327	350.5
1642.834	367.5
1647.336	359.5
1651.834	370.5
1656.328	372.5
1660.817	359.5
1665.302	353.5
1669.783	349.5
1674.259	335.5
1678.732	335.5
1683.199	341.5
1687.663	319.5
1692.122	327.5
1696.577	315.5
1701.028	326.5
1705.474	306.5
1709.917	294.5
1714.355	292.5
1718.788	289.5
1723.218	271.5
1727.643	266.5
1732.064	280.5
1736.481	257.5
1740.893	267.5
1745.301	252.5
1749.705	236.5
1754.105	256.5
1758.501	234.5
1762.893	251.5
1767.28	221.5
1771.663	227.5
1776.042	224.5
1780.417	219.5
1784.787	237.5
1789.154	235.5
1793.516	234.5
1797.874	229.5
1802.228	221.5
1806.578	209.5
1810.924	228.5
1815.266	111.5
1819.603	220.5
1823.937	209.5
1828.266	216.5
1832.591	214.5
1836.913	212.5
1841.23	196.5
1845.543	199.5
1849.852	213.5
1854.156	204.5
1858.457	208.5
1862.754	196.5
1867.047	200.5
1871.335	219.5
1875.62	220.5
1879.9	209.5
1884.177	201.5
1888.449	205.5
1892.718	202.5
1896.982	213.5
1901.243	190.5
1905.499	206.5
1909.752	190.5
1914	180.5
1918.245	199.5
1922.485	206.5
1926.722	205.5
1930.954	185.5
1935.183	207.5
1939.408	213.5
1943.628	202.5
1947.845	198.5
1952.058	199.5
1956.267	189.5
1960.472	194.5
1964.673	186.5
1968.87	188.5
1973.063	185.5
1977.252	184.5
1981.438	173.5
1985.619	173.5
1989.797	160.5
1993.971	172.5
1998.14	177.5
2002.306	171.5
2006.469	177.5
2010.627	159.5
2014.781	170.5
2018.932	158.5
2023.078	178.5
2027.221	173.5
2031.36	161.5
2035.495	165.5
2039.627	161.5
2043.754	165.5
2047.878	146.5
2051.998	153.5
2056.114	151.5
2060.226	153.5
2064.334	157.5
2068.439	161.5
2072.54	170.5
2076.637	152.5
2080.73	151.5
2084.82	146.5
2088.906	152.5
2092.988	151.5
2097.066	159.5
2101.14	167.5
2105.211	159.5
2109.278	147.5
2113.342	151.5
2117.401	141.5
2121.457	131.5
2125.509	129.5
2129.558	143.5
2133.602	145.5
2137.643	143.5
2141.681	140.5
2145.714	144.5
2149.744	133.5
2153.77	138.5
2157.793	129.5
2161.812	104.5
2165.827	111.5
2169.838	135.5
2173.846	124.5
2177.851	120.5
2181.851	129.5
2185.848	121.5
2189.841	117.5
2193.831	111.5
2197.817	114.5
2201.799	121.5
2205.778	102.5
2209.753	106.5
2213.725	107.5
2217.693	108.5
2221.657	101.5
2225.618	113.5
2229.575	106.5
2233.529	114.5
2237.479	114.5
2241.425	101.5
2245.368	100.5
2249.307	109.5
2253.243	98.5
2257.175	105.5
2261.104	97.5
2265.029	105.5
2268.95	100.5
2272.868	94.5
2276.783	84.5
2280.694	89.5
2284.601	91.5
2288.505	90.5
2292.405	98.5
2296.302	71.5
2300.195	84.5
2304.085	48.5
2307.971	85.5
2311.854	65.5
2315.734	73.5
2319.609	79.5
2323.482	50.5
2327.351	63.5
2331.216	78.5
2335.078	74.5
2338.937	71.5
2342.792	62.5
2346.643	62.5
2350.492	75.5
2354.336	65.5
2358.178	65.5
2362.015	72.5
2365.85	63.5
2369.681	64.5
2373.508	73.5
2377.333	74.5
2381.153	67.5
2384.971	63.5
2388.785	68.5
2392.595	67.5
2396.402	59.5
2400.206	42.5
2404.007	54.5
2407.804	62.5
2411.597	64.5
2415.388	56.5
2419.174	58.5
2422.958	56.5
2426.738	61.5
2430.515	62.5
2434.289	52.5
2438.059	52.5
2441.825	56.5
2445.589	61.5
2449.349	41.5
2453.106	65.5
2456.859	52.5
2460.61	59.5
2464.356	44.5
2468.1	42.5
2471.84	40.5
2475.577	50.5
2479.311	40.5
2483.041	45.5
2486.768	61.5
2490.492	60.5
2494.213	46.5
2497.93	35.5
2501.644	27.5
2505.355	45.5
2509.062	41.5
2512.766	43.5
2516.467	42.5
2520.165	40.5
2523.859	33.5
2527.551	62.5
2531.239	39.5
2534.923	45.5
2538.605	41.5
2542.283	41.5
2545.958	42.5
2549.63	54.5
2553.299	51.5
2556.964	34.5
2560.626	38.5
2564.285	43.5
2567.941	27.5
2571.594	33.5
2575.243	42.5
2578.89	32.5
2582.533	38.5
2586.173	29.5
2589.809	41.5
2593.443	13.5
2597.073	32.5
2600.701	32.5
2604.325	36.5
2607.946	27.5
2611.564	35.5
2615.178	31.5
2618.79	35.5
2622.398	15.5
2626.004	39.5
2629.606	35.5
2633.205	20.5
2636.801	34.5
2640.394	28.5
2643.983	28.5
2647.57	25.5
2651.153	23.5
2654.734	34.5
2658.311	11.5
2661.885	20.5
2665.456	20.5
2669.025	21.5
2672.589	19.5
2676.151	31.5
2679.71	32.5
2683.266	25.5
2686.819	17.5
2690.368	25.5
2693.915	28.5
2697.458	23.5
2700.999	30.5
2704.536	30.5
2708.071	19.5
2711.602	26.5
2715.13	24.5
2718.656	6.5
2722.178	21.5
2725.697	6.5
2729.214	14.5
2732.727	16.5
2736.237	2.5
2739.744	9.5
2743.249	5.5
2746.75	14.5
2750.248	6.5
2753.743	12.5
2757.236	10.5
2760.725	22.5
2764.211	-7.5
2767.695	15.5
2771.175	14.5
2774.652	22.5
2778.127	12.5
2781.598	14.5
2785.067	15.5
2788.532	6.5
2791.995	16.5
2795.455	5.5
2798.911	23.5
2802.365	9.5
2805.816	12.5
2809.264	25.5
2812.709	9.5
2816.151	17.5
2819.59	5.5
2823.026	11.5
2826.46	6.5
2829.89	21.5
2833.318	-11.5
2836.742	12.5
2840.164	8.5
2843.583	12.5
2846.999	6.5
2850.412	12.5
2853.822	7.5
2857.229	19.5
2860.634	13.5
2864.035	-2.5
2867.434	19.5
2870.83	18.5
2874.223	7.5
2877.613	13.5
2881	4.5
2884.385	7.5
2887.766	5.5
2891.145	15.5
2894.521	10.5
2897.894	3.5
2901.264	17.5
2904.631	16.5
2907.996	21.5
2911.358	22.5
2914.717	19.5
2918.073	15.5
2921.426	6.5
2924.777	0.5
2928.124	16.5
2931.469	31.5
2934.811	9.5
2938.15	32.5
2941.487	17.5
2944.821	30.5
2948.152	19.5
2951.48	24.5
2954.805	12.5
2958.128	33.5
2961.447	21.5
2964.765	35.5
2968.079	24.5
2971.39	25.5
2974.699	26.5
2978.005	24.5
2981.308	21.5
2984.609	16.5
2987.907	30.5
2991.202	35.5
2994.494	18.5
2997.784	35.5
3001.07	27.5
3004.355	17.5
3007.636	30.5
3010.915	28.5
3014.191	23.5
3017.464	33.5
3020.734	30.5
3024.002	33.5
3027.267	31.5
3030.53	32.5
3033.789	39.5
3037.046	33.5
3040.301	32.5
3043.552	41.5
3046.801	40.5
3050.048	47.5
3053.291	62.5
3056.532	37.5
3059.771	32.5
3063.006	50.5
3066.239	43.5
3069.469	56.5
3072.697	40.5
3075.922	40.5
3079.144	45.5
3082.364	64.5
3085.581	46.5
3088.795	72.5
3092.007	62.5
3095.216	72.5
3098.423	63.5
3101.627	37.5
3104.828	71.5
3108.026	66.5
3111.222	75.5
3114.416	87.5
3117.607	74.5
3120.795	77.5
3123.98	81.5
3127.163	66.5
3130.344	74.5
3133.521	72.5
3136.696	82.5
3139.869	87.5
3143.039	70.5
3146.206	98.5
3149.371	104.5
3152.533	88.5
3155.693	76.5
3158.85	103.5
3162.005	101.5
3165.157	95.5
3168.306	94.5
3171.453	101.5
3174.597	86.5
3177.739	88.5
3180.878	98.5
3184.014	97.5
3187.149	105.5
3190.28	102.5
3193.409	108.5
3196.536	101.5
3199.659	110.5
3202.781	107.5
3205.9	91.5
3209.016	107.5
3212.13	99.5
3215.241	96.5
3218.35	101.5
3221.456	97.5
3224.56	89.5
3227.661	93.5
3230.76	89.5
3233.856	88.5
3236.95	92.5
3240.041	79.5
3243.13	94.5
3246.216	92.5
3249.3	96.5
3252.382	93.5
3255.46	85.5
3258.537	41.5
3261.611	78.5
3264.682	87.5
3267.751	78.5
3270.818	75.5
3273.882	84.5
3276.943	81.5
3280.002	95.5
3283.059	75.5
3286.113	76.5
3289.165	66.5
3292.214	68.5
3295.261	88.5
3298.306	64.5
3301.348	75.5
3304.387	65.5
3307.425	82.5
3310.459	71.5
3313.492	83.5
3316.521	71.5
3319.549	84.5
3322.574	79.5
3325.597	65.5
3328.617	59.5
3331.635	63.5
3334.65	50.5
3337.663	63.5
3340.674	61.5
3343.682	68.5
3346.688	77.5
3349.691	56.5
3352.692	63.5
3355.691	72.5
3358.687	65.5
3361.681	68.5
3364.673	64.5
3367.662	64.5
3370.649	71.5
3373.633	51.5
3376.615	62.5
3379.595	42.5
3382.572	57.5
3385.547	42.5
3388.52	40.5
3391.49	51.5
3394.458	53.5
3397.424	51.5
3400.387	42.5
3403.348	50.5
3406.307	43.5
3409.263	48.5
3412.217	54.5
3415.168	51.5
3418.118	54.5
3421.065	45.5
3424.009	54.5
3426.951	43.5
3429.891	42.5
3432.829	38.5
3435.764	48.5
3438.697	31.5
3441.628	42.5
3444.557	28.5
3447.483	33.5
3450.407	35.5
3453.328	30.5
3456.247	31.5
3459.164	21.5
3462.079	43.5
3464.991	29.5
3467.902	25.5
3470.809	29.5
3473.715	27.5
3476.618	16.5
3479.519	24.5
3482.418	0.5
3485.315	12.5
3488.209	12.5
3491.101	14.5
3493.99	-3.5
3496.878	1.5
3499.763	8.5
3502.646	8.5
3505.527	1.5
3508.405	0.5
3511.281	-12.5
3514.155	2.5
3517.027	-3.5
3519.897	-10.5
3522.764	3.5
3525.629	-20.5
3528.492	-11.5
3531.352	-3.5
3534.211	-7.5
3537.067	-8.5
3539.921	-5.5
3542.773	-5.5
3545.622	-27.5
3548.469	-19.5
3551.315	-15.5
3554.157	-12.5
3556.998	-24.5
3559.837	-18.5
3562.673	-13.5
3565.507	-22.5
3568.339	-24.5
3571.169	-19.5
3573.996	-19.5
3576.822	-29.5
3579.645	-25.5
3582.466	-23.5
3585.285	-16.5
3588.101	-16.5
3590.916	-24.5
3593.728	-15.5
3596.538	-23.5
3599.346	-20.5
3602.152	-29.5
3604.956	-24.5
3607.757	-17.5
3610.556	-33.5
3613.354	-17.5
3616.149	-20.5
3618.942	-19.5
3621.732	-21.5
3624.521	-30.5
3627.307	-32.5
3630.092	-35.5
3632.874	-18.5
3635.654	-24.5
3638.432	-34.5
3641.208	-32.5
3643.982	-30.5
3646.753	-19.5
3649.523	-55.5
3652.29	-29.5
3655.055	-23.5
3657.818	-27.5
3660.579	-31.5
3663.338	-36.5
3666.095	-30.5
3668.849	-55.5
3671.602	-25.5
3674.352	-41.5
3677.101	-23.5
3679.847	-19.5
3682.591	-35.5
3685.333	-45.5
3688.073	-26.5
3690.811	-35.5
3693.547	-38.5
3696.281	-43.5
3699.013	-29.5
3701.742	-28.5
3704.47	-40.5
3707.195	-26.5
3709.919	-32.5
3712.64	-34.5
3715.359	-45.5
3718.076	-26.5
3720.792	-32.5
3723.505	-27.5
3726.216	-23.5
3728.925	-32.5
3731.632	-42.5
3734.336	-33.5
3737.039	-33.5
3739.74	-31.5
3742.439	-59.5
3745.136	-30.5
3747.83	-33.5
3750.523	-30.5
3753.213	-97.5
3755.902	-38.5
3758.589	-50.5
3761.273	-39.5
3763.956	-26.5
3766.636	-44.5
3769.315	-22.5
3771.991	-35.5
3774.665	-35.5
3777.338	-34.5
3780.008	-44.5
3782.677	-37.5
3785.343	-44.5
3788.007	-47.5
3790.67	-27.5
3793.33	-43.5
3795.989	-40.5
3798.645	-28.5
3801.299	-47.5
3803.952	-45.5
3806.602	-37.5
3809.251	-28.5
3811.897	-35.5
3814.542	-35.5
3817.184	-36.5
3819.825	-35.5
3822.463	-51.5
3825.1	-40.5
3827.735	-35.5
3830.367	-45.5
3832.998	-20.5
3835.627	-34.5
3838.253	-31.5
3840.878	-35.5
3843.501	-20.5
3846.122	-29.5
3848.741	-28.5
3851.358	-23.5
3853.973	-46.5
3856.586	-26.5
3859.197	-40.5
3861.806	-36.5
3864.414	-45.5
3867.019	-36.5
3869.622	-26.5
3872.224	-22.5
3874.823	-18.5
3877.421	-0.5
3880.016	9.5
3882.61	35.5
3885.202	46.5
3887.792	27.5
3890.38	2.5
3892.966	-22.5
3895.55	-40.5
3898.132	-29.5
3900.713	-28.5
3903.291	-32.5
3905.868	-38.5
3908.442	-33.5
3911.015	-29.5
3913.586	-40.5
3916.155	-38.5
3918.722	-42.5
3921.287	-37.5
3923.85	-45.5
3926.411	-36.5
3928.971	-45.5
3931.528	-32.5
3934.084	-37.5
3936.638	-43.5
3939.19	-35.5
3941.74	-35.5
3944.288	-32.5
3946.834	-38.5
3949.378	-29.5
3951.921	-43.5
3954.462	-33.5
3957	-29.5
3959.537	-23.5
3962.072	-33.5
3964.606	-47.5
3967.137	-33.5
3969.667	-41.5
3972.194	-27.5
3974.72	-35.5
3977.244	-56.5
3979.766	-42.5
3982.286	-41.5
3984.805	-30.5
3987.321	-25.5
3989.836	-32.5
3992.349	-37.5
3994.86	-35.5
3997.369	-38.5
3999.877	-38.5
4002.382	-38.5
4004.886	-30.5
4007.388	-32.5
4009.888	-22.5
4012.386	-32.5
4014.883	-35.5
4017.377	-32.5
4019.87	-34.5
4022.361	-46.5
4024.85	-36.5
4027.338	-38.5
4029.823	-43.5
4032.307	-40.5
4034.789	-36.5
4037.269	-31.5
4039.747	-48.5
4042.224	-22.5
4044.699	-41.5
4047.172	-38.5
4049.643	-27.5
4052.112	-55.5
4054.58	-32.5
4057.046	-44.5
4059.51	-36.5
4061.972	-28.5
4064.432	-46.5
4066.891	-21.5
4069.348	-32.5
4071.803	-29.5
4074.256	-30.5
4076.708	-26.5
4079.158	-29.5
4081.606	-23.5
4084.052	-31.5
4086.497	-27.5
4088.939	-34.5
4091.38	-37.5
4093.819	-28.5
4096.257	0.5
4098.693	-2.5
4101.127	-3.5
4103.559	-1.5
4105.989	40.5
4108.418	39.5
4110.845	26.5
4113.27	33.5
4115.694	43.5
4118.115	21.5
4120.535	-28.5
4122.954	-24.5
4125.37	-25.5
4127.785	-33.5
4130.198	-25.5
4132.609	-29.5
4135.019	5.5
4137.427	-0.5
4139.833	4.5
4142.237	-2.5
