Data from 2018-3-6_conc=3_n=4_RamanShift_03.txt Node
Date: Tue Mar 06 13:24:19 GMT+02:00 2018
User: LAB3
Spectrometer: QEPB0276
Trigger mode: 0
Integration Time (sec): 3.000000E1
Scans to average: 1
Electric dark correction enabled: true
Nonlinearity correction enabled: false
Boxcar width: 0
XAxis mode: Raman Shifts
Number of Pixels in Spectrum: 1044
>>>>>Begin Spectral Data<<<<<
160.701	136
166.742	176
172.777	262
178.805	500
184.826	1146
190.841	2276
196.849	3611
202.85	4604
208.845	4998
214.833	4995
220.815	4945
226.789	4947
232.758	4978
238.719	5038
244.674	4996
250.623	4961
256.565	4925
262.5	4879
268.429	4840
274.351	4823
280.267	4852
286.176	4828
292.079	4853
297.975	4854
303.865	4871
309.748	4888
315.625	4888
321.495	4901
327.359	4910
333.217	4916
339.068	4942
344.912	4954
350.751	4970
356.583	5017
362.408	5002
368.227	5049
374.04	5073
379.847	5076
385.647	5143
391.44	5132
397.228	5156
403.009	5195
408.784	5243
414.553	5258
420.315	5249
426.071	5267
431.821	5278
437.565	5265
443.302	5239
449.033	5188
454.758	5168
460.477	5148
466.189	5124
471.896	5070
477.596	5034
483.29	4991
488.978	5002
494.66	4948
500.335	4807
506.005	4582
511.668	4400
517.325	4147
522.977	3982
528.622	3845
534.261	3802
539.894	3663
545.521	3658
551.141	3598
556.756	3543
562.365	3514
567.968	3507
573.565	3455
579.155	3471
584.74	3397
590.319	3426
595.892	3426
601.459	3447
607.02	3422
612.575	3346
618.124	3343
623.667	3274
629.204	3263
634.735	3201
640.261	3183
645.781	3110
651.294	3126
656.802	3129
662.304	3091
667.8	3101
673.29	3091
678.775	3080
684.254	3038
689.726	3036
695.193	3051
700.655	3017
706.11	3010
711.56	2984
717.004	2962
722.442	2951
727.874	2946
733.301	2961
738.722	2923
744.137	2917
749.547	2911
754.951	2913
760.349	2926
765.741	2935
771.128	2962
776.509	3000
781.885	3015
787.254	3079
792.618	3076
797.977	3070
803.33	3047
808.677	3030
814.019	2993
819.355	2965
824.686	2955
830.011	2932
835.33	2924
840.644	2909
845.952	2850
851.255	2839
856.552	2829
861.844	2778
867.13	2758
872.41	2735
877.686	2708
882.955	2695
888.219	2655
893.478	2605
898.731	2595
903.979	2556
909.221	2549
914.458	2531
919.69	2507
924.916	2535
930.136	2544
935.351	2534
940.561	2548
945.766	2520
950.965	2525
956.158	2472
961.347	2469
966.529	2441
971.707	2411
976.879	2372
982.046	2350
987.208	2326
992.364	2337
997.515	2346
1002.66	2376
1007.801	2363
1012.936	2405
1018.066	2381
1023.19	2409
1028.309	2431
1033.423	2431
1038.532	2447
1043.636	2414
1048.734	2375
1053.827	2366
1058.915	2326
1063.998	2352
1069.075	2327
1074.147	2335
1079.214	2287
1084.276	2352
1089.333	2348
1094.385	2356
1099.431	2322
1104.472	2322
1109.509	2284
1114.54	2267
1119.565	2230
1124.586	2198
1129.602	2165
1134.613	2155
1139.618	2143
1144.619	2150
1149.614	2167
1154.604	2159
1159.589	2154
1164.57	2182
1169.545	2186
1174.515	2195
1179.48	2165
1184.44	2148
1189.395	2151
1194.345	2114
1199.29	2109
1204.23	2102
1209.165	2104
1214.095	2135
1219.021	2123
1223.941	2119
1228.856	2156
1233.766	2163
1238.672	2140
1243.572	2146
1248.467	2133
1253.358	2091
1258.244	2044
1263.124	2040
1268	2011
1272.871	1950
1277.737	1947
1282.599	1925
1287.455	1935
1292.306	1941
1297.153	1936
1301.995	1957
1306.832	1945
1311.664	1954
1316.491	1975
1321.314	1968
1326.132	1950
1330.945	1911
1335.753	1857
1340.556	1845
1345.354	1821
1350.148	1804
1354.937	1790
1359.722	1752
1364.501	1743
1369.276	1737
1374.046	1753
1378.811	1733
1383.572	1733
1388.327	1733
1393.079	1710
1397.825	1704
1402.567	1685
1407.304	1673
1412.036	1667
1416.764	1664
1421.487	1650
1426.205	1636
1430.919	1654
1435.628	1664
1440.333	1653
1445.032	1698
1449.727	1686
1454.418	1718
1459.104	1696
1463.785	1651
1468.462	1651
1473.134	1646
1477.802	1608
1482.465	1555
1487.123	1570
1491.777	1532
1496.426	1524
1501.071	1567
1505.711	1559
1510.347	1567
1514.978	1579
1519.604	1573
1524.226	1580
1528.844	1554
1533.457	1580
1538.065	1521
1542.669	1542
1547.269	1526
1551.864	1504
1556.454	1493
1561.041	1533
1565.622	1519
1570.199	1523
1574.772	1529
1579.34	1542
1583.904	1557
1588.464	1566
1593.019	1565
1597.569	1555
1602.115	1558
1606.657	1556
1611.195	1552
1615.728	1543
1620.256	1542
1624.78	1519
1629.3	1532
1633.816	1540
1638.327	1553
1642.834	1556
1647.336	1562
1651.834	1578
1656.328	1572
1660.817	1566
1665.302	1551
1669.783	1530
1674.259	1505
1678.732	1486
1683.199	1457
1687.663	1403
1692.122	1379
1696.577	1337
1701.028	1334
1705.474	1300
1709.917	1279
1714.355	1246
1718.788	1248
1723.218	1222
1727.643	1199
1732.064	1203
1736.481	1176
1740.893	1166
1745.301	1130
1749.705	1098
1754.105	1091
1758.501	1056
1762.893	1047
1767.28	1030
1771.663	1019
1776.042	1007
1780.417	992
1784.787	998
1789.154	1029
1793.516	1013
1797.874	991
1802.228	1001
1806.578	999
1810.924	1004
1815.266	864
1819.603	980
1823.937	959
1828.266	938
1832.591	937
1836.913	934
1841.23	909
1845.543	909
1849.852	941
1854.156	925
1858.457	923
1862.754	902
1867.047	923
1871.335	952
1875.62	943
1879.9	926
1884.177	916
1888.449	923
1892.718	912
1896.982	924
1901.243	902
1905.499	891
1909.752	900
1914	865
1918.245	897
1922.485	896
1926.722	901
1930.954	884
1935.183	902
1939.408	902
1943.628	898
1947.845	891
1952.058	884
1956.267	864
1960.472	868
1964.673	844
1968.87	827
1973.063	813
1977.252	813
1981.438	807
1985.619	806
1989.797	770
1993.971	796
1998.14	783
2002.306	784
2006.469	782
2010.627	762
2014.781	764
2018.932	765
2023.078	774
2027.221	766
2031.36	754
2035.495	741
2039.627	726
2043.754	721
2047.878	714
2051.998	708
2056.114	723
2060.226	726
2064.334	713
2068.439	734
2072.54	724
2076.637	716
2080.73	719
2084.82	716
2088.906	716
2092.988	720
2097.066	714
2101.14	721
2105.211	704
2109.278	695
2113.342	692
2117.401	663
2121.457	658
2125.509	668
2129.558	667
2133.602	655
2137.643	644
2141.681	639
2145.714	650
2149.744	651
2153.77	634
2157.793	621
2161.812	602
2165.827	586
2169.838	603
2173.846	601
2177.851	583
2181.851	582
2185.848	573
2189.841	566
2193.831	552
2197.817	551
2201.799	552
2205.778	532
2209.753	545
2213.725	526
2217.693	527
2221.657	520
2225.618	536
2229.575	524
2233.529	527
2237.479	523
2241.425	512
2245.368	497
2249.307	496
2253.243	485
2257.175	497
2261.104	468
2265.029	466
2268.95	469
2272.868	457
2276.783	453
2280.694	454
2284.601	439
2288.505	438
2292.405	443
2296.302	416
2300.195	416
2304.085	395
2307.971	409
2311.854	383
2315.734	401
2319.609	400
2323.482	368
2327.351	370
2331.216	376
2335.078	386
2338.937	378
2342.792	370
2346.643	377
2350.492	377
2354.336	376
2358.178	374
2362.015	373
2365.85	372
2369.681	373
2373.508	373
2377.333	377
2381.153	372
2384.971	366
2388.785	369
2392.595	359
2396.402	354
2400.206	331
2404.007	339
2407.804	351
2411.597	362
2415.388	335
2419.174	341
2422.958	345
2426.738	349
2430.515	340
2434.289	328
2438.059	333
2441.825	325
2445.589	344
2449.349	319
2453.106	329
2456.859	322
2460.61	325
2464.356	306
2468.1	306
2471.84	299
2475.577	302
2479.311	309
2483.041	306
2486.768	311
2490.492	318
2494.213	306
2497.93	290
2501.644	291
2505.355	294
2509.062	292
2512.766	292
2516.467	281
2520.165	289
2523.859	279
2527.551	317
2531.239	273
2534.923	282
2538.605	271
2542.283	293
2545.958	280
2549.63	291
2553.299	282
2556.964	272
2560.626	272
2564.285	272
2567.941	258
2571.594	263
2575.243	272
2578.89	260
2582.533	260
2586.173	263
2589.809	255
2593.443	232
2597.073	248
2600.701	253
2604.325	246
2607.946	238
2611.564	250
2615.178	250
2618.79	250
2622.398	236
2626.004	242
2629.606	232
2633.205	226
2636.801	234
2640.394	236
2643.983	231
2647.57	212
2651.153	213
2654.734	221
2658.311	198
2661.885	202
2665.456	213
2669.025	205
2672.589	203
2676.151	218
2679.71	222
2683.266	201
2686.819	198
2690.368	208
2693.915	198
2697.458	201
2700.999	197
2704.536	197
2708.071	190
2711.602	192
2715.13	188
2718.656	163
2722.178	189
2725.697	169
2729.214	175
2732.727	183
2736.237	168
2739.744	175
2743.249	174
2746.75	179
2750.248	169
2753.743	176
2757.236	181
2760.725	177
2764.211	147
2767.695	181
2771.175	179
2774.652	174
2778.127	169
2781.598	172
2785.067	169
2788.532	163
2791.995	164
2795.455	152
2798.911	170
2802.365	161
2805.816	167
2809.264	178
2812.709	166
2816.151	175
2819.59	160
2823.026	161
2826.46	168
2829.89	183
2833.318	151
2836.742	161
2840.164	171
2843.583	170
2846.999	171
2850.412	172
2853.822	168
2857.229	187
2860.634	183
2864.035	167
2867.434	185
2870.83	192
2874.223	180
2877.613	188
2881	185
2884.385	190
2887.766	188
2891.145	188
2894.521	186
2897.894	177
2901.264	193
2904.631	194
2907.996	198
2911.358	197
2914.717	195
2918.073	192
2921.426	194
2924.777	178
2928.124	207
2931.469	221
2934.811	201
2938.15	218
2941.487	215
2944.821	237
2948.152	211
2951.48	225
2954.805	213
2958.128	234
2961.447	216
2964.765	234
2968.079	228
2971.39	227
2974.699	228
2978.005	228
2981.308	232
2984.609	222
2987.907	238
2991.202	249
2994.494	237
2997.784	241
3001.07	246
3004.355	243
3007.636	245
3010.915	252
3014.191	240
3017.464	248
3020.734	247
3024.002	259
3027.267	255
3030.53	258
3033.789	262
3037.046	261
3040.301	260
3043.552	267
3046.801	281
3050.048	293
3053.291	304
3056.532	299
3059.771	289
3063.006	316
3066.239	320
3069.469	329
3072.697	328
3075.922	341
3079.144	350
3082.364	382
3085.581	357
3088.795	390
3092.007	384
3095.216	397
3098.423	395
3101.627	384
3104.828	407
3108.026	416
3111.222	441
3114.416	439
3117.607	451
3120.795	452
3123.98	467
3127.163	457
3130.344	464
3133.521	472
3136.696	502
3139.869	515
3143.039	495
3146.206	545
3149.371	537
3152.533	537
3155.693	522
3158.85	548
3162.005	548
3165.157	536
3168.306	550
3171.453	551
3174.597	546
3177.739	530
3180.878	557
3184.014	559
3187.149	555
3190.28	567
3193.409	569
3196.536	555
3199.659	569
3202.781	576
3205.9	545
3209.016	571
3212.13	569
3215.241	557
3218.35	556
3221.456	549
3224.56	534
3227.661	550
3230.76	544
3233.856	526
3236.95	529
3240.041	523
3243.13	531
3246.216	529
3249.3	528
3252.382	532
3255.46	516
3258.537	470
3261.611	509
3264.682	514
3267.751	500
3270.818	503
3273.882	521
3276.943	507
3280.002	516
3283.059	487
3286.113	494
3289.165	469
3292.214	463
3295.261	488
3298.306	465
3301.348	461
3304.387	448
3307.425	471
3310.459	449
3313.492	452
3316.521	435
3319.549	445
3322.574	437
3325.597	430
3328.617	414
3331.635	421
3334.65	407
3337.663	422
3340.674	413
3343.682	415
3346.688	424
3349.691	410
3352.692	411
3355.691	420
3358.687	408
3361.681	404
3364.673	407
3367.662	400
3370.649	394
3373.633	375
3376.615	390
3379.595	363
3382.572	373
3385.547	369
3388.52	360
3391.49	355
3394.458	354
3397.424	360
3400.387	341
3403.348	355
3406.307	337
3409.263	347
3412.217	344
3415.168	334
3418.118	341
3421.065	321
3424.009	337
3426.951	321
3429.891	319
3432.829	315
3435.764	311
3438.697	298
3441.628	308
3444.557	278
3447.483	274
3450.407	267
3453.328	261
3456.247	256
3459.164	247
3462.079	254
3464.991	243
3467.902	233
3470.809	224
3473.715	230
3476.618	218
3479.519	216
3482.418	179
3485.315	187
3488.209	185
3491.101	191
3493.99	175
3496.878	168
3499.763	172
3502.646	171
3505.527	153
3508.405	154
3511.281	141
3514.155	151
3517.027	141
3519.897	129
3522.764	142
3525.629	102
3528.492	123
3531.352	115
3534.211	107
3537.067	99
3539.921	96
3542.773	103
3545.622	83
3548.469	73
3551.315	72
3554.157	79
3556.998	65
3559.837	72
3562.673	76
3565.507	59
3568.339	58
3571.169	61
3573.996	55
3576.822	35
3579.645	53
3582.466	42
3585.285	49
3588.101	41
3590.916	41
3593.728	43
3596.538	34
3599.346	36
3602.152	25
3604.956	35
3607.757	35
3610.556	12
3613.354	33
3616.149	23
3618.942	27
3621.732	20
3624.521	13
3627.307	7
3630.092	6
3632.874	22
3635.654	18
3638.432	2
3641.208	8
3643.982	8
3646.753	15
3649.523	-24
3652.29	1
3655.055	8
3657.818	2
3660.579	-5
3663.338	-14
3666.095	-9
3668.849	-28
3671.602	0
3674.352	-21
3677.101	0
3679.847	-1
3682.591	-20
3685.333	-25
3688.073	-7
3690.811	-19
3693.547	-25
3696.281	-22
3699.013	-11
3701.742	-19
3704.47	-28
3707.195	-13
3709.919	-20
3712.64	-13
3715.359	-33
3718.076	-9
3720.792	-14
3723.505	-21
3726.216	-7
3728.925	-24
3731.632	-27
3734.336	-21
3737.039	-22
3739.74	-19
3742.439	-48
3745.136	-17
3747.83	-17
3750.523	-18
3753.213	-82
3755.902	-29
3758.589	-40
3761.273	-26
3763.956	-18
3766.636	-41
3769.315	-16
3771.991	-25
3774.665	-28
3777.338	-22
3780.008	-33
3782.677	-32
3785.343	-42
3788.007	-45
3790.67	-23
3793.33	-38
3795.989	-26
3798.645	-25
3801.299	-38
3803.952	-37
3806.602	-30
3809.251	-23
3811.897	-25
3814.542	-31
3817.184	-37
3819.825	-29
3822.463	-41
3825.1	-32
3827.735	-31
3830.367	-38
3832.998	-15
3835.627	-32
3838.253	-22
3840.878	-30
3843.501	-11
3846.122	-24
3848.741	-19
3851.358	-26
3853.973	-41
3856.586	-20
3859.197	-36
3861.806	-25
3864.414	-42
3867.019	-25
3869.622	-19
3872.224	-17
3874.823	-6
3877.421	25
3880.016	44
3882.61	87
3885.202	104
3887.792	73
3890.38	37
3892.966	3
3895.55	-29
3898.132	-17
3900.713	-23
3903.291	-31
3905.868	-41
3908.442	-30
3911.015	-31
3913.586	-32
3916.155	-32
3918.722	-36
3921.287	-39
3923.85	-47
3926.411	-36
3928.971	-38
3931.528	-27
3934.084	-35
3936.638	-43
3939.19	-29
3941.74	-31
3944.288	-32
3946.834	-35
3949.378	-26
3951.921	-39
3954.462	-33
3957	-27
3959.537	-14
3962.072	-28
3964.606	-42
3967.137	-38
3969.667	-42
3972.194	-25
3974.72	-36
3977.244	-52
3979.766	-40
3982.286	-33
3984.805	-29
3987.321	-21
3989.836	-24
3992.349	-32
3994.86	-26
3997.369	-33
3999.877	-33
4002.382	-37
4004.886	-25
4007.388	-27
4009.888	-21
4012.386	-20
4014.883	-26
4017.377	-27
4019.87	-24
4022.361	-36
4024.85	-31
4027.338	-22
4029.823	-35
4032.307	-28
4034.789	-28
4037.269	-26
4039.747	-42
4042.224	-17
4044.699	-36
4047.172	-38
4049.643	-23
4052.112	-55
4054.58	-25
4057.046	-41
4059.51	-33
4061.972	-29
4064.432	-52
4066.891	-19
4069.348	-29
4071.803	-28
4074.256	-36
4076.708	-25
4079.158	-28
4081.606	-20
4084.052	-29
4086.497	-22
4088.939	-27
4091.38	-33
4093.819	-25
4096.257	2
4098.693	-7
4101.127	-4
4103.559	-1
4105.989	126
4108.418	128
4110.845	118
4113.27	128
4115.694	137
4118.115	127
4120.535	-29
4122.954	-22
4125.37	-18
4127.785	-21
4130.198	-18
4132.609	-25
4135.019	9
4137.427	0
4139.833	5
4142.237	-4
