Data from 2018-3-6_conc=0_n=9_RamanShift_05.txt Node
Date: Tue Mar 06 12:36:19 GMT+02:00 2018
User: LAB3
Spectrometer: QEPB0276
Trigger mode: 0
Integration Time (sec): 3.000000E1
Scans to average: 1
Electric dark correction enabled: true
Nonlinearity correction enabled: false
Boxcar width: 0
XAxis mode: Raman Shifts
Number of Pixels in Spectrum: 1044
>>>>>Begin Spectral Data<<<<<
160.701	175
166.742	226
172.777	348
178.805	688
184.826	1565
190.841	3141
196.849	4994
202.85	6418
208.845	6988
214.833	7021
220.815	6969
226.789	6959
232.758	7028
238.719	7081
244.674	7083
250.623	7098
256.565	7012
262.5	6974
268.429	6938
274.351	6987
280.267	6965
286.176	6982
292.079	7031
297.975	7050
303.865	7062
309.748	7055
315.625	7078
321.495	7105
327.359	7155
333.217	7158
339.068	7173
344.912	7267
350.751	7282
356.583	7307
362.408	7346
368.227	7353
374.04	7412
379.847	7494
385.647	7501
391.44	7561
397.228	7589
403.009	7616
408.784	7654
414.553	7719
420.315	7753
426.071	7764
431.821	7760
437.565	7745
443.302	7730
449.033	7716
454.758	7692
460.477	7560
466.189	7493
471.896	7449
477.596	7349
483.29	7291
488.978	7342
494.66	7264
500.335	7064
506.005	6759
511.668	6385
517.325	6080
522.977	5796
528.622	5572
534.261	5464
539.894	5321
545.521	5246
551.141	5188
556.756	5105
562.365	5049
567.968	4999
573.565	4993
579.155	4970
584.74	4913
590.319	4897
595.892	4906
601.459	4905
607.02	4893
612.575	4872
618.124	4788
623.667	4685
629.204	4640
634.735	4577
640.261	4523
645.781	4464
651.294	4460
656.802	4453
662.304	4444
667.8	4428
673.29	4426
678.775	4381
684.254	4396
689.726	4355
695.193	4337
700.655	4302
706.11	4276
711.56	4283
717.004	4251
722.442	4202
727.874	4206
733.301	4186
738.722	4167
744.137	4177
749.547	4161
754.951	4159
760.349	4179
765.741	4183
771.128	4227
776.509	4285
781.885	4374
787.254	4386
792.618	4399
797.977	4408
803.33	4417
808.677	4349
814.019	4343
819.355	4258
824.686	4244
830.011	4233
835.33	4217
840.644	4160
845.952	4093
851.255	4101
856.552	4062
861.844	4007
867.13	3997
872.41	3976
877.686	4029
882.955	4048
888.219	3993
893.478	3878
898.731	3795
903.979	3704
909.221	3642
914.458	3625
919.69	3602
924.916	3617
930.136	3630
935.351	3601
940.561	3615
945.766	3599
950.965	3594
956.158	3540
961.347	3495
966.529	3480
971.707	3449
976.879	3396
982.046	3348
987.208	3325
992.364	3355
997.515	3369
1002.66	3381
1007.801	3390
1012.936	3440
1018.066	3477
1023.19	3493
1028.309	3489
1033.423	3511
1038.532	3526
1043.636	3532
1048.734	3511
1053.827	3466
1058.915	3431
1063.998	3422
1069.075	3375
1074.147	3377
1079.214	3396
1084.276	3414
1089.333	3429
1094.385	3425
1099.431	3383
1104.472	3371
1109.509	3316
1114.54	3271
1119.565	3221
1124.586	3174
1129.602	3167
1134.613	3087
1139.618	3097
1144.619	3078
1149.614	3092
1154.604	3103
1159.589	3106
1164.57	3126
1169.545	3156
1174.515	3127
1179.48	3117
1184.44	3085
1189.395	3067
1194.345	3017
1199.29	3051
1204.23	3011
1209.165	3016
1214.095	3057
1219.021	3079
1223.941	3057
1228.856	3066
1233.766	3071
1238.672	3072
1243.572	3086
1248.467	3056
1253.358	2990
1258.244	2949
1263.124	2934
1268	2893
1272.871	2832
1277.737	2807
1282.599	2823
1287.455	2785
1292.306	2790
1297.153	2783
1301.995	2812
1306.832	2806
1311.664	2835
1316.491	2824
1321.314	2826
1326.132	2774
1330.945	2747
1335.753	2700
1340.556	2669
1345.354	2643
1350.148	2613
1354.937	2599
1359.722	2561
1364.501	2560
1369.276	2538
1374.046	2539
1378.811	2541
1383.572	2534
1388.327	2535
1393.079	2492
1397.825	2469
1402.567	2465
1407.304	2433
1412.036	2422
1416.764	2415
1421.487	2410
1426.205	2412
1430.919	2419
1435.628	2443
1440.333	2453
1445.032	2478
1449.727	2525
1454.418	2550
1459.104	2556
1463.785	2508
1468.462	2511
1473.134	2435
1477.802	2389
1482.465	2346
1487.123	2342
1491.777	2317
1496.426	2300
1501.071	2351
1505.711	2315
1510.347	2330
1514.978	2344
1519.604	2361
1524.226	2373
1528.844	2331
1533.457	2315
1538.065	2297
1542.669	2255
1547.269	2249
1551.864	2224
1556.454	2203
1561.041	2216
1565.622	2204
1570.199	2227
1574.772	2252
1579.34	2246
1583.904	2258
1588.464	2282
1593.019	2270
1597.569	2263
1602.115	2256
1606.657	2253
1611.195	2258
1615.728	2255
1620.256	2230
1624.78	2198
1629.3	2238
1633.816	2262
1638.327	2254
1642.834	2278
1647.336	2291
1651.834	2302
1656.328	2301
1660.817	2317
1665.302	2324
1669.783	2272
1674.259	2240
1678.732	2201
1683.199	2151
1687.663	2111
1692.122	2076
1696.577	2028
1701.028	1991
1705.474	1954
1709.917	1920
1714.355	1909
1718.788	1893
1723.218	1863
1727.643	1820
1732.064	1818
1736.481	1783
1740.893	1751
1745.301	1699
1749.705	1658
1754.105	1654
1758.501	1613
1762.893	1596
1767.28	1553
1771.663	1556
1776.042	1548
1780.417	1535
1784.787	1560
1789.154	1555
1793.516	1570
1797.874	1567
1802.228	1556
1806.578	1542
1810.924	1532
1815.266	1436
1819.603	1484
1823.937	1456
1828.266	1447
1832.591	1438
1836.913	1417
1841.23	1419
1845.543	1396
1849.852	1406
1854.156	1405
1858.457	1403
1862.754	1390
1867.047	1418
1871.335	1416
1875.62	1425
1879.9	1420
1884.177	1419
1888.449	1418
1892.718	1402
1896.982	1398
1901.243	1387
1905.499	1383
1909.752	1380
1914	1372
1918.245	1408
1922.485	1408
1926.722	1399
1930.954	1399
1935.183	1427
1939.408	1428
1943.628	1421
1947.845	1400
1952.058	1386
1956.267	1369
1960.472	1348
1964.673	1318
1968.87	1293
1973.063	1256
1977.252	1244
1981.438	1231
1985.619	1213
1989.797	1207
1993.971	1195
1998.14	1199
2002.306	1197
2006.469	1194
2010.627	1174
2014.781	1179
2018.932	1157
2023.078	1173
2027.221	1148
2031.36	1132
2035.495	1119
2039.627	1111
2043.754	1092
2047.878	1101
2051.998	1097
2056.114	1093
2060.226	1110
2064.334	1111
2068.439	1124
2072.54	1122
2076.637	1119
2080.73	1117
2084.82	1121
2088.906	1130
2092.988	1124
2097.066	1114
2101.14	1116
2105.211	1095
2109.278	1080
2113.342	1071
2117.401	1048
2121.457	1038
2125.509	1020
2129.558	1028
2133.602	1002
2137.643	1014
2141.681	991
2145.714	999
2149.744	991
2153.77	974
2157.793	955
2161.812	930
2165.827	906
2169.838	927
2173.846	899
2177.851	892
2181.851	886
2185.848	866
2189.841	865
2193.831	857
2197.817	845
2201.799	835
2205.778	823
2209.753	812
2213.725	808
2217.693	822
2221.657	798
2225.618	804
2229.575	797
2233.529	802
2237.479	805
2241.425	769
2245.368	754
2249.307	761
2253.243	736
2257.175	725
2261.104	713
2265.029	718
2268.95	701
2272.868	694
2276.783	683
2280.694	694
2284.601	678
2288.505	667
2292.405	653
2296.302	642
2300.195	635
2304.085	614
2307.971	611
2311.854	585
2315.734	595
2319.609	587
2323.482	574
2327.351	561
2331.216	564
2335.078	575
2338.937	569
2342.792	547
2346.643	539
2350.492	557
2354.336	555
2358.178	555
2362.015	553
2365.85	550
2369.681	561
2373.508	551
2377.333	558
2381.153	550
2384.971	549
2388.785	549
2392.595	538
2396.402	530
2400.206	497
2404.007	519
2407.804	523
2411.597	515
2415.388	521
2419.174	512
2422.958	504
2426.738	506
2430.515	510
2434.289	495
2438.059	490
2441.825	487
2445.589	493
2449.349	477
2453.106	483
2456.859	474
2460.61	486
2464.356	455
2468.1	456
2471.84	461
2475.577	457
2479.311	444
2483.041	462
2486.768	468
2490.492	468
2494.213	457
2497.93	443
2501.644	443
2505.355	450
2509.062	451
2512.766	449
2516.467	437
2520.165	431
2523.859	432
2527.551	464
2531.239	423
2534.923	429
2538.605	437
2542.283	440
2545.958	430
2549.63	448
2553.299	435
2556.964	420
2560.626	423
2564.285	418
2567.941	414
2571.594	402
2575.243	414
2578.89	406
2582.533	401
2586.173	393
2589.809	404
2593.443	370
2597.073	390
2600.701	395
2604.325	380
2607.946	369
2611.564	382
2615.178	388
2618.79	378
2622.398	359
2626.004	366
2629.606	368
2633.205	344
2636.801	353
2640.394	350
2643.983	337
2647.57	338
2651.153	330
2654.734	342
2658.311	310
2661.885	325
2665.456	322
2669.025	313
2672.589	316
2676.151	325
2679.71	322
2683.266	313
2686.819	303
2690.368	305
2693.915	314
2697.458	302
2700.999	299
2704.536	295
2708.071	295
2711.602	288
2715.13	295
2718.656	271
2722.178	284
2725.697	276
2729.214	283
2732.727	285
2736.237	272
2739.744	278
2743.249	275
2746.75	280
2750.248	279
2753.743	282
2757.236	290
2760.725	293
2764.211	254
2767.695	288
2771.175	278
2774.652	283
2778.127	277
2781.598	277
2785.067	279
2788.532	258
2791.995	278
2795.455	268
2798.911	274
2802.365	267
2805.816	279
2809.264	284
2812.709	273
2816.151	278
2819.59	260
2823.026	274
2826.46	278
2829.89	282
2833.318	263
2836.742	273
2840.164	284
2843.583	286
2846.999	287
2850.412	296
2853.822	290
2857.229	310
2860.634	305
2864.035	300
2867.434	322
2870.83	324
2874.223	319
2877.613	334
2881	340
2884.385	343
2887.766	351
2891.145	346
2894.521	343
2897.894	341
2901.264	352
2904.631	354
2907.996	358
2911.358	355
2914.717	347
2918.073	351
2921.426	351
2924.777	354
2928.124	370
2931.469	395
2934.811	385
2938.15	422
2941.487	409
2944.821	426
2948.152	404
2951.48	400
2954.805	369
2958.128	401
2961.447	380
2964.765	388
2968.079	380
2971.39	381
2974.699	380
2978.005	391
2981.308	392
2984.609	384
2987.907	405
2991.202	402
2994.494	374
2997.784	388
3001.07	399
3004.355	389
3007.636	393
3010.915	399
3014.191	388
3017.464	390
3020.734	386
3024.002	390
3027.267	386
3030.53	389
3033.789	398
3037.046	398
3040.301	394
3043.552	416
3046.801	414
3050.048	438
3053.291	443
3056.532	440
3059.771	450
3063.006	464
3066.239	468
3069.469	485
3072.697	491
3075.922	495
3079.144	500
3082.364	546
3085.581	522
3088.795	564
3092.007	563
3095.216	584
3098.423	576
3101.627	577
3104.828	599
3108.026	596
3111.222	627
3114.416	647
3117.607	653
3120.795	652
3123.98	673
3127.163	676
3130.344	704
3133.521	697
3136.696	731
3139.869	736
3143.039	736
3146.206	784
3149.371	776
3152.533	777
3155.693	766
3158.85	785
3162.005	783
3165.157	785
3168.306	784
3171.453	815
3174.597	794
3177.739	792
3180.878	795
3184.014	803
3187.149	806
3190.28	799
3193.409	819
3196.536	817
3199.659	822
3202.781	824
3205.9	798
3209.016	827
3212.13	810
3215.241	804
3218.35	806
3221.456	798
3224.56	789
3227.661	801
3230.76	782
3233.856	770
3236.95	786
3240.041	771
3243.13	770
3246.216	755
3249.3	767
3252.382	750
3255.46	751
3258.537	695
3261.611	737
3264.682	750
3267.751	736
3270.818	733
3273.882	755
3276.943	741
3280.002	743
3283.059	716
3286.113	714
3289.165	699
3292.214	681
3295.261	692
3298.306	666
3301.348	663
3304.387	639
3307.425	659
3310.459	640
3313.492	641
3316.521	630
3319.549	631
3322.574	632
3325.597	617
3328.617	606
3331.635	601
3334.65	585
3337.663	614
3340.674	595
3343.682	597
3346.688	606
3349.691	596
3352.692	588
3355.691	593
3358.687	587
3361.681	582
3364.673	574
3367.662	575
3370.649	565
3373.633	547
3376.615	568
3379.595	529
3382.572	534
3385.547	531
3388.52	521
3391.49	515
3394.458	513
3397.424	513
3400.387	492
3403.348	495
3406.307	492
3409.263	495
3412.217	503
3415.168	486
3418.118	500
3421.065	479
3424.009	489
3426.951	467
3429.891	458
3432.829	451
3435.764	452
3438.697	427
3441.628	434
3444.557	404
3447.483	408
3450.407	405
3453.328	392
3456.247	386
3459.164	360
3462.079	370
3464.991	351
3467.902	338
3470.809	333
3473.715	333
3476.618	310
3479.519	317
3482.418	288
3485.315	289
3488.209	285
3491.101	287
3493.99	262
3496.878	264
3499.763	267
3502.646	262
3505.527	242
3508.405	234
3511.281	223
3514.155	229
3517.027	214
3519.897	199
3522.764	210
3525.629	178
3528.492	181
3531.352	185
3534.211	167
3537.067	157
3539.921	159
3542.773	163
3545.622	139
3548.469	128
3551.315	122
3554.157	131
3556.998	117
3559.837	116
3562.673	120
3565.507	105
3568.339	96
3571.169	100
3573.996	96
3576.822	74
3579.645	82
3582.466	85
3585.285	88
3588.101	83
3590.916	69
3593.728	76
3596.538	65
3599.346	66
3602.152	56
3604.956	61
3607.757	58
3610.556	38
3613.354	60
3616.149	49
3618.942	43
3621.732	45
3624.521	36
3627.307	31
3630.092	35
3632.874	46
3635.654	30
3638.432	21
3641.208	22
3643.982	30
3646.753	31
3649.523	-3
3652.29	19
3655.055	22
3657.818	18
3660.579	10
3663.338	-3
3666.095	4
3668.849	-16
3671.602	15
3674.352	-3
3677.101	13
3679.847	9
3682.591	-3
3685.333	-13
3688.073	-2
3690.811	-9
3693.547	-13
3696.281	-20
3699.013	-4
3701.742	-12
3704.47	-16
3707.195	-7
3709.919	-7
3712.64	-10
3715.359	-23
3718.076	-1
3720.792	-12
3723.505	-11
3726.216	3
3728.925	-16
3731.632	-25
3734.336	-16
3737.039	-18
3739.74	-12
3742.439	-38
3745.136	-4
3747.83	-12
3750.523	-12
3753.213	-79
3755.902	-17
3758.589	-35
3761.273	-23
3763.956	-7
3766.636	-29
3769.315	-14
3771.991	-22
3774.665	-23
3777.338	-20
3780.008	-35
3782.677	-26
3785.343	-44
3788.007	-43
3790.67	-16
3793.33	-35
3795.989	-25
3798.645	-19
3801.299	-35
3803.952	-35
3806.602	-24
3809.251	-13
3811.897	-28
3814.542	-30
3817.184	-30
3819.825	-20
3822.463	-36
3825.1	-33
3827.735	-29
3830.367	-35
3832.998	-17
3835.627	-25
3838.253	-17
3840.878	-30
3843.501	-10
3846.122	-23
3848.741	-24
3851.358	-20
3853.973	-32
3856.586	-15
3859.197	-30
3861.806	-22
3864.414	-36
3867.019	-25
3869.622	-9
3872.224	-2
3874.823	17
3877.421	47
3880.016	75
3882.61	137
3885.202	155
3887.792	125
3890.38	72
3892.966	12
3895.55	-12
3898.132	-13
3900.713	-19
3903.291	-24
3905.868	-31
3908.442	-28
3911.015	-30
3913.586	-37
3916.155	-26
3918.722	-30
3921.287	-36
3923.85	-41
3926.411	-32
3928.971	-36
3931.528	-26
3934.084	-31
3936.638	-44
3939.19	-23
3941.74	-29
3944.288	-31
3946.834	-38
3949.378	-22
3951.921	-35
3954.462	-29
3957	-29
3959.537	-17
3962.072	-26
3964.606	-40
3967.137	-32
3969.667	-34
3972.194	-29
3974.72	-34
3977.244	-53
3979.766	-34
3982.286	-38
3984.805	-21
3987.321	-21
3989.836	-22
3992.349	-32
3994.86	-25
3997.369	-31
3999.877	-26
4002.382	-28
4004.886	-23
4007.388	-27
4009.888	-16
4012.386	-21
4014.883	-22
4017.377	-24
4019.87	-22
4022.361	-35
4024.85	-22
4027.338	-26
4029.823	-27
4032.307	-28
4034.789	-26
4037.269	-23
4039.747	-40
4042.224	-18
4044.699	-32
4047.172	-30
4049.643	-19
4052.112	-51
4054.58	-21
4057.046	-39
4059.51	-30
4061.972	-27
4064.432	-43
4066.891	-16
4069.348	-27
4071.803	-24
4074.256	-31
4076.708	-23
4079.158	-24
4081.606	-17
4084.052	-24
4086.497	-21
4088.939	-26
4091.38	-24
4093.819	-21
4096.257	-1
4098.693	-9
4101.127	-7
4103.559	4
4105.989	163
4108.418	163
4110.845	147
4113.27	159
4115.694	168
4118.115	162
4120.535	-24
4122.954	-18
4125.37	-18
4127.785	-24
4130.198	-15
4132.609	-23
4135.019	10
4137.427	1
4139.833	8
4142.237	-6
