Data from 2018-3-6_conc=6_n=1_RamanShift_01.txt Node
Date: Tue Mar 06 14:53:48 GMT+02:00 2018
User: LAB3
Spectrometer: QEPB0276
Trigger mode: 0
Integration Time (sec): 3.000000E1
Scans to average: 1
Electric dark correction enabled: true
Nonlinearity correction enabled: false
Boxcar width: 0
XAxis mode: Raman Shifts
Number of Pixels in Spectrum: 1044
>>>>>Begin Spectral Data<<<<<
160.701	51.25
166.742	64.25
172.777	101.25
178.805	176.25
184.826	403.25
190.841	822.25
196.849	1276.25
202.85	1625.25
208.845	1728.25
214.833	1704.25
220.815	1664.25
226.789	1626.25
232.758	1629.25
238.719	1602.25
244.674	1573.25
250.623	1556.25
256.565	1515.25
262.5	1504.25
268.429	1484.25
274.351	1463.25
280.267	1458.25
286.176	1437.25
292.079	1440.25
297.975	1435.25
303.865	1424.25
309.748	1425.25
315.625	1418.25
321.495	1418.25
327.359	1404.25
333.217	1401.25
339.068	1402.25
344.912	1424.25
350.751	1412.25
356.583	1413.25
362.408	1429.25
368.227	1435.25
374.04	1435.25
379.847	1446.25
385.647	1453.25
391.44	1436.25
397.228	1455.25
403.009	1454.25
408.784	1458.25
414.553	1480.25
420.315	1478.25
426.071	1441.25
431.821	1482.25
437.565	1470.25
443.302	1461.25
449.033	1446.25
454.758	1454.25
460.477	1421.25
466.189	1428.25
471.896	1402.25
477.596	1398.25
483.29	1371.25
488.978	1377.25
494.66	1369.25
500.335	1337.25
506.005	1272.25
511.668	1218.25
517.325	1139.25
522.977	1099.25
528.622	1056.25
534.261	1035.25
539.894	1010.25
545.521	1002.25
551.141	974.25
556.756	963.25
562.365	947.25
567.968	952.25
573.565	926.25
579.155	951.25
584.74	939.25
590.319	942.25
595.892	936.25
601.459	938.25
607.02	926.25
612.575	919.25
618.124	916.25
623.667	884.25
629.204	880.25
634.735	871.25
640.261	857.25
645.781	824.25
651.294	834.25
656.802	839.25
662.304	846.25
667.8	850.25
673.29	840.25
678.775	829.25
684.254	826.25
689.726	793.25
695.193	822.25
700.655	812.25
706.11	795.25
711.56	802.25
717.004	799.25
722.442	780.25
727.874	782.25
733.301	805.25
738.722	768.25
744.137	769.25
749.547	760.25
754.951	778.25
760.349	768.25
765.741	781.25
771.128	792.25
776.509	792.25
781.885	815.25
787.254	817.25
792.618	808.25
797.977	817.25
803.33	822.25
808.677	796.25
814.019	808.25
819.355	803.25
824.686	775.25
830.011	778.25
835.33	800.25
840.644	806.25
845.952	765.25
851.255	769.25
856.552	769.25
861.844	750.25
867.13	743.25
872.41	738.25
877.686	722.25
882.955	731.25
888.219	720.25
893.478	694.25
898.731	700.25
903.979	702.25
909.221	687.25
914.458	673.25
919.69	676.25
924.916	671.25
930.136	668.25
935.351	673.25
940.561	681.25
945.766	667.25
950.965	678.25
956.158	667.25
961.347	659.25
966.529	664.25
971.707	666.25
976.879	645.25
982.046	627.25
987.208	617.25
992.364	640.25
997.515	623.25
1002.66	637.25
1007.801	627.25
1012.936	639.25
1018.066	623.25
1023.19	637.25
1028.309	639.25
1033.423	642.25
1038.532	644.25
1043.636	635.25
1048.734	631.25
1053.827	617.25
1058.915	617.25
1063.998	616.25
1069.075	609.25
1074.147	625.25
1079.214	599.25
1084.276	624.25
1089.333	618.25
1094.385	624.25
1099.431	610.25
1104.472	618.25
1109.509	594.25
1114.54	588.25
1119.565	577.25
1124.586	587.25
1129.602	569.25
1134.613	542.25
1139.618	557.25
1144.619	557.25
1149.614	568.25
1154.604	564.25
1159.589	560.25
1164.57	581.25
1169.545	572.25
1174.515	583.25
1179.48	564.25
1184.44	579.25
1189.395	578.25
1194.345	552.25
1199.29	563.25
1204.23	549.25
1209.165	546.25
1214.095	565.25
1219.021	555.25
1223.941	542.25
1228.856	551.25
1233.766	565.25
1238.672	572.25
1243.572	570.25
1248.467	569.25
1253.358	559.25
1258.244	542.25
1263.124	565.25
1268	549.25
1272.871	509.25
1277.737	513.25
1282.599	517.25
1287.455	505.25
1292.306	512.25
1297.153	493.25
1301.995	517.25
1306.832	516.25
1311.664	520.25
1316.491	503.25
1321.314	510.25
1326.132	499.25
1330.945	508.25
1335.753	492.25
1340.556	487.25
1345.354	473.25
1350.148	475.25
1354.937	470.25
1359.722	450.25
1364.501	458.25
1369.276	465.25
1374.046	473.25
1378.811	443.25
1383.572	465.25
1388.327	454.25
1393.079	438.25
1397.825	440.25
1402.567	437.25
1407.304	434.25
1412.036	426.25
1416.764	443.25
1421.487	425.25
1426.205	416.25
1430.919	433.25
1435.628	432.25
1440.333	420.25
1445.032	435.25
1449.727	447.25
1454.418	452.25
1459.104	451.25
1463.785	431.25
1468.462	436.25
1473.134	419.25
1477.802	415.25
1482.465	392.25
1487.123	406.25
1491.777	387.25
1496.426	379.25
1501.071	403.25
1505.711	394.25
1510.347	404.25
1514.978	405.25
1519.604	399.25
1524.226	421.25
1528.844	392.25
1533.457	409.25
1538.065	403.25
1542.669	403.25
1547.269	403.25
1551.864	404.25
1556.454	383.25
1561.041	390.25
1565.622	391.25
1570.199	396.25
1574.772	402.25
1579.34	406.25
1583.904	413.25
1588.464	422.25
1593.019	426.25
1597.569	404.25
1602.115	394.25
1606.657	397.25
1611.195	416.25
1615.728	413.25
1620.256	400.25
1624.78	370.25
1629.3	400.25
1633.816	408.25
1638.327	389.25
1642.834	402.25
1647.336	383.25
1651.834	420.25
1656.328	409.25
1660.817	410.25
1665.302	386.25
1669.783	378.25
1674.259	372.25
1678.732	380.25
1683.199	369.25
1687.663	348.25
1692.122	354.25
1696.577	343.25
1701.028	344.25
1705.474	322.25
1709.917	314.25
1714.355	317.25
1718.788	307.25
1723.218	304.25
1727.643	289.25
1732.064	300.25
1736.481	272.25
1740.893	291.25
1745.301	287.25
1749.705	261.25
1754.105	270.25
1758.501	255.25
1762.893	263.25
1767.28	239.25
1771.663	251.25
1776.042	243.25
1780.417	240.25
1784.787	248.25
1789.154	243.25
1793.516	246.25
1797.874	244.25
1802.228	235.25
1806.578	231.25
1810.924	241.25
1815.266	129.25
1819.603	243.25
1823.937	225.25
1828.266	233.25
1832.591	239.25
1836.913	229.25
1841.23	215.25
1845.543	216.25
1849.852	232.25
1854.156	225.25
1858.457	223.25
1862.754	227.25
1867.047	226.25
1871.335	232.25
1875.62	226.25
1879.9	233.25
1884.177	221.25
1888.449	229.25
1892.718	223.25
1896.982	223.25
1901.243	206.25
1905.499	212.25
1909.752	201.25
1914	191.25
1918.245	218.25
1922.485	220.25
1926.722	206.25
1930.954	203.25
1935.183	208.25
1939.408	217.25
1943.628	217.25
1947.845	204.25
1952.058	207.25
1956.267	197.25
1960.472	213.25
1964.673	200.25
1968.87	197.25
1973.063	193.25
1977.252	201.25
1981.438	189.25
1985.619	186.25
1989.797	184.25
1993.971	186.25
1998.14	200.25
2002.306	184.25
2006.469	197.25
2010.627	185.25
2014.781	172.25
2018.932	180.25
2023.078	198.25
2027.221	187.25
2031.36	175.25
2035.495	173.25
2039.627	182.25
2043.754	179.25
2047.878	177.25
2051.998	168.25
2056.114	166.25
2060.226	171.25
2064.334	174.25
2068.439	173.25
2072.54	170.25
2076.637	157.25
2080.73	170.25
2084.82	168.25
2088.906	157.25
2092.988	162.25
2097.066	168.25
2101.14	172.25
2105.211	168.25
2109.278	162.25
2113.342	157.25
2117.401	149.25
2121.457	145.25
2125.509	141.25
2129.558	154.25
2133.602	154.25
2137.643	156.25
2141.681	146.25
2145.714	158.25
2149.744	155.25
2153.77	151.25
2157.793	137.25
2161.812	120.25
2165.827	126.25
2169.838	148.25
2173.846	138.25
2177.851	124.25
2181.851	140.25
2185.848	126.25
2189.841	135.25
2193.831	128.25
2197.817	131.25
2201.799	127.25
2205.778	112.25
2209.753	113.25
2213.725	112.25
2217.693	118.25
2221.657	112.25
2225.618	127.25
2229.575	120.25
2233.529	125.25
2237.479	120.25
2241.425	113.25
2245.368	103.25
2249.307	116.25
2253.243	105.25
2257.175	123.25
2261.104	105.25
2265.029	111.25
2268.95	107.25
2272.868	104.25
2276.783	104.25
2280.694	106.25
2284.601	106.25
2288.505	104.25
2292.405	115.25
2296.302	81.25
2300.195	94.25
2304.085	62.25
2307.971	92.25
2311.854	68.25
2315.734	88.25
2319.609	92.25
2323.482	64.25
2327.351	78.25
2331.216	84.25
2335.078	88.25
2338.937	85.25
2342.792	75.25
2346.643	77.25
2350.492	84.25
2354.336	79.25
2358.178	89.25
2362.015	81.25
2365.85	72.25
2369.681	79.25
2373.508	80.25
2377.333	79.25
2381.153	74.25
2384.971	72.25
2388.785	82.25
2392.595	66.25
2396.402	74.25
2400.206	48.25
2404.007	59.25
2407.804	70.25
2411.597	70.25
2415.388	68.25
2419.174	63.25
2422.958	73.25
2426.738	69.25
2430.515	74.25
2434.289	63.25
2438.059	60.25
2441.825	61.25
2445.589	75.25
2449.349	54.25
2453.106	64.25
2456.859	63.25
2460.61	71.25
2464.356	57.25
2468.1	52.25
2471.84	56.25
2475.577	49.25
2479.311	52.25
2483.041	55.25
2486.768	64.25
2490.492	72.25
2494.213	56.25
2497.93	39.25
2501.644	38.25
2505.355	56.25
2509.062	51.25
2512.766	43.25
2516.467	44.25
2520.165	47.25
2523.859	34.25
2527.551	67.25
2531.239	38.25
2534.923	52.25
2538.605	48.25
2542.283	47.25
2545.958	48.25
2549.63	60.25
2553.299	57.25
2556.964	38.25
2560.626	45.25
2564.285	48.25
2567.941	38.25
2571.594	32.25
2575.243	51.25
2578.89	39.25
2582.533	44.25
2586.173	43.25
2589.809	45.25
2593.443	18.25
2597.073	40.25
2600.701	46.25
2604.325	38.25
2607.946	33.25
2611.564	45.25
2615.178	46.25
2618.79	43.25
2622.398	35.25
2626.004	38.25
2629.606	39.25
2633.205	29.25
2636.801	38.25
2640.394	36.25
2643.983	27.25
2647.57	25.25
2651.153	27.25
2654.734	42.25
2658.311	9.25
2661.885	24.25
2665.456	26.25
2669.025	25.25
2672.589	23.25
2676.151	42.25
2679.71	39.25
2683.266	29.25
2686.819	17.25
2690.368	31.25
2693.915	37.25
2697.458	25.25
2700.999	34.25
2704.536	31.25
2708.071	22.25
2711.602	35.25
2715.13	31.25
2718.656	9.25
2722.178	30.25
2725.697	20.25
2729.214	21.25
2732.727	25.25
2736.237	9.25
2739.744	18.25
2743.249	14.25
2746.75	24.25
2750.248	12.25
2753.743	22.25
2757.236	20.25
2760.725	27.25
2764.211	-0.75
2767.695	20.25
2771.175	18.25
2774.652	18.25
2778.127	14.25
2781.598	16.25
2785.067	15.25
2788.532	8.25
2791.995	15.25
2795.455	14.25
2798.911	21.25
2802.365	11.25
2805.816	19.25
2809.264	24.25
2812.709	10.25
2816.151	24.25
2819.59	11.25
2823.026	15.25
2826.46	13.25
2829.89	26.25
2833.318	-3.75
2836.742	21.25
2840.164	17.25
2843.583	15.25
2846.999	14.25
2850.412	23.25
2853.822	16.25
2857.229	32.25
2860.634	23.25
2864.035	9.25
2867.434	25.25
2870.83	24.25
2874.223	18.25
2877.613	14.25
2881	11.25
2884.385	22.25
2887.766	15.25
2891.145	18.25
2894.521	17.25
2897.894	11.25
2901.264	28.25
2904.631	19.25
2907.996	23.25
2911.358	28.25
2914.717	25.25
2918.073	18.25
2921.426	21.25
2924.777	5.25
2928.124	18.25
2931.469	28.25
2934.811	12.25
2938.15	34.25
2941.487	26.25
2944.821	50.25
2948.152	25.25
2951.48	40.25
2954.805	16.25
2958.128	41.25
2961.447	26.25
2964.765	47.25
2968.079	31.25
2971.39	35.25
2974.699	34.25
2978.005	35.25
2981.308	27.25
2984.609	19.25
2987.907	41.25
2991.202	45.25
2994.494	24.25
2997.784	39.25
3001.07	31.25
3004.355	31.25
3007.636	38.25
3010.915	36.25
3014.191	34.25
3017.464	35.25
3020.734	39.25
3024.002	42.25
3027.267	36.25
3030.53	45.25
3033.789	38.25
3037.046	37.25
3040.301	33.25
3043.552	38.25
3046.801	44.25
3050.048	55.25
3053.291	64.25
3056.532	51.25
3059.771	39.25
3063.006	62.25
3066.239	51.25
3069.469	61.25
3072.697	51.25
3075.922	47.25
3079.144	54.25
3082.364	76.25
3085.581	60.25
3088.795	84.25
3092.007	74.25
3095.216	76.25
3098.423	75.25
3101.627	49.25
3104.828	74.25
3108.026	70.25
3111.222	95.25
3114.416	99.25
3117.607	85.25
3120.795	86.25
3123.98	84.25
3127.163	69.25
3130.344	85.25
3133.521	87.25
3136.696	103.25
3139.869	96.25
3143.039	86.25
3146.206	115.25
3149.371	111.25
3152.533	106.25
3155.693	97.25
3158.85	114.25
3162.005	116.25
3165.157	106.25
3168.306	107.25
3171.453	112.25
3174.597	101.25
3177.739	101.25
3180.878	114.25
3184.014	123.25
3187.149	115.25
3190.28	119.25
3193.409	124.25
3196.536	127.25
3199.659	130.25
3202.781	122.25
3205.9	106.25
3209.016	123.25
3212.13	119.25
3215.241	116.25
3218.35	119.25
3221.456	114.25
3224.56	94.25
3227.661	114.25
3230.76	106.25
3233.856	99.25
3236.95	106.25
3240.041	97.25
3243.13	101.25
3246.216	106.25
3249.3	114.25
3252.382	101.25
3255.46	94.25
3258.537	53.25
3261.611	89.25
3264.682	104.25
3267.751	95.25
3270.818	83.25
3273.882	100.25
3276.943	95.25
3280.002	116.25
3283.059	96.25
3286.113	94.25
3289.165	93.25
3292.214	82.25
3295.261	104.25
3298.306	81.25
3301.348	97.25
3304.387	82.25
3307.425	92.25
3310.459	84.25
3313.492	94.25
3316.521	86.25
3319.549	94.25
3322.574	89.25
3325.597	83.25
3328.617	78.25
3331.635	83.25
3334.65	66.25
3337.663	81.25
3340.674	72.25
3343.682	74.25
3346.688	85.25
3349.691	77.25
3352.692	80.25
3355.691	85.25
3358.687	76.25
3361.681	78.25
3364.673	69.25
3367.662	81.25
3370.649	83.25
3373.633	61.25
3376.615	80.25
3379.595	62.25
3382.572	66.25
3385.547	63.25
3388.52	54.25
3391.49	66.25
3394.458	62.25
3397.424	69.25
3400.387	49.25
3403.348	66.25
3406.307	63.25
3409.263	61.25
3412.217	70.25
3415.168	63.25
3418.118	67.25
3421.065	56.25
3424.009	64.25
3426.951	55.25
3429.891	41.25
3432.829	49.25
3435.764	52.25
3438.697	42.25
3441.628	55.25
3444.557	36.25
3447.483	37.25
3450.407	45.25
3453.328	35.25
3456.247	40.25
3459.164	27.25
3462.079	46.25
3464.991	34.25
3467.902	33.25
3470.809	33.25
3473.715	36.25
3476.618	24.25
3479.519	30.25
3482.418	11.25
3485.315	17.25
3488.209	18.25
3491.101	22.25
3493.99	7.25
3496.878	15.25
3499.763	18.25
3502.646	16.25
3505.527	5.25
3508.405	9.25
3511.281	-3.75
3514.155	9.25
3517.027	1.25
3519.897	-5.75
3522.764	10.25
3525.629	-15.75
3528.492	-3.75
3531.352	0.25
3534.211	-1.75
3537.067	-8.75
3539.921	-6.75
3542.773	1.25
3545.622	-12.75
3548.469	-14.75
3551.315	-19.75
3554.157	-12.75
3556.998	-21.75
3559.837	-11.75
3562.673	-7.75
3565.507	-17.75
3568.339	-15.75
3571.169	-16.75
3573.996	-11.75
3576.822	-25.75
3579.645	-21.75
3582.466	-22.75
3585.285	-10.75
3588.101	-17.75
3590.916	-21.75
3593.728	-15.75
3596.538	-18.75
3599.346	-12.75
3602.152	-31.75
3604.956	-20.75
3607.757	-19.75
3610.556	-37.75
3613.354	-19.75
3616.149	-21.75
3618.942	-21.75
3621.732	-20.75
3624.521	-25.75
3627.307	-32.75
3630.092	-33.75
3632.874	-18.75
3635.654	-28.75
3638.432	-28.75
3641.208	-31.75
3643.982	-29.75
3646.753	-19.75
3649.523	-52.75
3652.29	-25.75
3655.055	-22.75
3657.818	-26.75
3660.579	-30.75
3663.338	-39.75
3666.095	-34.75
3668.849	-46.75
3671.602	-22.75
3674.352	-35.75
3677.101	-19.75
3679.847	-20.75
3682.591	-36.75
3685.333	-37.75
3688.073	-28.75
3690.811	-37.75
3693.547	-43.75
3696.281	-42.75
3699.013	-31.75
3701.742	-33.75
3704.47	-41.75
3707.195	-27.75
3709.919	-28.75
3712.64	-33.75
3715.359	-45.75
3718.076	-18.75
3720.792	-34.75
3723.505	-31.75
3726.216	-18.75
3728.925	-38.75
3731.632	-41.75
3734.336	-31.75
3737.039	-28.75
3739.74	-35.75
3742.439	-57.75
3745.136	-30.75
3747.83	-25.75
3750.523	-28.75
3753.213	-88.75
3755.902	-36.75
3758.589	-48.75
3761.273	-37.75
3763.956	-23.75
3766.636	-47.75
3769.315	-25.75
3771.991	-35.75
3774.665	-39.75
3777.338	-32.75
3780.008	-41.75
3782.677	-32.75
3785.343	-47.75
3788.007	-50.75
3790.67	-25.75
3793.33	-46.75
3795.989	-34.75
3798.645	-26.75
3801.299	-41.75
3803.952	-44.75
3806.602	-38.75
3809.251	-28.75
3811.897	-30.75
3814.542	-33.75
3817.184	-38.75
3819.825	-28.75
3822.463	-39.75
3825.1	-35.75
3827.735	-32.75
3830.367	-42.75
3832.998	-24.75
3835.627	-35.75
3838.253	-29.75
3840.878	-34.75
3843.501	-22.75
3846.122	-33.75
3848.741	-26.75
3851.358	-28.75
3853.973	-44.75
3856.586	-26.75
3859.197	-38.75
3861.806	-34.75
3864.414	-47.75
3867.019	-37.75
3869.622	-23.75
3872.224	-20.75
3874.823	-10.75
3877.421	12.25
3880.016	29.25
3882.61	54.25
3885.202	67.25
3887.792	46.25
3890.38	11.25
3892.966	-15.75
3895.55	-35.75
3898.132	-23.75
3900.713	-23.75
3903.291	-31.75
3905.868	-37.75
3908.442	-34.75
3911.015	-33.75
3913.586	-38.75
3916.155	-33.75
3918.722	-38.75
3921.287	-41.75
3923.85	-50.75
3926.411	-37.75
3928.971	-41.75
3931.528	-31.75
3934.084	-36.75
3936.638	-48.75
3939.19	-35.75
3941.74	-31.75
3944.288	-34.75
3946.834	-34.75
3949.378	-28.75
3951.921	-39.75
3954.462	-35.75
3957	-33.75
3959.537	-22.75
3962.072	-34.75
3964.606	-50.75
3967.137	-36.75
3969.667	-38.75
3972.194	-25.75
3974.72	-39.75
3977.244	-57.75
3979.766	-39.75
3982.286	-40.75
3984.805	-30.75
3987.321	-21.75
3989.836	-31.75
3992.349	-40.75
3994.86	-36.75
3997.369	-39.75
3999.877	-36.75
4002.382	-36.75
4004.886	-27.75
4007.388	-29.75
4009.888	-24.75
4012.386	-25.75
4014.883	-31.75
4017.377	-37.75
4019.87	-35.75
4022.361	-45.75
4024.85	-30.75
4027.338	-30.75
4029.823	-41.75
4032.307	-37.75
4034.789	-35.75
4037.269	-35.75
4039.747	-47.75
4042.224	-22.75
4044.699	-39.75
4047.172	-39.75
4049.643	-28.75
4052.112	-56.75
4054.58	-31.75
4057.046	-45.75
4059.51	-36.75
4061.972	-34.75
4064.432	-50.75
4066.891	-24.75
4069.348	-26.75
4071.803	-27.75
4074.256	-34.75
4076.708	-26.75
4079.158	-28.75
4081.606	-18.75
4084.052	-35.75
4086.497	-28.75
4088.939	-31.75
4091.38	-37.75
4093.819	-26.75
4096.257	-0.75
4098.693	-3.75
4101.127	-4.75
4103.559	1.25
4105.989	64.25
4108.418	61.25
4110.845	51.25
4113.27	55.25
4115.694	56.25
4118.115	42.25
4120.535	-29.75
4122.954	-28.75
4125.37	-21.75
4127.785	-31.75
4130.198	-26.75
4132.609	-27.75
4135.019	6.25
4137.427	2.25
4139.833	4.25
4142.237	-4.75
