Data from 2018-3-6_conc=3_n=8_RamanShift_02.txt Node
Date: Tue Mar 06 13:36:49 GMT+02:00 2018
User: LAB3
Spectrometer: QEPB0276
Trigger mode: 0
Integration Time (sec): 3.000000E1
Scans to average: 1
Electric dark correction enabled: true
Nonlinearity correction enabled: false
Boxcar width: 0
XAxis mode: Raman Shifts
Number of Pixels in Spectrum: 1044
>>>>>Begin Spectral Data<<<<<
160.701	123.12
166.742	148.12
172.777	235.12
178.805	450.12
184.826	1018.12
190.841	2024.12
196.849	3211.12
202.85	4119.12
208.845	4424.12
214.833	4421.12
220.815	4395.12
226.789	4399.12
232.758	4429.12
238.719	4440.12
244.674	4419.12
250.623	4420.12
256.565	4334.12
262.5	4313.12
268.429	4310.12
274.351	4271.12
280.267	4264.12
286.176	4274.12
292.079	4280.12
297.975	4288.12
303.865	4290.12
309.748	4292.12
315.625	4313.12
321.495	4341.12
327.359	4318.12
333.217	4354.12
339.068	4345.12
344.912	4372.12
350.751	4388.12
356.583	4396.12
362.408	4430.12
368.227	4428.12
374.04	4451.12
379.847	4492.12
385.647	4514.12
391.44	4533.12
397.228	4536.12
403.009	4578.12
408.784	4597.12
414.553	4628.12
420.315	4660.12
426.071	4620.12
431.821	4647.12
437.565	4645.12
443.302	4595.12
449.033	4596.12
454.758	4594.12
460.477	4522.12
466.189	4506.12
471.896	4451.12
477.596	4448.12
483.29	4410.12
488.978	4390.12
494.66	4359.12
500.335	4246.12
506.005	4056.12
511.668	3898.12
517.325	3654.12
522.977	3518.12
528.622	3416.12
534.261	3313.12
539.894	3265.12
545.521	3211.12
551.141	3176.12
556.756	3119.12
562.365	3107.12
567.968	3092.12
573.565	3076.12
579.155	3070.12
584.74	3007.12
590.319	3030.12
595.892	3039.12
601.459	3042.12
607.02	3031.12
612.575	2996.12
618.124	2952.12
623.667	2926.12
629.204	2891.12
634.735	2859.12
640.261	2814.12
645.781	2763.12
651.294	2767.12
656.802	2744.12
662.304	2774.12
667.8	2751.12
673.29	2734.12
678.775	2750.12
684.254	2731.12
689.726	2695.12
695.193	2692.12
700.655	2653.12
706.11	2649.12
711.56	2641.12
717.004	2629.12
722.442	2601.12
727.874	2614.12
733.301	2625.12
738.722	2607.12
744.137	2587.12
749.547	2585.12
754.951	2608.12
760.349	2605.12
765.741	2611.12
771.128	2628.12
776.509	2655.12
781.885	2691.12
787.254	2719.12
792.618	2716.12
797.977	2720.12
803.33	2698.12
808.677	2654.12
814.019	2654.12
819.355	2610.12
824.686	2630.12
830.011	2589.12
835.33	2582.12
840.644	2578.12
845.952	2537.12
851.255	2532.12
856.552	2495.12
861.844	2475.12
867.13	2436.12
872.41	2436.12
877.686	2410.12
882.955	2401.12
888.219	2355.12
893.478	2333.12
898.731	2320.12
903.979	2296.12
909.221	2262.12
914.458	2249.12
919.69	2228.12
924.916	2239.12
930.136	2250.12
935.351	2240.12
940.561	2240.12
945.766	2244.12
950.965	2255.12
956.158	2209.12
961.347	2190.12
966.529	2153.12
971.707	2170.12
976.879	2111.12
982.046	2083.12
987.208	2084.12
992.364	2082.12
997.515	2079.12
1002.66	2092.12
1007.801	2116.12
1012.936	2150.12
1018.066	2132.12
1023.19	2136.12
1028.309	2160.12
1033.423	2170.12
1038.532	2161.12
1043.636	2142.12
1048.734	2111.12
1053.827	2099.12
1058.915	2083.12
1063.998	2077.12
1069.075	2055.12
1074.147	2065.12
1079.214	2053.12
1084.276	2061.12
1089.333	2103.12
1094.385	2096.12
1099.431	2074.12
1104.472	2083.12
1109.509	2038.12
1114.54	2011.12
1119.565	1974.12
1124.586	1978.12
1129.602	1936.12
1134.613	1892.12
1139.618	1913.12
1144.619	1898.12
1149.614	1909.12
1154.604	1910.12
1159.589	1923.12
1164.57	1923.12
1169.545	1948.12
1174.515	1951.12
1179.48	1935.12
1184.44	1902.12
1189.395	1914.12
1194.345	1876.12
1199.29	1896.12
1204.23	1865.12
1209.165	1855.12
1214.095	1880.12
1219.021	1898.12
1223.941	1893.12
1228.856	1886.12
1233.766	1897.12
1238.672	1911.12
1243.572	1904.12
1248.467	1906.12
1253.358	1868.12
1258.244	1810.12
1263.124	1817.12
1268	1785.12
1272.871	1738.12
1277.737	1753.12
1282.599	1727.12
1287.455	1741.12
1292.306	1735.12
1297.153	1721.12
1301.995	1726.12
1306.832	1746.12
1311.664	1734.12
1316.491	1750.12
1321.314	1742.12
1326.132	1703.12
1330.945	1698.12
1335.753	1673.12
1340.556	1640.12
1345.354	1607.12
1350.148	1595.12
1354.937	1570.12
1359.722	1553.12
1364.501	1559.12
1369.276	1574.12
1374.046	1571.12
1378.811	1532.12
1383.572	1543.12
1388.327	1552.12
1393.079	1517.12
1397.825	1525.12
1402.567	1507.12
1407.304	1492.12
1412.036	1498.12
1416.764	1481.12
1421.487	1471.12
1426.205	1450.12
1430.919	1481.12
1435.628	1489.12
1440.333	1474.12
1445.032	1500.12
1449.727	1496.12
1454.418	1510.12
1459.104	1518.12
1463.785	1466.12
1468.462	1470.12
1473.134	1445.12
1477.802	1421.12
1482.465	1380.12
1487.123	1381.12
1491.777	1356.12
1496.426	1349.12
1501.071	1373.12
1505.711	1374.12
1510.347	1369.12
1514.978	1401.12
1519.604	1396.12
1524.226	1407.12
1528.844	1389.12
1533.457	1382.12
1538.065	1383.12
1542.669	1366.12
1547.269	1349.12
1551.864	1343.12
1556.454	1338.12
1561.041	1349.12
1565.622	1400.12
1570.199	1359.12
1574.772	1363.12
1579.34	1374.12
1583.904	1381.12
1588.464	1409.12
1593.019	1403.12
1597.569	1384.12
1602.115	1387.12
1606.657	1374.12
1611.195	1384.12
1615.728	1390.12
1620.256	1361.12
1624.78	1335.12
1629.3	1365.12
1633.816	1378.12
1638.327	1364.12
1642.834	1392.12
1647.336	1382.12
1651.834	1416.12
1656.328	1402.12
1660.817	1381.12
1665.302	1360.12
1669.783	1358.12
1674.259	1328.12
1678.732	1307.12
1683.199	1279.12
1687.663	1221.12
1692.122	1221.12
1696.577	1192.12
1701.028	1196.12
1705.474	1134.12
1709.917	1123.12
1714.355	1105.12
1718.788	1098.12
1723.218	1075.12
1727.643	1059.12
1732.064	1062.12
1736.481	1051.12
1740.893	1041.12
1745.301	1001.12
1749.705	953.12
1754.105	972.12
1758.501	945.12
1762.893	947.12
1767.28	892.12
1771.663	901.12
1776.042	891.12
1780.417	891.12
1784.787	900.12
1789.154	896.12
1793.516	894.12
1797.874	879.12
1802.228	881.12
1806.578	876.12
1810.924	889.12
1815.266	754.12
1819.603	864.12
1823.937	844.12
1828.266	834.12
1832.591	826.12
1836.913	829.12
1841.23	830.12
1845.543	811.12
1849.852	828.12
1854.156	813.12
1858.457	813.12
1862.754	805.12
1867.047	822.12
1871.335	837.12
1875.62	832.12
1879.9	833.12
1884.177	805.12
1888.449	809.12
1892.718	796.12
1896.982	804.12
1901.243	776.12
1905.499	783.12
1909.752	792.12
1914	759.12
1918.245	789.12
1922.485	789.12
1926.722	781.12
1930.954	787.12
1935.183	789.12
1939.408	800.12
1943.628	797.12
1947.845	783.12
1952.058	772.12
1956.267	775.12
1960.472	754.12
1964.673	750.12
1968.87	740.12
1973.063	715.12
1977.252	723.12
1981.438	697.12
1985.619	705.12
1989.797	689.12
1993.971	711.12
1998.14	696.12
2002.306	696.12
2006.469	691.12
2010.627	671.12
2014.781	675.12
2018.932	672.12
2023.078	692.12
2027.221	679.12
2031.36	658.12
2035.495	657.12
2039.627	649.12
2043.754	643.12
2047.878	647.12
2051.998	639.12
2056.114	629.12
2060.226	628.12
2064.334	630.12
2068.439	644.12
2072.54	641.12
2076.637	637.12
2080.73	640.12
2084.82	629.12
2088.906	629.12
2092.988	631.12
2097.066	630.12
2101.14	628.12
2105.211	621.12
2109.278	622.12
2113.342	609.12
2117.401	584.12
2121.457	586.12
2125.509	586.12
2129.558	577.12
2133.602	578.12
2137.643	576.12
2141.681	568.12
2145.714	564.12
2149.744	572.12
2153.77	569.12
2157.793	556.12
2161.812	526.12
2165.827	512.12
2169.838	547.12
2173.846	519.12
2177.851	509.12
2181.851	529.12
2185.848	506.12
2189.841	500.12
2193.831	489.12
2197.817	503.12
2201.799	483.12
2205.778	477.12
2209.753	473.12
2213.725	473.12
2217.693	481.12
2221.657	463.12
2225.618	470.12
2229.575	474.12
2233.529	461.12
2237.479	463.12
2241.425	446.12
2245.368	438.12
2249.307	435.12
2253.243	440.12
2257.175	429.12
2261.104	416.12
2265.029	420.12
2268.95	412.12
2272.868	401.12
2276.783	390.12
2280.694	398.12
2284.601	402.12
2288.505	389.12
2292.405	402.12
2296.302	373.12
2300.195	376.12
2304.085	336.12
2307.971	369.12
2311.854	338.12
2315.734	357.12
2319.609	354.12
2323.482	335.12
2327.351	337.12
2331.216	338.12
2335.078	345.12
2338.937	342.12
2342.792	326.12
2346.643	334.12
2350.492	346.12
2354.336	338.12
2358.178	341.12
2362.015	330.12
2365.85	334.12
2369.681	333.12
2373.508	331.12
2377.333	337.12
2381.153	333.12
2384.971	329.12
2388.785	324.12
2392.595	311.12
2396.402	306.12
2400.206	296.12
2404.007	312.12
2407.804	316.12
2411.597	313.12
2415.388	303.12
2419.174	313.12
2422.958	312.12
2426.738	300.12
2430.515	302.12
2434.289	293.12
2438.059	290.12
2441.825	296.12
2445.589	309.12
2449.349	276.12
2453.106	294.12
2456.859	299.12
2460.61	289.12
2464.356	277.12
2468.1	271.12
2471.84	277.12
2475.577	268.12
2479.311	265.12
2483.041	270.12
2486.768	283.12
2490.492	285.12
2494.213	269.12
2497.93	259.12
2501.644	257.12
2505.355	260.12
2509.062	269.12
2512.766	268.12
2516.467	249.12
2520.165	250.12
2523.859	240.12
2527.551	280.12
2531.239	245.12
2534.923	254.12
2538.605	253.12
2542.283	251.12
2545.958	248.12
2549.63	256.12
2553.299	266.12
2556.964	237.12
2560.626	244.12
2564.285	241.12
2567.941	228.12
2571.594	229.12
2575.243	238.12
2578.89	220.12
2582.533	236.12
2586.173	235.12
2589.809	230.12
2593.443	208.12
2597.073	216.12
2600.701	229.12
2604.325	221.12
2607.946	211.12
2611.564	224.12
2615.178	221.12
2618.79	220.12
2622.398	214.12
2626.004	216.12
2629.606	224.12
2633.205	194.12
2636.801	213.12
2640.394	205.12
2643.983	202.12
2647.57	196.12
2651.153	188.12
2654.734	204.12
2658.311	173.12
2661.885	178.12
2665.456	177.12
2669.025	186.12
2672.589	178.12
2676.151	190.12
2679.71	189.12
2683.266	182.12
2686.819	177.12
2690.368	180.12
2693.915	184.12
2697.458	168.12
2700.999	176.12
2704.536	171.12
2708.071	168.12
2711.602	167.12
2715.13	171.12
2718.656	149.12
2722.178	160.12
2725.697	146.12
2729.214	145.12
2732.727	150.12
2736.237	146.12
2739.744	153.12
2743.249	146.12
2746.75	160.12
2750.248	144.12
2753.743	151.12
2757.236	156.12
2760.725	156.12
2764.211	128.12
2767.695	149.12
2771.175	154.12
2774.652	156.12
2778.127	149.12
2781.598	144.12
2785.067	149.12
2788.532	137.12
2791.995	151.12
2795.455	149.12
2798.911	141.12
2802.365	135.12
2805.816	148.12
2809.264	155.12
2812.709	140.12
2816.151	157.12
2819.59	140.12
2823.026	143.12
2826.46	145.12
2829.89	149.12
2833.318	130.12
2836.742	144.12
2840.164	153.12
2843.583	149.12
2846.999	148.12
2850.412	153.12
2853.822	147.12
2857.229	166.12
2860.634	152.12
2864.035	142.12
2867.434	168.12
2870.83	169.12
2874.223	156.12
2877.613	163.12
2881	159.12
2884.385	163.12
2887.766	167.12
2891.145	170.12
2894.521	163.12
2897.894	156.12
2901.264	174.12
2904.631	172.12
2907.996	170.12
2911.358	181.12
2914.717	175.12
2918.073	164.12
2921.426	167.12
2924.777	157.12
2928.124	181.12
2931.469	188.12
2934.811	170.12
2938.15	200.12
2941.487	186.12
2944.821	210.12
2948.152	190.12
2951.48	200.12
2954.805	183.12
2958.128	198.12
2961.447	187.12
2964.765	207.12
2968.079	196.12
2971.39	202.12
2974.699	190.12
2978.005	198.12
2981.308	197.12
2984.609	193.12
2987.907	208.12
2991.202	209.12
2994.494	193.12
2997.784	214.12
3001.07	217.12
3004.355	211.12
3007.636	213.12
3010.915	220.12
3014.191	211.12
3017.464	219.12
3020.734	223.12
3024.002	225.12
3027.267	230.12
3030.53	231.12
3033.789	228.12
3037.046	230.12
3040.301	229.12
3043.552	243.12
3046.801	247.12
3050.048	261.12
3053.291	274.12
3056.532	270.12
3059.771	251.12
3063.006	277.12
3066.239	280.12
3069.469	292.12
3072.697	285.12
3075.922	292.12
3079.144	302.12
3082.364	336.12
3085.581	313.12
3088.795	351.12
3092.007	341.12
3095.216	340.12
3098.423	355.12
3101.627	334.12
3104.828	366.12
3108.026	355.12
3111.222	385.12
3114.416	393.12
3117.607	393.12
3120.795	396.12
3123.98	408.12
3127.163	398.12
3130.344	425.12
3133.521	418.12
3136.696	448.12
3139.869	449.12
3143.039	440.12
3146.206	474.12
3149.371	470.12
3152.533	460.12
3155.693	470.12
3158.85	483.12
3162.005	473.12
3165.157	482.12
3168.306	476.12
3171.453	491.12
3174.597	482.12
3177.739	479.12
3180.878	500.12
3184.014	490.12
3187.149	492.12
3190.28	489.12
3193.409	505.12
3196.536	504.12
3199.659	502.12
3202.781	499.12
3205.9	489.12
3209.016	494.12
3212.13	493.12
3215.241	486.12
3218.35	489.12
3221.456	488.12
3224.56	468.12
3227.661	477.12
3230.76	481.12
3233.856	469.12
3236.95	473.12
3240.041	455.12
3243.13	465.12
3246.216	460.12
3249.3	460.12
3252.382	464.12
3255.46	444.12
3258.537	394.12
3261.611	442.12
3264.682	454.12
3267.751	445.12
3270.818	429.12
3273.882	454.12
3276.943	438.12
3280.002	455.12
3283.059	430.12
3286.113	426.12
3289.165	421.12
3292.214	417.12
3295.261	432.12
3298.306	399.12
3301.348	416.12
3304.387	391.12
3307.425	406.12
3310.459	388.12
3313.492	398.12
3316.521	386.12
3319.549	387.12
3322.574	385.12
3325.597	379.12
3328.617	371.12
3331.635	360.12
3334.65	358.12
3337.663	368.12
3340.674	359.12
3343.682	356.12
3346.688	371.12
3349.691	366.12
3352.692	362.12
3355.691	372.12
3358.687	361.12
3361.681	366.12
3364.673	354.12
3367.662	355.12
3370.649	356.12
3373.633	329.12
3376.615	342.12
3379.595	324.12
3382.572	324.12
3385.547	315.12
3388.52	312.12
3391.49	312.12
3394.458	314.12
3397.424	314.12
3400.387	295.12
3403.348	300.12
3406.307	293.12
3409.263	296.12
3412.217	303.12
3415.168	294.12
3418.118	312.12
3421.065	289.12
3424.009	296.12
3426.951	274.12
3429.891	280.12
3432.829	274.12
3435.764	271.12
3438.697	250.12
3441.628	262.12
3444.557	244.12
3447.483	242.12
3450.407	245.12
3453.328	225.12
3456.247	228.12
3459.164	218.12
3462.079	222.12
3464.991	219.12
3467.902	203.12
3470.809	207.12
3473.715	203.12
3476.618	192.12
3479.519	181.12
3482.418	164.12
3485.315	168.12
3488.209	168.12
3491.101	155.12
3493.99	147.12
3496.878	152.12
3499.763	155.12
3502.646	157.12
3505.527	132.12
3508.405	132.12
3511.281	118.12
3514.155	120.12
3517.027	113.12
3519.897	114.12
3522.764	121.12
3525.629	88.12
3528.492	105.12
3531.352	100.12
3534.211	98.12
3537.067	91.12
3539.921	87.12
3542.773	89.12
3545.622	67.12
3548.469	70.12
3551.315	63.12
3554.157	69.12
3556.998	64.12
3559.837	59.12
3562.673	59.12
3565.507	47.12
3568.339	47.12
3571.169	51.12
3573.996	54.12
3576.822	26.12
3579.645	32.12
3582.466	37.12
3585.285	40.12
3588.101	39.12
3590.916	24.12
3593.728	38.12
3596.538	27.12
3599.346	32.12
3602.152	16.12
3604.956	21.12
3607.757	28.12
3610.556	9.12
3613.354	22.12
3616.149	23.12
3618.942	21.12
3621.732	24.12
3624.521	8.12
3627.307	4.12
3630.092	3.12
3632.874	14.12
3635.654	7.12
3638.432	-1.88
3641.208	-0.88
3643.982	1.12
3646.753	6.12
3649.523	-22.88
3652.29	-3.88
3655.055	2.12
3657.818	-6.88
3660.579	-8.88
3663.338	-13.88
3666.095	-8.88
3668.849	-36.88
3671.602	-7.88
3674.352	-21.88
3677.101	-2.88
3679.847	-6.88
3682.591	-18.88
3685.333	-28.88
3688.073	-14.88
3690.811	-24.88
3693.547	-29.88
3696.281	-32.88
3699.013	-13.88
3701.742	-18.88
3704.47	-32.88
3707.195	-16.88
3709.919	-17.88
3712.64	-21.88
3715.359	-30.88
3718.076	-11.88
3720.792	-25.88
3723.505	-21.88
3726.216	-11.88
3728.925	-21.88
3731.632	-30.88
3734.336	-29.88
3737.039	-23.88
3739.74	-19.88
3742.439	-43.88
3745.136	-18.88
3747.83	-15.88
3750.523	-16.88
3753.213	-74.88
3755.902	-30.88
3758.589	-36.88
3761.273	-27.88
3763.956	-16.88
3766.636	-38.88
3769.315	-16.88
3771.991	-22.88
3774.665	-16.88
3777.338	189.12
3780.008	225.12
3782.677	-9.88
3785.343	-44.88
3788.007	-48.88
3790.67	-21.88
3793.33	-36.88
3795.989	-33.88
3798.645	-23.88
3801.299	-35.88
3803.952	-36.88
3806.602	-28.88
3809.251	-25.88
3811.897	-31.88
3814.542	-28.88
3817.184	-33.88
3819.825	-28.88
3822.463	-40.88
3825.1	-28.88
3827.735	-26.88
3830.367	-38.88
3832.998	-13.88
3835.627	-33.88
3838.253	-24.88
3840.878	-29.88
3843.501	-10.88
3846.122	-25.88
3848.741	-19.88
3851.358	-24.88
3853.973	-36.88
3856.586	-25.88
3859.197	-32.88
3861.806	-27.88
3864.414	-39.88
3867.019	-28.88
3869.622	-16.88
3872.224	-12.88
3874.823	-1.88
3877.421	29.12
3880.016	41.12
3882.61	82.12
3885.202	99.12
3887.792	72.12
3890.38	37.12
3892.966	-6.88
3895.55	-26.88
3898.132	-17.88
3900.713	-17.88
3903.291	-24.88
3905.868	-34.88
3908.442	-26.88
3911.015	-30.88
3913.586	-30.88
3916.155	-31.88
3918.722	-29.88
3921.287	-30.88
3923.85	-41.88
3926.411	-33.88
3928.971	-34.88
3931.528	-24.88
3934.084	-33.88
3936.638	-41.88
3939.19	-27.88
3941.74	-27.88
3944.288	-29.88
3946.834	-33.88
3949.378	-20.88
3951.921	-33.88
3954.462	-31.88
3957	-22.88
3959.537	-15.88
3962.072	-31.88
3964.606	-41.88
3967.137	-26.88
3969.667	-35.88
3972.194	-23.88
3974.72	-37.88
3977.244	-46.88
3979.766	-39.88
3982.286	-32.88
3984.805	-24.88
3987.321	-20.88
3989.836	-20.88
3992.349	-32.88
3994.86	-26.88
3997.369	-28.88
3999.877	-29.88
4002.382	-28.88
4004.886	-25.88
4007.388	-25.88
4009.888	-18.88
4012.386	-21.88
4014.883	-26.88
4017.377	-22.88
4019.87	-21.88
4022.361	-30.88
4024.85	-28.88
4027.338	-26.88
4029.823	-29.88
4032.307	-29.88
4034.789	-24.88
4037.269	-29.88
4039.747	-39.88
4042.224	-18.88
4044.699	-36.88
4047.172	-28.88
4049.643	-19.88
4052.112	-55.88
4054.58	-24.88
4057.046	-41.88
4059.51	-25.88
4061.972	-28.88
4064.432	-49.88
4066.891	-13.88
4069.348	-25.88
4071.803	-28.88
4074.256	-35.88
4076.708	-21.88
4079.158	-23.88
4081.606	-15.88
4084.052	-28.88
4086.497	-23.88
4088.939	-28.88
4091.38	-32.88
4093.819	-19.88
4096.257	-0.88
4098.693	-5.88
4101.127	-3.88
4103.559	0.12
4105.989	117.12
4108.418	113.12
4110.845	102.12
4113.27	108.12
4115.694	117.12
4118.115	106.12
4120.535	-26.88
4122.954	-21.88
4125.37	-18.88
4127.785	-25.88
4130.198	-17.88
4132.609	-22.88
4135.019	8.12
4137.427	0.12
4139.833	6.12
4142.237	-3.88
