Data from 2018-3-6_conc=6_n=8_RamanShift_02.txt Node
Date: Tue Mar 06 15:16:18 GMT+02:00 2018
User: LAB3
Spectrometer: QEPB0276
Trigger mode: 0
Integration Time (sec): 3.000000E1
Scans to average: 1
Electric dark correction enabled: true
Nonlinearity correction enabled: false
Boxcar width: 0
XAxis mode: Raman Shifts
Number of Pixels in Spectrum: 1044
>>>>>Begin Spectral Data<<<<<
160.701	38.5
166.742	54.5
172.777	78.5
178.805	159.5
184.826	365.5
190.841	750.5
196.849	1152.5
202.85	1452.5
208.845	1528.5
214.833	1517.5
220.815	1469.5
226.789	1454.5
232.758	1449.5
238.719	1438.5
244.674	1414.5
250.623	1403.5
256.565	1353.5
262.5	1338.5
268.429	1322.5
274.351	1301.5
280.267	1308.5
286.176	1294.5
292.079	1296.5
297.975	1279.5
303.865	1273.5
309.748	1275.5
315.625	1265.5
321.495	1284.5
327.359	1266.5
333.217	1272.5
339.068	1276.5
344.912	1254.5
350.751	1252.5
356.583	1273.5
362.408	1281.5
368.227	1306.5
374.04	1282.5
379.847	1300.5
385.647	1312.5
391.44	1298.5
397.228	1308.5
403.009	1295.5
408.784	1323.5
414.553	1333.5
420.315	1341.5
426.071	1310.5
431.821	1323.5
437.565	1324.5
443.302	1316.5
449.033	1294.5
454.758	1302.5
460.477	1288.5
466.189	1266.5
471.896	1276.5
477.596	1254.5
483.29	1239.5
488.978	1237.5
494.66	1227.5
500.335	1199.5
506.005	1152.5
511.668	1079.5
517.325	1013.5
522.977	971.5
528.622	938.5
534.261	914.5
539.894	893.5
545.521	878.5
551.141	861.5
556.756	852.5
562.365	849.5
567.968	846.5
573.565	840.5
579.155	836.5
584.74	822.5
590.319	828.5
595.892	826.5
601.459	834.5
607.02	833.5
612.575	826.5
618.124	809.5
623.667	784.5
629.204	782.5
634.735	763.5
640.261	762.5
645.781	720.5
651.294	741.5
656.802	736.5
662.304	755.5
667.8	749.5
673.29	729.5
678.775	724.5
684.254	724.5
689.726	710.5
695.193	722.5
700.655	707.5
706.11	707.5
711.56	713.5
717.004	707.5
722.442	683.5
727.874	696.5
733.301	704.5
738.722	689.5
744.137	703.5
749.547	689.5
754.951	685.5
760.349	685.5
765.741	696.5
771.128	703.5
776.509	712.5
781.885	726.5
787.254	731.5
792.618	736.5
797.977	741.5
803.33	732.5
808.677	721.5
814.019	708.5
819.355	705.5
824.686	693.5
830.011	686.5
835.33	708.5
840.644	706.5
845.952	666.5
851.255	683.5
856.552	676.5
861.844	662.5
867.13	631.5
872.41	637.5
877.686	643.5
882.955	638.5
888.219	624.5
893.478	622.5
898.731	612.5
903.979	608.5
909.221	599.5
914.458	598.5
919.69	587.5
924.916	601.5
930.136	603.5
935.351	587.5
940.561	600.5
945.766	592.5
950.965	602.5
956.158	591.5
961.347	583.5
966.529	570.5
971.707	578.5
976.879	563.5
982.046	555.5
987.208	537.5
992.364	561.5
997.515	556.5
1002.66	551.5
1007.801	550.5
1012.936	571.5
1018.066	544.5
1023.19	571.5
1028.309	566.5
1033.423	562.5
1038.532	582.5
1043.636	561.5
1048.734	553.5
1053.827	547.5
1058.915	543.5
1063.998	546.5
1069.075	533.5
1074.147	547.5
1079.214	531.5
1084.276	552.5
1089.333	545.5
1094.385	556.5
1099.431	530.5
1104.472	539.5
1109.509	531.5
1114.54	514.5
1119.565	510.5
1124.586	515.5
1129.602	498.5
1134.613	485.5
1139.618	481.5
1144.619	496.5
1149.614	496.5
1154.604	485.5
1159.589	495.5
1164.57	518.5
1169.545	516.5
1174.515	511.5
1179.48	503.5
1184.44	508.5
1189.395	510.5
1194.345	492.5
1199.29	503.5
1204.23	487.5
1209.165	475.5
1214.095	494.5
1219.021	478.5
1223.941	473.5
1228.856	490.5
1233.766	495.5
1238.672	501.5
1243.572	486.5
1248.467	501.5
1253.358	482.5
1258.244	466.5
1263.124	486.5
1268	493.5
1272.871	450.5
1277.737	457.5
1282.599	436.5
1287.455	440.5
1292.306	448.5
1297.153	430.5
1301.995	450.5
1306.832	450.5
1311.664	447.5
1316.491	443.5
1321.314	459.5
1326.132	427.5
1330.945	438.5
1335.753	430.5
1340.556	428.5
1345.354	412.5
1350.148	415.5
1354.937	412.5
1359.722	400.5
1364.501	400.5
1369.276	412.5
1374.046	411.5
1378.811	400.5
1383.572	409.5
1388.327	409.5
1393.079	384.5
1397.825	384.5
1402.567	393.5
1407.304	379.5
1412.036	377.5
1416.764	377.5
1421.487	359.5
1426.205	372.5
1430.919	377.5
1435.628	373.5
1440.333	371.5
1445.032	386.5
1449.727	385.5
1454.418	386.5
1459.104	388.5
1463.785	369.5
1468.462	384.5
1473.134	374.5
1477.802	359.5
1482.465	346.5
1487.123	356.5
1491.777	341.5
1496.426	339.5
1501.071	367.5
1505.711	349.5
1510.347	369.5
1514.978	365.5
1519.604	358.5
1524.226	370.5
1528.844	342.5
1533.457	372.5
1538.065	364.5
1542.669	356.5
1547.269	351.5
1551.864	356.5
1556.454	339.5
1561.041	339.5
1565.622	340.5
1570.199	347.5
1574.772	354.5
1579.34	359.5
1583.904	361.5
1588.464	374.5
1593.019	368.5
1597.569	349.5
1602.115	350.5
1606.657	347.5
1611.195	365.5
1615.728	361.5
1620.256	341.5
1624.78	324.5
1629.3	337.5
1633.816	345.5
1638.327	343.5
1642.834	351.5
1647.336	353.5
1651.834	366.5
1656.328	356.5
1660.817	347.5
1665.302	338.5
1669.783	336.5
1674.259	330.5
1678.732	335.5
1683.199	324.5
1687.663	309.5
1692.122	304.5
1696.577	305.5
1701.028	316.5
1705.474	286.5
1709.917	289.5
1714.355	279.5
1718.788	275.5
1723.218	270.5
1727.643	254.5
1732.064	267.5
1736.481	242.5
1740.893	264.5
1745.301	251.5
1749.705	224.5
1754.105	247.5
1758.501	228.5
1762.893	247.5
1767.28	215.5
1771.663	221.5
1776.042	221.5
1780.417	216.5
1784.787	228.5
1789.154	227.5
1793.516	215.5
1797.874	219.5
1802.228	208.5
1806.578	202.5
1810.924	220.5
1815.266	94.5
1819.603	218.5
1823.937	204.5
1828.266	203.5
1832.591	200.5
1836.913	197.5
1841.23	197.5
1845.543	191.5
1849.852	205.5
1854.156	195.5
1858.457	197.5
1862.754	194.5
1867.047	194.5
1871.335	208.5
1875.62	206.5
1879.9	198.5
1884.177	190.5
1888.449	194.5
1892.718	197.5
1896.982	203.5
1901.243	184.5
1905.499	196.5
1909.752	194.5
1914	166.5
1918.245	197.5
1922.485	196.5
1926.722	191.5
1930.954	180.5
1935.183	196.5
1939.408	199.5
1943.628	195.5
1947.845	187.5
1952.058	187.5
1956.267	175.5
1960.472	191.5
1964.673	185.5
1968.87	177.5
1973.063	173.5
1977.252	175.5
1981.438	168.5
1985.619	166.5
1989.797	155.5
1993.971	162.5
1998.14	168.5
2002.306	163.5
2006.469	172.5
2010.627	157.5
2014.781	162.5
2018.932	149.5
2023.078	167.5
2027.221	168.5
2031.36	156.5
2035.495	156.5
2039.627	157.5
2043.754	154.5
2047.878	146.5
2051.998	144.5
2056.114	151.5
2060.226	146.5
2064.334	155.5
2068.439	169.5
2072.54	162.5
2076.637	149.5
2080.73	148.5
2084.82	149.5
2088.906	145.5
2092.988	147.5
2097.066	151.5
2101.14	160.5
2105.211	152.5
2109.278	136.5
2113.342	139.5
2117.401	136.5
2121.457	127.5
2125.509	132.5
2129.558	141.5
2133.602	129.5
2137.643	131.5
2141.681	126.5
2145.714	135.5
2149.744	138.5
2153.77	127.5
2157.793	114.5
2161.812	96.5
2165.827	99.5
2169.838	127.5
2173.846	113.5
2177.851	112.5
2181.851	136.5
2185.848	115.5
2189.841	113.5
2193.831	104.5
2197.817	112.5
2201.799	111.5
2205.778	99.5
2209.753	102.5
2213.725	104.5
2217.693	105.5
2221.657	102.5
2225.618	112.5
2229.575	107.5
2233.529	109.5
2237.479	107.5
2241.425	96.5
2245.368	94.5
2249.307	100.5
2253.243	92.5
2257.175	106.5
2261.104	87.5
2265.029	97.5
2268.95	91.5
2272.868	86.5
2276.783	82.5
2280.694	88.5
2284.601	90.5
2288.505	81.5
2292.405	92.5
2296.302	67.5
2300.195	79.5
2304.085	51.5
2307.971	81.5
2311.854	60.5
2315.734	73.5
2319.609	76.5
2323.482	58.5
2327.351	68.5
2331.216	70.5
2335.078	72.5
2338.937	66.5
2342.792	60.5
2346.643	62.5
2350.492	69.5
2354.336	64.5
2358.178	68.5
2362.015	65.5
2365.85	63.5
2369.681	66.5
2373.508	65.5
2377.333	74.5
2381.153	60.5
2384.971	59.5
2388.785	65.5
2392.595	51.5
2396.402	56.5
2400.206	36.5
2404.007	47.5
2407.804	58.5
2411.597	62.5
2415.388	55.5
2419.174	52.5
2422.958	53.5
2426.738	46.5
2430.515	58.5
2434.289	39.5
2438.059	47.5
2441.825	49.5
2445.589	57.5
2449.349	37.5
2453.106	54.5
2456.859	56.5
2460.61	52.5
2464.356	42.5
2468.1	42.5
2471.84	39.5
2475.577	45.5
2479.311	38.5
2483.041	48.5
2486.768	58.5
2490.492	51.5
2494.213	46.5
2497.93	33.5
2501.644	32.5
2505.355	44.5
2509.062	44.5
2512.766	40.5
2516.467	33.5
2520.165	37.5
2523.859	22.5
2527.551	59.5
2531.239	27.5
2534.923	38.5
2538.605	31.5
2542.283	39.5
2545.958	39.5
2549.63	52.5
2553.299	49.5
2556.964	26.5
2560.626	35.5
2564.285	39.5
2567.941	24.5
2571.594	26.5
2575.243	35.5
2578.89	28.5
2582.533	32.5
2586.173	31.5
2589.809	33.5
2593.443	9.5
2597.073	34.5
2600.701	31.5
2604.325	27.5
2607.946	24.5
2611.564	37.5
2615.178	36.5
2618.79	35.5
2622.398	25.5
2626.004	32.5
2629.606	28.5
2633.205	20.5
2636.801	32.5
2640.394	28.5
2643.983	27.5
2647.57	25.5
2651.153	13.5
2654.734	32.5
2658.311	6.5
2661.885	18.5
2665.456	23.5
2669.025	14.5
2672.589	16.5
2676.151	28.5
2679.71	28.5
2683.266	20.5
2686.819	12.5
2690.368	20.5
2693.915	18.5
2697.458	13.5
2700.999	22.5
2704.536	19.5
2708.071	15.5
2711.602	18.5
2715.13	16.5
2718.656	2.5
2722.178	18.5
2725.697	6.5
2729.214	8.5
2732.727	18.5
2736.237	5.5
2739.744	10.5
2743.249	4.5
2746.75	11.5
2750.248	10.5
2753.743	12.5
2757.236	15.5
2760.725	20.5
2764.211	-11.5
2767.695	19.5
2771.175	17.5
2774.652	17.5
2778.127	9.5
2781.598	9.5
2785.067	16.5
2788.532	3.5
2791.995	16.5
2795.455	0.5
2798.911	17.5
2802.365	7.5
2805.816	15.5
2809.264	17.5
2812.709	11.5
2816.151	22.5
2819.59	1.5
2823.026	11.5
2826.46	12.5
2829.89	17.5
2833.318	-9.5
2836.742	5.5
2840.164	6.5
2843.583	8.5
2846.999	1.5
2850.412	10.5
2853.822	5.5
2857.229	14.5
2860.634	15.5
2864.035	-7.5
2867.434	13.5
2870.83	14.5
2874.223	1.5
2877.613	12.5
2881	2.5
2884.385	3.5
2887.766	9.5
2891.145	10.5
2894.521	13.5
2897.894	-0.5
2901.264	22.5
2904.631	12.5
2907.996	19.5
2911.358	22.5
2914.717	22.5
2918.073	12.5
2921.426	14.5
2924.777	0.5
2928.124	14.5
2931.469	23.5
2934.811	2.5
2938.15	26.5
2941.487	14.5
2944.821	30.5
2948.152	19.5
2951.48	32.5
2954.805	9.5
2958.128	33.5
2961.447	14.5
2964.765	37.5
2968.079	19.5
2971.39	23.5
2974.699	19.5
2978.005	23.5
2981.308	23.5
2984.609	14.5
2987.907	27.5
2991.202	31.5
2994.494	13.5
2997.784	23.5
3001.07	28.5
3004.355	21.5
3007.636	25.5
3010.915	29.5
3014.191	25.5
3017.464	30.5
3020.734	30.5
3024.002	35.5
3027.267	32.5
3030.53	34.5
3033.789	34.5
3037.046	30.5
3040.301	27.5
3043.552	34.5
3046.801	43.5
3050.048	39.5
3053.291	59.5
3056.532	42.5
3059.771	27.5
3063.006	50.5
3066.239	44.5
3069.469	57.5
3072.697	44.5
3075.922	40.5
3079.144	46.5
3082.364	66.5
3085.581	49.5
3088.795	70.5
3092.007	64.5
3095.216	67.5
3098.423	61.5
3101.627	34.5
3104.828	65.5
3108.026	63.5
3111.222	74.5
3114.416	81.5
3117.607	75.5
3120.795	77.5
3123.98	78.5
3127.163	71.5
3130.344	76.5
3133.521	69.5
3136.696	88.5
3139.869	82.5
3143.039	72.5
3146.206	102.5
3149.371	99.5
3152.533	96.5
3155.693	81.5
3158.85	96.5
3162.005	98.5
3165.157	97.5
3168.306	90.5
3171.453	103.5
3174.597	95.5
3177.739	87.5
3180.878	101.5
3184.014	109.5
3187.149	101.5
3190.28	100.5
3193.409	108.5
3196.536	102.5
3199.659	108.5
3202.781	108.5
3205.9	91.5
3209.016	99.5
3212.13	94.5
3215.241	95.5
3218.35	95.5
3221.456	87.5
3224.56	82.5
3227.661	97.5
3230.76	86.5
3233.856	89.5
3236.95	89.5
3240.041	79.5
3243.13	88.5
3246.216	84.5
3249.3	88.5
3252.382	94.5
3255.46	74.5
3258.537	38.5
3261.611	77.5
3264.682	83.5
3267.751	83.5
3270.818	73.5
3273.882	90.5
3276.943	87.5
3280.002	93.5
3283.059	79.5
3286.113	78.5
3289.165	77.5
3292.214	69.5
3295.261	92.5
3298.306	62.5
3301.348	77.5
3304.387	63.5
3307.425	73.5
3310.459	68.5
3313.492	86.5
3316.521	67.5
3319.549	80.5
3322.574	74.5
3325.597	74.5
3328.617	60.5
3331.635	69.5
3334.65	45.5
3337.663	69.5
3340.674	64.5
3343.682	68.5
3346.688	76.5
3349.691	64.5
3352.692	64.5
3355.691	71.5
3358.687	62.5
3361.681	66.5
3364.673	60.5
3367.662	68.5
3370.649	66.5
3373.633	51.5
3376.615	64.5
3379.595	39.5
3382.572	56.5
3385.547	43.5
3388.52	46.5
3391.49	49.5
3394.458	50.5
3397.424	62.5
3400.387	42.5
3403.348	49.5
3406.307	51.5
3409.263	50.5
3412.217	53.5
3415.168	50.5
3418.118	61.5
3421.065	46.5
3424.009	56.5
3426.951	44.5
3429.891	37.5
3432.829	36.5
3435.764	51.5
3438.697	32.5
3441.628	55.5
3444.557	29.5
3447.483	27.5
3450.407	38.5
3453.328	29.5
3456.247	26.5
3459.164	21.5
3462.079	38.5
3464.991	26.5
3467.902	24.5
3470.809	25.5
3473.715	28.5
3476.618	17.5
3479.519	23.5
3482.418	2.5
3485.315	8.5
3488.209	9.5
3491.101	13.5
3493.99	1.5
3496.878	6.5
3499.763	11.5
3502.646	9.5
3505.527	4.5
3508.405	4.5
3511.281	-5.5
3514.155	9.5
3517.027	0.5
3519.897	-13.5
3522.764	5.5
3525.629	-18.5
3528.492	-1.5
3531.352	-0.5
3534.211	-2.5
3537.067	-15.5
3539.921	-6.5
3542.773	-0.5
3545.622	-18.5
3548.469	-18.5
3551.315	-22.5
3554.157	-12.5
3556.998	-23.5
3559.837	-16.5
3562.673	-17.5
3565.507	-23.5
3568.339	-33.5
3571.169	-23.5
3573.996	-20.5
3576.822	-33.5
3579.645	-31.5
3582.466	-28.5
3585.285	-15.5
3588.101	-19.5
3590.916	-26.5
3593.728	-12.5
3596.538	-22.5
3599.346	-23.5
3602.152	-28.5
3604.956	-24.5
3607.757	-14.5
3610.556	-33.5
3613.354	-17.5
3616.149	-21.5
3618.942	-17.5
3621.732	-17.5
3624.521	-28.5
3627.307	-36.5
3630.092	-31.5
3632.874	-17.5
3635.654	-26.5
3638.432	-30.5
3641.208	-34.5
3643.982	-36.5
3646.753	-21.5
3649.523	-55.5
3652.29	-33.5
3655.055	-23.5
3657.818	-24.5
3660.579	-32.5
3663.338	-40.5
3666.095	-30.5
3668.849	-57.5
3671.602	-27.5
3674.352	-44.5
3677.101	-24.5
3679.847	-22.5
3682.591	-35.5
3685.333	-43.5
3688.073	-29.5
3690.811	-37.5
3693.547	-41.5
3696.281	-36.5
3699.013	-32.5
3701.742	-33.5
3704.47	-40.5
3707.195	-24.5
3709.919	-28.5
3712.64	-34.5
3715.359	-48.5
3718.076	-20.5
3720.792	-29.5
3723.505	-32.5
3726.216	-22.5
3728.925	-37.5
3731.632	-40.5
3734.336	-35.5
3737.039	-34.5
3739.74	-33.5
3742.439	-58.5
3745.136	-30.5
3747.83	-31.5
3750.523	-27.5
3753.213	-97.5
3755.902	-34.5
3758.589	-53.5
3761.273	-36.5
3763.956	-25.5
3766.636	-48.5
3769.315	-24.5
3771.991	-34.5
3774.665	-38.5
3777.338	-35.5
3780.008	-45.5
3782.677	-34.5
3785.343	-50.5
3788.007	-53.5
3790.67	-23.5
3793.33	-46.5
3795.989	-38.5
3798.645	-34.5
3801.299	-48.5
3803.952	-42.5
3806.602	-38.5
3809.251	-27.5
3811.897	-37.5
3814.542	-39.5
3817.184	-41.5
3819.825	-35.5
3822.463	-49.5
3825.1	-35.5
3827.735	-31.5
3830.367	-38.5
3832.998	-23.5
3835.627	-35.5
3838.253	-28.5
3840.878	-34.5
3843.501	-25.5
3846.122	-31.5
3848.741	-30.5
3851.358	-24.5
3853.973	-43.5
3856.586	-33.5
3859.197	-44.5
3861.806	-35.5
3864.414	-45.5
3867.019	-38.5
3869.622	-23.5
3872.224	-25.5
3874.823	-15.5
3877.421	-5.5
3880.016	4.5
3882.61	45.5
3885.202	61.5
3887.792	37.5
3890.38	11.5
3892.966	-21.5
3895.55	-31.5
3898.132	-29.5
3900.713	-20.5
3903.291	-32.5
3905.868	-38.5
3908.442	-31.5
3911.015	-33.5
3913.586	-38.5
3916.155	-39.5
3918.722	-36.5
3921.287	-41.5
3923.85	-47.5
3926.411	-39.5
3928.971	-43.5
3931.528	-34.5
3934.084	-37.5
3936.638	-46.5
3939.19	-34.5
3941.74	-34.5
3944.288	-38.5
3946.834	-36.5
3949.378	-27.5
3951.921	-40.5
3954.462	-39.5
3957	-34.5
3959.537	-28.5
3962.072	-34.5
3964.606	-50.5
3967.137	-36.5
3969.667	-41.5
3972.194	-30.5
3974.72	-40.5
3977.244	-60.5
3979.766	-38.5
3982.286	-41.5
3984.805	-29.5
3987.321	-26.5
3989.836	-28.5
3992.349	-43.5
3994.86	-36.5
3997.369	-41.5
3999.877	-39.5
4002.382	-36.5
4004.886	-33.5
4007.388	-30.5
4009.888	-24.5
4012.386	-26.5
4014.883	-31.5
4017.377	-36.5
4019.87	-26.5
4022.361	-41.5
4024.85	-36.5
4027.338	-35.5
4029.823	-38.5
4032.307	-35.5
4034.789	-34.5
4037.269	-29.5
4039.747	-48.5
4042.224	-25.5
4044.699	-39.5
4047.172	-41.5
4049.643	-31.5
4052.112	-59.5
4054.58	-37.5
4057.046	-50.5
4059.51	-34.5
4061.972	-39.5
4064.432	-51.5
4066.891	-27.5
4069.348	-37.5
4071.803	-37.5
4074.256	-39.5
4076.708	-32.5
4079.158	-30.5
4081.606	-22.5
4084.052	-39.5
4086.497	-32.5
4088.939	-37.5
4091.38	-37.5
4093.819	-27.5
4096.257	1.5
4098.693	-9.5
4101.127	-7.5
4103.559	1.5
4105.989	43.5
4108.418	48.5
4110.845	30.5
4113.27	41.5
4115.694	46.5
4118.115	36.5
4120.535	-35.5
4122.954	-28.5
4125.37	-22.5
4127.785	-27.5
4130.198	-26.5
4132.609	-31.5
4135.019	11.5
4137.427	0.5
4139.833	4.5
4142.237	-2.5
