Data from 2018-3-6_conc=5_n=7_RamanShift_05.txt Node
Date: Tue Mar 06 14:43:18 GMT+02:00 2018
User: LAB3
Spectrometer: QEPB0276
Trigger mode: 0
Integration Time (sec): 3.000000E1
Scans to average: 1
Electric dark correction enabled: true
Nonlinearity correction enabled: false
Boxcar width: 0
XAxis mode: Raman Shifts
Number of Pixels in Spectrum: 1044
>>>>>Begin Spectral Data<<<<<
160.701	52.5
166.742	65.5
172.777	96.5
178.805	186.5
184.826	442.5
190.841	909.5
196.849	1413.5
202.85	1796.5
208.845	1939.5
214.833	1887.5
220.815	1875.5
226.789	1842.5
232.758	1837.5
238.719	1811.5
244.674	1781.5
250.623	1758.5
256.565	1721.5
262.5	1707.5
268.429	1684.5
274.351	1653.5
280.267	1651.5
286.176	1651.5
292.079	1652.5
297.975	1637.5
303.865	1635.5
309.748	1626.5
315.625	1620.5
321.495	1608.5
327.359	1611.5
333.217	1619.5
339.068	1606.5
344.912	1627.5
350.751	1622.5
356.583	1621.5
362.408	1627.5
368.227	1637.5
374.04	1626.5
379.847	1628.5
385.647	1654.5
391.44	1625.5
397.228	1646.5
403.009	1683.5
408.784	1655.5
414.553	1692.5
420.315	1682.5
426.071	1667.5
431.821	1685.5
437.565	1690.5
443.302	1677.5
449.033	1640.5
454.758	1652.5
460.477	1632.5
466.189	1628.5
471.896	1606.5
477.596	1597.5
483.29	1582.5
488.978	1581.5
494.66	1562.5
500.335	1530.5
506.005	1450.5
511.668	1408.5
517.325	1330.5
522.977	1262.5
528.622	1228.5
534.261	1201.5
539.894	1178.5
545.521	1159.5
551.141	1135.5
556.756	1127.5
562.365	1114.5
567.968	1119.5
573.565	1114.5
579.155	1111.5
584.74	1083.5
590.319	1102.5
595.892	1093.5
601.459	1094.5
607.02	1087.5
612.575	1084.5
618.124	1075.5
623.667	1030.5
629.204	1048.5
634.735	1025.5
640.261	1012.5
645.781	985.5
651.294	989.5
656.802	992.5
662.304	1006.5
667.8	997.5
673.29	981.5
678.775	982.5
684.254	982.5
689.726	965.5
695.193	967.5
700.655	964.5
706.11	963.5
711.56	961.5
717.004	954.5
722.442	929.5
727.874	944.5
733.301	948.5
738.722	925.5
744.137	930.5
749.547	933.5
754.951	912.5
760.349	927.5
765.741	946.5
771.128	942.5
776.509	951.5
781.885	966.5
787.254	969.5
792.618	972.5
797.977	981.5
803.33	968.5
808.677	962.5
814.019	962.5
819.355	943.5
824.686	915.5
830.011	918.5
835.33	944.5
840.644	924.5
845.952	907.5
851.255	914.5
856.552	909.5
861.844	902.5
867.13	874.5
872.41	855.5
877.686	847.5
882.955	853.5
888.219	840.5
893.478	828.5
898.731	830.5
903.979	827.5
909.221	795.5
914.458	793.5
919.69	800.5
924.916	791.5
930.136	805.5
935.351	794.5
940.561	821.5
945.766	804.5
950.965	798.5
956.158	791.5
961.347	793.5
966.529	766.5
971.707	772.5
976.879	752.5
982.046	755.5
987.208	748.5
992.364	755.5
997.515	735.5
1002.66	752.5
1007.801	740.5
1012.936	760.5
1018.066	752.5
1023.19	776.5
1028.309	767.5
1033.423	761.5
1038.532	780.5
1043.636	765.5
1048.734	762.5
1053.827	735.5
1058.915	724.5
1063.998	732.5
1069.075	741.5
1074.147	748.5
1079.214	718.5
1084.276	742.5
1089.333	732.5
1094.385	746.5
1099.431	737.5
1104.472	726.5
1109.509	726.5
1114.54	710.5
1119.565	705.5
1124.586	713.5
1129.602	677.5
1134.613	662.5
1139.618	667.5
1144.619	670.5
1149.614	685.5
1154.604	662.5
1159.589	672.5
1164.57	696.5
1169.545	698.5
1174.515	697.5
1179.48	679.5
1184.44	679.5
1189.395	689.5
1194.345	665.5
1199.29	667.5
1204.23	653.5
1209.165	635.5
1214.095	667.5
1219.021	658.5
1223.941	662.5
1228.856	666.5
1233.766	680.5
1238.672	685.5
1243.572	683.5
1248.467	664.5
1253.358	665.5
1258.244	634.5
1263.124	657.5
1268	651.5
1272.871	607.5
1277.737	608.5
1282.599	601.5
1287.455	601.5
1292.306	622.5
1297.153	600.5
1301.995	610.5
1306.832	610.5
1311.664	615.5
1316.491	611.5
1321.314	622.5
1326.132	609.5
1330.945	609.5
1335.753	590.5
1340.556	576.5
1345.354	568.5
1350.148	556.5
1354.937	558.5
1359.722	543.5
1364.501	545.5
1369.276	558.5
1374.046	561.5
1378.811	526.5
1383.572	551.5
1388.327	537.5
1393.079	539.5
1397.825	521.5
1402.567	523.5
1407.304	520.5
1412.036	522.5
1416.764	531.5
1421.487	501.5
1426.205	509.5
1430.919	523.5
1435.628	508.5
1440.333	512.5
1445.032	524.5
1449.727	522.5
1454.418	540.5
1459.104	531.5
1463.785	524.5
1468.462	533.5
1473.134	504.5
1477.802	491.5
1482.465	466.5
1487.123	480.5
1491.777	461.5
1496.426	458.5
1501.071	484.5
1505.711	474.5
1510.347	480.5
1514.978	487.5
1519.604	473.5
1524.226	492.5
1528.844	478.5
1533.457	489.5
1538.065	482.5
1542.669	484.5
1547.269	476.5
1551.864	480.5
1556.454	473.5
1561.041	466.5
1565.622	474.5
1570.199	473.5
1574.772	475.5
1579.34	489.5
1583.904	495.5
1588.464	492.5
1593.019	502.5
1597.569	477.5
1602.115	483.5
1606.657	474.5
1611.195	491.5
1615.728	489.5
1620.256	469.5
1624.78	450.5
1629.3	466.5
1633.816	479.5
1638.327	470.5
1642.834	482.5
1647.336	471.5
1651.834	493.5
1656.328	481.5
1660.817	469.5
1665.302	472.5
1669.783	457.5
1674.259	463.5
1678.732	442.5
1683.199	437.5
1687.663	416.5
1692.122	420.5
1696.577	418.5
1701.028	411.5
1705.474	391.5
1709.917	385.5
1714.355	378.5
1718.788	371.5
1723.218	364.5
1727.643	359.5
1732.064	365.5
1736.481	339.5
1740.893	348.5
1745.301	343.5
1749.705	310.5
1754.105	333.5
1758.501	314.5
1762.893	325.5
1767.28	305.5
1771.663	312.5
1776.042	290.5
1780.417	304.5
1784.787	306.5
1789.154	308.5
1793.516	303.5
1797.874	294.5
1802.228	286.5
1806.578	287.5
1810.924	304.5
1815.266	184.5
1819.603	302.5
1823.937	284.5
1828.266	298.5
1832.591	290.5
1836.913	277.5
1841.23	279.5
1845.543	276.5
1849.852	273.5
1854.156	266.5
1858.457	280.5
1862.754	264.5
1867.047	283.5
1871.335	284.5
1875.62	281.5
1879.9	282.5
1884.177	267.5
1888.449	271.5
1892.718	274.5
1896.982	282.5
1901.243	264.5
1905.499	270.5
1909.752	261.5
1914	236.5
1918.245	268.5
1922.485	271.5
1926.722	257.5
1930.954	257.5
1935.183	257.5
1939.408	265.5
1943.628	258.5
1947.845	253.5
1952.058	254.5
1956.267	249.5
1960.472	261.5
1964.673	243.5
1968.87	248.5
1973.063	241.5
1977.252	243.5
1981.438	239.5
1985.619	234.5
1989.797	223.5
1993.971	222.5
1998.14	242.5
2002.306	219.5
2006.469	224.5
2010.627	217.5
2014.781	215.5
2018.932	214.5
2023.078	233.5
2027.221	224.5
2031.36	206.5
2035.495	215.5
2039.627	210.5
2043.754	210.5
2047.878	203.5
2051.998	207.5
2056.114	210.5
2060.226	210.5
2064.334	213.5
2068.439	213.5
2072.54	218.5
2076.637	196.5
2080.73	210.5
2084.82	203.5
2088.906	198.5
2092.988	205.5
2097.066	206.5
2101.14	215.5
2105.211	203.5
2109.278	204.5
2113.342	195.5
2117.401	184.5
2121.457	186.5
2125.509	183.5
2129.558	192.5
2133.602	188.5
2137.643	190.5
2141.681	187.5
2145.714	185.5
2149.744	182.5
2153.77	186.5
2157.793	172.5
2161.812	150.5
2165.827	158.5
2169.838	177.5
2173.846	165.5
2177.851	163.5
2181.851	172.5
2185.848	156.5
2189.841	165.5
2193.831	159.5
2197.817	163.5
2201.799	163.5
2205.778	145.5
2209.753	151.5
2213.725	143.5
2217.693	156.5
2221.657	144.5
2225.618	149.5
2229.575	146.5
2233.529	154.5
2237.479	158.5
2241.425	140.5
2245.368	130.5
2249.307	145.5
2253.243	139.5
2257.175	141.5
2261.104	129.5
2265.029	139.5
2268.95	126.5
2272.868	127.5
2276.783	124.5
2280.694	134.5
2284.601	124.5
2288.505	130.5
2292.405	125.5
2296.302	105.5
2300.195	116.5
2304.085	87.5
2307.971	121.5
2311.854	84.5
2315.734	109.5
2319.609	111.5
2323.482	88.5
2327.351	103.5
2331.216	97.5
2335.078	108.5
2338.937	99.5
2342.792	89.5
2346.643	96.5
2350.492	103.5
2354.336	96.5
2358.178	98.5
2362.015	100.5
2365.85	101.5
2369.681	98.5
2373.508	101.5
2377.333	106.5
2381.153	102.5
2384.971	92.5
2388.785	105.5
2392.595	96.5
2396.402	89.5
2400.206	67.5
2404.007	86.5
2407.804	84.5
2411.597	96.5
2415.388	87.5
2419.174	92.5
2422.958	91.5
2426.738	84.5
2430.515	91.5
2434.289	82.5
2438.059	81.5
2441.825	80.5
2445.589	89.5
2449.349	72.5
2453.106	85.5
2456.859	80.5
2460.61	82.5
2464.356	67.5
2468.1	67.5
2471.84	67.5
2475.577	70.5
2479.311	68.5
2483.041	74.5
2486.768	77.5
2490.492	80.5
2494.213	70.5
2497.93	55.5
2501.644	51.5
2505.355	74.5
2509.062	71.5
2512.766	57.5
2516.467	60.5
2520.165	66.5
2523.859	48.5
2527.551	87.5
2531.239	52.5
2534.923	61.5
2538.605	58.5
2542.283	62.5
2545.958	65.5
2549.63	72.5
2553.299	73.5
2556.964	53.5
2560.626	59.5
2564.285	61.5
2567.941	46.5
2571.594	48.5
2575.243	63.5
2578.89	49.5
2582.533	60.5
2586.173	52.5
2589.809	59.5
2593.443	36.5
2597.073	53.5
2600.701	60.5
2604.325	61.5
2607.946	39.5
2611.564	60.5
2615.178	54.5
2618.79	51.5
2622.398	40.5
2626.004	55.5
2629.606	56.5
2633.205	42.5
2636.801	54.5
2640.394	49.5
2643.983	43.5
2647.57	42.5
2651.153	41.5
2654.734	51.5
2658.311	25.5
2661.885	37.5
2665.456	37.5
2669.025	38.5
2672.589	38.5
2676.151	49.5
2679.71	53.5
2683.266	37.5
2686.819	34.5
2690.368	40.5
2693.915	43.5
2697.458	41.5
2700.999	46.5
2704.536	38.5
2708.071	36.5
2711.602	32.5
2715.13	34.5
2718.656	13.5
2722.178	33.5
2725.697	20.5
2729.214	27.5
2732.727	32.5
2736.237	22.5
2739.744	27.5
2743.249	30.5
2746.75	27.5
2750.248	18.5
2753.743	30.5
2757.236	30.5
2760.725	32.5
2764.211	3.5
2767.695	31.5
2771.175	29.5
2774.652	28.5
2778.127	24.5
2781.598	24.5
2785.067	32.5
2788.532	24.5
2791.995	26.5
2795.455	22.5
2798.911	37.5
2802.365	27.5
2805.816	36.5
2809.264	38.5
2812.709	26.5
2816.151	33.5
2819.59	23.5
2823.026	22.5
2826.46	24.5
2829.89	32.5
2833.318	6.5
2836.742	23.5
2840.164	29.5
2843.583	27.5
2846.999	27.5
2850.412	24.5
2853.822	19.5
2857.229	41.5
2860.634	23.5
2864.035	13.5
2867.434	33.5
2870.83	30.5
2874.223	21.5
2877.613	23.5
2881	11.5
2884.385	15.5
2887.766	17.5
2891.145	29.5
2894.521	20.5
2897.894	20.5
2901.264	40.5
2904.631	35.5
2907.996	30.5
2911.358	43.5
2914.717	33.5
2918.073	25.5
2921.426	22.5
2924.777	18.5
2928.124	26.5
2931.469	40.5
2934.811	17.5
2938.15	49.5
2941.487	37.5
2944.821	48.5
2948.152	36.5
2951.48	47.5
2954.805	26.5
2958.128	50.5
2961.447	35.5
2964.765	56.5
2968.079	43.5
2971.39	41.5
2974.699	52.5
2978.005	45.5
2981.308	41.5
2984.609	37.5
2987.907	47.5
2991.202	52.5
2994.494	36.5
2997.784	46.5
3001.07	48.5
3004.355	41.5
3007.636	44.5
3010.915	49.5
3014.191	48.5
3017.464	47.5
3020.734	48.5
3024.002	50.5
3027.267	51.5
3030.53	53.5
3033.789	53.5
3037.046	50.5
3040.301	46.5
3043.552	58.5
3046.801	55.5
3050.048	66.5
3053.291	82.5
3056.532	59.5
3059.771	54.5
3063.006	66.5
3066.239	65.5
3069.469	74.5
3072.697	66.5
3075.922	65.5
3079.144	70.5
3082.364	93.5
3085.581	71.5
3088.795	91.5
3092.007	93.5
3095.216	94.5
3098.423	85.5
3101.627	68.5
3104.828	102.5
3108.026	93.5
3111.222	108.5
3114.416	114.5
3117.607	108.5
3120.795	111.5
3123.98	107.5
3127.163	99.5
3130.344	114.5
3133.521	112.5
3136.696	129.5
3139.869	126.5
3143.039	111.5
3146.206	138.5
3149.371	139.5
3152.533	130.5
3155.693	127.5
3158.85	140.5
3162.005	132.5
3165.157	134.5
3168.306	139.5
3171.453	147.5
3174.597	129.5
3177.739	127.5
3180.878	135.5
3184.014	138.5
3187.149	142.5
3190.28	141.5
3193.409	150.5
3196.536	144.5
3199.659	152.5
3202.781	147.5
3205.9	130.5
3209.016	145.5
3212.13	145.5
3215.241	140.5
3218.35	138.5
3221.456	129.5
3224.56	118.5
3227.661	134.5
3230.76	126.5
3233.856	127.5
3236.95	130.5
3240.041	115.5
3243.13	136.5
3246.216	124.5
3249.3	138.5
3252.382	125.5
3255.46	117.5
3258.537	77.5
3261.611	112.5
3264.682	125.5
3267.751	120.5
3270.818	111.5
3273.882	124.5
3276.943	121.5
3280.002	136.5
3283.059	115.5
3286.113	117.5
3289.165	110.5
3292.214	107.5
3295.261	117.5
3298.306	95.5
3301.348	112.5
3304.387	106.5
3307.425	110.5
3310.459	108.5
3313.492	108.5
3316.521	106.5
3319.549	111.5
3322.574	106.5
3325.597	107.5
3328.617	101.5
3331.635	103.5
3334.65	80.5
3337.663	95.5
3340.674	94.5
3343.682	98.5
3346.688	98.5
3349.691	92.5
3352.692	96.5
3355.691	106.5
3358.687	86.5
3361.681	101.5
3364.673	94.5
3367.662	97.5
3370.649	101.5
3373.633	89.5
3376.615	98.5
3379.595	79.5
3382.572	77.5
3385.547	73.5
3388.52	75.5
3391.49	71.5
3394.458	80.5
3397.424	89.5
3400.387	70.5
3403.348	80.5
3406.307	71.5
3409.263	77.5
3412.217	80.5
3415.168	83.5
3418.118	151.5
3421.065	250.5
3424.009	173.5
3426.951	78.5
3429.891	68.5
3432.829	67.5
3435.764	68.5
3438.697	51.5
3441.628	67.5
3444.557	49.5
3447.483	46.5
3450.407	55.5
3453.328	50.5
3456.247	47.5
3459.164	42.5
3462.079	49.5
3464.991	42.5
3467.902	40.5
3470.809	39.5
3473.715	46.5
3476.618	36.5
3479.519	39.5
3482.418	22.5
3485.315	25.5
3488.209	25.5
3491.101	24.5
3493.99	14.5
3496.878	21.5
3499.763	25.5
3502.646	23.5
3505.527	8.5
3508.405	9.5
3511.281	4.5
3514.155	17.5
3517.027	14.5
3519.897	-1.5
3522.764	11.5
3525.629	-8.5
3528.492	5.5
3531.352	7.5
3534.211	4.5
3537.067	-1.5
3539.921	3.5
3542.773	11.5
3545.622	-4.5
3548.469	-7.5
3551.315	-12.5
3554.157	-2.5
3556.998	-10.5
3559.837	-9.5
3562.673	-5.5
3565.507	-15.5
3568.339	-22.5
3571.169	-18.5
3573.996	-12.5
3576.822	-32.5
3579.645	-20.5
3582.466	-21.5
3585.285	-11.5
3588.101	-14.5
3590.916	-19.5
3593.728	-9.5
3596.538	-22.5
3599.346	-16.5
3602.152	-24.5
3604.956	-17.5
3607.757	-15.5
3610.556	-30.5
3613.354	-15.5
3616.149	-20.5
3618.942	-13.5
3621.732	-21.5
3624.521	-23.5
3627.307	-31.5
3630.092	-28.5
3632.874	-15.5
3635.654	-22.5
3638.432	-29.5
3641.208	-26.5
3643.982	-27.5
3646.753	-19.5
3649.523	-52.5
3652.29	-31.5
3655.055	-24.5
3657.818	-29.5
3660.579	-36.5
3663.338	-42.5
3666.095	-35.5
3668.849	-57.5
3671.602	-27.5
3674.352	-45.5
3677.101	-26.5
3679.847	-21.5
3682.591	-40.5
3685.333	-40.5
3688.073	-30.5
3690.811	-37.5
3693.547	-42.5
3696.281	-42.5
3699.013	-28.5
3701.742	-38.5
3704.47	-43.5
3707.195	-28.5
3709.919	-27.5
3712.64	-35.5
3715.359	-45.5
3718.076	-21.5
3720.792	-32.5
3723.505	-26.5
3726.216	-23.5
3728.925	-30.5
3731.632	-39.5
3734.336	-34.5
3737.039	-31.5
3739.74	-28.5
3742.439	-53.5
3745.136	-26.5
3747.83	-31.5
3750.523	-25.5
3753.213	-96.5
3755.902	-34.5
3758.589	-51.5
3761.273	-37.5
3763.956	-23.5
3766.636	-45.5
3769.315	-24.5
3771.991	-32.5
3774.665	-38.5
3777.338	-33.5
3780.008	-44.5
3782.677	-39.5
3785.343	-48.5
3788.007	-54.5
3790.67	-31.5
3793.33	-49.5
3795.989	-39.5
3798.645	-32.5
3801.299	-47.5
3803.952	-50.5
3806.602	-39.5
3809.251	-30.5
3811.897	-35.5
3814.542	-42.5
3817.184	-42.5
3819.825	-37.5
3822.463	-49.5
3825.1	-37.5
3827.735	-35.5
3830.367	-42.5
3832.998	-24.5
3835.627	-42.5
3838.253	-26.5
3840.878	-40.5
3843.501	-22.5
3846.122	-32.5
3848.741	-28.5
3851.358	-22.5
3853.973	-46.5
3856.586	-27.5
3859.197	-42.5
3861.806	-32.5
3864.414	-43.5
3867.019	-29.5
3869.622	-23.5
3872.224	-19.5
3874.823	-11.5
3877.421	8.5
3880.016	25.5
3882.61	56.5
3885.202	67.5
3887.792	39.5
3890.38	17.5
3892.966	-18.5
3895.55	-35.5
3898.132	-23.5
3900.713	-22.5
3903.291	-30.5
3905.868	-41.5
3908.442	-31.5
3911.015	-31.5
3913.586	-40.5
3916.155	-37.5
3918.722	-40.5
3921.287	-37.5
3923.85	-46.5
3926.411	-40.5
3928.971	-45.5
3931.528	-32.5
3934.084	-35.5
3936.638	-49.5
3939.19	-31.5
3941.74	-31.5
3944.288	-41.5
3946.834	-38.5
3949.378	-31.5
3951.921	-43.5
3954.462	-40.5
3957	-33.5
3959.537	-20.5
3962.072	-40.5
3964.606	-51.5
3967.137	-42.5
3969.667	-43.5
3972.194	-36.5
3974.72	-41.5
3977.244	-59.5
3979.766	-44.5
3982.286	-41.5
3984.805	-33.5
3987.321	-26.5
3989.836	-28.5
3992.349	-43.5
3994.86	-35.5
3997.369	-40.5
3999.877	-33.5
4002.382	-36.5
4004.886	-31.5
4007.388	-34.5
4009.888	-25.5
4012.386	-30.5
4014.883	-32.5
4017.377	-33.5
4019.87	-33.5
4022.361	-43.5
4024.85	-33.5
4027.338	-30.5
4029.823	-40.5
4032.307	-38.5
4034.789	-35.5
4037.269	-35.5
4039.747	-52.5
4042.224	-29.5
4044.699	-45.5
4047.172	-38.5
4049.643	-28.5
4052.112	-59.5
4054.58	-32.5
4057.046	-48.5
4059.51	-34.5
4061.972	-37.5
4064.432	-52.5
4066.891	-25.5
4069.348	-34.5
4071.803	-35.5
4074.256	-38.5
4076.708	-31.5
4079.158	-37.5
4081.606	-28.5
4084.052	-37.5
4086.497	-31.5
4088.939	-40.5
4091.38	-42.5
4093.819	-30.5
4096.257	1.5
4098.693	-3.5
4101.127	-10.5
4103.559	2.5
4105.989	54.5
4108.418	60.5
4110.845	42.5
4113.27	55.5
4115.694	54.5
4118.115	43.5
4120.535	-32.5
4122.954	-26.5
4125.37	-24.5
4127.785	-32.5
4130.198	-23.5
4132.609	-30.5
4135.019	6.5
4137.427	0.5
4139.833	4.5
4142.237	-1.5
