Data from 2018-3-6_conc=6_n=5_RamanShift_01.txt Node
Date: Tue Mar 06 15:05:48 GMT+02:00 2018
User: LAB3
Spectrometer: QEPB0276
Trigger mode: 0
Integration Time (sec): 3.000000E1
Scans to average: 1
Electric dark correction enabled: true
Nonlinearity correction enabled: false
Boxcar width: 0
XAxis mode: Raman Shifts
Number of Pixels in Spectrum: 1044
>>>>>Begin Spectral Data<<<<<
160.701	48.25
166.742	64.25
172.777	88.25
178.805	161.25
184.826	390.25
190.841	781.25
196.849	1229.25
202.85	1565.25
208.845	1673.25
214.833	1632.25
220.815	1602.25
226.789	1593.25
232.758	1597.25
238.719	1551.25
244.674	1535.25
250.623	1514.25
256.565	1493.25
262.5	1444.25
268.429	1436.25
274.351	1413.25
280.267	1414.25
286.176	1424.25
292.079	1408.25
297.975	1412.25
303.865	1409.25
309.748	1400.25
315.625	1391.25
321.495	1390.25
327.359	1382.25
333.217	1376.25
339.068	1372.25
344.912	1390.25
350.751	1385.25
356.583	1397.25
362.408	1408.25
368.227	1406.25
374.04	1395.25
379.847	1411.25
385.647	1428.25
391.44	1417.25
397.228	1428.25
403.009	1432.25
408.784	1418.25
414.553	1445.25
420.315	1466.25
426.071	1447.25
431.821	1471.25
437.565	1468.25
443.302	1449.25
449.033	1418.25
454.758	1434.25
460.477	1417.25
466.189	1398.25
471.896	1380.25
477.596	1377.25
483.29	1363.25
488.978	1354.25
494.66	1332.25
500.335	1288.25
506.005	1252.25
511.668	1177.25
517.325	1117.25
522.977	1049.25
528.622	1022.25
534.261	1009.25
539.894	978.25
545.521	966.25
551.141	940.25
556.756	924.25
562.365	918.25
567.968	927.25
573.565	896.25
579.155	914.25
584.74	903.25
590.319	907.25
595.892	895.25
601.459	901.25
607.02	882.25
612.575	901.25
618.124	887.25
623.667	858.25
629.204	842.25
634.735	852.25
640.261	822.25
645.781	785.25
651.294	802.25
656.802	808.25
662.304	802.25
667.8	817.25
673.29	807.25
678.775	806.25
684.254	804.25
689.726	777.25
695.193	797.25
700.655	785.25
706.11	777.25
711.56	773.25
717.004	791.25
722.442	742.25
727.874	760.25
733.301	780.25
738.722	741.25
744.137	748.25
749.547	750.25
754.951	748.25
760.349	753.25
765.741	762.25
771.128	759.25
776.509	764.25
781.885	784.25
787.254	798.25
792.618	796.25
797.977	801.25
803.33	804.25
808.677	781.25
814.019	785.25
819.355	780.25
824.686	748.25
830.011	736.25
835.33	776.25
840.644	763.25
845.952	739.25
851.255	745.25
856.552	727.25
861.844	724.25
867.13	708.25
872.41	701.25
877.686	700.25
882.955	697.25
888.219	693.25
893.478	661.25
898.731	673.25
903.979	669.25
909.221	654.25
914.458	644.25
919.69	647.25
924.916	650.25
930.136	642.25
935.351	647.25
940.561	655.25
945.766	661.25
950.965	653.25
956.158	642.25
961.347	616.25
966.529	619.25
971.707	627.25
976.879	607.25
982.046	598.25
987.208	597.25
992.364	601.25
997.515	600.25
1002.66	603.25
1007.801	598.25
1012.936	613.25
1018.066	597.25
1023.19	619.25
1028.309	632.25
1033.423	622.25
1038.532	626.25
1043.636	617.25
1048.734	620.25
1053.827	589.25
1058.915	601.25
1063.998	585.25
1069.075	580.25
1074.147	603.25
1079.214	564.25
1084.276	602.25
1089.333	592.25
1094.385	595.25
1099.431	576.25
1104.472	592.25
1109.509	569.25
1114.54	568.25
1119.565	561.25
1124.586	561.25
1129.602	551.25
1134.613	529.25
1139.618	536.25
1144.619	537.25
1149.614	541.25
1154.604	545.25
1159.589	535.25
1164.57	553.25
1169.545	561.25
1174.515	556.25
1179.48	541.25
1184.44	549.25
1189.395	559.25
1194.345	536.25
1199.29	542.25
1204.23	514.25
1209.165	519.25
1214.095	536.25
1219.021	519.25
1223.941	525.25
1228.856	537.25
1233.766	544.25
1238.672	546.25
1243.572	548.25
1248.467	536.25
1253.358	531.25
1258.244	517.25
1263.124	519.25
1268	511.25
1272.871	479.25
1277.737	500.25
1282.599	487.25
1287.455	490.25
1292.306	495.25
1297.153	478.25
1301.995	493.25
1306.832	491.25
1311.664	484.25
1316.491	485.25
1321.314	488.25
1326.132	479.25
1330.945	488.25
1335.753	467.25
1340.556	457.25
1345.354	458.25
1350.148	464.25
1354.937	448.25
1359.722	424.25
1364.501	430.25
1369.276	440.25
1374.046	449.25
1378.811	422.25
1383.572	435.25
1388.327	435.25
1393.079	419.25
1397.825	410.25
1402.567	413.25
1407.304	410.25
1412.036	411.25
1416.764	414.25
1421.487	399.25
1426.205	403.25
1430.919	409.25
1435.628	413.25
1440.333	403.25
1445.032	426.25
1449.727	415.25
1454.418	427.25
1459.104	425.25
1463.785	411.25
1468.462	417.25
1473.134	403.25
1477.802	399.25
1482.465	376.25
1487.123	394.25
1491.777	368.25
1496.426	366.25
1501.071	387.25
1505.711	378.25
1510.347	388.25
1514.978	393.25
1519.604	388.25
1524.226	393.25
1528.844	372.25
1533.457	379.25
1538.065	381.25
1542.669	384.25
1547.269	379.25
1551.864	380.25
1556.454	355.25
1561.041	373.25
1565.622	370.25
1570.199	372.25
1574.772	378.25
1579.34	390.25
1583.904	387.25
1588.464	405.25
1593.019	405.25
1597.569	377.25
1602.115	385.25
1606.657	381.25
1611.195	393.25
1615.728	391.25
1620.256	380.25
1624.78	362.25
1629.3	372.25
1633.816	384.25
1638.327	376.25
1642.834	377.25
1647.336	380.25
1651.834	395.25
1656.328	374.25
1660.817	385.25
1665.302	374.25
1669.783	369.25
1674.259	355.25
1678.732	355.25
1683.199	350.25
1687.663	328.25
1692.122	342.25
1696.577	335.25
1701.028	333.25
1705.474	300.25
1709.917	305.25
1714.355	310.25
1718.788	303.25
1723.218	284.25
1727.643	278.25
1732.064	298.25
1736.481	267.25
1740.893	284.25
1745.301	265.25
1749.705	243.25
1754.105	262.25
1758.501	249.25
1762.893	256.25
1767.28	235.25
1771.663	235.25
1776.042	231.25
1780.417	235.25
1784.787	235.25
1789.154	244.25
1793.516	242.25
1797.874	240.25
1802.228	223.25
1806.578	213.25
1810.924	236.25
1815.266	123.25
1819.603	239.25
1823.937	217.25
1828.266	222.25
1832.591	217.25
1836.913	227.25
1841.23	222.25
1845.543	209.25
1849.852	221.25
1854.156	211.25
1858.457	211.25
1862.754	203.25
1867.047	206.25
1871.335	216.25
1875.62	221.25
1879.9	213.25
1884.177	203.25
1888.449	210.25
1892.718	214.25
1896.982	219.25
1901.243	196.25
1905.499	207.25
1909.752	198.25
1914	185.25
1918.245	209.25
1922.485	207.25
1926.722	206.25
1930.954	196.25
1935.183	209.25
1939.408	213.25
1943.628	208.25
1947.845	200.25
1952.058	202.25
1956.267	192.25
1960.472	203.25
1964.673	202.25
1968.87	192.25
1973.063	182.25
1977.252	183.25
1981.438	185.25
1985.619	187.25
1989.797	164.25
1993.971	174.25
1998.14	184.25
2002.306	171.25
2006.469	182.25
2010.627	168.25
2014.781	173.25
2018.932	169.25
2023.078	185.25
2027.221	175.25
2031.36	164.25
2035.495	164.25
2039.627	166.25
2043.754	165.25
2047.878	164.25
2051.998	161.25
2056.114	156.25
2060.226	163.25
2064.334	160.25
2068.439	173.25
2072.54	170.25
2076.637	161.25
2080.73	169.25
2084.82	161.25
2088.906	154.25
2092.988	156.25
2097.066	153.25
2101.14	158.25
2105.211	166.25
2109.278	143.25
2113.342	146.25
2117.401	136.25
2121.457	131.25
2125.509	138.25
2129.558	149.25
2133.602	149.25
2137.643	141.25
2141.681	146.25
2145.714	148.25
2149.744	143.25
2153.77	144.25
2157.793	129.25
2161.812	116.25
2165.827	110.25
2169.838	140.25
2173.846	134.25
2177.851	124.25
2181.851	136.25
2185.848	127.25
2189.841	128.25
2193.831	119.25
2197.817	122.25
2201.799	120.25
2205.778	107.25
2209.753	107.25
2213.725	108.25
2217.693	116.25
2221.657	103.25
2225.618	126.25
2229.575	116.25
2233.529	115.25
2237.479	119.25
2241.425	106.25
2245.368	101.25
2249.307	111.25
2253.243	97.25
2257.175	118.25
2261.104	100.25
2265.029	110.25
2268.95	101.25
2272.868	94.25
2276.783	91.25
2280.694	99.25
2284.601	94.25
2288.505	93.25
2292.405	104.25
2296.302	79.25
2300.195	90.25
2304.085	57.25
2307.971	83.25
2311.854	70.25
2315.734	87.25
2319.609	82.25
2323.482	62.25
2327.351	72.25
2331.216	80.25
2335.078	83.25
2338.937	81.25
2342.792	72.25
2346.643	66.25
2350.492	86.25
2354.336	76.25
2358.178	73.25
2362.015	77.25
2365.85	68.25
2369.681	75.25
2373.508	80.25
2377.333	75.25
2381.153	80.25
2384.971	76.25
2388.785	70.25
2392.595	58.25
2396.402	61.25
2400.206	42.25
2404.007	55.25
2407.804	69.25
2411.597	64.25
2415.388	65.25
2419.174	64.25
2422.958	63.25
2426.738	59.25
2430.515	70.25
2434.289	56.25
2438.059	54.25
2441.825	62.25
2445.589	68.25
2449.349	47.25
2453.106	60.25
2456.859	64.25
2460.61	63.25
2464.356	50.25
2468.1	47.25
2471.84	41.25
2475.577	44.25
2479.311	45.25
2483.041	52.25
2486.768	65.25
2490.492	61.25
2494.213	48.25
2497.93	39.25
2501.644	33.25
2505.355	42.25
2509.062	46.25
2512.766	47.25
2516.467	46.25
2520.165	45.25
2523.859	30.25
2527.551	65.25
2531.239	42.25
2534.923	43.25
2538.605	46.25
2542.283	43.25
2545.958	46.25
2549.63	52.25
2553.299	50.25
2556.964	34.25
2560.626	39.25
2564.285	45.25
2567.941	27.25
2571.594	33.25
2575.243	48.25
2578.89	39.25
2582.533	40.25
2586.173	35.25
2589.809	40.25
2593.443	15.25
2597.073	41.25
2600.701	37.25
2604.325	32.25
2607.946	25.25
2611.564	46.25
2615.178	36.25
2618.79	36.25
2622.398	31.25
2626.004	38.25
2629.606	38.25
2633.205	25.25
2636.801	37.25
2640.394	35.25
2643.983	33.25
2647.57	33.25
2651.153	23.25
2654.734	40.25
2658.311	8.25
2661.885	15.25
2665.456	22.25
2669.025	22.25
2672.589	22.25
2676.151	39.25
2679.71	36.25
2683.266	25.25
2686.819	17.25
2690.368	30.25
2693.915	33.25
2697.458	25.25
2700.999	29.25
2704.536	29.25
2708.071	19.25
2711.602	23.25
2715.13	26.25
2718.656	7.25
2722.178	28.25
2725.697	11.25
2729.214	17.25
2732.727	22.25
2736.237	12.25
2739.744	13.25
2743.249	17.25
2746.75	22.25
2750.248	15.25
2753.743	22.25
2757.236	15.25
2760.725	25.25
2764.211	-7.75
2767.695	24.25
2771.175	15.25
2774.652	19.25
2778.127	10.25
2781.598	13.25
2785.067	21.25
2788.532	1.25
2791.995	20.25
2795.455	8.25
2798.911	21.25
2802.365	10.25
2805.816	17.25
2809.264	28.25
2812.709	15.25
2816.151	15.25
2819.59	4.25
2823.026	12.25
2826.46	6.25
2829.89	19.25
2833.318	-6.75
2836.742	9.25
2840.164	17.25
2843.583	15.25
2846.999	10.25
2850.412	18.25
2853.822	5.25
2857.229	26.25
2860.634	16.25
2864.035	2.25
2867.434	17.25
2870.83	22.25
2874.223	13.25
2877.613	7.25
2881	10.25
2884.385	16.25
2887.766	13.25
2891.145	16.25
2894.521	14.25
2897.894	3.25
2901.264	21.25
2904.631	14.25
2907.996	21.25
2911.358	27.25
2914.717	18.25
2918.073	10.25
2921.426	13.25
2924.777	2.25
2928.124	15.25
2931.469	26.25
2934.811	7.25
2938.15	37.25
2941.487	24.25
2944.821	43.25
2948.152	27.25
2951.48	29.25
2954.805	10.25
2958.128	34.25
2961.447	20.25
2964.765	41.25
2968.079	25.25
2971.39	31.25
2974.699	30.25
2978.005	32.25
2981.308	27.25
2984.609	20.25
2987.907	35.25
2991.202	34.25
2994.494	24.25
2997.784	27.25
3001.07	30.25
3004.355	26.25
3007.636	28.25
3010.915	37.25
3014.191	32.25
3017.464	36.25
3020.734	39.25
3024.002	41.25
3027.267	39.25
3030.53	40.25
3033.789	39.25
3037.046	39.25
3040.301	29.25
3043.552	46.25
3046.801	42.25
3050.048	49.25
3053.291	67.25
3056.532	44.25
3059.771	36.25
3063.006	54.25
3066.239	51.25
3069.469	58.25
3072.697	47.25
3075.922	45.25
3079.144	52.25
3082.364	75.25
3085.581	54.25
3088.795	78.25
3092.007	69.25
3095.216	70.25
3098.423	67.25
3101.627	50.25
3104.828	69.25
3108.026	58.25
3111.222	86.25
3114.416	97.25
3117.607	84.25
3120.795	82.25
3123.98	84.25
3127.163	80.25
3130.344	88.25
3133.521	79.25
3136.696	103.25
3139.869	103.25
3143.039	89.25
3146.206	114.25
3149.371	106.25
3152.533	108.25
3155.693	91.25
3158.85	109.25
3162.005	108.25
3165.157	100.25
3168.306	110.25
3171.453	117.25
3174.597	92.25
3177.739	93.25
3180.878	113.25
3184.014	114.25
3187.149	113.25
3190.28	111.25
3193.409	114.25
3196.536	118.25
3199.659	121.25
3202.781	122.25
3205.9	103.25
3209.016	112.25
3212.13	104.25
3215.241	107.25
3218.35	113.25
3221.456	110.25
3224.56	98.25
3227.661	104.25
3230.76	101.25
3233.856	99.25
3236.95	106.25
3240.041	92.25
3243.13	107.25
3246.216	104.25
3249.3	100.25
3252.382	106.25
3255.46	94.25
3258.537	49.25
3261.611	84.25
3264.682	94.25
3267.751	92.25
3270.818	83.25
3273.882	94.25
3276.943	92.25
3280.002	109.25
3283.059	89.25
3286.113	91.25
3289.165	85.25
3292.214	83.25
3295.261	105.25
3298.306	77.25
3301.348	89.25
3304.387	72.25
3307.425	85.25
3310.459	81.25
3313.492	88.25
3316.521	80.25
3319.549	90.25
3322.574	88.25
3325.597	80.25
3328.617	69.25
3331.635	78.25
3334.65	62.25
3337.663	77.25
3340.674	69.25
3343.682	69.25
3346.688	76.25
3349.691	68.25
3352.692	68.25
3355.691	78.25
3358.687	73.25
3361.681	79.25
3364.673	66.25
3367.662	74.25
3370.649	78.25
3373.633	67.25
3376.615	71.25
3379.595	52.25
3382.572	61.25
3385.547	50.25
3388.52	53.25
3391.49	59.25
3394.458	66.25
3397.424	63.25
3400.387	46.25
3403.348	55.25
3406.307	53.25
3409.263	57.25
3412.217	61.25
3415.168	59.25
3418.118	57.25
3421.065	45.25
3424.009	60.25
3426.951	45.25
3429.891	40.25
3432.829	49.25
3435.764	48.25
3438.697	40.25
3441.628	55.25
3444.557	35.25
3447.483	34.25
3450.407	46.25
3453.328	37.25
3456.247	34.25
3459.164	38.25
3462.079	43.25
3464.991	30.25
3467.902	27.25
3470.809	25.25
3473.715	38.25
3476.618	27.25
3479.519	30.25
3482.418	13.25
3485.315	18.25
3488.209	8.25
3491.101	15.25
3493.99	5.25
3496.878	9.25
3499.763	15.25
3502.646	12.25
3505.527	3.25
3508.405	4.25
3511.281	-2.75
3514.155	10.25
3517.027	5.25
3519.897	-3.75
3522.764	8.25
3525.629	-15.75
3528.492	3.25
3531.352	2.25
3534.211	1.25
3537.067	-5.75
3539.921	-2.75
3542.773	3.25
3545.622	-12.75
3548.469	-18.75
3551.315	-19.75
3554.157	-6.75
3556.998	-19.75
3559.837	-14.75
3562.673	-14.75
3565.507	-20.75
3568.339	-22.75
3571.169	-20.75
3573.996	-15.75
3576.822	-29.75
3579.645	-23.75
3582.466	-24.75
3585.285	-16.75
3588.101	-19.75
3590.916	-24.75
3593.728	-13.75
3596.538	-20.75
3599.346	-15.75
3602.152	-30.75
3604.956	-17.75
3607.757	-15.75
3610.556	-31.75
3613.354	-20.75
3616.149	-21.75
3618.942	-19.75
3621.732	-16.75
3624.521	-28.75
3627.307	-38.75
3630.092	-30.75
3632.874	-15.75
3635.654	-23.75
3638.432	-36.75
3641.208	-30.75
3643.982	-31.75
3646.753	-22.75
3649.523	-50.75
3652.29	-33.75
3655.055	-25.75
3657.818	-26.75
3660.579	-28.75
3663.338	-31.75
3666.095	-29.75
3668.849	-51.75
3671.602	-26.75
3674.352	-42.75
3677.101	-23.75
3679.847	-21.75
3682.591	-34.75
3685.333	-42.75
3688.073	-29.75
3690.811	-39.75
3693.547	-39.75
3696.281	-41.75
3699.013	-25.75
3701.742	-34.75
3704.47	-46.75
3707.195	-33.75
3709.919	-30.75
3712.64	-36.75
3715.359	-38.75
3718.076	-19.75
3720.792	-30.75
3723.505	-26.75
3726.216	-20.75
3728.925	-36.75
3731.632	-36.75
3734.336	-35.75
3737.039	-27.75
3739.74	-23.75
3742.439	-52.75
3745.136	-25.75
3747.83	-26.75
3750.523	-23.75
3753.213	-99.75
3755.902	-30.75
3758.589	-50.75
3761.273	-42.75
3763.956	-26.75
3766.636	-48.75
3769.315	-28.75
3771.991	-33.75
3774.665	-39.75
3777.338	-34.75
3780.008	-42.75
3782.677	-36.75
3785.343	-50.75
3788.007	-52.75
3790.67	-27.75
3793.33	-43.75
3795.989	-36.75
3798.645	-31.75
3801.299	-42.75
3803.952	-39.75
3806.602	-37.75
3809.251	-30.75
3811.897	-31.75
3814.542	-33.75
3817.184	-40.75
3819.825	-34.75
3822.463	-43.75
3825.1	-39.75
3827.735	-33.75
3830.367	-45.75
3832.998	-24.75
3835.627	-37.75
3838.253	-25.75
3840.878	-37.75
3843.501	-20.75
3846.122	-32.75
3848.741	-31.75
3851.358	-27.75
3853.973	-42.75
3856.586	-26.75
3859.197	-42.75
3861.806	-32.75
3864.414	-46.75
3867.019	-34.75
3869.622	-26.75
3872.224	-22.75
3874.823	-12.75
3877.421	5.25
3880.016	17.25
3882.61	40.25
3885.202	40.25
3887.792	22.25
3890.38	6.25
3892.966	-20.75
3895.55	-35.75
3898.132	-25.75
3900.713	-23.75
3903.291	-30.75
3905.868	-40.75
3908.442	-37.75
3911.015	-37.75
3913.586	-40.75
3916.155	-36.75
3918.722	-42.75
3921.287	-40.75
3923.85	-45.75
3926.411	-40.75
3928.971	-39.75
3931.528	-35.75
3934.084	-36.75
3936.638	-43.75
3939.19	-30.75
3941.74	-29.75
3944.288	-39.75
3946.834	-37.75
3949.378	-25.75
3951.921	-40.75
3954.462	-34.75
3957	-30.75
3959.537	-23.75
3962.072	-33.75
3964.606	-44.75
3967.137	-32.75
3969.667	-39.75
3972.194	-26.75
3974.72	-38.75
3977.244	-59.75
3979.766	-40.75
3982.286	-41.75
3984.805	-33.75
3987.321	-23.75
3989.836	-28.75
3992.349	-40.75
3994.86	-32.75
3997.369	-43.75
3999.877	-38.75
4002.382	-37.75
4004.886	-30.75
4007.388	-40.75
4009.888	-24.75
4012.386	-30.75
4014.883	-32.75
4017.377	-34.75
4019.87	-31.75
4022.361	-40.75
4024.85	-34.75
4027.338	-30.75
4029.823	-36.75
4032.307	-36.75
4034.789	-27.75
4037.269	-33.75
4039.747	-44.75
4042.224	-23.75
4044.699	-40.75
4047.172	-36.75
4049.643	-25.75
4052.112	-55.75
4054.58	-34.75
4057.046	-46.75
4059.51	-34.75
4061.972	-40.75
4064.432	-51.75
4066.891	-25.75
4069.348	-36.75
4071.803	-30.75
4074.256	-37.75
4076.708	-30.75
4079.158	-32.75
4081.606	-20.75
4084.052	-39.75
4086.497	-27.75
4088.939	-27.75
4091.38	-36.75
4093.819	-23.75
4096.257	0.25
4098.693	-8.75
4101.127	-4.75
4103.559	-2.75
4105.989	56.25
4108.418	60.25
4110.845	47.25
4113.27	52.25
4115.694	61.25
4118.115	44.25
4120.535	-31.75
4122.954	-25.75
4125.37	-23.75
4127.785	-25.75
4130.198	-22.75
4132.609	-30.75
4135.019	12.25
4137.427	3.25
4139.833	5.25
4142.237	-4.75
