Data from 2018-3-6_conc=6_n=10_RamanShift_01.txt Node
Date: Tue Mar 06 15:21:48 GMT+02:00 2018
User: LAB3
Spectrometer: QEPB0276
Trigger mode: 0
Integration Time (sec): 3.000000E1
Scans to average: 1
Electric dark correction enabled: true
Nonlinearity correction enabled: false
Boxcar width: 0
XAxis mode: Raman Shifts
Number of Pixels in Spectrum: 1044
>>>>>Begin Spectral Data<<<<<
160.701	34.75
166.742	50.75
172.777	69.75
178.805	159.75
184.826	351.75
190.841	714.75
196.849	1109.75
202.85	1423.75
208.845	1478.75
214.833	1471.75
220.815	1433.75
226.789	1417.75
232.758	1422.75
238.719	1385.75
244.674	1371.75
250.623	1349.75
256.565	1325.75
262.5	1280.75
268.429	1284.75
274.351	1257.75
280.267	1277.75
286.176	1279.75
292.079	1264.75
297.975	1259.75
303.865	1253.75
309.748	1240.75
315.625	1246.75
321.495	1249.75
327.359	1244.75
333.217	1245.75
339.068	1231.75
344.912	1247.75
350.751	1241.75
356.583	1244.75
362.408	1251.75
368.227	1242.75
374.04	1261.75
379.847	1251.75
385.647	1262.75
391.44	1263.75
397.228	1270.75
403.009	1273.75
408.784	1268.75
414.553	1298.75
420.315	1302.75
426.071	1279.75
431.821	1297.75
437.565	1284.75
443.302	1282.75
449.033	1263.75
454.758	1282.75
460.477	1251.75
466.189	1241.75
471.896	1237.75
477.596	1225.75
483.29	1206.75
488.978	1210.75
494.66	1183.75
500.335	1171.75
506.005	1099.75
511.668	1066.75
517.325	983.75
522.977	936.75
528.622	920.75
534.261	904.75
539.894	873.75
545.521	858.75
551.141	832.75
556.756	836.75
562.365	820.75
567.968	817.75
573.565	803.75
579.155	829.75
584.74	797.75
590.319	804.75
595.892	809.75
601.459	823.75
607.02	804.75
612.575	791.75
618.124	787.75
623.667	758.75
629.204	763.75
634.735	748.75
640.261	735.75
645.781	708.75
651.294	708.75
656.802	717.75
662.304	723.75
667.8	739.75
673.29	715.75
678.775	712.75
684.254	721.75
689.726	688.75
695.193	708.75
700.655	694.75
706.11	693.75
711.56	695.75
717.004	682.75
722.442	660.75
727.874	683.75
733.301	694.75
738.722	662.75
744.137	672.75
749.547	679.75
754.951	657.75
760.349	679.75
765.741	692.75
771.128	686.75
776.509	695.75
781.885	702.75
787.254	729.75
792.618	705.75
797.977	718.75
803.33	720.75
808.677	699.75
814.019	695.75
819.355	690.75
824.686	671.75
830.011	660.75
835.33	691.75
840.644	684.75
845.952	653.75
851.255	661.75
856.552	660.75
861.844	649.75
867.13	643.75
872.41	632.75
877.686	631.75
882.955	629.75
888.219	615.75
893.478	592.75
898.731	600.75
903.979	598.75
909.221	580.75
914.458	578.75
919.69	569.75
924.916	586.75
930.136	580.75
935.351	581.75
940.561	585.75
945.766	574.75
950.965	582.75
956.158	562.75
961.347	557.75
966.529	569.75
971.707	567.75
976.879	539.75
982.046	538.75
987.208	534.75
992.364	553.75
997.515	535.75
1002.66	542.75
1007.801	526.75
1012.936	538.75
1018.066	526.75
1023.19	555.75
1028.309	550.75
1033.423	554.75
1038.532	564.75
1043.636	532.75
1048.734	552.75
1053.827	531.75
1058.915	524.75
1063.998	532.75
1069.075	517.75
1074.147	537.75
1079.214	509.75
1084.276	538.75
1089.333	539.75
1094.385	526.75
1099.431	523.75
1104.472	522.75
1109.509	509.75
1114.54	508.75
1119.565	506.75
1124.586	492.75
1129.602	500.75
1134.613	483.75
1139.618	474.75
1144.619	488.75
1149.614	482.75
1154.604	486.75
1159.589	479.75
1164.57	501.75
1169.545	505.75
1174.515	497.75
1179.48	484.75
1184.44	490.75
1189.395	495.75
1194.345	478.75
1199.29	488.75
1204.23	480.75
1209.165	458.75
1214.095	486.75
1219.021	478.75
1223.941	474.75
1228.856	472.75
1233.766	485.75
1238.672	485.75
1243.572	494.75
1248.467	478.75
1253.358	481.75
1258.244	452.75
1263.124	469.75
1268	467.75
1272.871	425.75
1277.737	431.75
1282.599	433.75
1287.455	431.75
1292.306	439.75
1297.153	415.75
1301.995	433.75
1306.832	426.75
1311.664	434.75
1316.491	428.75
1321.314	432.75
1326.132	435.75
1330.945	421.75
1335.753	424.75
1340.556	415.75
1345.354	408.75
1350.148	406.75
1354.937	400.75
1359.722	390.75
1364.501	393.75
1369.276	393.75
1374.046	397.75
1378.811	390.75
1383.572	387.75
1388.327	391.75
1393.079	372.75
1397.825	380.75
1402.567	370.75
1407.304	370.75
1412.036	373.75
1416.764	373.75
1421.487	357.75
1426.205	353.75
1430.919	367.75
1435.628	368.75
1440.333	367.75
1445.032	368.75
1449.727	376.75
1454.418	372.75
1459.104	388.75
1463.785	355.75
1468.462	372.75
1473.134	364.75
1477.802	363.75
1482.465	335.75
1487.123	348.75
1491.777	331.75
1496.426	333.75
1501.071	355.75
1505.711	331.75
1510.347	359.75
1514.978	358.75
1519.604	345.75
1524.226	362.75
1528.844	340.75
1533.457	344.75
1538.065	336.75
1542.669	338.75
1547.269	345.75
1551.864	348.75
1556.454	322.75
1561.041	336.75
1565.622	330.75
1570.199	339.75
1574.772	338.75
1579.34	355.75
1583.904	354.75
1588.464	364.75
1593.019	358.75
1597.569	339.75
1602.115	340.75
1606.657	338.75
1611.195	344.75
1615.728	361.75
1620.256	345.75
1624.78	309.75
1629.3	326.75
1633.816	339.75
1638.327	331.75
1642.834	345.75
1647.336	332.75
1651.834	362.75
1656.328	352.75
1660.817	341.75
1665.302	335.75
1669.783	335.75
1674.259	328.75
1678.732	323.75
1683.199	307.75
1687.663	301.75
1692.122	308.75
1696.577	305.75
1701.028	300.75
1705.474	288.75
1709.917	279.75
1714.355	278.75
1718.788	280.75
1723.218	259.75
1727.643	256.75
1732.064	257.75
1736.481	246.75
1740.893	256.75
1745.301	243.75
1749.705	223.75
1754.105	230.75
1758.501	215.75
1762.893	227.75
1767.28	208.75
1771.663	219.75
1776.042	210.75
1780.417	217.75
1784.787	223.75
1789.154	224.75
1793.516	223.75
1797.874	220.75
1802.228	211.75
1806.578	201.75
1810.924	214.75
1815.266	95.75
1819.603	214.75
1823.937	200.75
1828.266	209.75
1832.591	204.75
1836.913	194.75
1841.23	196.75
1845.543	182.75
1849.852	203.75
1854.156	190.75
1858.457	196.75
1862.754	181.75
1867.047	196.75
1871.335	205.75
1875.62	206.75
1879.9	206.75
1884.177	189.75
1888.449	194.75
1892.718	190.75
1896.982	193.75
1901.243	183.75
1905.499	190.75
1909.752	174.75
1914	166.75
1918.245	199.75
1922.485	188.75
1926.722	178.75
1930.954	178.75
1935.183	194.75
1939.408	195.75
1943.628	188.75
1947.845	193.75
1952.058	188.75
1956.267	169.75
1960.472	189.75
1964.673	183.75
1968.87	169.75
1973.063	175.75
1977.252	175.75
1981.438	166.75
1985.619	161.75
1989.797	155.75
1993.971	159.75
1998.14	166.75
2002.306	172.75
2006.469	168.75
2010.627	154.75
2014.781	158.75
2018.932	152.75
2023.078	173.75
2027.221	161.75
2031.36	156.75
2035.495	150.75
2039.627	158.75
2043.754	158.75
2047.878	144.75
2051.998	146.75
2056.114	149.75
2060.226	148.75
2064.334	160.75
2068.439	150.75
2072.54	158.75
2076.637	143.75
2080.73	145.75
2084.82	147.75
2088.906	143.75
2092.988	142.75
2097.066	142.75
2101.14	156.75
2105.211	156.75
2109.278	138.75
2113.342	141.75
2117.401	128.75
2121.457	127.75
2125.509	135.75
2129.558	141.75
2133.602	132.75
2137.643	130.75
2141.681	130.75
2145.714	130.75
2149.744	131.75
2153.77	124.75
2157.793	116.75
2161.812	96.75
2165.827	103.75
2169.838	134.75
2173.846	112.75
2177.851	105.75
2181.851	124.75
2185.848	119.75
2189.841	111.75
2193.831	112.75
2197.817	115.75
2201.799	111.75
2205.778	102.75
2209.753	94.75
2213.725	92.75
2217.693	111.75
2221.657	89.75
2225.618	109.75
2229.575	98.75
2233.529	100.75
2237.479	108.75
2241.425	101.75
2245.368	91.75
2249.307	104.75
2253.243	92.75
2257.175	95.75
2261.104	89.75
2265.029	90.75
2268.95	93.75
2272.868	86.75
2276.783	78.75
2280.694	89.75
2284.601	84.75
2288.505	80.75
2292.405	88.75
2296.302	63.75
2300.195	77.75
2304.085	48.75
2307.971	76.75
2311.854	57.75
2315.734	68.75
2319.609	77.75
2323.482	49.75
2327.351	58.75
2331.216	59.75
2335.078	73.75
2338.937	66.75
2342.792	54.75
2346.643	64.75
2350.492	68.75
2354.336	63.75
2358.178	69.75
2362.015	64.75
2365.85	55.75
2369.681	63.75
2373.508	65.75
2377.333	73.75
2381.153	67.75
2384.971	60.75
2388.785	66.75
2392.595	54.75
2396.402	56.75
2400.206	38.75
2404.007	53.75
2407.804	52.75
2411.597	68.75
2415.388	51.75
2419.174	47.75
2422.958	55.75
2426.738	52.75
2430.515	57.75
2434.289	44.75
2438.059	41.75
2441.825	47.75
2445.589	49.75
2449.349	40.75
2453.106	50.75
2456.859	49.75
2460.61	55.75
2464.356	35.75
2468.1	43.75
2471.84	38.75
2475.577	38.75
2479.311	37.75
2483.041	43.75
2486.768	56.75
2490.492	48.75
2494.213	41.75
2497.93	29.75
2501.644	25.75
2505.355	40.75
2509.062	35.75
2512.766	37.75
2516.467	36.75
2520.165	33.75
2523.859	25.75
2527.551	59.75
2531.239	30.75
2534.923	40.75
2538.605	32.75
2542.283	38.75
2545.958	36.75
2549.63	47.75
2553.299	45.75
2556.964	28.75
2560.626	38.75
2564.285	39.75
2567.941	30.75
2571.594	25.75
2575.243	39.75
2578.89	29.75
2582.533	35.75
2586.173	31.75
2589.809	35.75
2593.443	12.75
2597.073	32.75
2600.701	33.75
2604.325	29.75
2607.946	17.75
2611.564	37.75
2615.178	29.75
2618.79	34.75
2622.398	20.75
2626.004	34.75
2629.606	28.75
2633.205	21.75
2636.801	26.75
2640.394	18.75
2643.983	18.75
2647.57	20.75
2651.153	20.75
2654.734	27.75
2658.311	-1.25
2661.885	10.75
2665.456	12.75
2669.025	20.75
2672.589	10.75
2676.151	32.75
2679.71	30.75
2683.266	21.75
2686.819	11.75
2690.368	24.75
2693.915	21.75
2697.458	18.75
2700.999	27.75
2704.536	26.75
2708.071	19.75
2711.602	20.75
2715.13	21.75
2718.656	-5.25
2722.178	19.75
2725.697	4.75
2729.214	10.75
2732.727	18.75
2736.237	-0.25
2739.744	13.75
2743.249	8.75
2746.75	14.75
2750.248	9.75
2753.743	13.75
2757.236	10.75
2760.725	17.75
2764.211	-18.25
2767.695	14.75
2771.175	5.75
2774.652	16.75
2778.127	4.75
2781.598	9.75
2785.067	7.75
2788.532	2.75
2791.995	5.75
2795.455	5.75
2798.911	17.75
2802.365	6.75
2805.816	8.75
2809.264	20.75
2812.709	8.75
2816.151	14.75
2819.59	-0.25
2823.026	7.75
2826.46	3.75
2829.89	19.75
2833.318	-7.25
2836.742	10.75
2840.164	8.75
2843.583	7.75
2846.999	5.75
2850.412	8.75
2853.822	10.75
2857.229	22.75
2860.634	9.75
2864.035	-3.25
2867.434	14.75
2870.83	22.75
2874.223	3.75
2877.613	6.75
2881	4.75
2884.385	3.75
2887.766	5.75
2891.145	11.75
2894.521	5.75
2897.894	-1.25
2901.264	16.75
2904.631	13.75
2907.996	15.75
2911.358	19.75
2914.717	14.75
2918.073	10.75
2921.426	6.75
2924.777	-3.25
2928.124	3.75
2931.469	20.75
2934.811	2.75
2938.15	27.75
2941.487	13.75
2944.821	28.75
2948.152	16.75
2951.48	21.75
2954.805	11.75
2958.128	33.75
2961.447	14.75
2964.765	35.75
2968.079	22.75
2971.39	22.75
2974.699	26.75
2978.005	24.75
2981.308	22.75
2984.609	23.75
2987.907	31.75
2991.202	37.75
2994.494	17.75
2997.784	24.75
3001.07	25.75
3004.355	24.75
3007.636	24.75
3010.915	25.75
3014.191	20.75
3017.464	27.75
3020.734	27.75
3024.002	34.75
3027.267	25.75
3030.53	30.75
3033.789	30.75
3037.046	35.75
3040.301	22.75
3043.552	31.75
3046.801	35.75
3050.048	44.75
3053.291	51.75
3056.532	41.75
3059.771	18.75
3063.006	44.75
3066.239	40.75
3069.469	42.75
3072.697	35.75
3075.922	37.75
3079.144	42.75
3082.364	64.75
3085.581	48.75
3088.795	68.75
3092.007	58.75
3095.216	64.75
3098.423	61.75
3101.627	39.75
3104.828	69.75
3108.026	57.75
3111.222	73.75
3114.416	86.75
3117.607	70.75
3120.795	66.75
3123.98	70.75
3127.163	62.75
3130.344	71.75
3133.521	69.75
3136.696	87.75
3139.869	81.75
3143.039	69.75
3146.206	98.75
3149.371	97.75
3152.533	92.75
3155.693	76.75
3158.85	92.75
3162.005	95.75
3165.157	82.75
3168.306	86.75
3171.453	97.75
3174.597	82.75
3177.739	84.75
3180.878	91.75
3184.014	90.75
3187.149	94.75
3190.28	90.75
3193.409	107.75
3196.536	98.75
3199.659	107.75
3202.781	104.75
3205.9	84.75
3209.016	100.75
3212.13	92.75
3215.241	98.75
3218.35	90.75
3221.456	89.75
3224.56	83.75
3227.661	91.75
3230.76	90.75
3233.856	80.75
3236.95	86.75
3240.041	84.75
3243.13	95.75
3246.216	85.75
3249.3	95.75
3252.382	92.75
3255.46	83.75
3258.537	35.75
3261.611	75.75
3264.682	82.75
3267.751	78.75
3270.818	73.75
3273.882	89.75
3276.943	80.75
3280.002	94.75
3283.059	78.75
3286.113	81.75
3289.165	72.75
3292.214	72.75
3295.261	88.75
3298.306	61.75
3301.348	75.75
3304.387	71.75
3307.425	76.75
3310.459	66.75
3313.492	77.75
3316.521	67.75
3319.549	81.75
3322.574	74.75
3325.597	72.75
3328.617	57.75
3331.635	63.75
3334.65	46.75
3337.663	67.75
3340.674	59.75
3343.682	65.75
3346.688	68.75
3349.691	62.75
3352.692	66.75
3355.691	67.75
3358.687	60.75
3361.681	65.75
3364.673	53.75
3367.662	57.75
3370.649	66.75
3373.633	53.75
3376.615	57.75
3379.595	43.75
3382.572	47.75
3385.547	43.75
3388.52	44.75
3391.49	44.75
3394.458	49.75
3397.424	51.75
3400.387	37.75
3403.348	45.75
3406.307	47.75
3409.263	48.75
3412.217	48.75
3415.168	49.75
3418.118	57.75
3421.065	41.75
3424.009	53.75
3426.951	41.75
3429.891	35.75
3432.829	41.75
3435.764	45.75
3438.697	30.75
3441.628	44.75
3444.557	31.75
3447.483	30.75
3450.407	39.75
3453.328	25.75
3456.247	24.75
3459.164	17.75
3462.079	36.75
3464.991	26.75
3467.902	27.75
3470.809	21.75
3473.715	29.75
3476.618	16.75
3479.519	18.75
3482.418	-0.25
3485.315	11.75
3488.209	9.75
3491.101	9.75
3493.99	0.75
3496.878	-1.25
3499.763	3.75
3502.646	8.75
3505.527	-2.25
3508.405	-2.25
3511.281	-11.25
3514.155	3.75
3517.027	-5.25
3519.897	-9.25
3522.764	2.75
3525.629	-18.25
3528.492	-6.25
3531.352	1.75
3534.211	-3.25
3537.067	-7.25
3539.921	-6.25
3542.773	-3.25
3545.622	-14.25
3548.469	-17.25
3551.315	-18.25
3554.157	-10.25
3556.998	-20.25
3559.837	-16.25
3562.673	-7.25
3565.507	-19.25
3568.339	-27.25
3571.169	-20.25
3573.996	-21.25
3576.822	-31.25
3579.645	-30.25
3582.466	-24.25
3585.285	-19.25
3588.101	-19.25
3590.916	-26.25
3593.728	-19.25
3596.538	-18.25
3599.346	-24.25
3602.152	-30.25
3604.956	-20.25
3607.757	-21.25
3610.556	-31.25
3613.354	-20.25
3616.149	-19.25
3618.942	-20.25
3621.732	-21.25
3624.521	-29.25
3627.307	-36.25
3630.092	-38.25
3632.874	-18.25
3635.654	-26.25
3638.432	-34.25
3641.208	-33.25
3643.982	-28.25
3646.753	-22.25
3649.523	-52.25
3652.29	-34.25
3655.055	-29.25
3657.818	-26.25
3660.579	-35.25
3663.338	-41.25
3666.095	-27.25
3668.849	-53.25
3671.602	-25.25
3674.352	-42.25
3677.101	-24.25
3679.847	-20.25
3682.591	-34.25
3685.333	-40.25
3688.073	-32.25
3690.811	-42.25
3693.547	-40.25
3696.281	-43.25
3699.013	-28.25
3701.742	-34.25
3704.47	-45.25
3707.195	-24.25
3709.919	-32.25
3712.64	-31.25
3715.359	-40.25
3718.076	-21.25
3720.792	-32.25
3723.505	-31.25
3726.216	-21.25
3728.925	-35.25
3731.632	-39.25
3734.336	-31.25
3737.039	-30.25
3739.74	-30.25
3742.439	-58.25
3745.136	-28.25
3747.83	-30.25
3750.523	-29.25
3753.213	-88.25
3755.902	-32.25
3758.589	-48.25
3761.273	-41.25
3763.956	-29.25
3766.636	-50.25
3769.315	-29.25
3771.991	-36.25
3774.665	-38.25
3777.338	-33.25
3780.008	-46.25
3782.677	-38.25
3785.343	-51.25
3788.007	-52.25
3790.67	-27.25
3793.33	-43.25
3795.989	-41.25
3798.645	-27.25
3801.299	-48.25
3803.952	-45.25
3806.602	-36.25
3809.251	-31.25
3811.897	-34.25
3814.542	-39.25
3817.184	-36.25
3819.825	-35.25
3822.463	-46.25
3825.1	-38.25
3827.735	-33.25
3830.367	-38.25
3832.998	-21.25
3835.627	-39.25
3838.253	-30.25
3840.878	-38.25
3843.501	-20.25
3846.122	-32.25
3848.741	-28.25
3851.358	-26.25
3853.973	-42.25
3856.586	-25.25
3859.197	-41.25
3861.806	-31.25
3864.414	-46.25
3867.019	-40.25
3869.622	-29.25
3872.224	-27.25
3874.823	-17.25
3877.421	-4.25
3880.016	7.75
3882.61	45.75
3885.202	60.75
3887.792	36.75
3890.38	7.75
3892.966	-16.25
3895.55	-36.25
3898.132	-28.25
3900.713	-26.25
3903.291	-38.25
3905.868	-42.25
3908.442	-34.25
3911.015	-29.25
3913.586	-38.25
3916.155	-38.25
3918.722	-35.25
3921.287	-39.25
3923.85	-42.25
3926.411	-38.25
3928.971	-40.25
3931.528	-30.25
3934.084	-41.25
3936.638	-43.25
3939.19	-32.25
3941.74	-29.25
3944.288	-36.25
3946.834	-36.25
3949.378	-27.25
3951.921	-36.25
3954.462	-35.25
3957	-35.25
3959.537	-24.25
3962.072	-38.25
3964.606	-50.25
3967.137	-36.25
3969.667	-43.25
3972.194	-29.25
3974.72	-44.25
3977.244	-58.25
3979.766	-44.25
3982.286	-43.25
3984.805	-32.25
3987.321	-28.25
3989.836	-35.25
3992.349	-46.25
3994.86	-35.25
3997.369	-42.25
3999.877	-39.25
4002.382	-39.25
4004.886	-28.25
4007.388	-33.25
4009.888	-28.25
4012.386	-25.25
4014.883	-31.25
4017.377	-35.25
4019.87	-35.25
4022.361	-39.25
4024.85	-31.25
4027.338	-32.25
4029.823	-40.25
4032.307	-34.25
4034.789	-32.25
4037.269	-30.25
4039.747	-47.25
4042.224	-23.25
4044.699	-38.25
4047.172	-37.25
4049.643	-29.25
4052.112	-56.25
4054.58	-33.25
4057.046	-51.25
4059.51	-38.25
4061.972	-32.25
4064.432	-53.25
4066.891	-26.25
4069.348	-37.25
4071.803	-30.25
4074.256	-41.25
4076.708	-29.25
4079.158	-37.25
4081.606	-24.25
4084.052	-37.25
4086.497	-33.25
4088.939	-34.25
4091.38	-41.25
4093.819	-29.25
4096.257	1.75
4098.693	-5.25
4101.127	-6.25
4103.559	0.75
4105.989	39.75
4108.418	46.75
4110.845	34.75
4113.27	38.75
4115.694	42.75
4118.115	34.75
4120.535	-32.25
4122.954	-25.25
4125.37	-26.25
4127.785	-27.25
4130.198	-22.25
4132.609	-30.25
4135.019	5.75
4137.427	1.75
4139.833	6.75
4142.237	-5.25
