Data from 2018-3-6_conc=6_n=10_RamanShift_03.txt Node
Date: Tue Mar 06 15:22:48 GMT+02:00 2018
User: LAB3
Spectrometer: QEPB0276
Trigger mode: 0
Integration Time (sec): 3.000000E1
Scans to average: 1
Electric dark correction enabled: true
Nonlinearity correction enabled: false
Boxcar width: 0
XAxis mode: Raman Shifts
Number of Pixels in Spectrum: 1044
>>>>>Begin Spectral Data<<<<<
160.701	32
166.742	54
172.777	75
178.805	141
184.826	346
190.841	702
196.849	1076
202.85	1356
208.845	1426
214.833	1420
220.815	1387
226.789	1359
232.758	1370
238.719	1334
244.674	1331
250.623	1304
256.565	1281
262.5	1254
268.429	1232
274.351	1230
280.267	1223
286.176	1225
292.079	1217
297.975	1206
303.865	1204
309.748	1203
315.625	1195
321.495	1209
327.359	1188
333.217	1199
339.068	1180
344.912	1195
350.751	1199
356.583	1195
362.408	1213
368.227	1221
374.04	1240
379.847	1211
385.647	1243
391.44	1223
397.228	1214
403.009	1233
408.784	1239
414.553	1241
420.315	1263
426.071	1241
431.821	1253
437.565	1243
443.302	1244
449.033	1229
454.758	1227
460.477	1208
466.189	1196
471.896	1196
477.596	1184
483.29	1170
488.978	1178
494.66	1155
500.335	1119
506.005	1066
511.668	1015
517.325	942
522.977	902
528.622	872
534.261	850
539.894	830
545.521	826
551.141	792
556.756	777
562.365	781
567.968	786
573.565	767
579.155	768
584.74	760
590.319	760
595.892	774
601.459	774
607.02	763
612.575	754
618.124	748
623.667	729
629.204	721
634.735	717
640.261	695
645.781	661
651.294	677
656.802	695
662.304	678
667.8	695
673.29	675
678.775	682
684.254	682
689.726	661
695.193	666
700.655	664
706.11	654
711.56	664
717.004	667
722.442	628
727.874	642
733.301	657
738.722	635
744.137	630
749.547	623
754.951	637
760.349	630
765.741	654
771.128	645
776.509	655
781.885	667
787.254	678
792.618	678
797.977	683
803.33	672
808.677	671
814.019	665
819.355	653
824.686	650
830.011	638
835.33	649
840.644	658
845.952	627
851.255	639
856.552	628
861.844	631
867.13	603
872.41	598
877.686	611
882.955	593
888.219	582
893.478	571
898.731	569
903.979	572
909.221	565
914.458	548
919.69	556
924.916	563
930.136	551
935.351	544
940.561	555
945.766	557
950.965	556
956.158	537
961.347	529
966.529	536
971.707	539
976.879	537
982.046	517
987.208	497
992.364	519
997.515	509
1002.66	526
1007.801	502
1012.936	514
1018.066	493
1023.19	518
1028.309	533
1033.423	515
1038.532	535
1043.636	523
1048.734	523
1053.827	514
1058.915	495
1063.998	503
1069.075	500
1074.147	508
1079.214	488
1084.276	504
1089.333	499
1094.385	506
1099.431	500
1104.472	501
1109.509	491
1114.54	481
1119.565	477
1124.586	485
1129.602	464
1134.613	442
1139.618	457
1144.619	455
1149.614	464
1154.604	468
1159.589	453
1164.57	471
1169.545	480
1174.515	471
1179.48	454
1184.44	465
1189.395	475
1194.345	442
1199.29	461
1204.23	452
1209.165	427
1214.095	448
1219.021	443
1223.941	444
1228.856	449
1233.766	461
1238.672	473
1243.572	465
1248.467	454
1253.358	449
1258.244	431
1263.124	458
1268	433
1272.871	413
1277.737	414
1282.599	403
1287.455	407
1292.306	406
1297.153	405
1301.995	411
1306.832	414
1311.664	423
1316.491	406
1321.314	416
1326.132	401
1330.945	407
1335.753	411
1340.556	402
1345.354	386
1350.148	394
1354.937	387
1359.722	372
1364.501	378
1369.276	378
1374.046	389
1378.811	375
1383.572	374
1388.327	381
1393.079	362
1397.825	351
1402.567	352
1407.304	355
1412.036	349
1416.764	352
1421.487	341
1426.205	341
1430.919	352
1435.628	345
1440.333	348
1445.032	358
1449.727	357
1454.418	366
1459.104	367
1463.785	348
1468.462	354
1473.134	346
1477.802	343
1482.465	318
1487.123	332
1491.777	310
1496.426	303
1501.071	341
1505.711	325
1510.347	335
1514.978	338
1519.604	328
1524.226	341
1528.844	316
1533.457	350
1538.065	323
1542.669	327
1547.269	334
1551.864	329
1556.454	309
1561.041	315
1565.622	325
1570.199	315
1574.772	320
1579.34	330
1583.904	330
1588.464	345
1593.019	340
1597.569	325
1602.115	325
1606.657	329
1611.195	344
1615.728	335
1620.256	334
1624.78	312
1629.3	321
1633.816	330
1638.327	326
1642.834	335
1647.336	323
1651.834	346
1656.328	325
1660.817	332
1665.302	321
1669.783	312
1674.259	315
1678.732	307
1683.199	307
1687.663	295
1692.122	299
1696.577	284
1701.028	294
1705.474	272
1709.917	265
1714.355	261
1718.788	266
1723.218	238
1727.643	236
1732.064	240
1736.481	229
1740.893	239
1745.301	234
1749.705	205
1754.105	226
1758.501	210
1762.893	223
1767.28	204
1771.663	209
1776.042	207
1780.417	198
1784.787	210
1789.154	215
1793.516	210
1797.874	200
1802.228	200
1806.578	194
1810.924	205
1815.266	83
1819.603	204
1823.937	191
1828.266	192
1832.591	189
1836.913	195
1841.23	189
1845.543	190
1849.852	192
1854.156	178
1858.457	184
1862.754	179
1867.047	185
1871.335	201
1875.62	196
1879.9	187
1884.177	187
1888.449	185
1892.718	183
1896.982	195
1901.243	172
1905.499	178
1909.752	168
1914	161
1918.245	187
1922.485	186
1926.722	183
1930.954	165
1935.183	178
1939.408	185
1943.628	178
1947.845	178
1952.058	175
1956.267	158
1960.472	176
1964.673	177
1968.87	167
1973.063	163
1977.252	158
1981.438	153
1985.619	146
1989.797	142
1993.971	150
1998.14	170
2002.306	154
2006.469	160
2010.627	146
2014.781	152
2018.932	145
2023.078	168
2027.221	165
2031.36	149
2035.495	147
2039.627	145
2043.754	149
2047.878	133
2051.998	140
2056.114	140
2060.226	138
2064.334	150
2068.439	152
2072.54	153
2076.637	134
2080.73	141
2084.82	142
2088.906	140
2092.988	140
2097.066	143
2101.14	148
2105.211	148
2109.278	141
2113.342	136
2117.401	121
2121.457	121
2125.509	124
2129.558	130
2133.602	126
2137.643	127
2141.681	124
2145.714	121
2149.744	130
2153.77	123
2157.793	111
2161.812	94
2165.827	97
2169.838	125
2173.846	113
2177.851	103
2181.851	121
2185.848	106
2189.841	109
2193.831	100
2197.817	105
2201.799	107
2205.778	91
2209.753	101
2213.725	94
2217.693	100
2221.657	100
2225.618	109
2229.575	100
2233.529	105
2237.479	105
2241.425	97
2245.368	81
2249.307	99
2253.243	92
2257.175	91
2261.104	84
2265.029	94
2268.95	79
2272.868	79
2276.783	76
2280.694	87
2284.601	79
2288.505	76
2292.405	91
2296.302	60
2300.195	71
2304.085	54
2307.971	78
2311.854	54
2315.734	71
2319.609	77
2323.482	54
2327.351	59
2331.216	58
2335.078	75
2338.937	67
2342.792	61
2346.643	57
2350.492	71
2354.336	59
2358.178	69
2362.015	64
2365.85	56
2369.681	58
2373.508	64
2377.333	74
2381.153	67
2384.971	60
2388.785	65
2392.595	51
2396.402	50
2400.206	32
2404.007	47
2407.804	59
2411.597	54
2415.388	50
2419.174	50
2422.958	54
2426.738	51
2430.515	59
2434.289	46
2438.059	41
2441.825	46
2445.589	53
2449.349	37
2453.106	48
2456.859	40
2460.61	52
2464.356	39
2468.1	38
2471.84	36
2475.577	33
2479.311	37
2483.041	42
2486.768	55
2490.492	55
2494.213	50
2497.93	29
2501.644	28
2505.355	41
2509.062	39
2512.766	38
2516.467	38
2520.165	35
2523.859	27
2527.551	62
2531.239	32
2534.923	41
2538.605	37
2542.283	37
2545.958	40
2549.63	49
2553.299	41
2556.964	23
2560.626	32
2564.285	37
2567.941	20
2571.594	22
2575.243	34
2578.89	28
2582.533	27
2586.173	32
2589.809	34
2593.443	7
2597.073	30
2600.701	28
2604.325	27
2607.946	19
2611.564	36
2615.178	29
2618.79	26
2622.398	21
2626.004	31
2629.606	28
2633.205	20
2636.801	30
2640.394	25
2643.983	27
2647.57	20
2651.153	19
2654.734	30
2658.311	3
2661.885	11
2665.456	16
2669.025	21
2672.589	11
2676.151	32
2679.71	31
2683.266	18
2686.819	15
2690.368	26
2693.915	27
2697.458	25
2700.999	23
2704.536	22
2708.071	18
2711.602	15
2715.13	15
2718.656	-2
2722.178	17
2725.697	3
2729.214	13
2732.727	18
2736.237	4
2739.744	4
2743.249	2
2746.75	10
2750.248	4
2753.743	17
2757.236	9
2760.725	17
2764.211	-15
2767.695	18
2771.175	11
2774.652	12
2778.127	12
2781.598	9
2785.067	9
2788.532	-3
2791.995	8
2795.455	6
2798.911	18
2802.365	7
2805.816	15
2809.264	20
2812.709	6
2816.151	13
2819.59	4
2823.026	5
2826.46	2
2829.89	18
2833.318	-9
2836.742	7
2840.164	12
2843.583	4
2846.999	12
2850.412	11
2853.822	7
2857.229	19
2860.634	16
2864.035	-2
2867.434	14
2870.83	19
2874.223	11
2877.613	8
2881	1
2884.385	5
2887.766	6
2891.145	7
2894.521	4
2897.894	2
2901.264	15
2904.631	10
2907.996	17
2911.358	23
2914.717	12
2918.073	9
2921.426	6
2924.777	-3
2928.124	6
2931.469	24
2934.811	4
2938.15	26
2941.487	16
2944.821	36
2948.152	20
2951.48	22
2954.805	6
2958.128	31
2961.447	15
2964.765	37
2968.079	18
2971.39	26
2974.699	25
2978.005	30
2981.308	23
2984.609	18
2987.907	27
2991.202	33
2994.494	20
2997.784	29
3001.07	26
3004.355	25
3007.636	24
3010.915	26
3014.191	25
3017.464	24
3020.734	28
3024.002	33
3027.267	29
3030.53	32
3033.789	32
3037.046	30
3040.301	24
3043.552	32
3046.801	33
3050.048	46
3053.291	54
3056.532	38
3059.771	21
3063.006	43
3066.239	38
3069.469	46
3072.697	36
3075.922	43
3079.144	40
3082.364	63
3085.581	46
3088.795	64
3092.007	59
3095.216	58
3098.423	58
3101.627	27
3104.828	59
3108.026	54
3111.222	76
3114.416	71
3117.607	66
3120.795	69
3123.98	71
3127.163	65
3130.344	72
3133.521	70
3136.696	83
3139.869	79
3143.039	64
3146.206	96
3149.371	95
3152.533	92
3155.693	76
3158.85	96
3162.005	95
3165.157	89
3168.306	88
3171.453	101
3174.597	85
3177.739	78
3180.878	94
3184.014	96
3187.149	94
3190.28	88
3193.409	97
3196.536	98
3199.659	102
3202.781	100
3205.9	86
3209.016	94
3212.13	93
3215.241	92
3218.35	91
3221.456	81
3224.56	76
3227.661	84
3230.76	88
3233.856	81
3236.95	84
3240.041	72
3243.13	93
3246.216	80
3249.3	92
3252.382	90
3255.46	74
3258.537	33
3261.611	75
3264.682	80
3267.751	78
3270.818	77
3273.882	83
3276.943	79
3280.002	89
3283.059	79
3286.113	79
3289.165	71
3292.214	63
3295.261	86
3298.306	56
3301.348	80
3304.387	59
3307.425	69
3310.459	64
3313.492	81
3316.521	66
3319.549	81
3322.574	76
3325.597	67
3328.617	62
3331.635	70
3334.65	47
3337.663	63
3340.674	53
3343.682	64
3346.688	74
3349.691	56
3352.692	61
3355.691	63
3358.687	66
3361.681	63
3364.673	57
3367.662	64
3370.649	64
3373.633	49
3376.615	59
3379.595	45
3382.572	54
3385.547	44
3388.52	46
3391.49	43
3394.458	46
3397.424	52
3400.387	42
3403.348	41
3406.307	47
3409.263	49
3412.217	54
3415.168	48
3418.118	54
3421.065	43
3424.009	48
3426.951	44
3429.891	38
3432.829	43
3435.764	42
3438.697	29
3441.628	52
3444.557	26
3447.483	27
3450.407	33
3453.328	24
3456.247	24
3459.164	17
3462.079	34
3464.991	28
3467.902	30
3470.809	26
3473.715	28
3476.618	18
3479.519	17
3482.418	-3
3485.315	9
3488.209	9
3491.101	13
3493.99	-1
3496.878	-2
3499.763	9
3502.646	6
3505.527	1
3508.405	-2
3511.281	-7
3514.155	1
3517.027	-3
3519.897	-15
3522.764	0
3525.629	-19
3528.492	-6
3531.352	-4
3534.211	-8
3537.067	-8
3539.921	-7
3542.773	1
3545.622	-21
3548.469	-23
3551.315	-21
3554.157	-12
3556.998	-20
3559.837	-15
3562.673	-8
3565.507	-18
3568.339	-24
3571.169	-19
3573.996	-12
3576.822	-29
3579.645	-25
3582.466	-23
3585.285	-18
3588.101	-21
3590.916	-22
3593.728	-13
3596.538	-23
3599.346	-20
3602.152	-29
3604.956	-24
3607.757	-19
3610.556	-37
3613.354	-18
3616.149	-17
3618.942	-20
3621.732	-14
3624.521	-30
3627.307	-36
3630.092	-33
3632.874	-17
3635.654	-29
3638.432	-34
3641.208	-36
3643.982	-31
3646.753	-21
3649.523	-52
3652.29	-37
3655.055	-27
3657.818	-26
3660.579	-31
3663.338	-38
3666.095	-30
3668.849	-56
3671.602	-23
3674.352	-36
3677.101	-24
3679.847	-18
3682.591	-36
3685.333	-44
3688.073	-27
3690.811	-38
3693.547	-43
3696.281	-46
3699.013	-27
3701.742	-33
3704.47	-42
3707.195	-29
3709.919	-33
3712.64	-29
3715.359	-44
3718.076	-18
3720.792	-28
3723.505	-34
3726.216	-23
3728.925	-33
3731.632	-42
3734.336	-34
3737.039	-38
3739.74	-30
3742.439	-57
3745.136	-29
3747.83	-28
3750.523	-28
3753.213	-92
3755.902	-33
3758.589	-51
3761.273	-36
3763.956	-27
3766.636	-51
3769.315	-25
3771.991	-36
3774.665	-36
3777.338	-36
3780.008	-45
3782.677	-34
3785.343	-49
3788.007	-50
3790.67	-25
3793.33	-43
3795.989	-37
3798.645	-29
3801.299	-46
3803.952	-43
3806.602	-37
3809.251	-23
3811.897	-33
3814.542	-36
3817.184	-33
3819.825	-29
3822.463	-45
3825.1	-35
3827.735	-38
3830.367	-39
3832.998	-23
3835.627	-37
3838.253	-25
3840.878	-36
3843.501	-21
3846.122	-27
3848.741	-28
3851.358	-26
3853.973	-43
3856.586	-28
3859.197	-38
3861.806	-34
3864.414	-46
3867.019	-34
3869.622	-30
3872.224	-24
3874.823	-20
3877.421	1
3880.016	9
3882.61	47
3885.202	52
3887.792	35
3890.38	9
3892.966	-18
3895.55	-39
3898.132	-25
3900.713	-25
3903.291	-28
3905.868	-41
3908.442	-32
3911.015	-34
3913.586	-37
3916.155	-35
3918.722	-39
3921.287	-39
3923.85	-47
3926.411	-37
3928.971	-37
3931.528	-31
3934.084	-40
3936.638	-46
3939.19	-29
3941.74	-29
3944.288	-42
3946.834	-34
3949.378	-25
3951.921	-39
3954.462	-36
3957	-35
3959.537	-27
3962.072	-37
3964.606	-55
3967.137	-36
3969.667	-34
3972.194	-31
3974.72	-42
3977.244	-58
3979.766	-41
3982.286	-43
3984.805	-33
3987.321	-20
3989.836	-29
3992.349	-37
3994.86	-35
3997.369	-39
3999.877	-39
4002.382	-34
4004.886	-30
4007.388	-32
4009.888	-25
4012.386	-23
4014.883	-28
4017.377	-35
4019.87	-27
4022.361	-41
4024.85	-35
4027.338	-35
4029.823	-35
4032.307	-36
4034.789	-35
4037.269	-33
4039.747	-50
4042.224	-23
4044.699	-42
4047.172	-39
4049.643	-27
4052.112	-59
4054.58	-33
4057.046	-46
4059.51	-34
4061.972	-36
4064.432	-54
4066.891	-23
4069.348	-34
4071.803	-31
4074.256	-41
4076.708	-29
4079.158	-32
4081.606	-25
4084.052	-36
4086.497	-26
4088.939	-36
4091.38	-37
4093.819	-28
4096.257	0
4098.693	-5
4101.127	-8
4103.559	-1
4105.989	45
4108.418	38
4110.845	27
4113.27	34
4115.694	42
4118.115	26
4120.535	-32
4122.954	-29
4125.37	-17
4127.785	-25
4130.198	-23
4132.609	-28
4135.019	8
4137.427	2
4139.833	8
4142.237	-4
