Data from 2018-3-6_conc=6_n=3_RamanShift_04.txt Node
Date: Tue Mar 06 15:01:18 GMT+02:00 2018
User: LAB3
Spectrometer: QEPB0276
Trigger mode: 0
Integration Time (sec): 3.000000E1
Scans to average: 1
Electric dark correction enabled: true
Nonlinearity correction enabled: false
Boxcar width: 0
XAxis mode: Raman Shifts
Number of Pixels in Spectrum: 1044
>>>>>Begin Spectral Data<<<<<
160.701	41
166.742	63
172.777	79
178.805	158
184.826	384
190.841	779
196.849	1224
202.85	1551
208.845	1667
214.833	1636
220.815	1610
226.789	1597
232.758	1600
238.719	1580
244.674	1578
250.623	1539
256.565	1526
262.5	1506
268.429	1500
274.351	1472
280.267	1481
286.176	1472
292.079	1474
297.975	1462
303.865	1459
309.748	1477
315.625	1452
321.495	1441
327.359	1435
333.217	1429
339.068	1435
344.912	1454
350.751	1453
356.583	1465
362.408	1480
368.227	1473
374.04	1478
379.847	1486
385.647	1487
391.44	1479
397.228	1481
403.009	1514
408.784	1505
414.553	1526
420.315	1525
426.071	1516
431.821	1507
437.565	1520
443.302	1492
449.033	1491
454.758	1506
460.477	1483
466.189	1461
471.896	1458
477.596	1459
483.29	1421
488.978	1419
494.66	1397
500.335	1374
506.005	1305
511.668	1262
517.325	1347
522.977	1203
528.622	1122
534.261	1080
539.894	1056
545.521	1042
551.141	1005
556.756	1010
562.365	993
567.968	995
573.565	989
579.155	986
584.74	977
590.319	975
595.892	979
601.459	982
607.02	974
612.575	978
618.124	967
623.667	941
629.204	930
634.735	913
640.261	892
645.781	870
651.294	887
656.802	873
662.304	894
667.8	888
673.29	870
678.775	874
684.254	871
689.726	858
695.193	854
700.655	850
706.11	844
711.56	842
717.004	848
722.442	825
727.874	839
733.301	859
738.722	826
744.137	837
749.547	809
754.951	823
760.349	826
765.741	828
771.128	835
776.509	845
781.885	871
787.254	871
792.618	875
797.977	868
803.33	864
808.677	845
814.019	848
819.355	833
824.686	832
830.011	828
835.33	833
840.644	831
845.952	807
851.255	820
856.552	796
861.844	784
867.13	776
872.41	764
877.686	763
882.955	755
888.219	758
893.478	733
898.731	750
903.979	741
909.221	719
914.458	707
919.69	716
924.916	709
930.136	715
935.351	702
940.561	728
945.766	732
950.965	725
956.158	705
961.347	704
966.529	696
971.707	698
976.879	675
982.046	666
987.208	651
992.364	673
997.515	658
1002.66	663
1007.801	659
1012.936	678
1018.066	659
1023.19	687
1028.309	683
1033.423	692
1038.532	687
1043.636	672
1048.734	674
1053.827	663
1058.915	656
1063.998	668
1069.075	648
1074.147	667
1079.214	639
1084.276	667
1089.333	656
1094.385	661
1099.431	652
1104.472	656
1109.509	639
1114.54	625
1119.565	619
1124.586	626
1129.602	614
1134.613	585
1139.618	598
1144.619	600
1149.614	613
1154.604	595
1159.589	593
1164.57	606
1169.545	628
1174.515	610
1179.48	600
1184.44	601
1189.395	611
1194.345	589
1199.29	605
1204.23	583
1209.165	564
1214.095	602
1219.021	592
1223.941	570
1228.856	598
1233.766	601
1238.672	601
1243.572	608
1248.467	599
1253.358	588
1258.244	562
1263.124	583
1268	570
1272.871	535
1277.737	536
1282.599	545
1287.455	544
1292.306	551
1297.153	532
1301.995	542
1306.832	540
1311.664	541
1316.491	531
1321.314	547
1326.132	524
1330.945	533
1335.753	525
1340.556	506
1345.354	490
1350.148	506
1354.937	490
1359.722	475
1364.501	474
1369.276	490
1374.046	490
1378.811	476
1383.572	477
1388.327	477
1393.079	464
1397.825	460
1402.567	462
1407.304	460
1412.036	453
1416.764	465
1421.487	451
1426.205	444
1430.919	446
1435.628	455
1440.333	450
1445.032	464
1449.727	467
1454.418	476
1459.104	464
1463.785	456
1468.462	456
1473.134	445
1477.802	442
1482.465	410
1487.123	434
1491.777	410
1496.426	400
1501.071	431
1505.711	417
1510.347	430
1514.978	429
1519.604	416
1524.226	432
1528.844	413
1533.457	425
1538.065	420
1542.669	417
1547.269	414
1551.864	413
1556.454	404
1561.041	412
1565.622	409
1570.199	422
1574.772	421
1579.34	423
1583.904	422
1588.464	447
1593.019	436
1597.569	415
1602.115	423
1606.657	415
1611.195	429
1615.728	436
1620.256	411
1624.78	394
1629.3	416
1633.816	410
1638.327	410
1642.834	422
1647.336	420
1651.834	425
1656.328	421
1660.817	415
1665.302	415
1669.783	400
1674.259	405
1678.732	395
1683.199	385
1687.663	354
1692.122	365
1696.577	364
1701.028	364
1705.474	341
1709.917	341
1714.355	326
1718.788	323
1723.218	305
1727.643	309
1732.064	311
1736.481	300
1740.893	303
1745.301	299
1749.705	274
1754.105	292
1758.501	277
1762.893	278
1767.28	261
1771.663	270
1776.042	252
1780.417	245
1784.787	254
1789.154	276
1793.516	265
1797.874	261
1802.228	248
1806.578	246
1810.924	257
1815.266	137
1819.603	254
1823.937	248
1828.266	244
1832.591	255
1836.913	244
1841.23	237
1845.543	232
1849.852	248
1854.156	232
1858.457	236
1862.754	231
1867.047	233
1871.335	247
1875.62	245
1879.9	235
1884.177	226
1888.449	237
1892.718	234
1896.982	239
1901.243	217
1905.499	227
1909.752	225
1914	200
1918.245	224
1922.485	227
1926.722	219
1930.954	208
1935.183	229
1939.408	236
1943.628	221
1947.845	219
1952.058	220
1956.267	201
1960.472	226
1964.673	216
1968.87	206
1973.063	213
1977.252	203
1981.438	205
1985.619	195
1989.797	184
1993.971	194
1998.14	204
2002.306	195
2006.469	205
2010.627	183
2014.781	191
2018.932	182
2023.078	197
2027.221	194
2031.36	188
2035.495	186
2039.627	188
2043.754	187
2047.878	173
2051.998	175
2056.114	174
2060.226	179
2064.334	176
2068.439	187
2072.54	185
2076.637	174
2080.73	175
2084.82	171
2088.906	172
2092.988	177
2097.066	172
2101.14	186
2105.211	180
2109.278	175
2113.342	168
2117.401	159
2121.457	154
2125.509	148
2129.558	161
2133.602	170
2137.643	156
2141.681	161
2145.714	157
2149.744	168
2153.77	148
2157.793	145
2161.812	124
2165.827	125
2169.838	152
2173.846	139
2177.851	134
2181.851	149
2185.848	134
2189.841	141
2193.831	126
2197.817	131
2201.799	133
2205.778	127
2209.753	123
2213.725	126
2217.693	121
2221.657	124
2225.618	130
2229.575	129
2233.529	136
2237.479	133
2241.425	121
2245.368	114
2249.307	123
2253.243	109
2257.175	120
2261.104	111
2265.029	113
2268.95	111
2272.868	106
2276.783	103
2280.694	111
2284.601	104
2288.505	100
2292.405	111
2296.302	82
2300.195	98
2304.085	77
2307.971	102
2311.854	80
2315.734	89
2319.609	93
2323.482	80
2327.351	77
2331.216	85
2335.078	89
2338.937	91
2342.792	85
2346.643	81
2350.492	95
2354.336	88
2358.178	89
2362.015	89
2365.85	76
2369.681	88
2373.508	89
2377.333	96
2381.153	85
2384.971	82
2388.785	89
2392.595	77
2396.402	75
2400.206	52
2404.007	71
2407.804	72
2411.597	77
2415.388	72
2419.174	71
2422.958	73
2426.738	71
2430.515	78
2434.289	63
2438.059	65
2441.825	62
2445.589	73
2449.349	58
2453.106	69
2456.859	72
2460.61	71
2464.356	55
2468.1	57
2471.84	56
2475.577	58
2479.311	56
2483.041	54
2486.768	68
2490.492	69
2494.213	68
2497.93	47
2501.644	47
2505.355	52
2509.062	61
2512.766	59
2516.467	50
2520.165	53
2523.859	43
2527.551	72
2531.239	46
2534.923	53
2538.605	54
2542.283	51
2545.958	47
2549.63	65
2553.299	59
2556.964	42
2560.626	44
2564.285	54
2567.941	39
2571.594	38
2575.243	51
2578.89	46
2582.533	46
2586.173	43
2589.809	46
2593.443	29
2597.073	42
2600.701	47
2604.325	42
2607.946	32
2611.564	55
2615.178	43
2618.79	46
2622.398	32
2626.004	37
2629.606	36
2633.205	30
2636.801	45
2640.394	38
2643.983	33
2647.57	30
2651.153	33
2654.734	43
2658.311	13
2661.885	26
2665.456	30
2669.025	33
2672.589	29
2676.151	48
2679.71	45
2683.266	32
2686.819	27
2690.368	38
2693.915	38
2697.458	34
2700.999	34
2704.536	33
2708.071	30
2711.602	27
2715.13	30
2718.656	1
2722.178	24
2725.697	9
2729.214	18
2732.727	21
2736.237	5
2739.744	17
2743.249	18
2746.75	18
2750.248	20
2753.743	19
2757.236	21
2760.725	24
2764.211	-4
2767.695	25
2771.175	20
2774.652	28
2778.127	18
2781.598	19
2785.067	24
2788.532	12
2791.995	24
2795.455	15
2798.911	27
2802.365	13
2805.816	27
2809.264	29
2812.709	17
2816.151	22
2819.59	4
2823.026	12
2826.46	13
2829.89	26
2833.318	-2
2836.742	17
2840.164	15
2843.583	11
2846.999	15
2850.412	18
2853.822	16
2857.229	31
2860.634	20
2864.035	6
2867.434	26
2870.83	29
2874.223	18
2877.613	23
2881	13
2884.385	15
2887.766	15
2891.145	17
2894.521	13
2897.894	11
2901.264	27
2904.631	21
2907.996	29
2911.358	28
2914.717	23
2918.073	24
2921.426	16
2924.777	2
2928.124	21
2931.469	31
2934.811	17
2938.15	40
2941.487	29
2944.821	47
2948.152	29
2951.48	38
2954.805	18
2958.128	44
2961.447	29
2964.765	47
2968.079	31
2971.39	35
2974.699	30
2978.005	42
2981.308	33
2984.609	28
2987.907	41
2991.202	44
2994.494	27
2997.784	37
3001.07	32
3004.355	32
3007.636	35
3010.915	36
3014.191	40
3017.464	39
3020.734	36
3024.002	41
3027.267	41
3030.53	44
3033.789	42
3037.046	44
3040.301	43
3043.552	49
3046.801	46
3050.048	63
3053.291	76
3056.532	49
3059.771	41
3063.006	55
3066.239	54
3069.469	63
3072.697	56
3075.922	54
3079.144	55
3082.364	81
3085.581	61
3088.795	82
3092.007	74
3095.216	79
3098.423	78
3101.627	53
3104.828	81
3108.026	71
3111.222	91
3114.416	99
3117.607	92
3120.795	96
3123.98	93
3127.163	84
3130.344	88
3133.521	89
3136.696	112
3139.869	108
3143.039	85
3146.206	117
3149.371	119
3152.533	117
3155.693	102
3158.85	116
3162.005	112
3165.157	115
3168.306	111
3171.453	125
3174.597	109
3177.739	101
3180.878	116
3184.014	119
3187.149	119
3190.28	115
3193.409	127
3196.536	123
3199.659	131
3202.781	133
3205.9	113
3209.016	121
3212.13	118
3215.241	114
3218.35	122
3221.456	114
3224.56	106
3227.661	110
3230.76	108
3233.856	106
3236.95	113
3240.041	102
3243.13	110
3246.216	108
3249.3	116
3252.382	112
3255.46	104
3258.537	51
3261.611	96
3264.682	101
3267.751	105
3270.818	88
3273.882	111
3276.943	98
3280.002	114
3283.059	91
3286.113	90
3289.165	92
3292.214	89
3295.261	108
3298.306	82
3301.348	98
3304.387	77
3307.425	101
3310.459	85
3313.492	99
3316.521	87
3319.549	94
3322.574	100
3325.597	84
3328.617	80
3331.635	85
3334.65	68
3337.663	82
3340.674	75
3343.682	78
3346.688	90
3349.691	73
3352.692	77
3355.691	87
3358.687	81
3361.681	84
3364.673	75
3367.662	78
3370.649	84
3373.633	64
3376.615	84
3379.595	60
3382.572	68
3385.547	58
3388.52	63
3391.49	65
3394.458	66
3397.424	73
3400.387	58
3403.348	67
3406.307	65
3409.263	67
3412.217	67
3415.168	65
3418.118	71
3421.065	56
3424.009	70
3426.951	52
3429.891	57
3432.829	54
3435.764	57
3438.697	43
3441.628	61
3444.557	32
3447.483	38
3450.407	47
3453.328	36
3456.247	36
3459.164	33
3462.079	47
3464.991	36
3467.902	30
3470.809	27
3473.715	38
3476.618	28
3479.519	30
3482.418	11
3485.315	15
3488.209	17
3491.101	20
3493.99	11
3496.878	12
3499.763	20
3502.646	15
3505.527	7
3508.405	4
3511.281	-4
3514.155	7
3517.027	5
3519.897	-10
3522.764	10
3525.629	-13
3528.492	1
3531.352	4
3534.211	-2
3537.067	-7
3539.921	-5
3542.773	0
3545.622	-10
3548.469	-20
3551.315	-25
3554.157	-11
3556.998	-20
3559.837	-13
3562.673	-12
3565.507	-16
3568.339	-20
3571.169	-19
3573.996	-18
3576.822	-31
3579.645	-25
3582.466	-20
3585.285	-13
3588.101	-17
3590.916	-22
3593.728	-12
3596.538	-20
3599.346	-13
3602.152	-28
3604.956	-19
3607.757	-16
3610.556	-32
3613.354	-22
3616.149	-23
3618.942	-21
3621.732	-16
3624.521	-33
3627.307	-37
3630.092	-28
3632.874	-17
3635.654	-22
3638.432	-34
3641.208	-31
3643.982	-28
3646.753	-21
3649.523	-53
3652.29	-30
3655.055	-24
3657.818	-26
3660.579	-28
3663.338	-41
3666.095	-33
3668.849	-50
3671.602	-27
3674.352	-37
3677.101	-22
3679.847	-19
3682.591	-40
3685.333	-43
3688.073	-31
3690.811	-38
3693.547	-43
3696.281	-44
3699.013	-29
3701.742	-38
3704.47	-43
3707.195	-31
3709.919	-37
3712.64	-29
3715.359	-48
3718.076	-22
3720.792	-34
3723.505	-30
3726.216	-23
3728.925	-30
3731.632	-41
3734.336	-33
3737.039	-32
3739.74	-30
3742.439	-56
3745.136	-28
3747.83	-30
3750.523	-26
3753.213	-88
3755.902	-33
3758.589	-47
3761.273	-36
3763.956	-24
3766.636	-48
3769.315	-24
3771.991	-29
3774.665	-38
3777.338	-31
3780.008	-42
3782.677	-36
3785.343	-49
3788.007	-58
3790.67	-27
3793.33	-46
3795.989	-41
3798.645	-35
3801.299	-55
3803.952	-47
3806.602	-40
3809.251	-26
3811.897	-37
3814.542	-34
3817.184	-38
3819.825	-34
3822.463	-46
3825.1	-31
3827.735	-39
3830.367	-40
3832.998	-25
3835.627	-34
3838.253	-22
3840.878	-35
3843.501	-19
3846.122	-27
3848.741	-31
3851.358	-26
3853.973	-44
3856.586	-25
3859.197	-44
3861.806	-34
3864.414	-47
3867.019	-33
3869.622	-28
3872.224	-33
3874.823	-24
3877.421	-9
3880.016	3
3882.61	28
3885.202	32
3887.792	20
3890.38	10
3892.966	-25
3895.55	-40
3898.132	-27
3900.713	-28
3903.291	-32
3905.868	-42
3908.442	-33
3911.015	-30
3913.586	-36
3916.155	-34
3918.722	-41
3921.287	-36
3923.85	-47
3926.411	-39
3928.971	-44
3931.528	-30
3934.084	-37
3936.638	-47
3939.19	-29
3941.74	-35
3944.288	-43
3946.834	-41
3949.378	-31
3951.921	-42
3954.462	-36
3957	-34
3959.537	-29
3962.072	-37
3964.606	-51
3967.137	-36
3969.667	-39
3972.194	-29
3974.72	-37
3977.244	-58
3979.766	-39
3982.286	-41
3984.805	-29
3987.321	-22
3989.836	-30
3992.349	-40
3994.86	-37
3997.369	-45
3999.877	-38
4002.382	-38
4004.886	-28
4007.388	-31
4009.888	-29
4012.386	-32
4014.883	-38
4017.377	-35
4019.87	-34
4022.361	-43
4024.85	-37
4027.338	-31
4029.823	-40
4032.307	-38
4034.789	-36
4037.269	-32
4039.747	-43
4042.224	-25
4044.699	-38
4047.172	-35
4049.643	-26
4052.112	-62
4054.58	-31
4057.046	-43
4059.51	-36
4061.972	-30
4064.432	-51
4066.891	-21
4069.348	-38
4071.803	-31
4074.256	-42
4076.708	-31
4079.158	-34
4081.606	-23
4084.052	-38
4086.497	-31
4088.939	-32
4091.38	-41
4093.819	-33
4096.257	-1
4098.693	-5
4101.127	-7
4103.559	2
4105.989	50
4108.418	56
4110.845	37
4113.27	48
4115.694	52
4118.115	38
4120.535	-31
4122.954	-27
4125.37	-22
4127.785	-28
4130.198	-24
4132.609	-32
4135.019	9
4137.427	2
4139.833	6
4142.237	-6
