Data from 2018-3-6_conc=6_n=10_RamanShift_04.txt Node
Date: Tue Mar 06 15:23:18 GMT+02:00 2018
User: LAB3
Spectrometer: QEPB0276
Trigger mode: 0
Integration Time (sec): 3.000000E1
Scans to average: 1
Electric dark correction enabled: true
Nonlinearity correction enabled: false
Boxcar width: 0
XAxis mode: Raman Shifts
Number of Pixels in Spectrum: 1044
>>>>>Begin Spectral Data<<<<<
160.701	26.5
166.742	43.5
172.777	63.5
178.805	134.5
184.826	323.5
190.841	662.5
196.849	1021.5
202.85	1301.5
208.845	1403.5
214.833	1361.5
220.815	1349.5
226.789	1313.5
232.758	1341.5
238.719	1318.5
244.674	1284.5
250.623	1289.5
256.565	1248.5
262.5	1239.5
268.429	1231.5
274.351	1203.5
280.267	1217.5
286.176	1212.5
292.079	1205.5
297.975	1189.5
303.865	1203.5
309.748	1180.5
315.625	1186.5
321.495	1186.5
327.359	1169.5
333.217	1185.5
339.068	1179.5
344.912	1197.5
350.751	1178.5
356.583	1190.5
362.408	1199.5
368.227	1206.5
374.04	1207.5
379.847	1209.5
385.647	1232.5
391.44	1212.5
397.228	1218.5
403.009	1216.5
408.784	1226.5
414.553	1243.5
420.315	1228.5
426.071	1219.5
431.821	1233.5
437.565	1243.5
443.302	1231.5
449.033	1207.5
454.758	1225.5
460.477	1210.5
466.189	1186.5
471.896	1184.5
477.596	1171.5
483.29	1148.5
488.978	1147.5
494.66	1133.5
500.335	1113.5
506.005	1068.5
511.668	1015.5
517.325	956.5
522.977	919.5
528.622	884.5
534.261	863.5
539.894	841.5
545.521	828.5
551.141	807.5
556.756	788.5
562.365	793.5
567.968	778.5
573.565	762.5
579.155	781.5
584.74	765.5
590.319	780.5
595.892	767.5
601.459	780.5
607.02	775.5
612.575	771.5
618.124	762.5
623.667	737.5
629.204	738.5
634.735	733.5
640.261	714.5
645.781	677.5
651.294	697.5
656.802	691.5
662.304	709.5
667.8	700.5
673.29	690.5
678.775	703.5
684.254	701.5
689.726	669.5
695.193	688.5
700.655	681.5
706.11	670.5
711.56	671.5
717.004	669.5
722.442	639.5
727.874	660.5
733.301	672.5
738.722	645.5
744.137	667.5
749.547	649.5
754.951	643.5
760.349	635.5
765.741	655.5
771.128	663.5
776.509	652.5
781.885	696.5
787.254	684.5
792.618	694.5
797.977	698.5
803.33	696.5
808.677	678.5
814.019	677.5
819.355	661.5
824.686	658.5
830.011	643.5
835.33	658.5
840.644	669.5
845.952	644.5
851.255	636.5
856.552	632.5
861.844	614.5
867.13	602.5
872.41	603.5
877.686	610.5
882.955	610.5
888.219	593.5
893.478	576.5
898.731	596.5
903.979	566.5
909.221	558.5
914.458	570.5
919.69	559.5
924.916	561.5
930.136	567.5
935.351	560.5
940.561	575.5
945.766	565.5
950.965	571.5
956.158	543.5
961.347	541.5
966.529	546.5
971.707	543.5
976.879	542.5
982.046	527.5
987.208	521.5
992.364	532.5
997.515	519.5
1002.66	523.5
1007.801	517.5
1012.936	543.5
1018.066	520.5
1023.19	539.5
1028.309	544.5
1033.423	541.5
1038.532	551.5
1043.636	523.5
1048.734	530.5
1053.827	521.5
1058.915	522.5
1063.998	522.5
1069.075	507.5
1074.147	530.5
1079.214	495.5
1084.276	521.5
1089.333	513.5
1094.385	517.5
1099.431	504.5
1104.472	510.5
1109.509	499.5
1114.54	488.5
1119.565	498.5
1124.586	487.5
1129.602	473.5
1134.613	458.5
1139.618	457.5
1144.619	468.5
1149.614	480.5
1154.604	472.5
1159.589	459.5
1164.57	495.5
1169.545	496.5
1174.515	482.5
1179.48	477.5
1184.44	479.5
1189.395	472.5
1194.345	457.5
1199.29	489.5
1204.23	452.5
1209.165	443.5
1214.095	473.5
1219.021	464.5
1223.941	462.5
1228.856	461.5
1233.766	470.5
1238.672	468.5
1243.572	477.5
1248.467	471.5
1253.358	448.5
1258.244	448.5
1263.124	459.5
1268	453.5
1272.871	421.5
1277.737	437.5
1282.599	432.5
1287.455	425.5
1292.306	432.5
1297.153	414.5
1301.995	429.5
1306.832	419.5
1311.664	433.5
1316.491	416.5
1321.314	426.5
1326.132	421.5
1330.945	423.5
1335.753	416.5
1340.556	405.5
1345.354	390.5
1350.148	387.5
1354.937	393.5
1359.722	386.5
1364.501	373.5
1369.276	390.5
1374.046	393.5
1378.811	379.5
1383.572	382.5
1388.327	386.5
1393.079	377.5
1397.825	367.5
1402.567	364.5
1407.304	360.5
1412.036	353.5
1416.764	355.5
1421.487	351.5
1426.205	348.5
1430.919	354.5
1435.628	358.5
1440.333	352.5
1445.032	373.5
1449.727	369.5
1454.418	379.5
1459.104	362.5
1463.785	365.5
1468.462	366.5
1473.134	350.5
1477.802	350.5
1482.465	334.5
1487.123	353.5
1491.777	321.5
1496.426	325.5
1501.071	351.5
1505.711	337.5
1510.347	341.5
1514.978	347.5
1519.604	342.5
1524.226	358.5
1528.844	332.5
1533.457	347.5
1538.065	340.5
1542.669	340.5
1547.269	343.5
1551.864	346.5
1556.454	323.5
1561.041	321.5
1565.622	328.5
1570.199	329.5
1574.772	325.5
1579.34	340.5
1583.904	351.5
1588.464	342.5
1593.019	357.5
1597.569	331.5
1602.115	329.5
1606.657	325.5
1611.195	349.5
1615.728	348.5
1620.256	331.5
1624.78	315.5
1629.3	329.5
1633.816	335.5
1638.327	322.5
1642.834	341.5
1647.336	336.5
1651.834	356.5
1656.328	332.5
1660.817	327.5
1665.302	329.5
1669.783	318.5
1674.259	317.5
1678.732	312.5
1683.199	310.5
1687.663	296.5
1692.122	308.5
1696.577	298.5
1701.028	304.5
1705.474	272.5
1709.917	282.5
1714.355	264.5
1718.788	263.5
1723.218	255.5
1727.643	256.5
1732.064	257.5
1736.481	240.5
1740.893	245.5
1745.301	238.5
1749.705	219.5
1754.105	232.5
1758.501	221.5
1762.893	237.5
1767.28	210.5
1771.663	216.5
1776.042	202.5
1780.417	205.5
1784.787	213.5
1789.154	218.5
1793.516	210.5
1797.874	217.5
1802.228	202.5
1806.578	198.5
1810.924	211.5
1815.266	99.5
1819.603	214.5
1823.937	200.5
1828.266	195.5
1832.591	191.5
1836.913	193.5
1841.23	184.5
1845.543	184.5
1849.852	198.5
1854.156	186.5
1858.457	190.5
1862.754	181.5
1867.047	194.5
1871.335	199.5
1875.62	203.5
1879.9	196.5
1884.177	188.5
1888.449	193.5
1892.718	193.5
1896.982	198.5
1901.243	179.5
1905.499	192.5
1909.752	181.5
1914	170.5
1918.245	191.5
1922.485	191.5
1926.722	186.5
1930.954	177.5
1935.183	193.5
1939.408	192.5
1943.628	185.5
1947.845	191.5
1952.058	183.5
1956.267	175.5
1960.472	180.5
1964.673	177.5
1968.87	174.5
1973.063	178.5
1977.252	162.5
1981.438	164.5
1985.619	159.5
1989.797	148.5
1993.971	162.5
1998.14	172.5
2002.306	158.5
2006.469	153.5
2010.627	154.5
2014.781	160.5
2018.932	152.5
2023.078	168.5
2027.221	160.5
2031.36	153.5
2035.495	148.5
2039.627	155.5
2043.754	158.5
2047.878	147.5
2051.998	143.5
2056.114	145.5
2060.226	148.5
2064.334	156.5
2068.439	158.5
2072.54	161.5
2076.637	146.5
2080.73	141.5
2084.82	146.5
2088.906	143.5
2092.988	144.5
2097.066	147.5
2101.14	156.5
2105.211	148.5
2109.278	137.5
2113.342	139.5
2117.401	130.5
2121.457	119.5
2125.509	121.5
2129.558	136.5
2133.602	135.5
2137.643	129.5
2141.681	127.5
2145.714	131.5
2149.744	127.5
2153.77	120.5
2157.793	107.5
2161.812	99.5
2165.827	99.5
2169.838	131.5
2173.846	120.5
2177.851	112.5
2181.851	119.5
2185.848	109.5
2189.841	116.5
2193.831	110.5
2197.817	111.5
2201.799	106.5
2205.778	102.5
2209.753	100.5
2213.725	95.5
2217.693	104.5
2221.657	94.5
2225.618	106.5
2229.575	100.5
2233.529	103.5
2237.479	108.5
2241.425	94.5
2245.368	82.5
2249.307	99.5
2253.243	91.5
2257.175	94.5
2261.104	85.5
2265.029	94.5
2268.95	87.5
2272.868	82.5
2276.783	72.5
2280.694	89.5
2284.601	83.5
2288.505	73.5
2292.405	91.5
2296.302	58.5
2300.195	83.5
2304.085	44.5
2307.971	74.5
2311.854	54.5
2315.734	67.5
2319.609	80.5
2323.482	50.5
2327.351	63.5
2331.216	68.5
2335.078	75.5
2338.937	65.5
2342.792	61.5
2346.643	55.5
2350.492	63.5
2354.336	59.5
2358.178	68.5
2362.015	68.5
2365.85	55.5
2369.681	66.5
2373.508	68.5
2377.333	70.5
2381.153	62.5
2384.971	58.5
2388.785	66.5
2392.595	56.5
2396.402	55.5
2400.206	37.5
2404.007	48.5
2407.804	52.5
2411.597	57.5
2415.388	51.5
2419.174	52.5
2422.958	53.5
2426.738	54.5
2430.515	52.5
2434.289	44.5
2438.059	42.5
2441.825	48.5
2445.589	55.5
2449.349	37.5
2453.106	51.5
2456.859	42.5
2460.61	48.5
2464.356	33.5
2468.1	34.5
2471.84	35.5
2475.577	41.5
2479.311	35.5
2483.041	37.5
2486.768	53.5
2490.492	53.5
2494.213	39.5
2497.93	27.5
2501.644	31.5
2505.355	37.5
2509.062	37.5
2512.766	35.5
2516.467	30.5
2520.165	33.5
2523.859	21.5
2527.551	58.5
2531.239	24.5
2534.923	36.5
2538.605	30.5
2542.283	42.5
2545.958	40.5
2549.63	46.5
2553.299	43.5
2556.964	27.5
2560.626	33.5
2564.285	37.5
2567.941	26.5
2571.594	29.5
2575.243	37.5
2578.89	26.5
2582.533	31.5
2586.173	30.5
2589.809	38.5
2593.443	8.5
2597.073	33.5
2600.701	32.5
2604.325	33.5
2607.946	21.5
2611.564	37.5
2615.178	32.5
2618.79	32.5
2622.398	21.5
2626.004	27.5
2629.606	27.5
2633.205	22.5
2636.801	26.5
2640.394	27.5
2643.983	24.5
2647.57	19.5
2651.153	12.5
2654.734	33.5
2658.311	3.5
2661.885	16.5
2665.456	16.5
2669.025	19.5
2672.589	10.5
2676.151	28.5
2679.71	31.5
2683.266	16.5
2686.819	11.5
2690.368	17.5
2693.915	25.5
2697.458	19.5
2700.999	20.5
2704.536	21.5
2708.071	18.5
2711.602	18.5
2715.13	17.5
2718.656	-0.5
2722.178	17.5
2725.697	2.5
2729.214	11.5
2732.727	20.5
2736.237	-2.5
2739.744	16.5
2743.249	1.5
2746.75	11.5
2750.248	5.5
2753.743	15.5
2757.236	10.5
2760.725	23.5
2764.211	-12.5
2767.695	8.5
2771.175	12.5
2774.652	17.5
2778.127	7.5
2781.598	12.5
2785.067	12.5
2788.532	3.5
2791.995	14.5
2795.455	0.5
2798.911	14.5
2802.365	4.5
2805.816	8.5
2809.264	14.5
2812.709	8.5
2816.151	15.5
2819.59	0.5
2823.026	4.5
2826.46	6.5
2829.89	13.5
2833.318	-10.5
2836.742	2.5
2840.164	6.5
2843.583	4.5
2846.999	7.5
2850.412	11.5
2853.822	2.5
2857.229	14.5
2860.634	6.5
2864.035	-3.5
2867.434	15.5
2870.83	9.5
2874.223	6.5
2877.613	3.5
2881	2.5
2884.385	3.5
2887.766	4.5
2891.145	4.5
2894.521	5.5
2897.894	-2.5
2901.264	13.5
2904.631	14.5
2907.996	17.5
2911.358	20.5
2914.717	10.5
2918.073	5.5
2921.426	5.5
2924.777	-6.5
2928.124	5.5
2931.469	23.5
2934.811	0.5
2938.15	27.5
2941.487	16.5
2944.821	31.5
2948.152	17.5
2951.48	23.5
2954.805	6.5
2958.128	33.5
2961.447	16.5
2964.765	29.5
2968.079	17.5
2971.39	18.5
2974.699	17.5
2978.005	24.5
2981.308	18.5
2984.609	14.5
2987.907	25.5
2991.202	28.5
2994.494	14.5
2997.784	23.5
3001.07	19.5
3004.355	17.5
3007.636	23.5
3010.915	24.5
3014.191	22.5
3017.464	20.5
3020.734	25.5
3024.002	26.5
3027.267	26.5
3030.53	22.5
3033.789	22.5
3037.046	23.5
3040.301	19.5
3043.552	34.5
3046.801	36.5
3050.048	41.5
3053.291	56.5
3056.532	38.5
3059.771	24.5
3063.006	40.5
3066.239	42.5
3069.469	44.5
3072.697	40.5
3075.922	34.5
3079.144	38.5
3082.364	63.5
3085.581	42.5
3088.795	67.5
3092.007	59.5
3095.216	66.5
3098.423	62.5
3101.627	33.5
3104.828	57.5
3108.026	53.5
3111.222	70.5
3114.416	77.5
3117.607	65.5
3120.795	59.5
3123.98	69.5
3127.163	53.5
3130.344	61.5
3133.521	60.5
3136.696	81.5
3139.869	78.5
3143.039	62.5
3146.206	97.5
3149.371	85.5
3152.533	85.5
3155.693	70.5
3158.85	89.5
3162.005	83.5
3165.157	77.5
3168.306	81.5
3171.453	95.5
3174.597	76.5
3177.739	73.5
3180.878	91.5
3184.014	91.5
3187.149	91.5
3190.28	92.5
3193.409	102.5
3196.536	92.5
3199.659	101.5
3202.781	96.5
3205.9	75.5
3209.016	90.5
3212.13	86.5
3215.241	84.5
3218.35	84.5
3221.456	88.5
3224.56	74.5
3227.661	85.5
3230.76	84.5
3233.856	75.5
3236.95	90.5
3240.041	74.5
3243.13	90.5
3246.216	86.5
3249.3	81.5
3252.382	85.5
3255.46	73.5
3258.537	29.5
3261.611	69.5
3264.682	75.5
3267.751	75.5
3270.818	65.5
3273.882	78.5
3276.943	74.5
3280.002	92.5
3283.059	68.5
3286.113	73.5
3289.165	63.5
3292.214	66.5
3295.261	82.5
3298.306	53.5
3301.348	64.5
3304.387	58.5
3307.425	72.5
3310.459	62.5
3313.492	69.5
3316.521	59.5
3319.549	70.5
3322.574	70.5
3325.597	58.5
3328.617	54.5
3331.635	56.5
3334.65	46.5
3337.663	60.5
3340.674	56.5
3343.682	57.5
3346.688	68.5
3349.691	54.5
3352.692	53.5
3355.691	67.5
3358.687	58.5
3361.681	63.5
3364.673	54.5
3367.662	58.5
3370.649	71.5
3373.633	46.5
3376.615	57.5
3379.595	30.5
3382.572	43.5
3385.547	37.5
3388.52	34.5
3391.49	41.5
3394.458	49.5
3397.424	48.5
3400.387	34.5
3403.348	41.5
3406.307	44.5
3409.263	45.5
3412.217	43.5
3415.168	43.5
3418.118	49.5
3421.065	40.5
3424.009	49.5
3426.951	34.5
3429.891	31.5
3432.829	39.5
3435.764	37.5
3438.697	30.5
3441.628	40.5
3444.557	20.5
3447.483	24.5
3450.407	40.5
3453.328	20.5
3456.247	21.5
3459.164	15.5
3462.079	31.5
3464.991	21.5
3467.902	23.5
3470.809	19.5
3473.715	27.5
3476.618	10.5
3479.519	18.5
3482.418	-2.5
3485.315	5.5
3488.209	5.5
3491.101	11.5
3493.99	-2.5
3496.878	-0.5
3499.763	5.5
3502.646	7.5
3505.527	-0.5
3508.405	-3.5
3511.281	-7.5
3514.155	-1.5
3517.027	-5.5
3519.897	-13.5
3522.764	-3.5
3525.629	-24.5
3528.492	-3.5
3531.352	-6.5
3534.211	-7.5
3537.067	-14.5
3539.921	-13.5
3542.773	-7.5
3545.622	-17.5
3548.469	-21.5
3551.315	-22.5
3554.157	-16.5
3556.998	-24.5
3559.837	-19.5
3562.673	-9.5
3565.507	-25.5
3568.339	-27.5
3571.169	-18.5
3573.996	-22.5
3576.822	-33.5
3579.645	-25.5
3582.466	-26.5
3585.285	-18.5
3588.101	-20.5
3590.916	-26.5
3593.728	-22.5
3596.538	-21.5
3599.346	-16.5
3602.152	-26.5
3604.956	-24.5
3607.757	-17.5
3610.556	-32.5
3613.354	-21.5
3616.149	-26.5
3618.942	-23.5
3621.732	-18.5
3624.521	-33.5
3627.307	-39.5
3630.092	-33.5
3632.874	-17.5
3635.654	-26.5
3638.432	-30.5
3641.208	-37.5
3643.982	-31.5
3646.753	-21.5
3649.523	-58.5
3652.29	-35.5
3655.055	-28.5
3657.818	-28.5
3660.579	-32.5
3663.338	-40.5
3666.095	-34.5
3668.849	-59.5
3671.602	-30.5
3674.352	-42.5
3677.101	-21.5
3679.847	-23.5
3682.591	-39.5
3685.333	-45.5
3688.073	-28.5
3690.811	-40.5
3693.547	-42.5
3696.281	-38.5
3699.013	-33.5
3701.742	-37.5
3704.47	-43.5
3707.195	-26.5
3709.919	-31.5
3712.64	-33.5
3715.359	-44.5
3718.076	-22.5
3720.792	-27.5
3723.505	-27.5
3726.216	-22.5
3728.925	-36.5
3731.632	-36.5
3734.336	-35.5
3737.039	-31.5
3739.74	-27.5
3742.439	-57.5
3745.136	-23.5
3747.83	-30.5
3750.523	-26.5
3753.213	-91.5
3755.902	-37.5
3758.589	-48.5
3761.273	-38.5
3763.956	-28.5
3766.636	-50.5
3769.315	-30.5
3771.991	-37.5
3774.665	-40.5
3777.338	-37.5
3780.008	-44.5
3782.677	-39.5
3785.343	-50.5
3788.007	-52.5
3790.67	-27.5
3793.33	-46.5
3795.989	-38.5
3798.645	-35.5
3801.299	-48.5
3803.952	-45.5
3806.602	-42.5
3809.251	-30.5
3811.897	-38.5
3814.542	-42.5
3817.184	-38.5
3819.825	-36.5
3822.463	-47.5
3825.1	-38.5
3827.735	-32.5
3830.367	-41.5
3832.998	-20.5
3835.627	-37.5
3838.253	-27.5
3840.878	-31.5
3843.501	-18.5
3846.122	-30.5
3848.741	-26.5
3851.358	-26.5
3853.973	-42.5
3856.586	-26.5
3859.197	-37.5
3861.806	-30.5
3864.414	-46.5
3867.019	-36.5
3869.622	-26.5
3872.224	-24.5
3874.823	-23.5
3877.421	-5.5
3880.016	1.5
3882.61	35.5
3885.202	48.5
3887.792	22.5
3890.38	7.5
3892.966	-25.5
3895.55	-42.5
3898.132	-28.5
3900.713	-29.5
3903.291	-34.5
3905.868	-43.5
3908.442	-32.5
3911.015	-36.5
3913.586	-40.5
3916.155	-37.5
3918.722	-42.5
3921.287	-46.5
3923.85	-49.5
3926.411	-45.5
3928.971	-40.5
3931.528	-35.5
3934.084	-40.5
3936.638	-50.5
3939.19	-33.5
3941.74	-30.5
3944.288	-41.5
3946.834	-37.5
3949.378	-24.5
3951.921	-39.5
3954.462	-35.5
3957	-33.5
3959.537	-24.5
3962.072	-31.5
3964.606	-46.5
3967.137	-34.5
3969.667	-36.5
3972.194	-29.5
3974.72	-33.5
3977.244	-60.5
3979.766	-43.5
3982.286	-38.5
3984.805	-35.5
3987.321	-26.5
3989.836	-28.5
3992.349	-43.5
3994.86	-36.5
3997.369	-40.5
3999.877	-39.5
4002.382	-37.5
4004.886	-31.5
4007.388	-34.5
4009.888	-24.5
4012.386	-28.5
4014.883	-30.5
4017.377	-38.5
4019.87	-33.5
4022.361	-42.5
4024.85	-34.5
4027.338	-35.5
4029.823	-35.5
4032.307	-39.5
4034.789	-38.5
4037.269	-32.5
4039.747	-46.5
4042.224	-30.5
4044.699	-43.5
4047.172	-35.5
4049.643	-28.5
4052.112	-62.5
4054.58	-36.5
4057.046	-49.5
4059.51	-35.5
4061.972	-36.5
4064.432	-50.5
4066.891	-26.5
4069.348	-33.5
4071.803	-29.5
4074.256	-39.5
4076.708	-35.5
4079.158	-31.5
4081.606	-22.5
4084.052	-33.5
4086.497	-30.5
4088.939	-36.5
4091.38	-37.5
4093.819	-29.5
4096.257	-0.5
4098.693	-7.5
4101.127	-6.5
4103.559	-1.5
4105.989	28.5
4108.418	31.5
4110.845	19.5
4113.27	23.5
4115.694	36.5
4118.115	19.5
4120.535	-33.5
4122.954	-29.5
4125.37	-23.5
4127.785	-32.5
4130.198	-26.5
4132.609	-29.5
4135.019	7.5
4137.427	1.5
4139.833	6.5
4142.237	0.5
