Data from 2018-3-6_conc=2_n=7_RamanShift_01.txt Node
Date: Tue Mar 06 13:00:19 GMT+02:00 2018
User: LAB3
Spectrometer: QEPB0276
Trigger mode: 0
Integration Time (sec): 3.000000E1
Scans to average: 1
Electric dark correction enabled: true
Nonlinearity correction enabled: false
Boxcar width: 0
XAxis mode: Raman Shifts
Number of Pixels in Spectrum: 1044
>>>>>Begin Spectral Data<<<<<
160.701	176
166.742	215
172.777	316
178.805	618
184.826	1398
190.841	2779
196.849	4433
202.85	5653
208.845	6136
214.833	6156
220.815	6087
226.789	6095
232.758	6158
238.719	6169
244.674	6123
250.623	6110
256.565	6044
262.5	6021
268.429	5973
274.351	5969
280.267	5948
286.176	6000
292.079	6026
297.975	5989
303.865	6010
309.748	6011
315.625	6015
321.495	6084
327.359	6071
333.217	6051
339.068	6123
344.912	6154
350.751	6166
356.583	6182
362.408	6215
368.227	6219
374.04	6250
379.847	6311
385.647	6345
391.44	6374
397.228	6389
403.009	6466
408.784	6493
414.553	6514
420.315	6527
426.071	6519
431.821	6547
437.565	6514
443.302	6495
449.033	6448
454.758	6446
460.477	6395
466.189	6341
471.896	6283
477.596	6192
483.29	6232
488.978	6211
494.66	6115
500.335	5938
506.005	5694
511.668	5386
517.325	5128
522.977	4918
528.622	4742
534.261	4627
539.894	4551
545.521	4460
551.141	4400
556.756	4368
562.365	4304
567.968	4299
573.565	4230
579.155	4215
584.74	4190
590.319	4170
595.892	4213
601.459	4193
607.02	4171
612.575	4128
618.124	4089
623.667	4028
629.204	3969
634.735	3925
640.261	3865
645.781	3820
651.294	3818
656.802	3812
662.304	3800
667.8	3794
673.29	3759
678.775	3762
684.254	3745
689.726	3713
695.193	3689
700.655	3701
706.11	3679
711.56	3668
717.004	3605
722.442	3576
727.874	3585
733.301	3594
738.722	3570
744.137	3560
749.547	3578
754.951	3517
760.349	3589
765.741	3611
771.128	3607
776.509	3671
781.885	3745
787.254	3766
792.618	3732
797.977	3755
803.33	3750
808.677	3718
814.019	3668
819.355	3648
824.686	3625
830.011	3555
835.33	3560
840.644	3562
845.952	3515
851.255	3491
856.552	3459
861.844	3396
867.13	3341
872.41	3338
877.686	3322
882.955	3286
888.219	3269
893.478	3192
898.731	3174
903.979	3145
909.221	3100
914.458	3082
919.69	3081
924.916	3061
930.136	3076
935.351	3097
940.561	3104
945.766	3077
950.965	3090
956.158	3059
961.347	2988
966.529	2963
971.707	2938
976.879	2894
982.046	2887
987.208	2845
992.364	2852
997.515	2881
1002.66	2881
1007.801	2903
1012.936	2930
1018.066	2946
1023.19	2953
1028.309	2972
1033.423	2984
1038.532	2965
1043.636	2944
1048.734	2935
1053.827	2921
1058.915	2877
1063.998	2851
1069.075	2850
1074.147	2877
1079.214	2834
1084.276	2904
1089.333	2880
1094.385	2869
1099.431	2865
1104.472	2833
1109.509	2815
1114.54	2757
1119.565	2729
1124.586	2721
1129.602	2666
1134.613	2623
1139.618	2598
1144.619	2610
1149.614	2617
1154.604	2640
1159.589	2614
1164.57	2653
1169.545	2661
1174.515	2663
1179.48	2661
1184.44	2620
1189.395	2644
1194.345	2571
1199.29	2598
1204.23	2589
1209.165	2577
1214.095	2583
1219.021	2599
1223.941	2588
1228.856	2610
1233.766	2615
1238.672	2627
1243.572	2618
1248.467	2599
1253.358	2574
1258.244	2521
1263.124	2504
1268	2456
1272.871	2396
1277.737	2403
1282.599	2365
1287.455	2368
1292.306	2371
1297.153	2359
1301.995	2369
1306.832	2394
1311.664	2405
1316.491	2390
1321.314	2398
1326.132	2374
1330.945	2347
1335.753	2282
1340.556	2259
1345.354	2229
1350.148	2203
1354.937	2180
1359.722	2131
1364.501	2125
1369.276	2125
1374.046	2118
1378.811	2126
1383.572	2115
1388.327	2102
1393.079	2083
1397.825	2050
1402.567	2050
1407.304	2047
1412.036	2030
1416.764	2038
1421.487	2026
1426.205	2025
1430.919	2014
1435.628	2047
1440.333	2037
1445.032	2056
1449.727	2071
1454.418	2071
1459.104	2092
1463.785	2040
1468.462	2036
1473.134	2001
1477.802	1939
1482.465	1919
1487.123	1922
1491.777	1887
1496.426	1882
1501.071	1913
1505.711	1896
1510.347	1920
1514.978	1925
1519.604	1926
1524.226	1940
1528.844	1897
1533.457	1911
1538.065	1894
1542.669	1875
1547.269	1869
1551.864	1868
1556.454	1834
1561.041	1837
1565.622	1847
1570.199	1842
1574.772	1860
1579.34	1866
1583.904	1888
1588.464	1917
1593.019	1913
1597.569	1906
1602.115	1889
1606.657	1892
1611.195	1893
1615.728	1886
1620.256	1875
1624.78	1858
1629.3	1888
1633.816	1883
1638.327	1900
1642.834	1908
1647.336	1902
1651.834	1940
1656.328	1928
1660.817	1910
1665.302	1896
1669.783	1872
1674.259	1861
1678.732	1840
1683.199	1757
1687.663	1720
1692.122	1701
1696.577	1658
1701.028	1631
1705.474	1606
1709.917	1584
1714.355	1558
1718.788	1552
1723.218	1515
1727.643	1473
1732.064	1464
1736.481	1435
1740.893	1436
1745.301	1393
1749.705	1346
1754.105	1320
1758.501	1314
1762.893	1287
1767.28	1256
1771.663	1250
1776.042	1244
1780.417	1230
1784.787	1240
1789.154	1248
1793.516	1244
1797.874	1255
1802.228	1236
1806.578	1224
1810.924	1222
1815.266	1106
1819.603	1201
1823.937	1179
1828.266	1151
1832.591	1151
1836.913	1153
1841.23	1130
1845.543	1120
1849.852	1131
1854.156	1129
1858.457	1129
1862.754	1128
1867.047	1125
1871.335	1142
1875.62	1136
1879.9	1138
1884.177	1136
1888.449	1137
1892.718	1116
1896.982	1119
1901.243	1111
1905.499	1090
1909.752	1093
1914	1081
1918.245	1106
1922.485	1115
1926.722	1108
1930.954	1111
1935.183	1105
1939.408	1117
1943.628	1102
1947.845	1116
1952.058	1102
1956.267	1070
1960.472	1073
1964.673	1038
1968.87	1014
1973.063	1018
1977.252	993
1981.438	984
1985.619	971
1989.797	950
1993.971	958
1998.14	954
2002.306	957
2006.469	955
2010.627	941
2014.781	945
2018.932	922
2023.078	938
2027.221	924
2031.36	913
2035.495	913
2039.627	899
2043.754	900
2047.878	889
2051.998	869
2056.114	877
2060.226	883
2064.334	891
2068.439	905
2072.54	907
2076.637	881
2080.73	894
2084.82	905
2088.906	894
2092.988	889
2097.066	887
2101.14	891
2105.211	869
2109.278	867
2113.342	849
2117.401	825
2121.457	818
2125.509	811
2129.558	815
2133.602	808
2137.643	816
2141.681	800
2145.714	792
2149.744	795
2153.77	786
2157.793	769
2161.812	746
2165.827	735
2169.838	755
2173.846	727
2177.851	712
2181.851	725
2185.848	701
2189.841	702
2193.831	693
2197.817	679
2201.799	689
2205.778	675
2209.753	674
2213.725	652
2217.693	660
2221.657	649
2225.618	666
2229.575	660
2233.529	646
2237.479	648
2241.425	631
2245.368	616
2249.307	613
2253.243	608
2257.175	607
2261.104	587
2265.029	585
2268.95	575
2272.868	563
2276.783	552
2280.694	560
2284.601	547
2288.505	543
2292.405	548
2296.302	520
2300.195	532
2304.085	486
2307.971	513
2311.854	478
2315.734	497
2319.609	497
2323.482	459
2327.351	469
2331.216	472
2335.078	480
2338.937	464
2342.792	460
2346.643	455
2350.492	462
2354.336	454
2358.178	460
2362.015	455
2365.85	459
2369.681	461
2373.508	461
2377.333	463
2381.153	460
2384.971	457
2388.785	448
2392.595	449
2396.402	437
2400.206	420
2404.007	430
2407.804	438
2411.597	446
2415.388	424
2419.174	423
2422.958	436
2426.738	427
2430.515	417
2434.289	406
2438.059	410
2441.825	401
2445.589	423
2449.349	404
2453.106	407
2456.859	394
2460.61	406
2464.356	381
2468.1	377
2471.84	374
2475.577	375
2479.311	380
2483.041	370
2486.768	391
2490.492	390
2494.213	372
2497.93	374
2501.644	363
2505.355	370
2509.062	378
2512.766	358
2516.467	361
2520.165	357
2523.859	348
2527.551	386
2531.239	349
2534.923	355
2538.605	353
2542.283	358
2545.958	350
2549.63	355
2553.299	355
2556.964	333
2560.626	347
2564.285	349
2567.941	328
2571.594	328
2575.243	336
2578.89	324
2582.533	327
2586.173	324
2589.809	333
2593.443	312
2597.073	319
2600.701	316
2604.325	317
2607.946	304
2611.564	314
2615.178	307
2618.79	308
2622.398	290
2626.004	298
2629.606	306
2633.205	289
2636.801	290
2640.394	286
2643.983	281
2647.57	273
2651.153	275
2654.734	282
2658.311	253
2661.885	261
2665.456	271
2669.025	254
2672.589	249
2676.151	274
2679.71	267
2683.266	245
2686.819	247
2690.368	245
2693.915	263
2697.458	250
2700.999	248
2704.536	240
2708.071	237
2711.602	234
2715.13	237
2718.656	228
2722.178	228
2725.697	216
2729.214	214
2732.727	223
2736.237	213
2739.744	218
2743.249	222
2746.75	227
2750.248	209
2753.743	229
2757.236	223
2760.725	218
2764.211	197
2767.695	229
2771.175	219
2774.652	219
2778.127	213
2781.598	213
2785.067	220
2788.532	198
2791.995	221
2795.455	208
2798.911	222
2802.365	205
2805.816	220
2809.264	221
2812.709	220
2816.151	221
2819.59	205
2823.026	213
2826.46	209
2829.89	221
2833.318	199
2836.742	220
2840.164	222
2843.583	219
2846.999	221
2850.412	225
2853.822	215
2857.229	233
2860.634	231
2864.035	206
2867.434	238
2870.83	243
2874.223	244
2877.613	244
2881	239
2884.385	251
2887.766	239
2891.145	253
2894.521	240
2897.894	241
2901.264	249
2904.631	241
2907.996	251
2911.358	262
2914.717	254
2918.073	250
2921.426	253
2924.777	242
2928.124	252
2931.469	278
2934.811	261
2938.15	288
2941.487	279
2944.821	293
2948.152	288
2951.48	288
2954.805	269
2958.128	296
2961.447	272
2964.765	300
2968.079	286
2971.39	285
2974.699	291
2978.005	291
2981.308	299
2984.609	284
2987.907	313
2991.202	306
2994.494	301
2997.784	311
3001.07	307
3004.355	312
3007.636	307
3010.915	322
3014.191	317
3017.464	320
3020.734	328
3024.002	330
3027.267	322
3030.53	332
3033.789	328
3037.046	339
3040.301	336
3043.552	344
3046.801	354
3050.048	365
3053.291	389
3056.532	382
3059.771	374
3063.006	406
3066.239	407
3069.469	428
3072.697	414
3075.922	426
3079.144	437
3082.364	472
3085.581	462
3088.795	482
3092.007	492
3095.216	497
3098.423	496
3101.627	484
3104.828	509
3108.026	517
3111.222	542
3114.416	563
3117.607	559
3120.795	571
3123.98	579
3127.163	579
3130.344	604
3133.521	613
3136.696	651
3139.869	650
3143.039	629
3146.206	676
3149.371	678
3152.533	673
3155.693	666
3158.85	681
3162.005	690
3165.157	688
3168.306	680
3171.453	707
3174.597	689
3177.739	685
3180.878	698
3184.014	696
3187.149	712
3190.28	708
3193.409	716
3196.536	709
3199.659	730
3202.781	717
3205.9	703
3209.016	715
3212.13	724
3215.241	695
3218.35	707
3221.456	715
3224.56	696
3227.661	693
3230.76	677
3233.856	678
3236.95	683
3240.041	677
3243.13	664
3246.216	663
3249.3	669
3252.382	662
3255.46	662
3258.537	616
3261.611	666
3264.682	659
3267.751	647
3270.818	654
3273.882	649
3276.943	633
3280.002	648
3283.059	616
3286.113	623
3289.165	612
3292.214	601
3295.261	613
3298.306	576
3301.348	598
3304.387	565
3307.425	581
3310.459	560
3313.492	555
3316.521	555
3319.549	555
3322.574	552
3325.597	540
3328.617	527
3331.635	536
3334.65	524
3337.663	528
3340.674	524
3343.682	526
3346.688	534
3349.691	511
3352.692	523
3355.691	526
3358.687	515
3361.681	511
3364.673	518
3367.662	513
3370.649	515
3373.633	486
3376.615	491
3379.595	468
3382.572	479
3385.547	460
3388.52	448
3391.49	459
3394.458	457
3397.424	446
3400.387	433
3403.348	442
3406.307	439
3409.263	433
3412.217	430
3415.168	427
3418.118	442
3421.065	411
3424.009	418
3426.951	412
3429.891	399
3432.829	400
3435.764	398
3438.697	386
3441.628	378
3444.557	356
3447.483	352
3450.407	358
3453.328	343
3456.247	323
3459.164	316
3462.079	331
3464.991	309
3467.902	305
3470.809	290
3473.715	290
3476.618	278
3479.519	276
3482.418	248
3485.315	250
3488.209	242
3491.101	245
3493.99	229
3496.878	233
3499.763	229
3502.646	222
3505.527	217
3508.405	205
3511.281	189
3514.155	198
3517.027	190
3519.897	173
3522.764	183
3525.629	164
3528.492	159
3531.352	159
3534.211	152
3537.067	140
3539.921	140
3542.773	143
3545.622	117
3548.469	117
3551.315	109
3554.157	112
3556.998	93
3559.837	102
3562.673	106
3565.507	94
3568.339	82
3571.169	90
3573.996	84
3576.822	64
3579.645	68
3582.466	68
3585.285	74
3588.101	67
3590.916	57
3593.728	71
3596.538	61
3599.346	62
3602.152	50
3604.956	51
3607.757	54
3610.556	33
3613.354	49
3616.149	45
3618.942	45
3621.732	45
3624.521	32
3627.307	22
3630.092	22
3632.874	38
3635.654	24
3638.432	23
3641.208	18
3643.982	19
3646.753	27
3649.523	-7
3652.29	12
3655.055	17
3657.818	9
3660.579	4
3663.338	-3
3666.095	1
3668.849	-18
3671.602	8
3674.352	-10
3677.101	7
3679.847	6
3682.591	-5
3685.333	-15
3688.073	-4
3690.811	-14
3693.547	-20
3696.281	-18
3699.013	-12
3701.742	-15
3704.47	-24
3707.195	-12
3709.919	-10
3712.64	-16
3715.359	-29
3718.076	1
3720.792	-17
3723.505	-11
3726.216	-2
3728.925	-16
3731.632	-26
3734.336	-14
3737.039	-19
3739.74	-13
3742.439	-39
3745.136	-11
3747.83	-15
3750.523	-16
3753.213	-83
3755.902	-24
3758.589	-36
3761.273	-24
3763.956	-12
3766.636	-38
3769.315	-12
3771.991	-23
3774.665	-28
3777.338	-24
3780.008	-30
3782.677	-24
3785.343	-38
3788.007	-45
3790.67	-14
3793.33	-40
3795.989	-30
3798.645	-21
3801.299	-39
3803.952	-33
3806.602	-29
3809.251	-25
3811.897	-29
3814.542	-29
3817.184	-30
3819.825	-27
3822.463	-38
3825.1	-28
3827.735	-25
3830.367	-31
3832.998	-14
3835.627	-31
3838.253	-19
3840.878	-31
3843.501	-12
3846.122	-22
3848.741	-18
3851.358	-18
3853.973	-34
3856.586	-16
3859.197	-32
3861.806	-25
3864.414	-31
3867.019	-24
3869.622	-19
3872.224	-12
3874.823	15
3877.421	44
3880.016	66
3882.61	119
3885.202	138
3887.792	102
3890.38	55
3892.966	8
3895.55	-23
3898.132	-16
3900.713	-20
3903.291	-23
3905.868	-40
3908.442	-26
3911.015	-27
3913.586	-32
3916.155	-30
3918.722	-35
3921.287	-37
3923.85	-44
3926.411	-35
3928.971	-39
3931.528	-30
3934.084	-35
3936.638	-46
3939.19	-30
3941.74	-28
3944.288	-30
3946.834	-35
3949.378	-24
3951.921	-34
3954.462	-37
3957	-27
3959.537	-14
3962.072	-32
3964.606	-47
3967.137	-34
3969.667	-35
3972.194	-25
3974.72	-33
3977.244	-50
3979.766	-34
3982.286	-39
3984.805	-24
3987.321	-23
3989.836	-25
3992.349	-33
3994.86	-30
3997.369	-37
3999.877	-28
4002.382	-31
4004.886	-29
4007.388	-30
4009.888	-16
4012.386	-22
4014.883	-22
4017.377	-25
4019.87	-29
4022.361	-33
4024.85	-33
4027.338	-25
4029.823	-32
4032.307	-29
4034.789	-28
4037.269	-26
4039.747	-42
4042.224	-19
4044.699	-32
4047.172	-32
4049.643	-22
4052.112	-49
4054.58	-25
4057.046	-40
4059.51	-27
4061.972	-29
4064.432	-46
4066.891	-17
4069.348	-27
4071.803	-24
4074.256	-35
4076.708	-24
4079.158	-30
4081.606	-18
4084.052	-30
4086.497	-21
4088.939	-23
4091.38	-30
4093.819	-21
4096.257	0
4098.693	-5
4101.127	-4
4103.559	3
4105.989	161
4108.418	161
4110.845	148
4113.27	154
4115.694	162
4118.115	155
4120.535	-29
4122.954	-20
4125.37	-15
4127.785	-23
4130.198	-18
4132.609	-18
4135.019	8
4137.427	-3
4139.833	4
4142.237	-3
