Data from 2018-3-6_conc=0_n=6_RamanShift_02.txt Node
Date: Tue Mar 06 12:24:19 GMT+02:00 2018
User: LAB3
Spectrometer: QEPB0276
Trigger mode: 0
Integration Time (sec): 3.000000E1
Scans to average: 1
Electric dark correction enabled: true
Nonlinearity correction enabled: false
Boxcar width: 0
XAxis mode: Raman Shifts
Number of Pixels in Spectrum: 1044
>>>>>Begin Spectral Data<<<<<
160.701	76
166.742	113
172.777	182
178.805	405
184.826	995
190.841	2027
196.849	3267
202.85	4208
208.845	4578
214.833	4621
220.815	4576
226.789	4649
232.758	4677
238.719	4703
244.674	4690
250.623	4702
256.565	4701
262.5	4658
268.429	4676
274.351	4639
280.267	4674
286.176	4661
292.079	4688
297.975	4727
303.865	4695
309.748	4747
315.625	4733
321.495	4759
327.359	4730
333.217	4746
339.068	4771
344.912	4831
350.751	4819
356.583	4817
362.408	4862
368.227	4871
374.04	4892
379.847	4920
385.647	4944
391.44	4958
397.228	4956
403.009	5016
408.784	5046
414.553	5035
420.315	5075
426.071	5054
431.821	5101
437.565	5094
443.302	5051
449.033	5048
454.758	5042
460.477	4964
466.189	4952
471.896	4899
477.596	4905
483.29	4850
488.978	4857
494.66	4819
500.335	4724
506.005	4599
511.668	4410
517.325	4253
522.977	4104
528.622	4031
534.261	3954
539.894	3899
545.521	3846
551.141	3818
556.756	3785
562.365	3756
567.968	3744
573.565	3708
579.155	3721
584.74	3689
590.319	3671
595.892	3668
601.459	3652
607.02	3659
612.575	3622
618.124	3601
623.667	3557
629.204	3532
634.735	3487
640.261	3466
645.781	3408
651.294	3395
656.802	3438
662.304	3431
667.8	3421
673.29	3406
678.775	3381
684.254	3376
689.726	3357
695.193	3342
700.655	3335
706.11	3319
711.56	3301
717.004	3303
722.442	3253
727.874	3263
733.301	3247
738.722	3225
744.137	3230
749.547	3224
754.951	3222
760.349	3234
765.741	3259
771.128	3257
776.509	3276
781.885	3327
787.254	3357
792.618	3345
797.977	3362
803.33	3327
808.677	3277
814.019	3264
819.355	3259
824.686	3205
830.011	3179
835.33	3198
840.644	3209
845.952	3183
851.255	3175
856.552	3156
861.844	3134
867.13	3104
872.41	3126
877.686	3169
882.955	3178
888.219	3149
893.478	3064
898.731	2984
903.979	2927
909.221	2897
914.458	2877
919.69	2854
924.916	2882
930.136	2894
935.351	2900
940.561	2914
945.766	2898
950.965	2890
956.158	2851
961.347	2812
966.529	2776
971.707	2783
976.879	2731
982.046	2690
987.208	2699
992.364	2692
997.515	2690
1002.66	2729
1007.801	2758
1012.936	2767
1018.066	2792
1023.19	2796
1028.309	2797
1033.423	2819
1038.532	2807
1043.636	2788
1048.734	2799
1053.827	2768
1058.915	2741
1063.998	2679
1069.075	2666
1074.147	2692
1079.214	2688
1084.276	2729
1089.333	2712
1094.385	2753
1099.431	2739
1104.472	2728
1109.509	2677
1114.54	2650
1119.565	2616
1124.586	2570
1129.602	2568
1134.613	2505
1139.618	2495
1144.619	2502
1149.614	2506
1154.604	2506
1159.589	2519
1164.57	2530
1169.545	2556
1174.515	2537
1179.48	2535
1184.44	2484
1189.395	2494
1194.345	2459
1199.29	2464
1204.23	2436
1209.165	2431
1214.095	2466
1219.021	2463
1223.941	2488
1228.856	2505
1233.766	2494
1238.672	2506
1243.572	2515
1248.467	2481
1253.358	2462
1258.244	2420
1263.124	2401
1268	2371
1272.871	2301
1277.737	2320
1282.599	2315
1287.455	2313
1292.306	2299
1297.153	2317
1301.995	2313
1306.832	2320
1311.664	2309
1316.491	2310
1321.314	2328
1326.132	2286
1330.945	2257
1335.753	2223
1340.556	2175
1345.354	2146
1350.148	2108
1354.937	2112
1359.722	2064
1364.501	2066
1369.276	2077
1374.046	2078
1378.811	2058
1383.572	2076
1388.327	2064
1393.079	2033
1397.825	2045
1402.567	2018
1407.304	1989
1412.036	1983
1416.764	2009
1421.487	1985
1426.205	1964
1430.919	1998
1435.628	2000
1440.333	2020
1445.032	2035
1449.727	2070
1454.418	2084
1459.104	2100
1463.785	2046
1468.462	2025
1473.134	1970
1477.802	1938
1482.465	1868
1487.123	1865
1491.777	1856
1496.426	1833
1501.071	1868
1505.711	1853
1510.347	1884
1514.978	1887
1519.604	1877
1524.226	1888
1528.844	1876
1533.457	1862
1538.065	1853
1542.669	1821
1547.269	1815
1551.864	1809
1556.454	1779
1561.041	1797
1565.622	1803
1570.199	1801
1574.772	1812
1579.34	1823
1583.904	1827
1588.464	1852
1593.019	1845
1597.569	1829
1602.115	1807
1606.657	1797
1611.195	1799
1615.728	1800
1620.256	1759
1624.78	1745
1629.3	1764
1633.816	1766
1638.327	1759
1642.834	1769
1647.336	1797
1651.834	1815
1656.328	1794
1660.817	1791
1665.302	1788
1669.783	1765
1674.259	1746
1678.732	1713
1683.199	1676
1687.663	1618
1692.122	1616
1696.577	1572
1701.028	1546
1705.474	1512
1709.917	1509
1714.355	1482
1718.788	1476
1723.218	1466
1727.643	1442
1732.064	1441
1736.481	1409
1740.893	1389
1745.301	1364
1749.705	1327
1754.105	1314
1758.501	1291
1762.893	1275
1767.28	1231
1771.663	1243
1776.042	1216
1780.417	1218
1784.787	1229
1789.154	1220
1793.516	1234
1797.874	1218
1802.228	1206
1806.578	1197
1810.924	1217
1815.266	1114
1819.603	1179
1823.937	1156
1828.266	1159
1832.591	1130
1836.913	1156
1841.23	1127
1845.543	1113
1849.852	1124
1854.156	1117
1858.457	1109
1862.754	1118
1867.047	1132
1871.335	1149
1875.62	1141
1879.9	1148
1884.177	1118
1888.449	1127
1892.718	1123
1896.982	1117
1901.243	1095
1905.499	1091
1909.752	1077
1914	1059
1918.245	1090
1922.485	1100
1926.722	1073
1930.954	1084
1935.183	1095
1939.408	1079
1943.628	1096
1947.845	1079
1952.058	1068
1956.267	1047
1960.472	1043
1964.673	1028
1968.87	1005
1973.063	982
1977.252	966
1981.438	956
1985.619	969
1989.797	936
1993.971	941
1998.14	973
2002.306	931
2006.469	940
2010.627	919
2014.781	924
2018.932	918
2023.078	937
2027.221	920
2031.36	894
2035.495	903
2039.627	868
2043.754	886
2047.878	863
2051.998	863
2056.114	860
2060.226	864
2064.334	873
2068.439	880
2072.54	874
2076.637	862
2080.73	870
2084.82	873
2088.906	860
2092.988	859
2097.066	862
2101.14	864
2105.211	856
2109.278	837
2113.342	813
2117.401	813
2121.457	810
2125.509	786
2129.558	797
2133.602	784
2137.643	785
2141.681	773
2145.714	775
2149.744	773
2153.77	769
2157.793	749
2161.812	736
2165.827	723
2169.838	740
2173.846	723
2177.851	706
2181.851	709
2185.848	683
2189.841	688
2193.831	684
2197.817	671
2201.799	673
2205.778	667
2209.753	671
2213.725	660
2217.693	660
2221.657	644
2225.618	665
2229.575	657
2233.529	647
2237.479	645
2241.425	632
2245.368	624
2249.307	617
2253.243	618
2257.175	611
2261.104	592
2265.029	592
2268.95	586
2272.868	575
2276.783	554
2280.694	570
2284.601	562
2288.505	546
2292.405	555
2296.302	528
2300.195	540
2304.085	501
2307.971	529
2311.854	496
2315.734	505
2319.609	501
2323.482	482
2327.351	489
2331.216	498
2335.078	494
2338.937	483
2342.792	479
2346.643	472
2350.492	489
2354.336	472
2358.178	484
2362.015	491
2365.85	481
2369.681	482
2373.508	476
2377.333	491
2381.153	476
2384.971	484
2388.785	488
2392.595	470
2396.402	468
2400.206	447
2404.007	463
2407.804	468
2411.597	465
2415.388	462
2419.174	452
2422.958	455
2426.738	456
2430.515	453
2434.289	444
2438.059	438
2441.825	436
2445.589	442
2449.349	413
2453.106	435
2456.859	420
2460.61	428
2464.356	403
2468.1	408
2471.84	398
2475.577	406
2479.311	394
2483.041	404
2486.768	413
2490.492	416
2494.213	402
2497.93	394
2501.644	385
2505.355	400
2509.062	395
2512.766	392
2516.467	381
2520.165	383
2523.859	381
2527.551	395
2531.239	373
2534.923	375
2538.605	369
2542.283	375
2545.958	367
2549.63	375
2553.299	378
2556.964	357
2560.626	368
2564.285	375
2567.941	351
2571.594	341
2575.243	364
2578.89	345
2582.533	347
2586.173	334
2589.809	347
2593.443	314
2597.073	333
2600.701	329
2604.325	319
2607.946	315
2611.564	332
2615.178	323
2618.79	314
2622.398	313
2626.004	318
2629.606	307
2633.205	298
2636.801	312
2640.394	314
2643.983	302
2647.57	291
2651.153	279
2654.734	294
2658.311	264
2661.885	275
2665.456	281
2669.025	270
2672.589	274
2676.151	287
2679.71	278
2683.266	268
2686.819	257
2690.368	264
2693.915	261
2697.458	257
2700.999	257
2704.536	257
2708.071	263
2711.602	256
2715.13	237
2718.656	229
2722.178	247
2725.697	218
2729.214	232
2732.727	240
2736.237	220
2739.744	232
2743.249	230
2746.75	230
2750.248	220
2753.743	233
2757.236	225
2760.725	233
2764.211	210
2767.695	228
2771.175	222
2774.652	225
2778.127	211
2781.598	208
2785.067	219
2788.532	206
2791.995	215
2795.455	205
2798.911	220
2802.365	214
2805.816	219
2809.264	222
2812.709	204
2816.151	222
2819.59	205
2823.026	209
2826.46	208
2829.89	228
2833.318	194
2836.742	215
2840.164	215
2843.583	215
2846.999	219
2850.412	219
2853.822	211
2857.229	229
2860.634	227
2864.035	205
2867.434	228
2870.83	246
2874.223	232
2877.613	244
2881	240
2884.385	241
2887.766	247
2891.145	246
2894.521	241
2897.894	236
2901.264	242
2904.631	239
2907.996	249
2911.358	250
2914.717	251
2918.073	246
2921.426	245
2924.777	227
2928.124	252
2931.469	279
2934.811	258
2938.15	291
2941.487	283
2944.821	294
2948.152	277
2951.48	267
2954.805	252
2958.128	267
2961.447	249
2964.765	266
2968.079	255
2971.39	251
2974.699	254
2978.005	252
2981.308	257
2984.609	248
2987.907	266
2991.202	264
2994.494	247
2997.784	258
3001.07	253
3004.355	258
3007.636	255
3010.915	252
3014.191	257
3017.464	252
3020.734	252
3024.002	247
3027.267	244
3030.53	254
3033.789	251
3037.046	253
3040.301	249
3043.552	261
3046.801	261
3050.048	273
3053.291	293
3056.532	283
3059.771	271
3063.006	287
3066.239	296
3069.469	299
3072.697	297
3075.922	305
3079.144	310
3082.364	335
3085.581	322
3088.795	350
3092.007	345
3095.216	353
3098.423	348
3101.627	337
3104.828	371
3108.026	365
3111.222	400
3114.416	395
3117.607	394
3120.795	407
3123.98	416
3127.163	412
3130.344	417
3133.521	402
3136.696	438
3139.869	447
3143.039	431
3146.206	470
3149.371	470
3152.533	462
3155.693	450
3158.85	464
3162.005	472
3165.157	468
3168.306	468
3171.453	476
3174.597	463
3177.739	461
3180.878	480
3184.014	479
3187.149	472
3190.28	477
3193.409	478
3196.536	483
3199.659	499
3202.781	486
3205.9	480
3209.016	486
3212.13	478
3215.241	474
3218.35	484
3221.456	484
3224.56	465
3227.661	473
3230.76	460
3233.856	458
3236.95	460
3240.041	437
3243.13	453
3246.216	448
3249.3	456
3252.382	458
3255.46	439
3258.537	395
3261.611	442
3264.682	438
3267.751	438
3270.818	419
3273.882	443
3276.943	432
3280.002	445
3283.059	415
3286.113	412
3289.165	413
3292.214	399
3295.261	410
3298.306	372
3301.348	381
3304.387	382
3307.425	384
3310.459	369
3313.492	376
3316.521	366
3319.549	364
3322.574	366
3325.597	361
3328.617	342
3331.635	351
3334.65	330
3337.663	349
3340.674	334
3343.682	344
3346.688	351
3349.691	329
3352.692	347
3355.691	351
3358.687	329
3361.681	336
3364.673	318
3367.662	334
3370.649	334
3373.633	313
3376.615	319
3379.595	290
3382.572	311
3385.547	290
3388.52	289
3391.49	290
3394.458	295
3397.424	294
3400.387	277
3403.348	284
3406.307	285
3409.263	283
3412.217	289
3415.168	276
3418.118	289
3421.065	266
3424.009	280
3426.951	269
3429.891	257
3432.829	254
3435.764	258
3438.697	242
3441.628	257
3444.557	227
3447.483	227
3450.407	233
3453.328	220
3456.247	214
3459.164	207
3462.079	214
3464.991	203
3467.902	195
3470.809	194
3473.715	194
3476.618	178
3479.519	182
3482.418	164
3485.315	163
3488.209	159
3491.101	161
3493.99	142
3496.878	144
3499.763	141
3502.646	145
3505.527	130
3508.405	132
3511.281	120
3514.155	128
3517.027	121
3519.897	106
3522.764	111
3525.629	91
3528.492	99
3531.352	98
3534.211	91
3537.067	88
3539.921	84
3542.773	86
3545.622	67
3548.469	57
3551.315	61
3554.157	64
3556.998	51
3559.837	65
3562.673	60
3565.507	50
3568.339	42
3571.169	46
3573.996	43
3576.822	25
3579.645	32
3582.466	33
3585.285	38
3588.101	34
3590.916	30
3593.728	35
3596.538	26
3599.346	29
3602.152	16
3604.956	20
3607.757	22
3610.556	6
3613.354	14
3616.149	14
3618.942	19
3621.732	17
3624.521	4
3627.307	-6
3630.092	0
3632.874	12
3635.654	4
3638.432	-4
3641.208	0
3643.982	-1
3646.753	7
3649.523	-24
3652.29	-6
3655.055	4
3657.818	-1
3660.579	-6
3663.338	-17
3666.095	-16
3668.849	-34
3671.602	-8
3674.352	-25
3677.101	-1
3679.847	-9
3682.591	-19
3685.333	-22
3688.073	-19
3690.811	-24
3693.547	-31
3696.281	-30
3699.013	-16
3701.742	-20
3704.47	-30
3707.195	-19
3709.919	-25
3712.64	-22
3715.359	-30
3718.076	-7
3720.792	-23
3723.505	-18
3726.216	-11
3728.925	-28
3731.632	-30
3734.336	-22
3737.039	-23
3739.74	-13
3742.439	-40
3745.136	-21
3747.83	-18
3750.523	-20
3753.213	-79
3755.902	-28
3758.589	-41
3761.273	-31
3763.956	-17
3766.636	-37
3769.315	-14
3771.991	-24
3774.665	-28
3777.338	-27
3780.008	-40
3782.677	-27
3785.343	-43
3788.007	-40
3790.67	-24
3793.33	-40
3795.989	-31
3798.645	-27
3801.299	-37
3803.952	-36
3806.602	-36
3809.251	-23
3811.897	-28
3814.542	-29
3817.184	-30
3819.825	-27
3822.463	-42
3825.1	-29
3827.735	-26
3830.367	-37
3832.998	-16
3835.627	-32
3838.253	-18
3840.878	-34
3843.501	-14
3846.122	-24
3848.741	-23
3851.358	-19
3853.973	-36
3856.586	-24
3859.197	-31
3861.806	-30
3864.414	-46
3867.019	-31
3869.622	-23
3872.224	-25
3874.823	-23
3877.421	-8
3880.016	-7
3882.61	22
3885.202	35
3887.792	23
3890.38	9
3892.966	-22
3895.55	-35
3898.132	-23
3900.713	-22
3903.291	-27
3905.868	-35
3908.442	-31
3911.015	-27
3913.586	-39
3916.155	-33
3918.722	-36
3921.287	-35
3923.85	-50
3926.411	-34
3928.971	-37
3931.528	-30
3934.084	-34
3936.638	-38
3939.19	-25
3941.74	-29
3944.288	-34
3946.834	-30
3949.378	-22
3951.921	-37
3954.462	-32
3957	-30
3959.537	-21
3962.072	-28
3964.606	-45
3967.137	-34
3969.667	-36
3972.194	-26
3974.72	-35
3977.244	-57
3979.766	-37
3982.286	-36
3984.805	-28
3987.321	-20
3989.836	-26
3992.349	-32
3994.86	-27
3997.369	-38
3999.877	-34
4002.382	-37
4004.886	-24
4007.388	-28
4009.888	-19
4012.386	-21
4014.883	-25
4017.377	-26
4019.87	-26
4022.361	-37
4024.85	-27
4027.338	-28
4029.823	-34
4032.307	-30
4034.789	-29
4037.269	-31
4039.747	-40
4042.224	-27
4044.699	-37
4047.172	-37
4049.643	-20
4052.112	-48
4054.58	-25
4057.046	-40
4059.51	-31
4061.972	-29
4064.432	-42
4066.891	-18
4069.348	-28
4071.803	-26
4074.256	-29
4076.708	-28
4079.158	-30
4081.606	-18
4084.052	-29
4086.497	-23
4088.939	-28
4091.38	-34
4093.819	-21
4096.257	-1
4098.693	-6
4101.127	-4
4103.559	2
4105.989	40
4108.418	47
4110.845	39
4113.27	54
4115.694	64
4118.115	58
4120.535	-26
4122.954	-24
4125.37	-17
4127.785	-24
4130.198	-18
4132.609	-24
4135.019	5
4137.427	2
4139.833	6
4142.237	-4
