Data from 2018-3-6_conc=5_n=6_RamanShift_04.txt Node
Date: Tue Mar 06 14:39:48 GMT+02:00 2018
User: LAB3
Spectrometer: QEPB0276
Trigger mode: 0
Integration Time (sec): 3.000000E1
Scans to average: 1
Electric dark correction enabled: true
Nonlinearity correction enabled: false
Boxcar width: 0
XAxis mode: Raman Shifts
Number of Pixels in Spectrum: 1044
>>>>>Begin Spectral Data<<<<<
160.701	44.25
166.742	64.25
172.777	102.25
178.805	197.25
184.826	460.25
190.841	945.25
196.849	1494.25
202.85	1887.25
208.845	1999.25
214.833	1985.25
220.815	1947.25
226.789	1917.25
232.758	1914.25
238.719	1893.25
244.674	1866.25
250.623	1822.25
256.565	1808.25
262.5	1784.25
268.429	1758.25
274.351	1731.25
280.267	1733.25
286.176	1723.25
292.079	1723.25
297.975	1703.25
303.865	1700.25
309.748	1683.25
315.625	1682.25
321.495	1686.25
327.359	1675.25
333.217	1682.25
339.068	1668.25
344.912	1681.25
350.751	1687.25
356.583	1672.25
362.408	1690.25
368.227	1704.25
374.04	1709.25
379.847	1691.25
385.647	1730.25
391.44	1690.25
397.228	1710.25
403.009	1734.25
408.784	1746.25
414.553	1731.25
420.315	1751.25
426.071	1717.25
431.821	1735.25
437.565	1750.25
443.302	1732.25
449.033	1719.25
454.758	1715.25
460.477	1693.25
466.189	1675.25
471.896	1667.25
477.596	1644.25
483.29	1637.25
488.978	1622.25
494.66	1631.25
500.335	1562.25
506.005	1512.25
511.668	1443.25
517.325	1372.25
522.977	1321.25
528.622	1277.25
534.261	1228.25
539.894	1214.25
545.521	1184.25
551.141	1169.25
556.756	1183.25
562.365	1165.25
567.968	1156.25
573.565	1140.25
579.155	1134.25
584.74	1127.25
590.319	1135.25
595.892	1140.25
601.459	1153.25
607.02	1139.25
612.575	1111.25
618.124	1107.25
623.667	1076.25
629.204	1069.25
634.735	1064.25
640.261	1058.25
645.781	1017.25
651.294	1012.25
656.802	1038.25
662.304	1033.25
667.8	1036.25
673.29	1008.25
678.775	1022.25
684.254	1012.25
689.726	1009.25
695.193	999.25
700.655	1006.25
706.11	979.25
711.56	986.25
717.004	975.25
722.442	974.25
727.874	964.25
733.301	979.25
738.722	952.25
744.137	957.25
749.547	943.25
754.951	953.25
760.349	946.25
765.741	974.25
771.128	972.25
776.509	962.25
781.885	1010.25
787.254	991.25
792.618	1010.25
797.977	1018.25
803.33	1001.25
808.677	992.25
814.019	994.25
819.355	975.25
824.686	969.25
830.011	953.25
835.33	971.25
840.644	954.25
845.952	929.25
851.255	963.25
856.552	937.25
861.844	926.25
867.13	886.25
872.41	911.25
877.686	897.25
882.955	877.25
888.219	889.25
893.478	857.25
898.731	859.25
903.979	852.25
909.221	834.25
914.458	820.25
919.69	835.25
924.916	833.25
930.136	823.25
935.351	809.25
940.561	831.25
945.766	833.25
950.965	835.25
956.158	809.25
961.347	804.25
966.529	802.25
971.707	792.25
976.879	794.25
982.046	774.25
987.208	764.25
992.364	767.25
997.515	762.25
1002.66	782.25
1007.801	770.25
1012.936	779.25
1018.066	766.25
1023.19	785.25
1028.309	803.25
1033.423	789.25
1038.532	794.25
1043.636	775.25
1048.734	786.25
1053.827	760.25
1058.915	757.25
1063.998	766.25
1069.075	751.25
1074.147	759.25
1079.214	747.25
1084.276	760.25
1089.333	749.25
1094.385	768.25
1099.431	741.25
1104.472	763.25
1109.509	731.25
1114.54	738.25
1119.565	722.25
1124.586	722.25
1129.602	709.25
1134.613	687.25
1139.618	685.25
1144.619	705.25
1149.614	698.25
1154.604	703.25
1159.589	704.25
1164.57	710.25
1169.545	717.25
1174.515	719.25
1179.48	697.25
1184.44	702.25
1189.395	719.25
1194.345	688.25
1199.29	704.25
1204.23	685.25
1209.165	663.25
1214.095	694.25
1219.021	688.25
1223.941	672.25
1228.856	688.25
1233.766	695.25
1238.672	701.25
1243.572	703.25
1248.467	697.25
1253.358	682.25
1258.244	665.25
1263.124	684.25
1268	665.25
1272.871	627.25
1277.737	634.25
1282.599	616.25
1287.455	616.25
1292.306	640.25
1297.153	615.25
1301.995	619.25
1306.832	634.25
1311.664	627.25
1316.491	633.25
1321.314	636.25
1326.132	623.25
1330.945	623.25
1335.753	606.25
1340.556	594.25
1345.354	586.25
1350.148	588.25
1354.937	572.25
1359.722	559.25
1364.501	558.25
1369.276	565.25
1374.046	565.25
1378.811	560.25
1383.572	563.25
1388.327	562.25
1393.079	550.25
1397.825	548.25
1402.567	542.25
1407.304	531.25
1412.036	523.25
1416.764	536.25
1421.487	517.25
1426.205	516.25
1430.919	534.25
1435.628	532.25
1440.333	525.25
1445.032	539.25
1449.727	551.25
1454.418	548.25
1459.104	547.25
1463.785	525.25
1468.462	529.25
1473.134	518.25
1477.802	511.25
1482.465	482.25
1487.123	496.25
1491.777	470.25
1496.426	459.25
1501.071	492.25
1505.711	485.25
1510.347	497.25
1514.978	494.25
1519.604	479.25
1524.226	500.25
1528.844	483.25
1533.457	490.25
1538.065	485.25
1542.669	485.25
1547.269	488.25
1551.864	483.25
1556.454	464.25
1561.041	475.25
1565.622	471.25
1570.199	484.25
1574.772	482.25
1579.34	481.25
1583.904	501.25
1588.464	507.25
1593.019	502.25
1597.569	483.25
1602.115	491.25
1606.657	485.25
1611.195	498.25
1615.728	495.25
1620.256	478.25
1624.78	467.25
1629.3	473.25
1633.816	486.25
1638.327	493.25
1642.834	492.25
1647.336	484.25
1651.834	509.25
1656.328	494.25
1660.817	489.25
1665.302	475.25
1669.783	470.25
1674.259	465.25
1678.732	446.25
1683.199	444.25
1687.663	416.25
1692.122	434.25
1696.577	414.25
1701.028	424.25
1705.474	401.25
1709.917	388.25
1714.355	388.25
1718.788	389.25
1723.218	371.25
1727.643	362.25
1732.064	369.25
1736.481	349.25
1740.893	358.25
1745.301	349.25
1749.705	326.25
1754.105	333.25
1758.501	315.25
1762.893	338.25
1767.28	302.25
1771.663	308.25
1776.042	304.25
1780.417	300.25
1784.787	311.25
1789.154	315.25
1793.516	314.25
1797.874	305.25
1802.228	293.25
1806.578	286.25
1810.924	307.25
1815.266	187.25
1819.603	307.25
1823.937	285.25
1828.266	298.25
1832.591	290.25
1836.913	281.25
1841.23	287.25
1845.543	277.25
1849.852	285.25
1854.156	276.25
1858.457	284.25
1862.754	271.25
1867.047	273.25
1871.335	295.25
1875.62	281.25
1879.9	282.25
1884.177	266.25
1888.449	273.25
1892.718	277.25
1896.982	279.25
1901.243	257.25
1905.499	260.25
1909.752	254.25
1914	248.25
1918.245	265.25
1922.485	261.25
1926.722	254.25
1930.954	260.25
1935.183	257.25
1939.408	266.25
1943.628	266.25
1947.845	262.25
1952.058	250.25
1956.267	252.25
1960.472	264.25
1964.673	250.25
1968.87	245.25
1973.063	239.25
1977.252	237.25
1981.438	236.25
1985.619	232.25
1989.797	225.25
1993.971	229.25
1998.14	241.25
2002.306	234.25
2006.469	236.25
2010.627	219.25
2014.781	220.25
2018.932	218.25
2023.078	244.25
2027.221	226.25
2031.36	221.25
2035.495	218.25
2039.627	231.25
2043.754	229.25
2047.878	215.25
2051.998	210.25
2056.114	208.25
2060.226	212.25
2064.334	212.25
2068.439	221.25
2072.54	220.25
2076.637	201.25
2080.73	206.25
2084.82	208.25
2088.906	207.25
2092.988	204.25
2097.066	212.25
2101.14	218.25
2105.211	208.25
2109.278	204.25
2113.342	197.25
2117.401	181.25
2121.457	178.25
2125.509	187.25
2129.558	197.25
2133.602	195.25
2137.643	190.25
2141.681	191.25
2145.714	194.25
2149.744	189.25
2153.77	186.25
2157.793	168.25
2161.812	156.25
2165.827	153.25
2169.838	184.25
2173.846	161.25
2177.851	154.25
2181.851	167.25
2185.848	164.25
2189.841	166.25
2193.831	160.25
2197.817	161.25
2201.799	160.25
2205.778	146.25
2209.753	151.25
2213.725	139.25
2217.693	156.25
2221.657	146.25
2225.618	157.25
2229.575	149.25
2233.529	151.25
2237.479	156.25
2241.425	144.25
2245.368	133.25
2249.307	148.25
2253.243	141.25
2257.175	139.25
2261.104	140.25
2265.029	131.25
2268.95	135.25
2272.868	134.25
2276.783	120.25
2280.694	136.25
2284.601	131.25
2288.505	125.25
2292.405	128.25
2296.302	114.25
2300.195	120.25
2304.085	89.25
2307.971	119.25
2311.854	93.25
2315.734	116.25
2319.609	121.25
2323.482	94.25
2327.351	101.25
2331.216	103.25
2335.078	111.25
2338.937	111.25
2342.792	98.25
2346.643	95.25
2350.492	109.25
2354.336	100.25
2358.178	105.25
2362.015	107.25
2365.85	104.25
2369.681	101.25
2373.508	108.25
2377.333	107.25
2381.153	103.25
2384.971	97.25
2388.785	100.25
2392.595	90.25
2396.402	95.25
2400.206	74.25
2404.007	79.25
2407.804	90.25
2411.597	94.25
2415.388	93.25
2419.174	85.25
2422.958	90.25
2426.738	88.25
2430.515	92.25
2434.289	78.25
2438.059	78.25
2441.825	84.25
2445.589	97.25
2449.349	68.25
2453.106	81.25
2456.859	83.25
2460.61	82.25
2464.356	65.25
2468.1	67.25
2471.84	72.25
2475.577	71.25
2479.311	70.25
2483.041	74.25
2486.768	86.25
2490.492	79.25
2494.213	82.25
2497.93	59.25
2501.644	58.25
2505.355	69.25
2509.062	70.25
2512.766	67.25
2516.467	60.25
2520.165	62.25
2523.859	48.25
2527.551	87.25
2531.239	56.25
2534.923	68.25
2538.605	67.25
2542.283	68.25
2545.958	61.25
2549.63	70.25
2553.299	69.25
2556.964	59.25
2560.626	66.25
2564.285	61.25
2567.941	48.25
2571.594	51.25
2575.243	67.25
2578.89	53.25
2582.533	57.25
2586.173	52.25
2589.809	60.25
2593.443	40.25
2597.073	54.25
2600.701	61.25
2604.325	59.25
2607.946	46.25
2611.564	65.25
2615.178	58.25
2618.79	56.25
2622.398	45.25
2626.004	53.25
2629.606	54.25
2633.205	47.25
2636.801	52.25
2640.394	49.25
2643.983	41.25
2647.57	47.25
2651.153	40.25
2654.734	59.25
2658.311	24.25
2661.885	39.25
2665.456	42.25
2669.025	39.25
2672.589	34.25
2676.151	55.25
2679.71	52.25
2683.266	36.25
2686.819	36.25
2690.368	45.25
2693.915	44.25
2697.458	43.25
2700.999	45.25
2704.536	46.25
2708.071	42.25
2711.602	38.25
2715.13	34.25
2718.656	19.25
2722.178	36.25
2725.697	19.25
2729.214	33.25
2732.727	34.25
2736.237	20.25
2739.744	28.25
2743.249	23.25
2746.75	30.25
2750.248	25.25
2753.743	28.25
2757.236	30.25
2760.725	35.25
2764.211	3.25
2767.695	31.25
2771.175	30.25
2774.652	34.25
2778.127	25.25
2781.598	22.25
2785.067	33.25
2788.532	21.25
2791.995	27.25
2795.455	18.25
2798.911	33.25
2802.365	20.25
2805.816	27.25
2809.264	37.25
2812.709	23.25
2816.151	27.25
2819.59	17.25
2823.026	25.25
2826.46	22.25
2829.89	32.25
2833.318	8.25
2836.742	24.25
2840.164	29.25
2843.583	25.25
2846.999	22.25
2850.412	27.25
2853.822	18.25
2857.229	37.25
2860.634	26.25
2864.035	7.25
2867.434	30.25
2870.83	35.25
2874.223	17.25
2877.613	26.25
2881	18.25
2884.385	17.25
2887.766	24.25
2891.145	30.25
2894.521	27.25
2897.894	16.25
2901.264	35.25
2904.631	31.25
2907.996	39.25
2911.358	40.25
2914.717	33.25
2918.073	29.25
2921.426	26.25
2924.777	17.25
2928.124	33.25
2931.469	45.25
2934.811	19.25
2938.15	51.25
2941.487	37.25
2944.821	56.25
2948.152	37.25
2951.48	46.25
2954.805	30.25
2958.128	55.25
2961.447	36.25
2964.765	55.25
2968.079	36.25
2971.39	50.25
2974.699	47.25
2978.005	47.25
2981.308	43.25
2984.609	42.25
2987.907	54.25
2991.202	54.25
2994.494	41.25
2997.784	48.25
3001.07	52.25
3004.355	49.25
3007.636	51.25
3010.915	52.25
3014.191	50.25
3017.464	56.25
3020.734	47.25
3024.002	59.25
3027.267	52.25
3030.53	52.25
3033.789	56.25
3037.046	60.25
3040.301	47.25
3043.552	65.25
3046.801	64.25
3050.048	70.25
3053.291	86.25
3056.532	66.25
3059.771	56.25
3063.006	73.25
3066.239	69.25
3069.469	70.25
3072.697	67.25
3075.922	71.25
3079.144	74.25
3082.364	86.25
3085.581	77.25
3088.795	97.25
3092.007	93.25
3095.216	103.25
3098.423	93.25
3101.627	73.25
3104.828	99.25
3108.026	94.25
3111.222	109.25
3114.416	110.25
3117.607	107.25
3120.795	113.25
3123.98	108.25
3127.163	97.25
3130.344	112.25
3133.521	109.25
3136.696	129.25
3139.869	121.25
3143.039	108.25
3146.206	140.25
3149.371	136.25
3152.533	132.25
3155.693	121.25
3158.85	144.25
3162.005	139.25
3165.157	131.25
3168.306	130.25
3171.453	149.25
3174.597	129.25
3177.739	120.25
3180.878	141.25
3184.014	148.25
3187.149	138.25
3190.28	139.25
3193.409	150.25
3196.536	145.25
3199.659	150.25
3202.781	149.25
3205.9	129.25
3209.016	147.25
3212.13	143.25
3215.241	141.25
3218.35	128.25
3221.456	136.25
3224.56	129.25
3227.661	139.25
3230.76	142.25
3233.856	131.25
3236.95	139.25
3240.041	120.25
3243.13	134.25
3246.216	128.25
3249.3	133.25
3252.382	135.25
3255.46	120.25
3258.537	78.25
3261.611	118.25
3264.682	129.25
3267.751	121.25
3270.818	120.25
3273.882	133.25
3276.943	125.25
3280.002	131.25
3283.059	117.25
3286.113	122.25
3289.165	120.25
3292.214	112.25
3295.261	124.25
3298.306	106.25
3301.348	116.25
3304.387	103.25
3307.425	113.25
3310.459	106.25
3313.492	114.25
3316.521	109.25
3319.549	117.25
3322.574	112.25
3325.597	100.25
3328.617	95.25
3331.635	105.25
3334.65	91.25
3337.663	98.25
3340.674	95.25
3343.682	98.25
3346.688	104.25
3349.691	96.25
3352.692	93.25
3355.691	99.25
3358.687	93.25
3361.681	105.25
3364.673	92.25
3367.662	98.25
3370.649	104.25
3373.633	80.25
3376.615	93.25
3379.595	74.25
3382.572	84.25
3385.547	77.25
3388.52	76.25
3391.49	77.25
3394.458	84.25
3397.424	77.25
3400.387	68.25
3403.348	79.25
3406.307	73.25
3409.263	73.25
3412.217	82.25
3415.168	77.25
3418.118	82.25
3421.065	66.25
3424.009	81.25
3426.951	73.25
3429.891	63.25
3432.829	67.25
3435.764	70.25
3438.697	61.25
3441.628	69.25
3444.557	50.25
3447.483	47.25
3450.407	62.25
3453.328	56.25
3456.247	51.25
3459.164	42.25
3462.079	54.25
3464.991	51.25
3467.902	47.25
3470.809	40.25
3473.715	50.25
3476.618	38.25
3479.519	44.25
3482.418	20.25
3485.315	30.25
3488.209	25.25
3491.101	34.25
3493.99	18.25
3496.878	15.25
3499.763	30.25
3502.646	24.25
3505.527	10.25
3508.405	13.25
3511.281	0.25
3514.155	21.25
3517.027	13.25
3519.897	-0.75
3522.764	13.25
3525.629	-7.75
3528.492	5.25
3531.352	9.25
3534.211	1.25
3537.067	-5.75
3539.921	7.25
3542.773	6.25
3545.622	-4.75
3548.469	-17.75
3551.315	-10.75
3554.157	-7.75
3556.998	-17.75
3559.837	-9.75
3562.673	-5.75
3565.507	-16.75
3568.339	-21.75
3571.169	-17.75
3573.996	-12.75
3576.822	-30.75
3579.645	-27.75
3582.466	-24.75
3585.285	-12.75
3588.101	-18.75
3590.916	-19.75
3593.728	-10.75
3596.538	-20.75
3599.346	-17.75
3602.152	-26.75
3604.956	-21.75
3607.757	-19.75
3610.556	-31.75
3613.354	-21.75
3616.149	-16.75
3618.942	-20.75
3621.732	-17.75
3624.521	-32.75
3627.307	-36.75
3630.092	-27.75
3632.874	-16.75
3635.654	-25.75
3638.432	-29.75
3641.208	-27.75
3643.982	-28.75
3646.753	-17.75
3649.523	-45.75
3652.29	-28.75
3655.055	-23.75
3657.818	-26.75
3660.579	-30.75
3663.338	-34.75
3666.095	-35.75
3668.849	-51.75
3671.602	-22.75
3674.352	-40.75
3677.101	-20.75
3679.847	-18.75
3682.591	-33.75
3685.333	-41.75
3688.073	-25.75
3690.811	-37.75
3693.547	-42.75
3696.281	-46.75
3699.013	-30.75
3701.742	-35.75
3704.47	-43.75
3707.195	-24.75
3709.919	-30.75
3712.64	-30.75
3715.359	-41.75
3718.076	-21.75
3720.792	-30.75
3723.505	-30.75
3726.216	-25.75
3728.925	-35.75
3731.632	-36.75
3734.336	-30.75
3737.039	-28.75
3739.74	-30.75
3742.439	-54.75
3745.136	-24.75
3747.83	-26.75
3750.523	-27.75
3753.213	-85.75
3755.902	-37.75
3758.589	-49.75
3761.273	-41.75
3763.956	-30.75
3766.636	-43.75
3769.315	-23.75
3771.991	-39.75
3774.665	-37.75
3777.338	-33.75
3780.008	-46.75
3782.677	-35.75
3785.343	-52.75
3788.007	-51.75
3790.67	-34.75
3793.33	-46.75
3795.989	-43.75
3798.645	-34.75
3801.299	-48.75
3803.952	-48.75
3806.602	-39.75
3809.251	-29.75
3811.897	-33.75
3814.542	-41.75
3817.184	-37.75
3819.825	-33.75
3822.463	-46.75
3825.1	-40.75
3827.735	-30.75
3830.367	-46.75
3832.998	-22.75
3835.627	-37.75
3838.253	-26.75
3840.878	-37.75
3843.501	-18.75
3846.122	-27.75
3848.741	-25.75
3851.358	-28.75
3853.973	-48.75
3856.586	-22.75
3859.197	-44.75
3861.806	-29.75
3864.414	-46.75
3867.019	-36.75
3869.622	-21.75
3872.224	-27.75
3874.823	-16.75
3877.421	1.25
3880.016	19.25
3882.61	54.25
3885.202	63.25
3887.792	38.25
3890.38	15.25
3892.966	-20.75
3895.55	-32.75
3898.132	-23.75
3900.713	-24.75
3903.291	-31.75
3905.868	-39.75
3908.442	-34.75
3911.015	-31.75
3913.586	-37.75
3916.155	-36.75
3918.722	-41.75
3921.287	-36.75
3923.85	-48.75
3926.411	-39.75
3928.971	-41.75
3931.528	-29.75
3934.084	-38.75
3936.638	-45.75
3939.19	-30.75
3941.74	-33.75
3944.288	-37.75
3946.834	-37.75
3949.378	-30.75
3951.921	-38.75
3954.462	-36.75
3957	-32.75
3959.537	-27.75
3962.072	-38.75
3964.606	-52.75
3967.137	-37.75
3969.667	-38.75
3972.194	-31.75
3974.72	-37.75
3977.244	-58.75
3979.766	-43.75
3982.286	-44.75
3984.805	-32.75
3987.321	-24.75
3989.836	-33.75
3992.349	-44.75
3994.86	-33.75
3997.369	-42.75
3999.877	-36.75
4002.382	-38.75
4004.886	-33.75
4007.388	-33.75
4009.888	-25.75
4012.386	-30.75
4014.883	-30.75
4017.377	-35.75
4019.87	-32.75
4022.361	-47.75
4024.85	-36.75
4027.338	-39.75
4029.823	-40.75
4032.307	-40.75
4034.789	-36.75
4037.269	-36.75
4039.747	-48.75
4042.224	-28.75
4044.699	-43.75
4047.172	-38.75
4049.643	-31.75
4052.112	-58.75
4054.58	-33.75
4057.046	-43.75
4059.51	-39.75
4061.972	-39.75
4064.432	-51.75
4066.891	-18.75
4069.348	-37.75
4071.803	-28.75
4074.256	-38.75
4076.708	-31.75
4079.158	-35.75
4081.606	-25.75
4084.052	-36.75
4086.497	-31.75
4088.939	-36.75
4091.38	-33.75
4093.819	-23.75
4096.257	3.25
4098.693	-6.75
4101.127	-7.75
4103.559	0.25
4105.989	61.25
4108.418	57.25
4110.845	32.25
4113.27	48.25
4115.694	55.25
4118.115	40.25
4120.535	-33.75
4122.954	-28.75
4125.37	-21.75
4127.785	-26.75
4130.198	-23.75
4132.609	-28.75
4135.019	5.25
4137.427	0.25
4139.833	7.25
4142.237	-1.75
