Data from 2018-3-6_conc=5_n=10_RamanShift_03.txt Node
Date: Tue Mar 06 14:51:18 GMT+02:00 2018
User: LAB3
Spectrometer: QEPB0276
Trigger mode: 0
Integration Time (sec): 3.000000E1
Scans to average: 1
Electric dark correction enabled: true
Nonlinearity correction enabled: false
Boxcar width: 0
XAxis mode: Raman Shifts
Number of Pixels in Spectrum: 1044
>>>>>Begin Spectral Data<<<<<
160.701	41.25
166.742	65.25
172.777	94.25
178.805	191.25
184.826	433.25
190.841	879.25
196.849	1392.25
202.85	1766.25
208.845	1881.25
214.833	1860.25
220.815	1805.25
226.789	1784.25
232.758	1771.25
238.719	1744.25
244.674	1708.25
250.623	1697.25
256.565	1663.25
262.5	1611.25
268.429	1594.25
274.351	1572.25
280.267	1560.25
286.176	1549.25
292.079	1544.25
297.975	1540.25
303.865	1528.25
309.748	1529.25
315.625	1504.25
321.495	1517.25
327.359	1499.25
333.217	1502.25
339.068	1492.25
344.912	1530.25
350.751	1507.25
356.583	1511.25
362.408	1523.25
368.227	1528.25
374.04	1524.25
379.847	1543.25
385.647	1551.25
391.44	1502.25
397.228	1527.25
403.009	1536.25
408.784	1539.25
414.553	1558.25
420.315	1565.25
426.071	1545.25
431.821	1562.25
437.565	1559.25
443.302	1543.25
449.033	1522.25
454.758	1550.25
460.477	1528.25
466.189	1503.25
471.896	1494.25
477.596	1482.25
483.29	1456.25
488.978	1456.25
494.66	1454.25
500.335	1433.25
506.005	1363.25
511.668	1292.25
517.325	1207.25
522.977	1162.25
528.622	1120.25
534.261	1102.25
539.894	1082.25
545.521	1072.25
551.141	1045.25
556.756	1024.25
562.365	1027.25
567.968	1029.25
573.565	997.25
579.155	1027.25
584.74	973.25
590.319	999.25
595.892	999.25
601.459	1006.25
607.02	999.25
612.575	991.25
618.124	982.25
623.667	956.25
629.204	946.25
634.735	948.25
640.261	914.25
645.781	895.25
651.294	910.25
656.802	917.25
662.304	904.25
667.8	909.25
673.29	884.25
678.775	885.25
684.254	890.25
689.726	879.25
695.193	883.25
700.655	873.25
706.11	869.25
711.56	877.25
717.004	869.25
722.442	827.25
727.874	842.25
733.301	853.25
738.722	830.25
744.137	846.25
749.547	838.25
754.951	844.25
760.349	842.25
765.741	847.25
771.128	851.25
776.509	860.25
781.885	884.25
787.254	884.25
792.618	882.25
797.977	896.25
803.33	888.25
808.677	869.25
814.019	859.25
819.355	857.25
824.686	855.25
830.011	861.25
835.33	853.25
840.644	849.25
845.952	811.25
851.255	841.25
856.552	817.25
861.844	813.25
867.13	799.25
872.41	797.25
877.686	777.25
882.955	767.25
888.219	782.25
893.478	753.25
898.731	754.25
903.979	758.25
909.221	741.25
914.458	721.25
919.69	733.25
924.916	731.25
930.136	731.25
935.351	714.25
940.561	733.25
945.766	725.25
950.965	746.25
956.158	715.25
961.347	698.25
966.529	694.25
971.707	700.25
976.879	697.25
982.046	676.25
987.208	674.25
992.364	681.25
997.515	688.25
1002.66	686.25
1007.801	681.25
1012.936	686.25
1018.066	673.25
1023.19	697.25
1028.309	699.25
1033.423	713.25
1038.532	712.25
1043.636	700.25
1048.734	697.25
1053.827	667.25
1058.915	673.25
1063.998	671.25
1069.075	658.25
1074.147	666.25
1079.214	647.25
1084.276	681.25
1089.333	676.25
1094.385	690.25
1099.431	657.25
1104.472	666.25
1109.509	650.25
1114.54	648.25
1119.565	641.25
1124.586	642.25
1129.602	627.25
1134.613	598.25
1139.618	604.25
1144.619	602.25
1149.614	612.25
1154.604	613.25
1159.589	620.25
1164.57	627.25
1169.545	633.25
1174.515	616.25
1179.48	606.25
1184.44	604.25
1189.395	621.25
1194.345	608.25
1199.29	619.25
1204.23	599.25
1209.165	585.25
1214.095	605.25
1219.021	605.25
1223.941	591.25
1228.856	605.25
1233.766	610.25
1238.672	621.25
1243.572	611.25
1248.467	626.25
1253.358	600.25
1258.244	569.25
1263.124	601.25
1268	582.25
1272.871	560.25
1277.737	562.25
1282.599	559.25
1287.455	555.25
1292.306	557.25
1297.153	540.25
1301.995	557.25
1306.832	551.25
1311.664	562.25
1316.491	548.25
1321.314	565.25
1326.132	547.25
1330.945	547.25
1335.753	536.25
1340.556	520.25
1345.354	511.25
1350.148	522.25
1354.937	509.25
1359.722	494.25
1364.501	495.25
1369.276	499.25
1374.046	510.25
1378.811	491.25
1383.572	499.25
1388.327	508.25
1393.079	480.25
1397.825	477.25
1402.567	485.25
1407.304	463.25
1412.036	474.25
1416.764	472.25
1421.487	460.25
1426.205	461.25
1430.919	467.25
1435.628	464.25
1440.333	462.25
1445.032	484.25
1449.727	472.25
1454.418	488.25
1459.104	487.25
1463.785	465.25
1468.462	469.25
1473.134	469.25
1477.802	456.25
1482.465	424.25
1487.123	438.25
1491.777	427.25
1496.426	419.25
1501.071	448.25
1505.711	427.25
1510.347	434.25
1514.978	444.25
1519.604	443.25
1524.226	446.25
1528.844	428.25
1533.457	441.25
1538.065	436.25
1542.669	429.25
1547.269	434.25
1551.864	424.25
1556.454	418.25
1561.041	424.25
1565.622	414.25
1570.199	425.25
1574.772	434.25
1579.34	441.25
1583.904	446.25
1588.464	444.25
1593.019	453.25
1597.569	432.25
1602.115	438.25
1606.657	430.25
1611.195	447.25
1615.728	449.25
1620.256	432.25
1624.78	412.25
1629.3	431.25
1633.816	433.25
1638.327	432.25
1642.834	435.25
1647.336	443.25
1651.834	440.25
1656.328	448.25
1660.817	436.25
1665.302	420.25
1669.783	429.25
1674.259	413.25
1678.732	411.25
1683.199	411.25
1687.663	380.25
1692.122	386.25
1696.577	383.25
1701.028	377.25
1705.474	358.25
1709.917	347.25
1714.355	349.25
1718.788	338.25
1723.218	328.25
1727.643	322.25
1732.064	331.25
1736.481	314.25
1740.893	328.25
1745.301	315.25
1749.705	282.25
1754.105	299.25
1758.501	293.25
1762.893	292.25
1767.28	271.25
1771.663	280.25
1776.042	274.25
1780.417	266.25
1784.787	281.25
1789.154	285.25
1793.516	267.25
1797.874	277.25
1802.228	256.25
1806.578	250.25
1810.924	272.25
1815.266	148.25
1819.603	268.25
1823.937	252.25
1828.266	253.25
1832.591	265.25
1836.913	259.25
1841.23	250.25
1845.543	232.25
1849.852	252.25
1854.156	245.25
1858.457	250.25
1862.754	236.25
1867.047	244.25
1871.335	262.25
1875.62	251.25
1879.9	248.25
1884.177	242.25
1888.449	243.25
1892.718	246.25
1896.982	251.25
1901.243	236.25
1905.499	242.25
1909.752	233.25
1914	218.25
1918.245	249.25
1922.485	241.25
1926.722	239.25
1930.954	227.25
1935.183	243.25
1939.408	241.25
1943.628	241.25
1947.845	235.25
1952.058	234.25
1956.267	222.25
1960.472	241.25
1964.673	220.25
1968.87	225.25
1973.063	219.25
1977.252	224.25
1981.438	205.25
1985.619	212.25
1989.797	201.25
1993.971	207.25
1998.14	213.25
2002.306	209.25
2006.469	215.25
2010.627	200.25
2014.781	198.25
2018.932	196.25
2023.078	218.25
2027.221	203.25
2031.36	201.25
2035.495	192.25
2039.627	201.25
2043.754	194.25
2047.878	187.25
2051.998	192.25
2056.114	180.25
2060.226	196.25
2064.334	191.25
2068.439	195.25
2072.54	206.25
2076.637	188.25
2080.73	182.25
2084.82	188.25
2088.906	175.25
2092.988	182.25
2097.066	185.25
2101.14	193.25
2105.211	194.25
2109.278	178.25
2113.342	176.25
2117.401	163.25
2121.457	161.25
2125.509	162.25
2129.558	173.25
2133.602	172.25
2137.643	172.25
2141.681	170.25
2145.714	169.25
2149.744	177.25
2153.77	163.25
2157.793	148.25
2161.812	136.25
2165.827	132.25
2169.838	158.25
2173.846	151.25
2177.851	149.25
2181.851	156.25
2185.848	143.25
2189.841	147.25
2193.831	137.25
2197.817	142.25
2201.799	143.25
2205.778	132.25
2209.753	142.25
2213.725	136.25
2217.693	138.25
2221.657	128.25
2225.618	142.25
2229.575	133.25
2233.529	140.25
2237.479	133.25
2241.425	128.25
2245.368	122.25
2249.307	132.25
2253.243	125.25
2257.175	127.25
2261.104	119.25
2265.029	123.25
2268.95	121.25
2272.868	110.25
2276.783	101.25
2280.694	114.25
2284.601	109.25
2288.505	117.25
2292.405	115.25
2296.302	92.25
2300.195	104.25
2304.085	77.25
2307.971	105.25
2311.854	78.25
2315.734	94.25
2319.609	108.25
2323.482	79.25
2327.351	88.25
2331.216	85.25
2335.078	100.25
2338.937	89.25
2342.792	79.25
2346.643	84.25
2350.492	95.25
2354.336	87.25
2358.178	93.25
2362.015	95.25
2365.85	89.25
2369.681	90.25
2373.508	87.25
2377.333	102.25
2381.153	89.25
2384.971	90.25
2388.785	86.25
2392.595	80.25
2396.402	84.25
2400.206	57.25
2404.007	69.25
2407.804	80.25
2411.597	81.25
2415.388	78.25
2419.174	72.25
2422.958	81.25
2426.738	77.25
2430.515	81.25
2434.289	68.25
2438.059	72.25
2441.825	73.25
2445.589	87.25
2449.349	63.25
2453.106	77.25
2456.859	71.25
2460.61	77.25
2464.356	58.25
2468.1	56.25
2471.84	63.25
2475.577	62.25
2479.311	57.25
2483.041	59.25
2486.768	70.25
2490.492	73.25
2494.213	64.25
2497.93	52.25
2501.644	47.25
2505.355	58.25
2509.062	59.25
2512.766	57.25
2516.467	56.25
2520.165	57.25
2523.859	46.25
2527.551	81.25
2531.239	46.25
2534.923	63.25
2538.605	51.25
2542.283	61.25
2545.958	58.25
2549.63	70.25
2553.299	66.25
2556.964	48.25
2560.626	49.25
2564.285	62.25
2567.941	38.25
2571.594	41.25
2575.243	57.25
2578.89	46.25
2582.533	50.25
2586.173	50.25
2589.809	53.25
2593.443	25.25
2597.073	50.25
2600.701	51.25
2604.325	48.25
2607.946	39.25
2611.564	52.25
2615.178	47.25
2618.79	43.25
2622.398	39.25
2626.004	48.25
2629.606	43.25
2633.205	35.25
2636.801	46.25
2640.394	44.25
2643.983	40.25
2647.57	35.25
2651.153	35.25
2654.734	48.25
2658.311	14.25
2661.885	31.25
2665.456	33.25
2669.025	41.25
2672.589	29.25
2676.151	49.25
2679.71	38.25
2683.266	32.25
2686.819	29.25
2690.368	36.25
2693.915	43.25
2697.458	36.25
2700.999	40.25
2704.536	37.25
2708.071	33.25
2711.602	34.25
2715.13	35.25
2718.656	12.25
2722.178	30.25
2725.697	19.25
2729.214	25.25
2732.727	31.25
2736.237	19.25
2739.744	24.25
2743.249	21.25
2746.75	23.25
2750.248	26.25
2753.743	26.25
2757.236	23.25
2760.725	32.25
2764.211	2.25
2767.695	28.25
2771.175	26.25
2774.652	24.25
2778.127	15.25
2781.598	26.25
2785.067	25.25
2788.532	10.25
2791.995	23.25
2795.455	15.25
2798.911	34.25
2802.365	18.25
2805.816	22.25
2809.264	31.25
2812.709	22.25
2816.151	22.25
2819.59	20.25
2823.026	23.25
2826.46	16.25
2829.89	35.25
2833.318	1.25
2836.742	25.25
2840.164	24.25
2843.583	22.25
2846.999	18.25
2850.412	26.25
2853.822	21.25
2857.229	34.25
2860.634	30.25
2864.035	11.25
2867.434	27.25
2870.83	29.25
2874.223	21.25
2877.613	24.25
2881	23.25
2884.385	15.25
2887.766	15.25
2891.145	27.25
2894.521	21.25
2897.894	10.25
2901.264	32.25
2904.631	24.25
2907.996	29.25
2911.358	37.25
2914.717	31.25
2918.073	25.25
2921.426	22.25
2924.777	9.25
2928.124	30.25
2931.469	42.25
2934.811	18.25
2938.15	41.25
2941.487	30.25
2944.821	48.25
2948.152	32.25
2951.48	49.25
2954.805	25.25
2958.128	48.25
2961.447	29.25
2964.765	54.25
2968.079	42.25
2971.39	37.25
2974.699	42.25
2978.005	40.25
2981.308	37.25
2984.609	32.25
2987.907	45.25
2991.202	51.25
2994.494	34.25
2997.784	44.25
3001.07	42.25
3004.355	38.25
3007.636	41.25
3010.915	46.25
3014.191	39.25
3017.464	42.25
3020.734	42.25
3024.002	46.25
3027.267	43.25
3030.53	49.25
3033.789	44.25
3037.046	53.25
3040.301	36.25
3043.552	49.25
3046.801	50.25
3050.048	65.25
3053.291	77.25
3056.532	56.25
3059.771	49.25
3063.006	58.25
3066.239	61.25
3069.469	67.25
3072.697	60.25
3075.922	63.25
3079.144	68.25
3082.364	85.25
3085.581	65.25
3088.795	90.25
3092.007	85.25
3095.216	87.25
3098.423	82.25
3101.627	65.25
3104.828	85.25
3108.026	84.25
3111.222	104.25
3114.416	102.25
3117.607	91.25
3120.795	91.25
3123.98	102.25
3127.163	92.25
3130.344	95.25
3133.521	100.25
3136.696	117.25
3139.869	111.25
3143.039	96.25
3146.206	122.25
3149.371	128.25
3152.533	113.25
3155.693	111.25
3158.85	122.25
3162.005	131.25
3165.157	128.25
3168.306	123.25
3171.453	131.25
3174.597	119.25
3177.739	116.25
3180.878	132.25
3184.014	135.25
3187.149	137.25
3190.28	129.25
3193.409	133.25
3196.536	135.25
3199.659	141.25
3202.781	135.25
3205.9	122.25
3209.016	130.25
3212.13	128.25
3215.241	124.25
3218.35	130.25
3221.456	120.25
3224.56	117.25
3227.661	122.25
3230.76	109.25
3233.856	111.25
3236.95	116.25
3240.041	102.25
3243.13	120.25
3246.216	123.25
3249.3	122.25
3252.382	113.25
3255.46	106.25
3258.537	60.25
3261.611	104.25
3264.682	120.25
3267.751	110.25
3270.818	98.25
3273.882	117.25
3276.943	106.25
3280.002	118.25
3283.059	101.25
3286.113	105.25
3289.165	102.25
3292.214	97.25
3295.261	122.25
3298.306	83.25
3301.348	102.25
3304.387	92.25
3307.425	106.25
3310.459	95.25
3313.492	98.25
3316.521	103.25
3319.549	106.25
3322.574	104.25
3325.597	90.25
3328.617	93.25
3331.635	85.25
3334.65	70.25
3337.663	90.25
3340.674	84.25
3343.682	89.25
3346.688	95.25
3349.691	88.25
3352.692	79.25
3355.691	94.25
3358.687	85.25
3361.681	88.25
3364.673	81.25
3367.662	85.25
3370.649	91.25
3373.633	75.25
3376.615	84.25
3379.595	68.25
3382.572	72.25
3385.547	63.25
3388.52	66.25
3391.49	68.25
3394.458	71.25
3397.424	79.25
3400.387	62.25
3403.348	74.25
3406.307	68.25
3409.263	68.25
3412.217	75.25
3415.168	70.25
3418.118	72.25
3421.065	61.25
3424.009	78.25
3426.951	58.25
3429.891	55.25
3432.829	55.25
3435.764	63.25
3438.697	49.25
3441.628	64.25
3444.557	44.25
3447.483	49.25
3450.407	51.25
3453.328	46.25
3456.247	36.25
3459.164	39.25
3462.079	47.25
3464.991	42.25
3467.902	34.25
3470.809	39.25
3473.715	42.25
3476.618	30.25
3479.519	37.25
3482.418	13.25
3485.315	23.25
3488.209	29.25
3491.101	28.25
3493.99	10.25
3496.878	15.25
3499.763	18.25
3502.646	17.25
3505.527	13.25
3508.405	9.25
3511.281	1.25
3514.155	21.25
3517.027	6.25
3519.897	1.25
3522.764	14.25
3525.629	-8.75
3528.492	5.25
3531.352	5.25
3534.211	1.25
3537.067	1.25
3539.921	-0.75
3542.773	5.25
3545.622	-10.75
3548.469	-10.75
3551.315	-15.75
3554.157	-5.75
3556.998	-16.75
3559.837	-9.75
3562.673	-5.75
3565.507	-15.75
3568.339	-18.75
3571.169	-16.75
3573.996	-13.75
3576.822	-31.75
3579.645	-24.75
3582.466	-25.75
3585.285	-13.75
3588.101	-16.75
3590.916	-20.75
3593.728	-13.75
3596.538	-19.75
3599.346	-18.75
3602.152	-26.75
3604.956	-17.75
3607.757	-14.75
3610.556	-31.75
3613.354	-17.75
3616.149	-19.75
3618.942	-16.75
3621.732	-15.75
3624.521	-26.75
3627.307	-32.75
3630.092	-28.75
3632.874	-14.75
3635.654	-17.75
3638.432	-26.75
3641.208	-23.75
3643.982	-24.75
3646.753	-16.75
3649.523	-45.75
3652.29	-27.75
3655.055	-21.75
3657.818	-22.75
3660.579	-25.75
3663.338	-35.75
3666.095	-30.75
3668.849	-53.75
3671.602	-19.75
3674.352	-40.75
3677.101	-19.75
3679.847	-21.75
3682.591	-37.75
3685.333	-41.75
3688.073	-26.75
3690.811	-37.75
3693.547	-44.75
3696.281	-44.75
3699.013	-31.75
3701.742	-34.75
3704.47	-44.75
3707.195	-30.75
3709.919	-27.75
3712.64	-30.75
3715.359	-47.75
3718.076	-17.75
3720.792	-29.75
3723.505	-27.75
3726.216	-16.75
3728.925	-33.75
3731.632	-40.75
3734.336	-27.75
3737.039	-32.75
3739.74	-27.75
3742.439	-55.75
3745.136	-24.75
3747.83	-30.75
3750.523	-27.75
3753.213	-94.75
3755.902	-30.75
3758.589	-46.75
3761.273	-35.75
3763.956	-26.75
3766.636	-47.75
3769.315	-22.75
3771.991	-32.75
3774.665	-35.75
3777.338	-31.75
3780.008	-46.75
3782.677	-32.75
3785.343	-51.75
3788.007	-54.75
3790.67	-28.75
3793.33	-42.75
3795.989	-40.75
3798.645	-33.75
3801.299	-45.75
3803.952	-45.75
3806.602	-37.75
3809.251	-31.75
3811.897	-37.75
3814.542	-37.75
3817.184	-39.75
3819.825	-34.75
3822.463	-44.75
3825.1	-35.75
3827.735	-34.75
3830.367	-37.75
3832.998	-19.75
3835.627	-34.75
3838.253	-24.75
3840.878	-32.75
3843.501	-18.75
3846.122	-27.75
3848.741	-25.75
3851.358	-21.75
3853.973	-45.75
3856.586	-22.75
3859.197	-38.75
3861.806	-32.75
3864.414	-42.75
3867.019	-30.75
3869.622	-29.75
3872.224	-24.75
3874.823	-10.75
3877.421	4.25
3880.016	17.25
3882.61	52.25
3885.202	63.25
3887.792	39.25
3890.38	10.25
3892.966	-16.75
3895.55	-40.75
3898.132	-24.75
3900.713	-24.75
3903.291	-31.75
3905.868	-34.75
3908.442	-35.75
3911.015	-33.75
3913.586	-34.75
3916.155	-41.75
3918.722	-42.75
3921.287	-36.75
3923.85	-49.75
3926.411	-40.75
3928.971	-37.75
3931.528	-30.75
3934.084	-38.75
3936.638	-46.75
3939.19	-31.75
3941.74	-34.75
3944.288	-36.75
3946.834	-35.75
3949.378	-22.75
3951.921	-43.75
3954.462	-34.75
3957	-26.75
3959.537	-20.75
3962.072	-33.75
3964.606	-45.75
3967.137	-32.75
3969.667	-40.75
3972.194	-29.75
3974.72	-38.75
3977.244	-55.75
3979.766	-40.75
3982.286	-43.75
3984.805	-27.75
3987.321	-23.75
3989.836	-28.75
3992.349	-42.75
3994.86	-37.75
3997.369	-42.75
3999.877	-37.75
4002.382	-39.75
4004.886	-32.75
4007.388	-39.75
4009.888	-29.75
4012.386	-28.75
4014.883	-29.75
4017.377	-31.75
4019.87	-29.75
4022.361	-45.75
4024.85	-33.75
4027.338	-33.75
4029.823	-32.75
4032.307	-36.75
4034.789	-29.75
4037.269	-32.75
4039.747	-51.75
4042.224	-23.75
4044.699	-42.75
4047.172	-37.75
4049.643	-27.75
4052.112	-53.75
4054.58	-30.75
4057.046	-45.75
4059.51	-28.75
4061.972	-28.75
4064.432	-47.75
4066.891	-19.75
4069.348	-33.75
4071.803	-30.75
4074.256	-38.75
4076.708	-28.75
4079.158	-29.75
4081.606	-25.75
4084.052	-35.75
4086.497	-28.75
4088.939	-32.75
4091.38	-38.75
4093.819	-27.75
4096.257	-0.75
4098.693	-6.75
4101.127	-4.75
4103.559	1.25
4105.989	59.25
4108.418	58.25
4110.845	47.25
4113.27	52.25
4115.694	57.25
4118.115	40.25
4120.535	-35.75
4122.954	-30.75
4125.37	-22.75
4127.785	-31.75
4130.198	-29.75
4132.609	-33.75
4135.019	9.25
4137.427	2.25
4139.833	5.25
4142.237	-5.75
