Data from 2018-3-6_conc=0_n=4_RamanShift_03.txt Node
Date: Tue Mar 06 12:18:49 GMT+02:00 2018
User: LAB3
Spectrometer: QEPB0276
Trigger mode: 0
Integration Time (sec): 3.000000E1
Scans to average: 1
Electric dark correction enabled: true
Nonlinearity correction enabled: false
Boxcar width: 0
XAxis mode: Raman Shifts
Number of Pixels in Spectrum: 1044
>>>>>Begin Spectral Data<<<<<
160.701	94
166.742	137
172.777	220
178.805	481
184.826	1165
190.841	2371
196.849	3825
202.85	4950
208.845	5397
214.833	5450
220.815	5478
226.789	5491
232.758	5630
238.719	5657
244.674	5677
250.623	5746
256.565	5698
262.5	5690
268.429	5707
274.351	5680
280.267	5755
286.176	5789
292.079	5811
297.975	5849
303.865	5862
309.748	5873
315.625	5906
321.495	5906
327.359	5942
333.217	5949
339.068	5990
344.912	6009
350.751	6013
356.583	6038
362.408	6064
368.227	6072
374.04	6098
379.847	6098
385.647	6166
391.44	6156
397.228	6176
403.009	6215
408.784	6222
414.553	6237
420.315	6275
426.071	6284
431.821	6296
437.565	6297
443.302	6290
449.033	6234
454.758	6262
460.477	6175
466.189	6149
471.896	6107
477.596	6082
483.29	6054
488.978	6025
494.66	6022
500.335	5914
506.005	5726
511.668	5501
517.325	5312
522.977	5175
528.622	5079
534.261	4989
539.894	4907
545.521	4899
551.141	4822
556.756	4814
562.365	4800
567.968	4739
573.565	4706
579.155	4665
584.74	4673
590.319	4680
595.892	4668
601.459	4666
607.02	4658
612.575	4593
618.124	4583
623.667	4522
629.204	4465
634.735	4431
640.261	4420
645.781	4352
651.294	4358
656.802	4339
662.304	4319
667.8	4309
673.29	4289
678.775	4303
684.254	4286
689.726	4269
695.193	4275
700.655	4242
706.11	4198
711.56	4196
717.004	4177
722.442	4173
727.874	4154
733.301	4162
738.722	4104
744.137	4125
749.547	4109
754.951	4121
760.349	4099
765.741	4149
771.128	4183
776.509	4182
781.885	4233
787.254	4244
792.618	4278
797.977	4258
803.33	4234
808.677	4180
814.019	4187
819.355	4155
824.686	4087
830.011	4081
835.33	4104
840.644	4091
845.952	4077
851.255	4061
856.552	4049
861.844	4013
867.13	3999
872.41	4001
877.686	4022
882.955	4036
888.219	3996
893.478	3882
898.731	3796
903.979	3753
909.221	3732
914.458	3664
919.69	3692
924.916	3684
930.136	3705
935.351	3702
940.561	3691
945.766	3713
950.965	3703
956.158	3647
961.347	3611
966.529	3585
971.707	3552
976.879	3509
982.046	3497
987.208	3443
992.364	3450
997.515	3484
1002.66	3498
1007.801	3515
1012.936	3564
1018.066	3549
1023.19	3589
1028.309	3603
1033.423	3618
1038.532	3604
1043.636	3594
1048.734	3587
1053.827	3571
1058.915	3492
1063.998	3472
1069.075	3440
1074.147	3446
1079.214	3447
1084.276	3507
1089.333	3539
1094.385	3523
1099.431	3500
1104.472	3498
1109.509	3424
1114.54	3388
1119.565	3349
1124.586	3315
1129.602	3275
1134.613	3215
1139.618	3228
1144.619	3214
1149.614	3225
1154.604	3244
1159.589	3262
1164.57	3263
1169.545	3269
1174.515	3251
1179.48	3266
1184.44	3284
1189.395	3256
1194.345	3180
1199.29	3191
1204.23	3173
1209.165	3188
1214.095	3188
1219.021	3187
1223.941	3200
1228.856	3247
1233.766	3255
1238.672	3264
1243.572	3243
1248.467	3245
1253.358	3182
1258.244	3144
1263.124	3109
1268	3061
1272.871	3011
1277.737	2978
1282.599	2973
1287.455	2978
1292.306	2993
1297.153	2992
1301.995	3014
1306.832	3024
1311.664	3035
1316.491	3016
1321.314	3031
1326.132	2981
1330.945	2962
1335.753	2896
1340.556	2850
1345.354	2813
1350.148	2759
1354.937	2741
1359.722	2684
1364.501	2689
1369.276	2655
1374.046	2664
1378.811	2628
1383.572	2658
1388.327	2649
1393.079	2620
1397.825	2594
1402.567	2590
1407.304	2578
1412.036	2547
1416.764	2580
1421.487	2571
1426.205	2560
1430.919	2590
1435.628	2610
1440.333	2613
1445.032	2659
1449.727	2692
1454.418	2710
1459.104	2724
1463.785	2661
1468.462	2633
1473.134	2581
1477.802	2528
1482.465	2494
1487.123	2490
1491.777	2456
1496.426	2419
1501.071	2444
1505.711	2405
1510.347	2432
1514.978	2466
1519.604	2457
1524.226	2455
1528.844	2410
1533.457	2407
1538.065	2377
1542.669	2390
1547.269	2350
1551.864	2321
1556.454	2308
1561.041	2313
1565.622	2311
1570.199	2320
1574.772	2345
1579.34	2365
1583.904	2358
1588.464	2397
1593.019	2368
1597.569	2360
1602.115	2355
1606.657	2344
1611.195	2348
1615.728	2319
1620.256	2299
1624.78	2252
1629.3	2263
1633.816	2275
1638.327	2265
1642.834	2273
1647.336	2269
1651.834	2313
1656.328	2308
1660.817	2308
1665.302	2279
1669.783	2262
1674.259	2254
1678.732	2201
1683.199	2158
1687.663	2116
1692.122	2083
1696.577	2030
1701.028	2023
1705.474	1970
1709.917	1943
1714.355	1932
1718.788	1922
1723.218	1902
1727.643	1894
1732.064	1895
1736.481	1845
1740.893	1826
1745.301	1784
1749.705	1734
1754.105	1734
1758.501	1692
1762.893	1684
1767.28	1651
1771.663	1647
1776.042	1607
1780.417	1600
1784.787	1601
1789.154	1610
1793.516	1604
1797.874	1597
1802.228	1588
1806.578	1558
1810.924	1564
1815.266	1468
1819.603	1535
1823.937	1516
1828.266	1511
1832.591	1515
1836.913	1496
1841.23	1483
1845.543	1462
1849.852	1495
1854.156	1481
1858.457	1494
1862.754	1482
1867.047	1500
1871.335	1514
1875.62	1491
1879.9	1508
1884.177	1480
1888.449	1472
1892.718	1478
1896.982	1479
1901.243	1432
1905.499	1433
1909.752	1436
1914	1424
1918.245	1426
1922.485	1442
1926.722	1445
1930.954	1432
1935.183	1437
1939.408	1444
1943.628	1445
1947.845	1426
1952.058	1401
1956.267	1363
1960.472	1358
1964.673	1344
1968.87	1312
1973.063	1291
1977.252	1276
1981.438	1266
1985.619	1239
1989.797	1223
1993.971	1226
1998.14	1229
2002.306	1216
2006.469	1224
2010.627	1206
2014.781	1200
2018.932	1200
2023.078	1213
2027.221	1198
2031.36	1171
2035.495	1156
2039.627	1140
2043.754	1146
2047.878	1130
2051.998	1134
2056.114	1117
2060.226	1108
2064.334	1141
2068.439	1122
2072.54	1143
2076.637	1125
2080.73	1131
2084.82	1141
2088.906	1161
2092.988	1125
2097.066	1132
2101.14	1132
2105.211	1102
2109.278	1087
2113.342	1072
2117.401	1053
2121.457	1050
2125.509	1022
2129.558	1025
2133.602	1017
2137.643	1024
2141.681	1008
2145.714	1006
2149.744	999
2153.77	993
2157.793	974
2161.812	956
2165.827	930
2169.838	955
2173.846	921
2177.851	905
2181.851	913
2185.848	894
2189.841	884
2193.831	879
2197.817	880
2201.799	872
2205.778	855
2209.753	852
2213.725	852
2217.693	845
2221.657	852
2225.618	864
2229.575	850
2233.529	838
2237.479	832
2241.425	825
2245.368	796
2249.307	798
2253.243	784
2257.175	781
2261.104	761
2265.029	774
2268.95	751
2272.868	735
2276.783	722
2280.694	728
2284.601	720
2288.505	713
2292.405	710
2296.302	689
2300.195	692
2304.085	661
2307.971	678
2311.854	643
2315.734	661
2319.609	638
2323.482	620
2327.351	631
2331.216	623
2335.078	627
2338.937	619
2342.792	611
2346.643	613
2350.492	622
2354.336	615
2358.178	619
2362.015	628
2365.85	618
2369.681	626
2373.508	619
2377.333	629
2381.153	618
2384.971	611
2388.785	623
2392.595	612
2396.402	598
2400.206	581
2404.007	589
2407.804	588
2411.597	590
2415.388	594
2419.174	584
2422.958	583
2426.738	589
2430.515	580
2434.289	569
2438.059	576
2441.825	567
2445.589	566
2449.349	557
2453.106	550
2456.859	548
2460.61	550
2464.356	533
2468.1	528
2471.84	527
2475.577	524
2479.311	529
2483.041	530
2486.768	542
2490.492	532
2494.213	523
2497.93	517
2501.644	498
2505.355	501
2509.062	509
2512.766	515
2516.467	510
2520.165	504
2523.859	496
2527.551	520
2531.239	497
2534.923	497
2538.605	500
2542.283	500
2545.958	481
2549.63	490
2553.299	497
2556.964	468
2560.626	467
2564.285	474
2567.941	460
2571.594	453
2575.243	469
2578.89	466
2582.533	456
2586.173	446
2589.809	455
2593.443	421
2597.073	436
2600.701	441
2604.325	435
2607.946	418
2611.564	428
2615.178	424
2618.79	413
2622.398	399
2626.004	417
2629.606	412
2633.205	388
2636.801	405
2640.394	401
2643.983	384
2647.57	387
2651.153	378
2654.734	383
2658.311	353
2661.885	359
2665.456	354
2669.025	359
2672.589	353
2676.151	367
2679.71	363
2683.266	351
2686.819	341
2690.368	343
2693.915	344
2697.458	337
2700.999	336
2704.536	337
2708.071	328
2711.602	329
2715.13	316
2718.656	305
2722.178	309
2725.697	302
2729.214	304
2732.727	321
2736.237	289
2739.744	305
2743.249	301
2746.75	312
2750.248	299
2753.743	299
2757.236	294
2760.725	301
2764.211	260
2767.695	286
2771.175	283
2774.652	286
2778.127	273
2781.598	278
2785.067	282
2788.532	268
2791.995	280
2795.455	274
2798.911	286
2802.365	274
2805.816	278
2809.264	289
2812.709	284
2816.151	286
2819.59	278
2823.026	284
2826.46	275
2829.89	293
2833.318	263
2836.742	284
2840.164	288
2843.583	282
2846.999	284
2850.412	292
2853.822	293
2857.229	303
2860.634	298
2864.035	285
2867.434	312
2870.83	324
2874.223	315
2877.613	305
2881	308
2884.385	321
2887.766	324
2891.145	329
2894.521	325
2897.894	312
2901.264	325
2904.631	313
2907.996	320
2911.358	318
2914.717	315
2918.073	312
2921.426	313
2924.777	316
2928.124	326
2931.469	346
2934.811	332
2938.15	361
2941.487	339
2944.821	358
2948.152	339
2951.48	331
2954.805	305
2958.128	335
2961.447	302
2964.765	310
2968.079	305
2971.39	308
2974.699	299
2978.005	313
2981.308	306
2984.609	301
2987.907	309
2991.202	324
2994.494	297
2997.784	310
3001.07	295
3004.355	292
3007.636	294
3010.915	294
3014.191	285
3017.464	298
3020.734	295
3024.002	299
3027.267	282
3030.53	286
3033.789	281
3037.046	278
3040.301	280
3043.552	295
3046.801	299
3050.048	312
3053.291	330
3056.532	315
3059.771	309
3063.006	338
3066.239	328
3069.469	340
3072.697	336
3075.922	337
3079.144	345
3082.364	367
3085.581	345
3088.795	385
3092.007	371
3095.216	376
3098.423	378
3101.627	366
3104.828	382
3108.026	386
3111.222	416
3114.416	420
3117.607	425
3120.795	421
3123.98	423
3127.163	421
3130.344	440
3133.521	439
3136.696	461
3139.869	468
3143.039	445
3146.206	488
3149.371	488
3152.533	483
3155.693	472
3158.85	482
3162.005	489
3165.157	482
3168.306	479
3171.453	505
3174.597	469
3177.739	470
3180.878	489
3184.014	489
3187.149	491
3190.28	485
3193.409	491
3196.536	494
3199.659	496
3202.781	495
3205.9	474
3209.016	484
3212.13	497
3215.241	479
3218.35	487
3221.456	477
3224.56	460
3227.661	467
3230.76	464
3233.856	463
3236.95	464
3240.041	450
3243.13	462
3246.216	449
3249.3	454
3252.382	446
3255.46	438
3258.537	393
3261.611	433
3264.682	448
3267.751	436
3270.818	418
3273.882	434
3276.943	426
3280.002	438
3283.059	413
3286.113	422
3289.165	401
3292.214	398
3295.261	401
3298.306	374
3301.348	392
3304.387	369
3307.425	368
3310.459	378
3313.492	370
3316.521	359
3319.549	366
3322.574	361
3325.597	352
3328.617	342
3331.635	341
3334.65	325
3337.663	358
3340.674	343
3343.682	341
3346.688	345
3349.691	342
3352.692	339
3355.691	335
3358.687	335
3361.681	335
3364.673	325
3367.662	330
3370.649	331
3373.633	305
3376.615	312
3379.595	296
3382.572	302
3385.547	296
3388.52	289
3391.49	300
3394.458	295
3397.424	292
3400.387	270
3403.348	284
3406.307	288
3409.263	272
3412.217	280
3415.168	274
3418.118	281
3421.065	266
3424.009	276
3426.951	263
3429.891	263
3432.829	253
3435.764	252
3438.697	238
3441.628	252
3444.557	225
3447.483	223
3450.407	222
3453.328	214
3456.247	209
3459.164	205
3462.079	212
3464.991	192
3467.902	189
3470.809	188
3473.715	189
3476.618	168
3479.519	173
3482.418	149
3485.315	158
3488.209	154
3491.101	152
3493.99	139
3496.878	145
3499.763	142
3502.646	140
3505.527	120
3508.405	125
3511.281	105
3514.155	120
3517.027	107
3519.897	103
3522.764	110
3525.629	84
3528.492	98
3531.352	102
3534.211	91
3537.067	80
3539.921	84
3542.773	84
3545.622	64
3548.469	53
3551.315	53
3554.157	68
3556.998	49
3559.837	54
3562.673	57
3565.507	45
3568.339	42
3571.169	43
3573.996	44
3576.822	26
3579.645	23
3582.466	32
3585.285	36
3588.101	31
3590.916	29
3593.728	30
3596.538	24
3599.346	22
3602.152	15
3604.956	19
3607.757	22
3610.556	4
3613.354	21
3616.149	14
3618.942	9
3621.732	16
3624.521	1
3627.307	-7
3630.092	-3
3632.874	16
3635.654	1
3638.432	-10
3641.208	-4
3643.982	-1
3646.753	6
3649.523	-31
3652.29	-2
3655.055	-7
3657.818	0
3660.579	-10
3663.338	-19
3666.095	-10
3668.849	-35
3671.602	-6
3674.352	-26
3677.101	-8
3679.847	-6
3682.591	-25
3685.333	-27
3688.073	-13
3690.811	-22
3693.547	-27
3696.281	-27
3699.013	-18
3701.742	-24
3704.47	-30
3707.195	-16
3709.919	-22
3712.64	-27
3715.359	-29
3718.076	-14
3720.792	-23
3723.505	-16
3726.216	-11
3728.925	-23
3731.632	-33
3734.336	-23
3737.039	-19
3739.74	-25
3742.439	-46
3745.136	-18
3747.83	-21
3750.523	-18
3753.213	-78
3755.902	-26
3758.589	-40
3761.273	-27
3763.956	-16
3766.636	-38
3769.315	-9
3771.991	-24
3774.665	-32
3777.338	-22
3780.008	-37
3782.677	-25
3785.343	-42
3788.007	-46
3790.67	-20
3793.33	-37
3795.989	-31
3798.645	-24
3801.299	-38
3803.952	-36
3806.602	-32
3809.251	-25
3811.897	-24
3814.542	-31
3817.184	-34
3819.825	-29
3822.463	-40
3825.1	-28
3827.735	-26
3830.367	-34
3832.998	-14
3835.627	-30
3838.253	-19
3840.878	-38
3843.501	-17
3846.122	-23
3848.741	-22
3851.358	-22
3853.973	-38
3856.586	-22
3859.197	-37
3861.806	-34
3864.414	-41
3867.019	-34
3869.622	-23
3872.224	-29
3874.823	-19
3877.421	-5
3880.016	-1
3882.61	27
3885.202	43
3887.792	22
3890.38	5
3892.966	-25
3895.55	-37
3898.132	-26
3900.713	-22
3903.291	-31
3905.868	-42
3908.442	-28
3911.015	-35
3913.586	-39
3916.155	-35
3918.722	-41
3921.287	-43
3923.85	-54
3926.411	-37
3928.971	-38
3931.528	-33
3934.084	-33
3936.638	-49
3939.19	-31
3941.74	-31
3944.288	-40
3946.834	-37
3949.378	-26
3951.921	-39
3954.462	-40
3957	-31
3959.537	-26
3962.072	-38
3964.606	-50
3967.137	-40
3969.667	-38
3972.194	-29
3974.72	-39
3977.244	-59
3979.766	-40
3982.286	-39
3984.805	-30
3987.321	-23
3989.836	-30
3992.349	-36
3994.86	-31
3997.369	-35
3999.877	-33
4002.382	-35
4004.886	-26
4007.388	-30
4009.888	-19
4012.386	-21
4014.883	-26
4017.377	-32
4019.87	-25
4022.361	-41
4024.85	-34
4027.338	-25
4029.823	-38
4032.307	-35
4034.789	-27
4037.269	-29
4039.747	-38
4042.224	-23
4044.699	-39
4047.172	-36
4049.643	-23
4052.112	-51
4054.58	-26
4057.046	-41
4059.51	-33
4061.972	-28
4064.432	-46
4066.891	-19
4069.348	-26
4071.803	-29
4074.256	-33
4076.708	-28
4079.158	-26
4081.606	-17
4084.052	-29
4086.497	-24
4088.939	-29
4091.38	-32
4093.819	-22
4096.257	3
4098.693	-7
4101.127	-7
4103.559	-1
4105.989	57
4108.418	67
4110.845	64
4113.27	71
4115.694	84
4118.115	76
4120.535	-24
4122.954	-22
4125.37	-17
4127.785	-25
4130.198	-21
4132.609	-25
4135.019	8
4137.427	2
4139.833	6
4142.237	-4
