Data from 2018-3-6_conc=0_n=4_RamanShift_04.txt Node
Date: Tue Mar 06 12:19:19 GMT+02:00 2018
User: LAB3
Spectrometer: QEPB0276
Trigger mode: 0
Integration Time (sec): 3.000000E1
Scans to average: 1
Electric dark correction enabled: true
Nonlinearity correction enabled: false
Boxcar width: 0
XAxis mode: Raman Shifts
Number of Pixels in Spectrum: 1044
>>>>>Begin Spectral Data<<<<<
160.701	94
166.742	137
172.777	206
178.805	452
184.826	1101
190.841	2263
196.849	3630
202.85	4702
208.845	5140
214.833	5214
220.815	5155
226.789	5225
232.758	5319
238.719	5370
244.674	5377
250.623	5400
256.565	5346
262.5	5376
268.429	5360
274.351	5356
280.267	5403
286.176	5451
292.079	5464
297.975	5473
303.865	5522
309.748	5547
315.625	5544
321.495	5554
327.359	5575
333.217	5583
339.068	5641
344.912	5653
350.751	5671
356.583	5707
362.408	5690
368.227	5725
374.04	5734
379.847	5778
385.647	5793
391.44	5826
397.228	5842
403.009	5904
408.784	5894
414.553	5957
420.315	5926
426.071	5945
431.821	5983
437.565	5982
443.302	5980
449.033	5938
454.758	5915
460.477	5867
466.189	5836
471.896	5777
477.596	5780
483.29	5709
488.978	5678
494.66	5687
500.335	5529
506.005	5376
511.668	5165
517.325	4984
522.977	4803
528.622	4682
534.261	4596
539.894	4531
545.521	4492
551.141	4462
556.756	4395
562.365	4384
567.968	4363
573.565	4310
579.155	4325
584.74	4279
590.319	4284
595.892	4277
601.459	4276
607.02	4256
612.575	4246
618.124	4195
623.667	4136
629.204	4105
634.735	4033
640.261	4045
645.781	3973
651.294	3951
656.802	3939
662.304	3992
667.8	3935
673.29	3915
678.775	3920
684.254	3928
689.726	3877
695.193	3894
700.655	3865
706.11	3848
711.56	3839
717.004	3821
722.442	3769
727.874	3779
733.301	3738
738.722	3746
744.137	3756
749.547	3735
754.951	3728
760.349	3745
765.741	3760
771.128	3781
776.509	3849
781.885	3881
787.254	3920
792.618	3903
797.977	3872
803.33	3880
808.677	3816
814.019	3811
819.355	3781
824.686	3762
830.011	3739
835.33	3738
840.644	3736
845.952	3694
851.255	3698
856.552	3670
861.844	3674
867.13	3604
872.41	3672
877.686	3672
882.955	3707
888.219	3637
893.478	3545
898.731	3467
903.979	3404
909.221	3355
914.458	3338
919.69	3339
924.916	3368
930.136	3363
935.351	3350
940.561	3371
945.766	3362
950.965	3346
956.158	3301
961.347	3266
966.529	3228
971.707	3212
976.879	3185
982.046	3151
987.208	3116
992.364	3119
997.515	3162
1002.66	3164
1007.801	3181
1012.936	3223
1018.066	3224
1023.19	3242
1028.309	3287
1033.423	3278
1038.532	3281
1043.636	3262
1048.734	3245
1053.827	3221
1058.915	3149
1063.998	3168
1069.075	3156
1074.147	3132
1079.214	3137
1084.276	3165
1089.333	3205
1094.385	3208
1099.431	3162
1104.472	3151
1109.509	3123
1114.54	3109
1119.565	3029
1124.586	2992
1129.602	2947
1134.613	2961
1139.618	2924
1144.619	2909
1149.614	2911
1154.604	2934
1159.589	2942
1164.57	2972
1169.545	2957
1174.515	2976
1179.48	2939
1184.44	2915
1189.395	2929
1194.345	2880
1199.29	2885
1204.23	2866
1209.165	2851
1214.095	2886
1219.021	2874
1223.941	2882
1228.856	2922
1233.766	2906
1238.672	2929
1243.572	2914
1248.467	2932
1253.358	2891
1258.244	2821
1263.124	2792
1268	2795
1272.871	2713
1277.737	2711
1282.599	2705
1287.455	2688
1292.306	2699
1297.153	2683
1301.995	2703
1306.832	2713
1311.664	2742
1316.491	2736
1321.314	2719
1326.132	2683
1330.945	2644
1335.753	2602
1340.556	2575
1345.354	2500
1350.148	2500
1354.937	2486
1359.722	2452
1364.501	2422
1369.276	2429
1374.046	2414
1378.811	2409
1383.572	2406
1388.327	2411
1393.079	2390
1397.825	2356
1402.567	2340
1407.304	2341
1412.036	2333
1416.764	2339
1421.487	2321
1426.205	2339
1430.919	2354
1435.628	2361
1440.333	2379
1445.032	2404
1449.727	2444
1454.418	2467
1459.104	2439
1463.785	2409
1468.462	2395
1473.134	2352
1477.802	2311
1482.465	2258
1487.123	2251
1491.777	2235
1496.426	2207
1501.071	2226
1505.711	2217
1510.347	2241
1514.978	2256
1519.604	2239
1524.226	2249
1528.844	2212
1533.457	2208
1538.065	2192
1542.669	2169
1547.269	2129
1551.864	2136
1556.454	2100
1561.041	2105
1565.622	2099
1570.199	2090
1574.772	2114
1579.34	2130
1583.904	2152
1588.464	2167
1593.019	2153
1597.569	2150
1602.115	2142
1606.657	2104
1611.195	2120
1615.728	2101
1620.256	2070
1624.78	2047
1629.3	2051
1633.816	2066
1638.327	2064
1642.834	2086
1647.336	2090
1651.834	2113
1656.328	2112
1660.817	2109
1665.302	2106
1669.783	2074
1674.259	2064
1678.732	2039
1683.199	1985
1687.663	1936
1692.122	1942
1696.577	1884
1701.028	1864
1705.474	1826
1709.917	1797
1714.355	1797
1718.788	1776
1723.218	1755
1727.643	1739
1732.064	1744
1736.481	1707
1740.893	1698
1745.301	1673
1749.705	1607
1754.105	1589
1758.501	1570
1762.893	1543
1767.28	1502
1771.663	1510
1776.042	1481
1780.417	1497
1784.787	1476
1789.154	1513
1793.516	1491
1797.874	1490
1802.228	1478
1806.578	1483
1810.924	1473
1815.266	1356
1819.603	1431
1823.937	1409
1828.266	1393
1832.591	1376
1836.913	1372
1841.23	1356
1845.543	1364
1849.852	1385
1854.156	1344
1858.457	1379
1862.754	1362
1867.047	1397
1871.335	1410
1875.62	1388
1879.9	1388
1884.177	1372
1888.449	1380
1892.718	1374
1896.982	1384
1901.243	1350
1905.499	1350
1909.752	1346
1914	1326
1918.245	1364
1922.485	1349
1926.722	1365
1930.954	1347
1935.183	1357
1939.408	1364
1943.628	1351
1947.845	1341
1952.058	1330
1956.267	1293
1960.472	1280
1964.673	1262
1968.87	1241
1973.063	1221
1977.252	1188
1981.438	1174
1985.619	1162
1989.797	1141
1993.971	1153
1998.14	1151
2002.306	1152
2006.469	1147
2010.627	1128
2014.781	1128
2018.932	1109
2023.078	1123
2027.221	1113
2031.36	1089
2035.495	1074
2039.627	1078
2043.754	1057
2047.878	1057
2051.998	1051
2056.114	1047
2060.226	1050
2064.334	1064
2068.439	1059
2072.54	1073
2076.637	1062
2080.73	1060
2084.82	1060
2088.906	1070
2092.988	1061
2097.066	1064
2101.14	1049
2105.211	1040
2109.278	1024
2113.342	1006
2117.401	993
2121.457	991
2125.509	975
2129.558	969
2133.602	955
2137.643	955
2141.681	959
2145.714	948
2149.744	922
2153.77	926
2157.793	906
2161.812	889
2165.827	887
2169.838	901
2173.846	887
2177.851	844
2181.851	857
2185.848	847
2189.841	835
2193.831	820
2197.817	822
2201.799	815
2205.778	808
2209.753	801
2213.725	798
2217.693	804
2221.657	799
2225.618	798
2229.575	792
2233.529	784
2237.479	779
2241.425	759
2245.368	752
2249.307	750
2253.243	736
2257.175	736
2261.104	707
2265.029	714
2268.95	703
2272.868	691
2276.783	677
2280.694	690
2284.601	677
2288.505	660
2292.405	660
2296.302	631
2300.195	641
2304.085	606
2307.971	634
2311.854	602
2315.734	617
2319.609	608
2323.482	575
2327.351	572
2331.216	576
2335.078	596
2338.937	576
2342.792	570
2346.643	561
2350.492	573
2354.336	567
2358.178	578
2362.015	578
2365.85	566
2369.681	567
2373.508	573
2377.333	577
2381.153	576
2384.971	566
2388.785	563
2392.595	557
2396.402	550
2400.206	527
2404.007	539
2407.804	549
2411.597	549
2415.388	541
2419.174	536
2422.958	540
2426.738	526
2430.515	534
2434.289	524
2438.059	524
2441.825	517
2445.589	527
2449.349	495
2453.106	511
2456.859	490
2460.61	498
2464.356	485
2468.1	477
2471.84	483
2475.577	476
2479.311	475
2483.041	469
2486.768	487
2490.492	493
2494.213	475
2497.93	466
2501.644	459
2505.355	467
2509.062	467
2512.766	464
2516.467	449
2520.165	467
2523.859	444
2527.551	479
2531.239	443
2534.923	455
2538.605	453
2542.283	455
2545.958	448
2549.63	450
2553.299	452
2556.964	433
2560.626	435
2564.285	450
2567.941	430
2571.594	421
2575.243	429
2578.89	418
2582.533	421
2586.173	421
2589.809	415
2593.443	391
2597.073	407
2600.701	411
2604.325	400
2607.946	387
2611.564	412
2615.178	389
2618.79	382
2622.398	375
2626.004	385
2629.606	383
2633.205	357
2636.801	374
2640.394	362
2643.983	343
2647.57	354
2651.153	345
2654.734	350
2658.311	324
2661.885	330
2665.456	335
2669.025	330
2672.589	326
2676.151	331
2679.71	335
2683.266	324
2686.819	317
2690.368	315
2693.915	320
2697.458	313
2700.999	302
2704.536	309
2708.071	294
2711.602	299
2715.13	289
2718.656	274
2722.178	299
2725.697	284
2729.214	274
2732.727	290
2736.237	271
2739.744	282
2743.249	277
2746.75	280
2750.248	270
2753.743	282
2757.236	277
2760.725	280
2764.211	246
2767.695	273
2771.175	266
2774.652	273
2778.127	260
2781.598	251
2785.067	260
2788.532	250
2791.995	256
2795.455	247
2798.911	259
2802.365	258
2805.816	259
2809.264	269
2812.709	263
2816.151	266
2819.59	255
2823.026	256
2826.46	252
2829.89	264
2833.318	244
2836.742	252
2840.164	263
2843.583	270
2846.999	270
2850.412	266
2853.822	267
2857.229	287
2860.634	277
2864.035	264
2867.434	279
2870.83	291
2874.223	283
2877.613	290
2881	286
2884.385	292
2887.766	303
2891.145	296
2894.521	290
2897.894	284
2901.264	301
2904.631	298
2907.996	294
2911.358	300
2914.717	298
2918.073	278
2921.426	289
2924.777	282
2928.124	295
2931.469	319
2934.811	308
2938.15	343
2941.487	327
2944.821	339
2948.152	313
2951.48	312
2954.805	291
2958.128	311
2961.447	282
2964.765	298
2968.079	288
2971.39	291
2974.699	284
2978.005	294
2981.308	293
2984.609	277
2987.907	303
2991.202	304
2994.494	281
2997.784	287
3001.07	284
3004.355	266
3007.636	281
3010.915	277
3014.191	281
3017.464	278
3020.734	273
3024.002	273
3027.267	262
3030.53	274
3033.789	271
3037.046	274
3040.301	256
3043.552	277
3046.801	283
3050.048	300
3053.291	307
3056.532	305
3059.771	280
3063.006	314
3066.239	311
3069.469	315
3072.697	310
3075.922	316
3079.144	324
3082.364	358
3085.581	333
3088.795	359
3092.007	360
3095.216	368
3098.423	354
3101.627	342
3104.828	372
3108.026	382
3111.222	397
3114.416	400
3117.607	403
3120.795	404
3123.98	409
3127.163	399
3130.344	423
3133.521	423
3136.696	444
3139.869	443
3143.039	431
3146.206	464
3149.371	459
3152.533	465
3155.693	454
3158.85	473
3162.005	478
3165.157	473
3168.306	468
3171.453	473
3174.597	466
3177.739	455
3180.878	465
3184.014	473
3187.149	483
3190.28	468
3193.409	481
3196.536	477
3199.659	480
3202.781	485
3205.9	468
3209.016	478
3212.13	475
3215.241	465
3218.35	469
3221.456	456
3224.56	454
3227.661	455
3230.76	442
3233.856	440
3236.95	450
3240.041	440
3243.13	440
3246.216	440
3249.3	448
3252.382	436
3255.46	427
3258.537	379
3261.611	425
3264.682	421
3267.751	433
3270.818	415
3273.882	433
3276.943	418
3280.002	428
3283.059	402
3286.113	400
3289.165	396
3292.214	390
3295.261	395
3298.306	372
3301.348	372
3304.387	359
3307.425	368
3310.459	355
3313.492	363
3316.521	353
3319.549	350
3322.574	349
3325.597	341
3328.617	335
3331.635	334
3334.65	315
3337.663	345
3340.674	327
3343.682	329
3346.688	344
3349.691	321
3352.692	327
3355.691	331
3358.687	326
3361.681	322
3364.673	317
3367.662	317
3370.649	329
3373.633	301
3376.615	305
3379.595	283
3382.572	293
3385.547	283
3388.52	286
3391.49	285
3394.458	279
3397.424	288
3400.387	262
3403.348	273
3406.307	267
3409.263	267
3412.217	277
3415.168	267
3418.118	276
3421.065	259
3424.009	268
3426.951	250
3429.891	250
3432.829	239
3435.764	248
3438.697	231
3441.628	244
3444.557	215
3447.483	213
3450.407	223
3453.328	200
3456.247	199
3459.164	192
3462.079	209
3464.991	194
3467.902	182
3470.809	179
3473.715	184
3476.618	168
3479.519	173
3482.418	151
3485.315	150
3488.209	155
3491.101	153
3493.99	132
3496.878	132
3499.763	136
3502.646	135
3505.527	124
3508.405	120
3511.281	98
3514.155	117
3517.027	113
3519.897	102
3522.764	103
3525.629	76
3528.492	88
3531.352	87
3534.211	79
3537.067	76
3539.921	80
3542.773	75
3545.622	60
3548.469	57
3551.315	50
3554.157	63
3556.998	48
3559.837	50
3562.673	53
3565.507	47
3568.339	34
3571.169	41
3573.996	43
3576.822	22
3579.645	25
3582.466	30
3585.285	36
3588.101	27
3590.916	27
3593.728	34
3596.538	23
3599.346	27
3602.152	16
3604.956	17
3607.757	19
3610.556	2
3613.354	17
3616.149	13
3618.942	15
3621.732	16
3624.521	6
3627.307	-4
3630.092	-2
3632.874	16
3635.654	7
3638.432	-3
3641.208	-3
3643.982	0
3646.753	4
3649.523	-23
3652.29	-9
3655.055	-2
3657.818	-5
3660.579	-6
3663.338	-17
3666.095	-16
3668.849	-40
3671.602	-7
3674.352	-23
3677.101	-4
3679.847	-8
3682.591	-20
3685.333	-29
3688.073	-13
3690.811	-26
3693.547	-32
3696.281	-29
3699.013	-17
3701.742	-22
3704.47	-29
3707.195	-18
3709.919	-22
3712.64	-20
3715.359	-35
3718.076	-7
3720.792	-21
3723.505	-20
3726.216	-7
3728.925	-24
3731.632	-32
3734.336	-23
3737.039	-26
3739.74	-24
3742.439	-45
3745.136	-23
3747.83	-21
3750.523	-20
3753.213	-84
3755.902	-30
3758.589	-41
3761.273	-29
3763.956	-21
3766.636	-41
3769.315	-14
3771.991	-27
3774.665	-34
3777.338	-31
3780.008	-39
3782.677	-25
3785.343	-42
3788.007	-47
3790.67	-22
3793.33	-40
3795.989	-33
3798.645	-31
3801.299	-41
3803.952	-43
3806.602	-33
3809.251	-25
3811.897	-31
3814.542	-32
3817.184	-35
3819.825	-29
3822.463	-42
3825.1	-31
3827.735	-31
3830.367	-39
3832.998	-18
3835.627	-31
3838.253	-24
3840.878	-32
3843.501	-14
3846.122	-25
3848.741	-25
3851.358	-19
3853.973	-31
3856.586	-20
3859.197	-38
3861.806	-29
3864.414	-42
3867.019	-34
3869.622	-24
3872.224	-17
3874.823	-18
3877.421	2
3880.016	11
3882.61	42
3885.202	53
3887.792	36
3890.38	8
3892.966	-21
3895.55	-36
3898.132	-24
3900.713	-24
3903.291	-28
3905.868	-36
3908.442	-28
3911.015	-32
3913.586	-33
3916.155	-35
3918.722	-38
3921.287	-33
3923.85	-46
3926.411	-37
3928.971	-36
3931.528	-31
3934.084	-35
3936.638	-47
3939.19	-31
3941.74	-31
3944.288	-36
3946.834	-37
3949.378	-26
3951.921	-39
3954.462	-33
3957	-32
3959.537	-20
3962.072	-39
3964.606	-44
3967.137	-38
3969.667	-36
3972.194	-27
3974.72	-37
3977.244	-59
3979.766	-37
3982.286	-37
3984.805	-34
3987.321	-25
3989.836	-29
3992.349	-36
3994.86	-35
3997.369	-41
3999.877	-38
4002.382	-38
4004.886	-32
4007.388	-28
4009.888	-22
4012.386	-26
4014.883	-32
4017.377	-30
4019.87	-26
4022.361	-38
4024.85	-31
4027.338	-32
4029.823	-35
4032.307	-34
4034.789	-31
4037.269	-29
4039.747	-44
4042.224	-22
4044.699	-34
4047.172	-37
4049.643	-22
4052.112	-56
4054.58	-33
4057.046	-43
4059.51	-26
4061.972	-31
4064.432	-46
4066.891	-17
4069.348	-31
4071.803	-27
4074.256	-36
4076.708	-26
4079.158	-28
4081.606	-20
4084.052	-30
4086.497	-25
4088.939	-32
4091.38	-37
4093.819	-20
4096.257	2
4098.693	-5
4101.127	-5
4103.559	2
4105.989	61
4108.418	71
4110.845	55
4113.27	72
4115.694	84
4118.115	76
4120.535	-28
4122.954	-22
4125.37	-17
4127.785	-25
4130.198	-19
4132.609	-27
4135.019	7
4137.427	0
4139.833	5
4142.237	-6
