Data from 2018-3-6_conc=0_n=1_RamanShift_06.txt Node
Date: Tue Mar 06 12:06:49 GMT+02:00 2018
User: LAB3
Spectrometer: QEPB0276
Trigger mode: 0
Integration Time (sec): 3.000000E1
Scans to average: 1
Electric dark correction enabled: true
Nonlinearity correction enabled: false
Boxcar width: 0
XAxis mode: Raman Shifts
Number of Pixels in Spectrum: 1044
>>>>>Begin Spectral Data<<<<<
160.701	52.25
166.742	79.25
172.777	152.25
178.805	359.25
184.826	866.25
190.841	1781.25
196.849	2852.25
202.85	3661.25
208.845	3965.25
214.833	3974.25
220.815	3903.25
226.789	3931.25
232.758	3957.25
238.719	3961.25
244.674	3965.25
250.623	3943.25
256.565	3901.25
262.5	3877.25
268.429	3857.25
274.351	3834.25
280.267	3838.25
286.176	3812.25
292.079	3852.25
297.975	3795.25
303.865	3822.25
309.748	3827.25
315.625	3801.25
321.495	3811.25
327.359	3828.25
333.217	3828.25
339.068	3828.25
344.912	3864.25
350.751	3849.25
356.583	3883.25
362.408	3909.25
368.227	3909.25
374.04	3955.25
379.847	3954.25
385.647	4002.25
391.44	4006.25
397.228	4008.25
403.009	4050.25
408.784	4061.25
414.553	4120.25
420.315	4125.25
426.071	4134.25
431.821	4200.25
437.565	4227.25
443.302	4232.25
449.033	4166.25
454.758	4127.25
460.477	4072.25
466.189	4031.25
471.896	3982.25
477.596	3938.25
483.29	3894.25
488.978	3889.25
494.66	3874.25
500.335	3801.25
506.005	3650.25
511.668	3483.25
517.325	3360.25
522.977	3285.25
528.622	3174.25
534.261	3096.25
539.894	3074.25
545.521	3025.25
551.141	2984.25
556.756	2960.25
562.365	2918.25
567.968	2928.25
573.565	2888.25
579.155	2882.25
584.74	2864.25
590.319	2878.25
595.892	2863.25
601.459	2871.25
607.02	2844.25
612.575	2831.25
618.124	2807.25
623.667	2774.25
629.204	2726.25
634.735	2714.25
640.261	2669.25
645.781	2644.25
651.294	2648.25
656.802	2653.25
662.304	2633.25
667.8	2645.25
673.29	2634.25
678.775	2606.25
684.254	2610.25
689.726	2592.25
695.193	2585.25
700.655	2559.25
706.11	2552.25
711.56	2557.25
717.004	2517.25
722.442	2512.25
727.874	2508.25
733.301	2542.25
738.722	2475.25
744.137	2518.25
749.547	2485.25
754.951	2508.25
760.349	2483.25
765.741	2499.25
771.128	2517.25
776.509	2529.25
781.885	2569.25
787.254	2567.25
792.618	2573.25
797.977	2577.25
803.33	2582.25
808.677	2558.25
814.019	2538.25
819.355	2511.25
824.686	2499.25
830.011	2495.25
835.33	2499.25
840.644	2489.25
845.952	2479.25
851.255	2524.25
856.552	2510.25
861.844	2555.25
867.13	2636.25
872.41	2888.25
877.686	3317.25
882.955	3637.25
888.219	3567.25
893.478	3101.25
898.731	2691.25
903.979	2450.25
909.221	2333.25
914.458	2270.25
919.69	2255.25
924.916	2217.25
930.136	2220.25
935.351	2206.25
940.561	2213.25
945.766	2199.25
950.965	2188.25
956.158	2173.25
961.347	2128.25
966.529	2139.25
971.707	2109.25
976.879	2096.25
982.046	2062.25
987.208	2065.25
992.364	2077.25
997.515	2077.25
1002.66	2106.25
1007.801	2141.25
1012.936	2138.25
1018.066	2201.25
1023.19	2249.25
1028.309	2271.25
1033.423	2283.25
1038.532	2359.25
1043.636	2411.25
1048.734	2515.25
1053.827	2523.25
1058.915	2435.25
1063.998	2307.25
1069.075	2268.25
1074.147	2268.25
1079.214	2318.25
1084.276	2391.25
1089.333	2494.25
1094.385	2497.25
1099.431	2407.25
1104.472	2282.25
1109.509	2186.25
1114.54	2154.25
1119.565	2105.25
1124.586	2050.25
1129.602	2020.25
1134.613	1960.25
1139.618	1963.25
1144.619	1946.25
1149.614	1943.25
1154.604	1930.25
1159.589	1925.25
1164.57	1942.25
1169.545	1928.25
1174.515	1913.25
1179.48	1904.25
1184.44	1903.25
1189.395	1891.25
1194.345	1858.25
1199.29	1857.25
1204.23	1840.25
1209.165	1835.25
1214.095	1862.25
1219.021	1872.25
1223.941	1880.25
1228.856	1884.25
1233.766	1901.25
1238.672	1906.25
1243.572	1916.25
1248.467	1901.25
1253.358	1880.25
1258.244	1860.25
1263.124	1859.25
1268	1859.25
1272.871	1857.25
1277.737	1857.25
1282.599	1912.25
1287.455	1886.25
1292.306	1882.25
1297.153	1828.25
1301.995	1796.25
1306.832	1799.25
1311.664	1813.25
1316.491	1789.25
1321.314	1781.25
1326.132	1768.25
1330.945	1731.25
1335.753	1723.25
1340.556	1692.25
1345.354	1665.25
1350.148	1669.25
1354.937	1658.25
1359.722	1627.25
1364.501	1632.25
1369.276	1646.25
1374.046	1661.25
1378.811	1653.25
1383.572	1666.25
1388.327	1674.25
1393.079	1652.25
1397.825	1649.25
1402.567	1646.25
1407.304	1620.25
1412.036	1615.25
1416.764	1621.25
1421.487	1630.25
1426.205	1650.25
1430.919	1652.25
1435.628	1695.25
1440.333	1741.25
1445.032	1812.25
1449.727	1920.25
1454.418	2103.25
1459.104	2211.25
1463.785	2141.25
1468.462	1986.25
1473.134	1821.25
1477.802	1734.25
1482.465	1673.25
1487.123	1693.25
1491.777	1644.25
1496.426	1613.25
1501.071	1633.25
1505.711	1577.25
1510.347	1577.25
1514.978	1566.25
1519.604	1558.25
1524.226	1547.25
1528.844	1508.25
1533.457	1519.25
1538.065	1509.25
1542.669	1481.25
1547.269	1443.25
1551.864	1439.25
1556.454	1421.25
1561.041	1418.25
1565.622	1398.25
1570.199	1410.25
1574.772	1400.25
1579.34	1419.25
1583.904	1428.25
1588.464	1433.25
1593.019	1428.25
1597.569	1401.25
1602.115	1401.25
1606.657	1403.25
1611.195	1401.25
1615.728	1395.25
1620.256	1375.25
1624.78	1367.25
1629.3	1380.25
1633.816	1391.25
1638.327	1393.25
1642.834	1406.25
1647.336	1420.25
1651.834	1430.25
1656.328	1430.25
1660.817	1432.25
1665.302	1415.25
1669.783	1418.25
1674.259	1393.25
1678.732	1370.25
1683.199	1354.25
1687.663	1333.25
1692.122	1317.25
1696.577	1304.25
1701.028	1281.25
1705.474	1251.25
1709.917	1251.25
1714.355	1236.25
1718.788	1218.25
1723.218	1178.25
1727.643	1164.25
1732.064	1156.25
1736.481	1109.25
1740.893	1117.25
1745.301	1084.25
1749.705	1047.25
1754.105	1036.25
1758.501	1028.25
1762.893	1001.25
1767.28	972.25
1771.663	984.25
1776.042	974.25
1780.417	978.25
1784.787	995.25
1789.154	1006.25
1793.516	1009.25
1797.874	1017.25
1802.228	999.25
1806.578	972.25
1810.924	993.25
1815.266	890.25
1819.603	958.25
1823.937	934.25
1828.266	920.25
1832.591	911.25
1836.913	895.25
1841.23	891.25
1845.543	885.25
1849.852	892.25
1854.156	884.25
1858.457	893.25
1862.754	882.25
1867.047	886.25
1871.335	907.25
1875.62	907.25
1879.9	911.25
1884.177	897.25
1888.449	914.25
1892.718	886.25
1896.982	909.25
1901.243	883.25
1905.499	893.25
1909.752	899.25
1914	866.25
1918.245	921.25
1922.485	921.25
1926.722	909.25
1930.954	925.25
1935.183	933.25
1939.408	931.25
1943.628	936.25
1947.845	927.25
1952.058	919.25
1956.267	887.25
1960.472	886.25
1964.673	865.25
1968.87	846.25
1973.063	816.25
1977.252	810.25
1981.438	796.25
1985.619	788.25
1989.797	766.25
1993.971	773.25
1998.14	776.25
2002.306	768.25
2006.469	769.25
2010.627	750.25
2014.781	757.25
2018.932	741.25
2023.078	756.25
2027.221	750.25
2031.36	721.25
2035.495	731.25
2039.627	717.25
2043.754	714.25
2047.878	716.25
2051.998	715.25
2056.114	715.25
2060.226	709.25
2064.334	733.25
2068.439	724.25
2072.54	747.25
2076.637	733.25
2080.73	729.25
2084.82	748.25
2088.906	740.25
2092.988	731.25
2097.066	749.25
2101.14	749.25
2105.211	729.25
2109.278	722.25
2113.342	710.25
2117.401	698.25
2121.457	689.25
2125.509	679.25
2129.558	682.25
2133.602	667.25
2137.643	667.25
2141.681	654.25
2145.714	659.25
2149.744	652.25
2153.77	645.25
2157.793	628.25
2161.812	601.25
2165.827	608.25
2169.838	606.25
2173.846	587.25
2177.851	590.25
2181.851	580.25
2185.848	574.25
2189.841	561.25
2193.831	554.25
2197.817	560.25
2201.799	554.25
2205.778	542.25
2209.753	542.25
2213.725	539.25
2217.693	546.25
2221.657	532.25
2225.618	541.25
2229.575	532.25
2233.529	531.25
2237.479	524.25
2241.425	519.25
2245.368	503.25
2249.307	503.25
2253.243	494.25
2257.175	503.25
2261.104	484.25
2265.029	482.25
2268.95	478.25
2272.868	473.25
2276.783	454.25
2280.694	470.25
2284.601	458.25
2288.505	449.25
2292.405	456.25
2296.302	432.25
2300.195	439.25
2304.085	395.25
2307.971	425.25
2311.854	387.25
2315.734	406.25
2319.609	407.25
2323.482	383.25
2327.351	383.25
2331.216	388.25
2335.078	396.25
2338.937	383.25
2342.792	373.25
2346.643	382.25
2350.492	381.25
2354.336	375.25
2358.178	372.25
2362.015	384.25
2365.85	374.25
2369.681	366.25
2373.508	368.25
2377.333	383.25
2381.153	380.25
2384.971	362.25
2388.785	370.25
2392.595	365.25
2396.402	351.25
2400.206	325.25
2404.007	341.25
2407.804	353.25
2411.597	359.25
2415.388	344.25
2419.174	341.25
2422.958	343.25
2426.738	340.25
2430.515	350.25
2434.289	329.25
2438.059	338.25
2441.825	328.25
2445.589	344.25
2449.349	312.25
2453.106	323.25
2456.859	327.25
2460.61	322.25
2464.356	316.25
2468.1	312.25
2471.84	306.25
2475.577	302.25
2479.311	300.25
2483.041	307.25
2486.768	322.25
2490.492	318.25
2494.213	304.25
2497.93	296.25
2501.644	286.25
2505.355	309.25
2509.062	301.25
2512.766	298.25
2516.467	297.25
2520.165	294.25
2523.859	284.25
2527.551	329.25
2531.239	297.25
2534.923	297.25
2538.605	292.25
2542.283	304.25
2545.958	300.25
2549.63	311.25
2553.299	308.25
2556.964	290.25
2560.626	291.25
2564.285	298.25
2567.941	282.25
2571.594	286.25
2575.243	290.25
2578.89	283.25
2582.533	269.25
2586.173	273.25
2589.809	282.25
2593.443	255.25
2597.073	275.25
2600.701	272.25
2604.325	272.25
2607.946	257.25
2611.564	271.25
2615.178	255.25
2618.79	262.25
2622.398	245.25
2626.004	256.25
2629.606	250.25
2633.205	245.25
2636.801	244.25
2640.394	241.25
2643.983	238.25
2647.57	237.25
2651.153	226.25
2654.734	235.25
2658.311	208.25
2661.885	221.25
2665.456	230.25
2669.025	226.25
2672.589	218.25
2676.151	233.25
2679.71	228.25
2683.266	221.25
2686.819	210.25
2690.368	218.25
2693.915	223.25
2697.458	215.25
2700.999	224.25
2704.536	222.25
2708.071	222.25
2711.602	221.25
2715.13	228.25
2718.656	214.25
2722.178	232.25
2725.697	217.25
2729.214	230.25
2732.727	237.25
2736.237	231.25
2739.744	232.25
2743.249	235.25
2746.75	233.25
2750.248	236.25
2753.743	235.25
2757.236	240.25
2760.725	242.25
2764.211	200.25
2767.695	236.25
2771.175	224.25
2774.652	227.25
2778.127	224.25
2781.598	220.25
2785.067	213.25
2788.532	202.25
2791.995	221.25
2795.455	214.25
2798.911	223.25
2802.365	219.25
2805.816	230.25
2809.264	232.25
2812.709	225.25
2816.151	236.25
2819.59	236.25
2823.026	240.25
2826.46	245.25
2829.89	266.25
2833.318	243.25
2836.742	265.25
2840.164	289.25
2843.583	288.25
2846.999	302.25
2850.412	321.25
2853.822	316.25
2857.229	343.25
2860.634	346.25
2864.035	347.25
2867.434	377.25
2870.83	410.25
2874.223	417.25
2877.613	474.25
2881	509.25
2884.385	541.25
2887.766	565.25
2891.145	568.25
2894.521	552.25
2897.894	538.25
2901.264	540.25
2904.631	533.25
2907.996	532.25
2911.358	536.25
2914.717	524.25
2918.073	525.25
2921.426	530.25
2924.777	538.25
2928.124	596.25
2931.469	674.25
2934.811	710.25
2938.15	767.25
2941.487	770.25
2944.821	736.25
2948.152	681.25
2951.48	632.25
2954.805	571.25
2958.128	566.25
2961.447	507.25
2964.765	511.25
2968.079	482.25
2971.39	484.25
2974.699	494.25
2978.005	510.25
2981.308	509.25
2984.609	508.25
2987.907	509.25
2991.202	493.25
2994.494	461.25
2997.784	444.25
3001.07	409.25
3004.355	381.25
3007.636	370.25
3010.915	350.25
3014.191	342.25
3017.464	336.25
3020.734	313.25
3024.002	314.25
3027.267	302.25
3030.53	292.25
3033.789	296.25
3037.046	293.25
3040.301	284.25
3043.552	293.25
3046.801	291.25
3050.048	297.25
3053.291	319.25
3056.532	297.25
3059.771	298.25
3063.006	320.25
3066.239	314.25
3069.469	317.25
3072.697	327.25
3075.922	318.25
3079.144	334.25
3082.364	349.25
3085.581	341.25
3088.795	361.25
3092.007	365.25
3095.216	369.25
3098.423	364.25
3101.627	348.25
3104.828	381.25
3108.026	382.25
3111.222	410.25
3114.416	414.25
3117.607	402.25
3120.795	414.25
3123.98	414.25
3127.163	410.25
3130.344	437.25
3133.521	435.25
3136.696	457.25
3139.869	470.25
3143.039	450.25
3146.206	480.25
3149.371	486.25
3152.533	493.25
3155.693	477.25
3158.85	494.25
3162.005	495.25
3165.157	483.25
3168.306	482.25
3171.453	511.25
3174.597	494.25
3177.739	480.25
3180.878	496.25
3184.014	504.25
3187.149	498.25
3190.28	495.25
3193.409	516.25
3196.536	504.25
3199.659	518.25
3202.781	523.25
3205.9	498.25
3209.016	511.25
3212.13	506.25
3215.241	498.25
3218.35	502.25
3221.456	500.25
3224.56	484.25
3227.661	494.25
3230.76	484.25
3233.856	488.25
3236.95	479.25
3240.041	473.25
3243.13	482.25
3246.216	471.25
3249.3	487.25
3252.382	478.25
3255.46	470.25
3258.537	419.25
3261.611	474.25
3264.682	462.25
3267.751	463.25
3270.818	454.25
3273.882	459.25
3276.943	451.25
3280.002	482.25
3283.059	441.25
3286.113	440.25
3289.165	427.25
3292.214	419.25
3295.261	432.25
3298.306	393.25
3301.348	407.25
3304.387	391.25
3307.425	405.25
3310.459	390.25
3313.492	399.25
3316.521	375.25
3319.549	385.25
3322.574	374.25
3325.597	378.25
3328.617	362.25
3331.635	367.25
3334.65	344.25
3337.663	360.25
3340.674	356.25
3343.682	357.25
3346.688	367.25
3349.691	345.25
3352.692	360.25
3355.691	360.25
3358.687	351.25
3361.681	344.25
3364.673	342.25
3367.662	344.25
3370.649	339.25
3373.633	321.25
3376.615	321.25
3379.595	308.25
3382.572	312.25
3385.547	314.25
3388.52	304.25
3391.49	307.25
3394.458	304.25
3397.424	308.25
3400.387	287.25
3403.348	305.25
3406.307	283.25
3409.263	288.25
3412.217	291.25
3415.168	284.25
3418.118	292.25
3421.065	283.25
3424.009	290.25
3426.951	274.25
3429.891	272.25
3432.829	268.25
3435.764	265.25
3438.697	255.25
3441.628	267.25
3444.557	246.25
3447.483	237.25
3450.407	244.25
3453.328	229.25
3456.247	227.25
3459.164	216.25
3462.079	221.25
3464.991	209.25
3467.902	211.25
3470.809	196.25
3473.715	210.25
3476.618	181.25
3479.519	193.25
3482.418	165.25
3485.315	176.25
3488.209	169.25
3491.101	166.25
3493.99	153.25
3496.878	154.25
3499.763	156.25
3502.646	147.25
3505.527	136.25
3508.405	138.25
3511.281	121.25
3514.155	129.25
3517.027	115.25
3519.897	105.25
3522.764	121.25
3525.629	99.25
3528.492	106.25
3531.352	99.25
3534.211	98.25
3537.067	90.25
3539.921	88.25
3542.773	94.25
3545.622	75.25
3548.469	60.25
3551.315	63.25
3554.157	70.25
3556.998	60.25
3559.837	58.25
3562.673	65.25
3565.507	46.25
3568.339	44.25
3571.169	48.25
3573.996	46.25
3576.822	27.25
3579.645	34.25
3582.466	35.25
3585.285	39.25
3588.101	33.25
3590.916	25.25
3593.728	35.25
3596.538	26.25
3599.346	27.25
3602.152	17.25
3604.956	21.25
3607.757	20.25
3610.556	2.25
3613.354	19.25
3616.149	12.25
3618.942	18.25
3621.732	17.25
3624.521	-1.75
3627.307	-3.75
3630.092	-0.75
3632.874	14.25
3635.654	1.25
3638.432	-1.75
3641.208	-1.75
3643.982	0.25
3646.753	2.25
3649.523	-30.75
3652.29	-7.75
3655.055	-1.75
3657.818	-3.75
3660.579	-9.75
3663.338	-17.75
3666.095	-8.75
3668.849	-38.75
3671.602	-3.75
3674.352	-26.75
3677.101	-5.75
3679.847	-6.75
3682.591	-21.75
3685.333	-23.75
3688.073	-10.75
3690.811	-24.75
3693.547	-26.75
3696.281	-24.75
3699.013	-16.75
3701.742	-24.75
3704.47	-30.75
3707.195	-18.75
3709.919	-23.75
3712.64	-18.75
3715.359	-30.75
3718.076	-12.75
3720.792	-25.75
3723.505	-21.75
3726.216	-10.75
3728.925	-25.75
3731.632	-22.75
3734.336	-24.75
3737.039	-25.75
3739.74	-21.75
3742.439	-44.75
3745.136	-16.75
3747.83	-18.75
3750.523	-18.75
3753.213	-88.75
3755.902	-26.75
3758.589	-38.75
3761.273	-29.75
3763.956	-15.75
3766.636	-38.75
3769.315	-17.75
3771.991	-30.75
3774.665	-32.75
3777.338	-24.75
3780.008	-35.75
3782.677	-26.75
3785.343	-39.75
3788.007	-47.75
3790.67	-18.75
3793.33	-37.75
3795.989	-30.75
3798.645	-25.75
3801.299	-42.75
3803.952	-33.75
3806.602	-30.75
3809.251	-25.75
3811.897	-25.75
3814.542	-34.75
3817.184	-31.75
3819.825	-30.75
3822.463	-40.75
3825.1	-33.75
3827.735	-32.75
3830.367	-38.75
3832.998	-22.75
3835.627	-35.75
3838.253	-21.75
3840.878	-34.75
3843.501	-16.75
3846.122	-26.75
3848.741	-25.75
3851.358	-23.75
3853.973	-37.75
3856.586	-24.75
3859.197	-37.75
3861.806	-32.75
3864.414	-42.75
3867.019	-31.75
3869.622	-26.75
3872.224	-29.75
3874.823	-31.75
3877.421	-14.75
3880.016	-17.75
3882.61	5.25
3885.202	17.25
3887.792	3.25
3890.38	-8.75
3892.966	-33.75
3895.55	-38.75
3898.132	-29.75
3900.713	-31.75
3903.291	-27.75
3905.868	-39.75
3908.442	-33.75
3911.015	-30.75
3913.586	-37.75
3916.155	-34.75
3918.722	-40.75
3921.287	-41.75
3923.85	-43.75
3926.411	-32.75
3928.971	-39.75
3931.528	-27.75
3934.084	-27.75
3936.638	-39.75
3939.19	-31.75
3941.74	-27.75
3944.288	-34.75
3946.834	-31.75
3949.378	-22.75
3951.921	-34.75
3954.462	-30.75
3957	-28.75
3959.537	-26.75
3962.072	-38.75
3964.606	-47.75
3967.137	-31.75
3969.667	-37.75
3972.194	-22.75
3974.72	-36.75
3977.244	-52.75
3979.766	-38.75
3982.286	-39.75
3984.805	-31.75
3987.321	-19.75
3989.836	-25.75
3992.349	-37.75
3994.86	-27.75
3997.369	-33.75
3999.877	-33.75
4002.382	-36.75
4004.886	-27.75
4007.388	-19.75
4009.888	-21.75
4012.386	-23.75
4014.883	-26.75
4017.377	-27.75
4019.87	-28.75
4022.361	-38.75
4024.85	-29.75
4027.338	-26.75
4029.823	-35.75
4032.307	-31.75
4034.789	-27.75
4037.269	-27.75
4039.747	-38.75
4042.224	-20.75
4044.699	-36.75
4047.172	-33.75
4049.643	-21.75
4052.112	-48.75
4054.58	-26.75
4057.046	-39.75
4059.51	-33.75
4061.972	-27.75
4064.432	-47.75
4066.891	-14.75
4069.348	-30.75
4071.803	-27.75
4074.256	-30.75
4076.708	-28.75
4079.158	-31.75
4081.606	-20.75
4084.052	-31.75
4086.497	-27.75
4088.939	-31.75
4091.38	-31.75
4093.819	-26.75
4096.257	-0.75
4098.693	-4.75
4101.127	-4.75
4103.559	2.25
4105.989	20.25
4108.418	27.25
4110.845	24.25
4113.27	28.25
4115.694	39.25
4118.115	38.25
4120.535	-25.75
4122.954	-27.75
4125.37	-17.75
4127.785	-29.75
4130.198	-22.75
4132.609	-26.75
4135.019	7.25
4137.427	0.25
4139.833	4.25
4142.237	-3.75
