Data from 2018-3-6_conc=6_n=2_RamanShift_04.txt Node
Date: Tue Mar 06 14:58:18 GMT+02:00 2018
User: LAB3
Spectrometer: QEPB0276
Trigger mode: 0
Integration Time (sec): 3.000000E1
Scans to average: 1
Electric dark correction enabled: true
Nonlinearity correction enabled: false
Boxcar width: 0
XAxis mode: Raman Shifts
Number of Pixels in Spectrum: 1044
>>>>>Begin Spectral Data<<<<<
160.701	37.25
166.742	52.25
172.777	70.25
178.805	158.25
184.826	385.25
190.841	803.25
196.849	1271.25
202.85	1633.25
208.845	1727.25
214.833	1721.25
220.815	1682.25
226.789	1685.25
232.758	1675.25
238.719	1646.25
244.674	1622.25
250.623	1582.25
256.565	1576.25
262.5	1547.25
268.429	1544.25
274.351	1519.25
280.267	1542.25
286.176	1501.25
292.079	1522.25
297.975	1496.25
303.865	1503.25
309.748	1522.25
315.625	1496.25
321.495	1519.25
327.359	1487.25
333.217	1506.25
339.068	1503.25
344.912	1504.25
350.751	1508.25
356.583	1525.25
362.408	1490.25
368.227	1513.25
374.04	1531.25
379.847	1517.25
385.647	1533.25
391.44	1512.25
397.228	1531.25
403.009	1541.25
408.784	1535.25
414.553	1557.25
420.315	1566.25
426.071	1539.25
431.821	1561.25
437.565	1558.25
443.302	1546.25
449.033	1530.25
454.758	1539.25
460.477	1526.25
466.189	1511.25
471.896	1484.25
477.596	1496.25
483.29	1452.25
488.978	1478.25
494.66	1446.25
500.335	1427.25
506.005	1345.25
511.668	1298.25
517.325	1215.25
522.977	1167.25
528.622	1119.25
534.261	1093.25
539.894	1088.25
545.521	1059.25
551.141	1043.25
556.756	1024.25
562.365	1015.25
567.968	1031.25
573.565	1007.25
579.155	1021.25
584.74	1006.25
590.319	1009.25
595.892	1022.25
601.459	1019.25
607.02	990.25
612.575	990.25
618.124	995.25
623.667	962.25
629.204	946.25
634.735	944.25
640.261	926.25
645.781	898.25
651.294	905.25
656.802	905.25
662.304	908.25
667.8	926.25
673.29	895.25
678.775	907.25
684.254	895.25
689.726	879.25
695.193	898.25
700.655	884.25
706.11	884.25
711.56	874.25
717.004	869.25
722.442	842.25
727.874	859.25
733.301	874.25
738.722	849.25
744.137	844.25
749.547	849.25
754.951	838.25
760.349	838.25
765.741	855.25
771.128	849.25
776.509	864.25
781.885	897.25
787.254	893.25
792.618	878.25
797.977	896.25
803.33	894.25
808.677	875.25
814.019	880.25
819.355	864.25
824.686	842.25
830.011	860.25
835.33	873.25
840.644	853.25
845.952	837.25
851.255	841.25
856.552	823.25
861.844	814.25
867.13	807.25
872.41	789.25
877.686	799.25
882.955	780.25
888.219	784.25
893.478	762.25
898.731	772.25
903.979	757.25
909.221	732.25
914.458	727.25
919.69	731.25
924.916	739.25
930.136	722.25
935.351	733.25
940.561	744.25
945.766	741.25
950.965	751.25
956.158	735.25
961.347	719.25
966.529	710.25
971.707	718.25
976.879	707.25
982.046	702.25
987.208	677.25
992.364	682.25
997.515	689.25
1002.66	687.25
1007.801	698.25
1012.936	692.25
1018.066	695.25
1023.19	709.25
1028.309	709.25
1033.423	700.25
1038.532	712.25
1043.636	686.25
1048.734	689.25
1053.827	682.25
1058.915	673.25
1063.998	676.25
1069.075	664.25
1074.147	675.25
1079.214	653.25
1084.276	692.25
1089.333	683.25
1094.385	681.25
1099.431	680.25
1104.472	689.25
1109.509	656.25
1114.54	663.25
1119.565	656.25
1124.586	656.25
1129.602	636.25
1134.613	610.25
1139.618	610.25
1144.619	622.25
1149.614	624.25
1154.604	621.25
1159.589	623.25
1164.57	638.25
1169.545	644.25
1174.515	646.25
1179.48	629.25
1184.44	629.25
1189.395	637.25
1194.345	606.25
1199.29	606.25
1204.23	598.25
1209.165	590.25
1214.095	620.25
1219.021	610.25
1223.941	606.25
1228.856	620.25
1233.766	625.25
1238.672	631.25
1243.572	628.25
1248.467	627.25
1253.358	608.25
1258.244	594.25
1263.124	603.25
1268	582.25
1272.871	571.25
1277.737	571.25
1282.599	553.25
1287.455	556.25
1292.306	570.25
1297.153	543.25
1301.995	564.25
1306.832	559.25
1311.664	561.25
1316.491	568.25
1321.314	564.25
1326.132	558.25
1330.945	554.25
1335.753	548.25
1340.556	534.25
1345.354	514.25
1350.148	522.25
1354.937	520.25
1359.722	500.25
1364.501	501.25
1369.276	510.25
1374.046	515.25
1378.811	494.25
1383.572	507.25
1388.327	502.25
1393.079	485.25
1397.825	486.25
1402.567	487.25
1407.304	486.25
1412.036	486.25
1416.764	478.25
1421.487	465.25
1426.205	466.25
1430.919	470.25
1435.628	484.25
1440.333	471.25
1445.032	493.25
1449.727	486.25
1454.418	489.25
1459.104	484.25
1463.785	474.25
1468.462	477.25
1473.134	464.25
1477.802	458.25
1482.465	433.25
1487.123	465.25
1491.777	430.25
1496.426	422.25
1501.071	450.25
1505.711	440.25
1510.347	452.25
1514.978	452.25
1519.604	442.25
1524.226	453.25
1528.844	440.25
1533.457	445.25
1538.065	444.25
1542.669	443.25
1547.269	431.25
1551.864	441.25
1556.454	423.25
1561.041	431.25
1565.622	431.25
1570.199	438.25
1574.772	455.25
1579.34	438.25
1583.904	451.25
1588.464	460.25
1593.019	462.25
1597.569	447.25
1602.115	451.25
1606.657	445.25
1611.195	453.25
1615.728	453.25
1620.256	436.25
1624.78	418.25
1629.3	432.25
1633.816	438.25
1638.327	427.25
1642.834	449.25
1647.336	435.25
1651.834	444.25
1656.328	444.25
1660.817	435.25
1665.302	427.25
1669.783	420.25
1674.259	414.25
1678.732	411.25
1683.199	404.25
1687.663	387.25
1692.122	391.25
1696.577	376.25
1701.028	377.25
1705.474	360.25
1709.917	374.25
1714.355	347.25
1718.788	352.25
1723.218	342.25
1727.643	327.25
1732.064	330.25
1736.481	316.25
1740.893	325.25
1745.301	312.25
1749.705	293.25
1754.105	317.25
1758.501	295.25
1762.893	305.25
1767.28	266.25
1771.663	280.25
1776.042	285.25
1780.417	270.25
1784.787	284.25
1789.154	286.25
1793.516	289.25
1797.874	285.25
1802.228	273.25
1806.578	265.25
1810.924	276.25
1815.266	175.25
1819.603	266.25
1823.937	257.25
1828.266	267.25
1832.591	264.25
1836.913	270.25
1841.23	250.25
1845.543	248.25
1849.852	259.25
1854.156	253.25
1858.457	247.25
1862.754	255.25
1867.047	261.25
1871.335	266.25
1875.62	263.25
1879.9	255.25
1884.177	246.25
1888.449	254.25
1892.718	251.25
1896.982	260.25
1901.243	235.25
1905.499	248.25
1909.752	239.25
1914	222.25
1918.245	251.25
1922.485	241.25
1926.722	239.25
1930.954	230.25
1935.183	243.25
1939.408	236.25
1943.628	237.25
1947.845	234.25
1952.058	229.25
1956.267	222.25
1960.472	233.25
1964.673	229.25
1968.87	220.25
1973.063	222.25
1977.252	218.25
1981.438	211.25
1985.619	207.25
1989.797	198.25
1993.971	216.25
1998.14	224.25
2002.306	221.25
2006.469	216.25
2010.627	209.25
2014.781	208.25
2018.932	203.25
2023.078	223.25
2027.221	211.25
2031.36	201.25
2035.495	201.25
2039.627	202.25
2043.754	201.25
2047.878	196.25
2051.998	189.25
2056.114	188.25
2060.226	198.25
2064.334	200.25
2068.439	201.25
2072.54	204.25
2076.637	176.25
2080.73	184.25
2084.82	184.25
2088.906	185.25
2092.988	183.25
2097.066	189.25
2101.14	197.25
2105.211	190.25
2109.278	185.25
2113.342	179.25
2117.401	172.25
2121.457	170.25
2125.509	160.25
2129.558	182.25
2133.602	176.25
2137.643	171.25
2141.681	167.25
2145.714	171.25
2149.744	175.25
2153.77	175.25
2157.793	155.25
2161.812	136.25
2165.827	139.25
2169.838	169.25
2173.846	153.25
2177.851	149.25
2181.851	160.25
2185.848	148.25
2189.841	151.25
2193.831	143.25
2197.817	149.25
2201.799	142.25
2205.778	133.25
2209.753	139.25
2213.725	128.25
2217.693	139.25
2221.657	129.25
2225.618	148.25
2229.575	138.25
2233.529	137.25
2237.479	141.25
2241.425	126.25
2245.368	120.25
2249.307	134.25
2253.243	120.25
2257.175	127.25
2261.104	118.25
2265.029	126.25
2268.95	121.25
2272.868	116.25
2276.783	106.25
2280.694	114.25
2284.601	116.25
2288.505	113.25
2292.405	123.25
2296.302	92.25
2300.195	114.25
2304.085	79.25
2307.971	106.25
2311.854	88.25
2315.734	101.25
2319.609	103.25
2323.482	83.25
2327.351	93.25
2331.216	95.25
2335.078	97.25
2338.937	93.25
2342.792	80.25
2346.643	84.25
2350.492	93.25
2354.336	84.25
2358.178	96.25
2362.015	88.25
2365.85	83.25
2369.681	87.25
2373.508	93.25
2377.333	101.25
2381.153	96.25
2384.971	89.25
2388.785	91.25
2392.595	78.25
2396.402	78.25
2400.206	59.25
2404.007	78.25
2407.804	85.25
2411.597	83.25
2415.388	80.25
2419.174	80.25
2422.958	81.25
2426.738	79.25
2430.515	86.25
2434.289	68.25
2438.059	67.25
2441.825	75.25
2445.589	89.25
2449.349	62.25
2453.106	73.25
2456.859	68.25
2460.61	80.25
2464.356	59.25
2468.1	62.25
2471.84	59.25
2475.577	63.25
2479.311	61.25
2483.041	63.25
2486.768	80.25
2490.492	74.25
2494.213	65.25
2497.93	47.25
2501.644	48.25
2505.355	63.25
2509.062	67.25
2512.766	55.25
2516.467	56.25
2520.165	60.25
2523.859	49.25
2527.551	85.25
2531.239	52.25
2534.923	62.25
2538.605	55.25
2542.283	58.25
2545.958	59.25
2549.63	66.25
2553.299	63.25
2556.964	44.25
2560.626	50.25
2564.285	57.25
2567.941	38.25
2571.594	40.25
2575.243	59.25
2578.89	48.25
2582.533	51.25
2586.173	47.25
2589.809	52.25
2593.443	19.25
2597.073	45.25
2600.701	46.25
2604.325	51.25
2607.946	35.25
2611.564	45.25
2615.178	51.25
2618.79	50.25
2622.398	41.25
2626.004	50.25
2629.606	44.25
2633.205	35.25
2636.801	47.25
2640.394	45.25
2643.983	39.25
2647.57	38.25
2651.153	32.25
2654.734	48.25
2658.311	22.25
2661.885	26.25
2665.456	28.25
2669.025	28.25
2672.589	29.25
2676.151	43.25
2679.71	46.25
2683.266	35.25
2686.819	29.25
2690.368	33.25
2693.915	37.25
2697.458	33.25
2700.999	39.25
2704.536	39.25
2708.071	30.25
2711.602	34.25
2715.13	30.25
2718.656	12.25
2722.178	31.25
2725.697	21.25
2729.214	25.25
2732.727	30.25
2736.237	12.25
2739.744	20.25
2743.249	21.25
2746.75	22.25
2750.248	23.25
2753.743	29.25
2757.236	27.25
2760.725	28.25
2764.211	3.25
2767.695	24.25
2771.175	23.25
2774.652	28.25
2778.127	21.25
2781.598	16.25
2785.067	22.25
2788.532	11.25
2791.995	27.25
2795.455	11.25
2798.911	29.25
2802.365	12.25
2805.816	23.25
2809.264	29.25
2812.709	15.25
2816.151	26.25
2819.59	13.25
2823.026	23.25
2826.46	18.25
2829.89	33.25
2833.318	1.25
2836.742	21.25
2840.164	24.25
2843.583	17.25
2846.999	21.25
2850.412	27.25
2853.822	14.25
2857.229	31.25
2860.634	19.25
2864.035	4.25
2867.434	24.25
2870.83	30.25
2874.223	16.25
2877.613	23.25
2881	15.25
2884.385	19.25
2887.766	19.25
2891.145	19.25
2894.521	17.25
2897.894	7.25
2901.264	29.25
2904.631	24.25
2907.996	26.25
2911.358	35.25
2914.717	30.25
2918.073	25.25
2921.426	18.25
2924.777	13.25
2928.124	23.25
2931.469	36.25
2934.811	23.25
2938.15	42.25
2941.487	28.25
2944.821	48.25
2948.152	30.25
2951.48	41.25
2954.805	20.25
2958.128	42.25
2961.447	36.25
2964.765	48.25
2968.079	28.25
2971.39	32.25
2974.699	36.25
2978.005	36.25
2981.308	34.25
2984.609	22.25
2987.907	38.25
2991.202	40.25
2994.494	29.25
2997.784	31.25
3001.07	38.25
3004.355	34.25
3007.636	37.25
3010.915	43.25
3014.191	38.25
3017.464	42.25
3020.734	44.25
3024.002	47.25
3027.267	43.25
3030.53	46.25
3033.789	45.25
3037.046	47.25
3040.301	40.25
3043.552	46.25
3046.801	48.25
3050.048	61.25
3053.291	74.25
3056.532	50.25
3059.771	44.25
3063.006	58.25
3066.239	62.25
3069.469	57.25
3072.697	51.25
3075.922	59.25
3079.144	60.25
3082.364	79.25
3085.581	66.25
3088.795	89.25
3092.007	73.25
3095.216	81.25
3098.423	75.25
3101.627	50.25
3104.828	85.25
3108.026	77.25
3111.222	99.25
3114.416	102.25
3117.607	91.25
3120.795	95.25
3123.98	89.25
3127.163	85.25
3130.344	98.25
3133.521	89.25
3136.696	114.25
3139.869	111.25
3143.039	88.25
3146.206	126.25
3149.371	126.25
3152.533	111.25
3155.693	103.25
3158.85	118.25
3162.005	123.25
3165.157	108.25
3168.306	111.25
3171.453	128.25
3174.597	99.25
3177.739	99.25
3180.878	125.25
3184.014	115.25
3187.149	123.25
3190.28	114.25
3193.409	126.25
3196.536	123.25
3199.659	125.25
3202.781	129.25
3205.9	117.25
3209.016	116.25
3212.13	118.25
3215.241	114.25
3218.35	116.25
3221.456	117.25
3224.56	101.25
3227.661	112.25
3230.76	114.25
3233.856	109.25
3236.95	117.25
3240.041	106.25
3243.13	117.25
3246.216	114.25
3249.3	120.25
3252.382	111.25
3255.46	97.25
3258.537	49.25
3261.611	102.25
3264.682	110.25
3267.751	103.25
3270.818	99.25
3273.882	105.25
3276.943	100.25
3280.002	113.25
3283.059	92.25
3286.113	101.25
3289.165	89.25
3292.214	99.25
3295.261	106.25
3298.306	82.25
3301.348	95.25
3304.387	84.25
3307.425	93.25
3310.459	88.25
3313.492	96.25
3316.521	87.25
3319.549	96.25
3322.574	97.25
3325.597	80.25
3328.617	83.25
3331.635	80.25
3334.65	68.25
3337.663	88.25
3340.674	76.25
3343.682	81.25
3346.688	88.25
3349.691	78.25
3352.692	78.25
3355.691	87.25
3358.687	85.25
3361.681	79.25
3364.673	76.25
3367.662	86.25
3370.649	90.25
3373.633	71.25
3376.615	76.25
3379.595	64.25
3382.572	68.25
3385.547	57.25
3388.52	64.25
3391.49	59.25
3394.458	64.25
3397.424	69.25
3400.387	54.25
3403.348	63.25
3406.307	56.25
3409.263	58.25
3412.217	65.25
3415.168	60.25
3418.118	68.25
3421.065	55.25
3424.009	63.25
3426.951	50.25
3429.891	55.25
3432.829	57.25
3435.764	63.25
3438.697	44.25
3441.628	66.25
3444.557	39.25
3447.483	37.25
3450.407	53.25
3453.328	43.25
3456.247	39.25
3459.164	31.25
3462.079	49.25
3464.991	38.25
3467.902	36.25
3470.809	35.25
3473.715	39.25
3476.618	28.25
3479.519	28.25
3482.418	9.25
3485.315	17.25
3488.209	13.25
3491.101	21.25
3493.99	5.25
3496.878	9.25
3499.763	13.25
3502.646	14.25
3505.527	2.25
3508.405	7.25
3511.281	-4.75
3514.155	5.25
3517.027	4.25
3519.897	-3.75
3522.764	2.25
3525.629	-14.75
3528.492	2.25
3531.352	3.25
3534.211	-6.75
3537.067	-4.75
3539.921	0.25
3542.773	3.25
3545.622	-9.75
3548.469	-15.75
3551.315	-13.75
3554.157	-6.75
3556.998	-11.75
3559.837	-11.75
3562.673	-7.75
3565.507	-11.75
3568.339	-18.75
3571.169	-13.75
3573.996	-14.75
3576.822	-33.75
3579.645	-21.75
3582.466	-24.75
3585.285	-17.75
3588.101	-18.75
3590.916	-23.75
3593.728	-12.75
3596.538	-17.75
3599.346	-20.75
3602.152	-28.75
3604.956	-26.75
3607.757	-18.75
3610.556	-34.75
3613.354	-17.75
3616.149	-24.75
3618.942	-21.75
3621.732	-17.75
3624.521	-26.75
3627.307	-33.75
3630.092	-30.75
3632.874	-13.75
3635.654	-26.75
3638.432	-29.75
3641.208	-29.75
3643.982	-27.75
3646.753	-15.75
3649.523	-49.75
3652.29	-32.75
3655.055	-24.75
3657.818	-28.75
3660.579	-27.75
3663.338	-36.75
3666.095	-33.75
3668.849	-57.75
3671.602	-23.75
3674.352	-40.75
3677.101	-25.75
3679.847	-22.75
3682.591	-37.75
3685.333	-42.75
3688.073	-35.75
3690.811	-36.75
3693.547	-43.75
3696.281	-43.75
3699.013	-31.75
3701.742	-36.75
3704.47	-43.75
3707.195	-28.75
3709.919	-31.75
3712.64	-26.75
3715.359	-44.75
3718.076	-23.75
3720.792	-29.75
3723.505	-22.75
3726.216	-22.75
3728.925	-33.75
3731.632	-38.75
3734.336	-28.75
3737.039	-29.75
3739.74	-26.75
3742.439	-60.75
3745.136	-22.75
3747.83	-27.75
3750.523	-27.75
3753.213	-87.75
3755.902	-38.75
3758.589	-48.75
3761.273	-35.75
3763.956	-24.75
3766.636	-47.75
3769.315	-27.75
3771.991	-39.75
3774.665	-42.75
3777.338	-31.75
3780.008	-47.75
3782.677	-35.75
3785.343	-48.75
3788.007	-55.75
3790.67	-31.75
3793.33	-45.75
3795.989	-36.75
3798.645	-30.75
3801.299	-45.75
3803.952	-41.75
3806.602	-34.75
3809.251	-32.75
3811.897	-31.75
3814.542	-34.75
3817.184	-35.75
3819.825	-31.75
3822.463	-44.75
3825.1	-41.75
3827.735	-36.75
3830.367	-44.75
3832.998	-22.75
3835.627	-32.75
3838.253	-27.75
3840.878	-37.75
3843.501	-19.75
3846.122	-33.75
3848.741	-31.75
3851.358	-26.75
3853.973	-44.75
3856.586	-28.75
3859.197	-43.75
3861.806	-38.75
3864.414	-47.75
3867.019	-33.75
3869.622	-27.75
3872.224	-25.75
3874.823	-24.75
3877.421	-8.75
3880.016	0.25
3882.61	22.25
3885.202	32.25
3887.792	18.25
3890.38	2.25
3892.966	-18.75
3895.55	-39.75
3898.132	-26.75
3900.713	-27.75
3903.291	-33.75
3905.868	-44.75
3908.442	-33.75
3911.015	-36.75
3913.586	-39.75
3916.155	-36.75
3918.722	-43.75
3921.287	-48.75
3923.85	-47.75
3926.411	-40.75
3928.971	-41.75
3931.528	-34.75
3934.084	-37.75
3936.638	-45.75
3939.19	-32.75
3941.74	-33.75
3944.288	-37.75
3946.834	-31.75
3949.378	-26.75
3951.921	-44.75
3954.462	-35.75
3957	-34.75
3959.537	-25.75
3962.072	-38.75
3964.606	-51.75
3967.137	-36.75
3969.667	-32.75
3972.194	-30.75
3974.72	-33.75
3977.244	-61.75
3979.766	-44.75
3982.286	-38.75
3984.805	-35.75
3987.321	-24.75
3989.836	-37.75
3992.349	-43.75
3994.86	-34.75
3997.369	-44.75
3999.877	-38.75
4002.382	-39.75
4004.886	-30.75
4007.388	-35.75
4009.888	-24.75
4012.386	-30.75
4014.883	-33.75
4017.377	-31.75
4019.87	-32.75
4022.361	-42.75
4024.85	-35.75
4027.338	-32.75
4029.823	-42.75
4032.307	-33.75
4034.789	-31.75
4037.269	-32.75
4039.747	-48.75
4042.224	-27.75
4044.699	-40.75
4047.172	-36.75
4049.643	-26.75
4052.112	-59.75
4054.58	-34.75
4057.046	-47.75
4059.51	-37.75
4061.972	-33.75
4064.432	-52.75
4066.891	-21.75
4069.348	-37.75
4071.803	-30.75
4074.256	-39.75
4076.708	-32.75
4079.158	-33.75
4081.606	-26.75
4084.052	-37.75
4086.497	-31.75
4088.939	-33.75
4091.38	-36.75
4093.819	-23.75
4096.257	-1.75
4098.693	-8.75
4101.127	-3.75
4103.559	-1.75
4105.989	38.25
4108.418	39.25
4110.845	29.25
4113.27	39.25
4115.694	46.25
4118.115	29.25
4120.535	-31.75
4122.954	-24.75
4125.37	-20.75
4127.785	-34.75
4130.198	-26.75
4132.609	-28.75
4135.019	9.25
4137.427	2.25
4139.833	6.25
4142.237	-1.75
