Data from 2018-3-6_conc=0_n=1_RamanShift_10.txt Node
Date: Tue Mar 06 12:08:49 GMT+02:00 2018
User: LAB3
Spectrometer: QEPB0276
Trigger mode: 0
Integration Time (sec): 3.000000E1
Scans to average: 1
Electric dark correction enabled: true
Nonlinearity correction enabled: false
Boxcar width: 0
XAxis mode: Raman Shifts
Number of Pixels in Spectrum: 1044
>>>>>Begin Spectral Data<<<<<
160.701	57
166.742	92
172.777	167
178.805	352
184.826	888
190.841	1818
196.849	2893
202.85	3729
208.845	4013
214.833	4003
220.815	3973
226.789	4014
232.758	4066
238.719	4081
244.674	4077
250.623	4045
256.565	4036
262.5	4012
268.429	4003
274.351	4004
280.267	3989
286.176	3995
292.079	4014
297.975	4024
303.865	4013
309.748	4027
315.625	3992
321.495	4055
327.359	4032
333.217	4023
339.068	4046
344.912	4080
350.751	4057
356.583	4102
362.408	4121
368.227	4091
374.04	4149
379.847	4143
385.647	4208
391.44	4195
397.228	4233
403.009	4257
408.784	4261
414.553	4327
420.315	4350
426.071	4341
431.821	4420
437.565	4416
443.302	4423
449.033	4370
454.758	4330
460.477	4274
466.189	4211
471.896	4179
477.596	4149
483.29	4109
488.978	4137
494.66	4070
500.335	3994
506.005	3860
511.668	3704
517.325	3554
522.977	3430
528.622	3374
534.261	3293
539.894	3226
545.521	3228
551.141	3176
556.756	3139
562.365	3134
567.968	3112
573.565	3069
579.155	3063
584.74	3032
590.319	3067
595.892	3029
601.459	3046
607.02	3006
612.575	2988
618.124	2985
623.667	2940
629.204	2912
634.735	2892
640.261	2854
645.781	2807
651.294	2813
656.802	2818
662.304	2812
667.8	2805
673.29	2787
678.775	2796
684.254	2757
689.726	2741
695.193	2753
700.655	2722
706.11	2713
711.56	2695
717.004	2681
722.442	2646
727.874	2662
733.301	2691
738.722	2629
744.137	2679
749.547	2639
754.951	2626
760.349	2648
765.741	2674
771.128	2676
776.509	2690
781.885	2725
787.254	2737
792.618	2744
797.977	2753
803.33	2729
808.677	2706
814.019	2703
819.355	2675
824.686	2654
830.011	2629
835.33	2672
840.644	2654
845.952	2614
851.255	2657
856.552	2656
861.844	2684
867.13	2775
872.41	3007
877.686	3374
882.955	3670
888.219	3607
893.478	3189
898.731	2799
903.979	2585
909.221	2464
914.458	2424
919.69	2401
924.916	2376
930.136	2387
935.351	2367
940.561	2364
945.766	2342
950.965	2359
956.158	2301
961.347	2273
966.529	2273
971.707	2255
976.879	2238
982.046	2220
987.208	2193
992.364	2195
997.515	2224
1002.66	2238
1007.801	2282
1012.936	2305
1018.066	2335
1023.19	2367
1028.309	2408
1033.423	2416
1038.532	2481
1043.636	2544
1048.734	2623
1053.827	2629
1058.915	2526
1063.998	2423
1069.075	2385
1074.147	2414
1079.214	2447
1084.276	2528
1089.333	2575
1094.385	2585
1099.431	2501
1104.472	2415
1109.509	2325
1114.54	2241
1119.565	2210
1124.586	2165
1129.602	2128
1134.613	2098
1139.618	2062
1144.619	2060
1149.614	2052
1154.604	2046
1159.589	2058
1164.57	2060
1169.545	2067
1174.515	2047
1179.48	2055
1184.44	2026
1189.395	2018
1194.345	1982
1199.29	1992
1204.23	1972
1209.165	1976
1214.095	2001
1219.021	1998
1223.941	1997
1228.856	2030
1233.766	2033
1238.672	2039
1243.572	2032
1248.467	2056
1253.358	2009
1258.244	1983
1263.124	1979
1268	1986
1272.871	1953
1277.737	1994
1282.599	2003
1287.455	2017
1292.306	1971
1297.153	1944
1301.995	1936
1306.832	1935
1311.664	1930
1316.491	1904
1321.314	1909
1326.132	1872
1330.945	1855
1335.753	1824
1340.556	1796
1345.354	1755
1350.148	1761
1354.937	1729
1359.722	1733
1364.501	1735
1369.276	1740
1374.046	1743
1378.811	1749
1383.572	1757
1388.327	1774
1393.079	1747
1397.825	1733
1402.567	1722
1407.304	1710
1412.036	1713
1416.764	1705
1421.487	1703
1426.205	1755
1430.919	1775
1435.628	1767
1440.333	1805
1445.032	1883
1449.727	1986
1454.418	2141
1459.104	2258
1463.785	2178
1468.462	2030
1473.134	1877
1477.802	1798
1482.465	1748
1487.123	1737
1491.777	1710
1496.426	1681
1501.071	1684
1505.711	1644
1510.347	1649
1514.978	1636
1519.604	1640
1524.226	1628
1528.844	1591
1533.457	1589
1538.065	1569
1542.669	1551
1547.269	1540
1551.864	1521
1556.454	1498
1561.041	1494
1565.622	1494
1570.199	1485
1574.772	1489
1579.34	1493
1583.904	1499
1588.464	1522
1593.019	1509
1597.569	1487
1602.115	1483
1606.657	1475
1611.195	1473
1615.728	1471
1620.256	1450
1624.78	1434
1629.3	1457
1633.816	1444
1638.327	1469
1642.834	1482
1647.336	1484
1651.834	1511
1656.328	1490
1660.817	1506
1665.302	1489
1669.783	1467
1674.259	1453
1678.732	1433
1683.199	1411
1687.663	1380
1692.122	1353
1696.577	1348
1701.028	1322
1705.474	1285
1709.917	1288
1714.355	1300
1718.788	1260
1723.218	1268
1727.643	1228
1732.064	1219
1736.481	1187
1740.893	1187
1745.301	1153
1749.705	1103
1754.105	1091
1758.501	1077
1762.893	1071
1767.28	1031
1771.663	1039
1776.042	1039
1780.417	1026
1784.787	1045
1789.154	1057
1793.516	1057
1797.874	1048
1802.228	1037
1806.578	1032
1810.924	1032
1815.266	943
1819.603	1010
1823.937	965
1828.266	962
1832.591	946
1836.913	945
1841.23	940
1845.543	924
1849.852	949
1854.156	938
1858.457	938
1862.754	931
1867.047	951
1871.335	961
1875.62	957
1879.9	954
1884.177	950
1888.449	954
1892.718	949
1896.982	965
1901.243	932
1905.499	941
1909.752	919
1914	908
1918.245	942
1922.485	947
1926.722	958
1930.954	942
1935.183	951
1939.408	960
1943.628	939
1947.845	952
1952.058	932
1956.267	905
1960.472	913
1964.673	883
1968.87	863
1973.063	846
1977.252	849
1981.438	832
1985.619	813
1989.797	800
1993.971	791
1998.14	815
2002.306	791
2006.469	796
2010.627	781
2014.781	777
2018.932	777
2023.078	793
2027.221	775
2031.36	757
2035.495	753
2039.627	758
2043.754	753
2047.878	722
2051.998	738
2056.114	735
2060.226	745
2064.334	744
2068.439	758
2072.54	761
2076.637	743
2080.73	757
2084.82	752
2088.906	760
2092.988	751
2097.066	767
2101.14	759
2105.211	760
2109.278	742
2113.342	736
2117.401	710
2121.457	703
2125.509	692
2129.558	712
2133.602	697
2137.643	687
2141.681	693
2145.714	685
2149.744	664
2153.77	672
2157.793	645
2161.812	634
2165.827	625
2169.838	645
2173.846	613
2177.851	614
2181.851	609
2185.848	590
2189.841	586
2193.831	582
2197.817	583
2201.799	584
2205.778	570
2209.753	561
2213.725	563
2217.693	557
2221.657	567
2225.618	562
2229.575	566
2233.529	558
2237.479	554
2241.425	544
2245.368	534
2249.307	527
2253.243	516
2257.175	522
2261.104	512
2265.029	508
2268.95	500
2272.868	503
2276.783	476
2280.694	491
2284.601	483
2288.505	481
2292.405	479
2296.302	454
2300.195	459
2304.085	429
2307.971	447
2311.854	418
2315.734	424
2319.609	436
2323.482	400
2327.351	410
2331.216	404
2335.078	417
2338.937	408
2342.792	401
2346.643	401
2350.492	402
2354.336	400
2358.178	396
2362.015	406
2365.85	399
2369.681	394
2373.508	397
2377.333	408
2381.153	396
2384.971	398
2388.785	390
2392.595	380
2396.402	380
2400.206	359
2404.007	382
2407.804	374
2411.597	374
2415.388	377
2419.174	369
2422.958	375
2426.738	368
2430.515	364
2434.289	355
2438.059	346
2441.825	355
2445.589	365
2449.349	336
2453.106	351
2456.859	345
2460.61	344
2464.356	335
2468.1	324
2471.84	325
2475.577	329
2479.311	331
2483.041	334
2486.768	338
2490.492	348
2494.213	331
2497.93	323
2501.644	319
2505.355	317
2509.062	321
2512.766	320
2516.467	321
2520.165	323
2523.859	309
2527.551	335
2531.239	297
2534.923	315
2538.605	309
2542.283	322
2545.958	318
2549.63	317
2553.299	326
2556.964	305
2560.626	309
2564.285	306
2567.941	305
2571.594	289
2575.243	308
2578.89	290
2582.533	295
2586.173	300
2589.809	303
2593.443	276
2597.073	275
2600.701	277
2604.325	286
2607.946	268
2611.564	279
2615.178	275
2618.79	265
2622.398	262
2626.004	268
2629.606	261
2633.205	259
2636.801	264
2640.394	257
2643.983	253
2647.57	240
2651.153	237
2654.734	259
2658.311	222
2661.885	225
2665.456	227
2669.025	241
2672.589	231
2676.151	242
2679.71	247
2683.266	235
2686.819	222
2690.368	237
2693.915	234
2697.458	228
2700.999	234
2704.536	242
2708.071	235
2711.602	239
2715.13	229
2718.656	217
2722.178	233
2725.697	230
2729.214	237
2732.727	253
2736.237	232
2739.744	247
2743.249	233
2746.75	240
2750.248	234
2753.743	249
2757.236	242
2760.725	252
2764.211	220
2767.695	241
2771.175	228
2774.652	226
2778.127	218
2781.598	226
2785.067	219
2788.532	214
2791.995	221
2795.455	222
2798.911	227
2802.365	227
2805.816	236
2809.264	244
2812.709	234
2816.151	246
2819.59	226
2823.026	245
2826.46	242
2829.89	271
2833.318	246
2836.742	279
2840.164	282
2843.583	290
2846.999	306
2850.412	312
2853.822	306
2857.229	334
2860.634	344
2864.035	332
2867.434	367
2870.83	386
2874.223	406
2877.613	445
2881	478
2884.385	517
2887.766	540
2891.145	527
2894.521	519
2897.894	509
2901.264	511
2904.631	503
2907.996	517
2911.358	507
2914.717	488
2918.073	494
2921.426	497
2924.777	502
2928.124	560
2931.469	618
2934.811	668
2938.15	720
2941.487	712
2944.821	675
2948.152	630
2951.48	591
2954.805	535
2958.128	523
2961.447	483
2964.765	478
2968.079	460
2971.39	473
2974.699	458
2978.005	479
2981.308	459
2984.609	462
2987.907	471
2991.202	452
2994.494	420
2997.784	415
3001.07	370
3004.355	363
3007.636	347
3010.915	323
3014.191	311
3017.464	309
3020.734	299
3024.002	298
3027.267	283
3030.53	278
3033.789	275
3037.046	270
3040.301	252
3043.552	264
3046.801	278
3050.048	281
3053.291	291
3056.532	278
3059.771	272
3063.006	289
3066.239	289
3069.469	296
3072.697	290
3075.922	305
3079.144	308
3082.364	332
3085.581	304
3088.795	341
3092.007	342
3095.216	343
3098.423	331
3101.627	334
3104.828	355
3108.026	346
3111.222	369
3114.416	377
3117.607	372
3120.795	387
3123.98	376
3127.163	384
3130.344	408
3133.521	399
3136.696	434
3139.869	425
3143.039	408
3146.206	445
3149.371	439
3152.533	439
3155.693	427
3158.85	450
3162.005	452
3165.157	453
3168.306	461
3171.453	456
3174.597	433
3177.739	439
3180.878	456
3184.014	465
3187.149	457
3190.28	451
3193.409	455
3196.536	468
3199.659	461
3202.781	464
3205.9	441
3209.016	465
3212.13	455
3215.241	452
3218.35	457
3221.456	448
3224.56	439
3227.661	452
3230.76	437
3233.856	436
3236.95	429
3240.041	417
3243.13	437
3246.216	427
3249.3	440
3252.382	427
3255.46	427
3258.537	369
3261.611	407
3264.682	426
3267.751	420
3270.818	405
3273.882	419
3276.943	399
3280.002	425
3283.059	396
3286.113	395
3289.165	382
3292.214	371
3295.261	388
3298.306	361
3301.348	367
3304.387	342
3307.425	363
3310.459	345
3313.492	353
3316.521	337
3319.549	352
3322.574	341
3325.597	335
3328.617	322
3331.635	326
3334.65	311
3337.663	336
3340.674	324
3343.682	315
3346.688	332
3349.691	309
3352.692	321
3355.691	323
3358.687	308
3361.681	313
3364.673	310
3367.662	312
3370.649	317
3373.633	288
3376.615	301
3379.595	281
3382.572	287
3385.547	280
3388.52	273
3391.49	269
3394.458	278
3397.424	272
3400.387	262
3403.348	270
3406.307	266
3409.263	264
3412.217	270
3415.168	260
3418.118	259
3421.065	250
3424.009	258
3426.951	255
3429.891	247
3432.829	246
3435.764	237
3438.697	226
3441.628	242
3444.557	217
3447.483	208
3450.407	218
3453.328	198
3456.247	201
3459.164	186
3462.079	199
3464.991	185
3467.902	185
3470.809	178
3473.715	185
3476.618	162
3479.519	176
3482.418	148
3485.315	149
3488.209	145
3491.101	146
3493.99	143
3496.878	136
3499.763	136
3502.646	136
3505.527	123
3508.405	118
3511.281	109
3514.155	112
3517.027	110
3519.897	97
3522.764	100
3525.629	82
3528.492	92
3531.352	88
3534.211	89
3537.067	77
3539.921	82
3542.773	83
3545.622	64
3548.469	57
3551.315	53
3554.157	59
3556.998	46
3559.837	56
3562.673	54
3565.507	43
3568.339	40
3571.169	43
3573.996	42
3576.822	23
3579.645	26
3582.466	30
3585.285	32
3588.101	29
3590.916	25
3593.728	26
3596.538	21
3599.346	23
3602.152	10
3604.956	16
3607.757	15
3610.556	7
3613.354	14
3616.149	13
3618.942	7
3621.732	19
3624.521	2
3627.307	-5
3630.092	1
3632.874	14
3635.654	-3
3638.432	-5
3641.208	-5
3643.982	-2
3646.753	10
3649.523	-25
3652.29	-12
3655.055	1
3657.818	-6
3660.579	-9
3663.338	-15
3666.095	-16
3668.849	-39
3671.602	-9
3674.352	-28
3677.101	-1
3679.847	-4
3682.591	-23
3685.333	-27
3688.073	-13
3690.811	-26
3693.547	-30
3696.281	-33
3699.013	-16
3701.742	-25
3704.47	-35
3707.195	-21
3709.919	-18
3712.64	-25
3715.359	-26
3718.076	-17
3720.792	-24
3723.505	-17
3726.216	-11
3728.925	-29
3731.632	-29
3734.336	-26
3737.039	-25
3739.74	-22
3742.439	-48
3745.136	-15
3747.83	-22
3750.523	-21
3753.213	-94
3755.902	-26
3758.589	-42
3761.273	-34
3763.956	-19
3766.636	-44
3769.315	-17
3771.991	-29
3774.665	-33
3777.338	-26
3780.008	-38
3782.677	-30
3785.343	-45
3788.007	-41
3790.67	-23
3793.33	-39
3795.989	-36
3798.645	-25
3801.299	-41
3803.952	-36
3806.602	-31
3809.251	-22
3811.897	-32
3814.542	-38
3817.184	-35
3819.825	-30
3822.463	-45
3825.1	-30
3827.735	-28
3830.367	-41
3832.998	-17
3835.627	-32
3838.253	-21
3840.878	-32
3843.501	-13
3846.122	-28
3848.741	-27
3851.358	-21
3853.973	-38
3856.586	-22
3859.197	-37
3861.806	-30
3864.414	-44
3867.019	-27
3869.622	-27
3872.224	-28
3874.823	-28
3877.421	-12
3880.016	-8
3882.61	18
3885.202	22
3887.792	11
3890.38	-6
3892.966	-20
3895.55	-34
3898.132	-22
3900.713	-20
3903.291	-28
3905.868	-40
3908.442	-29
3911.015	-28
3913.586	-34
3916.155	-32
3918.722	-33
3921.287	-39
3923.85	-42
3926.411	-36
3928.971	-35
3931.528	-28
3934.084	-31
3936.638	-39
3939.19	-28
3941.74	-28
3944.288	-35
3946.834	-28
3949.378	-20
3951.921	-32
3954.462	-30
3957	-32
3959.537	-21
3962.072	-36
3964.606	-46
3967.137	-36
3969.667	-34
3972.194	-21
3974.72	-34
3977.244	-58
3979.766	-40
3982.286	-41
3984.805	-26
3987.321	-18
3989.836	-29
3992.349	-37
3994.86	-32
3997.369	-34
3999.877	-34
4002.382	-36
4004.886	-22
4007.388	-27
4009.888	-21
4012.386	-25
4014.883	-24
4017.377	-29
4019.87	-26
4022.361	-38
4024.85	-31
4027.338	-23
4029.823	-36
4032.307	-29
4034.789	-27
4037.269	-26
4039.747	-40
4042.224	-21
4044.699	-38
4047.172	-31
4049.643	-23
4052.112	-51
4054.58	-30
4057.046	-36
4059.51	-34
4061.972	-28
4064.432	-50
4066.891	-16
4069.348	-34
4071.803	-26
4074.256	-36
4076.708	-28
4079.158	-27
4081.606	-23
4084.052	-28
4086.497	-24
4088.939	-33
4091.38	-32
4093.819	-25
4096.257	0
4098.693	-6
4101.127	-5
4103.559	1
4105.989	26
4108.418	43
4110.845	33
4113.27	36
4115.694	55
4118.115	45
4120.535	-31
4122.954	-23
4125.37	-21
4127.785	-26
4130.198	-24
4132.609	-28
4135.019	9
4137.427	2
4139.833	3
4142.237	-4
