Data from dark_RamanShift_02.txt Node
Date: Tue Mar 06 11:53:19 GMT+02:00 2018
User: LAB3
Spectrometer: QEPB0276
Trigger mode: 0
Integration Time (sec): 3.000000E1
Scans to average: 1
Electric dark correction enabled: true
Nonlinearity correction enabled: false
Boxcar width: 0
XAxis mode: Raman Shifts
Number of Pixels in Spectrum: 1044
>>>>>Begin Spectral Data<<<<<
160.701	-37.75
166.742	-32.75
172.777	-37.75
178.805	-51.75
184.826	-45.75
190.841	-30.75
196.849	-45.75
202.85	-38.75
208.845	-38.75
214.833	-36.75
220.815	-43.75
226.789	-42.75
232.758	-33.75
238.719	-42.75
244.674	-51.75
250.623	-50.75
256.565	-54.75
262.5	-50.75
268.429	-50.75
274.351	-52.75
280.267	-46.75
286.176	-41.75
292.079	-39.75
297.975	-41.75
303.865	-44.75
309.748	-40.75
315.625	-43.75
321.495	-39.75
327.359	-48.75
333.217	-42.75
339.068	-47.75
344.912	-41.75
350.751	-43.75
356.583	-43.75
362.408	-32.75
368.227	-34.75
374.04	-35.75
379.847	-39.75
385.647	-34.75
391.44	-46.75
397.228	-47.75
403.009	-44.75
408.784	-49.75
414.553	-39.75
420.315	-35.75
426.071	-55.75
431.821	-38.75
437.565	-39.75
443.302	-43.75
449.033	-52.75
454.758	-33.75
460.477	-40.75
466.189	-39.75
471.896	-38.75
477.596	-33.75
483.29	-50.75
488.978	-46.75
494.66	-49.75
500.335	-46.75
506.005	-55.75
511.668	-42.75
517.325	-47.75
522.977	-52.75
528.622	-48.75
534.261	-42.75
539.894	-42.75
545.521	-43.75
551.141	-55.75
556.756	-54.75
562.365	-51.75
567.968	-44.75
573.565	-50.75
579.155	-39.75
584.74	-49.75
590.319	-32.75
595.892	-39.75
601.459	-34.75
607.02	-43.75
612.575	-35.75
618.124	-29.75
623.667	-39.75
629.204	-37.75
634.735	-41.75
640.261	-45.75
645.781	-70.75
651.294	-53.75
656.802	-49.75
662.304	-32.75
667.8	-34.75
673.29	-44.75
678.775	-37.75
684.254	-43.75
689.726	-55.75
695.193	-40.75
700.655	-50.75
706.11	-47.75
711.56	-45.75
717.004	-36.75
722.442	-61.75
727.874	-40.75
733.301	-31.75
738.722	-56.75
744.137	-42.75
749.547	-50.75
754.951	-51.75
760.349	-55.75
765.741	-43.75
771.128	-50.75
776.509	-49.75
781.885	-45.75
787.254	-43.75
792.618	-55.75
797.977	-41.75
803.33	-42.75
808.677	-54.75
814.019	-42.75
819.355	-44.75
824.686	-48.75
830.011	-50.75
835.33	-33.75
840.644	-26.75
845.952	-52.75
851.255	-35.75
856.552	-37.75
861.844	-33.75
867.13	-54.75
872.41	-49.75
877.686	-35.75
882.955	-36.75
888.219	-38.75
893.478	-50.75
898.731	-33.75
903.979	-30.75
909.221	-47.75
914.458	-48.75
919.69	-41.75
924.916	-50.75
930.136	-44.75
935.351	-51.75
940.561	-35.75
945.766	-43.75
950.965	-31.75
956.158	-48.75
961.347	-46.75
966.529	-43.75
971.707	-31.75
976.879	-36.75
982.046	-44.75
987.208	-50.75
992.364	-37.75
997.515	-44.75
1002.66	-39.75
1007.801	-55.75
1012.936	-48.75
1018.066	-67.75
1023.19	-47.75
1028.309	-45.75
1033.423	-40.75
1038.532	-34.75
1043.636	-47.75
1048.734	-39.75
1053.827	-46.75
1058.915	-48.75
1063.998	-40.75
1069.075	-50.75
1074.147	-36.75
1079.214	-55.75
1084.276	-34.75
1089.333	-39.75
1094.385	-33.75
1099.431	-49.75
1104.472	-38.75
1109.509	-51.75
1114.54	-41.75
1119.565	-43.75
1124.586	-39.75
1129.602	-44.75
1134.613	-54.75
1139.618	-49.75
1144.619	-43.75
1149.614	-37.75
1154.604	-45.75
1159.589	-47.75
1164.57	-33.75
1169.545	-31.75
1174.515	-38.75
1179.48	-41.75
1184.44	-36.75
1189.395	-27.75
1194.345	-43.75
1199.29	-32.75
1204.23	-46.75
1209.165	-57.75
1214.095	-35.75
1219.021	-48.75
1223.941	-53.75
1228.856	-42.75
1233.766	-39.75
1238.672	-35.75
1243.572	-32.75
1248.467	-39.75
1253.358	-41.75
1258.244	-47.75
1263.124	-19.75
1268	-21.75
1272.871	-46.75
1277.737	-33.75
1282.599	-38.75
1287.455	-42.75
1292.306	-37.75
1297.153	-50.75
1301.995	-39.75
1306.832	-41.75
1311.664	-38.75
1316.491	-47.75
1321.314	-40.75
1326.132	-45.75
1330.945	-33.75
1335.753	-41.75
1340.556	-40.75
1345.354	-47.75
1350.148	-37.75
1354.937	-37.75
1359.722	-55.75
1364.501	-42.75
1369.276	-38.75
1374.046	-32.75
1378.811	-43.75
1383.572	-37.75
1388.327	-34.75
1393.079	-54.75
1397.825	-49.75
1402.567	-45.75
1407.304	-44.75
1412.036	-45.75
1416.764	-44.75
1421.487	-56.75
1426.205	-51.75
1430.919	-45.75
1435.628	-46.75
1440.333	-55.75
1445.032	-42.75
1449.727	-47.75
1454.418	-39.75
1459.104	-38.75
1463.785	-50.75
1468.462	-31.75
1473.134	-37.75
1477.802	-37.75
1482.465	-56.75
1487.123	-32.75
1491.777	-52.75
1496.426	-57.75
1501.071	-29.75
1505.711	-46.75
1510.347	-34.75
1514.978	-37.75
1519.604	-45.75
1524.226	-31.75
1528.844	-50.75
1533.457	-32.75
1538.065	-38.75
1542.669	-34.75
1547.269	-37.75
1551.864	-39.75
1556.454	-48.75
1561.041	-42.75
1565.622	-53.75
1570.199	-42.75
1574.772	-43.75
1579.34	-42.75
1583.904	-37.75
1588.464	-28.75
1593.019	-28.75
1597.569	-48.75
1602.115	-42.75
1606.657	-46.75
1611.195	-27.75
1615.728	-28.75
1620.256	-42.75
1624.78	-66.75
1629.3	-47.75
1633.816	-41.75
1638.327	-45.75
1642.834	-41.75
1647.336	-53.75
1651.834	-30.75
1656.328	-39.75
1660.817	-38.75
1665.302	-54.75
1669.783	-50.75
1674.259	-46.75
1678.732	-42.75
1683.199	-42.75
1687.663	-52.75
1692.122	-38.75
1696.577	-38.75
1701.028	-28.75
1705.474	-44.75
1709.917	-49.75
1714.355	-43.75
1718.788	-42.75
1723.218	-59.75
1727.643	-52.75
1732.064	-46.75
1736.481	-55.75
1740.893	-33.75
1745.301	-41.75
1749.705	-62.75
1754.105	-38.75
1758.501	-49.75
1762.893	-32.75
1767.28	-56.75
1771.663	-41.75
1776.042	-54.75
1780.417	-43.75
1784.787	-37.75
1789.154	-33.75
1793.516	-37.75
1797.874	-39.75
1802.228	-54.75
1806.578	-56.75
1810.924	-41.75
1815.266	-130.75
1819.603	-37.75
1823.937	-48.75
1828.266	-38.75
1832.591	-38.75
1836.913	-38.75
1841.23	-43.75
1845.543	-52.75
1849.852	-35.75
1854.156	-45.75
1858.457	-48.75
1862.754	-50.75
1867.047	-45.75
1871.335	-32.75
1875.62	-38.75
1879.9	-33.75
1884.177	-47.75
1888.449	-40.75
1892.718	-37.75
1896.982	-31.75
1901.243	-47.75
1905.499	-42.75
1909.752	-50.75
1914	-58.75
1918.245	-30.75
1922.485	-33.75
1926.722	-43.75
1930.954	-50.75
1935.183	-37.75
1939.408	-35.75
1943.628	-36.75
1947.845	-44.75
1952.058	-43.75
1956.267	-50.75
1960.472	-35.75
1964.673	-40.75
1968.87	-39.75
1973.063	-39.75
1977.252	-42.75
1981.438	-42.75
1985.619	-43.75
1989.797	-53.75
1993.971	-46.75
1998.14	-35.75
2002.306	-43.75
2006.469	-39.75
2010.627	-48.75
2014.781	-49.75
2018.932	-55.75
2023.078	-29.75
2027.221	-39.75
2031.36	-44.75
2035.495	-44.75
2039.627	-37.75
2043.754	-36.75
2047.878	-43.75
2051.998	-40.75
2056.114	-40.75
2060.226	-38.75
2064.334	-38.75
2068.439	-28.75
2072.54	-26.75
2076.637	-45.75
2080.73	-42.75
2084.82	-40.75
2088.906	-45.75
2092.988	-42.75
2097.066	-37.75
2101.14	-24.75
2105.211	-32.75
2109.278	-38.75
2113.342	-37.75
2117.401	-45.75
2121.457	-47.75
2125.509	-46.75
2129.558	-32.75
2133.602	-41.75
2137.643	-40.75
2141.681	-40.75
2145.714	-37.75
2149.744	-32.75
2153.77	-35.75
2157.793	-46.75
2161.812	-58.75
2165.827	-64.75
2169.838	-32.75
2173.846	-38.75
2177.851	-45.75
2181.851	-27.75
2185.848	-37.75
2189.841	-36.75
2193.831	-39.75
2197.817	-39.75
2201.799	-38.75
2205.778	-50.75
2209.753	-51.75
2213.725	-50.75
2217.693	-37.75
2221.657	-47.75
2225.618	-32.75
2229.575	-45.75
2233.529	-39.75
2237.479	-29.75
2241.425	-45.75
2245.368	-47.75
2249.307	-34.75
2253.243	-43.75
2257.175	-32.75
2261.104	-41.75
2265.029	-30.75
2268.95	-36.75
2272.868	-37.75
2276.783	-42.75
2280.694	-33.75
2284.601	-32.75
2288.505	-37.75
2292.405	-27.75
2296.302	-47.75
2300.195	-37.75
2304.085	-56.75
2307.971	-34.75
2311.854	-52.75
2315.734	-40.75
2319.609	-30.75
2323.482	-56.75
2327.351	-37.75
2331.216	-39.75
2335.078	-32.75
2338.937	-35.75
2342.792	-43.75
2346.643	-43.75
2350.492	-33.75
2354.336	-42.75
2358.178	-37.75
2362.015	-36.75
2365.85	-41.75
2369.681	-35.75
2373.508	-37.75
2377.333	-28.75
2381.153	-35.75
2384.971	-40.75
2388.785	-40.75
2392.595	-47.75
2396.402	-46.75
2400.206	-64.75
2404.007	-48.75
2407.804	-42.75
2411.597	-41.75
2415.388	-42.75
2419.174	-47.75
2422.958	-38.75
2426.738	-41.75
2430.515	-37.75
2434.289	-46.75
2438.059	-44.75
2441.825	-42.75
2445.589	-32.75
2449.349	-51.75
2453.106	-33.75
2456.859	-39.75
2460.61	-38.75
2464.356	-47.75
2468.1	-48.75
2471.84	-45.75
2475.577	-44.75
2479.311	-43.75
2483.041	-40.75
2486.768	-28.75
2490.492	-25.75
2494.213	-35.75
2497.93	-47.75
2501.644	-53.75
2505.355	-38.75
2509.062	-37.75
2512.766	-42.75
2516.467	-47.75
2520.165	-41.75
2523.859	-55.75
2527.551	-22.75
2531.239	-47.75
2534.923	-41.75
2538.605	-43.75
2542.283	-36.75
2545.958	-40.75
2549.63	-30.75
2553.299	-27.75
2556.964	-49.75
2560.626	-41.75
2564.285	-41.75
2567.941	-48.75
2571.594	-44.75
2575.243	-38.75
2578.89	-45.75
2582.533	-41.75
2586.173	-42.75
2589.809	-41.75
2593.443	-63.75
2597.073	-42.75
2600.701	-40.75
2604.325	-39.75
2607.946	-51.75
2611.564	-37.75
2615.178	-37.75
2618.79	-37.75
2622.398	-48.75
2626.004	-40.75
2629.606	-40.75
2633.205	-49.75
2636.801	-34.75
2640.394	-40.75
2643.983	-43.75
2647.57	-43.75
2651.153	-44.75
2654.734	-35.75
2658.311	-55.75
2661.885	-49.75
2665.456	-39.75
2669.025	-40.75
2672.589	-43.75
2676.151	-24.75
2679.71	-26.75
2683.266	-40.75
2686.819	-39.75
2690.368	-33.75
2693.915	-33.75
2697.458	-38.75
2700.999	-29.75
2704.536	-31.75
2708.071	-36.75
2711.602	-31.75
2715.13	-35.75
2718.656	-51.75
2722.178	-33.75
2725.697	-48.75
2729.214	-44.75
2732.727	-43.75
2736.237	-53.75
2739.744	-45.75
2743.249	-49.75
2746.75	-43.75
2750.248	-48.75
2753.743	-40.75
2757.236	-42.75
2760.725	-34.75
2764.211	-65.75
2767.695	-41.75
2771.175	-40.75
2774.652	-35.75
2778.127	-42.75
2781.598	-42.75
2785.067	-35.75
2788.532	-49.75
2791.995	-38.75
2795.455	-51.75
2798.911	-33.75
2802.365	-49.75
2805.816	-39.75
2809.264	-30.75
2812.709	-47.75
2816.151	-39.75
2819.59	-53.75
2823.026	-49.75
2826.46	-48.75
2829.89	-33.75
2833.318	-63.75
2836.742	-48.75
2840.164	-41.75
2843.583	-45.75
2846.999	-44.75
2850.412	-40.75
2853.822	-50.75
2857.229	-36.75
2860.634	-41.75
2864.035	-58.75
2867.434	-35.75
2870.83	-41.75
2874.223	-45.75
2877.613	-45.75
2881	-54.75
2884.385	-52.75
2887.766	-50.75
2891.145	-46.75
2894.521	-49.75
2897.894	-57.75
2901.264	-38.75
2904.631	-41.75
2907.996	-40.75
2911.358	-35.75
2914.717	-40.75
2918.073	-45.75
2921.426	-45.75
2924.777	-58.75
2928.124	-45.75
2931.469	-30.75
2934.811	-57.75
2938.15	-34.75
2941.487	-43.75
2944.821	-33.75
2948.152	-44.75
2951.48	-33.75
2954.805	-55.75
2958.128	-28.75
2961.447	-49.75
2964.765	-31.75
2968.079	-39.75
2971.39	-35.75
2974.699	-37.75
2978.005	-36.75
2981.308	-41.75
2984.609	-47.75
2987.907	-35.75
2991.202	-27.75
2994.494	-46.75
2997.784	-37.75
3001.07	-42.75
3004.355	-43.75
3007.636	-47.75
3010.915	-39.75
3014.191	-46.75
3017.464	-40.75
3020.734	-39.75
3024.002	-38.75
3027.267	-42.75
3030.53	-38.75
3033.789	-40.75
3037.046	-44.75
3040.301	-46.75
3043.552	-39.75
3046.801	-41.75
3050.048	-33.75
3053.291	-27.75
3056.532	-40.75
3059.771	-53.75
3063.006	-34.75
3066.239	-41.75
3069.469	-41.75
3072.697	-48.75
3075.922	-50.75
3079.144	-50.75
3082.364	-29.75
3085.581	-50.75
3088.795	-24.75
3092.007	-34.75
3095.216	-35.75
3098.423	-41.75
3101.627	-65.75
3104.828	-38.75
3108.026	-44.75
3111.222	-33.75
3114.416	-26.75
3117.607	-36.75
3120.795	-39.75
3123.98	-37.75
3127.163	-52.75
3130.344	-45.75
3133.521	-52.75
3136.696	-33.75
3139.869	-41.75
3143.039	-59.75
3146.206	-24.75
3149.371	-35.75
3152.533	-38.75
3155.693	-51.75
3158.85	-37.75
3162.005	-32.75
3165.157	-41.75
3168.306	-42.75
3171.453	-27.75
3174.597	-47.75
3177.739	-50.75
3180.878	-38.75
3184.014	-31.75
3187.149	-40.75
3190.28	-38.75
3193.409	-28.75
3196.536	-35.75
3199.659	-33.75
3202.781	-34.75
3205.9	-49.75
3209.016	-37.75
3212.13	-41.75
3215.241	-41.75
3218.35	-40.75
3221.456	-52.75
3224.56	-53.75
3227.661	-42.75
3230.76	-47.75
3233.856	-49.75
3236.95	-37.75
3240.041	-48.75
3243.13	-40.75
3246.216	-45.75
3249.3	-39.75
3252.382	-40.75
3255.46	-46.75
3258.537	-91.75
3261.611	-57.75
3264.682	-41.75
3267.751	-44.75
3270.818	-57.75
3273.882	-36.75
3276.943	-47.75
3280.002	-35.75
3283.059	-48.75
3286.113	-40.75
3289.165	-47.75
3292.214	-56.75
3295.261	-29.75
3298.306	-54.75
3301.348	-40.75
3304.387	-47.75
3307.425	-38.75
3310.459	-38.75
3313.492	-33.75
3316.521	-34.75
3319.549	-29.75
3322.574	-33.75
3325.597	-36.75
3328.617	-41.75
3331.635	-40.75
3334.65	-56.75
3337.663	-43.75
3340.674	-44.75
3343.682	-37.75
3346.688	-35.75
3349.691	-47.75
3352.692	-40.75
3355.691	-35.75
3358.687	-38.75
3361.681	-36.75
3364.673	-45.75
3367.662	-37.75
3370.649	-27.75
3373.633	-48.75
3376.615	-31.75
3379.595	-50.75
3382.572	-43.75
3385.547	-51.75
3388.52	-49.75
3391.49	-48.75
3394.458	-41.75
3397.424	-34.75
3400.387	-49.75
3403.348	-41.75
3406.307	-43.75
3409.263	-43.75
3412.217	-36.75
3415.168	-39.75
3418.118	-30.75
3421.065	-47.75
3424.009	-28.75
3426.951	-41.75
3429.891	-42.75
3432.829	-36.75
3435.764	-36.75
3438.697	-44.75
3441.628	-27.75
3444.557	-51.75
3447.483	-50.75
3450.407	-32.75
3453.328	-43.75
3456.247	-39.75
3459.164	-44.75
3462.079	-34.75
3464.991	-33.75
3467.902	-37.75
3470.809	-37.75
3473.715	-24.75
3476.618	-39.75
3479.519	-33.75
3482.418	-53.75
3485.315	-49.75
3488.209	-38.75
3491.101	-39.75
3493.99	-51.75
3496.878	-46.75
3499.763	-37.75
3502.646	-37.75
3505.527	-50.75
3508.405	-45.75
3511.281	-52.75
3514.155	-40.75
3517.027	-38.75
3519.897	-51.75
3522.764	-35.75
3525.629	-54.75
3528.492	-41.75
3531.352	-40.75
3534.211	-35.75
3537.067	-41.75
3539.921	-40.75
3542.773	-36.75
3545.622	-43.75
3548.469	-51.75
3551.315	-53.75
3554.157	-43.75
3556.998	-53.75
3559.837	-43.75
3562.673	-41.75
3565.507	-52.75
3568.339	-51.75
3571.169	-50.75
3573.996	-44.75
3576.822	-58.75
3579.645	-53.75
3582.466	-50.75
3585.285	-36.75
3588.101	-39.75
3590.916	-45.75
3593.728	-32.75
3596.538	-42.75
3599.346	-41.75
3602.152	-47.75
3604.956	-38.75
3607.757	-35.75
3610.556	-54.75
3613.354	-35.75
3616.149	-40.75
3618.942	-37.75
3621.732	-27.75
3624.521	-43.75
3627.307	-49.75
3630.092	-43.75
3632.874	-29.75
3635.654	-35.75
3638.432	-44.75
3641.208	-43.75
3643.982	-37.75
3646.753	-31.75
3649.523	-58.75
3652.29	-36.75
3655.055	-31.75
3657.818	-34.75
3660.579	-43.75
3663.338	-45.75
3666.095	-43.75
3668.849	-61.75
3671.602	-31.75
3674.352	-46.75
3677.101	-29.75
3679.847	-29.75
3682.591	-46.75
3685.333	-48.75
3688.073	-37.75
3690.811	-42.75
3693.547	-51.75
3696.281	-54.75
3699.013	-38.75
3701.742	-44.75
3704.47	-51.75
3707.195	-34.75
3709.919	-36.75
3712.64	-42.75
3715.359	-52.75
3718.076	-27.75
3720.792	-45.75
3723.505	-36.75
3726.216	-24.75
3728.925	-36.75
3731.632	-45.75
3734.336	-40.75
3737.039	-38.75
3739.74	-36.75
3742.439	-62.75
3745.136	-29.75
3747.83	-33.75
3750.523	-32.75
3753.213	-92.75
3755.902	-39.75
3758.589	-53.75
3761.273	-38.75
3763.956	-30.75
3766.636	-51.75
3769.315	-28.75
3771.991	-34.75
3774.665	-39.75
3777.338	-36.75
3780.008	-46.75
3782.677	-35.75
3785.343	-54.75
3788.007	-55.75
3790.67	-33.75
3793.33	-47.75
3795.989	-36.75
3798.645	-36.75
3801.299	-47.75
3803.952	-44.75
3806.602	-41.75
3809.251	-31.75
3811.897	-38.75
3814.542	-35.75
3817.184	-42.75
3819.825	-36.75
3822.463	-50.75
3825.1	-41.75
3827.735	-36.75
3830.367	-46.75
3832.998	-24.75
3835.627	-39.75
3838.253	-31.75
3840.878	-41.75
3843.501	-23.75
3846.122	-33.75
3848.741	-33.75
3851.358	-29.75
3853.973	-49.75
3856.586	-28.75
3859.197	-46.75
3861.806	-41.75
3864.414	-51.75
3867.019	-43.75
3869.622	-37.75
3872.224	-35.75
3874.823	-42.75
3877.421	-40.75
3880.016	-51.75
3882.61	-46.75
3885.202	-40.75
3887.792	-36.75
3890.38	-34.75
3892.966	-41.75
3895.55	-48.75
3898.132	-33.75
3900.713	-28.75
3903.291	-31.75
3905.868	-42.75
3908.442	-33.75
3911.015	-29.75
3913.586	-39.75
3916.155	-41.75
3918.722	-44.75
3921.287	-44.75
3923.85	-50.75
3926.411	-43.75
3928.971	-41.75
3931.528	-29.75
3934.084	-37.75
3936.638	-45.75
3939.19	-36.75
3941.74	-36.75
3944.288	-35.75
3946.834	-43.75
3949.378	-31.75
3951.921	-38.75
3954.462	-40.75
3957	-40.75
3959.537	-34.75
3962.072	-46.75
3964.606	-55.75
3967.137	-42.75
3969.667	-42.75
3972.194	-33.75
3974.72	-40.75
3977.244	-60.75
3979.766	-46.75
3982.286	-45.75
3984.805	-36.75
3987.321	-27.75
3989.836	-36.75
3992.349	-49.75
3994.86	-37.75
3997.369	-48.75
3999.877	-43.75
4002.382	-39.75
4004.886	-37.75
4007.388	-37.75
4009.888	-31.75
4012.386	-30.75
4014.883	-37.75
4017.377	-40.75
4019.87	-34.75
4022.361	-47.75
4024.85	-35.75
4027.338	-37.75
4029.823	-45.75
4032.307	-41.75
4034.789	-37.75
4037.269	-39.75
4039.747	-48.75
4042.224	-30.75
4044.699	-44.75
4047.172	-41.75
4049.643	-27.75
4052.112	-62.75
4054.58	-30.75
4057.046	-48.75
4059.51	-38.75
4061.972	-33.75
4064.432	-50.75
4066.891	-28.75
4069.348	-33.75
4071.803	-32.75
4074.256	-39.75
4076.708	-30.75
4079.158	-36.75
4081.606	-26.75
4084.052	-38.75
4086.497	-34.75
4088.939	-35.75
4091.38	-35.75
4093.819	-26.75
4096.257	-0.75
4098.693	-3.75
4101.127	-3.75
4103.559	0.25
4105.989	-41.75
4108.418	-35.75
4110.845	-49.75
4113.27	-38.75
4115.694	-28.75
4118.115	-44.75
4120.535	-34.75
4122.954	-33.75
4125.37	-27.75
4127.785	-36.75
4130.198	-28.75
4132.609	-32.75
4135.019	7.25
4137.427	0.25
4139.833	5.25
4142.237	-4.75
