Data from dark_RamanShift_03.txt Node
Date: Tue Mar 06 11:53:49 GMT+02:00 2018
User: LAB3
Spectrometer: QEPB0276
Trigger mode: 0
Integration Time (sec): 3.000000E1
Scans to average: 1
Electric dark correction enabled: true
Nonlinearity correction enabled: false
Boxcar width: 0
XAxis mode: Raman Shifts
Number of Pixels in Spectrum: 1044
>>>>>Begin Spectral Data<<<<<
160.701	-38.88
166.742	-30.88
172.777	-33.88
178.805	-47.88
184.826	-40.88
190.841	-26.88
196.849	-38.88
202.85	-34.88
208.845	-36.88
214.833	-29.88
220.815	-36.88
226.789	-36.88
232.758	-25.88
238.719	-40.88
244.674	-51.88
250.623	-39.88
256.565	-50.88
262.5	-46.88
268.429	-45.88
274.351	-55.88
280.267	-47.88
286.176	-41.88
292.079	-36.88
297.975	-42.88
303.865	-41.88
309.748	-39.88
315.625	-51.88
321.495	-38.88
327.359	-50.88
333.217	-50.88
339.068	-52.88
344.912	-45.88
350.751	-52.88
356.583	-47.88
362.408	-35.88
368.227	-38.88
374.04	-36.88
379.847	-39.88
385.647	-30.88
391.44	-47.88
397.228	-40.88
403.009	-38.88
408.784	-46.88
414.553	-43.88
420.315	-36.88
426.071	-57.88
431.821	-36.88
437.565	-34.88
443.302	-38.88
449.033	-49.88
454.758	-31.88
460.477	-38.88
466.189	-38.88
471.896	-33.88
477.596	-27.88
483.29	-44.88
488.978	-39.88
494.66	-42.88
500.335	-43.88
506.005	-49.88
511.668	-35.88
517.325	-44.88
522.977	-48.88
528.622	-43.88
534.261	-34.88
539.894	-44.88
545.521	-40.88
551.141	-51.88
556.756	-56.88
562.365	-50.88
567.968	-43.88
573.565	-51.88
579.155	-36.88
584.74	-47.88
590.319	-32.88
595.892	-42.88
601.459	-31.88
607.02	-38.88
612.575	-33.88
618.124	-31.88
623.667	-40.88
629.204	-36.88
634.735	-40.88
640.261	-42.88
645.781	-67.88
651.294	-56.88
656.802	-47.88
662.304	-36.88
667.8	-32.88
673.29	-44.88
678.775	-41.88
684.254	-40.88
689.726	-51.88
695.193	-39.88
700.655	-46.88
706.11	-45.88
711.56	-40.88
717.004	-40.88
722.442	-59.88
727.874	-40.88
733.301	-27.88
738.722	-55.88
744.137	-42.88
749.547	-51.88
754.951	-46.88
760.349	-44.88
765.741	-37.88
771.128	-44.88
776.509	-47.88
781.885	-39.88
787.254	-43.88
792.618	-47.88
797.977	-40.88
803.33	-41.88
808.677	-43.88
814.019	-39.88
819.355	-46.88
824.686	-45.88
830.011	-43.88
835.33	-30.88
840.644	-23.88
845.952	-53.88
851.255	-31.88
856.552	-36.88
861.844	-39.88
867.13	-49.88
872.41	-45.88
877.686	-36.88
882.955	-35.88
888.219	-35.88
893.478	-45.88
898.731	-29.88
903.979	-37.88
909.221	-43.88
914.458	-43.88
919.69	-43.88
924.916	-41.88
930.136	-44.88
935.351	-51.88
940.561	-36.88
945.766	-41.88
950.965	-28.88
956.158	-49.88
961.347	-47.88
966.529	-38.88
971.707	-29.88
976.879	-33.88
982.046	-38.88
987.208	-46.88
992.364	-31.88
997.515	-40.88
1002.66	-43.88
1007.801	-49.88
1012.936	-46.88
1018.066	-62.88
1023.19	-44.88
1028.309	-39.88
1033.423	-40.88
1038.532	-33.88
1043.636	-43.88
1048.734	-37.88
1053.827	-48.88
1058.915	-44.88
1063.998	-38.88
1069.075	-39.88
1074.147	-31.88
1079.214	-51.88
1084.276	-30.88
1089.333	-39.88
1094.385	-29.88
1099.431	-44.88
1104.472	-34.88
1109.509	-44.88
1114.54	-38.88
1119.565	-38.88
1124.586	-32.88
1129.602	-36.88
1134.613	-55.88
1139.618	-44.88
1144.619	-44.88
1149.614	-34.88
1154.604	-45.88
1159.589	-49.88
1164.57	-25.88
1169.545	-26.88
1174.515	-37.88
1179.48	-41.88
1184.44	-32.88
1189.395	-24.88
1194.345	-43.88
1199.29	-30.88
1204.23	-43.88
1209.165	-58.88
1214.095	-33.88
1219.021	-45.88
1223.941	-53.88
1228.856	-40.88
1233.766	-37.88
1238.672	-35.88
1243.572	-33.88
1248.467	-38.88
1253.358	-40.88
1258.244	-50.88
1263.124	-23.88
1268	-24.88
1272.871	-53.88
1277.737	-32.88
1282.599	-39.88
1287.455	-39.88
1292.306	-37.88
1297.153	-52.88
1301.995	-42.88
1306.832	-44.88
1311.664	-37.88
1316.491	-42.88
1321.314	-38.88
1326.132	-44.88
1330.945	-33.88
1335.753	-33.88
1340.556	-39.88
1345.354	-43.88
1350.148	-34.88
1354.937	-35.88
1359.722	-49.88
1364.501	-41.88
1369.276	-35.88
1374.046	-26.88
1378.811	-43.88
1383.572	-31.88
1388.327	-32.88
1393.079	-43.88
1397.825	-46.88
1402.567	-40.88
1407.304	-41.88
1412.036	-44.88
1416.764	-38.88
1421.487	-46.88
1426.205	-48.88
1430.919	-38.88
1435.628	-42.88
1440.333	-49.88
1445.032	-43.88
1449.727	-45.88
1454.418	-36.88
1459.104	-32.88
1463.785	-53.88
1468.462	-34.88
1473.134	-38.88
1477.802	-40.88
1482.465	-52.88
1487.123	-32.88
1491.777	-50.88
1496.426	-57.88
1501.071	-29.88
1505.711	-46.88
1510.347	-33.88
1514.978	-36.88
1519.604	-46.88
1524.226	-28.88
1528.844	-50.88
1533.457	-37.88
1538.065	-37.88
1542.669	-33.88
1547.269	-34.88
1551.864	-34.88
1556.454	-50.88
1561.041	-43.88
1565.622	-43.88
1570.199	-37.88
1574.772	-38.88
1579.34	-40.88
1583.904	-34.88
1588.464	-31.88
1593.019	-28.88
1597.569	-48.88
1602.115	-41.88
1606.657	-43.88
1611.195	-25.88
1615.728	-25.88
1620.256	-38.88
1624.78	-61.88
1629.3	-43.88
1633.816	-35.88
1638.327	-42.88
1642.834	-36.88
1647.336	-44.88
1651.834	-27.88
1656.328	-33.88
1660.817	-42.88
1665.302	-47.88
1669.783	-46.88
1674.259	-43.88
1678.732	-39.88
1683.199	-37.88
1687.663	-46.88
1692.122	-29.88
1696.577	-32.88
1701.028	-28.88
1705.474	-39.88
1709.917	-50.88
1714.355	-35.88
1718.788	-38.88
1723.218	-51.88
1727.643	-50.88
1732.064	-43.88
1736.481	-48.88
1740.893	-32.88
1745.301	-41.88
1749.705	-59.88
1754.105	-35.88
1758.501	-45.88
1762.893	-28.88
1767.28	-52.88
1771.663	-42.88
1776.042	-44.88
1780.417	-42.88
1784.787	-40.88
1789.154	-33.88
1793.516	-30.88
1797.874	-41.88
1802.228	-52.88
1806.578	-60.88
1810.924	-43.88
1815.266	-127.88
1819.603	-33.88
1823.937	-46.88
1828.266	-44.88
1832.591	-38.88
1836.913	-41.88
1841.23	-43.88
1845.543	-48.88
1849.852	-36.88
1854.156	-47.88
1858.457	-44.88
1862.754	-47.88
1867.047	-39.88
1871.335	-27.88
1875.62	-32.88
1879.9	-34.88
1884.177	-46.88
1888.449	-33.88
1892.718	-38.88
1896.982	-28.88
1901.243	-48.88
1905.499	-38.88
1909.752	-39.88
1914	-61.88
1918.245	-30.88
1922.485	-28.88
1926.722	-37.88
1930.954	-46.88
1935.183	-35.88
1939.408	-30.88
1943.628	-34.88
1947.845	-35.88
1952.058	-39.88
1956.267	-47.88
1960.472	-30.88
1964.673	-32.88
1968.87	-35.88
1973.063	-33.88
1977.252	-35.88
1981.438	-41.88
1985.619	-42.88
1989.797	-49.88
1993.971	-43.88
1998.14	-29.88
2002.306	-36.88
2006.469	-35.88
2010.627	-47.88
2014.781	-43.88
2018.932	-50.88
2023.078	-28.88
2027.221	-35.88
2031.36	-43.88
2035.495	-36.88
2039.627	-30.88
2043.754	-34.88
2047.878	-38.88
2051.998	-43.88
2056.114	-40.88
2060.226	-37.88
2064.334	-27.88
2068.439	-30.88
2072.54	-26.88
2076.637	-44.88
2080.73	-42.88
2084.82	-38.88
2088.906	-43.88
2092.988	-36.88
2097.066	-40.88
2101.14	-26.88
2105.211	-35.88
2109.278	-40.88
2113.342	-36.88
2117.401	-41.88
2121.457	-46.88
2125.509	-50.88
2129.558	-36.88
2133.602	-35.88
2137.643	-31.88
2141.681	-38.88
2145.714	-33.88
2149.744	-33.88
2153.77	-27.88
2157.793	-44.88
2161.812	-54.88
2165.827	-60.88
2169.838	-26.88
2173.846	-40.88
2177.851	-40.88
2181.851	-22.88
2185.848	-32.88
2189.841	-31.88
2193.831	-33.88
2197.817	-33.88
2201.799	-37.88
2205.778	-42.88
2209.753	-45.88
2213.725	-47.88
2217.693	-38.88
2221.657	-42.88
2225.618	-34.88
2229.575	-39.88
2233.529	-34.88
2237.479	-31.88
2241.425	-38.88
2245.368	-40.88
2249.307	-30.88
2253.243	-39.88
2257.175	-29.88
2261.104	-38.88
2265.029	-23.88
2268.95	-35.88
2272.868	-35.88
2276.783	-41.88
2280.694	-29.88
2284.601	-32.88
2288.505	-38.88
2292.405	-29.88
2296.302	-48.88
2300.195	-33.88
2304.085	-57.88
2307.971	-36.88
2311.854	-50.88
2315.734	-38.88
2319.609	-31.88
2323.482	-52.88
2327.351	-38.88
2331.216	-44.88
2335.078	-35.88
2338.937	-37.88
2342.792	-38.88
2346.643	-44.88
2350.492	-30.88
2354.336	-39.88
2358.178	-32.88
2362.015	-38.88
2365.85	-39.88
2369.681	-43.88
2373.508	-35.88
2377.333	-30.88
2381.153	-30.88
2384.971	-37.88
2388.785	-34.88
2392.595	-46.88
2396.402	-44.88
2400.206	-58.88
2404.007	-40.88
2407.804	-39.88
2411.597	-33.88
2415.388	-38.88
2419.174	-46.88
2422.958	-41.88
2426.738	-38.88
2430.515	-30.88
2434.289	-46.88
2438.059	-41.88
2441.825	-40.88
2445.589	-28.88
2449.349	-47.88
2453.106	-32.88
2456.859	-34.88
2460.61	-32.88
2464.356	-41.88
2468.1	-40.88
2471.84	-44.88
2475.577	-38.88
2479.311	-36.88
2483.041	-38.88
2486.768	-24.88
2490.492	-26.88
2494.213	-35.88
2497.93	-42.88
2501.644	-53.88
2505.355	-37.88
2509.062	-38.88
2512.766	-40.88
2516.467	-44.88
2520.165	-42.88
2523.859	-52.88
2527.551	-21.88
2531.239	-45.88
2534.923	-39.88
2538.605	-35.88
2542.283	-36.88
2545.958	-33.88
2549.63	-30.88
2553.299	-28.88
2556.964	-47.88
2560.626	-41.88
2564.285	-38.88
2567.941	-49.88
2571.594	-50.88
2575.243	-34.88
2578.89	-46.88
2582.533	-38.88
2586.173	-42.88
2589.809	-36.88
2593.443	-62.88
2597.073	-37.88
2600.701	-36.88
2604.325	-35.88
2607.946	-44.88
2611.564	-32.88
2615.178	-34.88
2618.79	-36.88
2622.398	-49.88
2626.004	-36.88
2629.606	-37.88
2633.205	-43.88
2636.801	-31.88
2640.394	-35.88
2643.983	-38.88
2647.57	-40.88
2651.153	-45.88
2654.734	-28.88
2658.311	-52.88
2661.885	-45.88
2665.456	-38.88
2669.025	-37.88
2672.589	-40.88
2676.151	-26.88
2679.71	-27.88
2683.266	-33.88
2686.819	-43.88
2690.368	-33.88
2693.915	-30.88
2697.458	-36.88
2700.999	-26.88
2704.536	-25.88
2708.071	-30.88
2711.602	-32.88
2715.13	-31.88
2718.656	-44.88
2722.178	-35.88
2725.697	-45.88
2729.214	-40.88
2732.727	-36.88
2736.237	-47.88
2739.744	-45.88
2743.249	-42.88
2746.75	-35.88
2750.248	-45.88
2753.743	-38.88
2757.236	-41.88
2760.725	-26.88
2764.211	-63.88
2767.695	-36.88
2771.175	-39.88
2774.652	-32.88
2778.127	-43.88
2781.598	-41.88
2785.067	-40.88
2788.532	-45.88
2791.995	-36.88
2795.455	-45.88
2798.911	-34.88
2802.365	-42.88
2805.816	-37.88
2809.264	-26.88
2812.709	-43.88
2816.151	-35.88
2819.59	-49.88
2823.026	-40.88
2826.46	-44.88
2829.89	-32.88
2833.318	-59.88
2836.742	-43.88
2840.164	-37.88
2843.583	-42.88
2846.999	-37.88
2850.412	-35.88
2853.822	-46.88
2857.229	-27.88
2860.634	-38.88
2864.035	-54.88
2867.434	-38.88
2870.83	-33.88
2874.223	-42.88
2877.613	-44.88
2881	-48.88
2884.385	-48.88
2887.766	-44.88
2891.145	-40.88
2894.521	-45.88
2897.894	-54.88
2901.264	-40.88
2904.631	-42.88
2907.996	-40.88
2911.358	-33.88
2914.717	-37.88
2918.073	-44.88
2921.426	-48.88
2924.777	-61.88
2928.124	-51.88
2931.469	-32.88
2934.811	-56.88
2938.15	-31.88
2941.487	-46.88
2944.821	-26.88
2948.152	-48.88
2951.48	-38.88
2954.805	-48.88
2958.128	-31.88
2961.447	-44.88
2964.765	-30.88
2968.079	-43.88
2971.39	-38.88
2974.699	-40.88
2978.005	-35.88
2981.308	-38.88
2984.609	-44.88
2987.907	-33.88
2991.202	-31.88
2994.494	-47.88
2997.784	-34.88
3001.07	-39.88
3004.355	-40.88
3007.636	-34.88
3010.915	-40.88
3014.191	-42.88
3017.464	-29.88
3020.734	-35.88
3024.002	-33.88
3027.267	-36.88
3030.53	-35.88
3033.789	-38.88
3037.046	-38.88
3040.301	-46.88
3043.552	-35.88
3046.801	-33.88
3050.048	-32.88
3053.291	-19.88
3056.532	-35.88
3059.771	-49.88
3063.006	-38.88
3066.239	-40.88
3069.469	-37.88
3072.697	-44.88
3075.922	-46.88
3079.144	-48.88
3082.364	-25.88
3085.581	-48.88
3088.795	-24.88
3092.007	-34.88
3095.216	-27.88
3098.423	-43.88
3101.627	-60.88
3104.828	-37.88
3108.026	-48.88
3111.222	-26.88
3114.416	-26.88
3117.607	-37.88
3120.795	-38.88
3123.98	-39.88
3127.163	-50.88
3130.344	-46.88
3133.521	-49.88
3136.696	-36.88
3139.869	-42.88
3143.039	-61.88
3146.206	-24.88
3149.371	-32.88
3152.533	-35.88
3155.693	-53.88
3158.85	-37.88
3162.005	-36.88
3165.157	-42.88
3168.306	-44.88
3171.453	-31.88
3174.597	-47.88
3177.739	-48.88
3180.878	-36.88
3184.014	-36.88
3187.149	-38.88
3190.28	-35.88
3193.409	-37.88
3196.536	-31.88
3199.659	-28.88
3202.781	-28.88
3205.9	-45.88
3209.016	-35.88
3212.13	-40.88
3215.241	-32.88
3218.35	-39.88
3221.456	-46.88
3224.56	-53.88
3227.661	-40.88
3230.76	-43.88
3233.856	-42.88
3236.95	-38.88
3240.041	-47.88
3243.13	-33.88
3246.216	-37.88
3249.3	-32.88
3252.382	-39.88
3255.46	-43.88
3258.537	-90.88
3261.611	-50.88
3264.682	-41.88
3267.751	-44.88
3270.818	-52.88
3273.882	-35.88
3276.943	-41.88
3280.002	-31.88
3283.059	-48.88
3286.113	-39.88
3289.165	-44.88
3292.214	-52.88
3295.261	-30.88
3298.306	-52.88
3301.348	-37.88
3304.387	-51.88
3307.425	-41.88
3310.459	-42.88
3313.492	-30.88
3316.521	-36.88
3319.549	-30.88
3322.574	-31.88
3325.597	-40.88
3328.617	-45.88
3331.635	-38.88
3334.65	-48.88
3337.663	-39.88
3340.674	-39.88
3343.682	-39.88
3346.688	-32.88
3349.691	-46.88
3352.692	-47.88
3355.691	-37.88
3358.687	-37.88
3361.681	-33.88
3364.673	-39.88
3367.662	-33.88
3370.649	-29.88
3373.633	-49.88
3376.615	-29.88
3379.595	-52.88
3382.572	-44.88
3385.547	-44.88
3388.52	-48.88
3391.49	-43.88
3394.458	-36.88
3397.424	-34.88
3400.387	-48.88
3403.348	-34.88
3406.307	-36.88
3409.263	-42.88
3412.217	-27.88
3415.168	-32.88
3418.118	-25.88
3421.065	-34.88
3424.009	-28.88
3426.951	-36.88
3429.891	-37.88
3432.829	-36.88
3435.764	-28.88
3438.697	-42.88
3441.628	-23.88
3444.557	-44.88
3447.483	-42.88
3450.407	-26.88
3453.328	-40.88
3456.247	-35.88
3459.164	-45.88
3462.079	-23.88
3464.991	-34.88
3467.902	-35.88
3470.809	-36.88
3473.715	-26.88
3476.618	-39.88
3479.519	-33.88
3482.418	-54.88
3485.315	-44.88
3488.209	-36.88
3491.101	-39.88
3493.99	-51.88
3496.878	-45.88
3499.763	-39.88
3502.646	-36.88
3505.527	-47.88
3508.405	-46.88
3511.281	-54.88
3514.155	-42.88
3517.027	-40.88
3519.897	-43.88
3522.764	-34.88
3525.629	-53.88
3528.492	-39.88
3531.352	-36.88
3534.211	-41.88
3537.067	-46.88
3539.921	-35.88
3542.773	-28.88
3545.622	-46.88
3548.469	-44.88
3551.315	-49.88
3554.157	-39.88
3556.998	-45.88
3559.837	-39.88
3562.673	-32.88
3565.507	-45.88
3568.339	-48.88
3571.169	-43.88
3573.996	-38.88
3576.822	-54.88
3579.645	-50.88
3582.466	-45.88
3585.285	-31.88
3588.101	-41.88
3590.916	-41.88
3593.728	-30.88
3596.538	-39.88
3599.346	-30.88
3602.152	-43.88
3604.956	-35.88
3607.757	-32.88
3610.556	-48.88
3613.354	-30.88
3616.149	-38.88
3618.942	-29.88
3621.732	-28.88
3624.521	-43.88
3627.307	-46.88
3630.092	-42.88
3632.874	-26.88
3635.654	-38.88
3638.432	-39.88
3641.208	-41.88
3643.982	-37.88
3646.753	-28.88
3649.523	-61.88
3652.29	-36.88
3655.055	-26.88
3657.818	-33.88
3660.579	-32.88
3663.338	-40.88
3666.095	-40.88
3668.849	-58.88
3671.602	-32.88
3674.352	-48.88
3677.101	-28.88
3679.847	-27.88
3682.591	-37.88
3685.333	-47.88
3688.073	-27.88
3690.811	-51.88
3693.547	-49.88
3696.281	-49.88
3699.013	-33.88
3701.742	-41.88
3704.47	-50.88
3707.195	-35.88
3709.919	-40.88
3712.64	-34.88
3715.359	-47.88
3718.076	-23.88
3720.792	-43.88
3723.505	-33.88
3726.216	-23.88
3728.925	-43.88
3731.632	-41.88
3734.336	-37.88
3737.039	-36.88
3739.74	-38.88
3742.439	-60.88
3745.136	-34.88
3747.83	-30.88
3750.523	-32.88
3753.213	-92.88
3755.902	-36.88
3758.589	-49.88
3761.273	-35.88
3763.956	-26.88
3766.636	-47.88
3769.315	-27.88
3771.991	-29.88
3774.665	-44.88
3777.338	-37.88
3780.008	-36.88
3782.677	-36.88
3785.343	-45.88
3788.007	-49.88
3790.67	-28.88
3793.33	-49.88
3795.989	-33.88
3798.645	-35.88
3801.299	-43.88
3803.952	-45.88
3806.602	-39.88
3809.251	-28.88
3811.897	-32.88
3814.542	-40.88
3817.184	-38.88
3819.825	-36.88
3822.463	-45.88
3825.1	-36.88
3827.735	-33.88
3830.367	-42.88
3832.998	-21.88
3835.627	-35.88
3838.253	-29.88
3840.878	-37.88
3843.501	-19.88
3846.122	-29.88
3848.741	-26.88
3851.358	-20.88
3853.973	-49.88
3856.586	-31.88
3859.197	-40.88
3861.806	-36.88
3864.414	-45.88
3867.019	-42.88
3869.622	-34.88
3872.224	-43.88
3874.823	-45.88
3877.421	-40.88
3880.016	-53.88
3882.61	-47.88
3885.202	-37.88
3887.792	-35.88
3890.38	-32.88
3892.966	-43.88
3895.55	-47.88
3898.132	-32.88
3900.713	-34.88
3903.291	-31.88
3905.868	-44.88
3908.442	-28.88
3911.015	-33.88
3913.586	-43.88
3916.155	-36.88
3918.722	-36.88
3921.287	-40.88
3923.85	-50.88
3926.411	-40.88
3928.971	-42.88
3931.528	-27.88
3934.084	-36.88
3936.638	-45.88
3939.19	-28.88
3941.74	-27.88
3944.288	-37.88
3946.834	-36.88
3949.378	-27.88
3951.921	-42.88
3954.462	-33.88
3957	-33.88
3959.537	-26.88
3962.072	-36.88
3964.606	-48.88
3967.137	-34.88
3969.667	-37.88
3972.194	-26.88
3974.72	-40.88
3977.244	-53.88
3979.766	-43.88
3982.286	-42.88
3984.805	-33.88
3987.321	-24.88
3989.836	-32.88
3992.349	-37.88
3994.86	-38.88
3997.369	-39.88
3999.877	-43.88
4002.382	-41.88
4004.886	-37.88
4007.388	-31.88
4009.888	-29.88
4012.386	-25.88
4014.883	-34.88
4017.377	-32.88
4019.87	-31.88
4022.361	-41.88
4024.85	-35.88
4027.338	-32.88
4029.823	-39.88
4032.307	-35.88
4034.789	-37.88
4037.269	-35.88
4039.747	-47.88
4042.224	-26.88
4044.699	-42.88
4047.172	-38.88
4049.643	-23.88
4052.112	-56.88
4054.58	-32.88
4057.046	-43.88
4059.51	-30.88
4061.972	-36.88
4064.432	-51.88
4066.891	-25.88
4069.348	-31.88
4071.803	-30.88
4074.256	-38.88
4076.708	-29.88
4079.158	-34.88
4081.606	-23.88
4084.052	-39.88
4086.497	-28.88
4088.939	-38.88
4091.38	-40.88
4093.819	-27.88
4096.257	-0.88
4098.693	-7.88
4101.127	-4.88
4103.559	2.12
4105.989	-42.88
4108.418	-36.88
4110.845	-44.88
4113.27	-32.88
4115.694	-30.88
4118.115	-39.88
4120.535	-33.88
4122.954	-31.88
4125.37	-23.88
4127.785	-29.88
4130.198	-28.88
4132.609	-31.88
4135.019	7.12
4137.427	0.12
4139.833	8.12
4142.237	-3.88
