Data from dark_RamanShift_01.txt Node
Date: Tue Mar 06 11:52:49 GMT+02:00 2018
User: LAB3
Spectrometer: QEPB0276
Trigger mode: 0
Integration Time (sec): 3.000000E1
Scans to average: 1
Electric dark correction enabled: true
Nonlinearity correction enabled: false
Boxcar width: 0
XAxis mode: Raman Shifts
Number of Pixels in Spectrum: 1044
>>>>>Begin Spectral Data<<<<<
160.701	-42.88
166.742	-25.88
172.777	-33.88
178.805	-52.88
184.826	-50.88
190.841	-33.88
196.849	-44.88
202.85	-35.88
208.845	-42.88
214.833	-32.88
220.815	-35.88
226.789	-37.88
232.758	-35.88
238.719	-41.88
244.674	-53.88
250.623	-50.88
256.565	-51.88
262.5	-46.88
268.429	-47.88
274.351	-53.88
280.267	-44.88
286.176	-48.88
292.079	-41.88
297.975	-43.88
303.865	-44.88
309.748	-43.88
315.625	-46.88
321.495	-40.88
327.359	-48.88
333.217	-46.88
339.068	-54.88
344.912	-41.88
350.751	-44.88
356.583	-45.88
362.408	-35.88
368.227	-33.88
374.04	-32.88
379.847	-34.88
385.647	-29.88
391.44	-48.88
397.228	-51.88
403.009	-34.88
408.784	-49.88
414.553	-38.88
420.315	-34.88
426.071	-54.88
431.821	-32.88
437.565	-29.88
443.302	-41.88
449.033	-51.88
454.758	-35.88
460.477	-43.88
466.189	-43.88
471.896	-37.88
477.596	-31.88
483.29	-51.88
488.978	-47.88
494.66	-47.88
500.335	-49.88
506.005	-51.88
511.668	-42.88
517.325	-48.88
522.977	-51.88
528.622	-48.88
534.261	-44.88
539.894	-50.88
545.521	-40.88
551.141	-54.88
556.756	-54.88
562.365	-51.88
567.968	-47.88
573.565	-55.88
579.155	-37.88
584.74	-52.88
590.319	-42.88
595.892	-36.88
601.459	-35.88
607.02	-42.88
612.575	-37.88
618.124	-26.88
623.667	-41.88
629.204	-42.88
634.735	-38.88
640.261	-50.88
645.781	-62.88
651.294	-50.88
656.802	-45.88
662.304	-33.88
667.8	-30.88
673.29	-40.88
678.775	-38.88
684.254	-43.88
689.726	-52.88
695.193	-39.88
700.655	-41.88
706.11	-45.88
711.56	-42.88
717.004	-38.88
722.442	-57.88
727.874	-40.88
733.301	-30.88
738.722	-55.88
744.137	-40.88
749.547	-51.88
754.951	-47.88
760.349	-47.88
765.741	-37.88
771.128	-49.88
776.509	-48.88
781.885	-41.88
787.254	-37.88
792.618	-48.88
797.977	-42.88
803.33	-39.88
808.677	-47.88
814.019	-39.88
819.355	-43.88
824.686	-53.88
830.011	-52.88
835.33	-33.88
840.644	-27.88
845.952	-53.88
851.255	-35.88
856.552	-37.88
861.844	-40.88
867.13	-50.88
872.41	-49.88
877.686	-34.88
882.955	-42.88
888.219	-42.88
893.478	-48.88
898.731	-35.88
903.979	-37.88
909.221	-44.88
914.458	-50.88
919.69	-48.88
924.916	-46.88
930.136	-47.88
935.351	-52.88
940.561	-43.88
945.766	-42.88
950.965	-35.88
956.158	-48.88
961.347	-53.88
966.529	-44.88
971.707	-33.88
976.879	-34.88
982.046	-37.88
987.208	-49.88
992.364	-32.88
997.515	-38.88
1002.66	-38.88
1007.801	-48.88
1012.936	-45.88
1018.066	-63.88
1023.19	-40.88
1028.309	-37.88
1033.423	-38.88
1038.532	-27.88
1043.636	-45.88
1048.734	-35.88
1053.827	-40.88
1058.915	-46.88
1063.998	-38.88
1069.075	-39.88
1074.147	-32.88
1079.214	-52.88
1084.276	-35.88
1089.333	-35.88
1094.385	-31.88
1099.431	-48.88
1104.472	-36.88
1109.509	-49.88
1114.54	-43.88
1119.565	-41.88
1124.586	-31.88
1129.602	-42.88
1134.613	-53.88
1139.618	-45.88
1144.619	-45.88
1149.614	-41.88
1154.604	-53.88
1159.589	-48.88
1164.57	-31.88
1169.545	-33.88
1174.515	-36.88
1179.48	-42.88
1184.44	-41.88
1189.395	-28.88
1194.345	-47.88
1199.29	-29.88
1204.23	-48.88
1209.165	-56.88
1214.095	-40.88
1219.021	-50.88
1223.941	-58.88
1228.856	-49.88
1233.766	-39.88
1238.672	-39.88
1243.572	-40.88
1248.467	-34.88
1253.358	-40.88
1258.244	-51.88
1263.124	-29.88
1268	-24.88
1272.871	-43.88
1277.737	-35.88
1282.599	-38.88
1287.455	-41.88
1292.306	-34.88
1297.153	-50.88
1301.995	-38.88
1306.832	-46.88
1311.664	-38.88
1316.491	-45.88
1321.314	-38.88
1326.132	-42.88
1330.945	-36.88
1335.753	-36.88
1340.556	-37.88
1345.354	-37.88
1350.148	-36.88
1354.937	-38.88
1359.722	-48.88
1364.501	-46.88
1369.276	-34.88
1374.046	-24.88
1378.811	-41.88
1383.572	-37.88
1388.327	-29.88
1393.079	-52.88
1397.825	-43.88
1402.567	-39.88
1407.304	-43.88
1412.036	-45.88
1416.764	-37.88
1421.487	-49.88
1426.205	-49.88
1430.919	-39.88
1435.628	-43.88
1440.333	-50.88
1445.032	-39.88
1449.727	-46.88
1454.418	-40.88
1459.104	-36.88
1463.785	-55.88
1468.462	-34.88
1473.134	-36.88
1477.802	-33.88
1482.465	-60.88
1487.123	-37.88
1491.777	-58.88
1496.426	-58.88
1501.071	-33.88
1505.711	-48.88
1510.347	-39.88
1514.978	-34.88
1519.604	-43.88
1524.226	-31.88
1528.844	-48.88
1533.457	-33.88
1538.065	-39.88
1542.669	-38.88
1547.269	-40.88
1551.864	-36.88
1556.454	-50.88
1561.041	-43.88
1565.622	-45.88
1570.199	-39.88
1574.772	-41.88
1579.34	-38.88
1583.904	-37.88
1588.464	-30.88
1593.019	-28.88
1597.569	-44.88
1602.115	-47.88
1606.657	-44.88
1611.195	-27.88
1615.728	-25.88
1620.256	-43.88
1624.78	-58.88
1629.3	-41.88
1633.816	-43.88
1638.327	-44.88
1642.834	-35.88
1647.336	-42.88
1651.834	-30.88
1656.328	-39.88
1660.817	-40.88
1665.302	-47.88
1669.783	-46.88
1674.259	-47.88
1678.732	-43.88
1683.199	-38.88
1687.663	-45.88
1692.122	-29.88
1696.577	-26.88
1701.028	-26.88
1705.474	-37.88
1709.917	-44.88
1714.355	-43.88
1718.788	-43.88
1723.218	-50.88
1727.643	-55.88
1732.064	-36.88
1736.481	-51.88
1740.893	-35.88
1745.301	-40.88
1749.705	-66.88
1754.105	-40.88
1758.501	-47.88
1762.893	-32.88
1767.28	-55.88
1771.663	-45.88
1776.042	-48.88
1780.417	-54.88
1784.787	-36.88
1789.154	-35.88
1793.516	-42.88
1797.874	-45.88
1802.228	-51.88
1806.578	-58.88
1810.924	-45.88
1815.266	-128.88
1819.603	-33.88
1823.937	-48.88
1828.266	-43.88
1832.591	-34.88
1836.913	-40.88
1841.23	-46.88
1845.543	-50.88
1849.852	-39.88
1854.156	-48.88
1858.457	-44.88
1862.754	-53.88
1867.047	-43.88
1871.335	-30.88
1875.62	-35.88
1879.9	-33.88
1884.177	-50.88
1888.449	-40.88
1892.718	-35.88
1896.982	-32.88
1901.243	-48.88
1905.499	-37.88
1909.752	-45.88
1914	-57.88
1918.245	-32.88
1922.485	-33.88
1926.722	-43.88
1930.954	-48.88
1935.183	-38.88
1939.408	-31.88
1943.628	-35.88
1947.845	-42.88
1952.058	-42.88
1956.267	-49.88
1960.472	-32.88
1964.673	-36.88
1968.87	-40.88
1973.063	-37.88
1977.252	-40.88
1981.438	-42.88
1985.619	-43.88
1989.797	-55.88
1993.971	-46.88
1998.14	-31.88
2002.306	-40.88
2006.469	-36.88
2010.627	-47.88
2014.781	-47.88
2018.932	-52.88
2023.078	-29.88
2027.221	-37.88
2031.36	-47.88
2035.495	-45.88
2039.627	-41.88
2043.754	-34.88
2047.878	-39.88
2051.998	-42.88
2056.114	-39.88
2060.226	-39.88
2064.334	-34.88
2068.439	-28.88
2072.54	-30.88
2076.637	-45.88
2080.73	-37.88
2084.82	-37.88
2088.906	-41.88
2092.988	-38.88
2097.066	-32.88
2101.14	-22.88
2105.211	-26.88
2109.278	-37.88
2113.342	-39.88
2117.401	-45.88
2121.457	-43.88
2125.509	-49.88
2129.558	-30.88
2133.602	-38.88
2137.643	-37.88
2141.681	-38.88
2145.714	-35.88
2149.744	-35.88
2153.77	-33.88
2157.793	-49.88
2161.812	-62.88
2165.827	-58.88
2169.838	-26.88
2173.846	-43.88
2177.851	-45.88
2181.851	-31.88
2185.848	-34.88
2189.841	-33.88
2193.831	-39.88
2197.817	-38.88
2201.799	-35.88
2205.778	-47.88
2209.753	-50.88
2213.725	-52.88
2217.693	-42.88
2221.657	-49.88
2225.618	-37.88
2229.575	-38.88
2233.529	-35.88
2237.479	-34.88
2241.425	-46.88
2245.368	-47.88
2249.307	-37.88
2253.243	-43.88
2257.175	-34.88
2261.104	-35.88
2265.029	-27.88
2268.95	-31.88
2272.868	-37.88
2276.783	-41.88
2280.694	-28.88
2284.601	-33.88
2288.505	-34.88
2292.405	-26.88
2296.302	-50.88
2300.195	-32.88
2304.085	-59.88
2307.971	-35.88
2311.854	-51.88
2315.734	-40.88
2319.609	-31.88
2323.482	-52.88
2327.351	-41.88
2331.216	-35.88
2335.078	-31.88
2338.937	-35.88
2342.792	-40.88
2346.643	-45.88
2350.492	-33.88
2354.336	-39.88
2358.178	-33.88
2362.015	-34.88
2365.85	-40.88
2369.681	-38.88
2373.508	-38.88
2377.333	-29.88
2381.153	-35.88
2384.971	-41.88
2388.785	-36.88
2392.595	-43.88
2396.402	-43.88
2400.206	-64.88
2404.007	-44.88
2407.804	-41.88
2411.597	-42.88
2415.388	-40.88
2419.174	-42.88
2422.958	-41.88
2426.738	-39.88
2430.515	-33.88
2434.289	-48.88
2438.059	-45.88
2441.825	-42.88
2445.589	-35.88
2449.349	-54.88
2453.106	-36.88
2456.859	-36.88
2460.61	-35.88
2464.356	-43.88
2468.1	-48.88
2471.84	-47.88
2475.577	-44.88
2479.311	-41.88
2483.041	-36.88
2486.768	-28.88
2490.492	-28.88
2494.213	-39.88
2497.93	-46.88
2501.644	-50.88
2505.355	-44.88
2509.062	-40.88
2512.766	-39.88
2516.467	-40.88
2520.165	-43.88
2523.859	-49.88
2527.551	-18.88
2531.239	-44.88
2534.923	-37.88
2538.605	-40.88
2542.283	-34.88
2545.958	-36.88
2549.63	-29.88
2553.299	-30.88
2556.964	-48.88
2560.626	-42.88
2564.285	-37.88
2567.941	-52.88
2571.594	-47.88
2575.243	-35.88
2578.89	-45.88
2582.533	-38.88
2586.173	-40.88
2589.809	-34.88
2593.443	-66.88
2597.073	-42.88
2600.701	-38.88
2604.325	-39.88
2607.946	-46.88
2611.564	-36.88
2615.178	-40.88
2618.79	-39.88
2622.398	-49.88
2626.004	-36.88
2629.606	-36.88
2633.205	-50.88
2636.801	-37.88
2640.394	-39.88
2643.983	-42.88
2647.57	-43.88
2651.153	-46.88
2654.734	-29.88
2658.311	-59.88
2661.885	-51.88
2665.456	-41.88
2669.025	-40.88
2672.589	-47.88
2676.151	-29.88
2679.71	-33.88
2683.266	-37.88
2686.819	-42.88
2690.368	-37.88
2693.915	-34.88
2697.458	-39.88
2700.999	-34.88
2704.536	-33.88
2708.071	-35.88
2711.602	-35.88
2715.13	-35.88
2718.656	-50.88
2722.178	-31.88
2725.697	-50.88
2729.214	-45.88
2732.727	-33.88
2736.237	-50.88
2739.744	-42.88
2743.249	-47.88
2746.75	-43.88
2750.248	-40.88
2753.743	-33.88
2757.236	-39.88
2760.725	-32.88
2764.211	-64.88
2767.695	-33.88
2771.175	-36.88
2774.652	-37.88
2778.127	-39.88
2781.598	-40.88
2785.067	-37.88
2788.532	-49.88
2791.995	-37.88
2795.455	-43.88
2798.911	-30.88
2802.365	-44.88
2805.816	-36.88
2809.264	-32.88
2812.709	-40.88
2816.151	-35.88
2819.59	-49.88
2823.026	-40.88
2826.46	-41.88
2829.89	-33.88
2833.318	-57.88
2836.742	-43.88
2840.164	-40.88
2843.583	-42.88
2846.999	-46.88
2850.412	-41.88
2853.822	-47.88
2857.229	-34.88
2860.634	-43.88
2864.035	-55.88
2867.434	-39.88
2870.83	-35.88
2874.223	-46.88
2877.613	-46.88
2881	-55.88
2884.385	-49.88
2887.766	-48.88
2891.145	-45.88
2894.521	-49.88
2897.894	-60.88
2901.264	-39.88
2904.631	-45.88
2907.996	-41.88
2911.358	-38.88
2914.717	-41.88
2918.073	-42.88
2921.426	-46.88
2924.777	-63.88
2928.124	-50.88
2931.469	-38.88
2934.811	-58.88
2938.15	-38.88
2941.487	-40.88
2944.821	-29.88
2948.152	-46.88
2951.48	-39.88
2954.805	-54.88
2958.128	-31.88
2961.447	-44.88
2964.765	-28.88
2968.079	-35.88
2971.39	-37.88
2974.699	-37.88
2978.005	-37.88
2981.308	-34.88
2984.609	-49.88
2987.907	-33.88
2991.202	-29.88
2994.494	-47.88
2997.784	-34.88
3001.07	-34.88
3004.355	-39.88
3007.636	-42.88
3010.915	-34.88
3014.191	-39.88
3017.464	-37.88
3020.734	-40.88
3024.002	-33.88
3027.267	-40.88
3030.53	-34.88
3033.789	-40.88
3037.046	-39.88
3040.301	-51.88
3043.552	-40.88
3046.801	-36.88
3050.048	-31.88
3053.291	-19.88
3056.532	-38.88
3059.771	-53.88
3063.006	-35.88
3066.239	-41.88
3069.469	-35.88
3072.697	-45.88
3075.922	-54.88
3079.144	-54.88
3082.364	-29.88
3085.581	-49.88
3088.795	-31.88
3092.007	-33.88
3095.216	-35.88
3098.423	-43.88
3101.627	-63.88
3104.828	-41.88
3108.026	-49.88
3111.222	-31.88
3114.416	-28.88
3117.607	-37.88
3120.795	-40.88
3123.98	-43.88
3127.163	-51.88
3130.344	-47.88
3133.521	-50.88
3136.696	-33.88
3139.869	-38.88
3143.039	-59.88
3146.206	-28.88
3149.371	-33.88
3152.533	-36.88
3155.693	-48.88
3158.85	-35.88
3162.005	-33.88
3165.157	-42.88
3168.306	-42.88
3171.453	-31.88
3174.597	-55.88
3177.739	-47.88
3180.878	-36.88
3184.014	-37.88
3187.149	-39.88
3190.28	-37.88
3193.409	-28.88
3196.536	-39.88
3199.659	-30.88
3202.781	-28.88
3205.9	-49.88
3209.016	-38.88
3212.13	-43.88
3215.241	-44.88
3218.35	-39.88
3221.456	-47.88
3224.56	-48.88
3227.661	-39.88
3230.76	-41.88
3233.856	-46.88
3236.95	-34.88
3240.041	-50.88
3243.13	-33.88
3246.216	-38.88
3249.3	-32.88
3252.382	-43.88
3255.46	-46.88
3258.537	-92.88
3261.611	-55.88
3264.682	-37.88
3267.751	-42.88
3270.818	-51.88
3273.882	-37.88
3276.943	-50.88
3280.002	-29.88
3283.059	-55.88
3286.113	-43.88
3289.165	-45.88
3292.214	-52.88
3295.261	-35.88
3298.306	-51.88
3301.348	-40.88
3304.387	-51.88
3307.425	-36.88
3310.459	-39.88
3313.492	-31.88
3316.521	-38.88
3319.549	-24.88
3322.574	-30.88
3325.597	-41.88
3328.617	-44.88
3331.635	-38.88
3334.65	-52.88
3337.663	-37.88
3340.674	-42.88
3343.682	-41.88
3346.688	-33.88
3349.691	-41.88
3352.692	-42.88
3355.691	-39.88
3358.687	-35.88
3361.681	-35.88
3364.673	-43.88
3367.662	-33.88
3370.649	-25.88
3373.633	-43.88
3376.615	-31.88
3379.595	-49.88
3382.572	-43.88
3385.547	-48.88
3388.52	-45.88
3391.49	-40.88
3394.458	-40.88
3397.424	-41.88
3400.387	-50.88
3403.348	-38.88
3406.307	-38.88
3409.263	-40.88
3412.217	-32.88
3415.168	-37.88
3418.118	-26.88
3421.065	-41.88
3424.009	-28.88
3426.951	-42.88
3429.891	-42.88
3432.829	-38.88
3435.764	-38.88
3438.697	-44.88
3441.628	-31.88
3444.557	-49.88
3447.483	-53.88
3450.407	-35.88
3453.328	-43.88
3456.247	-39.88
3459.164	-48.88
3462.079	-27.88
3464.991	-33.88
3467.902	-40.88
3470.809	-37.88
3473.715	-28.88
3476.618	-37.88
3479.519	-28.88
3482.418	-54.88
3485.315	-40.88
3488.209	-39.88
3491.101	-36.88
3493.99	-49.88
3496.878	-42.88
3499.763	-36.88
3502.646	-38.88
3505.527	-46.88
3508.405	-40.88
3511.281	-50.88
3514.155	-38.88
3517.027	-36.88
3519.897	-47.88
3522.764	-36.88
3525.629	-55.88
3528.492	-34.88
3531.352	-35.88
3534.211	-39.88
3537.067	-48.88
3539.921	-41.88
3542.773	-32.88
3545.622	-51.88
3548.469	-45.88
3551.315	-45.88
3554.157	-38.88
3556.998	-48.88
3559.837	-40.88
3562.673	-38.88
3565.507	-50.88
3568.339	-48.88
3571.169	-41.88
3573.996	-42.88
3576.822	-55.88
3579.645	-51.88
3582.466	-47.88
3585.285	-40.88
3588.101	-40.88
3590.916	-40.88
3593.728	-33.88
3596.538	-40.88
3599.346	-38.88
3602.152	-45.88
3604.956	-37.88
3607.757	-36.88
3610.556	-44.88
3613.354	-30.88
3616.149	-36.88
3618.942	-35.88
3621.732	-29.88
3624.521	-44.88
3627.307	-47.88
3630.092	-39.88
3632.874	-30.88
3635.654	-36.88
3638.432	-46.88
3641.208	-38.88
3643.982	-40.88
3646.753	-31.88
3649.523	-57.88
3652.29	-41.88
3655.055	-34.88
3657.818	-38.88
3660.579	-34.88
3663.338	-47.88
3666.095	-41.88
3668.849	-65.88
3671.602	-31.88
3674.352	-49.88
3677.101	-32.88
3679.847	-28.88
3682.591	-43.88
3685.333	-48.88
3688.073	-39.88
3690.811	-41.88
3693.547	-49.88
3696.281	-53.88
3699.013	-39.88
3701.742	-42.88
3704.47	-51.88
3707.195	-35.88
3709.919	-38.88
3712.64	-39.88
3715.359	-48.88
3718.076	-23.88
3720.792	-40.88
3723.505	-36.88
3726.216	-23.88
3728.925	-37.88
3731.632	-44.88
3734.336	-45.88
3737.039	-38.88
3739.74	-37.88
3742.439	-56.88
3745.136	-31.88
3747.83	-36.88
3750.523	-34.88
3753.213	-92.88
3755.902	-38.88
3758.589	-45.88
3761.273	-37.88
3763.956	-27.88
3766.636	-49.88
3769.315	-24.88
3771.991	-37.88
3774.665	-44.88
3777.338	-32.88
3780.008	-45.88
3782.677	-38.88
3785.343	-53.88
3788.007	-53.88
3790.67	-29.88
3793.33	-44.88
3795.989	-43.88
3798.645	-30.88
3801.299	-49.88
3803.952	-48.88
3806.602	-36.88
3809.251	-32.88
3811.897	-35.88
3814.542	-39.88
3817.184	-41.88
3819.825	-35.88
3822.463	-48.88
3825.1	-38.88
3827.735	-35.88
3830.367	-42.88
3832.998	-25.88
3835.627	-39.88
3838.253	-25.88
3840.878	-45.88
3843.501	-21.88
3846.122	-33.88
3848.741	-31.88
3851.358	-31.88
3853.973	-47.88
3856.586	-31.88
3859.197	-43.88
3861.806	-38.88
3864.414	-50.88
3867.019	-42.88
3869.622	-38.88
3872.224	-42.88
3874.823	-42.88
3877.421	-42.88
3880.016	-52.88
3882.61	-47.88
3885.202	-41.88
3887.792	-36.88
3890.38	-34.88
3892.966	-50.88
3895.55	-54.88
3898.132	-31.88
3900.713	-30.88
3903.291	-35.88
3905.868	-48.88
3908.442	-36.88
3911.015	-38.88
3913.586	-41.88
3916.155	-39.88
3918.722	-43.88
3921.287	-49.88
3923.85	-49.88
3926.411	-45.88
3928.971	-41.88
3931.528	-34.88
3934.084	-39.88
3936.638	-47.88
3939.19	-34.88
3941.74	-30.88
3944.288	-43.88
3946.834	-38.88
3949.378	-28.88
3951.921	-40.88
3954.462	-37.88
3957	-33.88
3959.537	-29.88
3962.072	-40.88
3964.606	-52.88
3967.137	-41.88
3969.667	-43.88
3972.194	-32.88
3974.72	-37.88
3977.244	-59.88
3979.766	-42.88
3982.286	-43.88
3984.805	-33.88
3987.321	-29.88
3989.836	-34.88
3992.349	-41.88
3994.86	-39.88
3997.369	-41.88
3999.877	-36.88
4002.382	-41.88
4004.886	-35.88
4007.388	-31.88
4009.888	-27.88
4012.386	-26.88
4014.883	-35.88
4017.377	-38.88
4019.87	-31.88
4022.361	-43.88
4024.85	-37.88
4027.338	-34.88
4029.823	-45.88
4032.307	-40.88
4034.789	-36.88
4037.269	-39.88
4039.747	-51.88
4042.224	-27.88
4044.699	-43.88
4047.172	-43.88
4049.643	-34.88
4052.112	-61.88
4054.58	-32.88
4057.046	-46.88
4059.51	-40.88
4061.972	-34.88
4064.432	-59.88
4066.891	-28.88
4069.348	-39.88
4071.803	-36.88
4074.256	-42.88
4076.708	-34.88
4079.158	-33.88
4081.606	-25.88
4084.052	-38.88
4086.497	-35.88
4088.939	-35.88
4091.38	-39.88
4093.819	-32.88
4096.257	2.12
4098.693	-4.88
4101.127	-5.88
4103.559	-0.88
4105.989	-44.88
4108.418	-29.88
4110.845	-47.88
4113.27	-38.88
4115.694	-28.88
4118.115	-45.88
4120.535	-35.88
4122.954	-25.88
4125.37	-23.88
4127.785	-33.88
4130.198	-29.88
4132.609	-34.88
4135.019	10.12
4137.427	1.12
4139.833	3.12
4142.237	-4.88
