Data from Water3_10000000CFU_RamanShift_11-11-18-915_RamanShift_14-26-58-206.txt Node
Date: Sun Dec 18 14:26:58 IST 2016
User: aro
Spectrometer: QEPB0276
Trigger mode: 0
Integration Time (sec): 5.000000E0
Scans to average: 1
Electric dark correction enabled: true
Nonlinearity correction enabled: false
Boxcar width: 0
XAxis mode: Raman Shifts
Number of Pixels in Spectrum: 1044
>>>>>Begin Spectral Data<<<<<
160.701	2.12
166.742	19.12
172.777	68.12
178.805	197.12
184.826	601.12
190.841	1464.12
196.849	2711.12
202.85	3841.12
208.845	4464.12
214.833	4479.12
220.815	4316.12
226.789	4158.12
232.758	4042.12
238.719	3918.12
244.674	3795.12
250.623	3639.12
256.565	3477.12
262.5	3311.12
268.429	3182.12
274.351	3047.12
280.267	2929.12
286.176	2836.12
292.079	2714.12
297.975	2613.12
303.865	2530.12
309.748	2434.12
315.625	2394.12
321.495	2347.12
327.359	2315.12
333.217	2284.12
339.068	2244.12
344.912	2211.12
350.751	2209.12
356.583	2204.12
362.408	2192.12
368.227	2190.12
374.04	2186.12
379.847	2201.12
385.647	2215.12
391.44	2200.12
397.228	2236.12
403.009	2235.12
408.784	2242.12
414.553	2237.12
420.315	2260.12
426.071	2250.12
431.821	2261.12
437.565	2271.12
443.302	2259.12
449.033	2242.12
454.758	2244.12
460.477	2240.12
466.189	2217.12
471.896	2214.12
477.596	2207.12
483.29	2214.12
488.978	2189.12
494.66	2158.12
500.335	2162.12
506.005	2130.12
511.668	2074.12
517.325	2064.12
522.977	2024.12
528.622	1987.12
534.261	1966.12
539.894	1938.12
545.521	1912.12
551.141	1904.12
556.756	1908.12
562.365	1887.12
567.968	1879.12
573.565	1864.12
579.155	1857.12
584.74	1846.12
590.319	1829.12
595.892	1823.12
601.459	1820.12
607.02	1804.12
612.575	1782.12
618.124	1768.12
623.667	1754.12
629.204	1742.12
634.735	1716.12
640.261	1703.12
645.781	1691.12
651.294	1691.12
656.802	1680.12
662.304	1675.12
667.8	1667.12
673.29	1648.12
678.775	1640.12
684.254	1663.12
689.726	1635.12
695.193	1625.12
700.655	1623.12
706.11	1593.12
711.56	1593.12
717.004	1600.12
722.442	1576.12
727.874	1567.12
733.301	1567.12
738.722	1540.12
744.137	1538.12
749.547	1528.12
754.951	1536.12
760.349	1534.12
765.741	1514.12
771.128	1526.12
776.509	1527.12
781.885	1531.12
787.254	1521.12
792.618	1511.12
797.977	1518.12
803.33	1491.12
808.677	1503.12
814.019	1488.12
819.355	1445.12
824.686	1443.12
830.011	1436.12
835.33	1433.12
840.644	1429.12
845.952	1406.12
851.255	1395.12
856.552	1393.12
861.844	1391.12
867.13	1385.12
872.41	1387.12
877.686	1355.12
882.955	1353.12
888.219	1344.12
893.478	1310.12
898.731	1298.12
903.979	1288.12
909.221	1265.12
914.458	1258.12
919.69	1252.12
924.916	1243.12
930.136	1229.12
935.351	1245.12
940.561	1239.12
945.766	1232.12
950.965	1222.12
956.158	1225.12
961.347	1203.12
966.529	1191.12
971.707	1171.12
976.879	1161.12
982.046	1161.12
987.208	1153.12
992.364	1136.12
997.515	1147.12
1002.66	1145.12
1007.801	1163.12
1012.936	1164.12
1018.066	1162.12
1023.19	1177.12
1028.309	1193.12
1033.423	1195.12
1038.532	1172.12
1043.636	1172.12
1048.734	1158.12
1053.827	1155.12
1058.915	1140.12
1063.998	1140.12
1069.075	1126.12
1074.147	1121.12
1079.214	1141.12
1084.276	1146.12
1089.333	1151.12
1094.385	1140.12
1099.431	1160.12
1104.472	1171.12
1109.509	1158.12
1114.54	1151.12
1119.565	1139.12
1124.586	1143.12
1129.602	1118.12
1134.613	1106.12
1139.618	1103.12
1144.619	1109.12
1149.614	1103.12
1154.604	1113.12
1159.589	1107.12
1164.57	1127.12
1169.545	1118.12
1174.515	1135.12
1179.48	1135.12
1184.44	1125.12
1189.395	1127.12
1194.345	1108.12
1199.29	1105.12
1204.23	1097.12
1209.165	1106.12
1214.095	1114.12
1219.021	1131.12
1223.941	1132.12
1228.856	1147.12
1233.766	1135.12
1238.672	1136.12
1243.572	1155.12
1248.467	1144.12
1253.358	1136.12
1258.244	1106.12
1263.124	1121.12
1268	1091.12
1272.871	1078.12
1277.737	1072.12
1282.599	1059.12
1287.455	1066.12
1292.306	1076.12
1297.153	1079.12
1301.995	1079.12
1306.832	1086.12
1311.664	1095.12
1316.491	1088.12
1321.314	1101.12
1326.132	1086.12
1330.945	1098.12
1335.753	1064.12
1340.556	1041.12
1345.354	1051.12
1350.148	1033.12
1354.937	1013.12
1359.722	1005.12
1364.501	999.12
1369.276	992.12
1374.046	983.12
1378.811	977.12
1383.572	984.12
1388.327	979.12
1393.079	987.12
1397.825	986.12
1402.567	977.12
1407.304	981.12
1412.036	974.12
1416.764	982.12
1421.487	971.12
1426.205	979.12
1430.919	979.12
1435.628	971.12
1440.333	982.12
1445.032	983.12
1449.727	1004.12
1454.418	992.12
1459.104	1009.12
1463.785	1001.12
1468.462	989.12
1473.134	983.12
1477.802	981.12
1482.465	981.12
1487.123	969.12
1491.777	955.12
1496.426	975.12
1501.071	970.12
1505.711	978.12
1510.347	991.12
1514.978	989.12
1519.604	1014.12
1524.226	1016.12
1528.844	1016.12
1533.457	1017.12
1538.065	999.12
1542.669	1016.12
1547.269	1026.12
1551.864	1016.12
1556.454	1006.12
1561.041	1037.12
1565.622	1045.12
1570.199	1052.12
1574.772	1070.12
1579.34	1091.12
1583.904	1108.12
1588.464	1126.12
1593.019	1152.12
1597.569	1164.12
1602.115	1181.12
1606.657	1183.12
1611.195	1198.12
1615.728	1190.12
1620.256	1226.12
1624.78	1227.12
1629.3	1237.12
1633.816	1254.12
1638.327	1263.12
1642.834	1310.12
1647.336	1293.12
1651.834	1300.12
1656.328	1311.12
1660.817	1300.12
1665.302	1288.12
1669.783	1265.12
1674.259	1235.12
1678.732	1193.12
1683.199	1180.12
1687.663	1134.12
1692.122	1093.12
1696.577	1068.12
1701.028	1011.12
1705.474	970.12
1709.917	937.12
1714.355	911.12
1718.788	896.12
1723.218	881.12
1727.643	870.12
1732.064	852.12
1736.481	833.12
1740.893	818.12
1745.301	795.12
1749.705	774.12
1754.105	757.12
1758.501	732.12
1762.893	736.12
1767.28	715.12
1771.663	711.12
1776.042	712.12
1780.417	703.12
1784.787	697.12
1789.154	702.12
1793.516	702.12
1797.874	707.12
1802.228	701.12
1806.578	695.12
1810.924	667.12
1815.266	669.12
1819.603	654.12
1823.937	645.12
1828.266	657.12
1832.591	650.12
1836.913	651.12
1841.23	630.12
1845.543	631.12
1849.852	643.12
1854.156	638.12
1858.457	655.12
1862.754	639.12
1867.047	640.12
1871.335	652.12
1875.62	646.12
1879.9	645.12
1884.177	640.12
1888.449	640.12
1892.718	644.12
1896.982	646.12
1901.243	635.12
1905.499	634.12
1909.752	623.12
1914	621.12
1918.245	631.12
1922.485	626.12
1926.722	635.12
1930.954	626.12
1935.183	626.12
1939.408	630.12
1943.628	632.12
1947.845	647.12
1952.058	641.12
1956.267	646.12
1960.472	636.12
1964.673	620.12
1968.87	619.12
1973.063	619.12
1977.252	612.12
1981.438	601.12
1985.619	606.12
1989.797	610.12
1993.971	610.12
1998.14	613.12
2002.306	610.12
2006.469	609.12
2010.627	621.12
2014.781	623.12
2018.932	624.12
2023.078	630.12
2027.221	629.12
2031.36	629.12
2035.495	624.12
2039.627	604.12
2043.754	602.12
2047.878	612.12
2051.998	599.12
2056.114	620.12
2060.226	614.12
2064.334	597.12
2068.439	607.12
2072.54	616.12
2076.637	610.12
2080.73	618.12
2084.82	616.12
2088.906	620.12
2092.988	613.12
2097.066	619.12
2101.14	612.12
2105.211	602.12
2109.278	613.12
2113.342	594.12
2117.401	606.12
2121.457	605.12
2125.509	595.12
2129.558	595.12
2133.602	596.12
2137.643	591.12
2141.681	592.12
2145.714	586.12
2149.744	592.12
2153.77	580.12
2157.793	578.12
2161.812	577.12
2165.827	560.12
2169.838	557.12
2173.846	556.12
2177.851	532.12
2181.851	534.12
2185.848	537.12
2189.841	538.12
2193.831	525.12
2197.817	529.12
2201.799	518.12
2205.778	520.12
2209.753	514.12
2213.725	521.12
2217.693	513.12
2221.657	519.12
2225.618	509.12
2229.575	511.12
2233.529	515.12
2237.479	505.12
2241.425	509.12
2245.368	503.12
2249.307	488.12
2253.243	489.12
2257.175	480.12
2261.104	471.12
2265.029	469.12
2268.95	464.12
2272.868	454.12
2276.783	452.12
2280.694	452.12
2284.601	441.12
2288.505	440.12
2292.405	430.12
2296.302	438.12
2300.195	429.12
2304.085	419.12
2307.971	425.12
2311.854	418.12
2315.734	399.12
2319.609	392.12
2323.482	396.12
2327.351	377.12
2331.216	380.12
2335.078	385.12
2338.937	381.12
2342.792	370.12
2346.643	374.12
2350.492	371.12
2354.336	376.12
2358.178	363.12
2362.015	377.12
2365.85	379.12
2369.681	380.12
2373.508	383.12
2377.333	382.12
2381.153	379.12
2384.971	378.12
2388.785	376.12
2392.595	376.12
2396.402	368.12
2400.206	370.12
2404.007	376.12
2407.804	367.12
2411.597	360.12
2415.388	365.12
2419.174	362.12
2422.958	359.12
2426.738	366.12
2430.515	364.12
2434.289	352.12
2438.059	363.12
2441.825	368.12
2445.589	352.12
2449.349	354.12
2453.106	350.12
2456.859	345.12
2460.61	349.12
2464.356	335.12
2468.1	338.12
2471.84	337.12
2475.577	337.12
2479.311	343.12
2483.041	339.12
2486.768	336.12
2490.492	341.12
2494.213	340.12
2497.93	336.12
2501.644	339.12
2505.355	345.12
2509.062	323.12
2512.766	328.12
2516.467	332.12
2520.165	327.12
2523.859	325.12
2527.551	320.12
2531.239	323.12
2534.923	321.12
2538.605	317.12
2542.283	310.12
2545.958	307.12
2549.63	309.12
2553.299	308.12
2556.964	306.12
2560.626	303.12
2564.285	305.12
2567.941	301.12
2571.594	302.12
2575.243	299.12
2578.89	298.12
2582.533	297.12
2586.173	296.12
2589.809	293.12
2593.443	294.12
2597.073	287.12
2600.701	291.12
2604.325	288.12
2607.946	280.12
2611.564	280.12
2615.178	290.12
2618.79	281.12
2622.398	277.12
2626.004	281.12
2629.606	277.12
2633.205	271.12
2636.801	276.12
2640.394	264.12
2643.983	266.12
2647.57	261.12
2651.153	275.12
2654.734	263.12
2658.311	262.12
2661.885	258.12
2665.456	255.12
2669.025	256.12
2672.589	249.12
2676.151	258.12
2679.71	257.12
2683.266	257.12
2686.819	254.12
2690.368	241.12
2693.915	246.12
2697.458	250.12
2700.999	243.12
2704.536	232.12
2708.071	231.12
2711.602	232.12
2715.13	227.12
2718.656	232.12
2722.178	227.12
2725.697	234.12
2729.214	225.12
2732.727	230.12
2736.237	221.12
2739.744	228.12
2743.249	229.12
2746.75	233.12
2750.248	231.12
2753.743	227.12
2757.236	232.12
2760.725	231.12
2764.211	225.12
2767.695	224.12
2771.175	223.12
2774.652	224.12
2778.127	223.12
2781.598	215.12
2785.067	219.12
2788.532	225.12
2791.995	224.12
2795.455	219.12
2798.911	221.12
2802.365	221.12
2805.816	222.12
2809.264	223.12
2812.709	228.12
2816.151	231.12
2819.59	229.12
2823.026	229.12
2826.46	228.12
2829.89	229.12
2833.318	229.12
2836.742	228.12
2840.164	233.12
2843.583	232.12
2846.999	233.12
2850.412	231.12
2853.822	239.12
2857.229	242.12
2860.634	243.12
2864.035	237.12
2867.434	249.12
2870.83	243.12
2874.223	251.12
2877.613	252.12
2881	254.12
2884.385	256.12
2887.766	263.12
2891.145	259.12
2894.521	261.12
2897.894	259.12
2901.264	266.12
2904.631	259.12
2907.996	263.12
2911.358	264.12
2914.717	272.12
2918.073	261.12
2921.426	282.12
2924.777	284.12
2928.124	273.12
2931.469	293.12
2934.811	286.12
2938.15	293.12
2941.487	297.12
2944.821	302.12
2948.152	300.12
2951.48	311.12
2954.805	312.12
2958.128	316.12
2961.447	322.12
2964.765	321.12
2968.079	327.12
2971.39	336.12
2974.699	343.12
2978.005	349.12
2981.308	353.12
2984.609	359.12
2987.907	361.12
2991.202	383.12
2994.494	388.12
2997.784	395.12
3001.07	404.12
3004.355	414.12
3007.636	426.12
3010.915	434.12
3014.191	441.12
3017.464	456.12
3020.734	451.12
3024.002	471.12
3027.267	480.12
3030.53	485.12
3033.789	475.12
3037.046	495.12
3040.301	503.12
3043.552	520.12
3046.801	526.12
3050.048	529.12
3053.291	557.12
3056.532	570.12
3059.771	585.12
3063.006	609.12
3066.239	612.12
3069.469	635.12
3072.697	659.12
3075.922	672.12
3079.144	681.12
3082.364	694.12
3085.581	719.12
3088.795	727.12
3092.007	757.12
3095.216	770.12
3098.423	783.12
3101.627	804.12
3104.828	816.12
3108.026	828.12
3111.222	850.12
3114.416	886.12
3117.607	881.12
3120.795	909.12
3123.98	917.12
3127.163	937.12
3130.344	973.12
3133.521	982.12
3136.696	1015.12
3139.869	1028.12
3143.039	1059.12
3146.206	1057.12
3149.371	1082.12
3152.533	1090.12
3155.693	1101.12
3158.85	1103.12
3162.005	1104.12
3165.157	1120.12
3168.306	1121.12
3171.453	1140.12
3174.597	1116.12
3177.739	1117.12
3180.878	1134.12
3184.014	1132.12
3187.149	1140.12
3190.28	1138.12
3193.409	1155.12
3196.536	1162.12
3199.659	1150.12
3202.781	1155.12
3205.9	1156.12
3209.016	1170.12
3212.13	1167.12
3215.241	1153.12
3218.35	1149.12
3221.456	1139.12
3224.56	1146.12
3227.661	1125.12
3230.76	1111.12
3233.856	1093.12
3236.95	1093.12
3240.041	1082.12
3243.13	1081.12
3246.216	1069.12
3249.3	1053.12
3252.382	1053.12
3255.46	1046.12
3258.537	1034.12
3261.611	1030.12
3264.682	1028.12
3267.751	1018.12
3270.818	1017.12
3273.882	1026.12
3276.943	1017.12
3280.002	1013.12
3283.059	999.12
3286.113	1005.12
3289.165	975.12
3292.214	965.12
3295.261	963.12
3298.306	943.12
3301.348	929.12
3304.387	921.12
3307.425	916.12
3310.459	888.12
3313.492	883.12
3316.521	861.12
3319.549	873.12
3322.574	850.12
3325.597	857.12
3328.617	844.12
3331.635	829.12
3334.65	831.12
3337.663	827.12
3340.674	837.12
3343.682	826.12
3346.688	830.12
3349.691	817.12
3352.692	811.12
3355.691	805.12
3358.687	802.12
3361.681	801.12
3364.673	781.12
3367.662	778.12
3370.649	767.12
3373.633	761.12
3376.615	750.12
3379.595	743.12
3382.572	730.12
3385.547	723.12
3388.52	723.12
3391.49	719.12
3394.458	696.12
3397.424	687.12
3400.387	675.12
3403.348	674.12
3406.307	660.12
3409.263	657.12
3412.217	656.12
3415.168	642.12
3418.118	635.12
3421.065	638.12
3424.009	624.12
3426.951	613.12
3429.891	609.12
3432.829	595.12
3435.764	591.12
3438.697	575.12
3441.628	566.12
3444.557	562.12
3447.483	535.12
3450.407	514.12
3453.328	501.12
3456.247	502.12
3459.164	478.12
3462.079	466.12
3464.991	458.12
3467.902	438.12
3470.809	435.12
3473.715	424.12
3476.618	402.12
3479.519	392.12
3482.418	388.12
3485.315	372.12
3488.209	365.12
3491.101	357.12
3493.99	344.12
3496.878	337.12
3499.763	329.12
3502.646	310.12
3505.527	297.12
3508.405	294.12
3511.281	288.12
3514.155	268.12
3517.027	269.12
3519.897	261.12
3522.764	246.12
3525.629	231.12
3528.492	223.12
3531.352	220.12
3534.211	202.12
3537.067	191.12
3539.921	185.12
3542.773	180.12
3545.622	165.12
3548.469	154.12
3551.315	146.12
3554.157	136.12
3556.998	134.12
3559.837	129.12
3562.673	116.12
3565.507	116.12
3568.339	117.12
3571.169	103.12
3573.996	97.12
3576.822	99.12
3579.645	89.12
3582.466	90.12
3585.285	81.12
3588.101	78.12
3590.916	76.12
3593.728	64.12
3596.538	65.12
3599.346	56.12
3602.152	53.12
3604.956	48.12
3607.757	49.12
3610.556	42.12
3613.354	36.12
3616.149	34.12
3618.942	32.12
3621.732	29.12
3624.521	29.12
3627.307	23.12
3630.092	15.12
3632.874	8.12
3635.654	10.12
3638.432	5.12
3641.208	11.12
3643.982	5.12
3646.753	-0.88
3649.523	-2.88
3652.29	-2.88
3655.055	-1.88
3657.818	-8.88
3660.579	-10.88
3663.338	-13.88
3666.095	-17.88
3668.849	-7.88
3671.602	-18.88
3674.352	-18.88
3677.101	-16.88
3679.847	-22.88
3682.591	-25.88
3685.333	-25.88
3688.073	-26.88
3690.811	-30.88
3693.547	-31.88
3696.281	-33.88
3699.013	-36.88
3701.742	-35.88
3704.47	-30.88
3707.195	-36.88
3709.919	-41.88
3712.64	-38.88
3715.359	-44.88
3718.076	-44.88
3720.792	-43.88
3723.505	-44.88
3726.216	-42.88
3728.925	-39.88
3731.632	-44.88
3734.336	-46.88
3737.039	-44.88
3739.74	-46.88
3742.439	-46.88
3745.136	-49.88
3747.83	-49.88
3750.523	-53.88
3753.213	-50.88
3755.902	-53.88
3758.589	-49.88
3761.273	-54.88
3763.956	-50.88
3766.636	-52.88
3769.315	-54.88
3771.991	-52.88
3774.665	-52.88
3777.338	-56.88
3780.008	-57.88
3782.677	-54.88
3785.343	-55.88
3788.007	-55.88
3790.67	-55.88
3793.33	-53.88
3795.989	-57.88
3798.645	-56.88
3801.299	-54.88
3803.952	-55.88
3806.602	-59.88
3809.251	-62.88
3811.897	-59.88
3814.542	-60.88
3817.184	-59.88
3819.825	-55.88
3822.463	-62.88
3825.1	-61.88
3827.735	-66.88
3830.367	-65.88
3832.998	-63.88
3835.627	-63.88
3838.253	-61.88
3840.878	-62.88
3843.501	-59.88
3846.122	-58.88
3848.741	-60.88
3851.358	-58.88
3853.973	-59.88
3856.586	-59.88
3859.197	-58.88
3861.806	-60.88
3864.414	-62.88
3867.019	-64.88
3869.622	-64.88
3872.224	-58.88
3874.823	-63.88
3877.421	-61.88
3880.016	-62.88
3882.61	-60.88
3885.202	-60.88
3887.792	-61.88
3890.38	-63.88
3892.966	-61.88
3895.55	-65.88
3898.132	-62.88
3900.713	-61.88
3903.291	-63.88
3905.868	-65.88
3908.442	-63.88
3911.015	-60.88
3913.586	-64.88
3916.155	-62.88
3918.722	-64.88
3921.287	-61.88
3923.85	-63.88
3926.411	-67.88
3928.971	-65.88
3931.528	-69.88
3934.084	-67.88
3936.638	-67.88
3939.19	-68.88
3941.74	-64.88
3944.288	-69.88
3946.834	-69.88
3949.378	-69.88
3951.921	-67.88
3954.462	-64.88
3957	-63.88
3959.537	-62.88
3962.072	-62.88
3964.606	-60.88
3967.137	-64.88
3969.667	-62.88
3972.194	-68.88
3974.72	-66.88
3977.244	-63.88
3979.766	-67.88
3982.286	-62.88
3984.805	-66.88
3987.321	-67.88
3989.836	-67.88
3992.349	-67.88
3994.86	-65.88
3997.369	-67.88
3999.877	-65.88
4002.382	-66.88
4004.886	-64.88
4007.388	-68.88
4009.888	-59.88
4012.386	-59.88
4014.883	-64.88
4017.377	-67.88
4019.87	-62.88
4022.361	-64.88
4024.85	-65.88
4027.338	-63.88
4029.823	-64.88
4032.307	-69.88
4034.789	-68.88
4037.269	-67.88
4039.747	-67.88
4042.224	-68.88
4044.699	-69.88
4047.172	-69.88
4049.643	-69.88
4052.112	-68.88
4054.58	-68.88
4057.046	-67.88
4059.51	-64.88
4061.972	-63.88
4064.432	-62.88
4066.891	-64.88
4069.348	-65.88
4071.803	-62.88
4074.256	-61.88
4076.708	-63.88
4079.158	-62.88
4081.606	-66.88
4084.052	-66.88
4086.497	-66.88
4088.939	-67.88
4091.38	-68.88
4093.819	-62.88
4096.257	-65.88
4098.693	-71.88
4101.127	-65.88
4103.559	-68.88
4105.989	-14.88
4108.418	-12.88
4110.845	-11.88
4113.27	-9.88
4115.694	-6.88
4118.115	-5.88
4120.535	-68.88
4122.954	-66.88
4125.37	-68.88
4127.785	-67.88
4130.198	-66.88
4132.609	-67.88
4135.019	-71.88
4137.427	-72.88
4139.833	-72.88
4142.237	-68.88
