##TITLE=C106_R2
##FORMAT=SPECTACLE-ASCII V-1.2
##DATA TYPE=ULTRAVIOLET SPECTRUM
##SECOND TYPE=ULTRAVIOLET SPECTRUM
##DATE=05/28/18
##TIME=15:02:00
##SPECTROMETER/DATA SYSTEM=SPECTACLE
##XUNITS=NM EM
##YUNITS=ENERGY
##YFACTOR=1
##FIRSTX=220
##LASTX=410
##NPOINTS=96
##3DDATA=Equidistant
##ZUNITS=NM EX
##FIRSTZ=210
##LASTZ=400
##ZPOINTS=39
##XYDATA=(Y..Y)
##ZVALUE=210
341.786742
300.985575
195.631981
95.623732
66.597462
51.891804
56.002736
61.299801
68.795681
72.813630
75.665712
79.002976
86.335540
86.288452
88.838935
91.312528
99.564791
102.079511
107.749701
119.427443
132.054687
143.345594
150.918961
169.683695
180.847645
198.266506
212.872624
238.075852
249.883533
273.165703
295.488834
318.854451
354.377627
383.703709
426.068902
457.447767
500.837564
534.489751
581.216812
612.195730
646.926761
688.808560
725.162029
755.224824
782.762766
818.398595
832.065940
866.115689
900.794864
903.540850
924.080610
933.162570
956.853032
951.609015
974.719524
962.792635
968.892574
979.036689
968.719721
949.896574
955.055952
953.486562
937.631726
960.624814
992.857814
1016.005874
1016.005874
1016.005874
1016.005874
1016.005874
1016.005874
1016.005874
1016.005874
1016.005874
1016.005874
1016.005874
1016.005874
1016.005874
1016.005874
1016.005874
1016.005874
1016.005874
903.821588
788.135529
669.517517
607.101917
563.803911
523.953438
507.185459
508.338809
529.363751
575.639606
663.615465
762.656927
933.243036
1016.005874
##ZVALUE=215
1016.005874
1016.005874
1016.005874
944.257975
592.852831
298.796892
168.944001
99.108815
90.569854
96.869469
99.467635
99.437833
95.521808
98.795891
99.681616
101.139545
108.501911
109.653473
119.119883
124.874711
137.726665
142.351985
157.691836
175.717473
189.885497
208.203793
221.634507
243.718624
261.563659
286.293626
302.219987
338.290930
373.623967
417.219996
456.396937
508.344769
562.037826
640.171766
681.868792
738.601685
798.829794
850.299597
901.260972
956.027508
1002.124548
1016.005874
1016.005874
1016.005874
1016.005874
1016.005874
1016.005874
1016.005874
1016.005874
1016.005874
1016.005874
1016.005874
1016.005874
1016.005874
1016.005874
1016.005874
1016.005874
1016.005874
1016.005874
1016.005874
1016.005874
1016.005874
1016.005874
1016.005874
1016.005874
1016.005874
1016.005874
1016.005874
1016.005874
1016.005874
1016.005874
1016.005874
1016.005874
1016.005874
1016.005874
1016.005874
1016.005874
1003.972888
895.575881
786.672831
713.016987
637.615919
607.490540
560.424924
545.871854
524.358749
509.755015
486.626625
480.967760
492.908955
529.379845
616.215467
##ZVALUE=220
1016.005874
1016.005874
1016.005874
1016.005874
1016.005874
1016.005874
1016.005874
812.611580
417.519808
208.660960
125.054717
117.983818
112.889409
110.983849
107.023716
104.555488
107.979774
107.762814
115.275979
116.550922
122.744441
131.340623
143.890977
156.572461
167.717934
183.357000
198.222995
214.053988
227.946639
254.176855
278.044939
310.931802
342.047811
401.461720
452.027917
532.960892
595.120788
692.953467
750.406981
841.064453
911.752582
1004.621983
1016.005874
1016.005874
1016.005874
1016.005874
1016.005874
1016.005874
1016.005874
1016.005874
1016.005874
1016.005874
1016.005874
1016.005874
1016.005874
1016.005874
1016.005874
1016.005874
1016.005874
1016.005874
1016.005874
1016.005874
1016.005874
1016.005874
1016.005874
1016.005874
1016.005874
1016.005874
1016.005874
1016.005874
1016.005874
1016.005874
1016.005874
1016.005874
1016.005874
1016.005874
1016.005874
1016.005874
1016.005874
1016.005874
1016.005874
999.033451
911.586881
799.986720
738.324523
672.808886
640.320778
595.168471
568.636656
535.620451
517.334938
492.639542
478.533506
448.739529
442.621708
435.042977
##ZVALUE=225
1016.005874
1016.005874
1016.005874
1016.005874
1016.005874
1016.005874
1016.005874
1016.005874
1016.005874
1016.005874
904.843807
380.210876
164.426565
145.903826
138.319731
133.715868
122.599602
120.891929
117.287636
114.523768
118.760467
127.586722
135.205984
145.119429
149.401426
164.738894
176.233649
191.325545
204.138756
221.618414
243.580937
283.435583
329.691768
402.698517
465.492606
564.322472
656.172633
776.553750
872.415900
998.567939
1016.005874
1016.005874
1016.005874
1016.005874
1016.005874
1016.005874
1016.005874
1016.005874
1016.005874
1016.005874
1016.005874
1016.005874
1016.005874
1016.005874
1016.005874
1016.005874
1016.005874
1016.005874
1016.005874
1016.005874
1016.005874
1016.005874
1016.005874
1016.005874
1016.005874
1016.005874
1016.005874
1016.005874
1016.005874
1016.005874
1016.005874
1016.005874
1016.005874
1016.005874
1016.005874
1016.005874
1016.005874
1016.005874
1016.005874
1016.005874
1016.005874
1013.960838
936.311483
850.852728
792.717934
722.215772
679.648519
632.762909
609.620810
566.830635
543.378592
515.599847
490.532517
479.239821
454.282761
443.226695
##ZVALUE=230
1016.005874
1016.005874
1016.005874
1016.005874
1016.005874
1016.005874
1016.005874
1016.005874
1016.005874
1016.005874
1016.005874
1016.005874
1016.005874
790.485740
275.352001
176.459551
166.238546
161.870718
152.365565
146.064758
142.285824
138.078928
133.873820
139.440894
142.683983
154.086947
158.982873
175.228715
183.392763
198.369622
227.512717
252.947807
307.926536
377.815962
482.978821
563.031435
687.359571
789.341927
938.639641
1016.005874
1016.005874
1016.005874
1016.005874
1016.005874
1016.005874
1016.005874
1016.005874
1016.005874
1016.005874
1016.005874
1016.005874
1016.005874
1016.005874
1016.005874
1016.005874
1016.005874
1016.005874
1016.005874
1016.005874
1016.005874
1016.005874
1016.005874
1016.005874
1016.005874
1016.005874
1016.005874
1016.005874
1016.005874
1016.005874
1016.005874
1016.005874
1016.005874
1016.005874
1016.005874
1016.005874
1016.005874
1016.005874
1016.005874
1016.005874
1016.005874
1016.005874
1008.768678
917.931795
850.508809
776.292682
732.661486
674.433708
643.778443
598.733425
571.769476
534.460545
512.745976
486.055613
472.728610
448.451638
437.068939
##ZVALUE=235
870.039463
973.346829
1016.005874
1016.005874
1016.005874
1016.005874
1016.005874
1016.005874
1016.005874
1016.005874
1016.005874
1016.005874
1016.005874
1016.005874
1016.005874
1016.005874
447.181463
230.198503
198.752880
192.277431
187.069774
175.705552
167.129636
157.620907
155.911446
154.347420
157.300830
165.614486
168.562531
186.851621
202.251673
233.859420
271.936655
330.756903
388.879776
482.173562
557.145476
662.861466
742.125511
857.090950
948.475003
1016.005874
1016.005874
1016.005874
1016.005874
1016.005874
1016.005874
1016.005874
1016.005874
1016.005874
1016.005874
1016.005874
1016.005874
1016.005874
1016.005874
1016.005874
1016.005874
1016.005874
1016.005874
1016.005874
1016.005874
1016.005874
1016.005874
1016.005874
1016.005874
1016.005874
1016.005874
1016.005874
1016.005874
1016.005874
1016.005874
1016.005874
1016.005874
1016.005874
1016.005874
1016.005874
1016.005874
1016.005874
1016.005874
981.068015
897.674561
796.637535
735.839009
669.853687
627.977848
586.356521
558.539629
531.217456
502.050519
474.850535
453.509688
435.083508
423.380733
404.513478
394.213796
377.467871
##ZVALUE=240
39.258599
52.109361
199.206471
930.745602
1016.005874
1016.005874
1016.005874
1016.005874
1016.005874
1016.005874
1016.005874
1016.005874
1016.005874
1016.005874
1016.005874
1016.005874
1016.005874
1016.005874
990.284085
331.625938
219.362974
216.107965
210.069418
200.444460
191.184878
176.211596
173.148513
167.698860
170.243979
174.432993
181.432962
201.876760
219.284892
257.372856
282.631516
332.549810
373.089910
431.291461
474.770665
539.648533
587.253571
653.855801
689.824820
759.368539
802.675486
864.360929
910.352468
966.522694
997.857451
1016.005874
1016.005874
1016.005874
1016.005874
1016.005874
1016.005874
1016.005874
1016.005874
1016.005874
1016.005874
1016.005874
1016.005874
1016.005874
1016.005874
1016.005874
1016.005874
1016.005874
1016.005874
1016.005874
1016.005874
1016.005874
1016.005874
1016.005874
1016.005874
1016.005874
1016.005874
998.340845
921.557546
834.586620
758.377910
670.595765
609.710813
541.094542
503.730774
463.522673
436.678529
416.588783
397.986770
377.863646
369.883776
352.139473
342.735648
336.273909
329.437852
320.114493
314.592719
309.632421
##ZVALUE=245
25.870800
24.610758
29.369593
34.881830
139.417648
501.828790
1016.005874
1016.005874
1016.005874
1016.005874
1016.005874
1016.005874
1016.005874
1016.005874
1016.005874
1016.005874
1016.005874
1016.005874
1016.005874
1016.005874
1016.005874
612.499714
236.461759
223.119855
223.429799
223.254561
213.819742
203.429461
192.747712
187.105536
181.712508
182.895660
191.655755
201.758742
218.139887
244.762897
260.681510
291.645527
314.688683
345.429778
373.461843
406.458974
437.370539
470.826626
499.159694
537.537932
565.735698
602.836013
623.203516
658.576488
682.269931
705.325007
720.961690
741.145611
749.553442
757.948756
761.275887
760.256648
758.157969
748.213530
740.164518
724.954009
714.075565
705.116987
698.069930
693.907738
705.786943
723.697543
735.474825
770.822763
785.591006
810.230970
806.525946
792.570710
761.063695
706.296563
662.396550
593.515635
541.972518
473.834872
436.190963
388.345718
364.881754
340.983868
325.381756
310.151577
302.540660
291.199684
285.566449
277.884007
272.578597
266.342759
267.219543
260.621905
257.927775
255.628824
##ZVALUE=250
20.348430
20.856857
22.503734
25.677681
27.483702
33.773780
52.888393
313.325524
942.223668
1016.005874
1016.005874
1016.005874
1016.005874
1016.005874
1016.005874
1016.005874
1016.005874
1016.005874
1016.005874
1016.005874
1016.005874
1016.005874
1016.005874
849.601030
321.282744
223.736763
228.771567
232.560635
230.515003
225.349665
216.619968
206.286907
202.791691
204.780698
210.340619
221.557617
238.208771
260.000825
281.753540
310.246944
334.689617
364.735723
391.027927
423.526764
448.942780
491.379499
515.756011
550.227761
576.167703
613.467693
631.800890
654.572845
672.142506
690.261722
699.481964
709.439516
711.043477
715.529919
712.902546
704.971552
699.090958
682.837963
673.793554
661.334991
654.183626
653.208494
652.642846
661.499500
674.101710
694.025755
712.083578
718.179941
714.100003
695.270896
673.222542
620.186925
579.609871
519.923568
473.536849
416.741967
384.386778
345.878005
326.440930
301.702619
291.363597
276.054740
267.748833
259.171724
252.403617
247.488618
245.227814
238.564610
234.185457
231.698751
229.069591
228.078961
##ZVALUE=255
17.580986
18.338561
18.616915
21.242499
23.735762
25.742650
29.001832
34.330487
44.489503
110.140443
693.804026
1015.985608
1015.985608
1015.985608
1015.985608
1015.985608
1015.985608
1015.985608
1015.985608
1015.985608
1015.985608
1015.985608
1015.985608
1015.985608
1015.985608
1015.985608
587.675571
267.743468
235.025883
241.937637
247.665644
252.004862
250.743628
251.908898
253.650546
258.798003
270.409584
291.444659
311.893821
348.036885
374.173522
416.833758
447.498560
498.802662
529.313684
587.428808
615.641475
657.878518
691.133738
735.395551
765.437484
799.287558
820.927620
845.548511
854.860544
863.958597
873.066783
869.472027
868.328810
858.886838
849.278569
829.832554
815.610886
796.540976
780.508518
765.028000
756.952763
750.633478
755.998492
760.571957
760.048032
758.693814
742.785931
711.280704
681.188703
624.647737
580.307841
524.775982
483.027697
430.908799
395.945907
360.529423
339.781642
317.063928
304.292440
286.502838
274.791718
263.899565
254.681706
245.491862
239.089727
233.917832
228.423476
223.963857
222.881436
222.007632
##ZVALUE=260
16.993880
17.101765
18.065572
19.377470
20.684600
23.075938
24.243593
27.797818
30.469894
34.990907
39.504766
68.743825
252.315998
1012.879014
1016.004682
1016.004682
1016.004682
1016.004682
1016.004682
1016.004682
1016.004682
1016.004682
1016.004682
1016.004682
1016.004682
1016.004682
1016.004682
1016.004682
1016.004682
429.348946
253.031850
259.088874
281.804800
304.723978
321.713686
345.512629
363.053679
386.970639
410.856009
446.426868
481.392741
534.723997
577.343702
642.398000
690.719485
764.342546
811.804533
869.965553
917.248726
979.869962
1015.974879
1016.004682
1016.004682
1016.004682
1016.004682
1016.004682
1016.004682
1016.004682
1016.004682
1016.004682
1016.004682
1016.004682
1016.004682
1016.004682
1016.004682
995.419621
977.249742
958.840847
942.134857
929.797888
916.818976
889.616013
866.128802
817.960501
776.796937
714.772940
666.453838
601.925850
551.038980
498.844981
463.133454
422.426462
397.996902
367.078781
349.860787
325.170755
311.762691
293.089747
282.101631
268.599987
256.515741
245.960951
241.894722
233.442783
229.334831
225.017667
##ZVALUE=265
17.072558
17.067790
17.674565
18.709898
19.764900
21.153688
23.396611
24.574995
27.304888
29.085875
32.698512
35.574436
39.318800
48.115849
105.300546
648.871660
1016.005874
1016.005874
1016.005874
1016.005874
1016.005874
1016.005874
1016.005874
1016.005874
1016.005874
1016.005874
1016.005874
1016.005874
1016.005874
1016.005874
1016.005874
884.661674
361.649990
313.028693
350.709558
410.014987
454.486012
511.898994
554.208755
606.220961
652.660728
712.304711
768.174529
841.664672
906.034708
991.388559
1016.005874
1016.005874
1016.005874
1016.005874
1016.005874
1016.005874
1016.005874
1016.005874
1016.005874
1016.005874
1016.005874
1016.005874
1016.005874
1016.005874
1016.005874
1016.005874
1016.005874
1016.005874
1016.005874
1016.005874
1016.005874
1016.005874
1016.005874
1016.005874
1016.005874
1016.005874
1016.005874
983.393788
933.502913
851.261020
789.944530
717.871785
662.532449
596.990585
552.685857
502.699614
471.030474
437.595844
411.362648
383.283496
363.992453
337.835550
321.776867
301.072001
289.006829
273.499489
262.622833
251.999497
245.599747
239.863992
##ZVALUE=270
17.105937
17.230511
17.703772
18.147826
19.361973
20.443797
21.815896
23.003817
24.929643
25.454760
28.805733
30.278563
32.690763
37.149787
40.596724
46.758652
58.388710
264.729857
882.822871
1016.005874
1016.005874
1016.005874
1016.005874
1016.005874
1016.005874
1016.005874
1016.005874
1016.005874
1016.005874
1016.005874
1016.005874
1016.005874
1016.005874
1016.005874
737.339854
448.651910
501.533747
597.733855
672.556758
773.877501
848.972797
944.947004
1008.874774
1016.005874
1016.005874
1016.005874
1016.005874
1016.005874
1016.005874
1016.005874
1016.005874
1016.005874
1016.005874
1016.005874
1016.005874
1016.005874
1016.005874
1016.005874
1016.005874
1016.005874
1016.005874
1016.005874
1016.005874
1016.005874
1016.005874
1016.005874
1016.005874
1016.005874
1016.005874
1016.005874
1016.005874
1016.005874
1016.005874
1016.005874
1016.005874
999.718904
934.159756
850.507617
785.290003
706.403852
655.730963
592.812896
560.586452
516.566634
486.121774
447.357893
421.959758
391.483903
369.854569
344.587564
324.175954
305.498838
291.464925
275.450945
268.285871
256.587863
##ZVALUE=275
17.595887
17.317533
17.840862
18.698573
19.465685
19.860864
21.218657
22.604465
23.371577
25.000572
26.363730
27.992725
30.477643
32.262802
34.386516
36.857724
41.446686
45.968890
51.924586
104.093552
450.865030
1016.005874
1016.005874
1016.005874
1016.005874
1016.005874
1016.005874
1016.005874
1016.005874
1016.005874
1016.005874
1016.005874
1016.005874
1016.005874
1016.005874
1016.005874
1016.005874
720.889568
727.037787
849.436522
948.969722
1016.005874
1016.005874
1016.005874
1016.005874
1016.005874
1016.005874
1016.005874
1016.005874
1016.005874
1016.005874
1016.005874
1016.005874
1016.005874
1016.005874
1016.005874
1016.005874
1016.005874
1016.005874
1016.005874
1016.005874
1016.005874
1016.005874
1016.005874
1016.005874
1016.005874
1016.005874
1016.005874
1016.005874
1016.005874
1016.005874
1016.005874
1016.005874
1016.005874
1016.005874
1016.005874
1016.005874
952.453613
882.152915
796.148777
740.844607
672.588944
626.835823
574.271679
539.286733
496.816635
467.741489
433.771610
408.611894
375.442505
354.518890
328.685641
313.615799
299.266577
287.254453
273.925662
##ZVALUE=280
17.947555
17.675757
18.323660
19.058585
19.677877
20.313859
21.378994
22.265911
23.495555
24.570823
25.834441
26.604533
27.995706
29.709935
31.248927
33.241510
35.001636
39.218664
41.614771
48.420429
55.077672
66.756606
322.522521
1016.005874
1016.005874
1016.005874
1016.005874
1016.005874
1016.005874
1016.005874
1016.005874
1016.005874
1016.005874
1016.005874
1016.005874
1016.005874
1016.005874
1016.005874
1016.005874
1016.005874
951.905847
1016.005874
1016.005874
1016.005874
1016.005874
1016.005874
1016.005874
1016.005874
1016.005874
1016.005874
1016.005874
1016.005874
1016.005874
1016.005874
1016.005874
1016.005874
1016.005874
1016.005874
1016.005874
1016.005874
1016.005874
1016.005874
1016.005874
1016.005874
1016.005874
1016.005874
1016.005874
1016.005874
1016.005874
1016.005874
1016.005874
1016.005874
1016.005874
1016.005874
1016.005874
1016.005874
1016.005874
971.800685
908.694863
821.673870
764.596462
692.414641
653.582811
603.718758
564.322472
518.323779
483.414531
447.357893
418.902636
387.290716
363.522768
338.127017
321.178436
302.518606
290.570855
277.451873
##ZVALUE=285
18.676519
18.485785
19.097924
19.324422
19.515753
20.958781
20.975471
22.405982
22.807717
23.609996
24.675727
25.792718
27.087927
27.681589
29.996634
30.945539
32.824874
34.867525
36.890507
41.061640
43.421984
50.713420
56.786537
69.052577
131.343603
821.983814
1016.005874
1016.005874
1016.005874
1016.005874
1016.005874
1016.005874
1016.005874
1016.005874
1016.005874
1016.005874
1016.005874
1016.005874
1016.005874
1016.005874
1016.005874
1016.005874
1016.005874
1016.005874
1016.005874
1016.005874
1016.005874
1016.005874
1016.005874
1016.005874
1016.005874
1016.005874
1016.005874
1016.005874
1016.005874
1016.005874
1016.005874
1016.005874
1016.005874
1016.005874
1016.005874
1016.005874
1016.005874
1016.005874
1016.005874
1016.005874
1016.005874
1016.005874
1016.005874
1016.005874
1016.005874
1016.005874
1016.005874
1016.005874
1016.005874
1016.005874
983.530879
898.339748
837.259889
763.313770
713.281631
651.283860
605.563521
559.270978
524.590015
482.643843
451.471806
419.473648
393.442512
362.179875
340.371728
316.057801
299.807787
284.382701
270.060897
259.617567
##ZVALUE=290
18.543601
18.875599
18.873811
19.301772
20.065904
20.475984
21.131635
21.981001
22.412539
23.584962
24.633408
24.753809
26.032925
26.601553
27.653575
29.692650
30.391812
32.679439
33.685565
36.096573
39.172769
42.491555
47.053695
51.805973
60.147643
67.554712
88.694692
241.403580
1016.004682
1016.004682
1016.004682
1016.004682
1016.004682
1016.004682
1016.004682
1016.004682
1016.004682
1016.004682
1016.004682
1016.004682
1016.004682
1016.004682
1016.004682
1016.004682
1016.004682
1012.778878
1016.004682
1016.004682
1016.004682
1016.004682
1016.004682
1016.004682
1016.004682
1016.004682
1016.004682
1016.004682
1016.004682
1016.004682
1016.004682
1016.004682
1016.004682
1016.004682
1016.004682
1016.004682
1016.004682
1016.004682
1016.004682
1016.004682
1016.004682
1016.004682
1016.004682
1016.004682
1016.004682
965.507627
907.308459
831.012726
776.883960
714.119673
664.152503
602.963567
563.704967
516.520739
484.263897
449.498892
423.273444
389.589667
367.342830
339.644551
320.961475
297.733545
282.006860
263.028741
250.996947
237.039924
229.525566
217.216611
##ZVALUE=295
18.236637
18.675923
18.764734
19.310713
19.474626
19.922853
20.956993
21.105409
21.441579
23.050904
23.452640
23.929477
25.006533
25.702715
26.402473
27.174950
28.272867
29.805899
31.290650
32.364726
35.210848
37.583709
41.135550
44.063926
49.771667
53.997636
59.402585
69.575906
79.157948
140.891671
549.774766
1016.005874
1016.005874
1016.005874
1016.005874
1016.005874
1016.005874
1016.005874
1016.005874
1016.005874
1016.005874
1016.005874
1016.005874
1016.005874
1016.005874
1016.005874
1016.005874
875.604749
780.168772
829.261541
876.538754
938.917994
981.997848
1016.005874
1016.005874
1016.005874
1016.005874
1016.005874
1016.005874
1016.005874
1007.869840
971.618891
946.295857
914.747715
884.962678
850.113034
831.672549
801.972747
781.839490
751.350522
732.272863
699.481964
670.581460
621.874928
586.892962
536.180735
499.584675
456.646681
426.159501
389.682651
365.912914
339.049697
319.520831
298.300982
283.489823
264.512897
251.159668
235.635638
