##TITLE=C106_R4
##FORMAT=SPECTACLE-ASCII V-1.2
##DATA TYPE=ULTRAVIOLET SPECTRUM
##SECOND TYPE=ULTRAVIOLET SPECTRUM
##DATE=05/28/18
##TIME=15:08:56
##SPECTROMETER/DATA SYSTEM=SPECTACLE
##XUNITS=NM EM
##YUNITS=ENERGY
##YFACTOR=1
##FIRSTX=220
##LASTX=410
##NPOINTS=96
##3DDATA=Equidistant
##ZUNITS=NM EX
##FIRSTZ=210
##LASTZ=400
##ZPOINTS=39
##XYDATA=(Y..Y)
##ZVALUE=210
319.904685
296.346545
187.123418
96.872449
60.456991
53.186417
55.002570
64.299703
67.682862
74.529648
76.719522
79.364777
87.159872
88.123679
93.891621
94.169974
98.911524
106.014609
109.197497
119.924545
129.631758
139.731765
150.921941
164.424777
183.039904
199.546814
212.812424
232.811570
260.745883
265.050530
296.077728
320.639014
348.221660
383.030772
423.343778
464.996696
503.110886
531.500578
588.514805
614.770651
654.409528
694.986582
722.625852
763.058662
785.312653
822.061896
839.666724
866.497755
890.481472
910.885930
944.937468
935.325027
955.216885
975.450873
986.130834
986.247659
983.351469
978.188515
964.533687
963.968635
958.199501
950.855017
951.866508
965.891480
1016.005874
1016.005874
1016.005874
1016.005874
1016.005874
1016.005874
1016.005874
1016.005874
1016.005874
1016.005874
1016.005874
1016.005874
1016.005874
1016.005874
1016.005874
1016.005874
1016.005874
1016.005874
920.843482
796.240568
686.493516
606.585741
562.616587
529.724956
530.681014
519.542694
543.108582
593.618751
683.733821
761.802793
948.241949
1016.005874
##ZVALUE=215
1016.005874
1016.005874
1016.005874
911.680460
587.309599
287.960768
165.445805
95.727444
93.018413
96.264482
96.278787
99.559426
97.940564
98.450780
101.747513
103.363991
108.350515
111.601949
119.451880
124.601722
132.680535
149.211884
159.091949
172.870755
192.808509
210.981965
224.164724
247.686505
267.014503
288.603902
307.037830
341.357589
367.799997
424.984694
464.420915
523.600578
572.850704
628.840923
680.267811
754.628778
797.922015
866.749883
914.108753
958.252549
1011.492610
1016.005874
1016.005874
1016.005874
1016.005874
1016.005874
1016.005874
1016.005874
1016.005874
1016.005874
1016.005874
1016.005874
1016.005874
1016.005874
1016.005874
1016.005874
1016.005874
1016.005874
1016.005874
1016.005874
1016.005874
1016.005874
1016.005874
1016.005874
1016.005874
1016.005874
1016.005874
1016.005874
1016.005874
1016.005874
1016.005874
1016.005874
1016.005874
1016.005874
1016.005874
1016.005874
1016.005874
1013.637781
929.622650
798.624754
728.985667
660.147667
617.340803
581.256747
565.169454
538.519621
517.606735
501.205921
494.676828
517.851710
546.178818
641.617775
##ZVALUE=220
1016.005874
1016.005874
1016.005874
1016.005874
1016.005874
1016.005874
1016.005874
811.165571
412.032008
205.679536
125.565529
121.196508
118.226409
112.511516
106.364489
104.566813
106.501579
109.340549
112.031698
119.896531
124.972463
136.849880
144.537687
159.000754
170.253515
187.347531
197.888613
214.630961
232.858658
255.589485
275.259614
320.199728
352.648497
412.416458
461.469889
537.490845
598.741770
693.557858
759.373903
856.702924
922.217965
1012.149453
1016.005874
1016.005874
1016.005874
1016.005874
1016.005874
1016.005874
1016.005874
1016.005874
1016.005874
1016.005874
1016.005874
1016.005874
1016.005874
1016.005874
1016.005874
1016.005874
1016.005874
1016.005874
1016.005874
1016.005874
1016.005874
1016.005874
1016.005874
1016.005874
1016.005874
1016.005874
1016.005874
1016.005874
1016.005874
1016.005874
1016.005874
1016.005874
1016.005874
1016.005874
1016.005874
1016.005874
1016.005874
1016.005874
1016.005874
1008.722782
932.070613
820.868611
753.683448
691.878796
652.771592
610.024929
583.903790
552.286506
520.832539
498.047471
489.947796
471.570492
458.634496
447.580814
##ZVALUE=225
1016.005874
1016.005874
1016.005874
1016.005874
1016.005874
1016.005874
1016.005874
1016.005874
1016.005874
1016.005874
885.894299
372.300744
168.163776
144.470930
136.668682
133.370757
127.911568
122.439861
121.631622
122.644901
120.756626
131.053925
140.327811
144.380927
159.674883
169.283748
174.840689
193.527937
208.123922
221.491456
256.050825
281.983614
336.920619
392.457843
488.293767
564.378500
671.332479
772.197843
899.419785
997.878909
1016.005874
1016.005874
1016.005874
1016.005874
1016.005874
1016.005874
1016.005874
1016.005874
1016.005874
1016.005874
1016.005874
1016.005874
1016.005874
1016.005874
1016.005874
1016.005874
1016.005874
1016.005874
1016.005874
1016.005874
1016.005874
1016.005874
1016.005874
1016.005874
1016.005874
1016.005874
1016.005874
1016.005874
1016.005874
1016.005874
1016.005874
1016.005874
1016.005874
1016.005874
1016.005874
1016.005874
1016.005874
1016.005874
1016.005874
1016.005874
1016.005874
1016.005874
942.922831
878.812671
788.899660
747.756958
695.428848
661.135912
604.630709
586.615801
551.682711
532.075763
500.793457
477.377772
466.716886
454.340577
##ZVALUE=230
1016.005874
1016.005874
1016.005874
1016.005874
1016.005874
1016.005874
1016.005874
1016.005874
1016.005874
1016.005874
1016.005874
1016.005874
1016.005874
774.210691
268.700719
179.090500
169.876814
167.431831
153.891444
148.767829
143.066645
138.544440
136.165619
142.562985
147.661567
155.579448
168.827772
177.099705
182.299614
205.698609
225.190520
269.969702
318.887830
400.306582
475.455523
585.317612
683.139563
819.856524
924.202800
1016.005874
1016.005874
1016.005874
1016.005874
1016.005874
1016.005874
1016.005874
1016.005874
1016.005874
1016.005874
1016.005874
1016.005874
1016.005874
1016.005874
1016.005874
1016.005874
1016.005874
1016.005874
1016.005874
1016.005874
1016.005874
1016.005874
1016.005874
1016.005874
1016.005874
1016.005874
1016.005874
1016.005874
1016.005874
1016.005874
1016.005874
1016.005874
1016.005874
1016.005874
1016.005874
1016.005874
1016.005874
1016.005874
1016.005874
1016.005874
1016.005874
1016.005874
1016.005874
938.711762
848.034620
793.325901
730.198622
691.784024
645.342469
616.294742
576.932430
553.383827
523.168445
495.698452
470.607877
455.976725
439.141989
##ZVALUE=235
923.748612
1001.222730
1016.005874
1016.005874
1016.005874
1016.005874
1016.005874
1016.005874
1016.005874
1016.005874
1016.005874
1016.005874
1016.005874
1016.005874
1016.005874
1016.005874
429.911613
228.692889
200.450420
194.579959
189.702511
179.246664
169.181824
159.442425
157.200694
158.100724
161.370635
167.905688
173.860788
190.889835
207.776427
242.229700
273.321867
343.391895
403.625965
492.218733
558.237433
674.671531
757.531524
871.340036
962.074995
1016.005874
1016.005874
1016.005874
1016.005874
1016.005874
1016.005874
1016.005874
1016.005874
1016.005874
1016.005874
1016.005874
1016.005874
1016.005874
1016.005874
1016.005874
1016.005874
1016.005874
1016.005874
1016.005874
1016.005874
1016.005874
1016.005874
1016.005874
1016.005874
1016.005874
1016.005874
1016.005874
1016.005874
1016.005874
1016.005874
1016.005874
1016.005874
1016.005874
1016.005874
1016.005874
1016.005874
1016.005874
1016.005874
995.013714
918.729901
814.378858
747.031569
683.254004
646.262765
593.721867
568.092465
536.308885
515.090823
487.632751
462.754965
438.556671
425.284505
410.816669
395.366549
387.922525
##ZVALUE=240
41.802526
49.034953
281.078815
891.035795
1016.005874
1016.005874
1016.005874
1016.005874
1016.005874
1016.005874
1016.005874
1016.005874
1016.005874
1016.005874
1016.005874
1016.005874
1016.005874
1016.005874
916.648507
295.003653
221.148729
214.281678
215.141773
204.420686
191.509724
179.423690
174.871683
173.562765
173.362494
175.635815
184.304714
201.901793
222.906470
258.139968
293.944478
340.897441
382.731557
439.775586
485.700965
547.422767
591.442585
659.814477
703.097582
774.002671
821.408629
879.416466
917.817950
980.280638
1013.365984
1016.005874
1016.005874
1016.005874
1016.005874
1016.005874
1016.005874
1016.005874
1016.005874
1016.005874
1016.005874
1016.005874
1016.005874
1016.005874
1016.005874
1016.005874
1016.005874
1016.005874
1016.005874
1016.005874
1016.005874
1016.005874
1016.005874
1016.005874
1016.005874
1016.005874
1016.005874
1010.395885
948.835611
857.844949
773.403645
681.944489
622.409582
555.066466
517.104864
476.985574
447.737575
424.580574
406.416655
383.985639
377.018452
359.622836
352.854729
338.033438
336.386561
325.878859
321.455598
316.502452
##ZVALUE=245
24.961829
26.530623
29.245615
39.660931
119.504929
663.014650
1016.005874
1016.005874
1016.005874
1016.005874
1016.005874
1016.005874
1016.005874
1016.005874
1016.005874
1016.005874
1016.005874
1016.005874
1016.005874
1016.005874
1016.005874
472.724438
245.080590
225.139856
229.020715
222.305655
213.288665
207.174420
198.064446
188.151002
183.712840
186.528563
193.009973
208.745599
223.785639
245.471001
267.487764
299.902558
321.382880
355.167985
380.083919
414.128900
445.048809
481.141806
509.492755
549.481511
573.204756
612.635612
638.777018
670.796633
691.571832
721.067786
735.969543
749.104619
762.993693
764.552951
768.070817
774.075985
771.413445
759.218931
750.525594
735.967755
731.002688
716.684461
709.514022
711.206794
716.987848
740.225911
753.170848
787.256956
811.035633
830.506682
833.459496
814.701915
786.899924
731.638670
674.652457
605.720878
552.867651
491.608977
444.277525
399.697423
371.545553
349.465609
329.747796
313.837528
302.926898
299.301744
286.900997
284.676552
277.220607
268.813968
268.164873
264.552832
261.877775
260.121822
##ZVALUE=250
21.904707
21.649599
23.801923
25.681853
29.712915
34.716725
66.768527
270.588994
1016.005874
1016.005874
1016.005874
1016.005874
1016.005874
1016.005874
1016.005874
1016.005874
1016.005874
1016.005874
1016.005874
1016.005874
1016.005874
1016.005874
1016.005874
912.050009
285.925865
228.275657
233.867764
236.577988
231.060982
226.818919
220.440626
210.074782
207.481980
206.971765
211.066008
225.770473
240.623951
265.736580
285.473466
313.376784
339.241624
372.770429
395.480990
435.530543
458.282828
496.633649
521.977544
557.545424
586.019754
618.844628
642.468929
667.364001
682.228804
697.686672
709.237456
720.523596
721.413493
724.313855
721.115470
711.171627
703.880787
691.202879
678.077936
666.067004
661.922693
659.788847
660.339594
678.078532
689.234734
713.292956
722.692013
735.738873
735.200644
716.387033
686.396956
633.729696
597.680807
528.968573
487.440825
424.350500
389.873981
351.902843
334.486961
311.293602
298.810601
280.767679
271.173716
260.724425
257.205963
251.647830
244.323611
240.899920
235.955715
236.984491
234.900713
233.253837
##ZVALUE=255
17.615557
18.585920
20.270944
21.747947
23.746490
27.166605
29.265881
35.273433
41.514635
143.296719
558.186769
1016.005874
1016.005874
1016.005874
1016.005874
1016.005874
1016.005874
1016.005874
1016.005874
1016.005874
1016.005874
1016.005874
1016.005874
1016.005874
1016.005874
1016.005874
577.516556
266.636610
237.273574
245.510936
251.748562
254.823565
256.284475
253.909826
257.313848
260.194540
274.706483
292.130709
319.310427
345.132947
381.931663
415.896773
458.390713
495.959520
542.601943
578.826666
627.138019
660.224557
702.438951
738.034844
775.621533
803.566575
828.576684
848.954916
857.926607
870.912671
883.392692
878.338814
873.703957
868.186951
850.051641
841.426849
818.413496
808.881521
781.544447
777.432919
769.829750
760.908723
766.265988
770.403743
766.661763
767.269731
749.846697
728.635788
684.245825
646.750927
588.831902
541.742444
481.930971
440.867543
397.436619
371.878743
343.235731
325.658917
302.706957
289.995670
275.971889
269.101858
257.213712
251.384974
241.450667
236.687660
230.314732
225.985646
221.982598
221.679807
##ZVALUE=260
17.388463
17.132759
18.065572
19.799471
20.806789
23.251772
23.927689
29.016733
31.111836
35.570860
40.985942
57.922006
319.881439
936.264992
1016.005874
1016.005874
1016.005874
1016.005874
1016.005874
1016.005874
1016.005874
1016.005874
1016.005874
1016.005874
1016.005874
1016.005874
1016.005874
1016.005874
1016.005874
417.221785
253.190994
263.801813
283.217430
307.421684
326.800942
347.258449
365.123749
392.693877
413.329005
451.368690
486.199856
538.781881
585.806966
647.695661
697.546005
768.240690
817.389488
880.763531
928.899646
987.038016
1016.005874
1016.005874
1016.005874
1016.005874
1016.005874
1016.005874
1016.005874
1016.005874
1016.005874
1016.005874
1016.005874
1016.005874
1016.005874
1016.005874
1016.005874
1007.702947
985.929966
961.622596
948.802829
934.683681
923.923850
899.167657
874.961019
822.674036
783.079863
718.570948
670.563579
606.290698
561.875701
503.680706
468.736887
424.458981
398.968458
368.424654
349.784493
328.275561
311.487913
297.127962
285.278559
269.910693
260.174870
247.697830
242.815614
232.669711
229.696631
225.572586
##ZVALUE=265
16.994476
17.095804
17.974973
18.750429
20.808578
21.242499
23.669600
24.716854
27.770996
29.390454
33.313632
36.511421
40.587783
49.100518
111.224651
685.348511
1015.995741
1015.995741
1015.995741
1015.995741
1015.995741
1015.995741
1015.995741
1015.995741
1015.995741
1015.995741
1015.995741
1015.995741
1015.995741
1015.995741
1015.995741
895.798802
368.602872
314.736962
355.880857
414.575934
458.521843
515.197515
554.781556
612.304807
656.044483
720.427632
771.110654
848.164558
911.021829
1000.621915
1015.995741
1015.995741
1015.995741
1015.995741
1015.995741
1015.995741
1015.995741
1015.995741
1015.995741
1015.995741
1015.995741
1015.995741
1015.995741
1015.995741
1015.995741
1015.995741
1015.995741
1015.995741
1015.995741
1015.995741
1015.995741
1015.995741
1015.995741
1015.995741
1015.995741
1015.995741
1015.995741
994.834900
938.722491
858.359933
800.706744
726.062655
668.483973
599.286556
553.560853
506.007671
476.073623
440.561771
416.109562
384.770632
364.080667
338.403583
323.700905
302.129984
287.873745
272.834897
262.734890
250.739455
245.597959
238.456726
##ZVALUE=270
17.778873
17.670989
18.040538
19.177794
19.224882
21.318793
22.139549
23.722649
25.014877
26.429892
29.095411
31.548738
33.736825
37.428737
41.468740
45.265555
72.122812
241.136551
847.547650
1016.005874
1016.005874
1016.005874
1016.005874
1016.005874
1016.005874
1016.005874
1016.005874
1016.005874
1016.005874
1016.005874
1016.005874
1016.005874
1016.005874
1016.005874
708.739758
454.145670
509.254932
606.042743
681.166649
783.364773
855.185986
948.982835
1011.314988
1016.005874
1016.005874
1016.005874
1016.005874
1016.005874
1016.005874
1016.005874
1016.005874
1016.005874
1016.005874
1016.005874
1016.005874
1016.005874
1016.005874
1016.005874
1016.005874
1016.005874
1016.005874
1016.005874
1016.005874
1016.005874
1016.005874
1016.005874
1016.005874
1016.005874
1016.005874
1016.005874
1016.005874
1016.005874
1016.005874
1016.005874
1016.005874
1006.888747
938.652754
854.748487
791.024566
712.723732
659.946799
600.417852
561.834574
515.782833
486.133695
451.126695
422.851443
392.740965
370.944738
344.384909
325.746536
302.986503
292.576551
277.440548
269.525647
258.251429
##ZVALUE=275
17.982721
17.843843
18.810630
18.538833
20.291805
20.877719
21.893978
23.031831
23.513436
25.446415
27.044415
28.849840
30.113459
32.107830
34.630895
38.698912
41.574836
46.795607
53.116679
126.649737
550.962687
1016.010642
1016.010642
1016.010642
1016.010642
1016.010642
1016.010642
1016.010642
1016.010642
1016.010642
1016.010642
1016.010642
1016.010642
1016.010642
1016.010642
1016.010642
1016.010642
726.150870
732.882023
852.780938
954.900980
1016.010642
1016.010642
1016.010642
1016.010642
1016.010642
1016.010642
1016.010642
1016.010642
1016.010642
1016.010642
1016.010642
1016.010642
1016.010642
1016.010642
1016.010642
1016.010642
1016.010642
1016.010642
1016.010642
1016.010642
1016.010642
1016.010642
1016.010642
1016.010642
1016.010642
1016.010642
1016.010642
1016.010642
1016.010642
1016.010642
1016.010642
1016.010642
1016.010642
1016.010642
1016.010642
1016.010642
963.446498
891.108513
803.678632
744.009018
676.440001
634.050965
582.691431
546.398759
502.314568
470.482707
433.040857
408.827662
377.081633
357.685685
331.606865
315.569639
300.169587
286.099911
275.897980
##ZVALUE=280
18.482804
18.279552
18.628836
19.632578
20.112991
20.363927
21.673441
22.693872
23.888946
24.096966
26.628971
27.284622
28.942823
29.839873
31.697750
33.621788
36.918521
39.253831
44.242740
49.335957
55.306554
79.445839
289.306045
1016.005874
1016.005874
1016.005874
1016.005874
1016.005874
1016.005874
1016.005874
1016.005874
1016.005874
1016.005874
1016.005874
1016.005874
1016.005874
1016.005874
1016.005874
1016.005874
1016.005874
961.588621
1016.005874
1016.005874
1016.005874
1016.005874
1016.005874
1016.005874
1016.005874
1016.005874
1016.005874
1016.005874
1016.005874
1016.005874
1016.005874
1016.005874
1016.005874
1016.005874
1016.005874
1016.005874
1016.005874
1016.005874
1016.005874
1016.005874
1016.005874
1016.005874
1016.005874
1016.005874
1016.005874
1016.005874
1016.005874
1016.005874
1016.005874
1016.005874
1016.005874
1016.005874
1016.005874
1016.005874
986.839533
918.249488
833.771825
777.440667
705.963969
661.384463
604.434609
564.260483
522.226691
489.593744
452.020764
424.240828
389.953852
366.230011
339.689851
323.016644
305.404663
291.579962
277.633667
##ZVALUE=285
18.419623
18.906593
19.599795
19.438863
20.425916
20.820498
21.516681
22.836924
23.121834
24.424791
25.391579
26.305914
27.769804
28.675795
30.348897
31.766891
34.268498
35.860538
37.122965
42.029619
44.676661
51.138997
58.617592
70.709586
142.679811
867.494941
1016.005874
1016.005874
1016.005874
1016.005874
1016.005874
1016.005874
1016.005874
1016.005874
1016.005874
1016.005874
1016.005874
1016.005874
1016.005874
1016.005874
1016.005874
1016.005874
1016.005874
1016.005874
1016.005874
1016.005874
1016.005874
1016.005874
1016.005874
1016.005874
1016.005874
1016.005874
1016.005874
1016.005874
1016.005874
1016.005874
1016.005874
1016.005874
1016.005874
1016.005874
1016.005874
1016.005874
1016.005874
1016.005874
1016.005874
1016.005874
1016.005874
1016.005874
1016.005874
1016.005874
1016.005874
1016.005874
1016.005874
1016.005874
1016.005874
1016.005874
997.879505
911.711454
852.406621
775.714517
722.237825
659.489632
616.431832
566.800833
531.229973
486.797690
458.416939
424.672961
399.163961
365.613699
344.329476
319.547653
302.310586
285.264850
272.742510
260.463953
##ZVALUE=290
18.819571
18.984675
19.391775
19.813776
20.843744
20.950437
21.820664
22.743940
23.239851
23.848414
24.778843
25.493503
26.562810
27.616620
29.057860
29.643774
31.442642
32.882690
34.550428
36.862493
40.055513
43.872595
47.858953
54.828525
60.831904
71.449876
87.634921
370.678902
1016.005874
1016.005874
1016.005874
1016.005874
1016.005874
1016.005874
1016.005874
1016.005874
1016.005874
1016.005874
1016.005874
1016.005874
1016.005874
1016.005874
1016.005874
1016.005874
1016.005874
1016.005874
1016.005874
1016.005874
1016.005874
1016.005874
1016.005874
1016.005874
1016.005874
1016.005874
1016.005874
1016.005874
1016.005874
1016.005874
1016.005874
1016.005874
1016.005874
1016.005874
1016.005874
1016.005874
1016.005874
1016.005874
1016.005874
1016.005874
1016.005874
1016.005874
1016.005874
1016.005874
1016.005874
990.761518
919.664502
863.962770
787.200928
732.782483
669.531822
622.393489
565.291643
531.280637
492.112637
462.077856
426.048636
401.234627
370.383859
349.149704
323.655009
302.895904
284.129977
268.623829
251.575708
240.206718
227.878690
221.002698
##ZVALUE=295
18.596649
18.520951
18.990636
19.570589
19.842982
20.402670
21.340847
21.743774
22.495985
22.872686
24.217963
24.298429
25.011897
26.149750
26.958585
27.749538
29.055476
30.703545
32.110810
34.230947
36.137700
37.961602
41.172504
45.448542
51.042438
55.626631
62.774420
69.942474
83.886385
131.265521
497.159362
1016.005874
1016.005874
1016.005874
1016.005874
1016.005874
1016.005874
1016.005874
1016.005874
1016.005874
1016.005874
1016.005874
1016.005874
1016.005874
1016.005874
1016.005874
1016.005874
885.180831
795.972943
848.377943
896.532536
959.431529
1003.454924
1016.005874
1016.005874
1016.005874
1016.005874
1016.005874
1016.005874
1016.005874
1016.005874
991.222858
964.946747
933.312774
907.395482
874.081850
850.278735
820.192695
799.204707
772.430897
751.069784
717.942715
687.415004
640.468597
601.693988
548.080802
512.401462
468.818545
437.354445
399.879813
375.389457
345.780849
326.606631
303.155780
288.260579
269.389749
254.265666
