##TITLE=C106_R3
##FORMAT=SPECTACLE-ASCII V-1.2
##DATA TYPE=ULTRAVIOLET SPECTRUM
##SECOND TYPE=ULTRAVIOLET SPECTRUM
##DATE=05/28/18
##TIME=15:05:51
##SPECTROMETER/DATA SYSTEM=SPECTACLE
##XUNITS=NM EM
##YUNITS=ENERGY
##YFACTOR=1
##FIRSTX=220
##LASTX=410
##NPOINTS=96
##3DDATA=Equidistant
##ZUNITS=NM EX
##FIRSTZ=210
##LASTZ=400
##ZPOINTS=39
##XYDATA=(Y..Y)
##ZVALUE=210
349.122882
329.773426
185.317993
104.961991
62.338710
54.430962
60.420632
66.387653
69.864988
72.818995
78.116655
77.677965
82.781911
87.834001
93.769431
95.223784
102.238655
107.555985
106.724501
117.968917
126.541853
140.707493
152.534842
167.457461
183.565617
202.762485
213.763714
235.881805
252.285600
271.930695
298.620462
322.317481
345.299840
388.752818
426.189899
462.454557
506.228805
536.925793
593.979955
617.986917
661.634803
707.284808
729.709864
774.248838
799.374580
829.284787
863.674879
890.736580
899.446011
917.768478
932.630897
956.798792
962.265730
983.055830
979.294777
986.650586
991.628766
995.841622
982.343554
977.793932
969.457626
960.388780
959.614515
971.905589
1009.414792
1016.005874
1016.005874
1016.005874
1016.005874
1016.005874
1016.005874
1016.005874
1016.005874
1016.005874
1016.005874
1016.005874
1016.005874
1016.005874
1016.005874
1016.005874
1016.005874
1016.005874
910.144448
797.773004
689.893961
621.429682
562.699437
533.255935
523.016453
524.694920
550.291538
587.024689
675.913692
775.492787
958.607793
1016.005874
##ZVALUE=215
1016.005874
1016.005874
1016.005874
920.843482
582.021475
288.056731
164.781809
92.930794
89.956522
94.986558
95.768571
96.741915
99.625587
98.244548
96.916556
100.331903
105.150938
108.661652
117.595792
126.748681
129.559636
143.610835
155.339837
172.434449
187.257528
205.780864
226.354003
245.981812
260.362625
283.749700
300.312638
334.720016
369.198918
413.025618
452.535748
506.193638
558.597445
631.605983
672.055483
740.667582
793.184638
850.045681
899.722576
969.401598
1004.588008
1016.005874
1016.005874
1016.005874
1016.005874
1016.005874
1016.005874
1016.005874
1016.005874
1016.005874
1016.005874
1016.005874
1016.005874
1016.005874
1016.005874
1016.005874
1016.005874
1016.005874
1016.005874
1016.005874
1016.005874
1016.005874
1016.005874
1016.005874
1016.005874
1016.005874
1016.005874
1016.005874
1016.005874
1016.005874
1016.005874
1016.005874
1016.005874
1016.005874
1016.005874
1016.005874
1016.005874
1004.080772
894.341469
781.204700
715.004802
645.381808
600.311756
575.200915
542.484522
520.484447
510.626435
493.052602
490.952730
493.554473
526.454449
620.705485
##ZVALUE=220
1016.005874
1016.005874
1016.005874
1016.005874
1016.005874
1016.005874
1016.005874
809.748769
407.871008
209.427476
125.234723
115.027428
114.268661
112.464428
110.064745
106.587410
104.412436
106.950998
114.279985
116.224885
121.898651
128.134489
143.771768
155.683756
163.196921
184.266567
194.100738
209.477544
227.866769
242.047906
269.036889
299.733877
346.131921
388.322473
461.995006
511.595607
605.518818
674.913526
767.011642
834.470987
912.551880
1008.040905
1016.005874
1016.005874
1016.005874
1016.005874
1016.005874
1016.005874
1016.005874
1016.005874
1016.005874
1016.005874
1016.005874
1016.005874
1016.005874
1016.005874
1016.005874
1016.005874
1016.005874
1016.005874
1016.005874
1016.005874
1016.005874
1016.005874
1016.005874
1016.005874
1016.005874
1016.005874
1016.005874
1016.005874
1016.005874
1016.005874
1016.005874
1016.005874
1016.005874
1016.005874
1016.005874
1016.005874
1016.005874
1016.005874
1016.005874
1010.578871
895.038843
812.932849
732.913613
686.615705
627.446771
588.233471
551.837683
541.333556
511.797667
485.423803
465.902686
448.307991
437.482595
425.267816
##ZVALUE=225
1016.005874
1016.005874
1016.005874
1016.005874
1016.005874
1016.005874
1016.005874
1016.005874
1016.005874
1016.005874
924.603343
328.622460
170.577765
138.979554
137.068629
128.763914
122.459531
117.837787
117.036700
117.777586
119.463801
124.375820
135.217905
139.578581
150.337815
158.298612
177.886486
183.421969
203.397870
217.673779
245.961547
274.738669
331.192017
391.563773
483.250618
555.758476
669.477582
758.734941
895.430446
987.648964
1016.005874
1016.005874
1016.005874
1016.005874
1016.005874
1016.005874
1016.005874
1016.005874
1016.005874
1016.005874
1016.005874
1016.005874
1016.005874
1016.005874
1016.005874
1016.005874
1016.005874
1016.005874
1016.005874
1016.005874
1016.005874
1016.005874
1016.005874
1016.005874
1016.005874
1016.005874
1016.005874
1016.005874
1016.005874
1016.005874
1016.005874
1016.005874
1016.005874
1016.005874
1016.005874
1016.005874
1016.005874
1016.005874
1016.005874
1016.005874
1016.005874
1016.005874
930.145979
865.752697
773.437619
725.094676
677.746534
639.636517
596.905947
569.489598
548.122525
515.470505
487.400889
472.534895
448.382497
434.947610
##ZVALUE=230
1016.005874
1016.005874
1016.005874
1016.005874
1016.005874
1016.005874
1016.005874
1016.005874
1016.005874
1016.005874
1016.005874
1016.005874
1016.005874
778.566003
268.503428
175.778866
167.977810
159.312487
152.876973
144.015551
138.230920
133.079886
136.905909
139.893889
142.223835
152.079463
158.212781
171.667933
181.470513
199.122429
221.131444
263.314843
309.169888
388.203859
457.839966
578.620434
671.434999
810.977817
915.353894
1016.005874
1016.005874
1016.005874
1016.005874
1016.005874
1016.005874
1016.005874
1016.005874
1016.005874
1016.005874
1016.005874
1016.005874
1016.005874
1016.005874
1016.005874
1016.005874
1016.005874
1016.005874
1016.005874
1016.005874
1016.005874
1016.005874
1016.005874
1016.005874
1016.005874
1016.005874
1016.005874
1016.005874
1016.005874
1016.005874
1016.005874
1016.005874
1016.005874
1016.005874
1016.005874
1016.005874
1016.005874
1016.005874
1016.005874
1016.005874
1016.005874
1016.005874
1002.686024
920.017958
841.009021
779.127479
715.536475
683.214664
639.969707
601.145625
567.546487
539.624691
507.584810
490.515828
460.807681
452.505946
426.170826
##ZVALUE=235
875.800848
978.989601
1016.005874
1016.005874
1016.005874
1016.005874
1016.005874
1016.005874
1016.005874
1016.005874
1016.005874
1016.005874
1016.005874
1016.005874
1016.005874
1016.005874
461.912751
231.081843
197.299719
190.742612
184.828639
173.343420
165.926814
156.067610
152.366757
151.654482
156.634450
160.214901
168.609619
179.454684
200.690627
227.236748
274.033546
321.193933
400.972962
469.453931
564.487576
647.469759
762.659907
847.472548
936.763883
1016.005874
1016.005874
1016.005874
1016.005874
1016.005874
1016.005874
1016.005874
1016.005874
1016.005874
1016.005874
1016.005874
1016.005874
1016.005874
1016.005874
1016.005874
1016.005874
1016.005874
1016.005874
1016.005874
1016.005874
1016.005874
1016.005874
1016.005874
1016.005874
1016.005874
1016.005874
1016.005874
1016.005874
1016.005874
1016.005874
1016.005874
1016.005874
1016.005874
1016.005874
1016.005874
1016.005874
1016.005874
1016.005874
997.238755
882.015824
813.953876
733.798742
684.555769
624.418855
589.332581
553.219914
525.409579
495.453477
483.315587
448.714495
434.452891
412.340760
402.421951
389.219522
375.521779
##ZVALUE=240
40.304661
51.093698
199.500918
934.835672
1016.005874
1016.005874
1016.005874
1016.005874
1016.005874
1016.005874
1016.005874
1016.005874
1016.005874
1016.005874
1016.005874
1016.005874
1016.005874
1016.005874
937.975049
317.615867
217.633843
212.631822
207.252502
197.695494
188.167691
177.066922
173.207521
164.963603
165.592432
171.674490
178.759694
197.882652
215.947628
253.702998
285.082459
333.516598
370.481610
433.266759
481.063724
532.565713
587.030649
652.450919
700.055957
768.124461
817.298889
871.771574
917.053819
981.236696
1014.653444
1016.005874
1016.005874
1016.005874
1016.005874
1016.005874
1016.005874
1016.005874
1016.005874
1016.005874
1016.005874
1016.005874
1016.005874
1016.005874
1016.005874
1016.005874
1016.005874
1016.005874
1016.005874
1016.005874
1016.005874
1016.005874
1016.005874
1016.005874
1016.005874
1016.005874
1016.005874
1001.162529
929.041505
833.716989
762.819648
668.310523
613.117814
548.349619
505.806804
468.152761
438.704491
413.861871
394.439697
381.358862
370.625854
355.663896
348.003507
331.112742
324.482918
319.043994
312.965512
306.711793
##ZVALUE=245
24.998784
26.032925
28.662682
38.132668
113.008022
636.699796
1016.005874
1016.005874
1016.005874
1016.005874
1016.005874
1016.005874
1016.005874
1016.005874
1016.005874
1016.005874
1016.005874
1016.005874
1016.005874
1016.005874
1016.005874
470.674634
240.406990
219.893456
220.470428
219.157934
214.286447
201.170444
192.925930
183.972716
182.056427
180.680752
189.678669
203.049779
219.043493
243.890882
259.084702
291.256905
317.929983
346.710682
372.313857
410.490632
439.507961
476.571918
504.193902
545.956492
572.428703
610.997677
637.784600
666.850805
687.648058
716.266632
734.856725
752.166510
755.252838
766.509771
773.093700
772.531629
770.312548
757.482052
749.657750
743.490458
725.499988
716.418028
707.826614
705.034733
709.538460
728.495717
750.564933
775.113702
799.530745
815.292597
817.627907
797.615647
770.139694
713.475943
670.602918
597.383976
544.613004
481.187701
437.024832
395.190716
367.280841
341.683626
328.445435
311.593413
303.464532
291.720629
285.942554
278.480649
272.108912
266.433954
263.043642
258.565545
256.787539
256.581903
##ZVALUE=250
21.305680
21.131635
22.718906
24.888515
29.382706
33.504963
63.371658
253.313780
1016.005874
1016.005874
1016.005874
1016.005874
1016.005874
1016.005874
1016.005874
1016.005874
1016.005874
1016.005874
1016.005874
1016.005874
1016.005874
1016.005874
1016.005874
912.832618
285.230875
223.252773
229.404569
233.570933
229.273438
224.565864
215.541720
209.466815
202.440619
204.190612
211.860538
224.939585
238.292813
260.669589
283.334851
309.899449
335.649848
368.511677
395.473838
430.729985
460.838675
493.944883
524.125695
562.411547
588.817596
616.155863
642.516613
668.065548
685.606003
700.657964
714.280009
719.729662
729.379654
725.831985
721.668601
714.385509
710.459948
696.879029
685.994625
675.898790
663.977861
662.900805
664.534569
666.995645
684.162974
704.435706
719.666481
730.384588
726.105571
705.811977
675.583482
629.066825
580.014586
522.279739
478.605628
420.132875
385.964513
348.279476
326.516628
306.204557
292.011499
281.813741
270.711780
261.196494
255.486965
248.895884
243.326426
237.558484
233.675838
232.327580
227.411985
225.605965
##ZVALUE=255
17.612576
17.900467
19.604564
20.859838
23.363829
26.057959
29.267669
33.845901
40.904880
89.271665
593.983531
1016.005874
1016.005874
1016.005874
1016.005874
1016.005874
1016.005874
1016.005874
1016.005874
1016.005874
1016.005874
1016.005874
1016.005874
1016.005874
1016.005874
1016.005874
615.706444
250.885487
233.361721
243.450999
248.146653
253.438950
252.863765
252.994895
252.353549
258.473754
269.830823
293.432474
314.188004
349.583626
378.993750
420.951843
455.291867
503.140688
539.914966
584.364533
621.152520
669.803619
706.175566
749.276876
774.692893
806.221962
829.053521
854.944587
868.361592
879.348516
886.304975
883.564949
879.039764
873.564482
861.310959
843.157768
826.662779
808.938742
790.771842
775.524974
767.011642
765.556693
766.979456
769.429803
768.523812
759.925842
749.374628
719.736814
686.410666
629.933476
584.339499
528.456569
486.151576
432.747602
402.726531
363.831520
342.514515
320.469737
304.704905
284.875631
277.772546
262.612700
255.909562
247.843862
240.297914
232.141614
228.932500
221.946836
219.527483
215.999484
##ZVALUE=260
18.132925
18.520951
19.156933
20.488501
21.084547
23.851991
25.188923
28.822422
31.563640
36.455989
40.228963
69.251657
245.758891
1004.985571
1016.983986
1016.983986
1016.983986
1016.983986
1016.983986
1016.983986
1016.983986
1016.983986
1016.983986
1016.983986
1016.983986
1016.983986
1016.983986
1016.983986
1016.983986
461.411476
252.324939
259.175897
276.843905
303.581953
323.279500
345.297456
364.338756
389.637947
413.330793
453.577638
487.878919
537.735820
583.332777
648.917556
702.482462
771.634579
820.999742
884.957910
933.352709
988.070965
1016.983986
1016.983986
1016.983986
1016.983986
1016.983986
1016.983986
1016.983986
1016.983986
1016.983986
1016.983986
1016.983986
1016.983986
1016.983986
1016.983986
1016.983986
1012.238860
990.809798
966.026783
955.824852
936.681628
922.004580
894.812942
866.940618
824.166536
782.353878
721.770525
671.625733
609.426498
558.740497
500.372648
465.816855
425.263643
397.801995
372.021794
351.853967
330.137610
314.330459
294.861794
283.031464
270.321965
258.390903
247.762799
239.432454
231.183767
229.941607
222.686529
##ZVALUE=265
16.655922
16.933680
17.866492
18.891692
20.090938
21.055937
22.488832
25.273561
26.985407
28.467774
33.102632
35.059452
41.034818
47.240853
130.873919
524.225831
1016.005874
1016.005874
1016.005874
1016.005874
1016.005874
1016.005874
1016.005874
1016.005874
1016.005874
1016.005874
1016.005874
1016.005874
1016.005874
1016.005874
1016.005874
794.225931
343.130827
316.303968
353.294015
408.352017
455.494523
511.362553
555.723906
612.235665
655.679703
721.865892
769.602656
853.181481
914.197564
1001.663804
1016.005874
1016.005874
1016.005874
1016.005874
1016.005874
1016.005874
1016.005874
1016.005874
1016.005874
1016.005874
1016.005874
1016.005874
1016.005874
1016.005874
1016.005874
1016.005874
1016.005874
1016.005874
1016.005874
1016.005874
1016.005874
1016.005874
1016.005874
1016.005874
1016.005874
1016.005874
1016.005874
991.727710
938.828588
858.814716
797.466636
723.809004
667.433739
604.024529
556.665659
507.743955
473.174453
436.185002
413.317680
382.246971
363.366604
338.330865
323.355794
300.612450
285.414457
271.504521
260.377526
249.095559
244.644880
236.923695
##ZVALUE=270
17.090440
17.101765
17.656684
18.819571
19.529462
20.609498
21.857619
23.624897
25.227666
26.618838
28.505921
31.014681
32.932758
36.741495
40.252805
46.070814
57.482719
265.599489
883.044004
1016.005874
1016.005874
1016.005874
1016.005874
1016.005874
1016.005874
1016.005874
1016.005874
1016.005874
1016.005874
1016.005874
1016.005874
1016.005874
1016.005874
1016.005874
727.663636
450.109839
504.632592
601.115823
676.718950
777.559876
852.552652
944.783688
1010.468006
1016.005874
1016.005874
1016.005874
1016.005874
1016.005874
1016.005874
1016.005874
1016.005874
1016.005874
1016.005874
1016.005874
1016.005874
1016.005874
1016.005874
1016.005874
1016.005874
1016.005874
1016.005874
1016.005874
1016.005874
1016.005874
1016.005874
1016.005874
1016.005874
1016.005874
1016.005874
1016.005874
1016.005874
1016.005874
1016.005874
1016.005874
1016.005874
1007.308960
941.721797
856.133699
792.871714
712.561607
660.204887
598.822832
564.186573
519.203544
488.125682
449.639559
424.114466
392.040610
370.970964
344.804525
326.285958
306.715965
290.040970
275.197625
262.920856
255.662799
##ZVALUE=275
17.266870
17.813444
18.139482
19.179583
19.590855
20.803809
21.602511
22.342801
23.883581
24.844408
27.063489
28.202534
30.239820
31.481981
33.966899
36.559701
41.598678
45.577884
53.754449
98.590851
635.062456
1016.005874
1016.005874
1016.005874
1016.005874
1016.005874
1016.005874
1016.005874
1016.005874
1016.005874
1016.005874
1016.005874
1016.005874
1016.005874
1016.005874
1016.005874
1016.005874
720.780492
730.901957
849.502683
951.851010
1016.005874
1016.005874
1016.005874
1016.005874
1016.005874
1016.005874
1016.005874
1016.005874
1016.005874
1016.005874
1016.005874
1016.005874
1016.005874
1016.005874
1016.005874
1016.005874
1016.005874
1016.005874
1016.005874
1016.005874
1016.005874
1016.005874
1016.005874
1016.005874
1016.005874
1016.005874
1016.005874
1016.005874
1016.005874
1016.005874
1016.005874
1016.005874
1016.005874
1016.005874
1016.005874
1016.005874
959.805846
889.835954
805.879831
747.844577
677.191019
636.383891
581.780672
545.973778
501.595736
469.550490
431.445837
410.483479
377.787948
358.944535
328.753591
314.130783
297.947526
285.661817
271.623731
##ZVALUE=280
18.078685
18.035769
18.096566
18.845797
20.123720
20.248890
21.345615
22.553802
23.291707
24.358630
25.501847
26.675463
28.069615
29.638410
31.212568
32.683611
35.605431
38.384795
43.054819
47.520995
55.532455
71.105957
393.947959
1016.005874
1016.005874
1016.005874
1016.005874
1016.005874
1016.005874
1016.005874
1016.005874
1016.005874
1016.005874
1016.005874
1016.005874
1016.005874
1016.005874
1016.005874
1016.005874
1016.005874
957.226753
1016.005874
1016.005874
1016.005874
1016.005874
1016.005874
1016.005874
1016.005874
1016.005874
1016.005874
1016.005874
1016.005874
1016.005874
1016.005874
1016.005874
1016.005874
1016.005874
1016.005874
1016.005874
1016.005874
1016.005874
1016.005874
1016.005874
1016.005874
1016.005874
1016.005874
1016.005874
1016.005874
1016.005874
1016.005874
1016.005874
1016.005874
1016.005874
1016.005874
1016.005874
1016.005874
1016.005874
986.070633
915.538669
831.930637
777.150989
706.290603
659.120679
606.578588
570.098758
520.651937
489.368439
447.697639
419.824719
390.633941
366.685987
337.962508
322.512984
302.717686
290.264487
276.519656
##ZVALUE=285
18.922687
19.110441
19.401908
19.367933
20.104647
20.754933
21.810532
22.328496
23.290515
23.950934
25.170445
25.775433
27.631521
28.062463
29.499531
31.459928
32.125711
34.928918
36.601424
41.663647
44.538975
49.148798
57.404637
65.755844
165.280700
644.605756
1016.149521
1016.149521
1016.149521
1016.149521
1016.149521
1016.149521
1016.149521
1016.149521
1016.149521
1016.149521
1016.149521
1016.149521
1016.149521
1016.149521
1016.149521
1016.149521
1016.149521
1016.149521
1016.149521
1016.149521
1016.149521
1016.149521
1016.149521
1016.149521
1016.149521
1016.149521
1016.149521
1016.149521
1016.149521
1016.149521
1016.149521
1016.149521
1016.149521
1016.149521
1016.149521
1016.149521
1016.149521
1016.149521
1016.149521
1016.149521
1016.149521
1016.149521
1016.149521
1016.149521
1016.149521
1016.149521
1016.149521
1016.149521
1016.149521
1016.149521
992.427468
910.809636
848.050714
768.802762
717.180967
655.452609
613.526702
569.218993
533.034801
488.599539
458.901525
420.625806
395.617485
366.446972
342.229009
316.972733
301.871896
282.810926
269.624591
257.292986
##ZVALUE=290
18.689632
18.515587
18.982887
19.855499
20.175576
20.264983
21.404624
21.695495
23.012757
23.710728
24.418831
25.261641
25.722980
27.149916
27.842522
29.502511
30.586720
32.425523
33.438802
36.726594
38.877726
42.352676
47.476888
52.308440
61.040521
67.620873
89.381337
261.347890
1016.005874
1016.005874
1016.005874
1016.005874
1016.005874
1016.005874
1016.005874
1016.005874
1016.005874
1016.005874
1016.005874
1016.005874
1016.005874
1016.005874
1016.005874
1016.005874
1016.005874
1016.005874
1016.005874
1016.005874
1016.005874
1016.005874
1016.005874
1016.005874
1016.005874
1016.005874
1016.005874
1016.005874
1016.005874
1016.005874
1016.005874
1016.005874
1016.005874
1016.005874
1016.005874
1016.005874
1016.005874
1016.005874
1016.005874
1016.005874
1016.005874
1016.005874
1016.005874
1016.005874
1016.005874
971.689820
915.647745
837.413669
783.786774
716.812015
667.233467
607.987642
566.396713
518.026948
490.425825
452.651978
427.568555
394.073725
368.849635
342.146754
323.672891
300.495625
283.282995
263.536572
251.780748
237.634778
228.541493
216.948986
##ZVALUE=295
18.341541
18.428564
18.670559
19.118786
19.757748
19.972920
20.468831
21.213889
21.737814
22.495985
23.407936
24.155974
24.583936
25.244951
26.212931
27.294755
28.586984
29.970407
31.340718
32.448769
34.616590
37.914515
40.484667
44.400692
48.571825
55.071712
60.579777
69.724917
78.583956
151.282549
576.222539
1016.005874
1016.005874
1016.005874
1016.005874
1016.005874
1016.005874
1016.005874
1016.005874
1016.005874
1016.005874
1016.005874
1016.005874
1016.005874
1016.005874
1016.005874
1016.005874
844.902992
783.345699
832.591653
880.315900
941.898823
987.884998
1016.005874
1016.005874
1016.005874
1016.005874
1016.005874
1016.005874
1016.005874
1013.773680
978.513956
951.386690
916.360617
894.385576
861.378908
839.594007
809.382796
788.872838
760.173798
740.447640
708.023906
675.699711
630.478859
590.939522
540.608764
504.020452
460.426807
428.952575
394.684672
370.254517
339.861512
322.071910
299.375653
283.548832
263.445973
251.525640
