##TITLE=C106_R5
##FORMAT=SPECTACLE-ASCII V-1.2
##DATA TYPE=ULTRAVIOLET SPECTRUM
##SECOND TYPE=ULTRAVIOLET SPECTRUM
##DATE=05/28/18
##TIME=15:12:16
##SPECTROMETER/DATA SYSTEM=SPECTACLE
##XUNITS=NM EM
##YUNITS=ENERGY
##YFACTOR=1
##FIRSTX=220
##LASTX=410
##NPOINTS=96
##3DDATA=Equidistant
##ZUNITS=NM EX
##FIRSTZ=210
##LASTZ=400
##ZPOINTS=39
##XYDATA=(Y..Y)
##ZVALUE=210
336.515903
309.143662
194.267631
97.214580
61.031580
52.834749
57.086945
62.252879
69.127679
73.454976
77.343583
82.539916
87.933540
87.252855
92.525482
97.078681
98.633766
104.959607
110.773444
123.448968
128.078461
143.126845
155.204535
171.175003
183.480978
206.213593
218.685865
234.504938
261.770487
274.283886
299.887657
320.169926
356.887579
384.372473
429.967642
461.055636
508.847833
537.688732
592.638850
624.827743
654.966831
696.390867
732.190013
763.083696
784.651637
823.051929
854.398012
883.410573
895.646811
918.049812
928.571820
958.340764
963.804722
957.340002
976.435542
981.251597
974.583030
972.055793
965.332985
959.225893
951.246619
948.779583
955.535769
979.577899
1010.366678
1016.005874
1016.005874
1016.005874
1016.005874
1016.005874
1016.005874
1016.005874
1016.005874
1016.005874
1016.005874
1016.005874
1016.005874
1016.005874
1016.005874
1016.005874
1016.005874
1016.005874
914.471745
796.365738
676.178932
621.928573
567.635894
539.165735
526.240468
522.029996
556.296706
593.540668
686.039925
776.425004
960.792899
1016.005874
##ZVALUE=215
1016.005874
1016.005874
1016.005874
922.514796
582.226515
293.625593
168.577433
98.314881
95.842481
93.629956
99.500418
97.598433
95.574856
99.327564
99.443793
97.574592
108.027458
110.167861
116.595626
128.769875
136.698484
148.084760
160.382986
176.299810
193.747878
210.326910
224.751830
240.899920
263.404846
290.607810
302.869678
338.889956
381.358862
424.764752
463.838577
514.258742
571.288466
625.560880
680.551529
751.898885
791.251659
851.305723
904.781818
963.238478
1004.152894
1016.005874
1016.005874
1016.005874
1016.005874
1016.005874
1016.005874
1016.005874
1016.005874
1016.005874
1016.005874
1016.005874
1016.005874
1016.005874
1016.005874
1016.005874
1016.005874
1016.005874
1016.005874
1016.005874
1016.005874
1016.005874
1016.005874
1016.005874
1016.005874
1016.005874
1016.005874
1016.005874
1016.005874
1016.005874
1016.005874
1016.005874
1016.005874
1016.005874
1016.005874
1016.005874
1016.005874
1011.501551
908.208489
790.358782
722.211599
642.509460
607.205629
573.946834
553.948879
530.619621
505.495667
498.202443
488.172770
508.560538
538.698435
618.683696
##ZVALUE=220
1016.005874
1016.005874
1016.005874
1016.005874
1016.005874
1016.005874
1016.005874
816.563964
409.721732
211.706758
123.822689
118.773580
113.874674
113.169551
109.015703
105.298758
104.716420
106.098652
111.156702
118.324757
123.063922
135.618448
143.258572
155.597925
169.679523
182.826519
200.156569
213.135481
230.487585
244.112611
276.577473
301.162004
348.586440
389.596820
461.643934
515.471697
607.256889
673.085451
760.997534
846.096873
910.495520
1006.226540
1016.005874
1016.005874
1016.005874
1016.005874
1016.005874
1016.005874
1016.005874
1016.005874
1016.005874
1016.005874
1016.005874
1016.005874
1016.005874
1016.005874
1016.005874
1016.005874
1016.005874
1016.005874
1016.005874
1016.005874
1016.005874
1016.005874
1016.005874
1016.005874
1016.005874
1016.005874
1016.005874
1016.005874
1016.005874
1016.005874
1016.005874
1016.005874
1016.005874
1016.005874
1016.005874
1016.005874
1016.005874
1016.005874
1016.005874
1016.005874
921.614766
827.980638
748.406649
689.396858
631.369948
605.217814
562.990904
533.250570
518.846512
502.609015
476.046801
468.426943
449.990630
434.381962
##ZVALUE=225
1016.005874
1016.005874
1016.005874
1016.005874
1016.005874
1016.005874
1016.005874
1016.005874
1016.005874
1016.005874
894.853473
375.352502
160.384774
142.423511
137.002468
131.653547
125.102997
124.792457
118.471980
120.407939
120.112896
129.451752
135.111809
142.191648
153.406858
166.463852
178.214908
193.370581
201.178789
226.794481
249.212980
287.132859
338.739753
402.229428
470.001698
579.044819
651.488900
777.169466
877.216458
1000.242829
1016.005874
1016.005874
1016.005874
1016.005874
1016.005874
1016.005874
1016.005874
1016.005874
1016.005874
1016.005874
1016.005874
1016.005874
1016.005874
1016.005874
1016.005874
1016.005874
1016.005874
1016.005874
1016.005874
1016.005874
1016.005874
1016.005874
1016.005874
1016.005874
1016.005874
1016.005874
1016.005874
1016.005874
1016.005874
1016.005874
1016.005874
1016.005874
1016.005874
1016.005874
1016.005874
1016.005874
1016.005874
1016.005874
1016.005874
1016.005874
1016.005874
1016.005874
947.255492
849.602818
783.994794
732.460022
688.644648
649.878979
608.497858
576.348901
553.885698
524.264574
503.324866
479.805470
460.096598
451.182723
##ZVALUE=230
1016.005874
1016.005874
1016.005874
1016.005874
1016.005874
1016.005874
1016.005874
1016.005874
1016.005874
1016.005874
1016.005874
1016.005874
1016.005874
770.933032
270.388722
177.882910
166.021585
159.413815
156.349540
148.407817
139.792562
136.362910
137.408972
144.865513
148.243904
155.937672
164.591670
177.519917
186.608434
204.684734
223.985910
269.858837
312.196612
396.435857
471.527576
582.989454
683.061481
825.257897
935.297608
1016.005874
1016.005874
1016.005874
1016.005874
1016.005874
1016.005874
1016.005874
1016.005874
1016.005874
1016.005874
1016.005874
1016.005874
1016.005874
1016.005874
1016.005874
1016.005874
1016.005874
1016.005874
1016.005874
1016.005874
1016.005874
1016.005874
1016.005874
1016.005874
1016.005874
1016.005874
1016.005874
1016.005874
1016.005874
1016.005874
1016.005874
1016.005874
1016.005874
1016.005874
1016.005874
1016.005874
1016.005874
1016.005874
1016.005874
1016.005874
1016.005874
1016.005874
1005.677581
936.260819
846.026540
793.530941
726.796985
686.333776
648.052692
619.964600
575.863719
551.486015
517.320633
488.607883
477.627516
456.166863
441.761613
##ZVALUE=235
913.114548
1002.226472
1016.005874
1016.005874
1016.005874
1016.005874
1016.005874
1016.005874
1016.005874
1016.005874
1016.005874
1016.005874
1016.005874
1016.005874
1016.005874
1016.005874
465.332866
233.468413
195.426941
190.664530
188.085437
180.839896
171.435475
164.081454
156.036615
155.314803
164.875984
166.442990
182.217956
186.820626
231.899619
240.219831
326.979756
330.691934
403.522849
471.174717
578.101873
657.411814
823.529959
862.205029
975.219607
1016.005874
1016.005874
1016.005874
1016.005874
1016.005874
1016.005874
1016.005874
1016.005874
1016.005874
1016.005874
1016.005874
1016.005874
1016.005874
1016.005874
1016.005874
1016.005874
1016.005874
1016.005874
1016.005874
1016.005874
1016.005874
1016.005874
1016.005874
1016.005874
1016.005874
1016.005874
1016.005874
1016.005874
1016.005874
1016.005874
1016.005874
1016.005874
1016.005874
1016.005874
1016.005874
1016.005874
1016.005874
1016.005874
1005.438566
902.869701
820.042491
737.243891
681.373477
633.463860
598.086715
560.658574
537.370443
501.870513
483.910441
458.735824
436.097980
423.851609
414.228439
397.343636
386.228561
##ZVALUE=240
42.278767
55.994987
212.334394
948.410034
1016.005874
1016.005874
1016.005874
1016.005874
1016.005874
1016.005874
1016.005874
1016.005874
1016.005874
1016.005874
1016.005874
1016.005874
1016.005874
1016.005874
959.881544
313.827991
220.233798
214.360952
207.739472
204.342604
191.702843
182.537436
174.721479
171.245933
170.047879
175.842643
184.010863
198.209882
226.077437
252.348781
296.436548
328.943729
385.992527
431.155562
486.518741
535.143018
586.781502
652.990937
696.612000
762.139559
811.935663
881.318450
920.544863
969.061852
1008.643508
1016.005874
1016.005874
1016.005874
1016.005874
1016.005874
1016.005874
1016.005874
1016.005874
1016.005874
1016.005874
1016.005874
1016.005874
1016.005874
1016.005874
1016.005874
1016.005874
1016.005874
1016.005874
1016.005874
1016.005874
1016.005874
1016.005874
1016.005874
1016.005874
1016.005874
1016.005874
1016.005874
941.777825
859.732032
759.713650
691.538453
610.823631
554.049015
509.441495
480.352640
445.216894
424.534678
398.091674
389.889479
375.193954
366.473794
346.755981
340.835452
326.020718
327.070951
316.357613
315.761566
##ZVALUE=245
26.461482
26.181936
29.867887
39.369464
116.935372
643.080473
1016.005874
1016.005874
1016.005874
1016.005874
1016.005874
1016.005874
1016.005874
1016.005874
1016.005874
1016.005874
1016.005874
1016.005874
1016.005874
1016.005874
1016.005874
480.176806
242.265463
220.298767
223.383904
217.540860
212.526917
202.910900
196.319818
184.151530
183.845758
182.730556
188.515782
205.811858
220.129490
242.057443
263.331532
297.839642
313.719511
351.672769
378.682613
413.503647
442.592502
477.817655
505.021811
545.100570
575.826764
609.481931
632.313490
664.935708
690.388680
717.103481
730.092525
745.533705
759.661794
766.021609
765.500665
765.562654
765.559673
753.700733
751.372576
736.445785
722.729564
713.440776
703.302026
702.748895
712.442994
727.710724
751.295686
783.340931
805.560946
826.620460
830.031633
814.275742
785.552859
726.806521
675.477982
606.837869
551.653504
489.802957
447.422862
397.772789
368.352532
341.801643
330.068469
312.539935
302.456617
295.869708
291.816592
284.786820
274.485946
270.816684
264.610648
264.315605
261.349678
261.268616
##ZVALUE=250
21.320581
21.008849
22.280812
26.240945
28.096437
34.037828
54.418445
328.667760
958.706737
1016.005874
1016.005874
1016.005874
1016.005874
1016.005874
1016.005874
1016.005874
1016.005874
1016.005874
1016.005874
1016.005874
1016.005874
1016.005874
1016.005874
853.720903
326.470733
225.404501
231.687427
232.732892
230.835676
227.837563
216.960907
210.253596
203.357935
202.944875
212.189555
222.327709
240.745544
257.513523
289.386511
309.836864
332.081914
369.655490
393.688679
431.052446
460.291505
497.335792
526.456833
560.879707
584.617853
609.267950
643.242598
661.005974
684.072971
700.421929
710.475445
717.520714
719.530582
720.130801
715.716481
714.780688
703.701973
696.759820
685.101748
670.944452
660.092831
660.811663
665.854812
669.636726
691.725016
704.009533
729.497671
736.469626
738.127828
721.740723
689.376593
659.257770
592.840910
541.006923
479.375720
431.920886
386.211872
362.381935
329.952836
314.010978
293.553472
281.774998
271.295905
264.819860
257.722735
251.160860
246.754885
240.285993
238.507986
237.479806
233.073831
234.400630
##ZVALUE=255
17.861724
18.168688
19.067526
21.140575
22.926927
26.264787
29.056668
34.588575
41.448474
141.765475
561.876893
1016.005874
1016.005874
1016.005874
1016.005874
1016.005874
1016.005874
1016.005874
1016.005874
1016.005874
1016.005874
1016.005874
1016.005874
1016.005874
1016.005874
1016.005874
672.121644
250.304937
232.666731
243.404508
247.858763
249.895453
254.147649
253.556967
253.281593
263.267756
271.003842
295.395851
313.493013
350.276828
379.952788
422.368646
456.476808
501.985550
539.000630
587.454438
619.844794
665.084720
701.347589
742.477775
770.096779
806.223750
822.923779
849.331021
859.926939
872.537494
872.413516
877.335668
874.376893
861.016512
852.491856
835.061669
817.606449
796.974897
788.550973
774.860978
761.656761
762.463808
760.309696
769.688487
769.798756
759.452581
750.967860
720.340014
687.263608
634.970665
586.793423
533.701777
489.731431
435.955524
403.583646
366.834998
342.839956
320.532918
304.135680
287.232995
277.390480
264.975429
258.278847
247.905850
241.890550
235.932469
229.283571
228.042006
223.523974
221.305490
##ZVALUE=260
17.053485
16.814470
18.252730
19.404888
20.106435
22.435784
24.926662
27.266741
31.191707
34.862757
38.860440
68.016648
246.725678
1008.606553
1016.005874
1016.005874
1016.005874
1016.005874
1016.005874
1016.005874
1016.005874
1016.005874
1016.005874
1016.005874
1016.005874
1016.005874
1016.005874
1016.005874
1016.005874
460.031629
251.255631
256.236792
273.229480
304.080844
318.861008
344.016552
360.893607
385.241508
409.658551
446.878672
481.122732
528.072715
576.910973
642.170906
692.655444
758.180022
803.135633
872.218013
913.769007
973.524451
1011.533737
1016.005874
1016.005874
1016.005874
1016.005874
1016.005874
1016.005874
1016.005874
1016.005874
1016.005874
1016.005874
1016.005874
1016.005874
1016.005874
1015.434861
988.231897
970.703959
948.979855
939.268470
922.042727
908.798575
885.033607
862.124562
815.086961
775.294900
715.209842
665.443540
595.476627
551.854968
495.249629
457.847714
418.957472
392.865539
367.375016
348.160863
323.925614
308.722854
292.549729
279.455781
266.808867
254.926682
245.455503
238.585472
233.832598
225.330591
222.637653
##ZVALUE=265
16.961694
16.955733
18.217564
19.465685
19.875765
21.336675
23.283958
25.201440
27.093887
29.226542
33.240914
35.938621
40.139556
47.858357
107.053518
658.005476
1016.005874
1016.005874
1016.005874
1016.005874
1016.005874
1016.005874
1016.005874
1016.005874
1016.005874
1016.005874
1016.005874
1016.005874
1016.005874
1016.005874
1016.005874
898.338556
368.219018
311.402678
348.073840
407.729745
450.421572
508.041978
549.357533
606.755018
648.365021
707.731843
762.175918
840.920806
899.721980
984.509587
1016.005874
1016.005874
1016.005874
1016.005874
1016.005874
1016.005874
1016.005874
1016.005874
1016.005874
1016.005874
1016.005874
1016.005874
1016.005874
1016.005874
1016.005874
1016.005874
1016.005874
1016.005874
1016.005874
1016.005874
1016.005874
1016.005874
1016.005874
1016.005874
1016.005874
1016.005874
1016.005874
981.564522
928.722620
848.039985
790.347457
714.832544
661.954880
592.316985
547.909737
497.853756
466.684699
435.406566
410.154462
380.243659
356.866717
336.099863
321.618915
299.119949
285.623670
272.246003
262.637734
249.979496
245.743990
237.963796
##ZVALUE=270
17.306805
17.493963
17.787814
18.624663
19.652843
19.995570
21.854639
23.520589
24.929643
25.939941
28.689504
30.587912
33.906698
36.416650
41.575432
45.104623
68.304539
228.727460
809.168816
1016.005874
1016.005874
1016.005874
1016.005874
1016.005874
1016.005874
1016.005874
1016.005874
1016.005874
1016.005874
1016.005874
1016.005874
1016.005874
1016.005874
1016.005874
717.103481
447.371006
499.702692
597.270727
672.845840
772.102475
847.450495
936.513543
1002.416015
1016.005874
1016.005874
1016.005874
1016.005874
1016.005874
1016.005874
1016.005874
1016.005874
1016.005874
1016.005874
1016.005874
1016.005874
1016.005874
1016.005874
1016.005874
1016.005874
1016.005874
1016.005874
1016.005874
1016.005874
1016.005874
1016.005874
1016.005874
1016.005874
1016.005874
1016.005874
1016.005874
1016.005874
1016.005874
1016.005874
1016.005874
1016.005874
993.343592
924.988985
839.782953
779.052973
704.250932
655.908585
593.171716
554.582477
509.711504
479.743481
440.886617
417.228937
388.617516
369.280577
342.965722
323.227644
302.116871
290.907621
274.729729
267.316699
258.976817
##ZVALUE=275
17.910600
17.587543
18.421412
19.093752
19.221902
20.304918
21.493435
22.077560
23.985505
25.301576
26.760697
28.099418
29.495955
32.301545
34.198761
38.360953
40.747523
46.187639
52.698851
122.825503
533.353686
1015.997529
1015.997529
1015.997529
1015.997529
1015.997529
1015.997529
1015.997529
1015.997529
1015.997529
1015.997529
1015.997529
1015.997529
1015.997529
1015.997529
1015.997529
1015.997529
725.713968
722.938776
845.783949
942.038894
1015.997529
1015.997529
1015.997529
1015.997529
1015.997529
1015.997529
1015.997529
1015.997529
1015.997529
1015.997529
1015.997529
1015.997529
1015.997529
1015.997529
1015.997529
1015.997529
1015.997529
1015.997529
1015.997529
1015.997529
1015.997529
1015.997529
1015.997529
1015.997529
1015.997529
1015.997529
1015.997529
1015.997529
1015.997529
1015.997529
1015.997529
1015.997529
1015.997529
1015.997529
1015.997529
1015.997529
948.506594
878.006816
795.598030
733.923912
666.050911
624.286532
576.201677
539.494753
496.922731
465.833545
428.650975
406.023860
374.957919
355.516672
328.060985
314.580798
296.793580
288.075805
275.890827
##ZVALUE=280
18.539429
18.275976
18.216968
19.280910
19.855499
20.434856
21.369457
22.594929
23.065805
24.339557
25.725961
26.920438
28.461814
29.914975
31.607747
32.871962
36.006570
38.843751
43.322444
48.125982
56.969523
71.430802
401.383638
1016.005874
1016.005874
1016.005874
1016.005874
1016.005874
1016.005874
1016.005874
1016.005874
1016.005874
1016.005874
1016.005874
1016.005874
1016.005874
1016.005874
1016.005874
1016.005874
1016.005874
947.436690
1016.005874
1016.005874
1016.005874
1016.005874
1016.005874
1016.005874
1016.005874
1016.005874
1016.005874
1016.005874
1016.005874
1016.005874
1016.005874
1016.005874
1016.005874
1016.005874
1016.005874
1016.005874
1016.005874
1016.005874
1016.005874
1016.005874
1016.005874
1016.005874
1016.005874
1016.005874
1016.005874
1016.005874
1016.005874
1016.005874
1016.005874
1016.005874
1016.005874
1016.005874
1016.005874
1016.005874
973.090529
907.679796
820.752978
764.458776
696.781874
650.587678
595.016479
559.269786
513.889790
481.652617
445.114970
419.173837
386.834741
362.587571
337.256789
322.634578
304.507613
290.232897
278.001428
##ZVALUE=285
18.363595
18.763542
19.282699
20.108819
20.201802
21.092892
21.801591
22.390485
23.320913
24.829507
25.034547
26.392937
27.405620
28.558969
29.875636
31.630993
33.131838
35.452843
37.736893
42.725801
45.095682
49.875975
58.084726
67.477822
165.618658
654.057860
1016.075015
1016.075015
1016.075015
1016.075015
1016.075015
1016.075015
1016.075015
1016.075015
1016.075015
1016.075015
1016.075015
1016.075015
1016.075015
1016.075015
1016.075015
1016.075015
1016.075015
1016.075015
1016.075015
1016.075015
1016.075015
1016.075015
1016.075015
1016.075015
1016.075015
1016.075015
1016.075015
1016.075015
1016.075015
1016.075015
1016.075015
1016.075015
1016.075015
1016.075015
1016.075015
1016.075015
1016.075015
1016.075015
1016.075015
1016.075015
1016.075015
1016.075015
1016.075015
1016.075015
1016.075015
1016.075015
1016.075015
1016.075015
1016.075015
1016.075015
987.772942
903.642774
837.392807
763.894916
711.342692
648.291707
607.929826
560.563803
528.971553
484.653711
454.117656
418.888927
393.333435
365.478992
342.815518
316.998959
302.967429
284.586549
271.717906
258.876681
##ZVALUE=290
18.845797
18.973947
19.560456
20.106435
20.527840
20.690560
21.505952
22.376776
22.918582
24.328828
24.842620
25.453568
26.193857
27.221441
29.022694
29.295683
30.750632
32.708645
34.516454
37.253499
39.579868
42.861700
48.657656
53.693652
60.905814
69.566965
83.029866
326.824784
996.537805
1016.005874
1016.005874
1016.005874
1016.005874
1016.005874
1016.005874
1016.005874
1016.005874
1016.005874
1016.005874
1016.005874
1016.005874
1016.005874
1016.005874
1016.005874
1016.005874
1014.426947
1016.005874
1016.005874
1016.005874
1016.005874
1016.005874
1016.005874
1016.005874
1016.005874
1016.005874
1016.005874
1016.005874
1016.005874
1016.005874
1016.005874
1016.005874
1016.005874
1016.005874
1016.005874
1016.005874
1016.005874
1016.005874
1016.005874
1016.005874
1016.005874
1016.005874
1016.005874
1016.005874
970.642567
914.492607
836.020708
783.460736
715.029836
669.433475
609.164834
568.832755
521.705747
490.175486
451.359749
425.243974
392.517447
369.976759
344.023705
324.687958
301.829576
284.838676
265.974998
255.352855
241.089463
229.882002
221.542716
##ZVALUE=295
18.370748
18.920898
19.041896
19.472837
19.930601
20.515919
20.882487
21.939874
22.607446
23.039579
24.030805
24.734735
25.233626
25.813580
27.026534
28.000474
28.963685
30.290484
31.611919
33.519864
35.287738
38.580894
41.099787
44.878721
49.492717
56.158900
61.638951
71.372986
81.001520
154.620409
585.204959
1016.005874
1016.005874
1016.005874
1016.005874
1016.005874
1016.005874
1016.005874
1016.005874
1016.005874
1016.005874
1016.005874
1016.005874
1016.005874
1016.005874
1016.005874
1016.005874
860.129595
793.970823
847.034454
890.555978
956.682563
1001.678705
1016.005874
1016.005874
1016.005874
1016.005874
1016.005874
1016.005874
1016.005874
1016.005874
991.249681
968.135595
931.046009
908.222795
875.306726
851.397514
821.184516
801.742673
774.645805
753.452778
720.938444
689.790845
643.363595
605.414510
549.997687
513.756871
471.071601
439.447761
402.660966
376.252532
348.532796
327.469707
304.520726
289.818645
270.143747
258.172750
