##TITLE=C106_R1
##FORMAT=SPECTACLE-ASCII V-1.2
##DATA TYPE=ULTRAVIOLET SPECTRUM
##SECOND TYPE=ULTRAVIOLET SPECTRUM
##DATE=05/28/18
##TIME=14:57:17
##SPECTROMETER/DATA SYSTEM=SPECTACLE
##XUNITS=NM EM
##YUNITS=ENERGY
##YFACTOR=1
##FIRSTX=220
##LASTX=410
##NPOINTS=96
##3DDATA=Equidistant
##ZUNITS=NM EX
##FIRSTZ=210
##LASTZ=400
##ZPOINTS=39
##XYDATA=(Y..Y)
##ZVALUE=210
325.048566
323.507786
182.367563
104.414821
57.207942
52.242875
52.931905
60.749650
65.366626
70.859790
75.372458
77.776909
83.517432
84.664822
85.416436
88.776946
96.248984
101.168752
105.878711
113.884807
124.119520
138.540864
147.623420
161.713958
179.367661
188.701749
208.344460
227.999687
245.616436
264.890790
279.644728
306.215882
333.583951
373.216867
402.441621
445.486903
484.793782
529.773831
559.012890
599.697828
629.220009
668.757558
693.136454
728.858709
752.160549
790.386796
823.442936
841.213465
864.464641
889.638662
899.984837
920.234919
932.937860
942.834020
929.491520
948.817730
949.165821
960.988998
949.901938
936.407447
928.347707
909.886956
927.445889
928.388834
959.120989
1016.005874
1016.005874
1016.005874
1016.005874
1016.005874
1016.005874
1016.005874
1016.005874
1016.005874
1016.005874
1016.005874
1016.005874
1016.005874
1016.005874
1016.005874
1016.005874
996.779799
871.003866
725.279450
651.629567
575.194955
535.082817
510.251522
485.053658
498.800874
515.446663
574.164987
628.457665
749.292970
876.913667
1016.005874
##ZVALUE=215
1016.005874
1016.005874
1016.005874
912.026763
575.491786
298.446417
168.573856
96.793771
88.662505
90.867877
92.191696
94.868541
95.438957
96.867681
95.120668
96.635818
104.400516
107.387900
110.957623
119.076967
129.600763
144.719481
150.883794
170.133710
179.875493
199.729800
215.960741
238.949656
254.787803
274.697542
291.534662
334.248543
352.302790
402.202010
446.264744
502.511859
542.193651
614.734888
654.327869
729.913712
769.626498
828.616023
869.962573
923.005939
981.863737
1016.005874
1016.005874
1016.005874
1016.005874
1016.005874
1016.005874
1016.005874
1016.005874
1016.005874
1016.005874
1016.005874
1016.005874
1016.005874
1016.005874
1016.005874
1016.005874
1016.005874
1016.005874
1016.005874
1016.005874
1016.005874
1016.005874
1016.005874
1016.005874
1016.005874
1016.005874
1016.005874
1016.005874
1016.005874
1016.005874
1016.005874
1016.005874
1016.005874
1016.005874
1016.005874
1016.005874
982.734561
871.576667
754.407644
687.226653
617.381930
582.862496
556.928515
529.638529
503.281951
483.195782
462.948680
463.900566
485.857725
509.909987
602.095723
##ZVALUE=220
1016.005874
1016.005874
1016.005874
1016.005874
1016.005874
1016.005874
1016.005874
795.318484
407.727957
206.294656
122.200847
117.866993
112.646818
108.834505
102.269650
102.929473
103.635788
103.047490
107.617974
114.279985
116.262436
128.165483
140.081644
153.333545
161.102414
174.495578
191.329718
202.109814
217.333436
244.458914
263.556838
297.662616
331.065655
385.927558
445.459485
521.489978
571.797490
664.716959
728.237629
821.875930
895.769000
984.385610
1016.005874
1016.005874
1016.005874
1016.005874
1016.005874
1016.005874
1016.005874
1016.005874
1016.005874
1016.005874
1016.005874
1016.005874
1016.005874
1016.005874
1016.005874
1016.005874
1016.005874
1016.005874
1016.005874
1016.005874
1016.005874
1016.005874
1016.005874
1016.005874
1016.005874
1016.005874
1016.005874
1016.005874
1016.005874
1016.005874
1016.005874
1016.005874
1016.005874
1016.005874
1016.005874
1016.005874
1016.005874
1016.005874
1016.005874
973.993540
892.197490
781.452656
727.841854
651.273727
607.631803
577.363968
554.931760
509.997606
494.882464
475.299954
462.159514
438.447595
433.816910
417.041779
##ZVALUE=225
1016.005874
1016.005874
1016.005874
1016.005874
1016.005874
1016.005874
1016.005874
1016.005874
1016.005874
1016.005874
873.059630
368.590951
153.722763
141.732693
135.677457
131.816864
121.771693
119.738579
111.857653
111.275911
118.878484
121.309757
126.837492
137.755871
151.009560
158.834457
169.662833
178.709626
195.007920
214.056969
237.266421
279.762745
315.404534
391.636491
455.358624
554.015636
643.488765
759.125948
855.004787
990.728736
1016.005874
1016.005874
1016.005874
1016.005874
1016.005874
1016.005874
1016.005874
1016.005874
1016.005874
1016.005874
1016.005874
1016.005874
1016.005874
1016.005874
1016.005874
1016.005874
1016.005874
1016.005874
1016.005874
1016.005874
1016.005874
1016.005874
1016.005874
1016.005874
1016.005874
1016.005874
1016.005874
1016.005874
1016.005874
1016.005874
1016.005874
1016.005874
1016.005874
1016.005874
1016.005874
1016.005874
1016.005874
1016.005874
1016.005874
1016.005874
1016.005874
996.221900
912.078023
828.419924
771.362782
701.767802
672.352910
630.958676
592.435598
560.141802
532.685518
497.457981
479.859710
461.312532
443.785787
427.225828
##ZVALUE=230
1016.005874
1016.005874
1016.005874
1016.005874
1016.005874
1016.005874
1016.005874
1016.005874
1016.005874
1016.005874
1016.005874
1016.005874
1016.005874
764.378905
273.928642
174.750686
162.143707
155.708790
148.877501
142.348409
135.240555
135.712624
133.966804
135.320425
138.947964
148.574710
155.531764
167.049766
180.382729
194.678903
214.695930
257.040858
300.466418
377.643704
448.902845
570.065975
662.513971
803.878903
908.020735
1016.005874
1016.005874
1016.005874
1016.005874
1016.005874
1016.005874
1016.005874
1016.005874
1016.005874
1016.005874
1016.005874
1016.005874
1016.005874
1016.005874
1016.005874
1016.005874
1016.005874
1016.005874
1016.005874
1016.005874
1016.005874
1016.005874
1016.005874
1016.005874
1016.005874
1016.005874
1016.005874
1016.005874
1016.005874
1016.005874
1016.005874
1016.005874
1016.005874
1016.005874
1016.005874
1016.005874
1016.005874
1016.005874
1016.005874
1016.005874
1016.005874
1016.005874
982.797742
901.604891
825.448632
772.210956
707.844496
667.352676
618.157983
591.531992
553.033948
530.035496
498.026609
482.324958
454.747677
444.310904
422.497988
##ZVALUE=235
864.452720
966.926813
1016.005874
1016.005874
1016.005874
1016.005874
1016.005874
1016.005874
1016.005874
1016.005874
1016.005874
1016.005874
1016.005874
1016.005874
1016.005874
1016.005874
427.384973
222.460628
191.920996
187.294483
183.746815
171.675682
162.670612
154.968500
150.001645
151.371956
152.436495
158.601999
166.821480
182.662606
196.661949
228.786469
262.279510
323.950648
384.840965
469.744802
547.524691
652.658939
737.164617
848.820806
936.782956
1016.005874
1016.005874
1016.005874
1016.005874
1016.005874
1016.005874
1016.005874
1016.005874
1016.005874
1016.005874
1016.005874
1016.005874
1016.005874
1016.005874
1016.005874
1016.005874
1016.005874
1016.005874
1016.005874
1016.005874
1016.005874
1016.005874
1016.005874
1016.005874
1016.005874
1016.005874
1016.005874
1016.005874
1016.005874
1016.005874
1016.005874
1016.005874
1016.005874
1016.005874
1016.005874
1016.005874
1016.005874
1016.005874
964.201689
881.416798
781.982541
727.252960
661.552548
621.310472
577.065945
545.180440
518.021584
493.681431
468.477607
446.774960
425.120592
409.569740
390.978456
383.660793
367.566943
##ZVALUE=240
39.190650
49.575567
194.687843
922.456980
1016.005874
1016.005874
1016.005874
1016.005874
1016.005874
1016.005874
1016.005874
1016.005874
1016.005874
1016.005874
1016.005874
1016.005874
1016.005874
1016.005874
801.496506
332.799554
212.368965
212.419629
205.239654
196.995735
189.548731
180.707574
170.346498
165.051818
162.956715
171.468854
176.273584
194.667578
212.156773
245.423913
278.508663
329.669714
369.250774
422.809720
471.593738
527.957678
576.661825
638.898611
684.015751
750.466585
798.797607
859.475732
899.264812
954.579711
996.010900
1016.005874
1016.005874
1016.005874
1016.005874
1016.005874
1016.005874
1016.005874
1016.005874
1016.005874
1016.005874
1016.005874
1016.005874
1016.005874
1016.005874
1016.005874
1016.005874
1016.005874
1016.005874
1016.005874
1016.005874
1016.005874
1016.005874
1016.005874
1016.005874
1016.005874
1016.005874
976.064801
912.085772
816.481709
742.519498
655.436516
598.738790
532.838702
496.323705
454.676747
432.586670
405.098796
390.987992
369.986892
365.426540
348.317623
338.850617
327.550769
317.485929
314.937830
308.375955
304.032564
##ZVALUE=245
24.957657
24.597645
27.108788
37.907958
108.358264
618.236661
1016.005874
1016.005874
1016.005874
1016.005874
1016.005874
1016.005874
1016.005874
1016.005874
1016.005874
1016.005874
1016.005874
1016.005874
1016.005874
1016.005874
1016.005874
471.210480
241.066813
222.504735
221.356750
218.804479
214.757919
199.155807
190.998912
182.369947
181.692839
179.443955
185.706615
200.183988
212.707520
240.652561
259.377956
283.626914
310.469866
343.380570
362.185836
404.260755
429.117680
465.560555
496.352911
531.545877
560.714602
595.418811
625.609756
654.153824
678.156018
700.210929
720.399618
732.771754
743.431449
752.810836
759.955645
756.066442
755.146742
744.175911
732.803941
722.869635
708.478689
702.949762
696.765780
687.862635
697.059035
711.030960
728.093982
760.669708
777.277946
791.803598
795.449018
778.757930
745.443702
696.582794
647.814870
586.161613
531.829000
467.744470
429.613590
388.748646
361.202955
336.369872
319.215655
304.707885
298.868418
283.752680
279.414654
271.746516
268.179774
264.696479
259.451866
256.112814
252.068639
248.948932
##ZVALUE=250
20.423532
20.256639
22.059679
24.476647
28.148890
34.230947
52.070022
311.732888
941.388011
1016.005874
1016.005874
1016.005874
1016.005874
1016.005874
1016.005874
1016.005874
1016.005874
1016.005874
1016.005874
1016.005874
1016.005874
1016.005874
1016.005874
819.327831
315.699577
223.737955
230.207443
229.591727
227.643847
224.210620
216.385722
207.402706
199.894905
199.382901
203.756690
219.319463
234.139562
255.347490
275.983810
305.118561
326.858759
361.014605
384.078622
422.812700
447.660685
485.862494
512.932539
552.964807
580.030680
606.580973
633.526444
655.496716
677.676797
689.405799
700.756907
707.817674
712.933540
712.827444
708.994865
706.104636
700.470805
681.035519
675.087571
656.214952
649.264455
644.558668
645.260811
654.418468
667.088032
688.558817
698.166490
709.365010
708.912611
685.667992
661.929846
614.213943
570.376515
514.694452
465.300679
416.791439
378.741622
342.105627
321.308970
300.698876
286.563635
273.764729
263.502598
256.536603
250.809789
244.147778
240.051746
232.189894
230.647922
225.163698
224.547982
227.612853
##ZVALUE=255
17.010570
17.725825
19.645691
20.496845
23.432970
24.616718
28.213859
33.449531
43.598413
110.132694
702.070594
1016.058922
1016.058922
1016.058922
1016.058922
1016.058922
1016.058922
1016.058922
1016.058922
1016.058922
1016.058922
1016.058922
1016.058922
1016.058922
1016.058922
1016.058922
573.215485
265.832543
234.161615
241.805911
250.793695
253.471732
250.441432
252.414942
253.020525
258.934498
267.130733
289.625525
310.151577
341.818929
371.509790
415.399671
447.959900
496.768951
531.436801
578.558445
616.425872
659.693480
693.781972
736.574531
763.562918
798.296928
821.228027
841.092467
850.762725
872.507691
867.933035
870.749950
866.648555
861.724615
846.524835
834.496617
820.886493
794.724822
782.738924
760.585666
757.786036
749.151707
751.778483
755.024552
750.468969
746.150613
730.184913
703.094006
670.917034
616.901517
575.647950
520.765781
479.435921
427.812934
395.904779
358.006954
336.629748
314.529538
301.121473
282.282829
273.454785
260.027647
254.169703
243.005753
236.386657
229.380727
223.755836
220.032930
218.584538
214.630961
##ZVALUE=260
16.396642
17.398000
17.785430
18.780828
20.567775
22.155643
23.801923
27.624965
30.272603
33.742785
39.405823
55.118799
301.633477
905.642509
1016.005874
1016.005874
1016.005874
1016.005874
1016.005874
1016.005874
1016.005874
1016.005874
1016.005874
1016.005874
1016.005874
1016.005874
1016.005874
1016.005874
1016.005874
412.622690
252.561569
260.444880
279.035568
305.729508
319.693685
344.145894
357.730985
385.671854
406.923890
445.870757
480.508804
532.357693
577.395558
636.900663
686.115623
759.198666
808.360577
873.336792
923.507810
979.408026
1016.005874
1016.005874
1016.005874
1016.005874
1016.005874
1016.005874
1016.005874
1016.005874
1016.005874
1016.005874
1016.005874
1016.005874
1016.005874
1016.005874
1016.005874
997.712016
975.228548
950.893760
936.142802
919.924974
907.137990
881.294608
858.998895
808.454752
764.124990
707.246661
655.364990
596.305728
551.397800
494.445562
458.516479
418.038964
393.970013
362.451673
347.144008
323.522687
310.715437
292.786956
278.713703
262.904763
254.878998
242.830515
235.534906
228.764415
223.411918
216.524005
##ZVALUE=265
16.273856
16.324520
17.486811
18.392801
19.331574
20.605922
22.238493
24.097562
27.022958
28.694868
31.798482
35.331845
38.739443
47.007799
105.393529
651.669502
1016.005874
1016.005874
1016.005874
1016.005874
1016.005874
1016.005874
1016.005874
1016.005874
1016.005874
1016.005874
1016.005874
1016.005874
1016.005874
1016.005874
1016.005874
872.830749
356.227756
309.676528
348.033905
409.222841
449.910760
508.360863
552.271008
604.218841
644.086003
710.978508
758.673549
837.298632
898.375511
989.335775
1016.005874
1016.005874
1016.005874
1016.005874
1016.005874
1016.005874
1016.005874
1016.005874
1016.005874
1016.005874
1016.005874
1016.005874
1016.005874
1016.005874
1016.005874
1016.005874
1016.005874
1016.005874
1016.005874
1016.005874
1016.005874
1016.005874
1016.005874
1016.005874
1016.005874
1016.005874
1016.005874
976.141691
923.882723
847.952962
786.945820
714.896917
658.668876
594.155788
549.942851
500.992537
468.857884
432.060957
410.405993
379.414558
360.692739
334.345698
320.868492
298.856497
284.076929
268.527865
258.675814
247.008801
238.896608
230.869651
##ZVALUE=270
16.598701
17.149448
17.667413
18.059611
19.068718
20.331740
21.292567
23.149848
24.364591
25.552511
28.099418
30.465722
33.253431
35.431981
40.039420
44.591427
67.926645
220.867395
847.289562
1016.005874
1016.005874
1016.005874
1016.005874
1016.005874
1016.005874
1016.005874
1016.005874
1016.005874
1016.005874
1016.005874
1016.005874
1016.005874
1016.005874
1016.005874
698.379874
446.000695
498.835444
593.937635
669.889450
772.512555
840.902925
933.721662
1003.011465
1016.005874
1016.005874
1016.005874
1016.005874
1016.005874
1016.005874
1016.005874
1016.005874
1016.005874
1016.005874
1016.005874
1016.005874
1016.005874
1016.005874
1016.005874
1016.005874
1016.005874
1016.005874
1016.005874
1016.005874
1016.005874
1016.005874
1016.005874
1016.005874
1016.005874
1016.005874
1016.005874
1016.005874
1016.005874
1016.005874
1016.005874
1016.005874
991.243720
924.595594
840.340853
781.403780
704.076886
656.004548
594.069958
554.185510
509.815812
481.225848
443.781614
417.665839
387.416482
364.442468
340.203643
319.534540
298.813581
286.895633
273.025632
262.591839
251.750946
##ZVALUE=275
17.513633
16.635656
17.269850
18.354654
18.828511
20.073652
20.521879
21.918416
22.672415
24.789572
26.653409
27.334690
28.872490
30.971766
33.902526
36.705732
41.061640
44.941902
53.472519
98.739862
633.785725
1016.005874
1016.005874
1016.005874
1016.005874
1016.005874
1016.005874
1016.005874
1016.005874
1016.005874
1016.005874
1016.005874
1016.005874
1016.005874
1016.005874
1016.005874
1016.005874
705.066919
715.577006
838.250518
938.037634
1016.005874
1016.005874
1016.005874
1016.005874
1016.005874
1016.005874
1016.005874
1016.005874
1016.005874
1016.005874
1016.005874
1016.005874
1016.005874
1016.005874
1016.005874
1016.005874
1016.005874
1016.005874
1016.005874
1016.005874
1016.005874
1016.005874
1016.005874
1016.005874
1016.005874
1016.005874
1016.005874
1016.005874
1016.005874
1016.005874
1016.005874
1016.005874
1016.005874
1016.005874
1016.005874
1016.005874
939.785838
872.180462
792.175531
735.913515
664.768815
620.949864
566.968918
534.424782
492.480993
462.919474
425.360799
400.158763
371.848941
348.663926
324.384570
311.801434
292.951465
280.634761
267.792940
##ZVALUE=280
17.639995
17.607808
18.171668
18.553734
18.892884
19.886494
20.862818
21.598935
22.889972
23.801923
25.103688
25.866628
27.437806
28.973818
30.067563
32.731891
34.758449
37.729740
41.729808
47.327876
53.644776
65.997839
329.356790
1016.005874
1016.005874
1016.005874
1016.005874
1016.005874
1016.005874
1016.005874
1016.005874
1016.005874
1016.005874
1016.005874
1016.005874
1016.005874
1016.005874
1016.005874
1016.005874
1016.005874
933.114886
1016.005874
1016.005874
1016.005874
1016.005874
1016.005874
1016.005874
1016.005874
1016.005874
1016.005874
1016.005874
1016.005874
1016.005874
1016.005874
1016.005874
1016.005874
1016.005874
1016.005874
1016.005874
1016.005874
1016.005874
1016.005874
1016.005874
1016.005874
1016.005874
1016.005874
1016.005874
1016.005874
1016.005874
1016.005874
1016.005874
1016.005874
1016.005874
1016.005874
1016.005874
1016.005874
1016.005874
960.291624
894.384980
811.252594
751.183033
688.655972
644.104481
593.040586
556.721687
508.984923
476.807952
440.389514
412.874818
381.994843
357.659459
331.546664
314.400792
297.996998
283.831954
271.116495
##ZVALUE=285
18.190742
17.992854
18.403530
18.732548
19.824505
19.932985
20.529628
21.681786
22.565722
22.978783
24.411678
25.392771
26.138425
27.036667
28.622746
30.895472
31.859875
34.350753
36.143661
40.210485
43.725967
48.066974
56.442618
65.044761
165.010095
640.882850
1016.005874
1016.005874
1016.005874
1016.005874
1016.005874
1016.005874
1016.005874
1016.005874
1016.005874
1016.005874
1016.005874
1016.005874
1016.005874
1016.005874
1016.005874
1016.005874
1016.005874
1016.005874
1016.005874
1016.005874
1016.005874
1016.005874
1016.005874
1016.005874
1016.005874
1016.005874
1016.005874
1016.005874
1016.005874
1016.005874
1016.005874
1016.005874
1016.005874
1016.005874
1016.005874
1016.005874
1016.005874
1016.005874
1016.005874
1016.005874
1016.005874
1016.005874
1016.005874
1016.005874
1016.005874
1016.005874
1016.005874
1016.005874
1016.005874
1016.005874
966.093540
882.691741
826.496482
750.615001
701.261759
637.917519
597.639680
547.503829
512.596965
473.938584
444.684625
408.553481
385.757685
356.114507
334.152579
308.995843
295.236707
277.020931
265.547633
252.033472
##ZVALUE=290
18.369555
18.525720
17.955899
18.917918
19.196868
20.222664
20.531416
20.884871
22.239685
23.018718
24.111867
24.129748
25.450587
25.998950
27.151704
28.288960
29.705763
31.010509
33.234954
35.325885
37.795901
40.994883
46.335459
51.528811
57.859421
66.495538
80.411434
318.591595
984.507799
1016.005874
1016.005874
1016.005874
1016.005874
1016.005874
1016.005874
1016.005874
1016.005874
1016.005874
1016.005874
1016.005874
1016.005874
1016.005874
1016.005874
1016.005874
1016.005874
986.901522
1016.005874
1016.005874
1016.005874
1016.005874
1016.005874
1016.005874
1016.005874
1016.005874
1016.005874
1016.005874
1016.005874
1016.005874
1016.005874
1016.005874
1016.005874
1016.005874
1016.005874
1016.005874
1016.005874
1016.005874
1016.005874
1016.005874
1016.005874
1016.005874
1016.005874
1016.005874
1010.133028
940.788984
887.278914
811.587572
758.580565
693.851709
646.134615
591.772795
553.104877
507.278442
474.611521
437.983871
414.418578
378.994942
357.904434
332.167745
313.231945
292.510986
276.203752
256.157517
243.985653
232.294798
224.278569
213.021636
##ZVALUE=295
17.528534
17.654896
18.006563
18.280745
18.797517
18.904805
19.727945
20.592809
21.400452
21.906495
22.790432
23.385882
23.799539
24.880767
25.583506
26.597977
26.994944
29.205680
30.095577
32.110810
33.943653
36.276579
39.248466
42.639971
47.366619
52.432418
59.437752
66.797733
79.830885
124.038458
461.318493
1016.005874
1016.005874
1016.005874
1016.005874
1016.005874
1016.005874
1016.005874
1016.005874
1016.005874
1016.005874
1016.005874
1016.005874
1016.005874
1016.005874
1016.005874
1016.005874
848.945975
755.052567
805.971026
851.411819
914.005637
955.768824
1008.417010
1016.005874
1016.005874
1016.005874
1016.005874
1016.005874
1004.788876
978.850722
944.820642
920.279026
886.185765
861.261487
830.681920
806.216002
781.400800
758.329034
734.326839
715.023875
682.246089
653.944612
607.624650
571.630597
520.326495
487.195849
445.954800
416.281819
379.967690
355.949998
329.478979
311.083794
292.122960
274.093747
256.358981
244.843960
228.391886
219.333768
