Data from Saline_log8 (I=1 T=5x1 V=3ml)_RamanShift_3.txt Node
Date: Mon Jun 05 14:32:40 IDT 2017
User: aro
Spectrometer: QEPB0276
Trigger mode: 0
Integration Time (sec): 5.000000E0
Scans to average: 1
Electric dark correction enabled: true
Nonlinearity correction enabled: false
Boxcar width: 0
XAxis mode: Raman Shifts
Number of Pixels in Spectrum: 1044
>>>>>Begin Spectral Data<<<<<
160.701	-2
166.742	2.67
172.777	22.67
178.805	97
184.826	260.33
190.841	536.33
196.849	838.67
202.85	1037.67
208.845	1092
214.833	1067
220.815	1029.67
226.789	990.67
232.758	967
238.719	944.33
244.674	915.33
250.623	869
256.565	830.33
262.5	810
268.429	773.67
274.351	749.67
280.267	730.67
286.176	702.33
292.079	694.33
297.975	666.67
303.865	665.33
309.748	640
315.625	642.67
321.495	639.67
327.359	628
333.217	622.67
339.068	626
344.912	632.33
350.751	623.67
356.583	635.67
362.408	629.67
368.227	632
374.04	647.67
379.847	667.33
385.647	668.33
391.44	663.67
397.228	660
403.009	670.67
408.784	683.67
414.553	745.67
420.315	794.33
426.071	799.67
431.821	732.33
437.565	677.67
443.302	671.67
449.033	646
454.758	654.33
460.477	630.67
466.189	619
471.896	616
477.596	612.67
483.29	613.33
488.978	605.67
494.66	598.67
500.335	589.67
506.005	565.33
511.668	545.33
517.325	518
522.977	506.67
528.622	484.33
534.261	476.67
539.894	475
545.521	460
551.141	464
556.756	456
562.365	448.67
567.968	449.67
573.565	440
579.155	449.33
584.74	433.67
590.319	433.67
595.892	424.33
601.459	422.33
607.02	415.67
612.575	405.67
618.124	396.67
623.667	400
629.204	396
634.735	397.67
640.261	397.33
645.781	426.67
651.294	434
656.802	422
662.304	380
667.8	372
673.29	366.33
678.775	370
684.254	364
689.726	360
695.193	358.33
700.655	347.33
706.11	346.67
711.56	351.33
717.004	342.67
722.442	336.67
727.874	339.33
733.301	338
738.722	327.67
744.137	330
749.547	339.33
754.951	331.33
760.349	330.67
765.741	325.67
771.128	319.67
776.509	325.33
781.885	326.33
787.254	322.67
792.618	321
797.977	318.67
803.33	323.33
808.677	316.33
814.019	305.67
819.355	296.33
824.686	294
830.011	298
835.33	299.67
840.644	284.67
845.952	283.67
851.255	279.67
856.552	269.67
861.844	270.67
867.13	264
872.41	263
877.686	260.67
882.955	253
888.219	241.67
893.478	240
898.731	236.67
903.979	232
909.221	224.33
914.458	225.67
919.69	226.33
924.916	218.67
930.136	220
935.351	218
940.561	215.33
945.766	212.33
950.965	210.67
956.158	209.33
961.347	205
966.529	197.33
971.707	197.67
976.879	200.33
982.046	190.67
987.208	203.33
992.364	189
997.515	190.33
1002.66	191.67
1007.801	196
1012.936	190.67
1018.066	197.33
1023.19	195.67
1028.309	197.67
1033.423	195.67
1038.532	192.67
1043.636	190
1048.734	190
1053.827	188
1058.915	190
1063.998	188.67
1069.075	180.33
1074.147	180.67
1079.214	180.67
1084.276	179
1089.333	180.33
1094.385	182
1099.431	184
1104.472	184
1109.509	181.67
1114.54	177
1119.565	178.67
1124.586	177.33
1129.602	172
1134.613	170.33
1139.618	165
1144.619	172
1149.614	167.33
1154.604	169
1159.589	166.67
1164.57	173.67
1169.545	166.67
1174.515	170.33
1179.48	171.33
1184.44	162.33
1189.395	163
1194.345	158.67
1199.29	159.67
1204.23	168.33
1209.165	164.67
1214.095	162.33
1219.021	162.67
1223.941	160.33
1228.856	166.67
1233.766	165
1238.672	166.67
1243.572	161.67
1248.467	159.67
1253.358	162.33
1258.244	159.33
1263.124	153.33
1268	152
1272.871	140
1277.737	149.67
1282.599	142.33
1287.455	141.33
1292.306	147.33
1297.153	145.33
1301.995	145.33
1306.832	146
1311.664	146.33
1316.491	152.33
1321.314	145.33
1326.132	137
1330.945	142.33
1335.753	137
1340.556	132.33
1345.354	135.33
1350.148	129.67
1354.937	130
1359.722	127.33
1364.501	128.33
1369.276	126.33
1374.046	130.33
1378.811	127.33
1383.572	125.67
1388.327	126.33
1393.079	125
1397.825	128.33
1402.567	122
1407.304	120.67
1412.036	119.67
1416.764	119.67
1421.487	110.67
1426.205	119
1430.919	116.67
1435.628	121.33
1440.333	121.67
1445.032	122
1449.727	118.33
1454.418	122.33
1459.104	120.67
1463.785	115
1468.462	119.33
1473.134	117.67
1477.802	112.33
1482.465	113
1487.123	110.67
1491.777	113.67
1496.426	115.33
1501.071	124
1505.711	119
1510.347	123.33
1514.978	129
1519.604	127.67
1524.226	130
1528.844	131.33
1533.457	127.67
1538.065	130.33
1542.669	134.33
1547.269	132.67
1551.864	134.67
1556.454	140
1561.041	133
1565.622	143.67
1570.199	138.67
1574.772	139.33
1579.34	146.67
1583.904	151
1588.464	152
1593.019	158.67
1597.569	162.67
1602.115	164
1606.657	173.33
1611.195	171
1615.728	177
1620.256	184.33
1624.78	183.33
1629.3	188.67
1633.816	196
1638.327	197.67
1642.834	199.33
1647.336	204.67
1651.834	207.33
1656.328	205.67
1660.817	202
1665.302	204.67
1669.783	193.33
1674.259	187.67
1678.732	179
1683.199	172
1687.663	156.33
1692.122	143
1696.577	137.33
1701.028	133
1705.474	122
1709.917	120.67
1714.355	118
1718.788	104.33
1723.218	98.67
1727.643	91.67
1732.064	89.67
1736.481	80.33
1740.893	77
1745.301	75.33
1749.705	69.33
1754.105	66.33
1758.501	63
1762.893	62.33
1767.28	62
1771.663	56
1776.042	57.33
1780.417	55.67
1784.787	58
1789.154	55
1793.516	54.67
1797.874	53.33
1802.228	51.33
1806.578	47.67
1810.924	50
1815.266	50.33
1819.603	43.33
1823.937	39.67
1828.266	38
1832.591	42.67
1836.913	34.67
1841.23	34.33
1845.543	39
1849.852	38.67
1854.156	34.67
1858.457	36.67
1862.754	40.67
1867.047	34
1871.335	39.33
1875.62	40.33
1879.9	35.67
1884.177	43
1888.449	43.67
1892.718	36.33
1896.982	43
1901.243	41.33
1905.499	37.67
1909.752	34
1914	37
1918.245	34.67
1922.485	36.67
1926.722	37.33
1930.954	36
1935.183	43.33
1939.408	39.33
1943.628	39.33
1947.845	45
1952.058	42
1956.267	40.67
1960.472	41.67
1964.673	39
1968.87	37
1973.063	42.33
1977.252	43.67
1981.438	38.67
1985.619	39
1989.797	36
1993.971	37.67
1998.14	36.67
2002.306	37.67
2006.469	37.33
2010.627	38.33
2014.781	33.67
2018.932	34.33
2023.078	40
2027.221	41.33
2031.36	38.33
2035.495	38.33
2039.627	35
2043.754	33
2047.878	36
2051.998	39.33
2056.114	39.67
2060.226	41
2064.334	37
2068.439	39.33
2072.54	37
2076.637	40.33
2080.73	42.67
2084.82	42.33
2088.906	45
2092.988	43.33
2097.066	50.33
2101.14	43
2105.211	44.33
2109.278	42.33
2113.342	43
2117.401	43.67
2121.457	44
2125.509	39.67
2129.558	39.33
2133.602	35.33
2137.643	36
2141.681	33.67
2145.714	35
2149.744	34.67
2153.77	33.33
2157.793	31
2161.812	28.33
2165.827	29.33
2169.838	26
2173.846	29.33
2177.851	24.33
2181.851	23
2185.848	23.33
2189.841	22
2193.831	23.33
2197.817	25.33
2201.799	22
2205.778	24
2209.753	21
2213.725	26.33
2217.693	21.67
2221.657	17
2225.618	20
2229.575	23.67
2233.529	18.33
2237.479	16.33
2241.425	14.33
2245.368	13.67
2249.307	11
2253.243	13.33
2257.175	6.67
2261.104	6.33
2265.029	8
2268.95	10
2272.868	7.33
2276.783	10
2280.694	7
2284.601	7.33
2288.505	9
2292.405	8.67
2296.302	6.33
2300.195	6.67
2304.085	2
2307.971	5.33
2311.854	9
2315.734	4.33
2319.609	2.33
2323.482	0.33
2327.351	-2
2331.216	2.67
2335.078	-1.67
2338.937	-2.33
2342.792	-1.33
2346.643	-2.33
2350.492	-2
2354.336	-6.67
2358.178	-5
2362.015	-2.67
2365.85	-4.33
2369.681	-3
2373.508	-2
2377.333	-4.33
2381.153	-1.67
2384.971	-2.67
2388.785	-1.67
2392.595	2.67
2396.402	-0.33
2400.206	1.33
2404.007	-2
2407.804	-1.33
2411.597	-6.67
2415.388	-4
2419.174	-7.33
2422.958	-8.33
2426.738	-5.33
2430.515	-7.67
2434.289	-11
2438.059	-12.33
2441.825	-9.67
2445.589	-11.33
2449.349	-9
2453.106	-8.67
2456.859	-8.33
2460.61	-10.33
2464.356	-9.33
2468.1	-6
2471.84	-7.67
2475.577	-7.67
2479.311	-9.67
2483.041	-5
2486.768	-8
2490.492	-6.33
2494.213	-6.67
2497.93	-11.67
2501.644	-9.67
2505.355	-9.33
2509.062	-8.67
2512.766	-9.67
2516.467	-10.33
2520.165	-10
2523.859	-9.33
2527.551	-13.67
2531.239	-12
2534.923	-12
2538.605	-12.33
2542.283	-12
2545.958	-8
2549.63	-8.67
2553.299	-15
2556.964	-13.33
2560.626	-12.67
2564.285	-11.33
2567.941	-11.67
2571.594	-5.67
2575.243	-11.67
2578.89	-10.67
2582.533	-9.67
2586.173	-10
2589.809	-8
2593.443	-13
2597.073	-10.33
2600.701	-10.67
2604.325	-8.33
2607.946	-12
2611.564	-12.33
2615.178	-13.67
2618.79	-12.67
2622.398	-13.33
2626.004	-13.33
2629.606	-18
2633.205	-16.33
2636.801	-12.33
2640.394	-11.67
2643.983	-13.67
2647.57	-16.33
2651.153	-13.67
2654.734	-14.67
2658.311	-14
2661.885	-17.33
2665.456	-11.33
2669.025	-16
2672.589	-15.67
2676.151	-12.67
2679.71	-16
2683.266	-11.33
2686.819	-16.67
2690.368	-10.33
2693.915	-10
2697.458	-13
2700.999	-14.67
2704.536	-12.33
2708.071	-12.33
2711.602	-11.33
2715.13	-16
2718.656	-14.33
2722.178	-14.33
2725.697	-17
2729.214	-14
2732.727	-14.33
2736.237	-13
2739.744	-15.67
2743.249	-16.67
2746.75	-13
2750.248	-12.67
2753.743	-12.33
2757.236	-10.67
2760.725	-10.67
2764.211	-12.33
2767.695	-13.33
2771.175	-8.33
2774.652	-10
2778.127	-11
2781.598	-10.67
2785.067	-8.67
2788.532	-7.33
2791.995	-8.67
2795.455	-9.33
2798.911	-7.33
2802.365	-7.33
2805.816	-4.67
2809.264	-7
2812.709	-4.67
2816.151	-7.33
2819.59	-5.33
2823.026	-9
2826.46	-6
2829.89	-5.33
2833.318	-6.67
2836.742	-3
2840.164	-2.67
2843.583	-3.67
2846.999	-3.67
2850.412	-2.67
2853.822	0
2857.229	2.33
2860.634	3.33
2864.035	0.67
2867.434	6
2870.83	4.33
2874.223	6
2877.613	8.33
2881	12.67
2884.385	9.67
2887.766	9
2891.145	7.33
2894.521	12
2897.894	8.33
2901.264	12.33
2904.631	12
2907.996	12.33
2911.358	12.33
2914.717	13.67
2918.073	16.33
2921.426	14
2924.777	14.33
2928.124	16
2931.469	14.33
2934.811	19.67
2938.15	21.33
2941.487	19.67
2944.821	25.33
2948.152	24.67
2951.48	27
2954.805	25.33
2958.128	29.67
2961.447	31
2964.765	32.33
2968.079	39.33
2971.39	33.67
2974.699	38
2978.005	40
2981.308	42.67
2984.609	44.33
2987.907	52
2991.202	49.67
2994.494	52.33
2997.784	58.33
3001.07	62
3004.355	61
3007.636	68.33
3010.915	60.33
3014.191	61
3017.464	70.33
3020.734	70
3024.002	69
3027.267	72.33
3030.53	76.67
3033.789	79.67
3037.046	82
3040.301	89
3043.552	89.67
3046.801	93.33
3050.048	97.67
3053.291	102
3056.532	104.33
3059.771	112.67
3063.006	110.33
3066.239	116.67
3069.469	121
3072.697	130.33
3075.922	136
3079.144	142.33
3082.364	143
3085.581	140.67
3088.795	145.33
3092.007	153
3095.216	155
3098.423	165.33
3101.627	169.67
3104.828	173
3108.026	178.33
3111.222	179
3114.416	185.33
3117.607	195
3120.795	197.33
3123.98	207
3127.163	212.67
3130.344	218.67
3133.521	227
3136.696	229.67
3139.869	235
3143.039	236.33
3146.206	245.67
3149.371	243.67
3152.533	254
3155.693	253
3158.85	259.67
3162.005	258
3165.157	269
3168.306	266.33
3171.453	261
3174.597	260.67
3177.739	270.67
3180.878	267.33
3184.014	271.67
3187.149	267.33
3190.28	268.33
3193.409	275.33
3196.536	272
3199.659	267.67
3202.781	275.33
3205.9	274.67
3209.016	273
3212.13	279.67
3215.241	277.33
3218.35	270
3221.456	275
3224.56	268.67
3227.661	272.67
3230.76	263.33
3233.856	258.67
3236.95	264
3240.041	268.67
3243.13	267.67
3246.216	260.67
3249.3	267
3252.382	263
3255.46	255.33
3258.537	269.67
3261.611	259
3264.682	255.33
3267.751	256.33
3270.818	258.33
3273.882	255.33
3276.943	259.33
3280.002	248.67
3283.059	248
3286.113	243
3289.165	248
3292.214	247
3295.261	235.33
3298.306	232.33
3301.348	231
3304.387	221.33
3307.425	218.33
3310.459	220.33
3313.492	219.33
3316.521	212.33
3319.549	213
3322.574	210
3325.597	213
3328.617	206.67
3331.635	211.33
3334.65	208.67
3337.663	209
3340.674	201.67
3343.682	203.67
3346.688	202
3349.691	203.67
3352.692	199.67
3355.691	197
3358.687	200.33
3361.681	197.67
3364.673	194.33
3367.662	197.67
3370.649	195.67
3373.633	200
3376.615	188
3379.595	184.67
3382.572	190.67
3385.547	182.33
3388.52	177
3391.49	176.33
3394.458	173
3397.424	175
3400.387	171
3403.348	163.67
3406.307	168.33
3409.263	164.33
3412.217	165.67
3415.168	159.67
3418.118	157
3421.065	160.67
3424.009	155.33
3426.951	156.33
3429.891	152.67
3432.829	154.67
3435.764	151
3438.697	147.67
3441.628	142.67
3444.557	139.67
3447.483	131.33
3450.407	132.33
3453.328	131.33
3456.247	129.67
3459.164	120.67
3462.079	118.33
3464.991	119.33
3467.902	113.67
3470.809	106.33
3473.715	109.33
3476.618	102.33
3479.519	97.67
3482.418	97.67
3485.315	95.33
3488.209	97.67
3491.101	86
3493.99	87
3496.878	86
3499.763	83.67
3502.646	79.33
3505.527	73
3508.405	75
3511.281	69
3514.155	67
3517.027	64.67
3519.897	61.33
3522.764	53.67
3525.629	56
3528.492	56.33
3531.352	42.67
3534.211	44.67
3537.067	39
3539.921	43.67
3542.773	41.67
3545.622	35.67
3548.469	38
3551.315	36.67
3554.157	31.67
3556.998	31.67
3559.837	23.67
3562.673	28.33
3565.507	26
3568.339	21
3571.169	20.33
3573.996	15.33
3576.822	17
3579.645	16.33
3582.466	10
3585.285	9
3588.101	12.67
3590.916	11
3593.728	4.67
3596.538	7.33
3599.346	4.67
3602.152	2.33
3604.956	5
3607.757	3.33
3610.556	2
3613.354	1
3616.149	1.67
3618.942	0.33
3621.732	-3.67
3624.521	-1.67
3627.307	-3
3630.092	-4.33
3632.874	-8.67
3635.654	-8.33
3638.432	-9.33
3641.208	-12
3643.982	-10.33
3646.753	-9.33
3649.523	-13.67
3652.29	-12.67
3655.055	-15
3657.818	-13.67
3660.579	-14.33
3663.338	-14.67
3666.095	-17.33
3668.849	-17.67
3671.602	-17.33
3674.352	-10.33
3677.101	-15.67
3679.847	-15.67
3682.591	-19.67
3685.333	-17
3688.073	-17.33
3690.811	-21.67
3693.547	-17.67
3696.281	-21
3699.013	-21
3701.742	-24.33
3704.47	-21.33
3707.195	-22.67
3709.919	-23.67
3712.64	-23.67
3715.359	-27
3718.076	-24
3720.792	-25.33
3723.505	-27
3726.216	-28
3728.925	-22.67
3731.632	-25.67
3734.336	-25
3737.039	-26
3739.74	-23.67
3742.439	-25.33
3745.136	-23.67
3747.83	-25.67
3750.523	-26
3753.213	-26.67
3755.902	-27.33
3758.589	-26.67
3761.273	-24
3763.956	-25.67
3766.636	-25.67
3769.315	-25.67
3771.991	-29.33
3774.665	-33.33
3777.338	-27
3780.008	-28.33
3782.677	-28.33
3785.343	-27.33
3788.007	-29.67
3790.67	-30.67
3793.33	-28
3795.989	-26
3798.645	-26
3801.299	-30
3803.952	-25.67
3806.602	-27.33
3809.251	-27.33
3811.897	-28
3814.542	-29
3817.184	-28.33
3819.825	-25
3822.463	-27.33
3825.1	-28
3827.735	-27.33
3830.367	-26.67
3832.998	-26.33
3835.627	-28.67
3838.253	-29.33
3840.878	-28.33
3843.501	-28.67
3846.122	-28.33
3848.741	-29
3851.358	-32.67
3853.973	-32
3856.586	-30.33
3859.197	-28
3861.806	-30
3864.414	-30.33
3867.019	-30
3869.622	-31
3872.224	-29
3874.823	-30
3877.421	-23.33
3880.016	-18.33
3882.61	-15
3885.202	-16.33
3887.792	-17
3890.38	-21.67
3892.966	-22.67
3895.55	-28
3898.132	-27.67
3900.713	-29
3903.291	-30.33
3905.868	-28
3908.442	-28.67
3911.015	-30
3913.586	-28
3916.155	-30.33
3918.722	-34
3921.287	-31.33
3923.85	-29.33
3926.411	-28.33
3928.971	-30.67
3931.528	-31.67
3934.084	-33
3936.638	-31.33
3939.19	-33
3941.74	-30
3944.288	-29.67
3946.834	-32
3949.378	-30
3951.921	-28.33
3954.462	-29
3957	-29
3959.537	-31
3962.072	-30
3964.606	-29
3967.137	-28
3969.667	-24.67
3972.194	-32
3974.72	-30
3977.244	-28.33
3979.766	-31.33
3982.286	-24.67
3984.805	-28
3987.321	-26.67
3989.836	-31
3992.349	-29
3994.86	-28
3997.369	-33.67
3999.877	-32.67
4002.382	-28.67
4004.886	-31.67
4007.388	-27.33
4009.888	-30
4012.386	-32.33
4014.883	-30.33
4017.377	-27.67
4019.87	-30
4022.361	-32
4024.85	-25.67
4027.338	-30
4029.823	-30.33
4032.307	-28
4034.789	-27
4037.269	-28
4039.747	-25
4042.224	-29.33
4044.699	-26.33
4047.172	-29.33
4049.643	-26.67
4052.112	-28
4054.58	-29
4057.046	-26
4059.51	-27.67
4061.972	-28
4064.432	-31.33
4066.891	-30.67
4069.348	-32
4071.803	-27
4074.256	-30.33
4076.708	-30.67
4079.158	-32
4081.606	-32.33
4084.052	-31
4086.497	-31.67
4088.939	-26.67
4091.38	-31.67
4093.819	-29.67
4096.257	-31.67
4098.693	-30.67
4101.127	-29.33
4103.559	-33.67
4105.989	-20.33
4108.418	-13.33
4110.845	-12.33
4113.27	-14.33
4115.694	-11.67
4118.115	-12
4120.535	-27.33
4122.954	-30
4125.37	-28
4127.785	-27.33
4130.198	-28.33
4132.609	-26
4135.019	-28.33
4137.427	-31.67
4139.833	-29
4142.237	-31.33
