Data from Saline_1 (I=1 T=5x1 V=3ml)_RamanShift_4.txt Node
Date: Mon Jun 05 14:00:12 IDT 2017
User: aro
Spectrometer: QEPB0276
Trigger mode: 0
Integration Time (sec): 5.000000E0
Scans to average: 1
Electric dark correction enabled: true
Nonlinearity correction enabled: false
Boxcar width: 0
XAxis mode: Raman Shifts
Number of Pixels in Spectrum: 1044
>>>>>Begin Spectral Data<<<<<
160.701	-28.12
166.742	6.54
172.777	91.54
178.805	370.88
184.826	1035.21
190.841	2154.21
196.849	3447.54
202.85	4281.54
208.845	4457.88
214.833	4293.88
220.815	4091.54
226.789	3973.54
232.758	3813.88
238.719	3680.21
244.674	3537.21
250.623	3324.88
256.565	3164.21
262.5	3022.88
268.429	2872.54
274.351	2712.54
280.267	2619.54
286.176	2490.21
292.079	2419.21
297.975	2329.54
303.865	2234.21
309.748	2169.88
315.625	2116.54
321.495	2085.54
327.359	2074.88
333.217	2030.54
339.068	1997.88
344.912	2005.21
350.751	1999.54
356.583	1982.54
362.408	1993.54
368.227	1985.88
374.04	2011.54
379.847	2050.21
385.647	2065.21
391.44	2051.54
397.228	2047.88
403.009	2038.54
408.784	2075.54
414.553	2139.54
420.315	2209.21
426.071	2213.54
431.821	2147.21
437.565	2070.54
443.302	2053.54
449.033	2021.88
454.758	2008.21
460.477	2003.54
466.189	1958.88
471.896	1968.88
477.596	1933.54
483.29	1935.21
488.978	1927.54
494.66	1888.54
500.335	1848.54
506.005	1820.21
511.668	1774.21
517.325	1730.88
522.977	1700.54
528.622	1689.21
534.261	1661.54
539.894	1631.88
545.521	1606.88
551.141	1608.88
556.756	1578.88
562.365	1563.54
567.968	1550.54
573.565	1534.88
579.155	1507.21
584.74	1503.54
590.319	1493.54
595.892	1477.21
601.459	1438.21
607.02	1443.54
612.575	1408.54
618.124	1406.54
623.667	1387.88
629.204	1368.88
634.735	1344.54
640.261	1366.21
645.781	1369.54
651.294	1370.88
656.802	1340.88
662.304	1305.88
667.8	1273.88
673.29	1268.21
678.775	1247.88
684.254	1260.88
689.726	1220.88
695.193	1229.21
700.655	1202.21
706.11	1178.54
711.56	1149.21
717.004	1150.54
722.442	1141.54
727.874	1132.21
733.301	1139.88
738.722	1111.54
744.137	1114.88
749.547	1096.21
754.951	1100.21
760.349	1095.54
765.741	1077.54
771.128	1070.54
776.509	1060.21
781.885	1063.21
787.254	1035.54
792.618	1021.88
797.977	1004.54
803.33	1004.21
808.677	985.21
814.019	977.54
819.355	952.21
824.686	934.88
830.011	912.88
835.33	907.54
840.644	885.54
845.952	888.54
851.255	875.54
856.552	849.54
861.844	861.54
867.13	851.88
872.41	824.88
877.686	839.54
882.955	811.88
888.219	792.54
893.478	774.88
898.731	740.54
903.979	715.88
909.221	708.21
914.458	684.54
919.69	678.21
924.916	678.54
930.136	667.88
935.351	657.88
940.561	659.21
945.766	645.21
950.965	637.54
956.158	628.21
961.347	608.88
966.529	594.21
971.707	583.54
976.879	569.21
982.046	571.54
987.208	561.21
992.364	566.88
997.515	563.21
1002.66	569.54
1007.801	565.88
1012.936	574.54
1018.066	570.21
1023.19	568.54
1028.309	569.54
1033.423	564.54
1038.532	570.54
1043.636	542.88
1048.734	551.88
1053.827	543.88
1058.915	530.88
1063.998	532.54
1069.075	534.21
1074.147	537.54
1079.214	525.54
1084.276	528.88
1089.333	531.21
1094.385	533.88
1099.431	533.88
1104.472	519.88
1109.509	513.54
1114.54	512.88
1119.565	502.54
1124.586	484.21
1129.602	484.88
1134.613	486.21
1139.618	468.88
1144.619	482.88
1149.614	475.21
1154.604	487.88
1159.589	481.54
1164.57	486.54
1169.545	475.54
1174.515	480.21
1179.48	488.21
1184.44	464.21
1189.395	475.88
1194.345	470.54
1199.29	462.54
1204.23	469.21
1209.165	464.54
1214.095	469.21
1219.021	468.54
1223.941	462.21
1228.856	467.54
1233.766	476.88
1238.672	478.54
1243.572	464.54
1248.467	457.54
1253.358	461.21
1258.244	445.21
1263.124	433.21
1268	441.88
1272.871	418.88
1277.737	419.54
1282.599	424.21
1287.455	426.21
1292.306	423.21
1297.153	428.21
1301.995	417.21
1306.832	408.88
1311.664	425.21
1316.491	410.21
1321.314	405.21
1326.132	397.88
1330.945	391.21
1335.753	385.88
1340.556	380.21
1345.354	368.21
1350.148	367.54
1354.937	367.88
1359.722	361.21
1364.501	367.21
1369.276	366.21
1374.046	363.21
1378.811	368.21
1383.572	364.54
1388.327	361.21
1393.079	353.88
1397.825	342.21
1402.567	351.88
1407.304	329.54
1412.036	324.54
1416.764	327.54
1421.487	328.54
1426.205	327.88
1430.919	336.54
1435.628	346.21
1440.333	335.54
1445.032	341.88
1449.727	343.21
1454.418	356.21
1459.104	351.54
1463.785	344.88
1468.462	344.21
1473.134	335.54
1477.802	332.21
1482.465	332.88
1487.123	330.54
1491.777	333.54
1496.426	333.21
1501.071	344.88
1505.711	351.88
1510.347	359.21
1514.978	365.88
1519.604	375.54
1524.226	372.88
1528.844	381.21
1533.457	374.54
1538.065	376.21
1542.669	392.21
1547.269	393.54
1551.864	391.54
1556.454	405.88
1561.041	407.88
1565.622	421.54
1570.199	434.54
1574.772	454.21
1579.34	452.54
1583.904	480.88
1588.464	504.88
1593.019	525.54
1597.569	542.54
1602.115	554.88
1606.657	579.21
1611.195	591.88
1615.728	609.88
1620.256	627.21
1624.78	651.21
1629.3	665.54
1633.816	683.88
1638.327	691.54
1642.834	711.21
1647.336	715.54
1651.834	712.21
1656.328	711.54
1660.817	699.88
1665.302	678.54
1669.783	659.21
1674.259	620.54
1678.732	579.88
1683.199	538.88
1687.663	511.21
1692.122	469.88
1696.577	444.21
1701.028	415.88
1705.474	390.88
1709.917	361.54
1714.355	344.88
1718.788	324.21
1723.218	298.54
1727.643	282.54
1732.064	251.54
1736.481	238.21
1740.893	221.88
1745.301	199.21
1749.705	194.21
1754.105	178.21
1758.501	163.88
1762.893	153.21
1767.28	139.88
1771.663	131.88
1776.042	128.21
1780.417	115.54
1784.787	126.88
1789.154	117.88
1793.516	115.54
1797.874	119.21
1802.228	106.21
1806.578	110.54
1810.924	97.88
1815.266	103.21
1819.603	98.21
1823.937	93.54
1828.266	83.88
1832.591	87.54
1836.913	81.54
1841.23	75.21
1845.543	69.88
1849.852	77.54
1854.156	76.54
1858.457	73.54
1862.754	73.54
1867.047	73.88
1871.335	76.21
1875.62	82.21
1879.9	77.54
1884.177	79.88
1888.449	75.54
1892.718	73.21
1896.982	70.88
1901.243	79.21
1905.499	71.54
1909.752	74.88
1914	83.88
1918.245	75.54
1922.485	88.54
1926.722	77.21
1930.954	87.88
1935.183	91.21
1939.408	89.21
1943.628	93.21
1947.845	92.88
1952.058	91.88
1956.267	89.54
1960.472	90.54
1964.673	82.88
1968.87	84.88
1973.063	84.21
1977.252	78.54
1981.438	78.54
1985.619	78.88
1989.797	77.88
1993.971	83.54
1998.14	88.54
2002.306	88.54
2006.469	91.21
2010.627	87.21
2014.781	95.54
2018.932	89.21
2023.078	98.88
2027.221	87.21
2031.36	94.21
2035.495	93.21
2039.627	87.88
2043.754	85.88
2047.878	91.88
2051.998	94.21
2056.114	92.54
2060.226	101.88
2064.334	97.88
2068.439	102.21
2072.54	105.88
2076.637	107.21
2080.73	109.54
2084.82	112.21
2088.906	113.88
2092.988	115.21
2097.066	111.21
2101.14	105.88
2105.211	108.21
2109.278	107.21
2113.342	103.88
2117.401	110.54
2121.457	98.88
2125.509	105.54
2129.558	96.21
2133.602	103.21
2137.643	91.88
2141.681	92.54
2145.714	97.88
2149.744	84.54
2153.77	82.21
2157.793	77.88
2161.812	74.21
2165.827	74.21
2169.838	65.88
2173.846	66.21
2177.851	70.21
2181.851	56.88
2185.848	52.21
2189.841	48.88
2193.831	46.21
2197.817	47.21
2201.799	42.88
2205.778	45.88
2209.753	37.88
2213.725	36.21
2217.693	35.54
2221.657	35.88
2225.618	39.88
2229.575	27.54
2233.529	33.21
2237.479	25.21
2241.425	22.21
2245.368	22.54
2249.307	12.88
2253.243	9.21
2257.175	14.54
2261.104	5.21
2265.029	5.88
2268.95	0.88
2272.868	1.21
2276.783	-1.12
2280.694	-2.12
2284.601	-4.79
2288.505	-6.12
2292.405	-7.46
2296.302	-11.79
2300.195	-13.46
2304.085	-12.12
2307.971	-16.79
2311.854	-22.12
2315.734	-23.79
2319.609	-26.79
2323.482	-25.79
2327.351	-28.12
2331.216	-22.46
2335.078	-24.79
2338.937	-26.46
2342.792	-33.46
2346.643	-34.46
2350.492	-33.12
2354.336	-38.79
2358.178	-34.12
2362.015	-34.79
2365.85	-33.46
2369.681	-36.12
2373.508	-40.12
2377.333	-35.46
2381.153	-38.79
2384.971	-32.79
2388.785	-36.79
2392.595	-35.46
2396.402	-41.46
2400.206	-41.79
2404.007	-43.12
2407.804	-45.46
2411.597	-47.79
2415.388	-49.12
2419.174	-48.46
2422.958	-50.46
2426.738	-48.46
2430.515	-49.79
2434.289	-48.12
2438.059	-48.46
2441.825	-47.79
2445.589	-51.46
2449.349	-52.12
2453.106	-51.79
2456.859	-51.46
2460.61	-52.46
2464.356	-54.46
2468.1	-53.12
2471.84	-53.79
2475.577	-54.79
2479.311	-57.79
2483.041	-57.12
2486.768	-54.12
2490.492	-58.46
2494.213	-55.79
2497.93	-61.79
2501.644	-56.79
2505.355	-60.46
2509.062	-56.79
2512.766	-57.79
2516.467	-57.46
2520.165	-60.12
2523.859	-55.46
2527.551	-57.79
2531.239	-58.12
2534.923	-59.12
2538.605	-58.46
2542.283	-60.12
2545.958	-57.12
2549.63	-56.79
2553.299	-59.12
2556.964	-60.46
2560.626	-60.79
2564.285	-59.46
2567.941	-62.79
2571.594	-62.79
2575.243	-61.79
2578.89	-62.79
2582.533	-60.79
2586.173	-62.12
2589.809	-62.12
2593.443	-66.12
2597.073	-59.46
2600.701	-62.79
2604.325	-61.46
2607.946	-65.12
2611.564	-61.46
2615.178	-63.79
2618.79	-65.79
2622.398	-63.46
2626.004	-66.46
2629.606	-66.12
2633.205	-65.46
2636.801	-68.46
2640.394	-68.79
2643.983	-65.79
2647.57	-63.46
2651.153	-69.79
2654.734	-63.79
2658.311	-65.12
2661.885	-65.46
2665.456	-64.46
2669.025	-66.12
2672.589	-66.79
2676.151	-63.79
2679.71	-64.12
2683.266	-67.46
2686.819	-64.79
2690.368	-63.46
2693.915	-68.12
2697.458	-68.12
2700.999	-67.79
2704.536	-66.46
2708.071	-64.46
2711.602	-67.46
2715.13	-64.12
2718.656	-66.46
2722.178	-64.46
2725.697	-67.12
2729.214	-60.12
2732.727	-59.46
2736.237	-58.12
2739.744	-58.79
2743.249	-56.79
2746.75	-60.12
2750.248	-56.79
2753.743	-57.46
2757.236	-52.79
2760.725	-55.79
2764.211	-51.46
2767.695	-51.46
2771.175	-50.46
2774.652	-54.12
2778.127	-53.12
2781.598	-47.79
2785.067	-47.79
2788.532	-49.46
2791.995	-43.79
2795.455	-45.46
2798.911	-41.46
2802.365	-41.46
2805.816	-39.79
2809.264	-38.12
2812.709	-34.79
2816.151	-36.46
2819.59	-35.46
2823.026	-31.12
2826.46	-36.12
2829.89	-26.46
2833.318	-24.79
2836.742	-23.12
2840.164	-22.79
2843.583	-18.79
2846.999	-19.79
2850.412	-14.79
2853.822	-15.12
2857.229	-4.79
2860.634	-8.79
2864.035	-4.46
2867.434	-3.12
2870.83	0.21
2874.223	4.88
2877.613	13.21
2881	14.54
2884.385	21.54
2887.766	15.88
2891.145	20.21
2894.521	24.88
2897.894	22.21
2901.264	32.21
2904.631	26.88
2907.996	32.21
2911.358	34.21
2914.717	40.54
2918.073	41.21
2921.426	52.88
2924.777	46.21
2928.124	55.88
2931.469	63.21
2934.811	74.54
2938.15	69.21
2941.487	83.54
2944.821	87.21
2948.152	90.54
2951.48	99.88
2954.805	94.21
2958.128	98.54
2961.447	104.88
2964.765	110.21
2968.079	116.21
2971.39	121.54
2974.699	130.88
2978.005	139.88
2981.308	139.54
2984.609	155.21
2987.907	162.88
2991.202	175.54
2994.494	184.21
2997.784	190.21
3001.07	198.88
3004.355	211.88
3007.636	219.21
3010.915	223.21
3014.191	232.88
3017.464	235.21
3020.734	253.88
3024.002	258.88
3027.267	262.21
3030.53	275.54
3033.789	281.54
3037.046	284.88
3040.301	296.88
3043.552	314.54
3046.801	315.21
3050.048	344.54
3053.291	354.88
3056.532	370.21
3059.771	384.54
3063.006	388.21
3066.239	421.54
3069.469	426.88
3072.697	454.21
3075.922	457.88
3079.144	492.21
3082.364	497.88
3085.581	514.54
3088.795	528.21
3092.007	540.88
3095.216	557.88
3098.423	571.21
3101.627	594.54
3104.828	612.88
3108.026	622.21
3111.222	641.88
3114.416	671.21
3117.607	690.88
3120.795	701.21
3123.98	722.88
3127.163	746.54
3130.344	774.54
3133.521	784.88
3136.696	803.54
3139.869	834.88
3143.039	841.21
3146.206	861.54
3149.371	883.54
3152.533	895.88
3155.693	900.88
3158.85	904.54
3162.005	922.88
3165.157	915.88
3168.306	923.21
3171.453	919.88
3174.597	926.54
3177.739	942.54
3180.878	945.21
3184.014	945.54
3187.149	954.21
3190.28	970.21
3193.409	961.21
3196.536	981.88
3199.659	981.54
3202.781	985.21
3205.9	987.54
3209.016	977.88
3212.13	974.54
3215.241	963.21
3218.35	978.88
3221.456	969.88
3224.56	952.54
3227.661	969.54
3230.76	941.21
3233.856	943.54
3236.95	937.88
3240.041	924.54
3243.13	918.54
3246.216	925.54
3249.3	924.88
3252.382	914.88
3255.46	913.21
3258.537	918.54
3261.611	912.88
3264.682	912.21
3267.751	912.21
3270.818	916.21
3273.882	903.21
3276.943	903.21
3280.002	896.54
3283.059	873.88
3286.113	865.88
3289.165	844.88
3292.214	843.88
3295.261	831.21
3298.306	823.21
3301.348	796.88
3304.387	803.21
3307.425	777.21
3310.459	771.21
3313.492	782.21
3316.521	750.21
3319.549	758.88
3322.574	744.88
3325.597	744.88
3328.617	730.54
3331.635	727.21
3334.65	725.54
3337.663	722.88
3340.674	718.54
3343.682	718.54
3346.688	726.88
3349.691	724.54
3352.692	720.54
3355.691	712.88
3358.687	698.21
3361.681	688.54
3364.673	691.21
3367.662	675.54
3370.649	680.54
3373.633	662.88
3376.615	662.88
3379.595	648.54
3382.572	659.54
3385.547	627.21
3388.52	622.88
3391.49	614.21
3394.458	613.88
3397.424	599.88
3400.387	606.88
3403.348	594.54
3406.307	590.21
3409.263	576.21
3412.217	576.54
3415.168	573.54
3418.118	565.88
3421.065	555.54
3424.009	543.21
3426.951	540.21
3429.891	532.54
3432.829	520.54
3435.764	516.88
3438.697	510.54
3441.628	491.54
3444.557	484.54
3447.483	472.21
3450.407	454.21
3453.328	448.21
3456.247	430.54
3459.164	423.54
3462.079	405.21
3464.991	403.21
3467.902	382.54
3470.809	369.21
3473.715	364.21
3476.618	360.21
3479.519	346.54
3482.418	328.54
3485.315	313.21
3488.209	313.54
3491.101	303.88
3493.99	302.88
3496.878	286.88
3499.763	288.54
3502.646	265.21
3505.527	248.88
3508.405	246.88
3511.281	237.88
3514.155	230.88
3517.027	221.54
3519.897	215.21
3522.764	204.54
3525.629	186.88
3528.492	176.21
3531.352	161.54
3534.211	155.54
3537.067	144.88
3539.921	134.54
3542.773	130.54
3545.622	113.54
3548.469	108.88
3551.315	105.54
3554.157	92.54
3556.998	85.54
3559.837	81.54
3562.673	80.21
3565.507	75.88
3568.339	67.88
3571.169	68.21
3573.996	54.21
3576.822	49.88
3579.645	47.21
3582.466	38.88
3585.285	35.88
3588.101	34.54
3590.916	21.88
3593.728	21.54
3596.538	15.21
3599.346	14.54
3602.152	10.21
3604.956	-1.12
3607.757	-1.79
3610.556	-5.12
3613.354	-12.12
3616.149	-12.46
3618.942	-16.79
3621.732	-16.79
3624.521	-22.79
3627.307	-23.12
3630.092	-30.46
3632.874	-28.79
3635.654	-33.46
3638.432	-33.46
3641.208	-42.12
3643.982	-40.46
3646.753	-41.46
3649.523	-41.79
3652.29	-44.79
3655.055	-52.12
3657.818	-53.79
3660.579	-59.46
3663.338	-59.79
3666.095	-61.46
3668.849	-64.79
3671.602	-61.46
3674.352	-65.46
3677.101	-64.79
3679.847	-73.79
3682.591	-74.79
3685.333	-76.12
3688.073	-73.46
3690.811	-77.79
3693.547	-74.79
3696.281	-76.12
3699.013	-81.12
3701.742	-82.46
3704.47	-84.46
3707.195	-85.79
3709.919	-85.79
3712.64	-83.79
3715.359	-87.12
3718.076	-87.12
3720.792	-89.46
3723.505	-89.12
3726.216	-91.12
3728.925	-92.79
3731.632	-92.79
3734.336	-95.12
3737.039	-93.12
3739.74	-93.79
3742.439	-97.46
3745.136	-96.79
3747.83	-97.79
3750.523	-95.12
3753.213	-96.79
3755.902	-98.46
3758.589	-93.79
3761.273	-97.12
3763.956	-95.79
3766.636	-94.79
3769.315	-97.79
3771.991	-96.46
3774.665	-95.46
3777.338	-97.12
3780.008	-97.46
3782.677	-100.46
3785.343	-97.46
3788.007	-98.79
3790.67	-103.79
3793.33	-100.12
3795.989	-103.12
3798.645	-100.12
3801.299	-99.12
3803.952	-101.79
3806.602	-100.46
3809.251	-101.46
3811.897	-102.12
3814.542	-104.12
3817.184	-102.46
3819.825	-99.12
3822.463	-101.46
3825.1	-101.12
3827.735	-100.46
3830.367	-101.79
3832.998	-101.46
3835.627	-104.79
3838.253	-103.46
3840.878	-102.46
3843.501	-104.79
3846.122	-105.46
3848.741	-106.12
3851.358	-106.79
3853.973	-108.12
3856.586	-105.46
3859.197	-104.12
3861.806	-102.12
3864.414	-103.46
3867.019	-104.12
3869.622	-104.12
3872.224	-102.12
3874.823	-99.12
3877.421	-97.46
3880.016	-91.46
3882.61	-83.12
3885.202	-80.46
3887.792	-86.12
3890.38	-94.79
3892.966	-100.79
3895.55	-103.12
3898.132	-103.79
3900.713	-107.12
3903.291	-109.46
3905.868	-107.12
3908.442	-106.79
3911.015	-106.12
3913.586	-105.12
3916.155	-109.46
3918.722	-109.12
3921.287	-105.46
3923.85	-108.46
3926.411	-103.46
3928.971	-104.79
3931.528	-104.79
3934.084	-104.12
3936.638	-107.46
3939.19	-108.12
3941.74	-107.12
3944.288	-105.79
3946.834	-108.12
3949.378	-109.12
3951.921	-107.46
3954.462	-110.12
3957	-106.12
3959.537	-108.12
3962.072	-105.12
3964.606	-105.12
3967.137	-109.12
3969.667	-103.79
3972.194	-108.12
3974.72	-105.12
3977.244	-103.46
3979.766	-103.46
3982.286	-102.79
3984.805	-106.12
3987.321	-104.79
3989.836	-104.12
3992.349	-103.12
3994.86	-107.12
3997.369	-108.79
3999.877	-106.79
4002.382	-105.79
4004.886	-106.79
4007.388	-102.46
4009.888	-103.12
4012.386	-106.46
4014.883	-103.46
4017.377	-103.79
4019.87	-106.12
4022.361	-103.12
4024.85	-101.79
4027.338	-104.12
4029.823	-105.46
4032.307	-107.12
4034.789	-106.12
4037.269	-108.12
4039.747	-106.12
4042.224	-108.46
4044.699	-104.46
4047.172	-108.46
4049.643	-106.79
4052.112	-105.12
4054.58	-104.12
4057.046	-107.12
4059.51	-104.79
4061.972	-105.12
4064.432	-104.46
4066.891	-102.79
4069.348	-102.12
4071.803	-105.12
4074.256	-104.46
4076.708	-107.79
4079.158	-105.12
4081.606	-105.46
4084.052	-104.12
4086.497	-103.79
4088.939	-102.79
4091.38	-106.79
4093.819	-109.79
4096.257	-107.79
4098.693	-108.79
4101.127	-109.46
4103.559	-108.79
4105.989	-68.46
4108.418	-62.46
4110.845	-59.46
4113.27	-55.46
4115.694	-48.79
4118.115	-42.12
4120.535	-107.46
4122.954	-106.12
4125.37	-106.12
4127.785	-107.46
4130.198	-107.46
4132.609	-106.12
4135.019	-112.46
4137.427	-110.79
4139.833	-106.12
4142.237	-111.46
