Data from Saline_log5 (I=1 T=5x1 V=3ml)_RamanShift_1.txt Node
Date: Mon Jun 05 14:15:56 IDT 2017
User: aro
Spectrometer: QEPB0276
Trigger mode: 0
Integration Time (sec): 5.000000E0
Scans to average: 1
Electric dark correction enabled: true
Nonlinearity correction enabled: false
Boxcar width: 0
XAxis mode: Raman Shifts
Number of Pixels in Spectrum: 1044
>>>>>Begin Spectral Data<<<<<
160.701	-30.88
166.742	2.79
172.777	93.79
178.805	389.12
184.826	1093.46
190.841	2316.46
196.849	3667.79
202.85	4551.79
208.845	4766.12
214.833	4594.12
220.815	4373.79
226.789	4230.79
232.758	4094.12
238.719	3931.46
244.674	3748.46
250.623	3569.12
256.565	3364.46
262.5	3196.12
268.429	3023.79
274.351	2903.79
280.267	2780.79
286.176	2664.46
292.079	2553.46
297.975	2455.79
303.865	2398.46
309.748	2304.12
315.625	2254.79
321.495	2212.79
327.359	2170.12
333.217	2150.79
339.068	2153.12
344.912	2123.46
350.751	2103.79
356.583	2102.79
362.408	2117.79
368.227	2111.12
374.04	2136.79
379.847	2167.46
385.647	2165.46
391.44	2175.79
397.228	2161.12
403.009	2175.79
408.784	2197.79
414.553	2254.79
420.315	2330.46
426.071	2345.79
431.821	2246.46
437.565	2173.79
443.302	2176.79
449.033	2141.12
454.758	2126.46
460.477	2098.79
466.189	2092.12
471.896	2065.12
477.596	2057.79
483.29	2042.46
488.978	2035.79
494.66	1995.79
500.335	1986.79
506.005	1937.46
511.668	1884.46
517.325	1827.12
522.977	1798.79
528.622	1776.46
534.261	1758.79
539.894	1719.12
545.521	1699.12
551.141	1704.12
556.756	1680.12
562.365	1642.79
567.968	1643.79
573.565	1637.12
579.155	1614.46
584.74	1594.79
590.319	1573.79
595.892	1540.46
601.459	1547.46
607.02	1530.79
612.575	1496.79
618.124	1487.79
623.667	1481.12
629.204	1457.12
634.735	1436.79
640.261	1434.46
645.781	1451.79
651.294	1441.12
656.802	1421.12
662.304	1398.12
667.8	1372.12
673.29	1335.46
678.775	1336.12
684.254	1329.12
689.726	1322.12
695.193	1283.46
700.655	1277.46
706.11	1275.79
711.56	1238.46
717.004	1234.79
722.442	1216.79
727.874	1195.46
733.301	1186.12
738.722	1174.79
744.137	1170.12
749.547	1178.46
754.951	1175.46
760.349	1146.79
765.741	1125.79
771.128	1114.79
776.509	1127.46
781.885	1112.46
787.254	1105.79
792.618	1083.12
797.977	1066.79
803.33	1050.46
808.677	1040.46
814.019	1022.79
819.355	1016.46
824.686	981.12
830.011	995.12
835.33	963.79
840.644	949.79
845.952	943.79
851.255	937.79
856.552	909.79
861.844	896.79
867.13	881.12
872.41	871.12
877.686	848.79
882.955	829.12
888.219	814.79
893.478	787.12
898.731	763.79
903.979	746.12
909.221	729.46
914.458	731.79
919.69	712.46
924.916	715.79
930.136	703.12
935.351	693.12
940.561	684.46
945.766	682.46
950.965	668.79
956.158	674.46
961.347	642.12
966.529	638.46
971.707	617.79
976.879	611.46
982.046	587.79
987.208	596.46
992.364	591.12
997.515	583.46
1002.66	587.79
1007.801	596.12
1012.936	576.79
1018.066	597.46
1023.19	593.79
1028.309	593.79
1033.423	592.79
1038.532	593.79
1043.636	580.12
1048.734	566.12
1053.827	560.12
1058.915	557.12
1063.998	545.79
1069.075	547.46
1074.147	542.79
1079.214	552.79
1084.276	548.12
1089.333	560.46
1094.385	551.12
1099.431	543.12
1104.472	554.12
1109.509	540.79
1114.54	539.12
1119.565	519.79
1124.586	521.46
1129.602	524.12
1134.613	510.46
1139.618	501.12
1144.619	498.12
1149.614	500.46
1154.604	502.12
1159.589	500.79
1164.57	507.79
1169.545	507.79
1174.515	505.46
1179.48	507.46
1184.44	499.46
1189.395	485.12
1194.345	484.79
1199.29	485.79
1204.23	478.46
1209.165	489.79
1214.095	487.46
1219.021	483.79
1223.941	495.46
1228.856	493.79
1233.766	499.12
1238.672	494.79
1243.572	486.79
1248.467	467.79
1253.358	486.46
1258.244	472.46
1263.124	457.46
1268	453.12
1272.871	436.12
1277.737	441.79
1282.599	441.46
1287.455	441.46
1292.306	440.46
1297.153	448.46
1301.995	439.46
1306.832	439.12
1311.664	440.46
1316.491	441.46
1321.314	427.46
1326.132	423.12
1330.945	416.46
1335.753	409.12
1340.556	389.46
1345.354	389.46
1350.148	383.79
1354.937	388.12
1359.722	383.46
1364.501	373.46
1369.276	381.46
1374.046	373.46
1378.811	374.46
1383.572	373.79
1388.327	368.46
1393.079	366.12
1397.825	370.46
1402.567	351.12
1407.304	351.79
1412.036	344.79
1416.764	347.79
1421.487	344.79
1426.205	345.12
1430.919	334.79
1435.628	344.46
1440.333	353.79
1445.032	352.12
1449.727	358.46
1454.418	353.46
1459.104	357.79
1463.785	353.12
1468.462	347.46
1473.134	344.79
1477.802	339.46
1482.465	344.12
1487.123	351.79
1491.777	344.79
1496.426	350.46
1501.071	365.12
1505.711	364.12
1510.347	372.46
1514.978	385.12
1519.604	378.79
1524.226	397.12
1528.844	396.46
1533.457	391.79
1538.065	404.46
1542.669	403.46
1547.269	405.79
1551.864	417.79
1556.454	416.12
1561.041	427.12
1565.622	438.79
1570.199	445.79
1574.772	478.46
1579.34	488.79
1583.904	506.12
1588.464	524.12
1593.019	547.79
1597.569	572.79
1602.115	582.12
1606.657	607.46
1611.195	621.12
1615.728	642.12
1620.256	658.46
1624.78	686.46
1629.3	702.79
1633.816	740.12
1638.327	753.79
1642.834	756.46
1647.336	762.79
1651.834	759.46
1656.328	755.79
1660.817	745.12
1665.302	716.79
1669.783	699.46
1674.259	660.79
1678.732	624.12
1683.199	583.12
1687.663	538.46
1692.122	505.12
1696.577	461.46
1701.028	440.12
1705.474	408.12
1709.917	381.79
1714.355	357.12
1718.788	333.46
1723.218	309.79
1727.643	281.79
1732.064	272.79
1736.481	244.46
1740.893	227.12
1745.301	211.46
1749.705	189.46
1754.105	187.46
1758.501	170.12
1762.893	156.46
1767.28	146.12
1771.663	143.12
1776.042	128.46
1780.417	124.79
1784.787	129.12
1789.154	119.12
1793.516	113.79
1797.874	116.46
1802.228	115.46
1806.578	101.79
1810.924	106.12
1815.266	96.46
1819.603	90.46
1823.937	85.79
1828.266	81.12
1832.591	86.79
1836.913	79.79
1841.23	75.46
1845.543	79.12
1849.852	67.79
1854.156	79.79
1858.457	70.79
1862.754	73.79
1867.047	74.12
1871.335	73.46
1875.62	72.46
1879.9	76.79
1884.177	73.12
1888.449	78.79
1892.718	70.46
1896.982	75.12
1901.243	77.46
1905.499	69.79
1909.752	77.12
1914	81.12
1918.245	81.79
1922.485	78.79
1926.722	83.46
1930.954	86.12
1935.183	91.46
1939.408	84.46
1943.628	88.46
1947.845	93.12
1952.058	92.12
1956.267	87.79
1960.472	81.79
1964.673	83.12
1968.87	85.12
1973.063	81.46
1977.252	78.79
1981.438	85.79
1985.619	81.12
1989.797	86.12
1993.971	83.79
1998.14	88.79
2002.306	88.79
2006.469	90.46
2010.627	95.46
2014.781	99.79
2018.932	99.46
2023.078	98.12
2027.221	92.46
2031.36	93.46
2035.495	94.46
2039.627	92.12
2043.754	87.12
2047.878	99.12
2051.998	100.46
2056.114	103.79
2060.226	102.12
2064.334	98.12
2068.439	103.46
2072.54	109.12
2076.637	106.46
2080.73	104.79
2084.82	115.46
2088.906	113.12
2092.988	114.46
2097.066	120.46
2101.14	112.12
2105.211	118.46
2109.278	112.46
2113.342	110.12
2117.401	108.79
2121.457	105.12
2125.509	101.79
2129.558	99.46
2133.602	98.46
2137.643	91.12
2141.681	93.79
2145.714	91.12
2149.744	81.79
2153.77	91.46
2157.793	82.12
2161.812	74.46
2165.827	78.46
2169.838	78.12
2173.846	71.46
2177.851	62.46
2181.851	61.12
2185.848	61.46
2189.841	59.12
2193.831	50.46
2197.817	47.46
2201.799	43.12
2205.778	42.12
2209.753	42.12
2213.725	38.46
2217.693	37.79
2221.657	34.12
2225.618	31.12
2229.575	34.79
2233.529	32.46
2237.479	26.46
2241.425	25.46
2245.368	24.79
2249.307	18.12
2253.243	13.46
2257.175	11.79
2261.104	5.46
2265.029	7.12
2268.95	1.12
2272.868	-0.54
2276.783	-4.88
2280.694	-6.88
2284.601	-9.54
2288.505	-9.88
2292.405	-16.21
2296.302	-16.54
2300.195	-17.21
2304.085	-17.88
2307.971	-16.54
2311.854	-15.88
2315.734	-22.54
2319.609	-25.54
2323.482	-25.54
2327.351	-28.88
2331.216	-26.21
2335.078	-30.54
2338.937	-29.21
2342.792	-36.21
2346.643	-34.21
2350.492	-33.88
2354.336	-34.54
2358.178	-34.88
2362.015	-35.54
2365.85	-38.21
2369.681	-40.88
2373.508	-39.88
2377.333	-38.21
2381.153	-45.54
2384.971	-42.54
2388.785	-43.54
2392.595	-40.21
2396.402	-44.21
2400.206	-45.54
2404.007	-44.88
2407.804	-41.21
2411.597	-49.54
2415.388	-46.88
2419.174	-50.21
2422.958	-51.21
2426.738	-47.21
2430.515	-49.54
2434.289	-51.88
2438.059	-55.21
2441.825	-52.54
2445.589	-52.21
2449.349	-54.88
2453.106	-51.54
2456.859	-56.21
2460.61	-54.21
2464.356	-58.21
2468.1	-56.88
2471.84	-62.54
2475.577	-58.54
2479.311	-60.54
2483.041	-53.88
2486.768	-54.88
2490.492	-57.21
2494.213	-59.54
2497.93	-55.54
2501.644	-54.54
2505.355	-61.21
2509.062	-60.54
2512.766	-65.54
2516.467	-63.21
2520.165	-60.88
2523.859	-64.21
2527.551	-61.54
2531.239	-61.88
2534.923	-63.88
2538.605	-65.21
2542.283	-64.88
2545.958	-60.88
2549.63	-61.54
2553.299	-63.88
2556.964	-65.21
2560.626	-57.54
2564.285	-65.21
2567.941	-63.54
2571.594	-67.54
2575.243	-60.54
2578.89	-64.54
2582.533	-59.54
2586.173	-64.88
2589.809	-63.88
2593.443	-71.88
2597.073	-66.21
2600.701	-67.54
2604.325	-65.21
2607.946	-71.88
2611.564	-70.21
2615.178	-70.54
2618.79	-72.54
2622.398	-70.21
2626.004	-67.21
2629.606	-68.88
2633.205	-67.21
2636.801	-67.21
2640.394	-65.54
2643.983	-65.54
2647.57	-65.21
2651.153	-66.54
2654.734	-67.54
2658.311	-68.88
2661.885	-72.21
2665.456	-70.21
2669.025	-70.88
2672.589	-68.54
2676.151	-68.54
2679.71	-66.88
2683.266	-66.21
2686.819	-70.54
2690.368	-68.21
2693.915	-69.88
2697.458	-66.88
2700.999	-69.54
2704.536	-70.21
2708.071	-67.21
2711.602	-66.21
2715.13	-66.88
2718.656	-66.21
2722.178	-68.21
2725.697	-64.88
2729.214	-63.88
2732.727	-61.21
2736.237	-60.88
2739.744	-58.54
2743.249	-61.54
2746.75	-60.88
2750.248	-61.54
2753.743	-56.21
2757.236	-59.54
2760.725	-58.54
2764.211	-62.21
2767.695	-58.21
2771.175	-57.21
2774.652	-55.88
2778.127	-53.88
2781.598	-54.54
2785.067	-46.54
2788.532	-49.21
2791.995	-55.54
2795.455	-48.21
2798.911	-45.21
2802.365	-41.21
2805.816	-34.54
2809.264	-33.88
2812.709	-38.54
2816.151	-37.21
2819.59	-34.21
2823.026	-34.88
2826.46	-28.88
2829.89	-26.21
2833.318	-23.54
2836.742	-21.88
2840.164	-21.54
2843.583	-22.54
2846.999	-18.54
2850.412	-20.54
2853.822	-13.88
2857.229	-6.54
2860.634	-8.54
2864.035	-12.21
2867.434	-3.88
2870.83	3.46
2874.223	2.12
2877.613	8.46
2881	6.79
2884.385	8.79
2887.766	13.12
2891.145	19.46
2894.521	23.12
2897.894	23.46
2901.264	32.46
2904.631	31.12
2907.996	29.46
2911.358	36.46
2914.717	41.79
2918.073	44.46
2921.426	48.12
2924.777	52.46
2928.124	55.12
2931.469	59.46
2934.811	71.79
2938.15	73.46
2941.487	75.79
2944.821	86.46
2948.152	82.79
2951.48	95.12
2954.805	102.46
2958.128	102.79
2961.447	106.12
2964.765	111.46
2968.079	124.46
2971.39	135.79
2974.699	134.12
2978.005	142.12
2981.308	151.79
2984.609	166.46
2987.907	180.12
2991.202	178.79
2994.494	190.46
2997.784	207.46
3001.07	217.12
3004.355	227.12
3007.636	229.46
3010.915	245.46
3014.191	244.12
3017.464	267.46
3020.734	268.12
3024.002	274.12
3027.267	283.46
3030.53	285.79
3033.789	307.79
3037.046	320.12
3040.301	332.12
3043.552	333.79
3046.801	347.46
3050.048	359.79
3053.291	380.12
3056.532	391.46
3059.771	411.79
3063.006	425.46
3066.239	447.79
3069.469	463.12
3072.697	491.46
3075.922	491.12
3079.144	515.46
3082.364	544.12
3085.581	547.79
3088.795	576.46
3092.007	586.12
3095.216	598.12
3098.423	627.46
3101.627	646.79
3104.828	665.12
3108.026	685.46
3111.222	695.12
3114.416	721.46
3117.607	734.12
3120.795	759.46
3123.98	780.12
3127.163	808.79
3130.344	831.79
3133.521	858.12
3136.696	877.79
3139.869	893.12
3143.039	914.46
3146.206	923.79
3149.371	935.79
3152.533	949.12
3155.693	959.12
3158.85	989.79
3162.005	987.12
3165.157	1000.12
3168.306	991.46
3171.453	997.12
3174.597	996.79
3177.739	1024.79
3180.878	1010.46
3184.014	1021.79
3187.149	1029.46
3190.28	1035.46
3193.409	1032.46
3196.536	1041.12
3199.659	1044.79
3202.781	1055.46
3205.9	1058.79
3209.016	1055.12
3212.13	1057.79
3215.241	1059.46
3218.35	1049.12
3221.456	1044.12
3224.56	1039.79
3227.661	1044.79
3230.76	1015.46
3233.856	1018.79
3236.95	1009.12
3240.041	1014.79
3243.13	1004.79
3246.216	1003.79
3249.3	997.12
3252.382	992.12
3255.46	987.46
3258.537	963.79
3261.611	973.12
3264.682	981.46
3267.751	964.46
3270.818	958.46
3273.882	973.46
3276.943	969.46
3280.002	953.79
3283.059	948.12
3286.113	936.12
3289.165	927.12
3292.214	904.12
3295.261	885.46
3298.306	875.46
3301.348	859.12
3304.387	852.46
3307.425	828.46
3310.459	846.46
3313.492	817.46
3316.521	819.46
3319.549	814.12
3322.574	799.12
3325.597	788.12
3328.617	789.79
3331.635	790.46
3334.65	778.79
3337.663	781.12
3340.674	785.79
3343.682	761.79
3346.688	769.12
3349.691	769.79
3352.692	754.79
3355.691	758.12
3358.687	758.46
3361.681	755.79
3364.673	748.46
3367.662	735.79
3370.649	717.79
3373.633	718.12
3376.615	709.12
3379.595	700.79
3382.572	687.79
3385.547	692.46
3388.52	673.12
3391.49	670.46
3394.458	664.12
3397.424	659.12
3400.387	641.12
3403.348	635.79
3406.307	628.46
3409.263	632.46
3412.217	623.79
3415.168	627.79
3418.118	604.12
3421.065	605.79
3424.009	599.46
3426.951	593.46
3429.891	581.79
3432.829	571.79
3435.764	562.12
3438.697	556.79
3441.628	534.79
3444.557	531.79
3447.483	499.46
3450.407	493.46
3453.328	476.46
3456.247	467.79
3459.164	455.79
3462.079	437.46
3464.991	426.46
3467.902	417.79
3470.809	406.46
3473.715	399.46
3476.618	379.46
3479.519	368.79
3482.418	354.79
3485.315	345.46
3488.209	340.79
3491.101	340.12
3493.99	321.12
3496.878	309.12
3499.763	296.79
3502.646	288.46
3505.527	283.12
3508.405	275.12
3511.281	259.12
3514.155	245.12
3517.027	240.79
3519.897	223.46
3522.764	208.79
3525.629	208.12
3528.492	191.46
3531.352	183.79
3534.211	170.79
3537.067	162.12
3539.921	153.79
3542.773	141.79
3545.622	132.79
3548.469	124.12
3551.315	116.79
3554.157	108.79
3556.998	105.79
3559.837	95.79
3562.673	82.46
3565.507	88.12
3568.339	79.12
3571.169	72.46
3573.996	64.46
3576.822	59.12
3579.645	55.46
3582.466	53.12
3585.285	45.12
3588.101	37.79
3590.916	36.12
3593.728	27.79
3596.538	27.46
3599.346	15.79
3602.152	9.46
3604.956	9.12
3607.757	1.46
3610.556	-3.88
3613.354	-7.88
3616.149	-12.21
3618.942	-15.54
3621.732	-16.54
3624.521	-21.54
3627.307	-24.88
3630.092	-25.21
3632.874	-28.54
3635.654	-32.21
3638.432	-33.21
3641.208	-32.88
3643.982	-43.21
3646.753	-44.21
3649.523	-41.54
3652.29	-46.54
3655.055	-51.88
3657.818	-52.54
3660.579	-57.21
3663.338	-60.54
3666.095	-58.21
3668.849	-63.54
3671.602	-67.21
3674.352	-68.21
3677.101	-66.54
3679.847	-73.54
3682.591	-74.54
3685.333	-72.88
3688.073	-78.21
3690.811	-80.54
3693.547	-80.54
3696.281	-79.88
3699.013	-82.88
3701.742	-82.21
3704.47	-82.21
3707.195	-83.54
3709.919	-85.54
3712.64	-88.54
3715.359	-87.88
3718.076	-88.88
3720.792	-89.21
3723.505	-93.88
3726.216	-93.88
3728.925	-90.54
3731.632	-94.54
3734.336	-92.88
3737.039	-96.88
3739.74	-93.54
3742.439	-96.21
3745.136	-98.54
3747.83	-96.54
3750.523	-98.88
3753.213	-96.54
3755.902	-101.21
3758.589	-96.54
3761.273	-99.88
3763.956	-98.54
3766.636	-98.54
3769.315	-99.54
3771.991	-100.21
3774.665	-102.21
3777.338	-101.88
3780.008	-99.21
3782.677	-103.21
3785.343	-101.21
3788.007	-104.54
3790.67	-106.54
3793.33	-105.88
3795.989	-103.88
3798.645	-104.88
3801.299	-104.88
3803.952	-105.54
3806.602	-104.21
3809.251	-104.21
3811.897	-104.88
3814.542	-105.88
3817.184	-106.21
3819.825	-105.88
3822.463	-103.21
3825.1	-103.88
3827.735	-105.21
3830.367	-109.54
3832.998	-105.21
3835.627	-110.54
3838.253	-110.21
3840.878	-110.21
3843.501	-109.54
3846.122	-109.21
3848.741	-108.88
3851.358	-109.54
3853.973	-107.88
3856.586	-109.21
3859.197	-104.88
3861.806	-105.88
3864.414	-110.21
3867.019	-108.88
3869.622	-104.88
3872.224	-102.88
3874.823	-102.88
3877.421	-101.21
3880.016	-92.21
3882.61	-84.88
3885.202	-84.21
3887.792	-92.88
3890.38	-97.54
3892.966	-104.54
3895.55	-107.88
3898.132	-109.54
3900.713	-111.88
3903.291	-112.21
3905.868	-110.88
3908.442	-110.54
3911.015	-110.88
3913.586	-109.88
3916.155	-109.21
3918.722	-113.88
3921.287	-108.21
3923.85	-108.21
3926.411	-107.21
3928.971	-109.54
3931.528	-109.54
3934.084	-108.88
3936.638	-109.21
3939.19	-112.88
3941.74	-109.88
3944.288	-110.54
3946.834	-110.88
3949.378	-109.88
3951.921	-110.21
3954.462	-113.88
3957	-110.88
3959.537	-109.88
3962.072	-109.88
3964.606	-111.88
3967.137	-110.88
3969.667	-107.54
3972.194	-113.88
3974.72	-109.88
3977.244	-110.21
3979.766	-108.21
3982.286	-106.54
3984.805	-106.88
3987.321	-107.54
3989.836	-105.88
3992.349	-106.88
3994.86	-107.88
3997.369	-107.54
3999.877	-108.54
4002.382	-106.54
4004.886	-106.54
4007.388	-109.21
4009.888	-108.88
4012.386	-111.21
4014.883	-111.21
4017.377	-110.54
4019.87	-107.88
4022.361	-108.88
4024.85	-108.54
4027.338	-107.88
4029.823	-109.21
4032.307	-106.88
4034.789	-107.88
4037.269	-107.88
4039.747	-106.88
4042.224	-107.21
4044.699	-107.21
4047.172	-109.21
4049.643	-108.54
4052.112	-106.88
4054.58	-107.88
4057.046	-108.88
4059.51	-112.54
4061.972	-112.88
4064.432	-110.21
4066.891	-114.54
4069.348	-111.88
4071.803	-109.88
4074.256	-112.21
4076.708	-111.54
4079.158	-111.88
4081.606	-111.21
4084.052	-111.88
4086.497	-107.54
4088.939	-108.54
4091.38	-107.54
4093.819	-108.54
4096.257	-113.54
4098.693	-112.54
4101.127	-112.21
4103.559	-112.54
4105.989	-71.21
4108.418	-64.21
4110.845	-58.21
4113.27	-57.21
4115.694	-52.54
4118.115	-42.88
4120.535	-110.21
4122.954	-107.88
4125.37	-105.88
4127.785	-110.21
4130.198	-108.21
4132.609	-108.88
4135.019	-114.21
4137.427	-114.54
4139.833	-113.88
4142.237	-112.21
