Data from 2018-2-7_conc=0_RamanShift_04.txt Node
Date: Tue Feb 13 11:12:44 IST 2018
User: aro
Spectrometer: QEPB0276
Trigger mode: 0
Integration Time (sec): 3.000000E1
Scans to average: 1
Electric dark correction enabled: true
Nonlinearity correction enabled: false
Boxcar width: 0
XAxis mode: Raman Shifts
Number of Pixels in Spectrum: 1044
>>>>>Begin Spectral Data<<<<<
160.701	-161.9
166.742	35.1
172.777	571.1
178.805	2188.1
184.826	5965.1
190.841	12222.1
196.849	19136.1
202.85	23946.1
208.845	25344.1
214.833	24950.1
220.815	24541.1
226.789	24267.1
232.758	24208.1
238.719	23875.1
244.674	23537.1
250.623	23086.1
256.565	22471.1
262.5	21945.1
268.429	21596.1
274.351	21259.1
280.267	20902.1
286.176	20613.1
292.079	20365.1
297.975	20144.1
303.865	19958.1
309.748	19766.1
315.625	19607.1
321.495	19493.1
327.359	19444.1
333.217	19353.1
339.068	19316.1
344.912	19367.1
350.751	19262.1
356.583	19288.1
362.408	19292.1
368.227	19268.1
374.04	19314.1
379.847	19355.1
385.647	19382.1
391.44	19465.1
397.228	19582.1
403.009	19628.1
408.784	19668.1
414.553	19799.1
420.315	19819.1
426.071	19844.1
431.821	19815.1
437.565	19819.1
443.302	19819.1
449.033	19707.1
454.758	19718.1
460.477	19563.1
466.189	19596.1
471.896	19567.1
477.596	19486.1
483.29	19448.1
488.978	19477.1
494.66	19337.1
500.335	19266.1
506.005	19083.1
511.668	18784.1
517.325	18513.1
522.977	18381.1
528.622	18297.1
534.261	18115.1
539.894	18076.1
545.521	17996.1
551.141	17957.1
556.756	17911.1
562.365	17804.1
567.968	17746.1
573.565	17630.1
579.155	17589.1
584.74	17481.1
590.319	17474.1
595.892	17411.1
601.459	17326.1
607.02	17245.1
612.575	17132.1
618.124	17064.1
623.667	16993.1
629.204	16875.1
634.735	16791.1
640.261	16695.1
645.781	16741.1
651.294	16688.1
656.802	16607.1
662.304	16580.1
667.8	16556.1
673.29	16575.1
678.775	16524.1
684.254	16419.1
689.726	16389.1
695.193	16341.1
700.655	16255.1
706.11	16207.1
711.56	16084.1
717.004	16034.1
722.442	15957.1
727.874	15932.1
733.301	15856.1
738.722	15827.1
744.137	15770.1
749.547	15795.1
754.951	15790.1
760.349	15829.1
765.741	15790.1
771.128	15807.1
776.509	15761.1
781.885	15857.1
787.254	15826.1
792.618	15718.1
797.977	15611.1
803.33	15471.1
808.677	15446.1
814.019	15364.1
819.355	15310.1
824.686	15220.1
830.011	15163.1
835.33	15184.1
840.644	15191.1
845.952	15180.1
851.255	15283.1
856.552	15247.1
861.844	15253.1
867.13	15220.1
872.41	15190.1
877.686	15102.1
882.955	14997.1
888.219	14825.1
893.478	14622.1
898.731	14405.1
903.979	14361.1
909.221	14204.1
914.458	14152.1
919.69	14125.1
924.916	14266.1
930.136	14281.1
935.351	14319.1
940.561	14247.1
945.766	14231.1
950.965	14140.1
956.158	14090.1
961.347	13877.1
966.529	13793.1
971.707	13539.1
976.879	13457.1
982.046	13333.1
987.208	13308.1
992.364	13292.1
997.515	13343.1
1002.66	13530.1
1007.801	13683.1
1012.936	13738.1
1018.066	13804.1
1023.19	13703.1
1028.309	13739.1
1033.423	13762.1
1038.532	13680.1
1043.636	13545.1
1048.734	13352.1
1053.827	13209.1
1058.915	13073.1
1063.998	12963.1
1069.075	12938.1
1074.147	12977.1
1079.214	13023.1
1084.276	13082.1
1089.333	13212.1
1094.385	13277.1
1099.431	13274.1
1104.472	13280.1
1109.509	13183.1
1114.54	13096.1
1119.565	12931.1
1124.586	12737.1
1129.602	12545.1
1134.613	12550.1
1139.618	12402.1
1144.619	12431.1
1149.614	12396.1
1154.604	12454.1
1159.589	12503.1
1164.57	12511.1
1169.545	12594.1
1174.515	12561.1
1179.48	12458.1
1184.44	12395.1
1189.395	12303.1
1194.345	12188.1
1199.29	12138.1
1204.23	12153.1
1209.165	12184.1
1214.095	12294.1
1219.021	12355.1
1223.941	12380.1
1228.856	12479.1
1233.766	12507.1
1238.672	12530.1
1243.572	12504.1
1248.467	12438.1
1253.358	12309.1
1258.244	12111.1
1263.124	11909.1
1268	11785.1
1272.871	11588.1
1277.737	11541.1
1282.599	11472.1
1287.455	11507.1
1292.306	11544.1
1297.153	11537.1
1301.995	11634.1
1306.832	11642.1
1311.664	11710.1
1316.491	11646.1
1321.314	11523.1
1326.132	11336.1
1330.945	11112.1
1335.753	10820.1
1340.556	10574.1
1345.354	10345.1
1350.148	10541.1
1354.937	10224.1
1359.722	10063.1
1364.501	10124.1
1369.276	10226.1
1374.046	10361.1
1378.811	10547.1
1383.572	10703.1
1388.327	10705.1
1393.079	10607.1
1397.825	10564.1
1402.567	10361.1
1407.304	10235.1
1412.036	10156.1
1416.764	10103.1
1421.487	9998.1
1426.205	10019.1
1430.919	9957.1
1435.628	9927.1
1440.333	9985.1
1445.032	10032.1
1449.727	10051.1
1454.418	10025.1
1459.104	9918.1
1463.785	9654.1
1468.462	9491.1
1473.134	9301.1
1477.802	9050.1
1482.465	8935.1
1487.123	8817.1
1491.777	8766.1
1496.426	8812.1
1501.071	8913.1
1505.711	9033.1
1510.347	9196.1
1514.978	9407.1
1519.604	9523.1
1524.226	9627.1
1528.844	9639.1
1533.457	9631.1
1538.065	9620.1
1542.669	9533.1
1547.269	9469.1
1551.864	9431.1
1556.454	9411.1
1561.041	9389.1
1565.622	9383.1
1570.199	9387.1
1574.772	9455.1
1579.34	9504.1
1583.904	9597.1
1588.464	9617.1
1593.019	9619.1
1597.569	9589.1
1602.115	9527.1
1606.657	9450.1
1611.195	9406.1
1615.728	9381.1
1620.256	9300.1
1624.78	9321.1
1629.3	9354.1
1633.816	9382.1
1638.327	9421.1
1642.834	9472.1
1647.336	9529.1
1651.834	9518.1
1656.328	9474.1
1660.817	9429.1
1665.302	9359.1
1669.783	9161.1
1674.259	8950.1
1678.732	8693.1
1683.199	8369.1
1687.663	8044.1
1692.122	7814.1
1696.577	7717.1
1701.028	7691.1
1705.474	7717.1
1709.917	7889.1
1714.355	7861.1
1718.788	7803.1
1723.218	7699.1
1727.643	7539.1
1732.064	7388.1
1736.481	7255.1
1740.893	7067.1
1745.301	6881.1
1749.705	6700.1
1754.105	6496.1
1758.501	6324.1
1762.893	6171.1
1767.28	6006.1
1771.663	5839.1
1776.042	5719.1
1780.417	5709.1
1784.787	5673.1
1789.154	5731.1
1793.516	5823.1
1797.874	5967.1
1802.228	6080.1
1806.578	6135.1
1810.924	6136.1
1815.266	6117.1
1819.603	5982.1
1823.937	5906.1
1828.266	5861.1
1832.591	5746.1
1836.913	5655.1
1841.23	5589.1
1845.543	5538.1
1849.852	5516.1
1854.156	5540.1
1858.457	5493.1
1862.754	5488.1
1867.047	5465.1
1871.335	5503.1
1875.62	5491.1
1879.9	5453.1
1884.177	5405.1
1888.449	5329.1
1892.718	5321.1
1896.982	5252.1
1901.243	5178.1
1905.499	5153.1
1909.752	5165.1
1914	5133.1
1918.245	5134.1
1922.485	5200.1
1926.722	5210.1
1930.954	5304.1
1935.183	5361.1
1939.408	5430.1
1943.628	5479.1
1947.845	5469.1
1952.058	5477.1
1956.267	5442.1
1960.472	5317.1
1964.673	5274.1
1968.87	5167.1
1973.063	5139.1
1977.252	5062.1
1981.438	5009.1
1985.619	4948.1
1989.797	4936.1
1993.971	4898.1
1998.14	4869.1
2002.306	4871.1
2006.469	4822.1
2010.627	4817.1
2014.781	4789.1
2018.932	4733.1
2023.078	4719.1
2027.221	4614.1
2031.36	4549.1
2035.495	4512.1
2039.627	4454.1
2043.754	4371.1
2047.878	4369.1
2051.998	4316.1
2056.114	4294.1
2060.226	4296.1
2064.334	4299.1
2068.439	4306.1
2072.54	4342.1
2076.637	4320.1
2080.73	4383.1
2084.82	4400.1
2088.906	4414.1
2092.988	4452.1
2097.066	4423.1
2101.14	4399.1
2105.211	4384.1
2109.278	4338.1
2113.342	4353.1
2117.401	4286.1
2121.457	4280.1
2125.509	4275.1
2129.558	4236.1
2133.602	4209.1
2137.643	4208.1
2141.681	4194.1
2145.714	4166.1
2149.744	4147.1
2153.77	4104.1
2157.793	4056.1
2161.812	4031.1
2165.827	3928.1
2169.838	3908.1
2173.846	3836.1
2177.851	3762.1
2181.851	3709.1
2185.848	3689.1
2189.841	3653.1
2193.831	3601.1
2197.817	3574.1
2201.799	3558.1
2205.778	3540.1
2209.753	3550.1
2213.725	3537.1
2217.693	3504.1
2221.657	3497.1
2225.618	3484.1
2229.575	3481.1
2233.529	3456.1
2237.479	3412.1
2241.425	3354.1
2245.368	3343.1
2249.307	3307.1
2253.243	3223.1
2257.175	3213.1
2261.104	3162.1
2265.029	3126.1
2268.95	3085.1
2272.868	3036.1
2276.783	3018.1
2280.694	3009.1
2284.601	2954.1
2288.505	2944.1
2292.405	2935.1
2296.302	2863.1
2300.195	2842.1
2304.085	2821.1
2307.971	2791.1
2311.854	2769.1
2315.734	2713.1
2319.609	2700.1
2323.482	2633.1
2327.351	2612.1
2331.216	2597.1
2335.078	2579.1
2338.937	2580.1
2342.792	2584.1
2346.643	2571.1
2350.492	2547.1
2354.336	2561.1
2358.178	2570.1
2362.015	2568.1
2365.85	2561.1
2369.681	2575.1
2373.508	2595.1
2377.333	2599.1
2381.153	2577.1
2384.971	2565.1
2388.785	2540.1
2392.595	2511.1
2396.402	2482.1
2400.206	2480.1
2404.007	2463.1
2407.804	2466.1
2411.597	2423.1
2415.388	2427.1
2419.174	2382.1
2422.958	2413.1
2426.738	2369.1
2430.515	2355.1
2434.289	2359.1
2438.059	2310.1
2441.825	2293.1
2445.589	2275.1
2449.349	2242.1
2453.106	2201.1
2456.859	2196.1
2460.61	2154.1
2464.356	2156.1
2468.1	2124.1
2471.84	2081.1
2475.577	2070.1
2479.311	2085.1
2483.041	2059.1
2486.768	2043.1
2490.492	2047.1
2494.213	2008.1
2497.93	2021.1
2501.644	1996.1
2505.355	1994.1
2509.062	1972.1
2512.766	1971.1
2516.467	1978.1
2520.165	1960.1
2523.859	1952.1
2527.551	1910.1
2531.239	1912.1
2534.923	1891.1
2538.605	1883.1
2542.283	1889.1
2545.958	1879.1
2549.63	1885.1
2553.299	1843.1
2556.964	1856.1
2560.626	1860.1
2564.285	1853.1
2567.941	1844.1
2571.594	1822.1
2575.243	1837.1
2578.89	1817.1
2582.533	1815.1
2586.173	1770.1
2589.809	1797.1
2593.443	1744.1
2597.073	1728.1
2600.701	1728.1
2604.325	1710.1
2607.946	1701.1
2611.564	1691.1
2615.178	1674.1
2618.79	1677.1
2622.398	1660.1
2626.004	1648.1
2629.606	1617.1
2633.205	1622.1
2636.801	1583.1
2640.394	1565.1
2643.983	1542.1
2647.57	1528.1
2651.153	1507.1
2654.734	1465.1
2658.311	1450.1
2661.885	1419.1
2665.456	1408.1
2669.025	1400.1
2672.589	1380.1
2676.151	1354.1
2679.71	1350.1
2683.266	1336.1
2686.819	1305.1
2690.368	1285.1
2693.915	1257.1
2697.458	1225.1
2700.999	1199.1
2704.536	1187.1
2708.071	1136.1
2711.602	1143.1
2715.13	1097.1
2718.656	1078.1
2722.178	1053.1
2725.697	1064.1
2729.214	1025.1
2732.727	1005.1
2736.237	1008.1
2739.744	1024.1
2743.249	1014.1
2746.75	1012.1
2750.248	1003.1
2753.743	1029.1
2757.236	1036.1
2760.725	1057.1
2764.211	1071.1
2767.695	1061.1
2771.175	1064.1
2774.652	1069.1
2778.127	1060.1
2781.598	1047.1
2785.067	1038.1
2788.532	1035.1
2791.995	1044.1
2795.455	1026.1
2798.911	1051.1
2802.365	1038.1
2805.816	1043.1
2809.264	1027.1
2812.709	1041.1
2816.151	1035.1
2819.59	1026.1
2823.026	1028.1
2826.46	1033.1
2829.89	1044.1
2833.318	1038.1
2836.742	1059.1
2840.164	1055.1
2843.583	1054.1
2846.999	1080.1
2850.412	1087.1
2853.822	1095.1
2857.229	1108.1
2860.634	1128.1
2864.035	1145.1
2867.434	1178.1
2870.83	1183.1
2874.223	1213.1
2877.613	1239.1
2881	1249.1
2884.385	1263.1
2887.766	1248.1
2891.145	1244.1
2894.521	1248.1
2897.894	1240.1
2901.264	1257.1
2904.631	1248.1
2907.996	1229.1
2911.358	1263.1
2914.717	1265.1
2918.073	1267.1
2921.426	1300.1
2924.777	1296.1
2928.124	1337.1
2931.469	1341.1
2934.811	1381.1
2938.15	1387.1
2941.487	1407.1
2944.821	1406.1
2948.152	1400.1
2951.48	1416.1
2954.805	1384.1
2958.128	1358.1
2961.447	1359.1
2964.765	1339.1
2968.079	1351.1
2971.39	1357.1
2974.699	1377.1
2978.005	1403.1
2981.308	1414.1
2984.609	1435.1
2987.907	1487.1
2991.202	1510.1
2994.494	1532.1
2997.784	1568.1
3001.07	1587.1
3004.355	1613.1
3007.636	1635.1
3010.915	1651.1
3014.191	1652.1
3017.464	1701.1
3020.734	1683.1
3024.002	1698.1
3027.267	1722.1
3030.53	1746.1
3033.789	1742.1
3037.046	1752.1
3040.301	1790.1
3043.552	1831.1
3046.801	1864.1
3050.048	1890.1
3053.291	1934.1
3056.532	2008.1
3059.771	2060.1
3063.006	2104.1
3066.239	2161.1
3069.469	2253.1
3072.697	2291.1
3075.922	2332.1
3079.144	2422.1
3082.364	2456.1
3085.581	2505.1
3088.795	2574.1
3092.007	2633.1
3095.216	2685.1
3098.423	2721.1
3101.627	2798.1
3104.828	2845.1
3108.026	2920.1
3111.222	2983.1
3114.416	3041.1
3117.607	3123.1
3120.795	3171.1
3123.98	3263.1
3127.163	3322.1
3130.344	3374.1
3133.521	3460.1
3136.696	3566.1
3139.869	3617.1
3143.039	3690.1
3146.206	3730.1
3149.371	3763.1
3152.533	3826.1
3155.693	3851.1
3158.85	3864.1
3162.005	3897.1
3165.157	3916.1
3168.306	3930.1
3171.453	3900.1
3174.597	3916.1
3177.739	3948.1
3180.878	3930.1
3184.014	3929.1
3187.149	3941.1
3190.28	3949.1
3193.409	3923.1
3196.536	3942.1
3199.659	3961.1
3202.781	3955.1
3205.9	3963.1
3209.016	3954.1
3212.13	3904.1
3215.241	3913.1
3218.35	3849.1
3221.456	3819.1
3224.56	3786.1
3227.661	3771.1
3230.76	3699.1
3233.856	3658.1
3236.95	3622.1
3240.041	3594.1
3243.13	3592.1
3246.216	3552.1
3249.3	3507.1
3252.382	3532.1
3255.46	3493.1
3258.537	3516.1
3261.611	3528.1
3264.682	3497.1
3267.751	3476.1
3270.818	3496.1
3273.882	3477.1
3276.943	3444.1
3280.002	3409.1
3283.059	3377.1
3286.113	3325.1
3289.165	3310.1
3292.214	3259.1
3295.261	3175.1
3298.306	3130.1
3301.348	3087.1
3304.387	3057.1
3307.425	3019.1
3310.459	2945.1
3313.492	2904.1
3316.521	2881.1
3319.549	2840.1
3322.574	2814.1
3325.597	2815.1
3328.617	2761.1
3331.635	2743.1
3334.65	2710.1
3337.663	2701.1
3340.674	2718.1
3343.682	2705.1
3346.688	2699.1
3349.691	2667.1
3352.692	2634.1
3355.691	2634.1
3358.687	2592.1
3361.681	2553.1
3364.673	2539.1
3367.662	2500.1
3370.649	2454.1
3373.633	2429.1
3376.615	2387.1
3379.595	2367.1
3382.572	2339.1
3385.547	2285.1
3388.52	2270.1
3391.49	2222.1
3394.458	2188.1
3397.424	2166.1
3400.387	2133.1
3403.348	2116.1
3406.307	2064.1
3409.263	2078.1
3412.217	2040.1
3415.168	2001.1
3418.118	1973.1
3421.065	1939.1
3424.009	1924.1
3426.951	1907.1
3429.891	1852.1
3432.829	1797.1
3435.764	1776.1
3438.697	1721.1
3441.628	1691.1
3444.557	1631.1
3447.483	1572.1
3450.407	1535.1
3453.328	1466.1
3456.247	1411.1
3459.164	1389.1
3462.079	1336.1
3464.991	1286.1
3467.902	1239.1
3470.809	1193.1
3473.715	1154.1
3476.618	1104.1
3479.519	1075.1
3482.418	1035.1
3485.315	993.1
3488.209	953.1
3491.101	931.1
3493.99	895.1
3496.878	845.1
3499.763	813.1
3502.646	802.1
3505.527	748.1
3508.405	717.1
3511.281	686.1
3514.155	633.1
3517.027	598.1
3519.897	553.1
3522.764	510.1
3525.629	477.1
3528.492	450.1
3531.352	403.1
3534.211	363.1
3537.067	315.1
3539.921	285.1
3542.773	252.1
3545.622	222.1
3548.469	189.1
3551.315	173.1
3554.157	151.1
3556.998	114.1
3559.837	97.1
3562.673	73.1
3565.507	48.1
3568.339	24.1
3571.169	3.1
3573.996	-10.9
3576.822	-26.9
3579.645	-42.9
3582.466	-68.9
3585.285	-93.9
3588.101	-104.9
3590.916	-126.9
3593.728	-155.9
3596.538	-156.9
3599.346	-175.9
3602.152	-178.9
3604.956	-204.9
3607.757	-227.9
3610.556	-228.9
3613.354	-256.9
3616.149	-262.9
3618.942	-275.9
3621.732	-301.9
3624.521	-299.9
3627.307	-306.9
3630.092	-315.9
3632.874	-326.9
3635.654	-334.9
3638.432	-339.9
3641.208	-364.9
3643.982	-362.9
3646.753	-379.9
3649.523	-381.9
3652.29	-387.9
3655.055	-396.9
3657.818	-410.9
3660.579	-420.9
3663.338	-432.9
3666.095	-443.9
3668.849	-445.9
3671.602	-451.9
3674.352	-449.9
3677.101	-464.9
3679.847	-481.9
3682.591	-476.9
3685.333	-493.9
3688.073	-490.9
3690.811	-497.9
3693.547	-496.9
3696.281	-509.9
3699.013	-511.9
3701.742	-520.9
3704.47	-517.9
3707.195	-528.9
3709.919	-538.9
3712.64	-530.9
3715.359	-529.9
3718.076	-537.9
3720.792	-541.9
3723.505	-541.9
3726.216	-547.9
3728.925	-556.9
3731.632	-567.9
3734.336	-562.9
3737.039	-570.9
3739.74	-567.9
3742.439	-564.9
3745.136	-569.9
3747.83	-572.9
3750.523	-568.9
3753.213	-568.9
3755.902	-576.9
3758.589	-574.9
3761.273	-575.9
3763.956	-592.9
3766.636	-578.9
3769.315	-588.9
3771.991	-593.9
3774.665	-592.9
3777.338	-592.9
3780.008	-591.9
3782.677	-594.9
3785.343	-593.9
3788.007	-589.9
3790.67	-597.9
3793.33	-595.9
3795.989	-600.9
3798.645	-603.9
3801.299	-603.9
3803.952	-605.9
3806.602	-605.9
3809.251	-605.9
3811.897	-597.9
3814.542	-605.9
3817.184	-606.9
3819.825	-611.9
3822.463	-608.9
3825.1	-615.9
3827.735	-612.9
3830.367	-614.9
3832.998	-616.9
3835.627	-616.9
3838.253	-617.9
3840.878	-616.9
3843.501	-619.9
3846.122	-617.9
3848.741	-616.9
3851.358	-625.9
3853.973	-619.9
3856.586	-621.9
3859.197	-622.9
3861.806	-622.9
3864.414	-613.9
3867.019	-619.9
3869.622	-620.9
3872.224	-611.9
3874.823	-601.9
3877.421	-578.9
3880.016	-561.9
3882.61	-527.9
3885.202	-531.9
3887.792	-555.9
3890.38	-584.9
3892.966	-606.9
3895.55	-617.9
3898.132	-625.9
3900.713	-626.9
3903.291	-631.9
3905.868	-630.9
3908.442	-636.9
3911.015	-630.9
3913.586	-627.9
3916.155	-629.9
3918.722	-626.9
3921.287	-629.9
3923.85	-630.9
3926.411	-630.9
3928.971	-629.9
3931.528	-634.9
3934.084	-632.9
3936.638	-635.9
3939.19	-639.9
3941.74	-637.9
3944.288	-641.9
3946.834	-643.9
3949.378	-635.9
3951.921	-630.9
3954.462	-636.9
3957	-631.9
3959.537	-629.9
3962.072	-628.9
3964.606	-627.9
3967.137	-635.9
3969.667	-634.9
3972.194	-631.9
3974.72	-633.9
3977.244	-626.9
3979.766	-627.9
3982.286	-626.9
3984.805	-617.9
3987.321	-624.9
3989.836	-614.9
3992.349	-620.9
3994.86	-621.9
3997.369	-627.9
3999.877	-623.9
4002.382	-617.9
4004.886	-626.9
4007.388	-620.9
4009.888	-616.9
4012.386	-629.9
4014.883	-617.9
4017.377	-619.9
4019.87	-620.9
4022.361	-622.9
4024.85	-622.9
4027.338	-622.9
4029.823	-624.9
4032.307	-623.9
4034.789	-623.9
4037.269	-630.9
4039.747	-632.9
4042.224	-624.9
4044.699	-629.9
4047.172	-623.9
4049.643	-627.9
4052.112	-628.9
4054.58	-623.9
4057.046	-630.9
4059.51	-630.9
4061.972	-629.9
4064.432	-625.9
4066.891	-618.9
4069.348	-626.9
4071.803	-619.9
4074.256	-622.9
4076.708	-622.9
4079.158	-629.9
4081.606	-621.9
4084.052	-622.9
4086.497	-626.9
4088.939	-622.9
4091.38	-619.9
4093.819	-621.9
4096.257	-656.9
4098.693	-655.9
4101.127	-656.9
4103.559	-658.9
4105.989	-394.9
4108.418	-374.9
4110.845	-354.9
4113.27	-331.9
4115.694	-295.9
4118.115	-255.9
4120.535	-623.9
4122.954	-627.9
4125.37	-623.9
4127.785	-621.9
4130.198	-630.9
4132.609	-621.9
4135.019	-657.9
4137.427	-659.9
4139.833	-655.9
4142.237	-658.9
