Data from 2018-2-7_conc=2_RamanShift_28.txt Node
Date: Tue Feb 13 12:04:14 IST 2018
User: aro
Spectrometer: QEPB0276
Trigger mode: 0
Integration Time (sec): 3.000000E1
Scans to average: 1
Electric dark correction enabled: true
Nonlinearity correction enabled: false
Boxcar width: 0
XAxis mode: Raman Shifts
Number of Pixels in Spectrum: 1044
>>>>>Begin Spectral Data<<<<<
160.701	-142.1
166.742	21.9
172.777	531.9
178.805	2095.9
184.826	5644.9
190.841	11589.9
196.849	18390.9
202.85	23078.9
208.845	24461.9
214.833	24158.9
220.815	23825.9
226.789	23555.9
232.758	23512.9
238.719	23343.9
244.674	22991.9
250.623	22591.9
256.565	22107.9
262.5	21684.9
268.429	21242.9
274.351	20934.9
280.267	20652.9
286.176	20441.9
292.079	20248.9
297.975	19970.9
303.865	19884.9
309.748	19712.9
315.625	19588.9
321.495	19515.9
327.359	19390.9
333.217	19361.9
339.068	19295.9
344.912	19316.9
350.751	19233.9
356.583	19279.9
362.408	19247.9
368.227	19223.9
374.04	19299.9
379.847	19288.9
385.647	19375.9
391.44	19458.9
397.228	19565.9
403.009	19653.9
408.784	19689.9
414.553	19757.9
420.315	19752.9
426.071	19790.9
431.821	19771.9
437.565	19748.9
443.302	19718.9
449.033	19677.9
454.758	19653.9
460.477	19619.9
466.189	19507.9
471.896	19525.9
477.596	19434.9
483.29	19424.9
488.978	19388.9
494.66	19337.9
500.335	19174.9
506.005	19011.9
511.668	18733.9
517.325	18519.9
522.977	18403.9
528.622	18275.9
534.261	18159.9
539.894	18040.9
545.521	17985.9
551.141	17896.9
556.756	17834.9
562.365	17772.9
567.968	17718.9
573.565	17664.9
579.155	17643.9
584.74	17503.9
590.319	17419.9
595.892	17387.9
601.459	17321.9
607.02	17235.9
612.575	17178.9
618.124	17042.9
623.667	16901.9
629.204	16822.9
634.735	16788.9
640.261	16682.9
645.781	16655.9
651.294	16624.9
656.802	16570.9
662.304	16600.9
667.8	16518.9
673.29	16549.9
678.775	16500.9
684.254	16422.9
689.726	16356.9
695.193	16242.9
700.655	16230.9
706.11	16168.9
711.56	16035.9
717.004	16021.9
722.442	15957.9
727.874	15900.9
733.301	15816.9
738.722	15728.9
744.137	15740.9
749.547	15784.9
754.951	15723.9
760.349	15747.9
765.741	15719.9
771.128	15756.9
776.509	15815.9
781.885	15759.9
787.254	15706.9
792.618	15601.9
797.977	15545.9
803.33	15444.9
808.677	15351.9
814.019	15269.9
819.355	15174.9
824.686	15147.9
830.011	15097.9
835.33	15145.9
840.644	15131.9
845.952	15149.9
851.255	15150.9
856.552	15167.9
861.844	15117.9
867.13	15164.9
872.41	15069.9
877.686	15027.9
882.955	14898.9
888.219	14770.9
893.478	14560.9
898.731	14371.9
903.979	14245.9
909.221	14152.9
914.458	14147.9
919.69	14100.9
924.916	14157.9
930.136	14202.9
935.351	14200.9
940.561	14247.9
945.766	14208.9
950.965	14101.9
956.158	13972.9
961.347	13835.9
966.529	13707.9
971.707	13532.9
976.879	13380.9
982.046	13240.9
987.208	13179.9
992.364	13191.9
997.515	13278.9
1002.66	13411.9
1007.801	13588.9
1012.936	13605.9
1018.066	13677.9
1023.19	13616.9
1028.309	13682.9
1033.423	13640.9
1038.532	13542.9
1043.636	13402.9
1048.734	13239.9
1053.827	13112.9
1058.915	12966.9
1063.998	12843.9
1069.075	12805.9
1074.147	12838.9
1079.214	12890.9
1084.276	12970.9
1089.333	13025.9
1094.385	13108.9
1099.431	13153.9
1104.472	13141.9
1109.509	13051.9
1114.54	12888.9
1119.565	12739.9
1124.586	12628.9
1129.602	12448.9
1134.613	12350.9
1139.618	12315.9
1144.619	12262.9
1149.614	12287.9
1154.604	12273.9
1159.589	12332.9
1164.57	12338.9
1169.545	12399.9
1174.515	12331.9
1179.48	12261.9
1184.44	12232.9
1189.395	12130.9
1194.345	12066.9
1199.29	11961.9
1204.23	12022.9
1209.165	12023.9
1214.095	12110.9
1219.021	12170.9
1223.941	12240.9
1228.856	12272.9
1233.766	12291.9
1238.672	12345.9
1243.572	12265.9
1248.467	12235.9
1253.358	12081.9
1258.244	11901.9
1263.124	11758.9
1268	11537.9
1272.871	11413.9
1277.737	11353.9
1282.599	11290.9
1287.455	11240.9
1292.306	11270.9
1297.153	11313.9
1301.995	11359.9
1306.832	11366.9
1311.664	11385.9
1316.491	11348.9
1321.314	11233.9
1326.132	11055.9
1330.945	10808.9
1335.753	10565.9
1340.556	10339.9
1345.354	10137.9
1350.148	10001.9
1354.937	9943.9
1359.722	9952.9
1364.501	9949.9
1369.276	10087.9
1374.046	10177.9
1378.811	10325.9
1383.572	10388.9
1388.327	10429.9
1393.079	10337.9
1397.825	10231.9
1402.567	10072.9
1407.304	9968.9
1412.036	9867.9
1416.764	9814.9
1421.487	9738.9
1426.205	9667.9
1430.919	9677.9
1435.628	9633.9
1440.333	9702.9
1445.032	9745.9
1449.727	9748.9
1454.418	9680.9
1459.104	9642.9
1463.785	9434.9
1468.462	9216.9
1473.134	9046.9
1477.802	8793.9
1482.465	8705.9
1487.123	8603.9
1491.777	8610.9
1496.426	8660.9
1501.071	8759.9
1505.711	8839.9
1510.347	9008.9
1514.978	9171.9
1519.604	9283.9
1524.226	9360.9
1528.844	9353.9
1533.457	9340.9
1538.065	9268.9
1542.669	9218.9
1547.269	9190.9
1551.864	9129.9
1556.454	9109.9
1561.041	9045.9
1565.622	9055.9
1570.199	9086.9
1574.772	9166.9
1579.34	9191.9
1583.904	9203.9
1588.464	9285.9
1593.019	9262.9
1597.569	9228.9
1602.115	9260.9
1606.657	9154.9
1611.195	9072.9
1615.728	9056.9
1620.256	8988.9
1624.78	8981.9
1629.3	9059.9
1633.816	9050.9
1638.327	9058.9
1642.834	9125.9
1647.336	9183.9
1651.834	9136.9
1656.328	9148.9
1660.817	9108.9
1665.302	8988.9
1669.783	8819.9
1674.259	8662.9
1678.732	8366.9
1683.199	8059.9
1687.663	7794.9
1692.122	7621.9
1696.577	7528.9
1701.028	7476.9
1705.474	7487.9
1709.917	7570.9
1714.355	7581.9
1718.788	7504.9
1723.218	7414.9
1727.643	7284.9
1732.064	7183.9
1736.481	7001.9
1740.893	6866.9
1745.301	6659.9
1749.705	6478.9
1754.105	6256.9
1758.501	6076.9
1762.893	5937.9
1767.28	5757.9
1771.663	5624.9
1776.042	5566.9
1780.417	5493.9
1784.787	5509.9
1789.154	5579.9
1793.516	5622.9
1797.874	5730.9
1802.228	5861.9
1806.578	5923.9
1810.924	5925.9
1815.266	5837.9
1819.603	5787.9
1823.937	5696.9
1828.266	5575.9
1832.591	5529.9
1836.913	5436.9
1841.23	5366.9
1845.543	5363.9
1849.852	5335.9
1854.156	5317.9
1858.457	5322.9
1862.754	5307.9
1867.047	5286.9
1871.335	5324.9
1875.62	5296.9
1879.9	5260.9
1884.177	5216.9
1888.449	5156.9
1892.718	5131.9
1896.982	5081.9
1901.243	4999.9
1905.499	4962.9
1909.752	4949.9
1914	4968.9
1918.245	4980.9
1922.485	5008.9
1926.722	5089.9
1930.954	5103.9
1935.183	5181.9
1939.408	5227.9
1943.628	5272.9
1947.845	5309.9
1952.058	5246.9
1956.267	5197.9
1960.472	5146.9
1964.673	5078.9
1968.87	4951.9
1973.063	4883.9
1977.252	4851.9
1981.438	4814.9
1985.619	4741.9
1989.797	4708.9
1993.971	4680.9
1998.14	4678.9
2002.306	4647.9
2006.469	4621.9
2010.627	4598.9
2014.781	4603.9
2018.932	4530.9
2023.078	4472.9
2027.221	4449.9
2031.36	4345.9
2035.495	4328.9
2039.627	4256.9
2043.754	4196.9
2047.878	4136.9
2051.998	4110.9
2056.114	4116.9
2060.226	4127.9
2064.334	4117.9
2068.439	4132.9
2072.54	4150.9
2076.637	4181.9
2080.73	4200.9
2084.82	4235.9
2088.906	4230.9
2092.988	4246.9
2097.066	4220.9
2101.14	4206.9
2105.211	4213.9
2109.278	4185.9
2113.342	4126.9
2117.401	4089.9
2121.457	4090.9
2125.509	4053.9
2129.558	4023.9
2133.602	3992.9
2137.643	4001.9
2141.681	3955.9
2145.714	3948.9
2149.744	3934.9
2153.77	3901.9
2157.793	3871.9
2161.812	3821.9
2165.827	3724.9
2169.838	3701.9
2173.846	3649.9
2177.851	3588.9
2181.851	3509.9
2185.848	3504.9
2189.841	3447.9
2193.831	3391.9
2197.817	3375.9
2201.799	3385.9
2205.778	3364.9
2209.753	3330.9
2213.725	3331.9
2217.693	3333.9
2221.657	3298.9
2225.618	3305.9
2229.575	3287.9
2233.529	3265.9
2237.479	3212.9
2241.425	3176.9
2245.368	3143.9
2249.307	3088.9
2253.243	3065.9
2257.175	3006.9
2261.104	2975.9
2265.029	2950.9
2268.95	2918.9
2272.868	2877.9
2276.783	2850.9
2280.694	2832.9
2284.601	2797.9
2288.505	2750.9
2292.405	2756.9
2296.302	2708.9
2300.195	2674.9
2304.085	2642.9
2307.971	2622.9
2311.854	2584.9
2315.734	2529.9
2319.609	2516.9
2323.482	2464.9
2327.351	2463.9
2331.216	2451.9
2335.078	2415.9
2338.937	2414.9
2342.792	2405.9
2346.643	2389.9
2350.492	2401.9
2354.336	2386.9
2358.178	2394.9
2362.015	2409.9
2365.85	2432.9
2369.681	2411.9
2373.508	2421.9
2377.333	2417.9
2381.153	2410.9
2384.971	2395.9
2388.785	2382.9
2392.595	2357.9
2396.402	2325.9
2400.206	2332.9
2404.007	2301.9
2407.804	2293.9
2411.597	2259.9
2415.388	2261.9
2419.174	2251.9
2422.958	2221.9
2426.738	2208.9
2430.515	2190.9
2434.289	2158.9
2438.059	2166.9
2441.825	2152.9
2445.589	2122.9
2449.349	2076.9
2453.106	2044.9
2456.859	2037.9
2460.61	2008.9
2464.356	1988.9
2468.1	1974.9
2471.84	1942.9
2475.577	1932.9
2479.311	1950.9
2483.041	1927.9
2486.768	1894.9
2490.492	1906.9
2494.213	1881.9
2497.93	1876.9
2501.644	1857.9
2505.355	1863.9
2509.062	1852.9
2512.766	1842.9
2516.467	1829.9
2520.165	1812.9
2523.859	1809.9
2527.551	1789.9
2531.239	1784.9
2534.923	1780.9
2538.605	1765.9
2542.283	1744.9
2545.958	1735.9
2549.63	1778.9
2553.299	1737.9
2556.964	1759.9
2560.626	1738.9
2564.285	1731.9
2567.941	1731.9
2571.594	1726.9
2575.243	1714.9
2578.89	1690.9
2582.533	1677.9
2586.173	1667.9
2589.809	1655.9
2593.443	1643.9
2597.073	1617.9
2600.701	1611.9
2604.325	1582.9
2607.946	1594.9
2611.564	1571.9
2615.178	1564.9
2618.79	1539.9
2622.398	1547.9
2626.004	1516.9
2629.606	1505.9
2633.205	1491.9
2636.801	1477.9
2640.394	1444.9
2643.983	1410.9
2647.57	1403.9
2651.153	1388.9
2654.734	1356.9
2658.311	1356.9
2661.885	1331.9
2665.456	1298.9
2669.025	1272.9
2672.589	1274.9
2676.151	1241.9
2679.71	1228.9
2683.266	1210.9
2686.819	1187.9
2690.368	1179.9
2693.915	1147.9
2697.458	1128.9
2700.999	1090.9
2704.536	1063.9
2708.071	1044.9
2711.602	1018.9
2715.13	998.9
2718.656	957.9
2722.178	953.9
2725.697	949.9
2729.214	956.9
2732.727	920.9
2736.237	930.9
2739.744	919.9
2743.249	917.9
2746.75	936.9
2750.248	935.9
2753.743	954.9
2757.236	970.9
2760.725	978.9
2764.211	966.9
2767.695	971.9
2771.175	989.9
2774.652	955.9
2778.127	957.9
2781.598	958.9
2785.067	946.9
2788.532	939.9
2791.995	958.9
2795.455	941.9
2798.911	940.9
2802.365	950.9
2805.816	949.9
2809.264	950.9
2812.709	958.9
2816.151	944.9
2819.59	961.9
2823.026	951.9
2826.46	934.9
2829.89	956.9
2833.318	971.9
2836.742	950.9
2840.164	976.9
2843.583	966.9
2846.999	968.9
2850.412	981.9
2853.822	999.9
2857.229	1004.9
2860.634	1016.9
2864.035	1049.9
2867.434	1070.9
2870.83	1085.9
2874.223	1092.9
2877.613	1124.9
2881	1129.9
2884.385	1134.9
2887.766	1116.9
2891.145	1120.9
2894.521	1119.9
2897.894	1097.9
2901.264	1113.9
2904.631	1125.9
2907.996	1118.9
2911.358	1131.9
2914.717	1133.9
2918.073	1129.9
2921.426	1164.9
2924.777	1159.9
2928.124	1193.9
2931.469	1213.9
2934.811	1229.9
2938.15	1221.9
2941.487	1239.9
2944.821	1264.9
2948.152	1260.9
2951.48	1245.9
2954.805	1234.9
2958.128	1206.9
2961.447	1220.9
2964.765	1209.9
2968.079	1187.9
2971.39	1224.9
2974.699	1223.9
2978.005	1246.9
2981.308	1269.9
2984.609	1290.9
2987.907	1314.9
2991.202	1339.9
2994.494	1363.9
2997.784	1403.9
3001.07	1435.9
3004.355	1431.9
3007.636	1462.9
3010.915	1469.9
3014.191	1489.9
3017.464	1497.9
3020.734	1490.9
3024.002	1525.9
3027.267	1521.9
3030.53	1539.9
3033.789	1540.9
3037.046	1564.9
3040.301	1579.9
3043.552	1617.9
3046.801	1671.9
3050.048	1700.9
3053.291	1733.9
3056.532	1795.9
3059.771	1848.9
3063.006	1900.9
3066.239	1938.9
3069.469	2025.9
3072.697	2051.9
3075.922	2096.9
3079.144	2140.9
3082.364	2215.9
3085.581	2245.9
3088.795	2308.9
3092.007	2350.9
3095.216	2398.9
3098.423	2441.9
3101.627	2498.9
3104.828	2556.9
3108.026	2616.9
3111.222	2663.9
3114.416	2717.9
3117.607	2778.9
3120.795	2862.9
3123.98	2903.9
3127.163	2989.9
3130.344	3062.9
3133.521	3118.9
3136.696	3218.9
3139.869	3251.9
3143.039	3340.9
3146.206	3362.9
3149.371	3426.9
3152.533	3446.9
3155.693	3442.9
3158.85	3480.9
3162.005	3501.9
3165.157	3496.9
3168.306	3482.9
3171.453	3514.9
3174.597	3533.9
3177.739	3518.9
3180.878	3540.9
3184.014	3543.9
3187.149	3548.9
3190.28	3580.9
3193.409	3558.9
3196.536	3543.9
3199.659	3569.9
3202.781	3571.9
3205.9	3570.9
3209.016	3574.9
3212.13	3541.9
3215.241	3528.9
3218.35	3491.9
3221.456	3459.9
3224.56	3402.9
3227.661	3362.9
3230.76	3342.9
3233.856	3296.9
3236.95	3264.9
3240.041	3253.9
3243.13	3232.9
3246.216	3185.9
3249.3	3166.9
3252.382	3165.9
3255.46	3138.9
3258.537	3152.9
3261.611	3129.9
3264.682	3141.9
3267.751	3128.9
3270.818	3134.9
3273.882	3126.9
3276.943	3066.9
3280.002	3074.9
3283.059	3056.9
3286.113	3013.9
3289.165	3002.9
3292.214	3019.9
3295.261	2930.9
3298.306	2838.9
3301.348	2800.9
3304.387	2731.9
3307.425	2688.9
3310.459	2660.9
3313.492	2610.9
3316.521	2588.9
3319.549	2556.9
3322.574	2540.9
3325.597	2522.9
3328.617	2490.9
3331.635	2472.9
3334.65	2474.9
3337.663	2451.9
3340.674	2453.9
3343.682	2423.9
3346.688	2434.9
3349.691	2403.9
3352.692	2412.9
3355.691	2383.9
3358.687	2355.9
3361.681	2334.9
3364.673	2292.9
3367.662	2257.9
3370.649	2227.9
3373.633	2198.9
3376.615	2179.9
3379.595	2115.9
3382.572	2103.9
3385.547	2087.9
3388.52	2050.9
3391.49	2026.9
3394.458	1968.9
3397.424	1951.9
3400.387	1944.9
3403.348	1881.9
3406.307	1881.9
3409.263	1844.9
3412.217	1822.9
3415.168	1796.9
3418.118	1804.9
3421.065	1768.9
3424.009	1732.9
3426.951	1690.9
3429.891	1670.9
3432.829	1639.9
3435.764	1587.9
3438.697	1563.9
3441.628	1503.9
3444.557	1450.9
3447.483	1414.9
3450.407	1385.9
3453.328	1339.9
3456.247	1281.9
3459.164	1236.9
3462.079	1178.9
3464.991	1148.9
3467.902	1106.9
3470.809	1068.9
3473.715	1024.9
3476.618	982.9
3479.519	949.9
3482.418	923.9
3485.315	871.9
3488.209	849.9
3491.101	817.9
3493.99	788.9
3496.878	743.9
3499.763	724.9
3502.646	692.9
3505.527	659.9
3508.405	631.9
3511.281	567.9
3514.155	543.9
3517.027	518.9
3519.897	483.9
3522.764	449.9
3525.629	406.9
3528.492	380.9
3531.352	337.9
3534.211	289.9
3537.067	259.9
3539.921	236.9
3542.773	204.9
3545.622	174.9
3548.469	151.9
3551.315	128.9
3554.157	110.9
3556.998	77.9
3559.837	62.9
3562.673	33.9
3565.507	14.9
3568.339	3.9
3571.169	-6.1
3573.996	-39.1
3576.822	-54.1
3579.645	-78.1
3582.466	-88.1
3585.285	-109.1
3588.101	-121.1
3590.916	-142.1
3593.728	-171.1
3596.538	-176.1
3599.346	-193.1
3602.152	-205.1
3604.956	-218.1
3607.757	-233.1
3610.556	-247.1
3613.354	-265.1
3616.149	-264.1
3618.942	-275.1
3621.732	-285.1
3624.521	-295.1
3627.307	-309.1
3630.092	-309.1
3632.874	-328.1
3635.654	-337.1
3638.432	-338.1
3641.208	-351.1
3643.982	-360.1
3646.753	-371.1
3649.523	-384.1
3652.29	-389.1
3655.055	-399.1
3657.818	-395.1
3660.579	-408.1
3663.338	-416.1
3666.095	-425.1
3668.849	-440.1
3671.602	-444.1
3674.352	-442.1
3677.101	-454.1
3679.847	-466.1
3682.591	-462.1
3685.333	-467.1
3688.073	-476.1
3690.811	-479.1
3693.547	-481.1
3696.281	-489.1
3699.013	-495.1
3701.742	-503.1
3704.47	-499.1
3707.195	-513.1
3709.919	-504.1
3712.64	-513.1
3715.359	-515.1
3718.076	-519.1
3720.792	-518.1
3723.505	-522.1
3726.216	-532.1
3728.925	-534.1
3731.632	-543.1
3734.336	-536.1
3737.039	-549.1
3739.74	-536.1
3742.439	-545.1
3745.136	-542.1
3747.83	-550.1
3750.523	-550.1
3753.213	-560.1
3755.902	-556.1
3758.589	-551.1
3761.273	-553.1
3763.956	-556.1
3766.636	-556.1
3769.315	-561.1
3771.991	-565.1
3774.665	-570.1
3777.338	-560.1
3780.008	-563.1
3782.677	-561.1
3785.343	-564.1
3788.007	-560.1
3790.67	-569.1
3793.33	-575.1
3795.989	-577.1
3798.645	-577.1
3801.299	-577.1
3803.952	-578.1
3806.602	-579.1
3809.251	-591.1
3811.897	-581.1
3814.542	-573.1
3817.184	-578.1
3819.825	-580.1
3822.463	-575.1
3825.1	-580.1
3827.735	-585.1
3830.367	-588.1
3832.998	-589.1
3835.627	-589.1
3838.253	-593.1
3840.878	-588.1
3843.501	-590.1
3846.122	-587.1
3848.741	-585.1
3851.358	-588.1
3853.973	-593.1
3856.586	-592.1
3859.197	-594.1
3861.806	-595.1
3864.414	-587.1
3867.019	-586.1
3869.622	-594.1
3872.224	-590.1
3874.823	-575.1
3877.421	-560.1
3880.016	-545.1
3882.61	-522.1
3885.202	-519.1
3887.792	-539.1
3890.38	-563.1
3892.966	-576.1
3895.55	-589.1
3898.132	-594.1
3900.713	-600.1
3903.291	-600.1
3905.868	-604.1
3908.442	-602.1
3911.015	-597.1
3913.586	-599.1
3916.155	-599.1
3918.722	-601.1
3921.287	-603.1
3923.85	-597.1
3926.411	-607.1
3928.971	-603.1
3931.528	-605.1
3934.084	-598.1
3936.638	-603.1
3939.19	-606.1
3941.74	-613.1
3944.288	-609.1
3946.834	-610.1
3949.378	-608.1
3951.921	-608.1
3954.462	-608.1
3957	-597.1
3959.537	-598.1
3962.072	-597.1
3964.606	-602.1
3967.137	-604.1
3969.667	-597.1
3972.194	-597.1
3974.72	-599.1
3977.244	-595.1
3979.766	-588.1
3982.286	-595.1
3984.805	-591.1
3987.321	-588.1
3989.836	-596.1
3992.349	-596.1
3994.86	-590.1
3997.369	-608.1
3999.877	-590.1
4002.382	-593.1
4004.886	-591.1
4007.388	-593.1
4009.888	-591.1
4012.386	-592.1
4014.883	-591.1
4017.377	-589.1
4019.87	-589.1
4022.361	-599.1
4024.85	-593.1
4027.338	-597.1
4029.823	-591.1
4032.307	-595.1
4034.789	-599.1
4037.269	-605.1
4039.747	-603.1
4042.224	-590.1
4044.699	-592.1
4047.172	-592.1
4049.643	-591.1
4052.112	-593.1
4054.58	-594.1
4057.046	-597.1
4059.51	-593.1
4061.972	-601.1
4064.432	-597.1
4066.891	-593.1
4069.348	-596.1
4071.803	-601.1
4074.256	-594.1
4076.708	-590.1
4079.158	-600.1
4081.606	-596.1
4084.052	-591.1
4086.497	-593.1
4088.939	-590.1
4091.38	-586.1
4093.819	-585.1
4096.257	-630.1
4098.693	-628.1
4101.127	-625.1
4103.559	-628.1
4105.989	-372.1
4108.418	-357.1
4110.845	-340.1
4113.27	-315.1
4115.694	-268.1
4118.115	-235.1
4120.535	-593.1
4122.954	-597.1
4125.37	-588.1
4127.785	-592.1
4130.198	-598.1
4132.609	-588.1
4135.019	-631.1
4137.427	-624.1
4139.833	-629.1
4142.237	-623.1
