Data from 2018-2-7_conc=4_RamanShift_03.txt Node
Date: Tue Feb 13 13:29:13 IST 2018
User: aro
Spectrometer: QEPB0276
Trigger mode: 0
Integration Time (sec): 3.000000E1
Scans to average: 1
Electric dark correction enabled: true
Nonlinearity correction enabled: false
Boxcar width: 0
XAxis mode: Raman Shifts
Number of Pixels in Spectrum: 1044
>>>>>Begin Spectral Data<<<<<
160.701	-164
166.742	21
172.777	579
178.805	2256
184.826	6128
190.841	12560
196.849	19735
202.85	24579
208.845	26025
214.833	25637
220.815	25121
226.789	24955
232.758	24851
238.719	24689
244.674	24272
250.623	23811
256.565	23293
262.5	22795
268.429	22396
274.351	22024
280.267	21766
286.176	21531
292.079	21217
297.975	21032
303.865	20853
309.748	20686
315.625	20547
321.495	20452
327.359	20404
333.217	20333
339.068	20309
344.912	20234
350.751	20251
356.583	20284
362.408	20177
368.227	20222
374.04	20238
379.847	20250
385.647	20382
391.44	20442
397.228	20428
403.009	20592
408.784	20634
414.553	20766
420.315	20763
426.071	20736
431.821	20803
437.565	20757
443.302	20744
449.033	20670
454.758	20672
460.477	20659
466.189	20612
471.896	20488
477.596	20470
483.29	20421
488.978	20348
494.66	20368
500.335	20179
506.005	20055
511.668	19817
517.325	19498
522.977	19381
528.622	19238
534.261	19148
539.894	19016
545.521	18954
551.141	18895
556.756	18827
562.365	18703
567.968	18691
573.565	18634
579.155	18503
584.74	18449
590.319	18313
595.892	18283
601.459	18263
607.02	18226
612.575	18085
618.124	17966
623.667	17842
629.204	17778
634.735	17706
640.261	17605
645.781	17540
651.294	17500
656.802	17501
662.304	17486
667.8	17438
673.29	17352
678.775	17350
684.254	17310
689.726	17263
695.193	17202
700.655	17119
706.11	17073
711.56	16968
717.004	16868
722.442	16789
727.874	16691
733.301	16685
738.722	16650
744.137	16559
749.547	16609
754.951	16607
760.349	16585
765.741	16578
771.128	16609
776.509	16586
781.885	16599
787.254	16606
792.618	16523
797.977	16389
803.33	16268
808.677	16211
814.019	16080
819.355	15989
824.686	15958
830.011	15926
835.33	15935
840.644	15938
845.952	15979
851.255	16005
856.552	15955
861.844	15948
867.13	15975
872.41	15844
877.686	15769
882.955	15670
888.219	15508
893.478	15337
898.731	15157
903.979	15018
909.221	14905
914.458	14810
919.69	14833
924.916	14844
930.136	14911
935.351	14960
940.561	14918
945.766	14933
950.965	14878
956.158	14729
961.347	14601
966.529	14344
971.707	14245
976.879	14078
982.046	13895
987.208	13900
992.364	13884
997.515	14017
1002.66	14115
1007.801	14206
1012.936	14361
1018.066	14330
1023.19	14371
1028.309	14361
1033.423	14327
1038.532	14238
1043.636	14105
1048.734	13970
1053.827	13762
1058.915	13592
1063.998	13497
1069.075	13502
1074.147	13499
1079.214	13537
1084.276	13644
1089.333	13688
1094.385	13805
1099.431	13808
1104.472	13861
1109.509	13736
1114.54	13572
1119.565	13373
1124.586	13246
1129.602	13086
1134.613	13038
1139.618	12892
1144.619	12949
1149.614	12943
1154.604	12939
1159.589	12960
1164.57	12998
1169.545	13075
1174.515	13034
1179.48	12956
1184.44	12819
1189.395	12769
1194.345	12686
1199.29	12560
1204.23	12603
1209.165	12670
1214.095	12702
1219.021	12796
1223.941	12854
1228.856	12893
1233.766	12989
1238.672	12982
1243.572	12924
1248.467	12842
1253.358	12702
1258.244	12564
1263.124	12358
1268	12167
1272.871	12019
1277.737	11908
1282.599	11919
1287.455	11876
1292.306	11894
1297.153	11945
1301.995	11969
1306.832	12049
1311.664	12017
1316.491	11963
1321.314	11843
1326.132	11681
1330.945	11439
1335.753	11184
1340.556	10882
1345.354	10653
1350.148	10502
1354.937	10426
1359.722	10391
1364.501	10475
1369.276	10590
1374.046	10667
1378.811	10827
1383.572	10926
1388.327	10948
1393.079	10891
1397.825	10811
1402.567	10650
1407.304	10529
1412.036	10446
1416.764	10341
1421.487	10307
1426.205	10234
1430.919	10218
1435.628	10211
1440.333	10248
1445.032	10225
1449.727	10287
1454.418	10274
1459.104	10115
1463.785	9928
1468.462	9744
1473.134	9521
1477.802	9290
1482.465	9175
1487.123	9063
1491.777	9012
1496.426	9038
1501.071	9166
1505.711	9270
1510.347	9414
1514.978	9594
1519.604	9704
1524.226	9799
1528.844	9863
1533.457	9812
1538.065	9798
1542.669	9662
1547.269	9664
1551.864	9605
1556.454	9542
1561.041	9554
1565.622	9545
1570.199	9604
1574.772	9632
1579.34	9684
1583.904	9724
1588.464	9799
1593.019	9820
1597.569	9769
1602.115	9711
1606.657	9633
1611.195	9593
1615.728	9500
1620.256	9476
1624.78	9483
1629.3	9492
1633.816	9514
1638.327	9518
1642.834	9533
1647.336	9688
1651.834	9646
1656.328	9656
1660.817	9578
1665.302	9467
1669.783	9263
1674.259	9057
1678.732	8781
1683.199	8447
1687.663	8182
1692.122	7931
1696.577	7790
1701.028	7784
1705.474	7809
1709.917	7873
1714.355	7938
1718.788	7916
1723.218	7768
1727.643	7670
1732.064	7505
1736.481	7330
1740.893	7098
1745.301	6999
1749.705	6781
1754.105	6578
1758.501	6335
1762.893	6217
1767.28	6036
1771.663	5908
1776.042	5773
1780.417	5736
1784.787	5714
1789.154	5774
1793.516	5855
1797.874	5964
1802.228	6081
1806.578	6141
1810.924	6141
1815.266	6099
1819.603	6021
1823.937	5970
1828.266	5834
1832.591	5748
1836.913	5673
1841.23	5587
1845.543	5583
1849.852	5544
1854.156	5527
1858.457	5514
1862.754	5500
1867.047	5500
1871.335	5489
1875.62	5502
1879.9	5471
1884.177	5405
1888.449	5346
1892.718	5285
1896.982	5237
1901.243	5172
1905.499	5163
1909.752	5146
1914	5101
1918.245	5123
1922.485	5140
1926.722	5224
1930.954	5266
1935.183	5315
1939.408	5401
1943.628	5442
1947.845	5411
1952.058	5423
1956.267	5356
1960.472	5333
1964.673	5266
1968.87	5181
1973.063	5083
1977.252	5021
1981.438	4953
1985.619	4916
1989.797	4829
1993.971	4839
1998.14	4816
2002.306	4841
2006.469	4783
2010.627	4757
2014.781	4718
2018.932	4689
2023.078	4639
2027.221	4577
2031.36	4506
2035.495	4425
2039.627	4369
2043.754	4316
2047.878	4257
2051.998	4215
2056.114	4195
2060.226	4232
2064.334	4230
2068.439	4210
2072.54	4241
2076.637	4264
2080.73	4300
2084.82	4331
2088.906	4329
2092.988	4337
2097.066	4327
2101.14	4318
2105.211	4301
2109.278	4261
2113.342	4225
2117.401	4223
2121.457	4187
2125.509	4194
2129.558	4142
2133.602	4105
2137.643	4092
2141.681	4087
2145.714	4083
2149.744	4037
2153.77	4015
2157.793	3967
2161.812	3905
2165.827	3848
2169.838	3803
2173.846	3725
2177.851	3676
2181.851	3618
2185.848	3572
2189.841	3530
2193.831	3479
2197.817	3478
2201.799	3455
2205.778	3456
2209.753	3450
2213.725	3424
2217.693	3405
2221.657	3368
2225.618	3391
2229.575	3354
2233.529	3372
2237.479	3294
2241.425	3278
2245.368	3249
2249.307	3194
2253.243	3138
2257.175	3101
2261.104	3077
2265.029	3030
2268.95	2994
2272.868	2933
2276.783	2915
2280.694	2876
2284.601	2866
2288.505	2832
2292.405	2791
2296.302	2770
2300.195	2756
2304.085	2719
2307.971	2687
2311.854	2624
2315.734	2619
2319.609	2578
2323.482	2532
2327.351	2522
2331.216	2509
2335.078	2489
2338.937	2480
2342.792	2477
2346.643	2457
2350.492	2445
2354.336	2435
2358.178	2454
2362.015	2460
2365.85	2462
2369.681	2486
2373.508	2467
2377.333	2470
2381.153	2470
2384.971	2449
2388.785	2451
2392.595	2402
2396.402	2409
2400.206	2391
2404.007	2343
2407.804	2367
2411.597	2325
2415.388	2318
2419.174	2286
2422.958	2278
2426.738	2264
2430.515	2230
2434.289	2235
2438.059	2204
2441.825	2190
2445.589	2159
2449.349	2148
2453.106	2144
2456.859	2090
2460.61	2065
2464.356	2030
2468.1	2018
2471.84	1987
2475.577	1986
2479.311	1969
2483.041	1966
2486.768	1967
2490.492	1918
2494.213	1939
2497.93	1909
2501.644	1903
2505.355	1890
2509.062	1881
2512.766	1861
2516.467	1857
2520.165	1836
2523.859	1826
2527.551	1828
2531.239	1817
2534.923	1789
2538.605	1790
2542.283	1782
2545.958	1776
2549.63	1762
2553.299	1753
2556.964	1759
2560.626	1749
2564.285	1732
2567.941	1744
2571.594	1726
2575.243	1719
2578.89	1709
2582.533	1687
2586.173	1681
2589.809	1644
2593.443	1646
2597.073	1624
2600.701	1609
2604.325	1588
2607.946	1600
2611.564	1587
2615.178	1571
2618.79	1565
2622.398	1541
2626.004	1531
2629.606	1497
2633.205	1495
2636.801	1474
2640.394	1454
2643.983	1415
2647.57	1418
2651.153	1389
2654.734	1358
2658.311	1335
2661.885	1323
2665.456	1310
2669.025	1276
2672.589	1279
2676.151	1252
2679.71	1235
2683.266	1208
2686.819	1206
2690.368	1172
2693.915	1131
2697.458	1112
2700.999	1086
2704.536	1064
2708.071	1035
2711.602	1022
2715.13	993
2718.656	977
2722.178	935
2725.697	953
2729.214	927
2732.727	918
2736.237	934
2739.744	907
2743.249	915
2746.75	896
2750.248	910
2753.743	931
2757.236	962
2760.725	946
2764.211	956
2767.695	967
2771.175	945
2774.652	948
2778.127	936
2781.598	947
2785.067	937
2788.532	930
2791.995	940
2795.455	943
2798.911	941
2802.365	939
2805.816	947
2809.264	940
2812.709	936
2816.151	922
2819.59	945
2823.026	941
2826.46	935
2829.89	943
2833.318	932
2836.742	941
2840.164	979
2843.583	952
2846.999	985
2850.412	996
2853.822	996
2857.229	1004
2860.634	1016
2864.035	1046
2867.434	1068
2870.83	1090
2874.223	1110
2877.613	1110
2881	1140
2884.385	1138
2887.766	1134
2891.145	1132
2894.521	1135
2897.894	1135
2901.264	1137
2904.631	1129
2907.996	1141
2911.358	1145
2914.717	1177
2918.073	1161
2921.426	1196
2924.777	1193
2928.124	1216
2931.469	1230
2934.811	1257
2938.15	1286
2941.487	1287
2944.821	1284
2948.152	1279
2951.48	1303
2954.805	1270
2958.128	1234
2961.447	1229
2964.765	1232
2968.079	1233
2971.39	1254
2974.699	1267
2978.005	1280
2981.308	1320
2984.609	1335
2987.907	1356
2991.202	1393
2994.494	1418
2997.784	1446
3001.07	1478
3004.355	1512
3007.636	1501
3010.915	1543
3014.191	1552
3017.464	1581
3020.734	1570
3024.002	1588
3027.267	1598
3030.53	1609
3033.789	1612
3037.046	1657
3040.301	1683
3043.552	1729
3046.801	1769
3050.048	1809
3053.291	1844
3056.532	1911
3059.771	1934
3063.006	2001
3066.239	2077
3069.469	2121
3072.697	2179
3075.922	2250
3079.144	2311
3082.364	2335
3085.581	2374
3088.795	2472
3092.007	2513
3095.216	2549
3098.423	2598
3101.627	2658
3104.828	2726
3108.026	2833
3111.222	2864
3114.416	2921
3117.607	3006
3120.795	3071
3123.98	3143
3127.163	3211
3130.344	3289
3133.521	3343
3136.696	3435
3139.869	3498
3143.039	3588
3146.206	3606
3149.371	3671
3152.533	3691
3155.693	3714
3158.85	3762
3162.005	3755
3165.157	3788
3168.306	3793
3171.453	3784
3174.597	3814
3177.739	3825
3180.878	3827
3184.014	3841
3187.149	3830
3190.28	3825
3193.409	3836
3196.536	3848
3199.659	3843
3202.781	3864
3205.9	3835
3209.016	3826
3212.13	3829
3215.241	3792
3218.35	3745
3221.456	3683
3224.56	3694
3227.661	3600
3230.76	3594
3233.856	3588
3236.95	3531
3240.041	3495
3243.13	3460
3246.216	3444
3249.3	3446
3252.382	3407
3255.46	3381
3258.537	3397
3261.611	3354
3264.682	3397
3267.751	3395
3270.818	3402
3273.882	3359
3276.943	3353
3280.002	3315
3283.059	3277
3286.113	3259
3289.165	3214
3292.214	3169
3295.261	3084
3298.306	3035
3301.348	3023
3304.387	2950
3307.425	2917
3310.459	2864
3313.492	2829
3316.521	2780
3319.549	2766
3322.574	2715
3325.597	2690
3328.617	2671
3331.635	2647
3334.65	2647
3337.663	2642
3340.674	2606
3343.682	2602
3346.688	2604
3349.691	2601
3352.692	2554
3355.691	2554
3358.687	2532
3361.681	2494
3364.673	2482
3367.662	2425
3370.649	2395
3373.633	2354
3376.615	2323
3379.595	2289
3382.572	2245
3385.547	2247
3388.52	2191
3391.49	2138
3394.458	2114
3397.424	2086
3400.387	2058
3403.348	2047
3406.307	2019
3409.263	1975
3412.217	1978
3415.168	1942
3418.118	1932
3421.065	1895
3424.009	1878
3426.951	1832
3429.891	1785
3432.829	1755
3435.764	1704
3438.697	1685
3441.628	1632
3444.557	1594
3447.483	1520
3450.407	1466
3453.328	1418
3456.247	1367
3459.164	1331
3462.079	1278
3464.991	1225
3467.902	1187
3470.809	1129
3473.715	1087
3476.618	1052
3479.519	1009
3482.418	954
3485.315	936
3488.209	922
3491.101	874
3493.99	828
3496.878	810
3499.763	775
3502.646	741
3505.527	711
3508.405	667
3511.281	640
3514.155	589
3517.027	559
3519.897	526
3522.764	471
3525.629	432
3528.492	399
3531.352	360
3534.211	330
3537.067	288
3539.921	245
3542.773	226
3545.622	182
3548.469	150
3551.315	128
3554.157	112
3556.998	87
3559.837	50
3562.673	33
3565.507	12
3568.339	-2
3571.169	-40
3573.996	-45
3576.822	-63
3579.645	-77
3582.466	-102
3585.285	-120
3588.101	-132
3590.916	-152
3593.728	-173
3596.538	-190
3599.346	-206
3602.152	-217
3604.956	-239
3607.757	-251
3610.556	-267
3613.354	-289
3616.149	-299
3618.942	-294
3621.732	-317
3624.521	-320
3627.307	-342
3630.092	-352
3632.874	-352
3635.654	-361
3638.432	-364
3641.208	-380
3643.982	-383
3646.753	-393
3649.523	-406
3652.29	-409
3655.055	-414
3657.818	-422
3660.579	-439
3663.338	-447
3666.095	-453
3668.849	-470
3671.602	-482
3674.352	-471
3677.101	-488
3679.847	-503
3682.591	-497
3685.333	-508
3688.073	-509
3690.811	-511
3693.547	-519
3696.281	-519
3699.013	-531
3701.742	-542
3704.47	-541
3707.195	-550
3709.919	-539
3712.64	-551
3715.359	-554
3718.076	-553
3720.792	-566
3723.505	-565
3726.216	-565
3728.925	-574
3731.632	-583
3734.336	-579
3737.039	-587
3739.74	-581
3742.439	-587
3745.136	-589
3747.83	-586
3750.523	-585
3753.213	-604
3755.902	-593
3758.589	-590
3761.273	-595
3763.956	-597
3766.636	-596
3769.315	-608
3771.991	-606
3774.665	-602
3777.338	-610
3780.008	-610
3782.677	-610
3785.343	-618
3788.007	-603
3790.67	-610
3793.33	-617
3795.989	-616
3798.645	-618
3801.299	-620
3803.952	-619
3806.602	-620
3809.251	-625
3811.897	-613
3814.542	-615
3817.184	-628
3819.825	-626
3822.463	-628
3825.1	-631
3827.735	-630
3830.367	-631
3832.998	-630
3835.627	-628
3838.253	-632
3840.878	-631
3843.501	-634
3846.122	-627
3848.741	-629
3851.358	-630
3853.973	-628
3856.586	-635
3859.197	-633
3861.806	-634
3864.414	-628
3867.019	-632
3869.622	-633
3872.224	-627
3874.823	-617
3877.421	-599
3880.016	-593
3882.61	-556
3885.202	-553
3887.792	-576
3890.38	-604
3892.966	-620
3895.55	-632
3898.132	-634
3900.713	-644
3903.291	-640
3905.868	-650
3908.442	-647
3911.015	-645
3913.586	-646
3916.155	-645
3918.722	-648
3921.287	-642
3923.85	-645
3926.411	-643
3928.971	-647
3931.528	-647
3934.084	-642
3936.638	-645
3939.19	-654
3941.74	-652
3944.288	-655
3946.834	-649
3949.378	-653
3951.921	-652
3954.462	-649
3957	-646
3959.537	-641
3962.072	-638
3964.606	-642
3967.137	-652
3969.667	-645
3972.194	-644
3974.72	-644
3977.244	-643
3979.766	-641
3982.286	-637
3984.805	-637
3987.321	-639
3989.836	-641
3992.349	-637
3994.86	-632
3997.369	-646
3999.877	-634
4002.382	-632
4004.886	-637
4007.388	-633
4009.888	-630
4012.386	-629
4014.883	-633
4017.377	-640
4019.87	-633
4022.361	-637
4024.85	-635
4027.338	-635
4029.823	-640
4032.307	-636
4034.789	-637
4037.269	-643
4039.747	-642
4042.224	-632
4044.699	-637
4047.172	-639
4049.643	-635
4052.112	-641
4054.58	-635
4057.046	-647
4059.51	-639
4061.972	-641
4064.432	-642
4066.891	-635
4069.348	-644
4071.803	-644
4074.256	-633
4076.708	-638
4079.158	-639
4081.606	-640
4084.052	-638
4086.497	-642
4088.939	-634
4091.38	-633
4093.819	-632
4096.257	-670
4098.693	-669
4101.127	-672
4103.559	-673
4105.989	-412
4108.418	-383
4110.845	-369
4113.27	-348
4115.694	-298
4118.115	-254
4120.535	-635
4122.954	-638
4125.37	-636
4127.785	-632
4130.198	-647
4132.609	-638
4135.019	-677
4137.427	-673
4139.833	-672
4142.237	-670
