Data from 2018-2-7_conc=6_RamanShift_26.txt Node
Date: Tue Feb 13 14:44:13 IST 2018
User: aro
Spectrometer: QEPB0276
Trigger mode: 0
Integration Time (sec): 3.000000E1
Scans to average: 1
Electric dark correction enabled: true
Nonlinearity correction enabled: false
Boxcar width: 0
XAxis mode: Raman Shifts
Number of Pixels in Spectrum: 1044
>>>>>Begin Spectral Data<<<<<
160.701	-153.8
166.742	34.2
172.777	585.2
178.805	2233.2
184.826	6161.2
190.841	12753.2
196.849	20206.2
202.85	25459.2
208.845	27029.2
214.833	26696.2
220.815	26223.2
226.789	25845.2
232.758	25764.2
238.719	25516.2
244.674	25153.2
250.623	24596.2
256.565	24055.2
262.5	23564.2
268.429	23111.2
274.351	22708.2
280.267	22368.2
286.176	22091.2
292.079	21876.2
297.975	21605.2
303.865	21382.2
309.748	21268.2
315.625	21117.2
321.495	20954.2
327.359	20909.2
333.217	20825.2
339.068	20788.2
344.912	20788.2
350.751	20756.2
356.583	20732.2
362.408	20715.2
368.227	20749.2
374.04	20730.2
379.847	20791.2
385.647	20854.2
391.44	20892.2
397.228	21060.2
403.009	21066.2
408.784	21165.2
414.553	21167.2
420.315	21264.2
426.071	21313.2
431.821	21260.2
437.565	21258.2
443.302	21192.2
449.033	21179.2
454.758	21182.2
460.477	21079.2
466.189	21028.2
471.896	21013.2
477.596	20911.2
483.29	20914.2
488.978	20858.2
494.66	20827.2
500.335	20654.2
506.005	20332.2
511.668	20175.2
517.325	19935.2
522.977	19794.2
528.622	19610.2
534.261	19467.2
539.894	19383.2
545.521	19319.2
551.141	19254.2
556.756	19120.2
562.365	19099.2
567.968	19029.2
573.565	18955.2
579.155	18825.2
584.74	18850.2
590.319	18731.2
595.892	18673.2
601.459	18562.2
607.02	18453.2
612.575	18382.2
618.124	18227.2
623.667	18098.2
629.204	18017.2
634.735	17941.2
640.261	17922.2
645.781	17835.2
651.294	17817.2
656.802	17776.2
662.304	17752.2
667.8	17759.2
673.29	17704.2
678.775	17622.2
684.254	17598.2
689.726	17524.2
695.193	17469.2
700.655	17335.2
706.11	17302.2
711.56	17199.2
717.004	17157.2
722.442	17051.2
727.874	17000.2
733.301	16905.2
738.722	16879.2
744.137	16830.2
749.547	16862.2
754.951	16868.2
760.349	16873.2
765.741	16827.2
771.128	16865.2
776.509	16888.2
781.885	16860.2
787.254	16815.2
792.618	16704.2
797.977	16644.2
803.33	16485.2
808.677	16432.2
814.019	16321.2
819.355	16220.2
824.686	16143.2
830.011	16138.2
835.33	16115.2
840.644	16102.2
845.952	16222.2
851.255	16281.2
856.552	16205.2
861.844	16177.2
867.13	16129.2
872.41	16085.2
877.686	15996.2
882.955	15864.2
888.219	15784.2
893.478	15530.2
898.731	15316.2
903.979	15193.2
909.221	15085.2
914.458	15063.2
919.69	15033.2
924.916	15068.2
930.136	15129.2
935.351	15144.2
940.561	15168.2
945.766	15139.2
950.965	14998.2
956.158	14897.2
961.347	14754.2
966.529	14572.2
971.707	14397.2
976.879	14230.2
982.046	14107.2
987.208	14049.2
992.364	14038.2
997.515	14152.2
1002.66	14270.2
1007.801	14442.2
1012.936	14531.2
1018.066	14551.2
1023.19	14556.2
1028.309	14581.2
1033.423	14485.2
1038.532	14419.2
1043.636	14285.2
1048.734	14104.2
1053.827	13912.2
1058.915	13830.2
1063.998	13771.2
1069.075	13647.2
1074.147	13680.2
1079.214	13735.2
1084.276	13814.2
1089.333	13879.2
1094.385	13930.2
1099.431	14005.2
1104.472	13960.2
1109.509	13880.2
1114.54	13757.2
1119.565	13556.2
1124.586	13401.2
1129.602	13274.2
1134.613	13195.2
1139.618	13104.2
1144.619	13097.2
1149.614	13078.2
1154.604	13056.2
1159.589	13121.2
1164.57	13154.2
1169.545	13205.2
1174.515	13153.2
1179.48	13093.2
1184.44	12998.2
1189.395	12872.2
1194.345	12816.2
1199.29	12743.2
1204.23	12756.2
1209.165	12822.2
1214.095	12901.2
1219.021	12935.2
1223.941	13009.2
1228.856	13077.2
1233.766	13134.2
1238.672	13111.2
1243.572	13164.2
1248.467	13001.2
1253.358	12892.2
1258.244	12625.2
1263.124	12520.2
1268	12306.2
1272.871	12231.2
1277.737	12082.2
1282.599	12036.2
1287.455	12036.2
1292.306	12072.2
1297.153	12053.2
1301.995	12109.2
1306.832	12179.2
1311.664	12180.2
1316.491	12173.2
1321.314	12029.2
1326.132	11896.2
1330.945	11621.2
1335.753	11323.2
1340.556	11071.2
1345.354	10824.2
1350.148	10668.2
1354.937	10505.2
1359.722	10534.2
1364.501	10544.2
1369.276	10674.2
1374.046	10800.2
1378.811	10941.2
1383.572	11092.2
1388.327	11118.2
1393.079	11074.2
1397.825	10953.2
1402.567	10789.2
1407.304	10673.2
1412.036	10544.2
1416.764	10512.2
1421.487	10445.2
1426.205	10389.2
1430.919	10325.2
1435.628	10367.2
1440.333	10354.2
1445.032	10387.2
1449.727	10426.2
1454.418	10422.2
1459.104	10285.2
1463.785	10088.2
1468.462	9875.2
1473.134	9606.2
1477.802	9458.2
1482.465	9258.2
1487.123	9160.2
1491.777	9140.2
1496.426	9156.2
1501.071	9246.2
1505.711	9340.2
1510.347	9533.2
1514.978	9711.2
1519.604	9845.2
1524.226	9921.2
1528.844	9934.2
1533.457	9916.2
1538.065	9907.2
1542.669	9865.2
1547.269	9772.2
1551.864	9731.2
1556.454	9721.2
1561.041	9682.2
1565.622	9717.2
1570.199	9696.2
1574.772	9785.2
1579.34	9865.2
1583.904	9947.2
1588.464	9995.2
1593.019	9971.2
1597.569	9889.2
1602.115	9871.2
1606.657	9817.2
1611.195	9820.2
1615.728	9764.2
1620.256	9688.2
1624.78	9711.2
1629.3	9717.2
1633.816	9747.2
1638.327	9801.2
1642.834	9855.2
1647.336	9886.2
1651.834	9894.2
1656.328	9850.2
1660.817	9800.2
1665.302	9693.2
1669.783	9502.2
1674.259	9265.2
1678.732	8995.2
1683.199	8643.2
1687.663	8353.2
1692.122	8095.2
1696.577	7907.2
1701.028	7873.2
1705.474	7928.2
1709.917	7990.2
1714.355	8035.2
1718.788	8013.2
1723.218	7853.2
1727.643	7750.2
1732.064	7573.2
1736.481	7430.2
1740.893	7236.2
1745.301	7022.2
1749.705	6848.2
1754.105	6640.2
1758.501	6465.2
1762.893	6217.2
1767.28	6113.2
1771.663	5966.2
1776.042	5816.2
1780.417	5772.2
1784.787	5767.2
1789.154	5821.2
1793.516	5895.2
1797.874	6028.2
1802.228	6137.2
1806.578	6193.2
1810.924	6223.2
1815.266	6147.2
1819.603	6079.2
1823.937	5985.2
1828.266	5900.2
1832.591	5820.2
1836.913	5725.2
1841.23	5690.2
1845.543	5628.2
1849.852	5626.2
1854.156	5595.2
1858.457	5589.2
1862.754	5571.2
1867.047	5535.2
1871.335	5552.2
1875.62	5522.2
1879.9	5500.2
1884.177	5449.2
1888.449	5391.2
1892.718	5383.2
1896.982	5316.2
1901.243	5226.2
1905.499	5191.2
1909.752	5172.2
1914	5174.2
1918.245	5177.2
1922.485	5172.2
1926.722	5268.2
1930.954	5335.2
1935.183	5373.2
1939.408	5409.2
1943.628	5485.2
1947.845	5485.2
1952.058	5464.2
1956.267	5422.2
1960.472	5372.2
1964.673	5269.2
1968.87	5205.2
1973.063	5139.2
1977.252	5091.2
1981.438	5045.2
1985.619	4990.2
1989.797	4953.2
1993.971	4927.2
1998.14	4906.2
2002.306	4895.2
2006.469	4860.2
2010.627	4837.2
2014.781	4818.2
2018.932	4747.2
2023.078	4728.2
2027.221	4643.2
2031.36	4577.2
2035.495	4503.2
2039.627	4454.2
2043.754	4399.2
2047.878	4344.2
2051.998	4327.2
2056.114	4315.2
2060.226	4307.2
2064.334	4305.2
2068.439	4289.2
2072.54	4341.2
2076.637	4330.2
2080.73	4403.2
2084.82	4489.2
2088.906	4415.2
2092.988	4435.2
2097.066	4406.2
2101.14	4385.2
2105.211	4409.2
2109.278	4342.2
2113.342	4312.2
2117.401	4321.2
2121.457	4269.2
2125.509	4241.2
2129.558	4237.2
2133.602	4222.2
2137.643	4212.2
2141.681	4185.2
2145.714	4171.2
2149.744	4130.2
2153.77	4098.2
2157.793	4047.2
2161.812	4009.2
2165.827	3929.2
2169.838	3882.2
2173.846	3827.2
2177.851	3779.2
2181.851	3727.2
2185.848	3665.2
2189.841	3632.2
2193.831	3610.2
2197.817	3564.2
2201.799	3528.2
2205.778	3530.2
2209.753	3524.2
2213.725	3486.2
2217.693	3498.2
2221.657	3477.2
2225.618	3479.2
2229.575	3447.2
2233.529	3441.2
2237.479	3398.2
2241.425	3344.2
2245.368	3283.2
2249.307	3250.2
2253.243	3206.2
2257.175	3199.2
2261.104	3117.2
2265.029	3099.2
2268.95	3081.2
2272.868	3019.2
2276.783	2994.2
2280.694	2972.2
2284.601	2947.2
2288.505	2893.2
2292.405	2872.2
2296.302	2849.2
2300.195	2851.2
2304.085	2787.2
2307.971	2752.2
2311.854	2703.2
2315.734	2686.2
2319.609	2665.2
2323.482	2609.2
2327.351	2557.2
2331.216	2590.2
2335.078	2567.2
2338.937	2505.2
2342.792	2531.2
2346.643	2532.2
2350.492	2519.2
2354.336	2535.2
2358.178	2529.2
2362.015	2551.2
2365.85	2552.2
2369.681	2555.2
2373.508	2534.2
2377.333	2539.2
2381.153	2529.2
2384.971	2539.2
2388.785	2502.2
2392.595	2476.2
2396.402	2463.2
2400.206	2446.2
2404.007	2432.2
2407.804	2383.2
2411.597	2381.2
2415.388	2391.2
2419.174	2369.2
2422.958	2375.2
2426.738	2359.2
2430.515	2300.2
2434.289	2302.2
2438.059	2272.2
2441.825	2266.2
2445.589	2245.2
2449.349	2208.2
2453.106	2168.2
2456.859	2146.2
2460.61	2125.2
2464.356	2095.2
2468.1	2074.2
2471.84	2054.2
2475.577	2013.2
2479.311	2018.2
2483.041	2019.2
2486.768	2004.2
2490.492	1999.2
2494.213	1991.2
2497.93	1990.2
2501.644	1973.2
2505.355	1963.2
2509.062	1944.2
2512.766	1942.2
2516.467	1927.2
2520.165	1913.2
2523.859	1880.2
2527.551	1894.2
2531.239	1868.2
2534.923	1853.2
2538.605	1833.2
2542.283	1842.2
2545.958	1828.2
2549.63	1825.2
2553.299	1797.2
2556.964	1820.2
2560.626	1806.2
2564.285	1797.2
2567.941	1784.2
2571.594	1768.2
2575.243	1759.2
2578.89	1754.2
2582.533	1769.2
2586.173	1728.2
2589.809	1715.2
2593.443	1694.2
2597.073	1687.2
2600.701	1670.2
2604.325	1659.2
2607.946	1640.2
2611.564	1653.2
2615.178	1644.2
2618.79	1623.2
2622.398	1601.2
2626.004	1587.2
2629.606	1576.2
2633.205	1564.2
2636.801	1554.2
2640.394	1507.2
2643.983	1479.2
2647.57	1478.2
2651.153	1444.2
2654.734	1413.2
2658.311	1404.2
2661.885	1376.2
2665.456	1368.2
2669.025	1349.2
2672.589	1337.2
2676.151	1333.2
2679.71	1300.2
2683.266	1272.2
2686.819	1268.2
2690.368	1217.2
2693.915	1216.2
2697.458	1168.2
2700.999	1160.2
2704.536	1125.2
2708.071	1096.2
2711.602	1082.2
2715.13	1054.2
2718.656	1023.2
2722.178	991.2
2725.697	992.2
2729.214	979.2
2732.727	969.2
2736.237	958.2
2739.744	953.2
2743.249	942.2
2746.75	974.2
2750.248	964.2
2753.743	981.2
2757.236	989.2
2760.725	1008.2
2764.211	1016.2
2767.695	1013.2
2771.175	1027.2
2774.652	1011.2
2778.127	1016.2
2781.598	989.2
2785.067	997.2
2788.532	1006.2
2791.995	982.2
2795.455	994.2
2798.911	995.2
2802.365	992.2
2805.816	996.2
2809.264	984.2
2812.709	988.2
2816.151	990.2
2819.59	980.2
2823.026	989.2
2826.46	991.2
2829.89	997.2
2833.318	1006.2
2836.742	1002.2
2840.164	1014.2
2843.583	1019.2
2846.999	1035.2
2850.412	1051.2
2853.822	1051.2
2857.229	1071.2
2860.634	1097.2
2864.035	1123.2
2867.434	1139.2
2870.83	1172.2
2874.223	1188.2
2877.613	1225.2
2881	1227.2
2884.385	1236.2
2887.766	1239.2
2891.145	1219.2
2894.521	1207.2
2897.894	1222.2
2901.264	1241.2
2904.631	1228.2
2907.996	1231.2
2911.358	1249.2
2914.717	1245.2
2918.073	1266.2
2921.426	1268.2
2924.777	1295.2
2928.124	1310.2
2931.469	1339.2
2934.811	1382.2
2938.15	1382.2
2941.487	1378.2
2944.821	1406.2
2948.152	1387.2
2951.48	1406.2
2954.805	1371.2
2958.128	1367.2
2961.447	1344.2
2964.765	1338.2
2968.079	1363.2
2971.39	1365.2
2974.699	1391.2
2978.005	1388.2
2981.308	1418.2
2984.609	1452.2
2987.907	1468.2
2991.202	1483.2
2994.494	1551.2
2997.784	1562.2
3001.07	1582.2
3004.355	1624.2
3007.636	1657.2
3010.915	1665.2
3014.191	1687.2
3017.464	1708.2
3020.734	1704.2
3024.002	1716.2
3027.267	1735.2
3030.53	1750.2
3033.789	1771.2
3037.046	1778.2
3040.301	1812.2
3043.552	1861.2
3046.801	1903.2
3050.048	1939.2
3053.291	1985.2
3056.532	2054.2
3059.771	2103.2
3063.006	2155.2
3066.239	2234.2
3069.469	2293.2
3072.697	2349.2
3075.922	2423.2
3079.144	2462.2
3082.364	2528.2
3085.581	2595.2
3088.795	2632.2
3092.007	2678.2
3095.216	2773.2
3098.423	2808.2
3101.627	2865.2
3104.828	2962.2
3108.026	3028.2
3111.222	3063.2
3114.416	3143.2
3117.607	3210.2
3120.795	3298.2
3123.98	3354.2
3127.163	3446.2
3130.344	3528.2
3133.521	3614.2
3136.696	3732.2
3139.869	3768.2
3143.039	3807.2
3146.206	3864.2
3149.371	3943.2
3152.533	3990.2
3155.693	4003.2
3158.85	4008.2
3162.005	4034.2
3165.157	4069.2
3168.306	4052.2
3171.453	4092.2
3174.597	4110.2
3177.739	4117.2
3180.878	4101.2
3184.014	4111.2
3187.149	4122.2
3190.28	4124.2
3193.409	4121.2
3196.536	4132.2
3199.659	4141.2
3202.781	4102.2
3205.9	4125.2
3209.016	4113.2
3212.13	4092.2
3215.241	4075.2
3218.35	4066.2
3221.456	3966.2
3224.56	4002.2
3227.661	3912.2
3230.76	3877.2
3233.856	3855.2
3236.95	3823.2
3240.041	3766.2
3243.13	3730.2
3246.216	3731.2
3249.3	3697.2
3252.382	3701.2
3255.46	3692.2
3258.537	3683.2
3261.611	3673.2
3264.682	3665.2
3267.751	3649.2
3270.818	3649.2
3273.882	3622.2
3276.943	3624.2
3280.002	3612.2
3283.059	3553.2
3286.113	3519.2
3289.165	3483.2
3292.214	3414.2
3295.261	3370.2
3298.306	3300.2
3301.348	3281.2
3304.387	3221.2
3307.425	3165.2
3310.459	3112.2
3313.492	3070.2
3316.521	3025.2
3319.549	3007.2
3322.574	2986.2
3325.597	2941.2
3328.617	2909.2
3331.635	2901.2
3334.65	2867.2
3337.663	2878.2
3340.674	2871.2
3343.682	2862.2
3346.688	2847.2
3349.691	2831.2
3352.692	2809.2
3355.691	2798.2
3358.687	2735.2
3361.681	2726.2
3364.673	2694.2
3367.662	2678.2
3370.649	2618.2
3373.633	2591.2
3376.615	2534.2
3379.595	2484.2
3382.572	2482.2
3385.547	2440.2
3388.52	2391.2
3391.49	2347.2
3394.458	2328.2
3397.424	2296.2
3400.387	2269.2
3403.348	2255.2
3406.307	2220.2
3409.263	2182.2
3412.217	2163.2
3415.168	2162.2
3418.118	2108.2
3421.065	2073.2
3424.009	2037.2
3426.951	2013.2
3429.891	1955.2
3432.829	1922.2
3435.764	1895.2
3438.697	1836.2
3441.628	1801.2
3444.557	1730.2
3447.483	1688.2
3450.407	1628.2
3453.328	1571.2
3456.247	1529.2
3459.164	1472.2
3462.079	1440.2
3464.991	1384.2
3467.902	1308.2
3470.809	1292.2
3473.715	1239.2
3476.618	1194.2
3479.519	1138.2
3482.418	1111.2
3485.315	1053.2
3488.209	1027.2
3491.101	987.2
3493.99	958.2
3496.878	928.2
3499.763	889.2
3502.646	849.2
3505.527	798.2
3508.405	767.2
3511.281	727.2
3514.155	677.2
3517.027	641.2
3519.897	604.2
3522.764	563.2
3525.629	515.2
3528.492	471.2
3531.352	437.2
3534.211	396.2
3537.067	364.2
3539.921	327.2
3542.773	295.2
3545.622	245.2
3548.469	211.2
3551.315	190.2
3554.157	165.2
3556.998	131.2
3559.837	114.2
3562.673	86.2
3565.507	65.2
3568.339	56.2
3571.169	23.2
3573.996	1.2
3576.822	-18.8
3579.645	-41.8
3582.466	-65.8
3585.285	-77.8
3588.101	-98.8
3590.916	-115.8
3593.728	-154.8
3596.538	-147.8
3599.346	-176.8
3602.152	-184.8
3604.956	-206.8
3607.757	-219.8
3610.556	-248.8
3613.354	-248.8
3616.149	-264.8
3618.942	-276.8
3621.732	-293.8
3624.521	-298.8
3627.307	-301.8
3630.092	-331.8
3632.874	-328.8
3635.654	-347.8
3638.432	-348.8
3641.208	-358.8
3643.982	-372.8
3646.753	-380.8
3649.523	-395.8
3652.29	-401.8
3655.055	-405.8
3657.818	-410.8
3660.579	-428.8
3663.338	-438.8
3666.095	-452.8
3668.849	-463.8
3671.602	-462.8
3674.352	-467.8
3677.101	-480.8
3679.847	-491.8
3682.591	-484.8
3685.333	-495.8
3688.073	-498.8
3690.811	-505.8
3693.547	-513.8
3696.281	-520.8
3699.013	-524.8
3701.742	-534.8
3704.47	-533.8
3707.195	-548.8
3709.919	-545.8
3712.64	-545.8
3715.359	-552.8
3718.076	-554.8
3720.792	-561.8
3723.505	-564.8
3726.216	-567.8
3728.925	-565.8
3731.632	-581.8
3734.336	-573.8
3737.039	-587.8
3739.74	-579.8
3742.439	-581.8
3745.136	-585.8
3747.83	-584.8
3750.523	-585.8
3753.213	-596.8
3755.902	-594.8
3758.589	-592.8
3761.273	-593.8
3763.956	-604.8
3766.636	-599.8
3769.315	-602.8
3771.991	-608.8
3774.665	-605.8
3777.338	-609.8
3780.008	-606.8
3782.677	-612.8
3785.343	-616.8
3788.007	-606.8
3790.67	-616.8
3793.33	-618.8
3795.989	-622.8
3798.645	-617.8
3801.299	-622.8
3803.952	-621.8
3806.602	-623.8
3809.251	-630.8
3811.897	-620.8
3814.542	-617.8
3817.184	-630.8
3819.825	-623.8
3822.463	-622.8
3825.1	-631.8
3827.735	-630.8
3830.367	-627.8
3832.998	-637.8
3835.627	-640.8
3838.253	-634.8
3840.878	-634.8
3843.501	-637.8
3846.122	-635.8
3848.741	-635.8
3851.358	-642.8
3853.973	-634.8
3856.586	-638.8
3859.197	-638.8
3861.806	-633.8
3864.414	-627.8
3867.019	-635.8
3869.622	-640.8
3872.224	-632.8
3874.823	-614.8
3877.421	-597.8
3880.016	-576.8
3882.61	-544.8
3885.202	-543.8
3887.792	-570.8
3890.38	-598.8
3892.966	-617.8
3895.55	-636.8
3898.132	-640.8
3900.713	-645.8
3903.291	-651.8
3905.868	-643.8
3908.442	-650.8
3911.015	-652.8
3913.586	-654.8
3916.155	-649.8
3918.722	-649.8
3921.287	-650.8
3923.85	-650.8
3926.411	-651.8
3928.971	-652.8
3931.528	-655.8
3934.084	-643.8
3936.638	-650.8
3939.19	-655.8
3941.74	-659.8
3944.288	-656.8
3946.834	-657.8
3949.378	-656.8
3951.921	-659.8
3954.462	-657.8
3957	-654.8
3959.537	-644.8
3962.072	-652.8
3964.606	-655.8
3967.137	-652.8
3969.667	-653.8
3972.194	-649.8
3974.72	-649.8
3977.244	-644.8
3979.766	-644.8
3982.286	-647.8
3984.805	-634.8
3987.321	-637.8
3989.836	-640.8
3992.349	-639.8
3994.86	-636.8
3997.369	-645.8
3999.877	-635.8
4002.382	-636.8
4004.886	-640.8
4007.388	-644.8
4009.888	-635.8
4012.386	-637.8
4014.883	-639.8
4017.377	-640.8
4019.87	-639.8
4022.361	-643.8
4024.85	-644.8
4027.338	-644.8
4029.823	-643.8
4032.307	-645.8
4034.789	-647.8
4037.269	-649.8
4039.747	-638.8
4042.224	-640.8
4044.699	-647.8
4047.172	-645.8
4049.643	-642.8
4052.112	-646.8
4054.58	-637.8
4057.046	-642.8
4059.51	-643.8
4061.972	-647.8
4064.432	-642.8
4066.891	-635.8
4069.348	-647.8
4071.803	-652.8
4074.256	-645.8
4076.708	-644.8
4079.158	-643.8
4081.606	-638.8
4084.052	-641.8
4086.497	-650.8
4088.939	-640.8
4091.38	-634.8
4093.819	-637.8
4096.257	-673.8
4098.693	-680.8
4101.127	-676.8
4103.559	-679.8
4105.989	-406.8
4108.418	-383.8
4110.845	-360.8
4113.27	-338.8
4115.694	-286.8
4118.115	-239.8
4120.535	-638.8
4122.954	-647.8
4125.37	-641.8
4127.785	-639.8
4130.198	-644.8
4132.609	-643.8
4135.019	-678.8
4137.427	-674.8
4139.833	-673.8
4142.237	-671.8
