Data from 2018-2-7_conc=2_RamanShift_24.txt Node
Date: Tue Feb 13 12:01:14 IST 2018
User: aro
Spectrometer: QEPB0276
Trigger mode: 0
Integration Time (sec): 3.000000E1
Scans to average: 1
Electric dark correction enabled: true
Nonlinearity correction enabled: false
Boxcar width: 0
XAxis mode: Raman Shifts
Number of Pixels in Spectrum: 1044
>>>>>Begin Spectral Data<<<<<
160.701	-150.8
166.742	24.2
172.777	540.2
178.805	2074.2
184.826	5607.2
190.841	11621.2
196.849	18364.2
202.85	23057.2
208.845	24505.2
214.833	24173.2
220.815	23765.2
226.789	23544.2
232.758	23388.2
238.719	23191.2
244.674	22868.2
250.623	22400.2
256.565	21945.2
262.5	21480.2
268.429	21083.2
274.351	20743.2
280.267	20422.2
286.176	20225.2
292.079	19962.2
297.975	19812.2
303.865	19567.2
309.748	19395.2
315.625	19267.2
321.495	19231.2
327.359	19143.2
333.217	19052.2
339.068	19037.2
344.912	19003.2
350.751	18946.2
356.583	18972.2
362.408	18963.2
368.227	18958.2
374.04	18978.2
379.847	18964.2
385.647	19118.2
391.44	19160.2
397.228	19231.2
403.009	19297.2
408.784	19370.2
414.553	19486.2
420.315	19516.2
426.071	19487.2
431.821	19495.2
437.565	19499.2
443.302	19424.2
449.033	19399.2
454.758	19333.2
460.477	19319.2
466.189	19253.2
471.896	19257.2
477.596	19227.2
483.29	19122.2
488.978	19143.2
494.66	19080.2
500.335	18968.2
506.005	18718.2
511.668	18518.2
517.325	18301.2
522.977	18179.2
528.622	18043.2
534.261	17931.2
539.894	17806.2
545.521	17797.2
551.141	17738.2
556.756	17669.2
562.365	17624.2
567.968	17486.2
573.565	17427.2
579.155	17377.2
584.74	17322.2
590.319	17233.2
595.892	17137.2
601.459	17125.2
607.02	17008.2
612.575	16939.2
618.124	16825.2
623.667	16754.2
629.204	16648.2
634.735	16543.2
640.261	16560.2
645.781	16488.2
651.294	16447.2
656.802	16435.2
662.304	16448.2
667.8	16364.2
673.29	16339.2
678.775	16341.2
684.254	16215.2
689.726	16243.2
695.193	16164.2
700.655	16072.2
706.11	15968.2
711.56	15943.2
717.004	15841.2
722.442	15833.2
727.874	15718.2
733.301	15713.2
738.722	15638.2
744.137	15609.2
749.547	15608.2
754.951	15628.2
760.349	15565.2
765.741	15598.2
771.128	15595.2
776.509	15602.2
781.885	15577.2
787.254	15606.2
792.618	15535.2
797.977	15402.2
803.33	15299.2
808.677	15244.2
814.019	15191.2
819.355	15104.2
824.686	15021.2
830.011	14976.2
835.33	15016.2
840.644	14999.2
845.952	15051.2
851.255	15077.2
856.552	15102.2
861.844	15047.2
867.13	15069.2
872.41	14935.2
877.686	14880.2
882.955	14770.2
888.219	14643.2
893.478	14451.2
898.731	14292.2
903.979	14221.2
909.221	14061.2
914.458	14019.2
919.69	14014.2
924.916	14102.2
930.136	14079.2
935.351	14105.2
940.561	14139.2
945.766	14054.2
950.965	14027.2
956.158	13958.2
961.347	13797.2
966.529	13631.2
971.707	13469.2
976.879	13268.2
982.046	13214.2
987.208	13158.2
992.364	13185.2
997.515	13193.2
1002.66	13358.2
1007.801	13541.2
1012.936	13598.2
1018.066	13637.2
1023.19	13633.2
1028.309	13604.2
1033.423	13540.2
1038.532	13521.2
1043.636	13416.2
1048.734	13212.2
1053.827	13041.2
1058.915	12915.2
1063.998	12835.2
1069.075	12805.2
1074.147	12829.2
1079.214	12895.2
1084.276	12889.2
1089.333	13047.2
1094.385	13106.2
1099.431	13177.2
1104.472	13110.2
1109.509	13048.2
1114.54	12899.2
1119.565	12739.2
1124.586	12589.2
1129.602	12484.2
1134.613	12364.2
1139.618	12297.2
1144.619	12287.2
1149.614	12254.2
1154.604	12288.2
1159.589	12327.2
1164.57	12365.2
1169.545	12410.2
1174.515	12407.2
1179.48	12324.2
1184.44	12253.2
1189.395	12140.2
1194.345	12077.2
1199.29	12020.2
1204.23	12018.2
1209.165	12106.2
1214.095	12140.2
1219.021	12221.2
1223.941	12269.2
1228.856	12316.2
1233.766	12388.2
1238.672	12372.2
1243.572	12380.2
1248.467	12253.2
1253.358	12213.2
1258.244	11974.2
1263.124	11824.2
1268	11596.2
1272.871	11493.2
1277.737	11404.2
1282.599	11358.2
1287.455	11367.2
1292.306	11392.2
1297.153	11382.2
1301.995	11513.2
1306.832	11504.2
1311.664	11541.2
1316.491	11472.2
1321.314	11374.2
1326.132	11271.2
1330.945	10993.2
1335.753	10675.2
1340.556	10449.2
1345.354	10233.2
1350.148	10064.2
1354.937	10053.2
1359.722	10024.2
1364.501	10004.2
1369.276	10172.2
1374.046	10306.2
1378.811	10433.2
1383.572	10571.2
1388.327	10590.2
1393.079	10507.2
1397.825	10435.2
1402.567	10286.2
1407.304	10122.2
1412.036	10032.2
1416.764	9949.2
1421.487	9927.2
1426.205	9871.2
1430.919	9824.2
1435.628	9808.2
1440.333	9873.2
1445.032	9866.2
1449.727	9915.2
1454.418	9831.2
1459.104	9809.2
1463.785	9577.2
1468.462	9387.2
1473.134	9203.2
1477.802	8989.2
1482.465	8848.2
1487.123	8721.2
1491.777	8717.2
1496.426	8747.2
1501.071	8834.2
1505.711	8984.2
1510.347	9083.2
1514.978	9279.2
1519.604	9404.2
1524.226	9516.2
1528.844	9518.2
1533.457	9557.2
1538.065	9488.2
1542.669	9400.2
1547.269	9312.2
1551.864	9274.2
1556.454	9255.2
1561.041	9259.2
1565.622	9290.2
1570.199	9292.2
1574.772	9322.2
1579.34	9397.2
1583.904	9444.2
1588.464	9489.2
1593.019	9502.2
1597.569	9440.2
1602.115	9441.2
1606.657	9313.2
1611.195	9307.2
1615.728	9217.2
1620.256	9191.2
1624.78	9204.2
1629.3	9192.2
1633.816	9241.2
1638.327	9260.2
1642.834	9352.2
1647.336	9327.2
1651.834	9351.2
1656.328	9363.2
1660.817	9311.2
1665.302	9214.2
1669.783	9015.2
1674.259	8830.2
1678.732	8552.2
1683.199	8237.2
1687.663	7986.2
1692.122	7755.2
1696.577	7619.2
1701.028	7624.2
1705.474	7681.2
1709.917	7737.2
1714.355	7768.2
1718.788	7699.2
1723.218	7619.2
1727.643	7446.2
1732.064	7301.2
1736.481	7145.2
1740.893	7045.2
1745.301	6818.2
1749.705	6630.2
1754.105	6456.2
1758.501	6280.2
1762.893	6082.2
1767.28	5907.2
1771.663	5825.2
1776.042	5724.2
1780.417	5645.2
1784.787	5659.2
1789.154	5714.2
1793.516	5794.2
1797.874	5916.2
1802.228	6009.2
1806.578	6065.2
1810.924	6085.2
1815.266	6007.2
1819.603	5949.2
1823.937	5887.2
1828.266	5802.2
1832.591	5675.2
1836.913	5642.2
1841.23	5580.2
1845.543	5509.2
1849.852	5481.2
1854.156	5483.2
1858.457	5505.2
1862.754	5433.2
1867.047	5478.2
1871.335	5440.2
1875.62	5449.2
1879.9	5418.2
1884.177	5354.2
1888.449	5320.2
1892.718	5252.2
1896.982	5188.2
1901.243	5166.2
1905.499	5092.2
1909.752	5108.2
1914	5076.2
1918.245	5097.2
1922.485	5123.2
1926.722	5222.2
1930.954	5244.2
1935.183	5307.2
1939.408	5339.2
1943.628	5398.2
1947.845	5421.2
1952.058	5388.2
1956.267	5364.2
1960.472	5299.2
1964.673	5224.2
1968.87	5132.2
1973.063	5026.2
1977.252	5012.2
1981.438	4968.2
1985.619	4911.2
1989.797	4840.2
1993.971	4840.2
1998.14	4814.2
2002.306	4806.2
2006.469	4786.2
2010.627	4762.2
2014.781	4732.2
2018.932	4700.2
2023.078	4655.2
2027.221	4609.2
2031.36	4510.2
2035.495	4471.2
2039.627	4377.2
2043.754	4349.2
2047.878	4324.2
2051.998	4271.2
2056.114	4244.2
2060.226	4225.2
2064.334	4242.2
2068.439	4236.2
2072.54	4302.2
2076.637	4310.2
2080.73	4327.2
2084.82	4343.2
2088.906	4367.2
2092.988	4353.2
2097.066	4371.2
2101.14	4348.2
2105.211	4303.2
2109.278	4319.2
2113.342	4288.2
2117.401	4239.2
2121.457	4254.2
2125.509	4214.2
2129.558	4175.2
2133.602	4134.2
2137.643	4133.2
2141.681	4150.2
2145.714	4131.2
2149.744	4074.2
2153.77	4087.2
2157.793	4010.2
2161.812	4003.2
2165.827	3906.2
2169.838	3864.2
2173.846	3792.2
2177.851	3704.2
2181.851	3673.2
2185.848	3614.2
2189.841	3609.2
2193.831	3532.2
2197.817	3545.2
2201.799	3523.2
2205.778	3523.2
2209.753	3482.2
2213.725	3449.2
2217.693	3479.2
2221.657	3441.2
2225.618	3432.2
2229.575	3427.2
2233.529	3400.2
2237.479	3398.2
2241.425	3328.2
2245.368	3300.2
2249.307	3235.2
2253.243	3186.2
2257.175	3150.2
2261.104	3097.2
2265.029	3072.2
2268.95	3051.2
2272.868	3016.2
2276.783	2988.2
2280.694	2958.2
2284.601	2924.2
2288.505	2922.2
2292.405	2897.2
2296.302	2874.2
2300.195	2848.2
2304.085	2797.2
2307.971	2775.2
2311.854	2707.2
2315.734	2688.2
2319.609	2639.2
2323.482	2603.2
2327.351	2581.2
2331.216	2574.2
2335.078	2552.2
2338.937	2559.2
2342.792	2530.2
2346.643	2530.2
2350.492	2523.2
2354.336	2552.2
2358.178	2540.2
2362.015	2563.2
2365.85	2559.2
2369.681	2557.2
2373.508	2562.2
2377.333	2584.2
2381.153	2565.2
2384.971	2549.2
2388.785	2516.2
2392.595	2487.2
2396.402	2492.2
2400.206	2452.2
2404.007	2444.2
2407.804	2441.2
2411.597	2393.2
2415.388	2415.2
2419.174	2405.2
2422.958	2357.2
2426.738	2338.2
2430.515	2342.2
2434.289	2312.2
2438.059	2310.2
2441.825	2275.2
2445.589	2272.2
2449.349	2240.2
2453.106	2217.2
2456.859	2178.2
2460.61	2136.2
2464.356	2103.2
2468.1	2103.2
2471.84	2090.2
2475.577	2061.2
2479.311	2049.2
2483.041	2046.2
2486.768	2037.2
2490.492	2044.2
2494.213	2025.2
2497.93	2002.2
2501.644	2001.2
2505.355	1990.2
2509.062	1989.2
2512.766	1957.2
2516.467	1950.2
2520.165	1956.2
2523.859	1915.2
2527.551	1929.2
2531.239	1920.2
2534.923	1891.2
2538.605	1887.2
2542.283	1873.2
2545.958	1900.2
2549.63	1861.2
2553.299	1852.2
2556.964	1859.2
2560.626	1859.2
2564.285	1879.2
2567.941	1833.2
2571.594	1828.2
2575.243	1817.2
2578.89	1816.2
2582.533	1802.2
2586.173	1777.2
2589.809	1763.2
2593.443	1752.2
2597.073	1722.2
2600.701	1726.2
2604.325	1698.2
2607.946	1698.2
2611.564	1703.2
2615.178	1671.2
2618.79	1672.2
2622.398	1636.2
2626.004	1642.2
2629.606	1625.2
2633.205	1596.2
2636.801	1576.2
2640.394	1572.2
2643.983	1518.2
2647.57	1519.2
2651.153	1501.2
2654.734	1478.2
2658.311	1452.2
2661.885	1424.2
2665.456	1419.2
2669.025	1379.2
2672.589	1385.2
2676.151	1358.2
2679.71	1349.2
2683.266	1308.2
2686.819	1297.2
2690.368	1273.2
2693.915	1244.2
2697.458	1231.2
2700.999	1211.2
2704.536	1178.2
2708.071	1152.2
2711.602	1123.2
2715.13	1099.2
2718.656	1070.2
2722.178	1061.2
2725.697	1030.2
2729.214	1014.2
2732.727	1007.2
2736.237	994.2
2739.744	1001.2
2743.249	1006.2
2746.75	1023.2
2750.248	1034.2
2753.743	1027.2
2757.236	1034.2
2760.725	1044.2
2764.211	1065.2
2767.695	1063.2
2771.175	1059.2
2774.652	1059.2
2778.127	1058.2
2781.598	1044.2
2785.067	1043.2
2788.532	1037.2
2791.995	1022.2
2795.455	1035.2
2798.911	1045.2
2802.365	1039.2
2805.816	1049.2
2809.264	1032.2
2812.709	1030.2
2816.151	1032.2
2819.59	1043.2
2823.026	1029.2
2826.46	1038.2
2829.89	1040.2
2833.318	1039.2
2836.742	1043.2
2840.164	1042.2
2843.583	1029.2
2846.999	1077.2
2850.412	1079.2
2853.822	1081.2
2857.229	1099.2
2860.634	1107.2
2864.035	1131.2
2867.434	1142.2
2870.83	1146.2
2874.223	1193.2
2877.613	1201.2
2881	1240.2
2884.385	1231.2
2887.766	1203.2
2891.145	1224.2
2894.521	1230.2
2897.894	1214.2
2901.264	1202.2
2904.631	1204.2
2907.996	1204.2
2911.358	1230.2
2914.717	1211.2
2918.073	1226.2
2921.426	1259.2
2924.777	1256.2
2928.124	1274.2
2931.469	1304.2
2934.811	1324.2
2938.15	1336.2
2941.487	1340.2
2944.821	1341.2
2948.152	1348.2
2951.48	1337.2
2954.805	1317.2
2958.128	1299.2
2961.447	1311.2
2964.765	1294.2
2968.079	1292.2
2971.39	1290.2
2974.699	1314.2
2978.005	1336.2
2981.308	1358.2
2984.609	1382.2
2987.907	1403.2
2991.202	1429.2
2994.494	1457.2
2997.784	1493.2
3001.07	1519.2
3004.355	1508.2
3007.636	1566.2
3010.915	1561.2
3014.191	1585.2
3017.464	1604.2
3020.734	1606.2
3024.002	1627.2
3027.267	1608.2
3030.53	1657.2
3033.789	1659.2
3037.046	1666.2
3040.301	1668.2
3043.552	1736.2
3046.801	1742.2
3050.048	1782.2
3053.291	1822.2
3056.532	1892.2
3059.771	1945.2
3063.006	1995.2
3066.239	2046.2
3069.469	2112.2
3072.697	2164.2
3075.922	2217.2
3079.144	2278.2
3082.364	2308.2
3085.581	2359.2
3088.795	2402.2
3092.007	2473.2
3095.216	2526.2
3098.423	2571.2
3101.627	2636.2
3104.828	2696.2
3108.026	2745.2
3111.222	2779.2
3114.416	2854.2
3117.607	2922.2
3120.795	2972.2
3123.98	3053.2
3127.163	3137.2
3130.344	3185.2
3133.521	3261.2
3136.696	3327.2
3139.869	3401.2
3143.039	3462.2
3146.206	3538.2
3149.371	3527.2
3152.533	3573.2
3155.693	3608.2
3158.85	3615.2
3162.005	3625.2
3165.157	3634.2
3168.306	3645.2
3171.453	3675.2
3174.597	3672.2
3177.739	3661.2
3180.878	3685.2
3184.014	3682.2
3187.149	3666.2
3190.28	3699.2
3193.409	3695.2
3196.536	3695.2
3199.659	3698.2
3202.781	3713.2
3205.9	3705.2
3209.016	3721.2
3212.13	3677.2
3215.241	3677.2
3218.35	3664.2
3221.456	3579.2
3224.56	3570.2
3227.661	3515.2
3230.76	3487.2
3233.856	3429.2
3236.95	3421.2
3240.041	3357.2
3243.13	3364.2
3246.216	3322.2
3249.3	3298.2
3252.382	3303.2
3255.46	3309.2
3258.537	3293.2
3261.611	3278.2
3264.682	3252.2
3267.751	3276.2
3270.818	3252.2
3273.882	3254.2
3276.943	3248.2
3280.002	3220.2
3283.059	3141.2
3286.113	3139.2
3289.165	3101.2
3292.214	3049.2
3295.261	3019.2
3298.306	2949.2
3301.348	2879.2
3304.387	2853.2
3307.425	2847.2
3310.459	2780.2
3313.492	2755.2
3316.521	2673.2
3319.549	2689.2
3322.574	2661.2
3325.597	2640.2
3328.617	2607.2
3331.635	2572.2
3334.65	2592.2
3337.663	2559.2
3340.674	2554.2
3343.682	2553.2
3346.688	2509.2
3349.691	2522.2
3352.692	2491.2
3355.691	2459.2
3358.687	2472.2
3361.681	2446.2
3364.673	2390.2
3367.662	2363.2
3370.649	2332.2
3373.633	2308.2
3376.615	2275.2
3379.595	2258.2
3382.572	2201.2
3385.547	2164.2
3388.52	2133.2
3391.49	2085.2
3394.458	2065.2
3397.424	2047.2
3400.387	2019.2
3403.348	1980.2
3406.307	1971.2
3409.263	1943.2
3412.217	1924.2
3415.168	1900.2
3418.118	1870.2
3421.065	1851.2
3424.009	1824.2
3426.951	1777.2
3429.891	1757.2
3432.829	1727.2
3435.764	1687.2
3438.697	1623.2
3441.628	1610.2
3444.557	1536.2
3447.483	1501.2
3450.407	1458.2
3453.328	1395.2
3456.247	1341.2
3459.164	1296.2
3462.079	1248.2
3464.991	1210.2
3467.902	1167.2
3470.809	1126.2
3473.715	1066.2
3476.618	1047.2
3479.519	998.2
3482.418	965.2
3485.315	930.2
3488.209	904.2
3491.101	888.2
3493.99	838.2
3496.878	795.2
3499.763	780.2
3502.646	752.2
3505.527	711.2
3508.405	678.2
3511.281	638.2
3514.155	598.2
3517.027	555.2
3519.897	520.2
3522.764	486.2
3525.629	452.2
3528.492	413.2
3531.352	381.2
3534.211	340.2
3537.067	295.2
3539.921	266.2
3542.773	244.2
3545.622	206.2
3548.469	182.2
3551.315	156.2
3554.157	130.2
3556.998	122.2
3559.837	92.2
3562.673	58.2
3565.507	53.2
3568.339	29.2
3571.169	18.2
3573.996	-10.8
3576.822	-34.8
3579.645	-39.8
3582.466	-66.8
3585.285	-84.8
3588.101	-91.8
3590.916	-119.8
3593.728	-145.8
3596.538	-153.8
3599.346	-168.8
3602.152	-180.8
3604.956	-201.8
3607.757	-209.8
3610.556	-218.8
3613.354	-244.8
3616.149	-240.8
3618.942	-259.8
3621.732	-270.8
3624.521	-284.8
3627.307	-296.8
3630.092	-303.8
3632.874	-311.8
3635.654	-324.8
3638.432	-324.8
3641.208	-331.8
3643.982	-342.8
3646.753	-350.8
3649.523	-358.8
3652.29	-375.8
3655.055	-370.8
3657.818	-391.8
3660.579	-392.8
3663.338	-392.8
3666.095	-408.8
3668.849	-420.8
3671.602	-428.8
3674.352	-431.8
3677.101	-442.8
3679.847	-458.8
3682.591	-459.8
3685.333	-462.8
3688.073	-469.8
3690.811	-471.8
3693.547	-470.8
3696.281	-483.8
3699.013	-486.8
3701.742	-489.8
3704.47	-488.8
3707.195	-496.8
3709.919	-496.8
3712.64	-496.8
3715.359	-507.8
3718.076	-505.8
3720.792	-508.8
3723.505	-511.8
3726.216	-520.8
3728.925	-517.8
3731.632	-529.8
3734.336	-533.8
3737.039	-541.8
3739.74	-536.8
3742.439	-531.8
3745.136	-539.8
3747.83	-539.8
3750.523	-540.8
3753.213	-538.8
3755.902	-548.8
3758.589	-543.8
3761.273	-550.8
3763.956	-547.8
3766.636	-549.8
3769.315	-549.8
3771.991	-555.8
3774.665	-554.8
3777.338	-554.8
3780.008	-552.8
3782.677	-557.8
3785.343	-564.8
3788.007	-561.8
3790.67	-566.8
3793.33	-566.8
3795.989	-567.8
3798.645	-576.8
3801.299	-576.8
3803.952	-572.8
3806.602	-574.8
3809.251	-580.8
3811.897	-568.8
3814.542	-564.8
3817.184	-571.8
3819.825	-573.8
3822.463	-569.8
3825.1	-572.8
3827.735	-581.8
3830.367	-579.8
3832.998	-577.8
3835.627	-586.8
3838.253	-584.8
3840.878	-583.8
3843.501	-587.8
3846.122	-583.8
3848.741	-582.8
3851.358	-586.8
3853.973	-579.8
3856.586	-581.8
3859.197	-585.8
3861.806	-582.8
3864.414	-577.8
3867.019	-579.8
3869.622	-582.8
3872.224	-576.8
3874.823	-569.8
3877.421	-557.8
3880.016	-549.8
3882.61	-520.8
3885.202	-522.8
3887.792	-547.8
3890.38	-556.8
3892.966	-575.8
3895.55	-588.8
3898.132	-591.8
3900.713	-595.8
3903.291	-594.8
3905.868	-599.8
3908.442	-595.8
3911.015	-592.8
3913.586	-597.8
3916.155	-593.8
3918.722	-590.8
3921.287	-594.8
3923.85	-598.8
3926.411	-604.8
3928.971	-600.8
3931.528	-599.8
3934.084	-591.8
3936.638	-600.8
3939.19	-603.8
3941.74	-603.8
3944.288	-607.8
3946.834	-602.8
3949.378	-598.8
3951.921	-600.8
3954.462	-600.8
3957	-593.8
3959.537	-595.8
3962.072	-592.8
3964.606	-594.8
3967.137	-601.8
3969.667	-599.8
3972.194	-592.8
3974.72	-598.8
3977.244	-593.8
3979.766	-585.8
3982.286	-587.8
3984.805	-579.8
3987.321	-586.8
3989.836	-591.8
3992.349	-584.8
3994.86	-581.8
3997.369	-591.8
3999.877	-586.8
4002.382	-583.8
4004.886	-587.8
4007.388	-587.8
4009.888	-590.8
4012.386	-587.8
4014.883	-585.8
4017.377	-588.8
4019.87	-585.8
4022.361	-590.8
4024.85	-589.8
4027.338	-595.8
4029.823	-583.8
4032.307	-588.8
4034.789	-591.8
4037.269	-595.8
4039.747	-592.8
4042.224	-588.8
4044.699	-590.8
4047.172	-594.8
4049.643	-589.8
4052.112	-586.8
4054.58	-582.8
4057.046	-593.8
4059.51	-590.8
4061.972	-596.8
4064.432	-591.8
4066.891	-590.8
4069.348	-590.8
4071.803	-591.8
4074.256	-593.8
4076.708	-591.8
4079.158	-589.8
4081.606	-583.8
4084.052	-584.8
4086.497	-592.8
4088.939	-586.8
4091.38	-584.8
4093.819	-583.8
4096.257	-624.8
4098.693	-620.8
4101.127	-621.8
4103.559	-624.8
4105.989	-374.8
4108.418	-349.8
4110.845	-333.8
4113.27	-313.8
4115.694	-274.8
4118.115	-228.8
4120.535	-592.8
4122.954	-598.8
4125.37	-586.8
4127.785	-586.8
4130.198	-597.8
4132.609	-588.8
4135.019	-626.8
4137.427	-624.8
4139.833	-617.8
4142.237	-618.8
