Data from 2018-2-7_conc=3_RamanShift_27.txt Node
Date: Tue Feb 13 12:41:14 IST 2018
User: aro
Spectrometer: QEPB0276
Trigger mode: 0
Integration Time (sec): 3.000000E1
Scans to average: 1
Electric dark correction enabled: true
Nonlinearity correction enabled: false
Boxcar width: 0
XAxis mode: Raman Shifts
Number of Pixels in Spectrum: 1044
>>>>>Begin Spectral Data<<<<<
160.701	-159.9
166.742	34.1
172.777	589.1
178.805	2230.1
184.826	6090.1
190.841	12619.1
196.849	19984.1
202.85	25081.1
208.845	26687.1
214.833	26346.1
220.815	25915.1
226.789	25690.1
232.758	25556.1
238.719	25341.1
244.674	24996.1
250.623	24568.1
256.565	24026.1
262.5	23411.1
268.429	23104.1
274.351	22668.1
280.267	22321.1
286.176	22077.1
292.079	21926.1
297.975	21646.1
303.865	21515.1
309.748	21334.1
315.625	21173.1
321.495	21066.1
327.359	20979.1
333.217	20924.1
339.068	20886.1
344.912	20839.1
350.751	20864.1
356.583	20787.1
362.408	20805.1
368.227	20762.1
374.04	20847.1
379.847	20853.1
385.647	20936.1
391.44	21031.1
397.228	21150.1
403.009	21252.1
408.784	21334.1
414.553	21436.1
420.315	21413.1
426.071	21424.1
431.821	21350.1
437.565	21396.1
443.302	21358.1
449.033	21407.1
454.758	21301.1
460.477	21254.1
466.189	21175.1
471.896	21155.1
477.596	21120.1
483.29	21036.1
488.978	20994.1
494.66	20959.1
500.335	20779.1
506.005	20581.1
511.668	20285.1
517.325	20082.1
522.977	19918.1
528.622	19824.1
534.261	19707.1
539.894	19556.1
545.521	19530.1
551.141	19459.1
556.756	19368.1
562.365	19293.1
567.968	19184.1
573.565	19115.1
579.155	19089.1
584.74	18965.1
590.319	18895.1
595.892	18887.1
601.459	18822.1
607.02	18730.1
612.575	18538.1
618.124	18490.1
623.667	18353.1
629.204	18306.1
634.735	18190.1
640.261	18110.1
645.781	18029.1
651.294	18048.1
656.802	18044.1
662.304	17982.1
667.8	17957.1
673.29	17913.1
678.775	17877.1
684.254	17867.1
689.726	17804.1
695.193	17785.1
700.655	17699.1
706.11	17522.1
711.56	17450.1
717.004	17409.1
722.442	17308.1
727.874	17277.1
733.301	17184.1
738.722	17121.1
744.137	17110.1
749.547	17135.1
754.951	17122.1
760.349	17091.1
765.741	17099.1
771.128	17132.1
776.509	17168.1
781.885	17095.1
787.254	17070.1
792.618	17010.1
797.977	16912.1
803.33	16775.1
808.677	16745.1
814.019	16648.1
819.355	16541.1
824.686	16482.1
830.011	16379.1
835.33	16472.1
840.644	16439.1
845.952	16469.1
851.255	16572.1
856.552	16559.1
861.844	16513.1
867.13	16478.1
872.41	16377.1
877.686	16273.1
882.955	16199.1
888.219	16096.1
893.478	15854.1
898.731	15643.1
903.979	15538.1
909.221	15377.1
914.458	15336.1
919.69	15349.1
924.916	15373.1
930.136	15447.1
935.351	15478.1
940.561	15472.1
945.766	15446.1
950.965	15344.1
956.158	15232.1
961.347	15087.1
966.529	14921.1
971.707	14728.1
976.879	14572.1
982.046	14389.1
987.208	14331.1
992.364	14389.1
997.515	14451.1
1002.66	14594.1
1007.801	14797.1
1012.936	14862.1
1018.066	14898.1
1023.19	14865.1
1028.309	14912.1
1033.423	14834.1
1038.532	14783.1
1043.636	14601.1
1048.734	14474.1
1053.827	14289.1
1058.915	14072.1
1063.998	14018.1
1069.075	13978.1
1074.147	13990.1
1079.214	14062.1
1084.276	14134.1
1089.333	14226.1
1094.385	14327.1
1099.431	14311.1
1104.472	14332.1
1109.509	14238.1
1114.54	14072.1
1119.565	13890.1
1124.586	13738.1
1129.602	13576.1
1134.613	13504.1
1139.618	13445.1
1144.619	13387.1
1149.614	13373.1
1154.604	13430.1
1159.589	13484.1
1164.57	13500.1
1169.545	13493.1
1174.515	13515.1
1179.48	13404.1
1184.44	13318.1
1189.395	13228.1
1194.345	13180.1
1199.29	13117.1
1204.23	13083.1
1209.165	13109.1
1214.095	13223.1
1219.021	13294.1
1223.941	13337.1
1228.856	13430.1
1233.766	13429.1
1238.672	13502.1
1243.572	13452.1
1248.467	13379.1
1253.358	13174.1
1258.244	13001.1
1263.124	12878.1
1268	12649.1
1272.871	12483.1
1277.737	12344.1
1282.599	12337.1
1287.455	12355.1
1292.306	12334.1
1297.153	12385.1
1301.995	12464.1
1306.832	12486.1
1311.664	12489.1
1316.491	12420.1
1321.314	12334.1
1326.132	12166.1
1330.945	11908.1
1335.753	11576.1
1340.556	11357.1
1345.354	11120.1
1350.148	10897.1
1354.937	10831.1
1359.722	10829.1
1364.501	10862.1
1369.276	11018.1
1374.046	11132.1
1378.811	11254.1
1383.572	11413.1
1388.327	11398.1
1393.079	11374.1
1397.825	11228.1
1402.567	11101.1
1407.304	10941.1
1412.036	10862.1
1416.764	10754.1
1421.487	10684.1
1426.205	10611.1
1430.919	10598.1
1435.628	10626.1
1440.333	10633.1
1445.032	10654.1
1449.727	10724.1
1454.418	10694.1
1459.104	10505.1
1463.785	10348.1
1468.462	10119.1
1473.134	9906.1
1477.802	9707.1
1482.465	9548.1
1487.123	9454.1
1491.777	9415.1
1496.426	9469.1
1501.071	9550.1
1505.711	9691.1
1510.347	9851.1
1514.978	10008.1
1519.604	10131.1
1524.226	10297.1
1528.844	10268.1
1533.457	10246.1
1538.065	10195.1
1542.669	10153.1
1547.269	10072.1
1551.864	9987.1
1556.454	9986.1
1561.041	9967.1
1565.622	9986.1
1570.199	10000.1
1574.772	10044.1
1579.34	10130.1
1583.904	10159.1
1588.464	10199.1
1593.019	10196.1
1597.569	10184.1
1602.115	10123.1
1606.657	10034.1
1611.195	10028.1
1615.728	9893.1
1620.256	9915.1
1624.78	9906.1
1629.3	9872.1
1633.816	9988.1
1638.327	9918.1
1642.834	9985.1
1647.336	10078.1
1651.834	10066.1
1656.328	10044.1
1660.817	10025.1
1665.302	9900.1
1669.783	9730.1
1674.259	9457.1
1678.732	9212.1
1683.199	8925.1
1687.663	8584.1
1692.122	8303.1
1696.577	8216.1
1701.028	8205.1
1705.474	8182.1
1709.917	8352.1
1714.355	8312.1
1718.788	8282.1
1723.218	8160.1
1727.643	8002.1
1732.064	7858.1
1736.481	7672.1
1740.893	7533.1
1745.301	7291.1
1749.705	7122.1
1754.105	6875.1
1758.501	6684.1
1762.893	6520.1
1767.28	6328.1
1771.663	6199.1
1776.042	6093.1
1780.417	6023.1
1784.787	6051.1
1789.154	6154.1
1793.516	6238.1
1797.874	6344.1
1802.228	6414.1
1806.578	6491.1
1810.924	6505.1
1815.266	6465.1
1819.603	6366.1
1823.937	6273.1
1828.266	6175.1
1832.591	6055.1
1836.913	5994.1
1841.23	5961.1
1845.543	5917.1
1849.852	5881.1
1854.156	5854.1
1858.457	5853.1
1862.754	5843.1
1867.047	5822.1
1871.335	5816.1
1875.62	5825.1
1879.9	5772.1
1884.177	5730.1
1888.449	5691.1
1892.718	5608.1
1896.982	5577.1
1901.243	5487.1
1905.499	5467.1
1909.752	5436.1
1914	5462.1
1918.245	5458.1
1922.485	5513.1
1926.722	5582.1
1930.954	5625.1
1935.183	5673.1
1939.408	5737.1
1943.628	5802.1
1947.845	5800.1
1952.058	5777.1
1956.267	5742.1
1960.472	5651.1
1964.673	5582.1
1968.87	5472.1
1973.063	5415.1
1977.252	5332.1
1981.438	5278.1
1985.619	5237.1
1989.797	5205.1
1993.971	5163.1
1998.14	5131.1
2002.306	5110.1
2006.469	5116.1
2010.627	5086.1
2014.781	5046.1
2018.932	5001.1
2023.078	4959.1
2027.221	4891.1
2031.36	4805.1
2035.495	4743.1
2039.627	4652.1
2043.754	4612.1
2047.878	4592.1
2051.998	4540.1
2056.114	4512.1
2060.226	4535.1
2064.334	4547.1
2068.439	4528.1
2072.54	4563.1
2076.637	4572.1
2080.73	4630.1
2084.82	4641.1
2088.906	4675.1
2092.988	4672.1
2097.066	4659.1
2101.14	4623.1
2105.211	4578.1
2109.278	4536.1
2113.342	4538.1
2117.401	4516.1
2121.457	4498.1
2125.509	4503.1
2129.558	4471.1
2133.602	4412.1
2137.643	4411.1
2141.681	4391.1
2145.714	4367.1
2149.744	4317.1
2153.77	4309.1
2157.793	4252.1
2161.812	4221.1
2165.827	4133.1
2169.838	4078.1
2173.846	4023.1
2177.851	3946.1
2181.851	3883.1
2185.848	3850.1
2189.841	3800.1
2193.831	3748.1
2197.817	3758.1
2201.799	3744.1
2205.778	3734.1
2209.753	3673.1
2213.725	3677.1
2217.693	3670.1
2221.657	3635.1
2225.618	3640.1
2229.575	3635.1
2233.529	3596.1
2237.479	3562.1
2241.425	3501.1
2245.368	3465.1
2249.307	3414.1
2253.243	3382.1
2257.175	3343.1
2261.104	3280.1
2265.029	3222.1
2268.95	3202.1
2272.868	3170.1
2276.783	3162.1
2280.694	3107.1
2284.601	3100.1
2288.505	3062.1
2292.405	3045.1
2296.302	2995.1
2300.195	2981.1
2304.085	2950.1
2307.971	2896.1
2311.854	2855.1
2315.734	2798.1
2319.609	2780.1
2323.482	2729.1
2327.351	2726.1
2331.216	2711.1
2335.078	2695.1
2338.937	2668.1
2342.792	2637.1
2346.643	2659.1
2350.492	2653.1
2354.336	2655.1
2358.178	2659.1
2362.015	2675.1
2365.85	2670.1
2369.681	2699.1
2373.508	2669.1
2377.333	2643.1
2381.153	2684.1
2384.971	2630.1
2388.785	2626.1
2392.595	2610.1
2396.402	2599.1
2400.206	2572.1
2404.007	2516.1
2407.804	2517.1
2411.597	2501.1
2415.388	2492.1
2419.174	2487.1
2422.958	2457.1
2426.738	2451.1
2430.515	2437.1
2434.289	2420.1
2438.059	2363.1
2441.825	2381.1
2445.589	2348.1
2449.349	2321.1
2453.106	2292.1
2456.859	2262.1
2460.61	2232.1
2464.356	2194.1
2468.1	2181.1
2471.84	2180.1
2475.577	2148.1
2479.311	2142.1
2483.041	2101.1
2486.768	2105.1
2490.492	2102.1
2494.213	2096.1
2497.93	2090.1
2501.644	2060.1
2505.355	2059.1
2509.062	2043.1
2512.766	2041.1
2516.467	2029.1
2520.165	2051.1
2523.859	2006.1
2527.551	1974.1
2531.239	2008.1
2534.923	1944.1
2538.605	1949.1
2542.283	1934.1
2545.958	1935.1
2549.63	1937.1
2553.299	1940.1
2556.964	1936.1
2560.626	1909.1
2564.285	1919.1
2567.941	1923.1
2571.594	1863.1
2575.243	1876.1
2578.89	1884.1
2582.533	1854.1
2586.173	1853.1
2589.809	1825.1
2593.443	1792.1
2597.073	1780.1
2600.701	1774.1
2604.325	1749.1
2607.946	1731.1
2611.564	1758.1
2615.178	1745.1
2618.79	1730.1
2622.398	1701.1
2626.004	1683.1
2629.606	1660.1
2633.205	1619.1
2636.801	1624.1
2640.394	1610.1
2643.983	1574.1
2647.57	1535.1
2651.153	1537.1
2654.734	1514.1
2658.311	1492.1
2661.885	1446.1
2665.456	1431.1
2669.025	1432.1
2672.589	1427.1
2676.151	1428.1
2679.71	1374.1
2683.266	1357.1
2686.819	1326.1
2690.368	1284.1
2693.915	1311.1
2697.458	1252.1
2700.999	1223.1
2704.536	1189.1
2708.071	1155.1
2711.602	1141.1
2715.13	1116.1
2718.656	1109.1
2722.178	1074.1
2725.697	1058.1
2729.214	1042.1
2732.727	1028.1
2736.237	1052.1
2739.744	1028.1
2743.249	1035.1
2746.75	1034.1
2750.248	1046.1
2753.743	1069.1
2757.236	1085.1
2760.725	1070.1
2764.211	1098.1
2767.695	1079.1
2771.175	1093.1
2774.652	1069.1
2778.127	1078.1
2781.598	1063.1
2785.067	1053.1
2788.532	1061.1
2791.995	1035.1
2795.455	1069.1
2798.911	1068.1
2802.365	1066.1
2805.816	1066.1
2809.264	1064.1
2812.709	1068.1
2816.151	1053.1
2819.59	1053.1
2823.026	1058.1
2826.46	1070.1
2829.89	1046.1
2833.318	1053.1
2836.742	1063.1
2840.164	1072.1
2843.583	1081.1
2846.999	1087.1
2850.412	1104.1
2853.822	1110.1
2857.229	1113.1
2860.634	1141.1
2864.035	1159.1
2867.434	1183.1
2870.83	1206.1
2874.223	1221.1
2877.613	1244.1
2881	1258.1
2884.385	1260.1
2887.766	1283.1
2891.145	1258.1
2894.521	1266.1
2897.894	1268.1
2901.264	1246.1
2904.631	1246.1
2907.996	1253.1
2911.358	1265.1
2914.717	1280.1
2918.073	1270.1
2921.426	1295.1
2924.777	1308.1
2928.124	1316.1
2931.469	1343.1
2934.811	1383.1
2938.15	1375.1
2941.487	1405.1
2944.821	1397.1
2948.152	1417.1
2951.48	1410.1
2954.805	1379.1
2958.128	1358.1
2961.447	1362.1
2964.765	1354.1
2968.079	1356.1
2971.39	1365.1
2974.699	1380.1
2978.005	1409.1
2981.308	1427.1
2984.609	1456.1
2987.907	1478.1
2991.202	1508.1
2994.494	1531.1
2997.784	1574.1
3001.07	1594.1
3004.355	1618.1
3007.636	1636.1
3010.915	1671.1
3014.191	1656.1
3017.464	1678.1
3020.734	1703.1
3024.002	1696.1
3027.267	1704.1
3030.53	1746.1
3033.789	1739.1
3037.046	1781.1
3040.301	1802.1
3043.552	1844.1
3046.801	1870.1
3050.048	1913.1
3053.291	1956.1
3056.532	2003.1
3059.771	2080.1
3063.006	2125.1
3066.239	2169.1
3069.469	2238.1
3072.697	2328.1
3075.922	2354.1
3079.144	2410.1
3082.364	2478.1
3085.581	2500.1
3088.795	2567.1
3092.007	2629.1
3095.216	2701.1
3098.423	2742.1
3101.627	2816.1
3104.828	2870.1
3108.026	2935.1
3111.222	3008.1
3114.416	3082.1
3117.607	3126.1
3120.795	3214.1
3123.98	3264.1
3127.163	3331.1
3130.344	3433.1
3133.521	3512.1
3136.696	3588.1
3139.869	3635.1
3143.039	3700.1
3146.206	3757.1
3149.371	3843.1
3152.533	3837.1
3155.693	3866.1
3158.85	3924.1
3162.005	3905.1
3165.157	3927.1
3168.306	3936.1
3171.453	3974.1
3174.597	3949.1
3177.739	3964.1
3180.878	3965.1
3184.014	3989.1
3187.149	3997.1
3190.28	3966.1
3193.409	4011.1
3196.536	4010.1
3199.659	3971.1
3202.781	4006.1
3205.9	4000.1
3209.016	3998.1
3212.13	3959.1
3215.241	3942.1
3218.35	3910.1
3221.456	3848.1
3224.56	3828.1
3227.661	3780.1
3230.76	3756.1
3233.856	3729.1
3236.95	3677.1
3240.041	3623.1
3243.13	3612.1
3246.216	3607.1
3249.3	3569.1
3252.382	3570.1
3255.46	3543.1
3258.537	3549.1
3261.611	3543.1
3264.682	3501.1
3267.751	3534.1
3270.818	3511.1
3273.882	3500.1
3276.943	3464.1
3280.002	3456.1
3283.059	3411.1
3286.113	3356.1
3289.165	3336.1
3292.214	3276.1
3295.261	3220.1
3298.306	3157.1
3301.348	3128.1
3304.387	3085.1
3307.425	3037.1
3310.459	2981.1
3313.492	2947.1
3316.521	2906.1
3319.549	2882.1
3322.574	2849.1
3325.597	2798.1
3328.617	2790.1
3331.635	2796.1
3334.65	2764.1
3337.663	2735.1
3340.674	2750.1
3343.682	2718.1
3346.688	2723.1
3349.691	2704.1
3352.692	2677.1
3355.691	2660.1
3358.687	2669.1
3361.681	2593.1
3364.673	2578.1
3367.662	2549.1
3370.649	2500.1
3373.633	2474.1
3376.615	2428.1
3379.595	2392.1
3382.572	2360.1
3385.547	2311.1
3388.52	2280.1
3391.49	2228.1
3394.458	2194.1
3397.424	2177.1
3400.387	2143.1
3403.348	2148.1
3406.307	2080.1
3409.263	2085.1
3412.217	2061.1
3415.168	2023.1
3418.118	2017.1
3421.065	1967.1
3424.009	1958.1
3426.951	1922.1
3429.891	1879.1
3432.829	1852.1
3435.764	1795.1
3438.697	1748.1
3441.628	1711.1
3444.557	1636.1
3447.483	1617.1
3450.407	1548.1
3453.328	1483.1
3456.247	1447.1
3459.164	1374.1
3462.079	1342.1
3464.991	1283.1
3467.902	1241.1
3470.809	1192.1
3473.715	1149.1
3476.618	1114.1
3479.519	1073.1
3482.418	1031.1
3485.315	997.1
3488.209	957.1
3491.101	912.1
3493.99	885.1
3496.878	840.1
3499.763	830.1
3502.646	793.1
3505.527	735.1
3508.405	691.1
3511.281	662.1
3514.155	638.1
3517.027	566.1
3519.897	555.1
3522.764	510.1
3525.629	476.1
3528.492	443.1
3531.352	391.1
3534.211	352.1
3537.067	321.1
3539.921	274.1
3542.773	251.1
3545.622	217.1
3548.469	184.1
3551.315	147.1
3554.157	131.1
3556.998	110.1
3559.837	80.1
3562.673	47.1
3565.507	44.1
3568.339	25.1
3571.169	-5.9
3573.996	-22.9
3576.822	-51.9
3579.645	-60.9
3582.466	-84.9
3585.285	-100.9
3588.101	-113.9
3590.916	-132.9
3593.728	-160.9
3596.538	-182.9
3599.346	-188.9
3602.152	-224.9
3604.956	-231.9
3607.757	-234.9
3610.556	-249.9
3613.354	-266.9
3616.149	-285.9
3618.942	-289.9
3621.732	-304.9
3624.521	-312.9
3627.307	-325.9
3630.092	-340.9
3632.874	-351.9
3635.654	-360.9
3638.432	-353.9
3641.208	-365.9
3643.982	-375.9
3646.753	-384.9
3649.523	-392.9
3652.29	-407.9
3655.055	-413.9
3657.818	-425.9
3660.579	-440.9
3663.338	-440.9
3666.095	-455.9
3668.849	-466.9
3671.602	-472.9
3674.352	-475.9
3677.101	-486.9
3679.847	-494.9
3682.591	-493.9
3685.333	-505.9
3688.073	-503.9
3690.811	-510.9
3693.547	-517.9
3696.281	-520.9
3699.013	-524.9
3701.742	-532.9
3704.47	-538.9
3707.195	-552.9
3709.919	-546.9
3712.64	-553.9
3715.359	-549.9
3718.076	-555.9
3720.792	-565.9
3723.505	-565.9
3726.216	-569.9
3728.925	-571.9
3731.632	-576.9
3734.336	-578.9
3737.039	-587.9
3739.74	-582.9
3742.439	-577.9
3745.136	-588.9
3747.83	-588.9
3750.523	-588.9
3753.213	-600.9
3755.902	-589.9
3758.589	-594.9
3761.273	-592.9
3763.956	-602.9
3766.636	-606.9
3769.315	-601.9
3771.991	-603.9
3774.665	-600.9
3777.338	-605.9
3780.008	-610.9
3782.677	-608.9
3785.343	-607.9
3788.007	-604.9
3790.67	-612.9
3793.33	-616.9
3795.989	-615.9
3798.645	-622.9
3801.299	-619.9
3803.952	-615.9
3806.602	-620.9
3809.251	-623.9
3811.897	-619.9
3814.542	-617.9
3817.184	-631.9
3819.825	-625.9
3822.463	-625.9
3825.1	-623.9
3827.735	-632.9
3830.367	-631.9
3832.998	-634.9
3835.627	-631.9
3838.253	-632.9
3840.878	-629.9
3843.501	-633.9
3846.122	-631.9
3848.741	-634.9
3851.358	-638.9
3853.973	-635.9
3856.586	-632.9
3859.197	-639.9
3861.806	-641.9
3864.414	-634.9
3867.019	-638.9
3869.622	-639.9
3872.224	-630.9
3874.823	-618.9
3877.421	-603.9
3880.016	-584.9
3882.61	-547.9
3885.202	-546.9
3887.792	-569.9
3890.38	-600.9
3892.966	-622.9
3895.55	-629.9
3898.132	-638.9
3900.713	-651.9
3903.291	-641.9
3905.868	-645.9
3908.442	-651.9
3911.015	-645.9
3913.586	-652.9
3916.155	-646.9
3918.722	-642.9
3921.287	-649.9
3923.85	-648.9
3926.411	-649.9
3928.971	-647.9
3931.528	-647.9
3934.084	-639.9
3936.638	-647.9
3939.19	-653.9
3941.74	-655.9
3944.288	-652.9
3946.834	-653.9
3949.378	-656.9
3951.921	-657.9
3954.462	-652.9
3957	-649.9
3959.537	-647.9
3962.072	-652.9
3964.606	-646.9
3967.137	-648.9
3969.667	-642.9
3972.194	-640.9
3974.72	-640.9
3977.244	-643.9
3979.766	-642.9
3982.286	-637.9
3984.805	-630.9
3987.321	-636.9
3989.836	-640.9
3992.349	-634.9
3994.86	-635.9
3997.369	-642.9
3999.877	-641.9
4002.382	-640.9
4004.886	-640.9
4007.388	-637.9
4009.888	-637.9
4012.386	-637.9
4014.883	-627.9
4017.377	-635.9
4019.87	-635.9
4022.361	-640.9
4024.85	-636.9
4027.338	-640.9
4029.823	-634.9
4032.307	-638.9
4034.789	-641.9
4037.269	-643.9
4039.747	-645.9
4042.224	-640.9
4044.699	-646.9
4047.172	-645.9
4049.643	-641.9
4052.112	-637.9
4054.58	-634.9
4057.046	-644.9
4059.51	-639.9
4061.972	-645.9
4064.432	-641.9
4066.891	-638.9
4069.348	-639.9
4071.803	-636.9
4074.256	-639.9
4076.708	-632.9
4079.158	-646.9
4081.606	-636.9
4084.052	-638.9
4086.497	-643.9
4088.939	-634.9
4091.38	-635.9
4093.819	-635.9
4096.257	-677.9
4098.693	-672.9
4101.127	-673.9
4103.559	-676.9
4105.989	-398.9
4108.418	-382.9
4110.845	-359.9
4113.27	-339.9
4115.694	-288.9
4118.115	-253.9
4120.535	-637.9
4122.954	-641.9
4125.37	-635.9
4127.785	-637.9
4130.198	-643.9
4132.609	-635.9
4135.019	-677.9
4137.427	-674.9
4139.833	-670.9
4142.237	-669.9
