Data from 2018-2-7_conc=6_RamanShift_18.txt Node
Date: Tue Feb 13 14:38:43 IST 2018
User: aro
Spectrometer: QEPB0276
Trigger mode: 0
Integration Time (sec): 3.000000E1
Scans to average: 1
Electric dark correction enabled: true
Nonlinearity correction enabled: false
Boxcar width: 0
XAxis mode: Raman Shifts
Number of Pixels in Spectrum: 1044
>>>>>Begin Spectral Data<<<<<
160.701	-161.2
166.742	16.8
172.777	585.8
178.805	2252.8
184.826	6152.8
190.841	12709.8
196.849	20155.8
202.85	25257.8
208.845	26920.8
214.833	26530.8
220.815	26118.8
226.789	25881.8
232.758	25754.8
238.719	25554.8
244.674	25223.8
250.623	24826.8
256.565	24247.8
262.5	23822.8
268.429	23312.8
274.351	22972.8
280.267	22627.8
286.176	22361.8
292.079	22142.8
297.975	21980.8
303.865	21782.8
309.748	21554.8
315.625	21462.8
321.495	21361.8
327.359	21328.8
333.217	21257.8
339.068	21255.8
344.912	21218.8
350.751	21149.8
356.583	21134.8
362.408	21148.8
368.227	21145.8
374.04	21164.8
379.847	21187.8
385.647	21288.8
391.44	21389.8
397.228	21458.8
403.009	21590.8
408.784	21631.8
414.553	21665.8
420.315	21686.8
426.071	21738.8
431.821	21769.8
437.565	21687.8
443.302	21610.8
449.033	21623.8
454.758	21560.8
460.477	21519.8
466.189	21463.8
471.896	21479.8
477.596	21347.8
483.29	21320.8
488.978	21287.8
494.66	21239.8
500.335	21121.8
506.005	20920.8
511.668	20616.8
517.325	20489.8
522.977	20285.8
528.622	20154.8
534.261	20000.8
539.894	19914.8
545.521	19827.8
551.141	19716.8
556.756	19615.8
562.365	19618.8
567.968	19544.8
573.565	19453.8
579.155	19379.8
584.74	19269.8
590.319	19239.8
595.892	19197.8
601.459	19132.8
607.02	19039.8
612.575	18892.8
618.124	18775.8
623.667	18636.8
629.204	18543.8
634.735	18526.8
640.261	18396.8
645.781	18337.8
651.294	18248.8
656.802	18272.8
662.304	18228.8
667.8	18233.8
673.29	18184.8
678.775	18178.8
684.254	18058.8
689.726	18051.8
695.193	17973.8
700.655	17899.8
706.11	17835.8
711.56	17673.8
717.004	17632.8
722.442	17558.8
727.874	17525.8
733.301	17410.8
738.722	17386.8
744.137	17278.8
749.547	17370.8
754.951	17340.8
760.349	17356.8
765.741	17370.8
771.128	17367.8
776.509	17282.8
781.885	17289.8
787.254	17325.8
792.618	17193.8
797.977	17101.8
803.33	17015.8
808.677	16906.8
814.019	16811.8
819.355	16785.8
824.686	16712.8
830.011	16627.8
835.33	16615.8
840.644	16619.8
845.952	16637.8
851.255	16740.8
856.552	16723.8
861.844	16682.8
867.13	16632.8
872.41	16529.8
877.686	16485.8
882.955	16359.8
888.219	16202.8
893.478	16003.8
898.731	15807.8
903.979	15691.8
909.221	15581.8
914.458	15539.8
919.69	15504.8
924.916	15527.8
930.136	15605.8
935.351	15604.8
940.561	15580.8
945.766	15547.8
950.965	15476.8
956.158	15384.8
961.347	15176.8
966.529	15005.8
971.707	14882.8
976.879	14609.8
982.046	14585.8
987.208	14537.8
992.364	14519.8
997.515	14573.8
1002.66	14718.8
1007.801	14899.8
1012.936	15010.8
1018.066	14973.8
1023.19	15026.8
1028.309	14921.8
1033.423	14900.8
1038.532	14840.8
1043.636	14727.8
1048.734	14539.8
1053.827	14368.8
1058.915	14181.8
1063.998	14061.8
1069.075	14054.8
1074.147	14074.8
1079.214	14175.8
1084.276	14200.8
1089.333	14312.8
1094.385	14371.8
1099.431	14415.8
1104.472	14352.8
1109.509	14321.8
1114.54	14182.8
1119.565	13951.8
1124.586	13808.8
1129.602	13653.8
1134.613	13547.8
1139.618	13507.8
1144.619	13423.8
1149.614	13450.8
1154.604	13432.8
1159.589	13516.8
1164.57	13537.8
1169.545	13572.8
1174.515	13520.8
1179.48	13440.8
1184.44	13387.8
1189.395	13225.8
1194.345	13174.8
1199.29	13060.8
1204.23	13063.8
1209.165	13182.8
1214.095	13243.8
1219.021	13313.8
1223.941	13374.8
1228.856	13438.8
1233.766	13435.8
1238.672	13479.8
1243.572	13468.8
1248.467	13380.8
1253.358	13208.8
1258.244	13028.8
1263.124	12836.8
1268	12615.8
1272.871	12475.8
1277.737	12371.8
1282.599	12310.8
1287.455	12343.8
1292.306	12349.8
1297.153	12398.8
1301.995	12401.8
1306.832	12481.8
1311.664	12482.8
1316.491	12431.8
1321.314	12296.8
1326.132	12162.8
1330.945	11805.8
1335.753	11543.8
1340.556	11280.8
1345.354	11029.8
1350.148	10853.8
1354.937	10777.8
1359.722	10808.8
1364.501	10806.8
1369.276	10961.8
1374.046	11076.8
1378.811	11234.8
1383.572	11322.8
1388.327	11317.8
1393.079	11315.8
1397.825	11187.8
1402.567	11013.8
1407.304	10912.8
1412.036	10790.8
1416.764	10727.8
1421.487	10645.8
1426.205	10583.8
1430.919	10554.8
1435.628	10541.8
1440.333	10552.8
1445.032	10578.8
1449.727	10623.8
1454.418	10581.8
1459.104	10464.8
1463.785	10236.8
1468.462	10027.8
1473.134	9809.8
1477.802	9610.8
1482.465	9478.8
1487.123	9325.8
1491.777	9331.8
1496.426	9326.8
1501.071	9451.8
1505.711	9588.8
1510.347	9740.8
1514.978	9948.8
1519.604	10025.8
1524.226	10145.8
1528.844	10198.8
1533.457	10167.8
1538.065	10114.8
1542.669	10077.8
1547.269	9955.8
1551.864	9907.8
1556.454	9867.8
1561.041	9879.8
1565.622	9869.8
1570.199	9862.8
1574.772	9944.8
1579.34	10038.8
1583.904	10046.8
1588.464	10123.8
1593.019	10122.8
1597.569	10078.8
1602.115	10038.8
1606.657	9951.8
1611.195	9899.8
1615.728	9818.8
1620.256	9812.8
1624.78	9746.8
1629.3	9800.8
1633.816	9792.8
1638.327	9916.8
1642.834	9898.8
1647.336	9930.8
1651.834	9959.8
1656.328	9916.8
1660.817	9868.8
1665.302	9765.8
1669.783	9544.8
1674.259	9355.8
1678.732	9071.8
1683.199	8740.8
1687.663	8420.8
1692.122	8203.8
1696.577	8067.8
1701.028	8007.8
1705.474	8134.8
1709.917	8151.8
1714.355	8172.8
1718.788	8129.8
1723.218	8044.8
1727.643	7870.8
1732.064	7712.8
1736.481	7531.8
1740.893	7389.8
1745.301	7166.8
1749.705	6966.8
1754.105	6792.8
1758.501	6559.8
1762.893	6392.8
1767.28	6218.8
1771.663	6058.8
1776.042	5969.8
1780.417	5927.8
1784.787	5911.8
1789.154	5921.8
1793.516	6050.8
1797.874	6181.8
1802.228	6298.8
1806.578	6334.8
1810.924	6329.8
1815.266	6297.8
1819.603	6224.8
1823.937	6080.8
1828.266	6008.8
1832.591	5909.8
1836.913	5856.8
1841.23	5818.8
1845.543	5758.8
1849.852	5724.8
1854.156	5700.8
1858.457	5702.8
1862.754	5661.8
1867.047	5710.8
1871.335	5700.8
1875.62	5646.8
1879.9	5644.8
1884.177	5594.8
1888.449	5522.8
1892.718	5471.8
1896.982	5380.8
1901.243	5359.8
1905.499	5276.8
1909.752	5296.8
1914	5261.8
1918.245	5275.8
1922.485	5315.8
1926.722	5389.8
1930.954	5444.8
1935.183	5523.8
1939.408	5579.8
1943.628	5621.8
1947.845	5601.8
1952.058	5574.8
1956.267	5563.8
1960.472	5520.8
1964.673	5446.8
1968.87	5334.8
1973.063	5235.8
1977.252	5187.8
1981.438	5122.8
1985.619	5097.8
1989.797	5046.8
1993.971	4987.8
1998.14	4977.8
2002.306	4976.8
2006.469	4934.8
2010.627	4924.8
2014.781	4883.8
2018.932	4837.8
2023.078	4789.8
2027.221	4714.8
2031.36	4661.8
2035.495	4585.8
2039.627	4484.8
2043.754	4476.8
2047.878	4439.8
2051.998	4372.8
2056.114	4355.8
2060.226	4399.8
2064.334	4376.8
2068.439	4361.8
2072.54	4392.8
2076.637	4435.8
2080.73	4451.8
2084.82	4483.8
2088.906	4438.8
2092.988	4475.8
2097.066	4499.8
2101.14	4466.8
2105.211	4415.8
2109.278	4384.8
2113.342	4378.8
2117.401	4342.8
2121.457	4306.8
2125.509	4313.8
2129.558	4237.8
2133.602	4265.8
2137.643	4237.8
2141.681	4227.8
2145.714	4201.8
2149.744	4158.8
2153.77	4136.8
2157.793	4084.8
2161.812	4015.8
2165.827	3987.8
2169.838	3911.8
2173.846	3865.8
2177.851	3789.8
2181.851	3747.8
2185.848	3707.8
2189.841	3640.8
2193.831	3612.8
2197.817	3604.8
2201.799	3604.8
2205.778	3567.8
2209.753	3517.8
2213.725	3533.8
2217.693	3521.8
2221.657	3545.8
2225.618	3481.8
2229.575	3481.8
2233.529	3449.8
2237.479	3394.8
2241.425	3372.8
2245.368	3340.8
2249.307	3250.8
2253.243	3252.8
2257.175	3190.8
2261.104	3135.8
2265.029	3114.8
2268.95	3055.8
2272.868	3026.8
2276.783	3014.8
2280.694	2989.8
2284.601	2982.8
2288.505	2936.8
2292.405	2876.8
2296.302	2854.8
2300.195	2838.8
2304.085	2816.8
2307.971	2764.8
2311.854	2729.8
2315.734	2716.8
2319.609	2660.8
2323.482	2608.8
2327.351	2610.8
2331.216	2569.8
2335.078	2555.8
2338.937	2570.8
2342.792	2544.8
2346.643	2517.8
2350.492	2521.8
2354.336	2543.8
2358.178	2502.8
2362.015	2531.8
2365.85	2554.8
2369.681	2565.8
2373.508	2545.8
2377.333	2559.8
2381.153	2543.8
2384.971	2510.8
2388.785	2504.8
2392.595	2488.8
2396.402	2471.8
2400.206	2438.8
2404.007	2433.8
2407.804	2418.8
2411.597	2377.8
2415.388	2368.8
2419.174	2376.8
2422.958	2331.8
2426.738	2330.8
2430.515	2308.8
2434.289	2271.8
2438.059	2286.8
2441.825	2262.8
2445.589	2207.8
2449.349	2203.8
2453.106	2169.8
2456.859	2173.8
2460.61	2117.8
2464.356	2091.8
2468.1	2085.8
2471.84	2053.8
2475.577	2034.8
2479.311	2020.8
2483.041	2028.8
2486.768	1993.8
2490.492	1980.8
2494.213	1984.8
2497.93	2010.8
2501.644	1947.8
2505.355	1966.8
2509.062	1946.8
2512.766	1921.8
2516.467	1909.8
2520.165	1891.8
2523.859	1889.8
2527.551	1888.8
2531.239	1857.8
2534.923	1855.8
2538.605	1836.8
2542.283	1829.8
2545.958	1840.8
2549.63	1825.8
2553.299	1812.8
2556.964	1817.8
2560.626	1824.8
2564.285	1801.8
2567.941	1785.8
2571.594	1776.8
2575.243	1758.8
2578.89	1770.8
2582.533	1749.8
2586.173	1747.8
2589.809	1735.8
2593.443	1705.8
2597.073	1682.8
2600.701	1670.8
2604.325	1664.8
2607.946	1637.8
2611.564	1629.8
2615.178	1636.8
2618.79	1619.8
2622.398	1593.8
2626.004	1600.8
2629.606	1573.8
2633.205	1549.8
2636.801	1522.8
2640.394	1492.8
2643.983	1448.8
2647.57	1443.8
2651.153	1433.8
2654.734	1415.8
2658.311	1382.8
2661.885	1375.8
2665.456	1345.8
2669.025	1333.8
2672.589	1315.8
2676.151	1300.8
2679.71	1297.8
2683.266	1262.8
2686.819	1244.8
2690.368	1208.8
2693.915	1208.8
2697.458	1165.8
2700.999	1151.8
2704.536	1122.8
2708.071	1094.8
2711.602	1064.8
2715.13	1031.8
2718.656	1007.8
2722.178	981.8
2725.697	974.8
2729.214	955.8
2732.727	942.8
2736.237	940.8
2739.744	942.8
2743.249	949.8
2746.75	950.8
2750.248	962.8
2753.743	967.8
2757.236	969.8
2760.725	992.8
2764.211	998.8
2767.695	1011.8
2771.175	996.8
2774.652	998.8
2778.127	997.8
2781.598	986.8
2785.067	981.8
2788.532	974.8
2791.995	967.8
2795.455	973.8
2798.911	977.8
2802.365	982.8
2805.816	980.8
2809.264	980.8
2812.709	960.8
2816.151	959.8
2819.59	959.8
2823.026	968.8
2826.46	978.8
2829.89	982.8
2833.318	977.8
2836.742	978.8
2840.164	989.8
2843.583	1001.8
2846.999	1009.8
2850.412	1015.8
2853.822	1047.8
2857.229	1063.8
2860.634	1055.8
2864.035	1073.8
2867.434	1104.8
2870.83	1121.8
2874.223	1147.8
2877.613	1178.8
2881	1190.8
2884.385	1202.8
2887.766	1188.8
2891.145	1206.8
2894.521	1185.8
2897.894	1176.8
2901.264	1182.8
2904.631	1195.8
2907.996	1174.8
2911.358	1188.8
2914.717	1214.8
2918.073	1209.8
2921.426	1240.8
2924.777	1267.8
2928.124	1267.8
2931.469	1296.8
2934.811	1331.8
2938.15	1327.8
2941.487	1333.8
2944.821	1343.8
2948.152	1334.8
2951.48	1322.8
2954.805	1325.8
2958.128	1295.8
2961.447	1300.8
2964.765	1298.8
2968.079	1278.8
2971.39	1289.8
2974.699	1334.8
2978.005	1335.8
2981.308	1344.8
2984.609	1380.8
2987.907	1407.8
2991.202	1442.8
2994.494	1469.8
2997.784	1498.8
3001.07	1528.8
3004.355	1525.8
3007.636	1554.8
3010.915	1589.8
3014.191	1601.8
3017.464	1638.8
3020.734	1618.8
3024.002	1643.8
3027.267	1654.8
3030.53	1669.8
3033.789	1692.8
3037.046	1698.8
3040.301	1723.8
3043.552	1781.8
3046.801	1797.8
3050.048	1855.8
3053.291	1905.8
3056.532	1947.8
3059.771	2007.8
3063.006	2064.8
3066.239	2126.8
3069.469	2198.8
3072.697	2267.8
3075.922	2302.8
3079.144	2389.8
3082.364	2428.8
3085.581	2431.8
3088.795	2526.8
3092.007	2571.8
3095.216	2618.8
3098.423	2656.8
3101.627	2731.8
3104.828	2811.8
3108.026	2868.8
3111.222	2931.8
3114.416	3007.8
3117.607	3051.8
3120.795	3122.8
3123.98	3219.8
3127.163	3296.8
3130.344	3378.8
3133.521	3440.8
3136.696	3505.8
3139.869	3592.8
3143.039	3670.8
3146.206	3692.8
3149.371	3753.8
3152.533	3811.8
3155.693	3819.8
3158.85	3841.8
3162.005	3820.8
3165.157	3882.8
3168.306	3903.8
3171.453	3899.8
3174.597	3886.8
3177.739	3906.8
3180.878	3867.8
3184.014	3911.8
3187.149	3946.8
3190.28	3919.8
3193.409	3945.8
3196.536	3924.8
3199.659	3936.8
3202.781	3954.8
3205.9	3948.8
3209.016	3902.8
3212.13	3906.8
3215.241	3891.8
3218.35	3829.8
3221.456	3810.8
3224.56	3775.8
3227.661	3757.8
3230.76	3705.8
3233.856	3664.8
3236.95	3609.8
3240.041	3595.8
3243.13	3541.8
3246.216	3502.8
3249.3	3490.8
3252.382	3498.8
3255.46	3467.8
3258.537	3457.8
3261.611	3460.8
3264.682	3438.8
3267.751	3466.8
3270.818	3461.8
3273.882	3424.8
3276.943	3420.8
3280.002	3379.8
3283.059	3362.8
3286.113	3328.8
3289.165	3258.8
3292.214	3200.8
3295.261	3185.8
3298.306	3118.8
3301.348	3083.8
3304.387	3019.8
3307.425	2986.8
3310.459	2967.8
3313.492	2892.8
3316.521	2861.8
3319.549	2849.8
3322.574	2804.8
3325.597	2802.8
3328.617	2790.8
3331.635	2742.8
3334.65	2758.8
3337.663	2723.8
3340.674	2701.8
3343.682	2688.8
3346.688	2706.8
3349.691	2676.8
3352.692	2661.8
3355.691	2651.8
3358.687	2594.8
3361.681	2589.8
3364.673	2544.8
3367.662	2520.8
3370.649	2473.8
3373.633	2454.8
3376.615	2399.8
3379.595	2383.8
3382.572	2330.8
3385.547	2320.8
3388.52	2259.8
3391.49	2237.8
3394.458	2218.8
3397.424	2163.8
3400.387	2157.8
3403.348	2124.8
3406.307	2089.8
3409.263	2088.8
3412.217	2050.8
3415.168	2038.8
3418.118	1982.8
3421.065	1965.8
3424.009	1957.8
3426.951	1884.8
3429.891	1865.8
3432.829	1818.8
3435.764	1781.8
3438.697	1727.8
3441.628	1696.8
3444.557	1633.8
3447.483	1584.8
3450.407	1535.8
3453.328	1475.8
3456.247	1432.8
3459.164	1384.8
3462.079	1325.8
3464.991	1281.8
3467.902	1230.8
3470.809	1186.8
3473.715	1126.8
3476.618	1091.8
3479.519	1057.8
3482.418	1009.8
3485.315	980.8
3488.209	950.8
3491.101	912.8
3493.99	897.8
3496.878	831.8
3499.763	807.8
3502.646	788.8
3505.527	736.8
3508.405	690.8
3511.281	649.8
3514.155	626.8
3517.027	583.8
3519.897	546.8
3522.764	493.8
3525.629	466.8
3528.492	426.8
3531.352	375.8
3534.211	340.8
3537.067	308.8
3539.921	264.8
3542.773	237.8
3545.622	198.8
3548.469	185.8
3551.315	151.8
3554.157	135.8
3556.998	95.8
3559.837	61.8
3562.673	50.8
3565.507	32.8
3568.339	10.8
3571.169	-3.2
3573.996	-43.2
3576.822	-49.2
3579.645	-65.2
3582.466	-86.2
3585.285	-114.2
3588.101	-128.2
3590.916	-145.2
3593.728	-165.2
3596.538	-183.2
3599.346	-205.2
3602.152	-211.2
3604.956	-227.2
3607.757	-237.2
3610.556	-255.2
3613.354	-266.2
3616.149	-283.2
3618.942	-284.2
3621.732	-307.2
3624.521	-314.2
3627.307	-326.2
3630.092	-346.2
3632.874	-353.2
3635.654	-360.2
3638.432	-367.2
3641.208	-376.2
3643.982	-391.2
3646.753	-385.2
3649.523	-403.2
3652.29	-414.2
3655.055	-413.2
3657.818	-421.2
3660.579	-435.2
3663.338	-448.2
3666.095	-458.2
3668.849	-461.2
3671.602	-468.2
3674.352	-477.2
3677.101	-483.2
3679.847	-501.2
3682.591	-491.2
3685.333	-503.2
3688.073	-503.2
3690.811	-510.2
3693.547	-515.2
3696.281	-524.2
3699.013	-529.2
3701.742	-531.2
3704.47	-535.2
3707.195	-544.2
3709.919	-545.2
3712.64	-552.2
3715.359	-554.2
3718.076	-556.2
3720.792	-563.2
3723.505	-562.2
3726.216	-569.2
3728.925	-575.2
3731.632	-583.2
3734.336	-577.2
3737.039	-587.2
3739.74	-578.2
3742.439	-580.2
3745.136	-588.2
3747.83	-590.2
3750.523	-583.2
3753.213	-596.2
3755.902	-593.2
3758.589	-592.2
3761.273	-593.2
3763.956	-604.2
3766.636	-597.2
3769.315	-604.2
3771.991	-605.2
3774.665	-606.2
3777.338	-608.2
3780.008	-609.2
3782.677	-612.2
3785.343	-611.2
3788.007	-607.2
3790.67	-617.2
3793.33	-615.2
3795.989	-619.2
3798.645	-618.2
3801.299	-621.2
3803.952	-625.2
3806.602	-618.2
3809.251	-626.2
3811.897	-620.2
3814.542	-618.2
3817.184	-627.2
3819.825	-621.2
3822.463	-621.2
3825.1	-627.2
3827.735	-637.2
3830.367	-631.2
3832.998	-637.2
3835.627	-633.2
3838.253	-631.2
3840.878	-629.2
3843.501	-643.2
3846.122	-630.2
3848.741	-633.2
3851.358	-637.2
3853.973	-637.2
3856.586	-642.2
3859.197	-637.2
3861.806	-640.2
3864.414	-631.2
3867.019	-634.2
3869.622	-636.2
3872.224	-627.2
3874.823	-623.2
3877.421	-603.2
3880.016	-582.2
3882.61	-544.2
3885.202	-550.2
3887.792	-570.2
3890.38	-593.2
3892.966	-622.2
3895.55	-632.2
3898.132	-639.2
3900.713	-645.2
3903.291	-645.2
3905.868	-648.2
3908.442	-647.2
3911.015	-644.2
3913.586	-651.2
3916.155	-644.2
3918.722	-643.2
3921.287	-647.2
3923.85	-646.2
3926.411	-649.2
3928.971	-654.2
3931.528	-651.2
3934.084	-646.2
3936.638	-654.2
3939.19	-653.2
3941.74	-656.2
3944.288	-656.2
3946.834	-654.2
3949.378	-657.2
3951.921	-650.2
3954.462	-652.2
3957	-645.2
3959.537	-645.2
3962.072	-646.2
3964.606	-647.2
3967.137	-653.2
3969.667	-649.2
3972.194	-642.2
3974.72	-642.2
3977.244	-639.2
3979.766	-637.2
3982.286	-644.2
3984.805	-634.2
3987.321	-637.2
3989.836	-643.2
3992.349	-639.2
3994.86	-638.2
3997.369	-649.2
3999.877	-638.2
4002.382	-638.2
4004.886	-638.2
4007.388	-641.2
4009.888	-635.2
4012.386	-639.2
4014.883	-638.2
4017.377	-636.2
4019.87	-636.2
4022.361	-640.2
4024.85	-638.2
4027.338	-631.2
4029.823	-637.2
4032.307	-637.2
4034.789	-641.2
4037.269	-646.2
4039.747	-649.2
4042.224	-634.2
4044.699	-643.2
4047.172	-642.2
4049.643	-640.2
4052.112	-644.2
4054.58	-635.2
4057.046	-646.2
4059.51	-648.2
4061.972	-646.2
4064.432	-640.2
4066.891	-638.2
4069.348	-647.2
4071.803	-645.2
4074.256	-642.2
4076.708	-634.2
4079.158	-640.2
4081.606	-638.2
4084.052	-637.2
4086.497	-642.2
4088.939	-636.2
4091.38	-633.2
4093.819	-636.2
4096.257	-671.2
4098.693	-673.2
4101.127	-673.2
4103.559	-675.2
4105.989	-405.2
4108.418	-375.2
4110.845	-359.2
4113.27	-340.2
4115.694	-283.2
4118.115	-248.2
4120.535	-636.2
4122.954	-641.2
4125.37	-635.2
4127.785	-637.2
4130.198	-645.2
4132.609	-633.2
4135.019	-676.2
4137.427	-673.2
4139.833	-671.2
4142.237	-673.2
