Data from 2018-2-7_conc=0_RamanShift_11.txt Node
Date: Tue Feb 13 11:19:14 IST 2018
User: aro
Spectrometer: QEPB0276
Trigger mode: 0
Integration Time (sec): 3.000000E1
Scans to average: 1
Electric dark correction enabled: true
Nonlinearity correction enabled: false
Boxcar width: 0
XAxis mode: Raman Shifts
Number of Pixels in Spectrum: 1044
>>>>>Begin Spectral Data<<<<<
160.701	-166.8
166.742	31.2
172.777	612.2
178.805	2310.2
184.826	6343.2
190.841	12968.2
196.849	20394.2
202.85	25526.2
208.845	27116.2
214.833	26863.2
220.815	26421.2
226.789	26256.2
232.758	26172.2
238.719	25947.2
244.674	25616.2
250.623	25215.2
256.565	24694.2
262.5	24172.2
268.429	23733.2
274.351	23427.2
280.267	23105.2
286.176	22907.2
292.079	22679.2
297.975	22450.2
303.865	22296.2
309.748	22143.2
315.625	22006.2
321.495	21828.2
327.359	21818.2
333.217	21757.2
339.068	21733.2
344.912	21721.2
350.751	21639.2
356.583	21621.2
362.408	21715.2
368.227	21673.2
374.04	21605.2
379.847	21742.2
385.647	21851.2
391.44	21877.2
397.228	21936.2
403.009	22059.2
408.784	22072.2
414.553	22220.2
420.315	22208.2
426.071	22251.2
431.821	22243.2
437.565	22221.2
443.302	22189.2
449.033	22180.2
454.758	22123.2
460.477	22051.2
466.189	22013.2
471.896	21986.2
477.596	21974.2
483.29	21874.2
488.978	21826.2
494.66	21730.2
500.335	21644.2
506.005	21423.2
511.668	21211.2
517.325	21000.2
522.977	20820.2
528.622	20721.2
534.261	20546.2
539.894	20456.2
545.521	20410.2
551.141	20355.2
556.756	20250.2
562.365	20191.2
567.968	20121.2
573.565	20085.2
579.155	19951.2
584.74	19912.2
590.319	19807.2
595.892	19763.2
601.459	19713.2
607.02	19619.2
612.575	19504.2
618.124	19375.2
623.667	19270.2
629.204	19210.2
634.735	19101.2
640.261	18989.2
645.781	19007.2
651.294	18947.2
656.802	18930.2
662.304	18885.2
667.8	18886.2
673.29	18879.2
678.775	18758.2
684.254	18778.2
689.726	18704.2
695.193	18616.2
700.655	18528.2
706.11	18428.2
711.56	18409.2
717.004	18273.2
722.442	18246.2
727.874	18148.2
733.301	18049.2
738.722	18020.2
744.137	18006.2
749.547	17990.2
754.951	17974.2
760.349	18000.2
765.741	17991.2
771.128	17984.2
776.509	18014.2
781.885	18018.2
787.254	17981.2
792.618	17909.2
797.977	17769.2
803.33	17661.2
808.677	17526.2
814.019	17470.2
819.355	17349.2
824.686	17332.2
830.011	17269.2
835.33	17260.2
840.644	17329.2
845.952	17315.2
851.255	17346.2
856.552	17402.2
861.844	17374.2
867.13	17321.2
872.41	17241.2
877.686	17215.2
882.955	17034.2
888.219	16883.2
893.478	16682.2
898.731	16567.2
903.979	16346.2
909.221	16233.2
914.458	16143.2
919.69	16197.2
924.916	16237.2
930.136	16260.2
935.351	16284.2
940.561	16326.2
945.766	16255.2
950.965	16178.2
956.158	16023.2
961.347	15914.2
966.529	15717.2
971.707	15473.2
976.879	15282.2
982.046	15239.2
987.208	15231.2
992.364	15175.2
997.515	15254.2
1002.66	15445.2
1007.801	15595.2
1012.936	15643.2
1018.066	15731.2
1023.19	15702.2
1028.309	15729.2
1033.423	15663.2
1038.532	15592.2
1043.636	15411.2
1048.734	15221.2
1053.827	15024.2
1058.915	14932.2
1063.998	14843.2
1069.075	14771.2
1074.147	14789.2
1079.214	14814.2
1084.276	14900.2
1089.333	15022.2
1094.385	15134.2
1099.431	15099.2
1104.472	15104.2
1109.509	15044.2
1114.54	14859.2
1119.565	14684.2
1124.586	14507.2
1129.602	14317.2
1134.613	14236.2
1139.618	14151.2
1144.619	14127.2
1149.614	14120.2
1154.604	14116.2
1159.589	14205.2
1164.57	14216.2
1169.545	14283.2
1174.515	14283.2
1179.48	14197.2
1184.44	14054.2
1189.395	13981.2
1194.345	13903.2
1199.29	13830.2
1204.23	13781.2
1209.165	13839.2
1214.095	13952.2
1219.021	14024.2
1223.941	14108.2
1228.856	14175.2
1233.766	14210.2
1238.672	14223.2
1243.572	14210.2
1248.467	14088.2
1253.358	13967.2
1258.244	13740.2
1263.124	13492.2
1268	13343.2
1272.871	13242.2
1277.737	13055.2
1282.599	13036.2
1287.455	13007.2
1292.306	13064.2
1297.153	13118.2
1301.995	13142.2
1306.832	13214.2
1311.664	13175.2
1316.491	13151.2
1321.314	13041.2
1326.132	12798.2
1330.945	12562.2
1335.753	12233.2
1340.556	11932.2
1345.354	11689.2
1350.148	11539.2
1354.937	11470.2
1359.722	11470.2
1364.501	11564.2
1369.276	11741.2
1374.046	11869.2
1378.811	12031.2
1383.572	12150.2
1388.327	12161.2
1393.079	12132.2
1397.825	11956.2
1402.567	11746.2
1407.304	11621.2
1412.036	11523.2
1416.764	11406.2
1421.487	11367.2
1426.205	11276.2
1430.919	11238.2
1435.628	11231.2
1440.333	11278.2
1445.032	11309.2
1449.727	11368.2
1454.418	11302.2
1459.104	11178.2
1463.785	10952.2
1468.462	10756.2
1473.134	10462.2
1477.802	10295.2
1482.465	10147.2
1487.123	10088.2
1491.777	10043.2
1496.426	10095.2
1501.071	10262.2
1505.711	10390.2
1510.347	10567.2
1514.978	10800.2
1519.604	10906.2
1524.226	11031.2
1528.844	10991.2
1533.457	10997.2
1538.065	10904.2
1542.669	10828.2
1547.269	10763.2
1551.864	10690.2
1556.454	10651.2
1561.041	10658.2
1565.622	10626.2
1570.199	10636.2
1574.772	10694.2
1579.34	10762.2
1583.904	10816.2
1588.464	10827.2
1593.019	10785.2
1597.569	10780.2
1602.115	10682.2
1606.657	10640.2
1611.195	10564.2
1615.728	10462.2
1620.256	10453.2
1624.78	10435.2
1629.3	10450.2
1633.816	10454.2
1638.327	10520.2
1642.834	10576.2
1647.336	10584.2
1651.834	10596.2
1656.328	10583.2
1660.817	10552.2
1665.302	10470.2
1669.783	10301.2
1674.259	10036.2
1678.732	9753.2
1683.199	9388.2
1687.663	9120.2
1692.122	8872.2
1696.577	8793.2
1701.028	8789.2
1705.474	8882.2
1709.917	8991.2
1714.355	8963.2
1718.788	8909.2
1723.218	8790.2
1727.643	8588.2
1732.064	8465.2
1736.481	8265.2
1740.893	8093.2
1745.301	7868.2
1749.705	7672.2
1754.105	7410.2
1758.501	7219.2
1762.893	7016.2
1767.28	6846.2
1771.663	6712.2
1776.042	6568.2
1780.417	6559.2
1784.787	6597.2
1789.154	6641.2
1793.516	6816.2
1797.874	6906.2
1802.228	7033.2
1806.578	7075.2
1810.924	7140.2
1815.266	7014.2
1819.603	6942.2
1823.937	6831.2
1828.266	6661.2
1832.591	6605.2
1836.913	6502.2
1841.23	6456.2
1845.543	6380.2
1849.852	6351.2
1854.156	6312.2
1858.457	6351.2
1862.754	6329.2
1867.047	6304.2
1871.335	6277.2
1875.62	6281.2
1879.9	6256.2
1884.177	6228.2
1888.449	6143.2
1892.718	6102.2
1896.982	6047.2
1901.243	6009.2
1905.499	5956.2
1909.752	5930.2
1914	5931.2
1918.245	5958.2
1922.485	5998.2
1926.722	6103.2
1930.954	6186.2
1935.183	6223.2
1939.408	6277.2
1943.628	6319.2
1947.845	6318.2
1952.058	6290.2
1956.267	6240.2
1960.472	6184.2
1964.673	6098.2
1968.87	5979.2
1973.063	5911.2
1977.252	5814.2
1981.438	5751.2
1985.619	5719.2
1989.797	5675.2
1993.971	5621.2
1998.14	5563.2
2002.306	5550.2
2006.469	5518.2
2010.627	5491.2
2014.781	5448.2
2018.932	5383.2
2023.078	5335.2
2027.221	5285.2
2031.36	5208.2
2035.495	5122.2
2039.627	5015.2
2043.754	4983.2
2047.878	4925.2
2051.998	4921.2
2056.114	4872.2
2060.226	4905.2
2064.334	4888.2
2068.439	4922.2
2072.54	4937.2
2076.637	4953.2
2080.73	5002.2
2084.82	5021.2
2088.906	5077.2
2092.988	5061.2
2097.066	5045.2
2101.14	5042.2
2105.211	4949.2
2109.278	4987.2
2113.342	4952.2
2117.401	4903.2
2121.457	4835.2
2125.509	4855.2
2129.558	4826.2
2133.602	4783.2
2137.643	4763.2
2141.681	4715.2
2145.714	4719.2
2149.744	4662.2
2153.77	4627.2
2157.793	4577.2
2161.812	4538.2
2165.827	4436.2
2169.838	4398.2
2173.846	4334.2
2177.851	4242.2
2181.851	4202.2
2185.848	4162.2
2189.841	4125.2
2193.831	4068.2
2197.817	4034.2
2201.799	4009.2
2205.778	4000.2
2209.753	3992.2
2213.725	3957.2
2217.693	3927.2
2221.657	3942.2
2225.618	3912.2
2229.575	3906.2
2233.529	3882.2
2237.479	3854.2
2241.425	3795.2
2245.368	3752.2
2249.307	3667.2
2253.243	3625.2
2257.175	3580.2
2261.104	3556.2
2265.029	3505.2
2268.95	3466.2
2272.868	3445.2
2276.783	3394.2
2280.694	3357.2
2284.601	3345.2
2288.505	3313.2
2292.405	3290.2
2296.302	3250.2
2300.195	3198.2
2304.085	3170.2
2307.971	3112.2
2311.854	3055.2
2315.734	3011.2
2319.609	2985.2
2323.482	2950.2
2327.351	2924.2
2331.216	2907.2
2335.078	2877.2
2338.937	2848.2
2342.792	2863.2
2346.643	2837.2
2350.492	2832.2
2354.336	2823.2
2358.178	2833.2
2362.015	2844.2
2365.85	2861.2
2369.681	2880.2
2373.508	2847.2
2377.333	2860.2
2381.153	2832.2
2384.971	2844.2
2388.785	2808.2
2392.595	2767.2
2396.402	2737.2
2400.206	2727.2
2404.007	2720.2
2407.804	2697.2
2411.597	2674.2
2415.388	2686.2
2419.174	2647.2
2422.958	2622.2
2426.738	2607.2
2430.515	2583.2
2434.289	2572.2
2438.059	2531.2
2441.825	2515.2
2445.589	2502.2
2449.349	2479.2
2453.106	2440.2
2456.859	2398.2
2460.61	2377.2
2464.356	2327.2
2468.1	2339.2
2471.84	2305.2
2475.577	2278.2
2479.311	2280.2
2483.041	2269.2
2486.768	2240.2
2490.492	2242.2
2494.213	2217.2
2497.93	2228.2
2501.644	2228.2
2505.355	2194.2
2509.062	2180.2
2512.766	2186.2
2516.467	2165.2
2520.165	2175.2
2523.859	2142.2
2527.551	2102.2
2531.239	2109.2
2534.923	2111.2
2538.605	2110.2
2542.283	2084.2
2545.958	2074.2
2549.63	2073.2
2553.299	2072.2
2556.964	2094.2
2560.626	2072.2
2564.285	2054.2
2567.941	2053.2
2571.594	2021.2
2575.243	2054.2
2578.89	2021.2
2582.533	2002.2
2586.173	1963.2
2589.809	1955.2
2593.443	1951.2
2597.073	1899.2
2600.701	1909.2
2604.325	1893.2
2607.946	1895.2
2611.564	1867.2
2615.178	1857.2
2618.79	1830.2
2622.398	1836.2
2626.004	1805.2
2629.606	1797.2
2633.205	1760.2
2636.801	1741.2
2640.394	1716.2
2643.983	1676.2
2647.57	1662.2
2651.153	1661.2
2654.734	1596.2
2658.311	1593.2
2661.885	1563.2
2665.456	1554.2
2669.025	1515.2
2672.589	1502.2
2676.151	1492.2
2679.71	1464.2
2683.266	1439.2
2686.819	1424.2
2690.368	1385.2
2693.915	1362.2
2697.458	1329.2
2700.999	1312.2
2704.536	1298.2
2708.071	1262.2
2711.602	1208.2
2715.13	1194.2
2718.656	1156.2
2722.178	1135.2
2725.697	1114.2
2729.214	1118.2
2732.727	1111.2
2736.237	1111.2
2739.744	1123.2
2743.249	1124.2
2746.75	1118.2
2750.248	1163.2
2753.743	1142.2
2757.236	1152.2
2760.725	1187.2
2764.211	1191.2
2767.695	1169.2
2771.175	1186.2
2774.652	1164.2
2778.127	1159.2
2781.598	1148.2
2785.067	1135.2
2788.532	1141.2
2791.995	1152.2
2795.455	1133.2
2798.911	1141.2
2802.365	1141.2
2805.816	1148.2
2809.264	1138.2
2812.709	1126.2
2816.151	1131.2
2819.59	1130.2
2823.026	1118.2
2826.46	1098.2
2829.89	1141.2
2833.318	1122.2
2836.742	1141.2
2840.164	1135.2
2843.583	1135.2
2846.999	1180.2
2850.412	1164.2
2853.822	1171.2
2857.229	1189.2
2860.634	1212.2
2864.035	1222.2
2867.434	1238.2
2870.83	1259.2
2874.223	1254.2
2877.613	1303.2
2881	1315.2
2884.385	1298.2
2887.766	1285.2
2891.145	1313.2
2894.521	1310.2
2897.894	1295.2
2901.264	1305.2
2904.631	1304.2
2907.996	1308.2
2911.358	1307.2
2914.717	1299.2
2918.073	1324.2
2921.426	1306.2
2924.777	1354.2
2928.124	1364.2
2931.469	1380.2
2934.811	1404.2
2938.15	1400.2
2941.487	1426.2
2944.821	1434.2
2948.152	1432.2
2951.48	1414.2
2954.805	1416.2
2958.128	1389.2
2961.447	1398.2
2964.765	1375.2
2968.079	1372.2
2971.39	1382.2
2974.699	1407.2
2978.005	1440.2
2981.308	1440.2
2984.609	1471.2
2987.907	1506.2
2991.202	1530.2
2994.494	1555.2
2997.784	1596.2
3001.07	1604.2
3004.355	1620.2
3007.636	1644.2
3010.915	1677.2
3014.191	1690.2
3017.464	1705.2
3020.734	1723.2
3024.002	1732.2
3027.267	1753.2
3030.53	1740.2
3033.789	1760.2
3037.046	1795.2
3040.301	1798.2
3043.552	1836.2
3046.801	1880.2
3050.048	1925.2
3053.291	1966.2
3056.532	2046.2
3059.771	2079.2
3063.006	2145.2
3066.239	2199.2
3069.469	2265.2
3072.697	2320.2
3075.922	2369.2
3079.144	2424.2
3082.364	2476.2
3085.581	2515.2
3088.795	2569.2
3092.007	2631.2
3095.216	2672.2
3098.423	2750.2
3101.627	2809.2
3104.828	2887.2
3108.026	2917.2
3111.222	2996.2
3114.416	3068.2
3117.607	3136.2
3120.795	3194.2
3123.98	3250.2
3127.163	3359.2
3130.344	3436.2
3133.521	3505.2
3136.696	3576.2
3139.869	3642.2
3143.039	3683.2
3146.206	3745.2
3149.371	3830.2
3152.533	3855.2
3155.693	3884.2
3158.85	3883.2
3162.005	3891.2
3165.157	3944.2
3168.306	3913.2
3171.453	3953.2
3174.597	3948.2
3177.739	3931.2
3180.878	3955.2
3184.014	3955.2
3187.149	3941.2
3190.28	3961.2
3193.409	3954.2
3196.536	3955.2
3199.659	3984.2
3202.781	3988.2
3205.9	3940.2
3209.016	3962.2
3212.13	3913.2
3215.241	3945.2
3218.35	3879.2
3221.456	3828.2
3224.56	3779.2
3227.661	3729.2
3230.76	3722.2
3233.856	3664.2
3236.95	3650.2
3240.041	3609.2
3243.13	3581.2
3246.216	3554.2
3249.3	3544.2
3252.382	3513.2
3255.46	3485.2
3258.537	3489.2
3261.611	3485.2
3264.682	3477.2
3267.751	3466.2
3270.818	3494.2
3273.882	3473.2
3276.943	3440.2
3280.002	3416.2
3283.059	3413.2
3286.113	3347.2
3289.165	3291.2
3292.214	3272.2
3295.261	3206.2
3298.306	3128.2
3301.348	3114.2
3304.387	3061.2
3307.425	2997.2
3310.459	2960.2
3313.492	2906.2
3316.521	2857.2
3319.549	2858.2
3322.574	2803.2
3325.597	2782.2
3328.617	2765.2
3331.635	2726.2
3334.65	2736.2
3337.663	2726.2
3340.674	2701.2
3343.682	2673.2
3346.688	2679.2
3349.691	2666.2
3352.692	2658.2
3355.691	2626.2
3358.687	2629.2
3361.681	2551.2
3364.673	2547.2
3367.662	2491.2
3370.649	2471.2
3373.633	2418.2
3376.615	2389.2
3379.595	2356.2
3382.572	2315.2
3385.547	2287.2
3388.52	2263.2
3391.49	2216.2
3394.458	2175.2
3397.424	2126.2
3400.387	2119.2
3403.348	2101.2
3406.307	2078.2
3409.263	2057.2
3412.217	2028.2
3415.168	1968.2
3418.118	1974.2
3421.065	1947.2
3424.009	1935.2
3426.951	1887.2
3429.891	1860.2
3432.829	1813.2
3435.764	1753.2
3438.697	1726.2
3441.628	1656.2
3444.557	1610.2
3447.483	1581.2
3450.407	1527.2
3453.328	1463.2
3456.247	1414.2
3459.164	1356.2
3462.079	1331.2
3464.991	1271.2
3467.902	1190.2
3470.809	1191.2
3473.715	1123.2
3476.618	1063.2
3479.519	1054.2
3482.418	1013.2
3485.315	965.2
3488.209	934.2
3491.101	904.2
3493.99	874.2
3496.878	817.2
3499.763	778.2
3502.646	768.2
3505.527	722.2
3508.405	685.2
3511.281	653.2
3514.155	604.2
3517.027	555.2
3519.897	527.2
3522.764	496.2
3525.629	452.2
3528.492	421.2
3531.352	372.2
3534.211	314.2
3537.067	301.2
3539.921	265.2
3542.773	218.2
3545.622	190.2
3548.469	164.2
3551.315	135.2
3554.157	106.2
3556.998	90.2
3559.837	50.2
3562.673	31.2
3565.507	18.2
3568.339	8.2
3571.169	-25.8
3573.996	-33.8
3576.822	-63.8
3579.645	-77.8
3582.466	-89.8
3585.285	-119.8
3588.101	-142.8
3590.916	-160.8
3593.728	-182.8
3596.538	-203.8
3599.346	-214.8
3602.152	-227.8
3604.956	-248.8
3607.757	-262.8
3610.556	-271.8
3613.354	-286.8
3616.149	-295.8
3618.942	-309.8
3621.732	-328.8
3624.521	-323.8
3627.307	-335.8
3630.092	-351.8
3632.874	-357.8
3635.654	-365.8
3638.432	-380.8
3641.208	-384.8
3643.982	-401.8
3646.753	-405.8
3649.523	-411.8
3652.29	-422.8
3655.055	-431.8
3657.818	-435.8
3660.579	-444.8
3663.338	-457.8
3666.095	-475.8
3668.849	-482.8
3671.602	-486.8
3674.352	-489.8
3677.101	-499.8
3679.847	-513.8
3682.591	-511.8
3685.333	-524.8
3688.073	-525.8
3690.811	-531.8
3693.547	-531.8
3696.281	-545.8
3699.013	-547.8
3701.742	-556.8
3704.47	-560.8
3707.195	-574.8
3709.919	-558.8
3712.64	-567.8
3715.359	-576.8
3718.076	-569.8
3720.792	-579.8
3723.505	-582.8
3726.216	-584.8
3728.925	-586.8
3731.632	-598.8
3734.336	-597.8
3737.039	-606.8
3739.74	-604.8
3742.439	-601.8
3745.136	-610.8
3747.83	-609.8
3750.523	-606.8
3753.213	-607.8
3755.902	-609.8
3758.589	-613.8
3761.273	-608.8
3763.956	-616.8
3766.636	-613.8
3769.315	-625.8
3771.991	-624.8
3774.665	-622.8
3777.338	-628.8
3780.008	-630.8
3782.677	-623.8
3785.343	-633.8
3788.007	-626.8
3790.67	-633.8
3793.33	-638.8
3795.989	-636.8
3798.645	-636.8
3801.299	-636.8
3803.952	-637.8
3806.602	-643.8
3809.251	-647.8
3811.897	-640.8
3814.542	-644.8
3817.184	-646.8
3819.825	-646.8
3822.463	-643.8
3825.1	-649.8
3827.735	-651.8
3830.367	-646.8
3832.998	-649.8
3835.627	-654.8
3838.253	-653.8
3840.878	-651.8
3843.501	-654.8
3846.122	-652.8
3848.741	-650.8
3851.358	-656.8
3853.973	-655.8
3856.586	-656.8
3859.197	-659.8
3861.806	-657.8
3864.414	-648.8
3867.019	-650.8
3869.622	-654.8
3872.224	-651.8
3874.823	-642.8
3877.421	-621.8
3880.016	-609.8
3882.61	-582.8
3885.202	-584.8
3887.792	-603.8
3890.38	-623.8
3892.966	-647.8
3895.55	-650.8
3898.132	-654.8
3900.713	-666.8
3903.291	-668.8
3905.868	-671.8
3908.442	-669.8
3911.015	-665.8
3913.586	-667.8
3916.155	-666.8
3918.722	-664.8
3921.287	-668.8
3923.85	-662.8
3926.411	-671.8
3928.971	-665.8
3931.528	-669.8
3934.084	-659.8
3936.638	-672.8
3939.19	-671.8
3941.74	-679.8
3944.288	-678.8
3946.834	-675.8
3949.378	-674.8
3951.921	-677.8
3954.462	-675.8
3957	-665.8
3959.537	-669.8
3962.072	-668.8
3964.606	-668.8
3967.137	-667.8
3969.667	-666.8
3972.194	-663.8
3974.72	-653.8
3977.244	-658.8
3979.766	-654.8
3982.286	-654.8
3984.805	-653.8
3987.321	-656.8
3989.836	-659.8
3992.349	-658.8
3994.86	-655.8
3997.369	-664.8
3999.877	-656.8
4002.382	-652.8
4004.886	-661.8
4007.388	-660.8
4009.888	-653.8
4012.386	-656.8
4014.883	-654.8
4017.377	-652.8
4019.87	-654.8
4022.361	-660.8
4024.85	-658.8
4027.338	-658.8
4029.823	-655.8
4032.307	-660.8
4034.789	-657.8
4037.269	-665.8
4039.747	-663.8
4042.224	-653.8
4044.699	-652.8
4047.172	-658.8
4049.643	-654.8
4052.112	-655.8
4054.58	-654.8
4057.046	-661.8
4059.51	-661.8
4061.972	-668.8
4064.432	-658.8
4066.891	-659.8
4069.348	-668.8
4071.803	-666.8
4074.256	-658.8
4076.708	-658.8
4079.158	-659.8
4081.606	-655.8
4084.052	-658.8
4086.497	-661.8
4088.939	-652.8
4091.38	-656.8
4093.819	-654.8
4096.257	-697.8
4098.693	-699.8
4101.127	-697.8
4103.559	-700.8
4105.989	-412.8
4108.418	-395.8
4110.845	-380.8
4113.27	-354.8
4115.694	-303.8
4118.115	-245.8
4120.535	-652.8
4122.954	-659.8
4125.37	-659.8
4127.785	-661.8
4130.198	-666.8
4132.609	-658.8
4135.019	-699.8
4137.427	-698.8
4139.833	-696.8
4142.237	-691.8
