Data from 2018-2-7_conc=5_RamanShift_06.txt Node
Date: Tue Feb 13 13:59:13 IST 2018
User: aro
Spectrometer: QEPB0276
Trigger mode: 0
Integration Time (sec): 3.000000E1
Scans to average: 1
Electric dark correction enabled: true
Nonlinearity correction enabled: false
Boxcar width: 0
XAxis mode: Raman Shifts
Number of Pixels in Spectrum: 1044
>>>>>Begin Spectral Data<<<<<
160.701	-153.1
166.742	21.9
172.777	557.9
178.805	2146.9
184.826	5884.9
190.841	12139.9
196.849	19219.9
202.85	24094.9
208.845	25575.9
214.833	25335.9
220.815	24839.9
226.789	24558.9
232.758	24467.9
238.719	24207.9
244.674	23798.9
250.623	23368.9
256.565	22809.9
262.5	22272.9
268.429	21882.9
274.351	21536.9
280.267	21075.9
286.176	20944.9
292.079	20634.9
297.975	20402.9
303.865	20202.9
309.748	20154.9
315.625	19938.9
321.495	19871.9
327.359	19792.9
333.217	19601.9
339.068	19661.9
344.912	19696.9
350.751	19675.9
356.583	19617.9
362.408	19667.9
368.227	19579.9
374.04	19613.9
379.847	19622.9
385.647	19731.9
391.44	19826.9
397.228	19863.9
403.009	19983.9
408.784	20049.9
414.553	20089.9
420.315	20124.9
426.071	20199.9
431.821	20151.9
437.565	20136.9
443.302	20069.9
449.033	20048.9
454.758	20038.9
460.477	19971.9
466.189	19900.9
471.896	19879.9
477.596	19867.9
483.29	19806.9
488.978	19739.9
494.66	19672.9
500.335	19553.9
506.005	19319.9
511.668	19082.9
517.325	18816.9
522.977	18711.9
528.622	18550.9
534.261	18446.9
539.894	18378.9
545.521	18279.9
551.141	18246.9
556.756	18133.9
562.365	18059.9
567.968	18028.9
573.565	17941.9
579.155	17852.9
584.74	17776.9
590.319	17707.9
595.892	17620.9
601.459	17588.9
607.02	17528.9
612.575	17395.9
618.124	17255.9
623.667	17187.9
629.204	17080.9
634.735	17051.9
640.261	16943.9
645.781	16898.9
651.294	16833.9
656.802	16852.9
662.304	16823.9
667.8	16782.9
673.29	16757.9
678.775	16689.9
684.254	16653.9
689.726	16628.9
695.193	16525.9
700.655	16479.9
706.11	16392.9
711.56	16344.9
717.004	16235.9
722.442	16174.9
727.874	16134.9
733.301	16027.9
738.722	16005.9
744.137	15926.9
749.547	15937.9
754.951	15931.9
760.349	15970.9
765.741	15931.9
771.128	15975.9
776.509	15987.9
781.885	15980.9
787.254	15901.9
792.618	15900.9
797.977	15728.9
803.33	15683.9
808.677	15590.9
814.019	15511.9
819.355	15463.9
824.686	15342.9
830.011	15304.9
835.33	15375.9
840.644	15270.9
845.952	15356.9
851.255	15365.9
856.552	15362.9
861.844	15310.9
867.13	15314.9
872.41	15220.9
877.686	15171.9
882.955	15096.9
888.219	14948.9
893.478	14744.9
898.731	14549.9
903.979	14374.9
909.221	14317.9
914.458	14225.9
919.69	14253.9
924.916	14337.9
930.136	14338.9
935.351	14365.9
940.561	14345.9
945.766	14316.9
950.965	14287.9
956.158	14130.9
961.347	13976.9
966.529	13787.9
971.707	13646.9
976.879	13468.9
982.046	13399.9
987.208	13338.9
992.364	13337.9
997.515	13420.9
1002.66	13571.9
1007.801	13697.9
1012.936	13780.9
1018.066	13799.9
1023.19	13733.9
1028.309	13772.9
1033.423	13758.9
1038.532	13663.9
1043.636	13519.9
1048.734	13401.9
1053.827	13196.9
1058.915	13068.9
1063.998	13005.9
1069.075	12925.9
1074.147	12931.9
1079.214	13061.9
1084.276	13126.9
1089.333	13159.9
1094.385	13214.9
1099.431	13241.9
1104.472	13297.9
1109.509	13188.9
1114.54	13069.9
1119.565	12879.9
1124.586	12715.9
1129.602	12592.9
1134.613	12465.9
1139.618	12428.9
1144.619	12361.9
1149.614	12363.9
1154.604	12400.9
1159.589	12425.9
1164.57	12445.9
1169.545	12534.9
1174.515	12496.9
1179.48	12446.9
1184.44	12383.9
1189.395	12245.9
1194.345	12128.9
1199.29	12124.9
1204.23	12129.9
1209.165	12137.9
1214.095	12217.9
1219.021	12288.9
1223.941	12350.9
1228.856	12405.9
1233.766	12443.9
1238.672	12469.9
1243.572	12444.9
1248.467	12371.9
1253.358	12261.9
1258.244	12030.9
1263.124	11891.9
1268	11697.9
1272.871	11545.9
1277.737	11457.9
1282.599	11434.9
1287.455	11386.9
1292.306	11395.9
1297.153	11453.9
1301.995	11513.9
1306.832	11523.9
1311.664	11555.9
1316.491	11516.9
1321.314	11403.9
1326.132	11239.9
1330.945	10947.9
1335.753	10690.9
1340.556	10486.9
1345.354	10252.9
1350.148	10055.9
1354.937	9973.9
1359.722	10025.9
1364.501	9991.9
1369.276	10106.9
1374.046	10240.9
1378.811	10383.9
1383.572	10454.9
1388.327	10510.9
1393.079	10425.9
1397.825	10322.9
1402.567	10207.9
1407.304	10104.9
1412.036	10021.9
1416.764	9904.9
1421.487	9891.9
1426.205	9806.9
1430.919	9811.9
1435.628	9819.9
1440.333	9825.9
1445.032	9843.9
1449.727	9865.9
1454.418	9828.9
1459.104	9718.9
1463.785	9516.9
1468.462	9320.9
1473.134	9081.9
1477.802	8890.9
1482.465	8725.9
1487.123	8612.9
1491.777	8610.9
1496.426	8633.9
1501.071	8708.9
1505.711	8837.9
1510.347	8949.9
1514.978	9139.9
1519.604	9245.9
1524.226	9310.9
1528.844	9360.9
1533.457	9365.9
1538.065	9304.9
1542.669	9302.9
1547.269	9218.9
1551.864	9170.9
1556.454	9134.9
1561.041	9133.9
1565.622	9112.9
1570.199	9144.9
1574.772	9202.9
1579.34	9314.9
1583.904	9397.9
1588.464	9437.9
1593.019	9400.9
1597.569	9416.9
1602.115	9332.9
1606.657	9292.9
1611.195	9243.9
1615.728	9181.9
1620.256	9116.9
1624.78	9108.9
1629.3	9168.9
1633.816	9186.9
1638.327	9240.9
1642.834	9252.9
1647.336	9319.9
1651.834	9296.9
1656.328	9265.9
1660.817	9218.9
1665.302	9069.9
1669.783	8887.9
1674.259	8703.9
1678.732	8400.9
1683.199	8130.9
1687.663	7801.9
1692.122	7544.9
1696.577	7391.9
1701.028	7400.9
1705.474	7442.9
1709.917	7493.9
1714.355	7502.9
1718.788	7488.9
1723.218	7380.9
1727.643	7276.9
1732.064	7133.9
1736.481	6947.9
1740.893	6767.9
1745.301	6628.9
1749.705	6384.9
1754.105	6230.9
1758.501	6022.9
1762.893	5901.9
1767.28	5731.9
1771.663	5571.9
1776.042	5472.9
1780.417	5431.9
1784.787	5388.9
1789.154	5438.9
1793.516	5491.9
1797.874	5601.9
1802.228	5733.9
1806.578	5780.9
1810.924	5792.9
1815.266	5776.9
1819.603	5665.9
1823.937	5615.9
1828.266	5511.9
1832.591	5441.9
1836.913	5370.9
1841.23	5325.9
1845.543	5274.9
1849.852	5253.9
1854.156	5222.9
1858.457	5248.9
1862.754	5212.9
1867.047	5219.9
1871.335	5210.9
1875.62	5162.9
1879.9	5149.9
1884.177	5100.9
1888.449	5066.9
1892.718	5003.9
1896.982	4935.9
1901.243	4886.9
1905.499	4859.9
1909.752	4829.9
1914	4796.9
1918.245	4806.9
1922.485	4846.9
1926.722	4901.9
1930.954	4949.9
1935.183	5003.9
1939.408	5066.9
1943.628	5089.9
1947.845	5116.9
1952.058	5079.9
1956.267	5054.9
1960.472	5015.9
1964.673	4947.9
1968.87	4867.9
1973.063	4793.9
1977.252	4742.9
1981.438	4722.9
1985.619	4630.9
1989.797	4636.9
1993.971	4593.9
1998.14	4568.9
2002.306	4589.9
2006.469	4563.9
2010.627	4522.9
2014.781	4477.9
2018.932	4443.9
2023.078	4427.9
2027.221	4372.9
2031.36	4264.9
2035.495	4230.9
2039.627	4155.9
2043.754	4120.9
2047.878	4038.9
2051.998	4018.9
2056.114	4006.9
2060.226	4012.9
2064.334	4005.9
2068.439	4014.9
2072.54	4034.9
2076.637	4031.9
2080.73	4110.9
2084.82	4108.9
2088.906	4099.9
2092.988	4110.9
2097.066	4103.9
2101.14	4091.9
2105.211	4051.9
2109.278	4041.9
2113.342	4032.9
2117.401	3989.9
2121.457	3997.9
2125.509	3977.9
2129.558	3952.9
2133.602	3935.9
2137.643	3905.9
2141.681	3883.9
2145.714	3876.9
2149.744	3871.9
2153.77	3834.9
2157.793	3778.9
2161.812	3757.9
2165.827	3698.9
2169.838	3617.9
2173.846	3576.9
2177.851	3503.9
2181.851	3435.9
2185.848	3423.9
2189.841	3406.9
2193.831	3399.9
2197.817	3319.9
2201.799	3313.9
2205.778	3311.9
2209.753	3310.9
2213.725	3265.9
2217.693	3260.9
2221.657	3253.9
2225.618	3268.9
2229.575	3237.9
2233.529	3206.9
2237.479	3175.9
2241.425	3141.9
2245.368	3105.9
2249.307	3058.9
2253.243	3015.9
2257.175	2984.9
2261.104	2952.9
2265.029	2885.9
2268.95	2847.9
2272.868	2852.9
2276.783	2785.9
2280.694	2779.9
2284.601	2761.9
2288.505	2731.9
2292.405	2712.9
2296.302	2683.9
2300.195	2646.9
2304.085	2598.9
2307.971	2562.9
2311.854	2549.9
2315.734	2491.9
2319.609	2479.9
2323.482	2446.9
2327.351	2413.9
2331.216	2415.9
2335.078	2379.9
2338.937	2391.9
2342.792	2365.9
2346.643	2386.9
2350.492	2369.9
2354.336	2366.9
2358.178	2393.9
2362.015	2391.9
2365.85	2401.9
2369.681	2412.9
2373.508	2408.9
2377.333	2394.9
2381.153	2407.9
2384.971	2379.9
2388.785	2368.9
2392.595	2362.9
2396.402	2340.9
2400.206	2284.9
2404.007	2294.9
2407.804	2292.9
2411.597	2257.9
2415.388	2237.9
2419.174	2247.9
2422.958	2250.9
2426.738	2227.9
2430.515	2190.9
2434.289	2175.9
2438.059	2137.9
2441.825	2150.9
2445.589	2106.9
2449.349	2099.9
2453.106	2066.9
2456.859	2034.9
2460.61	1991.9
2464.356	1974.9
2468.1	1961.9
2471.84	1941.9
2475.577	1919.9
2479.311	1925.9
2483.041	1896.9
2486.768	1891.9
2490.492	1886.9
2494.213	1877.9
2497.93	1866.9
2501.644	1847.9
2505.355	1828.9
2509.062	1819.9
2512.766	1815.9
2516.467	1802.9
2520.165	1786.9
2523.859	1781.9
2527.551	1759.9
2531.239	1731.9
2534.923	1728.9
2538.605	1717.9
2542.283	1710.9
2545.958	1704.9
2549.63	1696.9
2553.299	1700.9
2556.964	1698.9
2560.626	1701.9
2564.285	1682.9
2567.941	1684.9
2571.594	1664.9
2575.243	1669.9
2578.89	1665.9
2582.533	1640.9
2586.173	1633.9
2589.809	1596.9
2593.443	1587.9
2597.073	1584.9
2600.701	1573.9
2604.325	1570.9
2607.946	1547.9
2611.564	1545.9
2615.178	1538.9
2618.79	1527.9
2622.398	1500.9
2626.004	1483.9
2629.606	1484.9
2633.205	1435.9
2636.801	1450.9
2640.394	1411.9
2643.983	1392.9
2647.57	1377.9
2651.153	1362.9
2654.734	1337.9
2658.311	1301.9
2661.885	1282.9
2665.456	1278.9
2669.025	1263.9
2672.589	1242.9
2676.151	1233.9
2679.71	1209.9
2683.266	1202.9
2686.819	1162.9
2690.368	1144.9
2693.915	1112.9
2697.458	1116.9
2700.999	1069.9
2704.536	1045.9
2708.071	1031.9
2711.602	1001.9
2715.13	988.9
2718.656	962.9
2722.178	933.9
2725.697	920.9
2729.214	908.9
2732.727	898.9
2736.237	894.9
2739.744	889.9
2743.249	897.9
2746.75	866.9
2750.248	880.9
2753.743	893.9
2757.236	921.9
2760.725	907.9
2764.211	929.9
2767.695	931.9
2771.175	935.9
2774.652	944.9
2778.127	930.9
2781.598	911.9
2785.067	943.9
2788.532	922.9
2791.995	915.9
2795.455	908.9
2798.911	933.9
2802.365	918.9
2805.816	912.9
2809.264	913.9
2812.709	920.9
2816.151	908.9
2819.59	923.9
2823.026	908.9
2826.46	917.9
2829.89	902.9
2833.318	936.9
2836.742	927.9
2840.164	943.9
2843.583	942.9
2846.999	960.9
2850.412	976.9
2853.822	987.9
2857.229	997.9
2860.634	1022.9
2864.035	1040.9
2867.434	1065.9
2870.83	1081.9
2874.223	1090.9
2877.613	1127.9
2881	1148.9
2884.385	1155.9
2887.766	1153.9
2891.145	1145.9
2894.521	1139.9
2897.894	1140.9
2901.264	1146.9
2904.631	1127.9
2907.996	1134.9
2911.358	1143.9
2914.717	1155.9
2918.073	1182.9
2921.426	1189.9
2924.777	1200.9
2928.124	1224.9
2931.469	1253.9
2934.811	1285.9
2938.15	1263.9
2941.487	1305.9
2944.821	1297.9
2948.152	1298.9
2951.48	1304.9
2954.805	1259.9
2958.128	1262.9
2961.447	1265.9
2964.765	1251.9
2968.079	1248.9
2971.39	1258.9
2974.699	1268.9
2978.005	1292.9
2981.308	1308.9
2984.609	1342.9
2987.907	1356.9
2991.202	1368.9
2994.494	1420.9
2997.784	1442.9
3001.07	1453.9
3004.355	1495.9
3007.636	1527.9
3010.915	1530.9
3014.191	1553.9
3017.464	1560.9
3020.734	1591.9
3024.002	1585.9
3027.267	1610.9
3030.53	1618.9
3033.789	1657.9
3037.046	1645.9
3040.301	1700.9
3043.552	1731.9
3046.801	1752.9
3050.048	1810.9
3053.291	1858.9
3056.532	1888.9
3059.771	1953.9
3063.006	2012.9
3066.239	2085.9
3069.469	2150.9
3072.697	2192.9
3075.922	2255.9
3079.144	2301.9
3082.364	2375.9
3085.581	2406.9
3088.795	2471.9
3092.007	2538.9
3095.216	2566.9
3098.423	2624.9
3101.627	2688.9
3104.828	2750.9
3108.026	2781.9
3111.222	2860.9
3114.416	2934.9
3117.607	3000.9
3120.795	3086.9
3123.98	3128.9
3127.163	3211.9
3130.344	3273.9
3133.521	3365.9
3136.696	3439.9
3139.869	3505.9
3143.039	3588.9
3146.206	3625.9
3149.371	3680.9
3152.533	3714.9
3155.693	3720.9
3158.85	3733.9
3162.005	3767.9
3165.157	3815.9
3168.306	3799.9
3171.453	3770.9
3174.597	3811.9
3177.739	3792.9
3180.878	3820.9
3184.014	3850.9
3187.149	3826.9
3190.28	3835.9
3193.409	3825.9
3196.536	3842.9
3199.659	3824.9
3202.781	3857.9
3205.9	3840.9
3209.016	3855.9
3212.13	3852.9
3215.241	3794.9
3218.35	3781.9
3221.456	3712.9
3224.56	3681.9
3227.661	3662.9
3230.76	3585.9
3233.856	3579.9
3236.95	3487.9
3240.041	3495.9
3243.13	3467.9
3246.216	3436.9
3249.3	3416.9
3252.382	3393.9
3255.46	3382.9
3258.537	3380.9
3261.611	3398.9
3264.682	3371.9
3267.751	3374.9
3270.818	3377.9
3273.882	3358.9
3276.943	3321.9
3280.002	3343.9
3283.059	3289.9
3286.113	3233.9
3289.165	3222.9
3292.214	3161.9
3295.261	3116.9
3298.306	3054.9
3301.348	3029.9
3304.387	2967.9
3307.425	2925.9
3310.459	2884.9
3313.492	2861.9
3316.521	2827.9
3319.549	2767.9
3322.574	2746.9
3325.597	2746.9
3328.617	2719.9
3331.635	2715.9
3334.65	2682.9
3337.663	2645.9
3340.674	2644.9
3343.682	2616.9
3346.688	2630.9
3349.691	2623.9
3352.692	2616.9
3355.691	2591.9
3358.687	2562.9
3361.681	2535.9
3364.673	2495.9
3367.662	2453.9
3370.649	2431.9
3373.633	2395.9
3376.615	2364.9
3379.595	2323.9
3382.572	2291.9
3385.547	2261.9
3388.52	2237.9
3391.49	2176.9
3394.458	2142.9
3397.424	2122.9
3400.387	2107.9
3403.348	2081.9
3406.307	2040.9
3409.263	2010.9
3412.217	2009.9
3415.168	1960.9
3418.118	1953.9
3421.065	1921.9
3424.009	1901.9
3426.951	1870.9
3429.891	1832.9
3432.829	1768.9
3435.764	1742.9
3438.697	1688.9
3441.628	1636.9
3444.557	1607.9
3447.483	1550.9
3450.407	1505.9
3453.328	1447.9
3456.247	1389.9
3459.164	1350.9
3462.079	1300.9
3464.991	1258.9
3467.902	1173.9
3470.809	1160.9
3473.715	1121.9
3476.618	1087.9
3479.519	1034.9
3482.418	1002.9
3485.315	971.9
3488.209	921.9
3491.101	879.9
3493.99	872.9
3496.878	817.9
3499.763	785.9
3502.646	743.9
3505.527	726.9
3508.405	697.9
3511.281	660.9
3514.155	618.9
3517.027	543.9
3519.897	531.9
3522.764	489.9
3525.629	462.9
3528.492	415.9
3531.352	367.9
3534.211	341.9
3537.067	287.9
3539.921	272.9
3542.773	263.9
3545.622	204.9
3548.469	189.9
3551.315	156.9
3554.157	133.9
3556.998	109.9
3559.837	82.9
3562.673	50.9
3565.507	42.9
3568.339	25.9
3571.169	-8.1
3573.996	-16.1
3576.822	-42.1
3579.645	-55.1
3582.466	-73.1
3585.285	-104.1
3588.101	-108.1
3590.916	-131.1
3593.728	-146.1
3596.538	-161.1
3599.346	-181.1
3602.152	-204.1
3604.956	-213.1
3607.757	-234.1
3610.556	-242.1
3613.354	-257.1
3616.149	-271.1
3618.942	-276.1
3621.732	-295.1
3624.521	-301.1
3627.307	-310.1
3630.092	-327.1
3632.874	-332.1
3635.654	-344.1
3638.432	-335.1
3641.208	-355.1
3643.982	-366.1
3646.753	-370.1
3649.523	-389.1
3652.29	-386.1
3655.055	-394.1
3657.818	-407.1
3660.579	-416.1
3663.338	-420.1
3666.095	-436.1
3668.849	-453.1
3671.602	-454.1
3674.352	-446.1
3677.101	-465.1
3679.847	-474.1
3682.591	-476.1
3685.333	-480.1
3688.073	-484.1
3690.811	-489.1
3693.547	-487.1
3696.281	-503.1
3699.013	-502.1
3701.742	-512.1
3704.47	-509.1
3707.195	-524.1
3709.919	-522.1
3712.64	-531.1
3715.359	-529.1
3718.076	-525.1
3720.792	-538.1
3723.505	-533.1
3726.216	-540.1
3728.925	-546.1
3731.632	-553.1
3734.336	-555.1
3737.039	-557.1
3739.74	-564.1
3742.439	-561.1
3745.136	-561.1
3747.83	-564.1
3750.523	-566.1
3753.213	-567.1
3755.902	-572.1
3758.589	-569.1
3761.273	-568.1
3763.956	-575.1
3766.636	-570.1
3769.315	-589.1
3771.991	-588.1
3774.665	-582.1
3777.338	-583.1
3780.008	-579.1
3782.677	-584.1
3785.343	-587.1
3788.007	-581.1
3790.67	-587.1
3793.33	-589.1
3795.989	-586.1
3798.645	-594.1
3801.299	-598.1
3803.952	-592.1
3806.602	-596.1
3809.251	-603.1
3811.897	-595.1
3814.542	-594.1
3817.184	-599.1
3819.825	-597.1
3822.463	-605.1
3825.1	-602.1
3827.735	-606.1
3830.367	-602.1
3832.998	-607.1
3835.627	-611.1
3838.253	-611.1
3840.878	-606.1
3843.501	-613.1
3846.122	-603.1
3848.741	-609.1
3851.358	-609.1
3853.973	-586.1
3856.586	-584.1
3859.197	-601.1
3861.806	-604.1
3864.414	-602.1
3867.019	-604.1
3869.622	-605.1
3872.224	-603.1
3874.823	-592.1
3877.421	-570.1
3880.016	-554.1
3882.61	-523.1
3885.202	-518.1
3887.792	-552.1
3890.38	-583.1
3892.966	-598.1
3895.55	-606.1
3898.132	-612.1
3900.713	-617.1
3903.291	-626.1
3905.868	-624.1
3908.442	-622.1
3911.015	-617.1
3913.586	-619.1
3916.155	-621.1
3918.722	-619.1
3921.287	-621.1
3923.85	-621.1
3926.411	-626.1
3928.971	-615.1
3931.528	-621.1
3934.084	-615.1
3936.638	-621.1
3939.19	-625.1
3941.74	-630.1
3944.288	-633.1
3946.834	-625.1
3949.378	-630.1
3951.921	-624.1
3954.462	-622.1
3957	-626.1
3959.537	-616.1
3962.072	-617.1
3964.606	-620.1
3967.137	-625.1
3969.667	-624.1
3972.194	-616.1
3974.72	-616.1
3977.244	-612.1
3979.766	-610.1
3982.286	-610.1
3984.805	-607.1
3987.321	-610.1
3989.836	-615.1
3992.349	-611.1
3994.86	-608.1
3997.369	-619.1
3999.877	-608.1
4002.382	-607.1
4004.886	-612.1
4007.388	-613.1
4009.888	-613.1
4012.386	-607.1
4014.883	-612.1
4017.377	-614.1
4019.87	-608.1
4022.361	-618.1
4024.85	-613.1
4027.338	-617.1
4029.823	-613.1
4032.307	-621.1
4034.789	-617.1
4037.269	-617.1
4039.747	-616.1
4042.224	-607.1
4044.699	-612.1
4047.172	-615.1
4049.643	-616.1
4052.112	-612.1
4054.58	-610.1
4057.046	-614.1
4059.51	-612.1
4061.972	-619.1
4064.432	-614.1
4066.891	-613.1
4069.348	-617.1
4071.803	-617.1
4074.256	-612.1
4076.708	-609.1
4079.158	-613.1
4081.606	-611.1
4084.052	-618.1
4086.497	-622.1
4088.939	-612.1
4091.38	-607.1
4093.819	-610.1
4096.257	-646.1
4098.693	-643.1
4101.127	-647.1
4103.559	-647.1
4105.989	-381.1
4108.418	-373.1
4110.845	-347.1
4113.27	-329.1
4115.694	-281.1
4118.115	-241.1
4120.535	-612.1
4122.954	-616.1
4125.37	-611.1
4127.785	-614.1
4130.198	-611.1
4132.609	-604.1
4135.019	-645.1
4137.427	-642.1
4139.833	-642.1
4142.237	-644.1
