Data from 2018-2-7_conc=2_RamanShift_26.txt Node
Date: Tue Feb 13 12:02:44 IST 2018
User: aro
Spectrometer: QEPB0276
Trigger mode: 0
Integration Time (sec): 3.000000E1
Scans to average: 1
Electric dark correction enabled: true
Nonlinearity correction enabled: false
Boxcar width: 0
XAxis mode: Raman Shifts
Number of Pixels in Spectrum: 1044
>>>>>Begin Spectral Data<<<<<
160.701	-149.8
166.742	23.2
172.777	550.2
178.805	2154.2
184.826	5836.2
190.841	12055.2
196.849	19026.2
202.85	23863.2
208.845	25349.2
214.833	25117.2
220.815	24627.2
226.789	24344.2
232.758	24288.2
238.719	24073.2
244.674	23727.2
250.623	23264.2
256.565	22778.2
262.5	22241.2
268.429	21807.2
274.351	21548.2
280.267	21293.2
286.176	20977.2
292.079	20784.2
297.975	20533.2
303.865	20344.2
309.748	20184.2
315.625	20089.2
321.495	19934.2
327.359	19849.2
333.217	19868.2
339.068	19758.2
344.912	19805.2
350.751	19761.2
356.583	19759.2
362.408	19701.2
368.227	19671.2
374.04	19711.2
379.847	19839.2
385.647	19820.2
391.44	19866.2
397.228	20007.2
403.009	20103.2
408.784	20154.2
414.553	20176.2
420.315	20288.2
426.071	20193.2
431.821	20235.2
437.565	20216.2
443.302	20223.2
449.033	20137.2
454.758	20086.2
460.477	20078.2
466.189	20036.2
471.896	19954.2
477.596	19914.2
483.29	19865.2
488.978	19890.2
494.66	19770.2
500.335	19658.2
506.005	19455.2
511.668	19250.2
517.325	19064.2
522.977	18847.2
528.622	18708.2
534.261	18562.2
539.894	18487.2
545.521	18415.2
551.141	18387.2
556.756	18329.2
562.365	18219.2
567.968	18200.2
573.565	18101.2
579.155	18037.2
584.74	17971.2
590.319	17923.2
595.892	17816.2
601.459	17819.2
607.02	17683.2
612.575	17557.2
618.124	17483.2
623.667	17341.2
629.204	17321.2
634.735	17240.2
640.261	17163.2
645.781	17100.2
651.294	17145.2
656.802	17101.2
662.304	17041.2
667.8	16958.2
673.29	16966.2
678.775	16922.2
684.254	16870.2
689.726	16805.2
695.193	16768.2
700.655	16703.2
706.11	16582.2
711.56	16512.2
717.004	16491.2
722.442	16400.2
727.874	16304.2
733.301	16252.2
738.722	16243.2
744.137	16215.2
749.547	16187.2
754.951	16177.2
760.349	16161.2
765.741	16222.2
771.128	16227.2
776.509	16232.2
781.885	16277.2
787.254	16191.2
792.618	16128.2
797.977	16008.2
803.33	15892.2
808.677	15814.2
814.019	15757.2
819.355	15714.2
824.686	15635.2
830.011	15613.2
835.33	15515.2
840.644	15531.2
845.952	15559.2
851.255	15697.2
856.552	15643.2
861.844	15612.2
867.13	15608.2
872.41	15505.2
877.686	15456.2
882.955	15314.2
888.219	15239.2
893.478	15098.2
898.731	14884.2
903.979	14728.2
909.221	14679.2
914.458	14558.2
919.69	14540.2
924.916	14633.2
930.136	14649.2
935.351	14683.2
940.561	14737.2
945.766	14695.2
950.965	14575.2
956.158	14461.2
961.347	14304.2
966.529	14156.2
971.707	13941.2
976.879	13788.2
982.046	13713.2
987.208	13661.2
992.364	13658.2
997.515	13740.2
1002.66	13876.2
1007.801	14072.2
1012.936	14132.2
1018.066	14140.2
1023.19	14094.2
1028.309	14134.2
1033.423	14106.2
1038.532	13982.2
1043.636	13911.2
1048.734	13733.2
1053.827	13567.2
1058.915	13448.2
1063.998	13327.2
1069.075	13324.2
1074.147	13336.2
1079.214	13398.2
1084.276	13443.2
1089.333	13520.2
1094.385	13642.2
1099.431	13682.2
1104.472	13654.2
1109.509	13566.2
1114.54	13412.2
1119.565	13241.2
1124.586	13050.2
1129.602	13006.2
1134.613	12819.2
1139.618	12781.2
1144.619	12797.2
1149.614	12748.2
1154.604	12851.2
1159.589	12830.2
1164.57	12871.2
1169.545	12895.2
1174.515	12919.2
1179.48	12798.2
1184.44	12692.2
1189.395	12633.2
1194.345	12546.2
1199.29	12496.2
1204.23	12503.2
1209.165	12530.2
1214.095	12621.2
1219.021	12686.2
1223.941	12745.2
1228.856	12884.2
1233.766	12857.2
1238.672	12851.2
1243.572	12878.2
1248.467	12784.2
1253.358	12645.2
1258.244	12471.2
1263.124	12233.2
1268	12106.2
1272.871	11932.2
1277.737	11827.2
1282.599	11827.2
1287.455	11813.2
1292.306	11785.2
1297.153	11839.2
1301.995	11936.2
1306.832	11953.2
1311.664	11915.2
1316.491	11935.2
1321.314	11830.2
1326.132	11621.2
1330.945	11356.2
1335.753	11096.2
1340.556	10776.2
1345.354	10595.2
1350.148	10430.2
1354.937	10355.2
1359.722	10373.2
1364.501	10458.2
1369.276	10576.2
1374.046	10795.2
1378.811	10915.2
1383.572	11021.2
1388.327	11053.2
1393.079	10969.2
1397.825	10866.2
1402.567	10684.2
1407.304	10538.2
1412.036	10372.2
1416.764	10354.2
1421.487	10280.2
1426.205	10241.2
1430.919	10166.2
1435.628	10175.2
1440.333	10230.2
1445.032	10219.2
1449.727	10332.2
1454.418	10242.2
1459.104	10142.2
1463.785	9904.2
1468.462	9749.2
1473.134	9482.2
1477.802	9341.2
1482.465	9167.2
1487.123	9104.2
1491.777	9052.2
1496.426	9108.2
1501.071	9227.2
1505.711	9375.2
1510.347	9558.2
1514.978	9702.2
1519.604	9883.2
1524.226	9911.2
1528.844	9989.2
1533.457	9913.2
1538.065	9920.2
1542.669	9875.2
1547.269	9771.2
1551.864	9704.2
1556.454	9701.2
1561.041	9639.2
1565.622	9673.2
1570.199	9649.2
1574.772	9723.2
1579.34	9806.2
1583.904	9862.2
1588.464	9917.2
1593.019	9875.2
1597.569	9844.2
1602.115	9816.2
1606.657	9673.2
1611.195	9665.2
1615.728	9591.2
1620.256	9519.2
1624.78	9582.2
1629.3	9567.2
1633.816	9618.2
1638.327	9641.2
1642.834	9704.2
1647.336	9692.2
1651.834	9716.2
1656.328	9697.2
1660.817	9616.2
1665.302	9566.2
1669.783	9400.2
1674.259	9159.2
1678.732	8903.2
1683.199	8631.2
1687.663	8271.2
1692.122	8053.2
1696.577	7946.2
1701.028	7945.2
1705.474	8057.2
1709.917	8159.2
1714.355	8142.2
1718.788	8098.2
1723.218	7974.2
1727.643	7834.2
1732.064	7657.2
1736.481	7515.2
1740.893	7310.2
1745.301	7155.2
1749.705	6948.2
1754.105	6729.2
1758.501	6527.2
1762.893	6337.2
1767.28	6198.2
1771.663	6096.2
1776.042	5942.2
1780.417	5897.2
1784.787	5898.2
1789.154	5987.2
1793.516	6111.2
1797.874	6268.2
1802.228	6333.2
1806.578	6399.2
1810.924	6404.2
1815.266	6388.2
1819.603	6242.2
1823.937	6131.2
1828.266	6042.2
1832.591	5984.2
1836.913	5857.2
1841.23	5829.2
1845.543	5811.2
1849.852	5754.2
1854.156	5724.2
1858.457	5728.2
1862.754	5695.2
1867.047	5709.2
1871.335	5745.2
1875.62	5673.2
1879.9	5668.2
1884.177	5620.2
1888.449	5585.2
1892.718	5522.2
1896.982	5453.2
1901.243	5426.2
1905.499	5394.2
1909.752	5387.2
1914	5375.2
1918.245	5380.2
1922.485	5400.2
1926.722	5493.2
1930.954	5537.2
1935.183	5637.2
1939.408	5672.2
1943.628	5690.2
1947.845	5706.2
1952.058	5719.2
1956.267	5671.2
1960.472	5617.2
1964.673	5509.2
1968.87	5416.2
1973.063	5330.2
1977.252	5279.2
1981.438	5219.2
1985.619	5181.2
1989.797	5117.2
1993.971	5108.2
1998.14	5077.2
2002.306	5066.2
2006.469	5036.2
2010.627	4986.2
2014.781	4985.2
2018.932	4926.2
2023.078	4882.2
2027.221	4815.2
2031.36	4710.2
2035.495	4654.2
2039.627	4599.2
2043.754	4553.2
2047.878	4530.2
2051.998	4477.2
2056.114	4478.2
2060.226	4435.2
2064.334	4469.2
2068.439	4456.2
2072.54	4543.2
2076.637	4544.2
2080.73	4541.2
2084.82	4593.2
2088.906	4608.2
2092.988	4623.2
2097.066	4600.2
2101.14	4581.2
2105.211	4533.2
2109.278	4520.2
2113.342	4495.2
2117.401	4468.2
2121.457	4431.2
2125.509	4440.2
2129.558	4387.2
2133.602	4378.2
2137.643	4354.2
2141.681	4347.2
2145.714	4329.2
2149.744	4308.2
2153.77	4258.2
2157.793	4228.2
2161.812	4155.2
2165.827	4106.2
2169.838	4047.2
2173.846	3968.2
2177.851	3899.2
2181.851	3845.2
2185.848	3819.2
2189.841	3779.2
2193.831	3736.2
2197.817	3686.2
2201.799	3693.2
2205.778	3711.2
2209.753	3663.2
2213.725	3641.2
2217.693	3642.2
2221.657	3632.2
2225.618	3633.2
2229.575	3591.2
2233.529	3593.2
2237.479	3526.2
2241.425	3500.2
2245.368	3456.2
2249.307	3448.2
2253.243	3351.2
2257.175	3347.2
2261.104	3277.2
2265.029	3226.2
2268.95	3214.2
2272.868	3171.2
2276.783	3124.2
2280.694	3115.2
2284.601	3071.2
2288.505	3051.2
2292.405	3034.2
2296.302	3017.2
2300.195	2991.2
2304.085	2939.2
2307.971	2907.2
2311.854	2850.2
2315.734	2821.2
2319.609	2776.2
2323.482	2734.2
2327.351	2734.2
2331.216	2704.2
2335.078	2703.2
2338.937	2696.2
2342.792	2662.2
2346.643	2640.2
2350.492	2622.2
2354.336	2656.2
2358.178	2677.2
2362.015	2673.2
2365.85	2705.2
2369.681	2680.2
2373.508	2676.2
2377.333	2670.2
2381.153	2692.2
2384.971	2672.2
2388.785	2636.2
2392.595	2603.2
2396.402	2597.2
2400.206	2571.2
2404.007	2548.2
2407.804	2542.2
2411.597	2528.2
2415.388	2518.2
2419.174	2479.2
2422.958	2466.2
2426.738	2458.2
2430.515	2429.2
2434.289	2409.2
2438.059	2399.2
2441.825	2392.2
2445.589	2359.2
2449.349	2331.2
2453.106	2309.2
2456.859	2259.2
2460.61	2231.2
2464.356	2212.2
2468.1	2193.2
2471.84	2171.2
2475.577	2155.2
2479.311	2154.2
2483.041	2111.2
2486.768	2121.2
2490.492	2126.2
2494.213	2113.2
2497.93	2087.2
2501.644	2092.2
2505.355	2070.2
2509.062	2057.2
2512.766	2062.2
2516.467	2047.2
2520.165	2037.2
2523.859	2022.2
2527.551	2001.2
2531.239	1994.2
2534.923	1988.2
2538.605	1956.2
2542.283	1962.2
2545.958	1969.2
2549.63	1982.2
2553.299	1971.2
2556.964	1960.2
2560.626	1970.2
2564.285	1929.2
2567.941	1934.2
2571.594	1939.2
2575.243	1924.2
2578.89	1922.2
2582.533	1918.2
2586.173	1871.2
2589.809	1844.2
2593.443	1836.2
2597.073	1826.2
2600.701	1805.2
2604.325	1792.2
2607.946	1803.2
2611.564	1786.2
2615.178	1768.2
2618.79	1758.2
2622.398	1721.2
2626.004	1723.2
2629.606	1710.2
2633.205	1664.2
2636.801	1651.2
2640.394	1648.2
2643.983	1606.2
2647.57	1602.2
2651.153	1591.2
2654.734	1537.2
2658.311	1515.2
2661.885	1496.2
2665.456	1478.2
2669.025	1458.2
2672.589	1440.2
2676.151	1441.2
2679.71	1408.2
2683.266	1374.2
2686.819	1369.2
2690.368	1335.2
2693.915	1328.2
2697.458	1288.2
2700.999	1235.2
2704.536	1227.2
2708.071	1194.2
2711.602	1176.2
2715.13	1167.2
2718.656	1122.2
2722.178	1104.2
2725.697	1096.2
2729.214	1071.2
2732.727	1052.2
2736.237	1047.2
2739.744	1059.2
2743.249	1040.2
2746.75	1061.2
2750.248	1075.2
2753.743	1085.2
2757.236	1107.2
2760.725	1120.2
2764.211	1137.2
2767.695	1113.2
2771.175	1117.2
2774.652	1115.2
2778.127	1107.2
2781.598	1104.2
2785.067	1095.2
2788.532	1105.2
2791.995	1100.2
2795.455	1084.2
2798.911	1105.2
2802.365	1102.2
2805.816	1106.2
2809.264	1089.2
2812.709	1095.2
2816.151	1081.2
2819.59	1086.2
2823.026	1106.2
2826.46	1077.2
2829.89	1099.2
2833.318	1084.2
2836.742	1075.2
2840.164	1093.2
2843.583	1109.2
2846.999	1107.2
2850.412	1121.2
2853.822	1142.2
2857.229	1153.2
2860.634	1169.2
2864.035	1183.2
2867.434	1189.2
2870.83	1227.2
2874.223	1236.2
2877.613	1270.2
2881	1279.2
2884.385	1273.2
2887.766	1280.2
2891.145	1295.2
2894.521	1275.2
2897.894	1260.2
2901.264	1261.2
2904.631	1267.2
2907.996	1254.2
2911.358	1259.2
2914.717	1273.2
2918.073	1295.2
2921.426	1304.2
2924.777	1304.2
2928.124	1330.2
2931.469	1339.2
2934.811	1375.2
2938.15	1372.2
2941.487	1396.2
2944.821	1401.2
2948.152	1386.2
2951.48	1353.2
2954.805	1355.2
2958.128	1343.2
2961.447	1334.2
2964.765	1329.2
2968.079	1340.2
2971.39	1337.2
2974.699	1345.2
2978.005	1386.2
2981.308	1421.2
2984.609	1440.2
2987.907	1435.2
2991.202	1493.2
2994.494	1504.2
2997.784	1557.2
3001.07	1554.2
3004.355	1597.2
3007.636	1604.2
3010.915	1628.2
3014.191	1624.2
3017.464	1655.2
3020.734	1672.2
3024.002	1672.2
3027.267	1676.2
3030.53	1676.2
3033.789	1712.2
3037.046	1703.2
3040.301	1765.2
3043.552	1781.2
3046.801	1852.2
3050.048	1871.2
3053.291	1898.2
3056.532	1963.2
3059.771	1992.2
3063.006	2066.2
3066.239	2114.2
3069.469	2158.2
3072.697	2232.2
3075.922	2283.2
3079.144	2339.2
3082.364	2378.2
3085.581	2418.2
3088.795	2463.2
3092.007	2539.2
3095.216	2599.2
3098.423	2637.2
3101.627	2695.2
3104.828	2769.2
3108.026	2796.2
3111.222	2865.2
3114.416	2932.2
3117.607	3012.2
3120.795	3068.2
3123.98	3136.2
3127.163	3205.2
3130.344	3293.2
3133.521	3369.2
3136.696	3435.2
3139.869	3476.2
3143.039	3550.2
3146.206	3610.2
3149.371	3633.2
3152.533	3680.2
3155.693	3719.2
3158.85	3745.2
3162.005	3752.2
3165.157	3776.2
3168.306	3761.2
3171.453	3783.2
3174.597	3798.2
3177.739	3799.2
3180.878	3801.2
3184.014	3797.2
3187.149	3800.2
3190.28	3782.2
3193.409	3826.2
3196.536	3804.2
3199.659	3817.2
3202.781	3809.2
3205.9	3830.2
3209.016	3799.2
3212.13	3794.2
3215.241	3763.2
3218.35	3744.2
3221.456	3689.2
3224.56	3672.2
3227.661	3610.2
3230.76	3554.2
3233.856	3514.2
3236.95	3500.2
3240.041	3464.2
3243.13	3444.2
3246.216	3414.2
3249.3	3399.2
3252.382	3387.2
3255.46	3369.2
3258.537	3376.2
3261.611	3351.2
3264.682	3369.2
3267.751	3360.2
3270.818	3352.2
3273.882	3355.2
3276.943	3318.2
3280.002	3314.2
3283.059	3254.2
3286.113	3235.2
3289.165	3190.2
3292.214	3102.2
3295.261	3092.2
3298.306	3029.2
3301.348	2988.2
3304.387	2928.2
3307.425	2910.2
3310.459	2862.2
3313.492	2800.2
3316.521	2768.2
3319.549	2757.2
3322.574	2713.2
3325.597	2711.2
3328.617	2684.2
3331.635	2637.2
3334.65	2660.2
3337.663	2614.2
3340.674	2613.2
3343.682	2607.2
3346.688	2584.2
3349.691	2574.2
3352.692	2567.2
3355.691	2554.2
3358.687	2528.2
3361.681	2482.2
3364.673	2440.2
3367.662	2420.2
3370.649	2385.2
3373.633	2359.2
3376.615	2336.2
3379.595	2321.2
3382.572	2259.2
3385.547	2217.2
3388.52	2178.2
3391.49	2148.2
3394.458	2123.2
3397.424	2068.2
3400.387	2060.2
3403.348	2059.2
3406.307	2002.2
3409.263	1998.2
3412.217	1960.2
3415.168	1937.2
3418.118	1935.2
3421.065	1903.2
3424.009	1886.2
3426.951	1830.2
3429.891	1805.2
3432.829	1770.2
3435.764	1703.2
3438.697	1678.2
3441.628	1630.2
3444.557	1570.2
3447.483	1527.2
3450.407	1503.2
3453.328	1426.2
3456.247	1391.2
3459.164	1341.2
3462.079	1298.2
3464.991	1239.2
3467.902	1185.2
3470.809	1164.2
3473.715	1099.2
3476.618	1068.2
3479.519	1038.2
3482.418	1008.2
3485.315	970.2
3488.209	920.2
3491.101	879.2
3493.99	859.2
3496.878	832.2
3499.763	777.2
3502.646	768.2
3505.527	727.2
3508.405	698.2
3511.281	652.2
3514.155	612.2
3517.027	564.2
3519.897	543.2
3522.764	514.2
3525.629	455.2
3528.492	424.2
3531.352	370.2
3534.211	337.2
3537.067	305.2
3539.921	273.2
3542.773	259.2
3545.622	218.2
3548.469	188.2
3551.315	155.2
3554.157	122.2
3556.998	103.2
3559.837	84.2
3562.673	65.2
3565.507	30.2
3568.339	21.2
3571.169	5.2
3573.996	-14.8
3576.822	-37.8
3579.645	-60.8
3582.466	-77.8
3585.285	-92.8
3588.101	-104.8
3590.916	-112.8
3593.728	-148.8
3596.538	-161.8
3599.346	-176.8
3602.152	-192.8
3604.956	-211.8
3607.757	-215.8
3610.556	-240.8
3613.354	-249.8
3616.149	-261.8
3618.942	-274.8
3621.732	-286.8
3624.521	-295.8
3627.307	-312.8
3630.092	-307.8
3632.874	-325.8
3635.654	-335.8
3638.432	-338.8
3641.208	-342.8
3643.982	-359.8
3646.753	-367.8
3649.523	-377.8
3652.29	-381.8
3655.055	-393.8
3657.818	-397.8
3660.579	-414.8
3663.338	-416.8
3666.095	-429.8
3668.849	-445.8
3671.602	-453.8
3674.352	-452.8
3677.101	-456.8
3679.847	-472.8
3682.591	-465.8
3685.333	-471.8
3688.073	-477.8
3690.811	-483.8
3693.547	-485.8
3696.281	-496.8
3699.013	-493.8
3701.742	-503.8
3704.47	-511.8
3707.195	-524.8
3709.919	-516.8
3712.64	-520.8
3715.359	-531.8
3718.076	-530.8
3720.792	-530.8
3723.505	-534.8
3726.216	-545.8
3728.925	-545.8
3731.632	-551.8
3734.336	-548.8
3737.039	-553.8
3739.74	-555.8
3742.439	-549.8
3745.136	-558.8
3747.83	-564.8
3750.523	-560.8
3753.213	-557.8
3755.902	-561.8
3758.589	-562.8
3761.273	-561.8
3763.956	-572.8
3766.636	-570.8
3769.315	-573.8
3771.991	-573.8
3774.665	-579.8
3777.338	-581.8
3780.008	-579.8
3782.677	-583.8
3785.343	-582.8
3788.007	-576.8
3790.67	-580.8
3793.33	-588.8
3795.989	-587.8
3798.645	-589.8
3801.299	-589.8
3803.952	-593.8
3806.602	-592.8
3809.251	-595.8
3811.897	-587.8
3814.542	-591.8
3817.184	-589.8
3819.825	-592.8
3822.463	-586.8
3825.1	-598.8
3827.735	-603.8
3830.367	-605.8
3832.998	-603.8
3835.627	-603.8
3838.253	-605.8
3840.878	-606.8
3843.501	-605.8
3846.122	-607.8
3848.741	-597.8
3851.358	-603.8
3853.973	-604.8
3856.586	-605.8
3859.197	-609.8
3861.806	-607.8
3864.414	-600.8
3867.019	-602.8
3869.622	-607.8
3872.224	-600.8
3874.823	-595.8
3877.421	-572.8
3880.016	-567.8
3882.61	-538.8
3885.202	-537.8
3887.792	-554.8
3890.38	-581.8
3892.966	-594.8
3895.55	-604.8
3898.132	-612.8
3900.713	-617.8
3903.291	-611.8
3905.868	-614.8
3908.442	-617.8
3911.015	-616.8
3913.586	-619.8
3916.155	-617.8
3918.722	-620.8
3921.287	-621.8
3923.85	-615.8
3926.411	-621.8
3928.971	-624.8
3931.528	-619.8
3934.084	-615.8
3936.638	-623.8
3939.19	-624.8
3941.74	-624.8
3944.288	-620.8
3946.834	-622.8
3949.378	-622.8
3951.921	-621.8
3954.462	-620.8
3957	-617.8
3959.537	-619.8
3962.072	-615.8
3964.606	-613.8
3967.137	-622.8
3969.667	-622.8
3972.194	-620.8
3974.72	-616.8
3977.244	-616.8
3979.766	-614.8
3982.286	-615.8
3984.805	-606.8
3987.321	-609.8
3989.836	-606.8
3992.349	-606.8
3994.86	-605.8
3997.369	-611.8
3999.877	-606.8
4002.382	-607.8
4004.886	-613.8
4007.388	-614.8
4009.888	-609.8
4012.386	-609.8
4014.883	-609.8
4017.377	-610.8
4019.87	-603.8
4022.361	-607.8
4024.85	-608.8
4027.338	-607.8
4029.823	-605.8
4032.307	-607.8
4034.789	-616.8
4037.269	-615.8
4039.747	-621.8
4042.224	-610.8
4044.699	-616.8
4047.172	-613.8
4049.643	-609.8
4052.112	-612.8
4054.58	-609.8
4057.046	-617.8
4059.51	-616.8
4061.972	-614.8
4064.432	-612.8
4066.891	-610.8
4069.348	-614.8
4071.803	-614.8
4074.256	-613.8
4076.708	-609.8
4079.158	-616.8
4081.606	-606.8
4084.052	-604.8
4086.497	-611.8
4088.939	-608.8
4091.38	-603.8
4093.819	-612.8
4096.257	-642.8
4098.693	-645.8
4101.127	-646.8
4103.559	-648.8
4105.989	-380.8
4108.418	-369.8
4110.845	-335.8
4113.27	-328.8
4115.694	-273.8
4118.115	-240.8
4120.535	-614.8
4122.954	-618.8
4125.37	-609.8
4127.785	-613.8
4130.198	-617.8
4132.609	-609.8
4135.019	-645.8
4137.427	-644.8
4139.833	-642.8
4142.237	-644.8
