Data from 2018-2-7_conc=2_RamanShift_27.txt Node
Date: Tue Feb 13 12:03:44 IST 2018
User: aro
Spectrometer: QEPB0276
Trigger mode: 0
Integration Time (sec): 3.000000E1
Scans to average: 1
Electric dark correction enabled: true
Nonlinearity correction enabled: false
Boxcar width: 0
XAxis mode: Raman Shifts
Number of Pixels in Spectrum: 1044
>>>>>Begin Spectral Data<<<<<
160.701	-143.8
166.742	30.2
172.777	548.2
178.805	2119.2
184.826	5779.2
190.841	11915.2
196.849	18776.2
202.85	23519.2
208.845	25126.2
214.833	24851.2
220.815	24467.2
226.789	24283.2
232.758	24285.2
238.719	24082.2
244.674	23743.2
250.623	23342.2
256.565	22923.2
262.5	22471.2
268.429	22148.2
274.351	21758.2
280.267	21511.2
286.176	21374.2
292.079	21079.2
297.975	20880.2
303.865	20755.2
309.748	20624.2
315.625	20479.2
321.495	20362.2
327.359	20325.2
333.217	20249.2
339.068	20261.2
344.912	20198.2
350.751	20202.2
356.583	20174.2
362.408	20119.2
368.227	20144.2
374.04	20198.2
379.847	20202.2
385.647	20266.2
391.44	20393.2
397.228	20390.2
403.009	20445.2
408.784	20589.2
414.553	20667.2
420.315	20679.2
426.071	20687.2
431.821	20646.2
437.565	20708.2
443.302	20689.2
449.033	20610.2
454.758	20617.2
460.477	20525.2
466.189	20517.2
471.896	20439.2
477.596	20393.2
483.29	20414.2
488.978	20347.2
494.66	20261.2
500.335	20158.2
506.005	19930.2
511.668	19689.2
517.325	19456.2
522.977	19369.2
528.622	19152.2
534.261	19059.2
539.894	18999.2
545.521	18893.2
551.141	18793.2
556.756	18743.2
562.365	18667.2
567.968	18613.2
573.565	18550.2
579.155	18502.2
584.74	18431.2
590.319	18354.2
595.892	18200.2
601.459	18252.2
607.02	18087.2
612.575	17988.2
618.124	17914.2
623.667	17832.2
629.204	17762.2
634.735	17679.2
640.261	17597.2
645.781	17569.2
651.294	17517.2
656.802	17472.2
662.304	17450.2
667.8	17348.2
673.29	17372.2
678.775	17290.2
684.254	17249.2
689.726	17309.2
695.193	17162.2
700.655	17050.2
706.11	16983.2
711.56	16927.2
717.004	16836.2
722.442	16793.2
727.874	16729.2
733.301	16668.2
738.722	16579.2
744.137	16555.2
749.547	16558.2
754.951	16524.2
760.349	16555.2
765.741	16576.2
771.128	16549.2
776.509	16581.2
781.885	16554.2
787.254	16567.2
792.618	16450.2
797.977	16381.2
803.33	16216.2
808.677	16188.2
814.019	16094.2
819.355	15941.2
824.686	15908.2
830.011	15873.2
835.33	15914.2
840.644	15892.2
845.952	15909.2
851.255	15959.2
856.552	15951.2
861.844	15893.2
867.13	15912.2
872.41	15841.2
877.686	15730.2
882.955	15642.2
888.219	15495.2
893.478	15324.2
898.731	15140.2
903.979	14985.2
909.221	14848.2
914.458	14851.2
919.69	14835.2
924.916	14901.2
930.136	14889.2
935.351	14946.2
940.561	14942.2
945.766	14973.2
950.965	14821.2
956.158	14738.2
961.347	14549.2
966.529	14405.2
971.707	14162.2
976.879	14009.2
982.046	13952.2
987.208	13904.2
992.364	13881.2
997.515	13933.2
1002.66	14087.2
1007.801	14180.2
1012.936	14373.2
1018.066	14329.2
1023.19	14392.2
1028.309	14359.2
1033.423	14293.2
1038.532	14221.2
1043.636	14076.2
1048.734	13893.2
1053.827	13755.2
1058.915	13581.2
1063.998	13470.2
1069.075	13486.2
1074.147	13456.2
1079.214	13548.2
1084.276	13609.2
1089.333	13698.2
1094.385	13775.2
1099.431	13795.2
1104.472	13801.2
1109.509	13670.2
1114.54	13556.2
1119.565	13392.2
1124.586	13158.2
1129.602	13056.2
1134.613	12987.2
1139.618	12915.2
1144.619	12868.2
1149.614	12865.2
1154.604	12865.2
1159.589	12899.2
1164.57	12925.2
1169.545	12968.2
1174.515	12949.2
1179.48	12836.2
1184.44	12764.2
1189.395	12705.2
1194.345	12639.2
1199.29	12554.2
1204.23	12537.2
1209.165	12596.2
1214.095	12650.2
1219.021	12718.2
1223.941	12815.2
1228.856	12843.2
1233.766	12893.2
1238.672	12925.2
1243.572	12843.2
1248.467	12759.2
1253.358	12608.2
1258.244	12452.2
1263.124	12269.2
1268	12089.2
1272.871	11894.2
1277.737	11812.2
1282.599	11753.2
1287.455	11785.2
1292.306	11778.2
1297.153	11871.2
1301.995	11858.2
1306.832	11896.2
1311.664	11915.2
1316.491	11866.2
1321.314	11732.2
1326.132	11557.2
1330.945	11269.2
1335.753	11046.2
1340.556	10781.2
1345.354	10634.2
1350.148	10469.2
1354.937	10399.2
1359.722	10404.2
1364.501	10467.2
1369.276	10492.2
1374.046	10646.2
1378.811	10786.2
1383.572	10814.2
1388.327	10858.2
1393.079	10845.2
1397.825	10678.2
1402.567	10569.2
1407.304	10442.2
1412.036	10293.2
1416.764	10217.2
1421.487	10186.2
1426.205	10106.2
1430.919	10097.2
1435.628	10096.2
1440.333	10137.2
1445.032	10136.2
1449.727	10167.2
1454.418	10128.2
1459.104	10038.2
1463.785	9810.2
1468.462	9612.2
1473.134	9423.2
1477.802	9252.2
1482.465	9102.2
1487.123	9030.2
1491.777	9012.2
1496.426	8997.2
1501.071	9124.2
1505.711	9297.2
1510.347	9426.2
1514.978	9514.2
1519.604	9649.2
1524.226	9758.2
1528.844	9719.2
1533.457	9748.2
1538.065	9694.2
1542.669	9586.2
1547.269	9525.2
1551.864	9506.2
1556.454	9468.2
1561.041	9445.2
1565.622	9461.2
1570.199	9453.2
1574.772	9474.2
1579.34	9602.2
1583.904	9631.2
1588.464	9639.2
1593.019	9596.2
1597.569	9564.2
1602.115	9546.2
1606.657	9520.2
1611.195	9435.2
1615.728	9332.2
1620.256	9291.2
1624.78	9311.2
1629.3	9325.2
1633.816	9353.2
1638.327	9381.2
1642.834	9409.2
1647.336	9416.2
1651.834	9464.2
1656.328	9408.2
1660.817	9396.2
1665.302	9278.2
1669.783	9107.2
1674.259	8901.2
1678.732	8651.2
1683.199	8352.2
1687.663	8119.2
1692.122	7877.2
1696.577	7776.2
1701.028	7777.2
1705.474	7801.2
1709.917	7850.2
1714.355	7849.2
1718.788	7780.2
1723.218	7661.2
1727.643	7595.2
1732.064	7462.2
1736.481	7292.2
1740.893	7054.2
1745.301	6920.2
1749.705	6703.2
1754.105	6521.2
1758.501	6350.2
1762.893	6133.2
1767.28	6016.2
1771.663	5917.2
1776.042	5822.2
1780.417	5768.2
1784.787	5771.2
1789.154	5829.2
1793.516	5909.2
1797.874	6027.2
1802.228	6117.2
1806.578	6171.2
1810.924	6145.2
1815.266	6112.2
1819.603	6029.2
1823.937	5908.2
1828.266	5829.2
1832.591	5734.2
1836.913	5648.2
1841.23	5626.2
1845.543	5595.2
1849.852	5541.2
1854.156	5557.2
1858.457	5554.2
1862.754	5571.2
1867.047	5520.2
1871.335	5533.2
1875.62	5509.2
1879.9	5474.2
1884.177	5427.2
1888.449	5395.2
1892.718	5344.2
1896.982	5290.2
1901.243	5225.2
1905.499	5191.2
1909.752	5179.2
1914	5184.2
1918.245	5163.2
1922.485	5213.2
1926.722	5269.2
1930.954	5319.2
1935.183	5396.2
1939.408	5467.2
1943.628	5464.2
1947.845	5453.2
1952.058	5443.2
1956.267	5420.2
1960.472	5366.2
1964.673	5259.2
1968.87	5175.2
1973.063	5113.2
1977.252	5022.2
1981.438	4979.2
1985.619	4929.2
1989.797	4890.2
1993.971	4888.2
1998.14	4841.2
2002.306	4829.2
2006.469	4825.2
2010.627	4778.2
2014.781	4754.2
2018.932	4670.2
2023.078	4660.2
2027.221	4579.2
2031.36	4532.2
2035.495	4450.2
2039.627	4393.2
2043.754	4346.2
2047.878	4292.2
2051.998	4264.2
2056.114	4238.2
2060.226	4265.2
2064.334	4259.2
2068.439	4254.2
2072.54	4297.2
2076.637	4316.2
2080.73	4346.2
2084.82	4381.2
2088.906	4383.2
2092.988	4392.2
2097.066	4363.2
2101.14	4349.2
2105.211	4301.2
2109.278	4242.2
2113.342	4252.2
2117.401	4211.2
2121.457	4212.2
2125.509	4179.2
2129.558	4175.2
2133.602	4141.2
2137.643	4127.2
2141.681	4108.2
2145.714	4066.2
2149.744	4050.2
2153.77	4037.2
2157.793	3956.2
2161.812	3923.2
2165.827	3871.2
2169.838	3820.2
2173.846	3735.2
2177.851	3696.2
2181.851	3630.2
2185.848	3586.2
2189.841	3567.2
2193.831	3530.2
2197.817	3491.2
2201.799	3458.2
2205.778	3457.2
2209.753	3447.2
2213.725	3448.2
2217.693	3421.2
2221.657	3413.2
2225.618	3390.2
2229.575	3399.2
2233.529	3343.2
2237.479	3335.2
2241.425	3277.2
2245.368	3223.2
2249.307	3192.2
2253.243	3178.2
2257.175	3115.2
2261.104	3056.2
2265.029	3035.2
2268.95	2995.2
2272.868	2988.2
2276.783	2916.2
2280.694	2875.2
2284.601	2886.2
2288.505	2866.2
2292.405	2840.2
2296.302	2818.2
2300.195	2754.2
2304.085	2708.2
2307.971	2688.2
2311.854	2664.2
2315.734	2606.2
2319.609	2592.2
2323.482	2551.2
2327.351	2528.2
2331.216	2516.2
2335.078	2491.2
2338.937	2498.2
2342.792	2469.2
2346.643	2458.2
2350.492	2466.2
2354.336	2479.2
2358.178	2471.2
2362.015	2461.2
2365.85	2493.2
2369.681	2483.2
2373.508	2482.2
2377.333	2488.2
2381.153	2478.2
2384.971	2468.2
2388.785	2439.2
2392.595	2408.2
2396.402	2420.2
2400.206	2382.2
2404.007	2364.2
2407.804	2344.2
2411.597	2324.2
2415.388	2301.2
2419.174	2299.2
2422.958	2257.2
2426.738	2263.2
2430.515	2253.2
2434.289	2248.2
2438.059	2208.2
2441.825	2198.2
2445.589	2182.2
2449.349	2135.2
2453.106	2119.2
2456.859	2096.2
2460.61	2077.2
2464.356	2041.2
2468.1	2021.2
2471.84	2001.2
2475.577	1983.2
2479.311	1982.2
2483.041	1962.2
2486.768	1961.2
2490.492	1945.2
2494.213	1952.2
2497.93	1917.2
2501.644	1905.2
2505.355	1913.2
2509.062	1891.2
2512.766	1888.2
2516.467	1866.2
2520.165	1874.2
2523.859	1863.2
2527.551	1868.2
2531.239	1831.2
2534.923	1841.2
2538.605	1820.2
2542.283	1803.2
2545.958	1810.2
2549.63	1795.2
2553.299	1772.2
2556.964	1802.2
2560.626	1778.2
2564.285	1752.2
2567.941	1782.2
2571.594	1737.2
2575.243	1738.2
2578.89	1731.2
2582.533	1725.2
2586.173	1704.2
2589.809	1698.2
2593.443	1673.2
2597.073	1658.2
2600.701	1651.2
2604.325	1632.2
2607.946	1616.2
2611.564	1611.2
2615.178	1619.2
2618.79	1574.2
2622.398	1581.2
2626.004	1563.2
2629.606	1508.2
2633.205	1503.2
2636.801	1497.2
2640.394	1462.2
2643.983	1460.2
2647.57	1430.2
2651.153	1398.2
2654.734	1381.2
2658.311	1381.2
2661.885	1346.2
2665.456	1331.2
2669.025	1312.2
2672.589	1298.2
2676.151	1277.2
2679.71	1261.2
2683.266	1219.2
2686.819	1213.2
2690.368	1178.2
2693.915	1182.2
2697.458	1136.2
2700.999	1092.2
2704.536	1090.2
2708.071	1061.2
2711.602	1047.2
2715.13	1014.2
2718.656	991.2
2722.178	967.2
2725.697	964.2
2729.214	946.2
2732.727	940.2
2736.237	946.2
2739.744	947.2
2743.249	952.2
2746.75	943.2
2750.248	958.2
2753.743	956.2
2757.236	986.2
2760.725	1006.2
2764.211	996.2
2767.695	985.2
2771.175	991.2
2774.652	974.2
2778.127	979.2
2781.598	976.2
2785.067	966.2
2788.532	965.2
2791.995	974.2
2795.455	959.2
2798.911	956.2
2802.365	969.2
2805.816	962.2
2809.264	954.2
2812.709	953.2
2816.151	956.2
2819.59	959.2
2823.026	968.2
2826.46	971.2
2829.89	959.2
2833.318	950.2
2836.742	951.2
2840.164	980.2
2843.583	985.2
2846.999	978.2
2850.412	987.2
2853.822	998.2
2857.229	1026.2
2860.634	1029.2
2864.035	1050.2
2867.434	1069.2
2870.83	1077.2
2874.223	1096.2
2877.613	1113.2
2881	1113.2
2884.385	1148.2
2887.766	1142.2
2891.145	1141.2
2894.521	1131.2
2897.894	1113.2
2901.264	1118.2
2904.631	1124.2
2907.996	1123.2
2911.358	1144.2
2914.717	1126.2
2918.073	1135.2
2921.426	1156.2
2924.777	1178.2
2928.124	1190.2
2931.469	1199.2
2934.811	1219.2
2938.15	1233.2
2941.487	1254.2
2944.821	1238.2
2948.152	1231.2
2951.48	1248.2
2954.805	1213.2
2958.128	1198.2
2961.447	1198.2
2964.765	1190.2
2968.079	1198.2
2971.39	1196.2
2974.699	1241.2
2978.005	1251.2
2981.308	1261.2
2984.609	1275.2
2987.907	1306.2
2991.202	1330.2
2994.494	1369.2
2997.784	1379.2
3001.07	1390.2
3004.355	1412.2
3007.636	1423.2
3010.915	1451.2
3014.191	1492.2
3017.464	1512.2
3020.734	1490.2
3024.002	1514.2
3027.267	1517.2
3030.53	1516.2
3033.789	1544.2
3037.046	1553.2
3040.301	1575.2
3043.552	1614.2
3046.801	1648.2
3050.048	1678.2
3053.291	1723.2
3056.532	1781.2
3059.771	1836.2
3063.006	1892.2
3066.239	1934.2
3069.469	1981.2
3072.697	2027.2
3075.922	2098.2
3079.144	2148.2
3082.364	2168.2
3085.581	2228.2
3088.795	2288.2
3092.007	2322.2
3095.216	2371.2
3098.423	2430.2
3101.627	2431.2
3104.828	2514.2
3108.026	2598.2
3111.222	2619.2
3114.416	2691.2
3117.607	2754.2
3120.795	2804.2
3123.98	2896.2
3127.163	2960.2
3130.344	3045.2
3133.521	3099.2
3136.696	3163.2
3139.869	3229.2
3143.039	3309.2
3146.206	3319.2
3149.371	3353.2
3152.533	3390.2
3155.693	3408.2
3158.85	3434.2
3162.005	3484.2
3165.157	3458.2
3168.306	3486.2
3171.453	3477.2
3174.597	3509.2
3177.739	3512.2
3180.878	3498.2
3184.014	3506.2
3187.149	3499.2
3190.28	3517.2
3193.409	3514.2
3196.536	3517.2
3199.659	3517.2
3202.781	3523.2
3205.9	3521.2
3209.016	3541.2
3212.13	3505.2
3215.241	3449.2
3218.35	3451.2
3221.456	3422.2
3224.56	3362.2
3227.661	3352.2
3230.76	3311.2
3233.856	3258.2
3236.95	3236.2
3240.041	3210.2
3243.13	3197.2
3246.216	3182.2
3249.3	3144.2
3252.382	3137.2
3255.46	3137.2
3258.537	3108.2
3261.611	3105.2
3264.682	3083.2
3267.751	3083.2
3270.818	3092.2
3273.882	3076.2
3276.943	3063.2
3280.002	3047.2
3283.059	3013.2
3286.113	2979.2
3289.165	2917.2
3292.214	2896.2
3295.261	2849.2
3298.306	2804.2
3301.348	2752.2
3304.387	2693.2
3307.425	2662.2
3310.459	2621.2
3313.492	2588.2
3316.521	2552.2
3319.549	2532.2
3322.574	2489.2
3325.597	2479.2
3328.617	2456.2
3331.635	2424.2
3334.65	2422.2
3337.663	2417.2
3340.674	2410.2
3343.682	2399.2
3346.688	2385.2
3349.691	2362.2
3352.692	2343.2
3355.691	2343.2
3358.687	2327.2
3361.681	2303.2
3364.673	2243.2
3367.662	2253.2
3370.649	2184.2
3373.633	2186.2
3376.615	2156.2
3379.595	2114.2
3382.572	2072.2
3385.547	2040.2
3388.52	2033.2
3391.49	1955.2
3394.458	1943.2
3397.424	1908.2
3400.387	1886.2
3403.348	1867.2
3406.307	1830.2
3409.263	1826.2
3412.217	1802.2
3415.168	1783.2
3418.118	1780.2
3421.065	1742.2
3424.009	1716.2
3426.951	1685.2
3429.891	1653.2
3432.829	1617.2
3435.764	1571.2
3438.697	1535.2
3441.628	1487.2
3444.557	1454.2
3447.483	1400.2
3450.407	1344.2
3453.328	1302.2
3456.247	1261.2
3459.164	1202.2
3462.079	1157.2
3464.991	1112.2
3467.902	1056.2
3470.809	1049.2
3473.715	988.2
3476.618	974.2
3479.519	936.2
3482.418	896.2
3485.315	859.2
3488.209	825.2
3491.101	788.2
3493.99	763.2
3496.878	722.2
3499.763	697.2
3502.646	657.2
3505.527	632.2
3508.405	604.2
3511.281	549.2
3514.155	539.2
3517.027	486.2
3519.897	467.2
3522.764	431.2
3525.629	389.2
3528.492	351.2
3531.352	318.2
3534.211	287.2
3537.067	250.2
3539.921	215.2
3542.773	189.2
3545.622	177.2
3548.469	137.2
3551.315	100.2
3554.157	90.2
3556.998	70.2
3559.837	43.2
3562.673	12.2
3565.507	-10.8
3568.339	-9.8
3571.169	-41.8
3573.996	-50.8
3576.822	-66.8
3579.645	-94.8
3582.466	-100.8
3585.285	-122.8
3588.101	-130.8
3590.916	-158.8
3593.728	-181.8
3596.538	-181.8
3599.346	-200.8
3602.152	-218.8
3604.956	-227.8
3607.757	-236.8
3610.556	-253.8
3613.354	-274.8
3616.149	-283.8
3618.942	-299.8
3621.732	-308.8
3624.521	-312.8
3627.307	-327.8
3630.092	-334.8
3632.874	-337.8
3635.654	-348.8
3638.432	-358.8
3641.208	-366.8
3643.982	-361.8
3646.753	-370.8
3649.523	-384.8
3652.29	-398.8
3655.055	-401.8
3657.818	-408.8
3660.579	-420.8
3663.338	-422.8
3666.095	-438.8
3668.849	-448.8
3671.602	-450.8
3674.352	-458.8
3677.101	-466.8
3679.847	-477.8
3682.591	-473.8
3685.333	-489.8
3688.073	-483.8
3690.811	-494.8
3693.547	-494.8
3696.281	-497.8
3699.013	-502.8
3701.742	-514.8
3704.47	-514.8
3707.195	-515.8
3709.919	-521.8
3712.64	-520.8
3715.359	-527.8
3718.076	-523.8
3720.792	-534.8
3723.505	-536.8
3726.216	-544.8
3728.925	-541.8
3731.632	-552.8
3734.336	-546.8
3737.039	-555.8
3739.74	-554.8
3742.439	-555.8
3745.136	-552.8
3747.83	-561.8
3750.523	-549.8
3753.213	-559.8
3755.902	-556.8
3758.589	-560.8
3761.273	-559.8
3763.956	-567.8
3766.636	-567.8
3769.315	-573.8
3771.991	-575.8
3774.665	-573.8
3777.338	-575.8
3780.008	-579.8
3782.677	-581.8
3785.343	-579.8
3788.007	-571.8
3790.67	-580.8
3793.33	-587.8
3795.989	-585.8
3798.645	-585.8
3801.299	-587.8
3803.952	-592.8
3806.602	-585.8
3809.251	-591.8
3811.897	-588.8
3814.542	-582.8
3817.184	-594.8
3819.825	-591.8
3822.463	-589.8
3825.1	-598.8
3827.735	-603.8
3830.367	-601.8
3832.998	-599.8
3835.627	-600.8
3838.253	-599.8
3840.878	-596.8
3843.501	-601.8
3846.122	-592.8
3848.741	-602.8
3851.358	-596.8
3853.973	-601.8
3856.586	-595.8
3859.197	-600.8
3861.806	-601.8
3864.414	-600.8
3867.019	-600.8
3869.622	-607.8
3872.224	-601.8
3874.823	-589.8
3877.421	-577.8
3880.016	-566.8
3882.61	-535.8
3885.202	-537.8
3887.792	-549.8
3890.38	-571.8
3892.966	-590.8
3895.55	-597.8
3898.132	-608.8
3900.713	-611.8
3903.291	-612.8
3905.868	-615.8
3908.442	-611.8
3911.015	-609.8
3913.586	-610.8
3916.155	-617.8
3918.722	-612.8
3921.287	-613.8
3923.85	-611.8
3926.411	-620.8
3928.971	-614.8
3931.528	-612.8
3934.084	-606.8
3936.638	-608.8
3939.19	-616.8
3941.74	-620.8
3944.288	-622.8
3946.834	-619.8
3949.378	-615.8
3951.921	-619.8
3954.462	-620.8
3957	-613.8
3959.537	-610.8
3962.072	-615.8
3964.606	-612.8
3967.137	-619.8
3969.667	-614.8
3972.194	-612.8
3974.72	-605.8
3977.244	-604.8
3979.766	-607.8
3982.286	-606.8
3984.805	-591.8
3987.321	-601.8
3989.836	-608.8
3992.349	-602.8
3994.86	-599.8
3997.369	-608.8
3999.877	-603.8
4002.382	-602.8
4004.886	-610.8
4007.388	-609.8
4009.888	-600.8
4012.386	-601.8
4014.883	-598.8
4017.377	-598.8
4019.87	-598.8
4022.361	-604.8
4024.85	-599.8
4027.338	-603.8
4029.823	-603.8
4032.307	-600.8
4034.789	-608.8
4037.269	-609.8
4039.747	-610.8
4042.224	-606.8
4044.699	-610.8
4047.172	-606.8
4049.643	-604.8
4052.112	-604.8
4054.58	-598.8
4057.046	-612.8
4059.51	-602.8
4061.972	-610.8
4064.432	-607.8
4066.891	-606.8
4069.348	-605.8
4071.803	-603.8
4074.256	-603.8
4076.708	-607.8
4079.158	-607.8
4081.606	-597.8
4084.052	-606.8
4086.497	-607.8
4088.939	-603.8
4091.38	-600.8
4093.819	-602.8
4096.257	-634.8
4098.693	-636.8
4101.127	-638.8
4103.559	-642.8
4105.989	-378.8
4108.418	-365.8
4110.845	-336.8
4113.27	-317.8
4115.694	-277.8
4118.115	-228.8
4120.535	-607.8
4122.954	-609.8
4125.37	-603.8
4127.785	-602.8
4130.198	-608.8
4132.609	-599.8
4135.019	-641.8
4137.427	-637.8
4139.833	-635.8
4142.237	-638.8
