Data from 2018-2-7_conc=0_RamanShift_08.txt Node
Date: Tue Feb 13 11:16:14 IST 2018
User: aro
Spectrometer: QEPB0276
Trigger mode: 0
Integration Time (sec): 3.000000E1
Scans to average: 1
Electric dark correction enabled: true
Nonlinearity correction enabled: false
Boxcar width: 0
XAxis mode: Raman Shifts
Number of Pixels in Spectrum: 1044
>>>>>Begin Spectral Data<<<<<
160.701	-165.6
166.742	26.4
172.777	570.4
178.805	2250.4
184.826	6067.4
190.841	12449.4
196.849	19612.4
202.85	24498.4
208.845	25856.4
214.833	25589.4
220.815	25102.4
226.789	24820.4
232.758	24772.4
238.719	24488.4
244.674	24089.4
250.623	23604.4
256.565	23126.4
262.5	22546.4
268.429	22090.4
274.351	21729.4
280.267	21397.4
286.176	21187.4
292.079	20918.4
297.975	20665.4
303.865	20459.4
309.748	20335.4
315.625	20129.4
321.495	20075.4
327.359	19938.4
333.217	19949.4
339.068	19878.4
344.912	19892.4
350.751	19804.4
356.583	19775.4
362.408	19789.4
368.227	19778.4
374.04	19826.4
379.847	19824.4
385.647	19952.4
391.44	20003.4
397.228	20123.4
403.009	20179.4
408.784	20217.4
414.553	20292.4
420.315	20319.4
426.071	20386.4
431.821	20294.4
437.565	20307.4
443.302	20275.4
449.033	20301.4
454.758	20215.4
460.477	20161.4
466.189	20158.4
471.896	20098.4
477.596	20039.4
483.29	19949.4
488.978	20047.4
494.66	19912.4
500.335	19702.4
506.005	19559.4
511.668	19284.4
517.325	19097.4
522.977	19010.4
528.622	18685.4
534.261	18672.4
539.894	18511.4
545.521	18532.4
551.141	18434.4
556.756	18374.4
562.365	18250.4
567.968	18230.4
573.565	18137.4
579.155	18107.4
584.74	17993.4
590.319	17905.4
595.892	17878.4
601.459	17746.4
607.02	17729.4
612.575	17657.4
618.124	17469.4
623.667	17406.4
629.204	17311.4
634.735	17262.4
640.261	17138.4
645.781	17105.4
651.294	17080.4
656.802	17038.4
662.304	17006.4
667.8	16996.4
673.29	16992.4
678.775	16933.4
684.254	16845.4
689.726	16816.4
695.193	16745.4
700.655	16676.4
706.11	16600.4
711.56	16543.4
717.004	16433.4
722.442	16343.4
727.874	16287.4
733.301	16294.4
738.722	16222.4
744.137	16190.4
749.547	16165.4
754.951	16161.4
760.349	16183.4
765.741	16168.4
771.128	16194.4
776.509	16197.4
781.885	16153.4
787.254	16148.4
792.618	16085.4
797.977	15965.4
803.33	15874.4
808.677	15810.4
814.019	15749.4
819.355	15583.4
824.686	15545.4
830.011	15521.4
835.33	15500.4
840.644	15537.4
845.952	15569.4
851.255	15597.4
856.552	15583.4
861.844	15584.4
867.13	15563.4
872.41	15470.4
877.686	15374.4
882.955	15265.4
888.219	15095.4
893.478	14989.4
898.731	14771.4
903.979	14603.4
909.221	14538.4
914.458	14502.4
919.69	14453.4
924.916	14515.4
930.136	14476.4
935.351	14604.4
940.561	14585.4
945.766	14528.4
950.965	14446.4
956.158	14325.4
961.347	14153.4
966.529	13990.4
971.707	13835.4
976.879	13661.4
982.046	13562.4
987.208	13559.4
992.364	13544.4
997.515	13570.4
1002.66	13681.4
1007.801	13917.4
1012.936	13972.4
1018.066	14016.4
1023.19	13989.4
1028.309	13976.4
1033.423	13957.4
1038.532	13919.4
1043.636	13735.4
1048.734	13589.4
1053.827	13419.4
1058.915	13265.4
1063.998	13171.4
1069.075	13158.4
1074.147	13191.4
1079.214	13227.4
1084.276	13347.4
1089.333	13372.4
1094.385	13422.4
1099.431	13501.4
1104.472	13486.4
1109.509	13377.4
1114.54	13243.4
1119.565	13040.4
1124.586	12888.4
1129.602	12817.4
1134.613	12684.4
1139.618	12624.4
1144.619	12583.4
1149.614	12583.4
1154.604	12615.4
1159.589	12652.4
1164.57	12702.4
1169.545	12705.4
1174.515	12756.4
1179.48	12588.4
1184.44	12543.4
1189.395	12480.4
1194.345	12352.4
1199.29	12304.4
1204.23	12318.4
1209.165	12341.4
1214.095	12430.4
1219.021	12526.4
1223.941	12555.4
1228.856	12637.4
1233.766	12663.4
1238.672	12664.4
1243.572	12659.4
1248.467	12578.4
1253.358	12438.4
1258.244	12234.4
1263.124	12105.4
1268	11897.4
1272.871	11742.4
1277.737	11620.4
1282.599	11602.4
1287.455	11616.4
1292.306	11646.4
1297.153	11658.4
1301.995	11743.4
1306.832	11735.4
1311.664	11784.4
1316.491	11766.4
1321.314	11576.4
1326.132	11433.4
1330.945	11244.4
1335.753	10952.4
1340.556	10676.4
1345.354	10447.4
1350.148	10309.4
1354.937	10166.4
1359.722	10233.4
1364.501	10249.4
1369.276	10370.4
1374.046	10508.4
1378.811	10627.4
1383.572	10753.4
1388.327	10823.4
1393.079	10752.4
1397.825	10633.4
1402.567	10487.4
1407.304	10322.4
1412.036	10253.4
1416.764	10165.4
1421.487	10141.4
1426.205	10050.4
1430.919	10022.4
1435.628	10004.4
1440.333	10081.4
1445.032	10031.4
1449.727	10100.4
1454.418	10060.4
1459.104	9965.4
1463.785	9789.4
1468.462	9599.4
1473.134	9365.4
1477.802	9190.4
1482.465	8983.4
1487.123	8949.4
1491.777	8884.4
1496.426	8906.4
1501.071	9044.4
1505.711	9155.4
1510.347	9356.4
1514.978	9507.4
1519.604	9599.4
1524.226	9724.4
1528.844	9731.4
1533.457	9710.4
1538.065	9667.4
1542.669	9581.4
1547.269	9509.4
1551.864	9503.4
1556.454	9436.4
1561.041	9428.4
1565.622	9465.4
1570.199	9453.4
1574.772	9511.4
1579.34	9559.4
1583.904	9653.4
1588.464	9652.4
1593.019	9681.4
1597.569	9637.4
1602.115	9586.4
1606.657	9569.4
1611.195	9492.4
1615.728	9453.4
1620.256	9379.4
1624.78	9401.4
1629.3	9410.4
1633.816	9437.4
1638.327	9523.4
1642.834	9576.4
1647.336	9576.4
1651.834	9591.4
1656.328	9550.4
1660.817	9523.4
1665.302	9406.4
1669.783	9294.4
1674.259	9069.4
1678.732	8762.4
1683.199	8482.4
1687.663	8174.4
1692.122	7889.4
1696.577	7808.4
1701.028	7795.4
1705.474	7806.4
1709.917	7872.4
1714.355	7896.4
1718.788	7837.4
1723.218	7704.4
1727.643	7588.4
1732.064	7426.4
1736.481	7240.4
1740.893	7082.4
1745.301	6902.4
1749.705	6723.4
1754.105	6522.4
1758.501	6323.4
1762.893	6151.4
1767.28	5990.4
1771.663	5914.4
1776.042	5795.4
1780.417	5746.4
1784.787	5720.4
1789.154	5788.4
1793.516	5870.4
1797.874	6013.4
1802.228	6093.4
1806.578	6131.4
1810.924	6162.4
1815.266	6076.4
1819.603	5985.4
1823.937	5910.4
1828.266	5807.4
1832.591	5721.4
1836.913	5655.4
1841.23	5593.4
1845.543	5538.4
1849.852	5520.4
1854.156	5538.4
1858.457	5500.4
1862.754	5490.4
1867.047	5464.4
1871.335	5446.4
1875.62	5488.4
1879.9	5484.4
1884.177	5404.4
1888.449	5345.4
1892.718	5324.4
1896.982	5261.4
1901.243	5179.4
1905.499	5164.4
1909.752	5167.4
1914	5124.4
1918.245	5143.4
1922.485	5164.4
1926.722	5215.4
1930.954	5300.4
1935.183	5371.4
1939.408	5416.4
1943.628	5469.4
1947.845	5449.4
1952.058	5438.4
1956.267	5417.4
1960.472	5336.4
1964.673	5248.4
1968.87	5164.4
1973.063	5112.4
1977.252	5025.4
1981.438	4984.4
1985.619	4922.4
1989.797	4889.4
1993.971	4820.4
1998.14	4835.4
2002.306	4826.4
2006.469	4810.4
2010.627	4798.4
2014.781	4752.4
2018.932	4700.4
2023.078	4684.4
2027.221	4603.4
2031.36	4529.4
2035.495	4491.4
2039.627	4407.4
2043.754	4353.4
2047.878	4261.4
2051.998	4302.4
2056.114	4264.4
2060.226	4280.4
2064.334	4252.4
2068.439	4275.4
2072.54	4298.4
2076.637	4321.4
2080.73	4368.4
2084.82	4396.4
2088.906	4410.4
2092.988	4382.4
2097.066	4385.4
2101.14	4370.4
2105.211	4327.4
2109.278	4295.4
2113.342	4269.4
2117.401	4257.4
2121.457	4224.4
2125.509	4238.4
2129.558	4204.4
2133.602	4185.4
2137.643	4132.4
2141.681	4137.4
2145.714	4132.4
2149.744	4080.4
2153.77	4062.4
2157.793	4003.4
2161.812	3973.4
2165.827	3887.4
2169.838	3822.4
2173.846	3798.4
2177.851	3692.4
2181.851	3655.4
2185.848	3592.4
2189.841	3588.4
2193.831	3531.4
2197.817	3525.4
2201.799	3489.4
2205.778	3484.4
2209.753	3493.4
2213.725	3445.4
2217.693	3450.4
2221.657	3446.4
2225.618	3441.4
2229.575	3387.4
2233.529	3383.4
2237.479	3331.4
2241.425	3310.4
2245.368	3257.4
2249.307	3212.4
2253.243	3198.4
2257.175	3127.4
2261.104	3071.4
2265.029	3056.4
2268.95	3020.4
2272.868	3007.4
2276.783	2941.4
2280.694	2913.4
2284.601	2902.4
2288.505	2873.4
2292.405	2862.4
2296.302	2826.4
2300.195	2783.4
2304.085	2745.4
2307.971	2677.4
2311.854	2670.4
2315.734	2634.4
2319.609	2595.4
2323.482	2536.4
2327.351	2538.4
2331.216	2526.4
2335.078	2511.4
2338.937	2501.4
2342.792	2469.4
2346.643	2471.4
2350.492	2477.4
2354.336	2500.4
2358.178	2480.4
2362.015	2480.4
2365.85	2475.4
2369.681	2472.4
2373.508	2472.4
2377.333	2490.4
2381.153	2476.4
2384.971	2473.4
2388.785	2437.4
2392.595	2430.4
2396.402	2400.4
2400.206	2369.4
2404.007	2363.4
2407.804	2363.4
2411.597	2328.4
2415.388	2335.4
2419.174	2318.4
2422.958	2290.4
2426.738	2263.4
2430.515	2224.4
2434.289	2210.4
2438.059	2208.4
2441.825	2184.4
2445.589	2171.4
2449.349	2133.4
2453.106	2112.4
2456.859	2105.4
2460.61	2068.4
2464.356	2038.4
2468.1	2028.4
2471.84	1987.4
2475.577	1989.4
2479.311	1994.4
2483.041	1941.4
2486.768	1949.4
2490.492	1941.4
2494.213	1928.4
2497.93	1918.4
2501.644	1931.4
2505.355	1886.4
2509.062	1887.4
2512.766	1876.4
2516.467	1881.4
2520.165	1849.4
2523.859	1824.4
2527.551	1842.4
2531.239	1832.4
2534.923	1816.4
2538.605	1791.4
2542.283	1800.4
2545.958	1784.4
2549.63	1781.4
2553.299	1777.4
2556.964	1784.4
2560.626	1779.4
2564.285	1747.4
2567.941	1778.4
2571.594	1743.4
2575.243	1739.4
2578.89	1745.4
2582.533	1703.4
2586.173	1696.4
2589.809	1686.4
2593.443	1669.4
2597.073	1622.4
2600.701	1631.4
2604.325	1611.4
2607.946	1597.4
2611.564	1611.4
2615.178	1578.4
2618.79	1571.4
2622.398	1566.4
2626.004	1535.4
2629.606	1531.4
2633.205	1496.4
2636.801	1495.4
2640.394	1450.4
2643.983	1445.4
2647.57	1421.4
2651.153	1406.4
2654.734	1389.4
2658.311	1364.4
2661.885	1327.4
2665.456	1324.4
2669.025	1311.4
2672.589	1295.4
2676.151	1275.4
2679.71	1256.4
2683.266	1236.4
2686.819	1212.4
2690.368	1195.4
2693.915	1186.4
2697.458	1149.4
2700.999	1120.4
2704.536	1097.4
2708.071	1087.4
2711.602	1040.4
2715.13	1021.4
2718.656	997.4
2722.178	984.4
2725.697	967.4
2729.214	941.4
2732.727	953.4
2736.237	963.4
2739.744	954.4
2743.249	952.4
2746.75	964.4
2750.248	968.4
2753.743	966.4
2757.236	988.4
2760.725	993.4
2764.211	1005.4
2767.695	1007.4
2771.175	991.4
2774.652	985.4
2778.127	979.4
2781.598	962.4
2785.067	979.4
2788.532	960.4
2791.995	961.4
2795.455	974.4
2798.911	981.4
2802.365	982.4
2805.816	980.4
2809.264	983.4
2812.709	965.4
2816.151	970.4
2819.59	952.4
2823.026	971.4
2826.46	970.4
2829.89	967.4
2833.318	977.4
2836.742	970.4
2840.164	992.4
2843.583	999.4
2846.999	1022.4
2850.412	1032.4
2853.822	1030.4
2857.229	1047.4
2860.634	1063.4
2864.035	1099.4
2867.434	1099.4
2870.83	1130.4
2874.223	1160.4
2877.613	1179.4
2881	1175.4
2884.385	1207.4
2887.766	1185.4
2891.145	1203.4
2894.521	1189.4
2897.894	1192.4
2901.264	1195.4
2904.631	1185.4
2907.996	1187.4
2911.358	1203.4
2914.717	1222.4
2918.073	1209.4
2921.426	1233.4
2924.777	1263.4
2928.124	1272.4
2931.469	1294.4
2934.811	1320.4
2938.15	1332.4
2941.487	1360.4
2944.821	1369.4
2948.152	1356.4
2951.48	1337.4
2954.805	1340.4
2958.128	1322.4
2961.447	1316.4
2964.765	1322.4
2968.079	1298.4
2971.39	1327.4
2974.699	1338.4
2978.005	1373.4
2981.308	1390.4
2984.609	1401.4
2987.907	1440.4
2991.202	1461.4
2994.494	1513.4
2997.784	1506.4
3001.07	1536.4
3004.355	1563.4
3007.636	1580.4
3010.915	1598.4
3014.191	1652.4
3017.464	1652.4
3020.734	1639.4
3024.002	1688.4
3027.267	1680.4
3030.53	1705.4
3033.789	1711.4
3037.046	1728.4
3040.301	1768.4
3043.552	1791.4
3046.801	1844.4
3050.048	1877.4
3053.291	1935.4
3056.532	1983.4
3059.771	2060.4
3063.006	2117.4
3066.239	2168.4
3069.469	2213.4
3072.697	2287.4
3075.922	2347.4
3079.144	2406.4
3082.364	2455.4
3085.581	2509.4
3088.795	2553.4
3092.007	2614.4
3095.216	2663.4
3098.423	2743.4
3101.627	2807.4
3104.828	2867.4
3108.026	2912.4
3111.222	3010.4
3114.416	3081.4
3117.607	3122.4
3120.795	3202.4
3123.98	3289.4
3127.163	3344.4
3130.344	3433.4
3133.521	3523.4
3136.696	3613.4
3139.869	3659.4
3143.039	3730.4
3146.206	3771.4
3149.371	3840.4
3152.533	3861.4
3155.693	3890.4
3158.85	3922.4
3162.005	3929.4
3165.157	3936.4
3168.306	3970.4
3171.453	3966.4
3174.597	3968.4
3177.739	3966.4
3180.878	3978.4
3184.014	3963.4
3187.149	4004.4
3190.28	3977.4
3193.409	3987.4
3196.536	4043.4
3199.659	4038.4
3202.781	4029.4
3205.9	4007.4
3209.016	4013.4
3212.13	3982.4
3215.241	3964.4
3218.35	3894.4
3221.456	3879.4
3224.56	3835.4
3227.661	3797.4
3230.76	3745.4
3233.856	3692.4
3236.95	3654.4
3240.041	3627.4
3243.13	3586.4
3246.216	3580.4
3249.3	3559.4
3252.382	3516.4
3255.46	3528.4
3258.537	3526.4
3261.611	3516.4
3264.682	3518.4
3267.751	3520.4
3270.818	3518.4
3273.882	3488.4
3276.943	3442.4
3280.002	3435.4
3283.059	3412.4
3286.113	3380.4
3289.165	3310.4
3292.214	3283.4
3295.261	3221.4
3298.306	3189.4
3301.348	3118.4
3304.387	3073.4
3307.425	3041.4
3310.459	2994.4
3313.492	2941.4
3316.521	2894.4
3319.549	2872.4
3322.574	2841.4
3325.597	2802.4
3328.617	2796.4
3331.635	2789.4
3334.65	2781.4
3337.663	2746.4
3340.674	2755.4
3343.682	2762.4
3346.688	2725.4
3349.691	2708.4
3352.692	2689.4
3355.691	2666.4
3358.687	2643.4
3361.681	2583.4
3364.673	2595.4
3367.662	2544.4
3370.649	2516.4
3373.633	2457.4
3376.615	2441.4
3379.595	2422.4
3382.572	2372.4
3385.547	2317.4
3388.52	2291.4
3391.49	2262.4
3394.458	2219.4
3397.424	2183.4
3400.387	2168.4
3403.348	2142.4
3406.307	2094.4
3409.263	2087.4
3412.217	2061.4
3415.168	2023.4
3418.118	2025.4
3421.065	1963.4
3424.009	1957.4
3426.951	1918.4
3429.891	1873.4
3432.829	1866.4
3435.764	1810.4
3438.697	1767.4
3441.628	1699.4
3444.557	1634.4
3447.483	1593.4
3450.407	1544.4
3453.328	1511.4
3456.247	1440.4
3459.164	1384.4
3462.079	1356.4
3464.991	1283.4
3467.902	1239.4
3470.809	1206.4
3473.715	1143.4
3476.618	1110.4
3479.519	1067.4
3482.418	1033.4
3485.315	1010.4
3488.209	963.4
3491.101	920.4
3493.99	889.4
3496.878	860.4
3499.763	819.4
3502.646	787.4
3505.527	742.4
3508.405	700.4
3511.281	669.4
3514.155	636.4
3517.027	581.4
3519.897	560.4
3522.764	513.4
3525.629	472.4
3528.492	422.4
3531.352	390.4
3534.211	352.4
3537.067	324.4
3539.921	269.4
3542.773	253.4
3545.622	224.4
3548.469	196.4
3551.315	159.4
3554.157	126.4
3556.998	103.4
3559.837	83.4
3562.673	59.4
3565.507	45.4
3568.339	14.4
3571.169	10.4
3573.996	-24.6
3576.822	-35.6
3579.645	-58.6
3582.466	-84.6
3585.285	-104.6
3588.101	-121.6
3590.916	-141.6
3593.728	-166.6
3596.538	-175.6
3599.346	-194.6
3602.152	-208.6
3604.956	-222.6
3607.757	-244.6
3610.556	-252.6
3613.354	-279.6
3616.149	-267.6
3618.942	-288.6
3621.732	-300.6
3624.521	-318.6
3627.307	-325.6
3630.092	-332.6
3632.874	-338.6
3635.654	-345.6
3638.432	-360.6
3641.208	-369.6
3643.982	-378.6
3646.753	-380.6
3649.523	-401.6
3652.29	-400.6
3655.055	-414.6
3657.818	-418.6
3660.579	-435.6
3663.338	-441.6
3666.095	-444.6
3668.849	-464.6
3671.602	-466.6
3674.352	-475.6
3677.101	-485.6
3679.847	-492.6
3682.591	-495.6
3685.333	-501.6
3688.073	-505.6
3690.811	-517.6
3693.547	-506.6
3696.281	-524.6
3699.013	-523.6
3701.742	-538.6
3704.47	-538.6
3707.195	-551.6
3709.919	-539.6
3712.64	-547.6
3715.359	-557.6
3718.076	-551.6
3720.792	-557.6
3723.505	-557.6
3726.216	-564.6
3728.925	-570.6
3731.632	-579.6
3734.336	-575.6
3737.039	-585.6
3739.74	-578.6
3742.439	-587.6
3745.136	-585.6
3747.83	-589.6
3750.523	-587.6
3753.213	-588.6
3755.902	-593.6
3758.589	-588.6
3761.273	-587.6
3763.956	-603.6
3766.636	-596.6
3769.315	-602.6
3771.991	-603.6
3774.665	-602.6
3777.338	-600.6
3780.008	-605.6
3782.677	-610.6
3785.343	-607.6
3788.007	-603.6
3790.67	-615.6
3793.33	-617.6
3795.989	-615.6
3798.645	-619.6
3801.299	-614.6
3803.952	-620.6
3806.602	-622.6
3809.251	-622.6
3811.897	-613.6
3814.542	-611.6
3817.184	-618.6
3819.825	-620.6
3822.463	-621.6
3825.1	-630.6
3827.735	-626.6
3830.367	-629.6
3832.998	-628.6
3835.627	-633.6
3838.253	-631.6
3840.878	-628.6
3843.501	-630.6
3846.122	-629.6
3848.741	-628.6
3851.358	-634.6
3853.973	-629.6
3856.586	-631.6
3859.197	-636.6
3861.806	-633.6
3864.414	-634.6
3867.019	-633.6
3869.622	-636.6
3872.224	-631.6
3874.823	-614.6
3877.421	-596.6
3880.016	-584.6
3882.61	-545.6
3885.202	-551.6
3887.792	-572.6
3890.38	-597.6
3892.966	-622.6
3895.55	-628.6
3898.132	-638.6
3900.713	-645.6
3903.291	-645.6
3905.868	-642.6
3908.442	-649.6
3911.015	-643.6
3913.586	-647.6
3916.155	-635.6
3918.722	-643.6
3921.287	-644.6
3923.85	-644.6
3926.411	-648.6
3928.971	-644.6
3931.528	-645.6
3934.084	-640.6
3936.638	-644.6
3939.19	-656.6
3941.74	-651.6
3944.288	-652.6
3946.834	-651.6
3949.378	-652.6
3951.921	-646.6
3954.462	-650.6
3957	-643.6
3959.537	-637.6
3962.072	-645.6
3964.606	-642.6
3967.137	-647.6
3969.667	-638.6
3972.194	-639.6
3974.72	-640.6
3977.244	-636.6
3979.766	-643.6
3982.286	-638.6
3984.805	-632.6
3987.321	-638.6
3989.836	-634.6
3992.349	-635.6
3994.86	-628.6
3997.369	-635.6
3999.877	-629.6
4002.382	-630.6
4004.886	-630.6
4007.388	-637.6
4009.888	-632.6
4012.386	-633.6
4014.883	-633.6
4017.377	-639.6
4019.87	-632.6
4022.361	-635.6
4024.85	-640.6
4027.338	-636.6
4029.823	-631.6
4032.307	-637.6
4034.789	-637.6
4037.269	-644.6
4039.747	-644.6
4042.224	-632.6
4044.699	-638.6
4047.172	-641.6
4049.643	-641.6
4052.112	-642.6
4054.58	-637.6
4057.046	-640.6
4059.51	-642.6
4061.972	-647.6
4064.432	-634.6
4066.891	-636.6
4069.348	-634.6
4071.803	-640.6
4074.256	-637.6
4076.708	-634.6
4079.158	-643.6
4081.606	-631.6
4084.052	-633.6
4086.497	-637.6
4088.939	-633.6
4091.38	-631.6
4093.819	-637.6
4096.257	-671.6
4098.693	-667.6
4101.127	-669.6
4103.559	-669.6
4105.989	-400.6
4108.418	-381.6
4110.845	-361.6
4113.27	-341.6
4115.694	-301.6
4118.115	-251.6
4120.535	-636.6
4122.954	-636.6
4125.37	-637.6
4127.785	-641.6
4130.198	-638.6
4132.609	-635.6
4135.019	-671.6
4137.427	-672.6
4139.833	-668.6
4142.237	-668.6
