Data from 2018-2-7_conc=6_RamanShift_04.txt Node
Date: Tue Feb 13 14:28:13 IST 2018
User: aro
Spectrometer: QEPB0276
Trigger mode: 0
Integration Time (sec): 3.000000E1
Scans to average: 1
Electric dark correction enabled: true
Nonlinearity correction enabled: false
Boxcar width: 0
XAxis mode: Raman Shifts
Number of Pixels in Spectrum: 1044
>>>>>Begin Spectral Data<<<<<
160.701	-156.2
166.742	17.8
172.777	584.8
178.805	2247.8
184.826	6103.8
190.841	12705.8
196.849	20102.8
202.85	25312.8
208.845	26844.8
214.833	26560.8
220.815	25987.8
226.789	25793.8
232.758	25654.8
238.719	25365.8
244.674	25068.8
250.623	24537.8
256.565	23965.8
262.5	23413.8
268.429	22978.8
274.351	22600.8
280.267	22312.8
286.176	22075.8
292.079	21750.8
297.975	21564.8
303.865	21283.8
309.748	21157.8
315.625	21030.8
321.495	20914.8
327.359	20809.8
333.217	20761.8
339.068	20774.8
344.912	20714.8
350.751	20698.8
356.583	20650.8
362.408	20670.8
368.227	20659.8
374.04	20635.8
379.847	20703.8
385.647	20799.8
391.44	20897.8
397.228	20938.8
403.009	21020.8
408.784	21088.8
414.553	21145.8
420.315	21230.8
426.071	21241.8
431.821	21201.8
437.565	21163.8
443.302	21171.8
449.033	21116.8
454.758	21073.8
460.477	21016.8
466.189	21007.8
471.896	20968.8
477.596	20953.8
483.29	20805.8
488.978	20750.8
494.66	20717.8
500.335	20595.8
506.005	20367.8
511.668	20124.8
517.325	19872.8
522.977	19729.8
528.622	19597.8
534.261	19423.8
539.894	19303.8
545.521	19333.8
551.141	19179.8
556.756	19153.8
562.365	19034.8
567.968	18970.8
573.565	18920.8
579.155	18854.8
584.74	18725.8
590.319	18702.8
595.892	18610.8
601.459	18543.8
607.02	18453.8
612.575	18330.8
618.124	18239.8
623.667	18136.8
629.204	18096.8
634.735	17981.8
640.261	17911.8
645.781	17798.8
651.294	17807.8
656.802	17771.8
662.304	17773.8
667.8	17650.8
673.29	17660.8
678.775	17693.8
684.254	17568.8
689.726	17490.8
695.193	17462.8
700.655	17400.8
706.11	17254.8
711.56	17229.8
717.004	17156.8
722.442	16998.8
727.874	16970.8
733.301	16925.8
738.722	16848.8
744.137	16819.8
749.547	16835.8
754.951	16848.8
760.349	16832.8
765.741	16872.8
771.128	16865.8
776.509	16925.8
781.885	16883.8
787.254	16803.8
792.618	16737.8
797.977	16640.8
803.33	16596.8
808.677	16501.8
814.019	16373.8
819.355	16270.8
824.686	16213.8
830.011	16179.8
835.33	16159.8
840.644	16146.8
845.952	16206.8
851.255	16263.8
856.552	16303.8
861.844	16239.8
867.13	16222.8
872.41	16166.8
877.686	15996.8
882.955	15912.8
888.219	15773.8
893.478	15608.8
898.731	15380.8
903.979	15242.8
909.221	15125.8
914.458	15027.8
919.69	15034.8
924.916	15127.8
930.136	15190.8
935.351	15178.8
940.561	15151.8
945.766	15154.8
950.965	15048.8
956.158	14958.8
961.347	14839.8
966.529	14628.8
971.707	14368.8
976.879	14303.8
982.046	14102.8
987.208	14091.8
992.364	14148.8
997.515	14173.8
1002.66	14309.8
1007.801	14516.8
1012.936	14613.8
1018.066	14676.8
1023.19	14582.8
1028.309	14544.8
1033.423	14608.8
1038.532	14482.8
1043.636	14368.8
1048.734	14180.8
1053.827	13975.8
1058.915	13825.8
1063.998	13718.8
1069.075	13747.8
1074.147	13708.8
1079.214	13815.8
1084.276	13881.8
1089.333	13974.8
1094.385	14047.8
1099.431	14030.8
1104.472	14082.8
1109.509	13984.8
1114.54	13863.8
1119.565	13661.8
1124.586	13443.8
1129.602	13361.8
1134.613	13252.8
1139.618	13188.8
1144.619	13182.8
1149.614	13132.8
1154.604	13145.8
1159.589	13223.8
1164.57	13294.8
1169.545	13311.8
1174.515	13254.8
1179.48	13181.8
1184.44	13092.8
1189.395	12958.8
1194.345	12866.8
1199.29	12889.8
1204.23	12869.8
1209.165	12889.8
1214.095	12955.8
1219.021	13039.8
1223.941	13118.8
1228.856	13180.8
1233.766	13209.8
1238.672	13275.8
1243.572	13212.8
1248.467	13115.8
1253.358	13020.8
1258.244	12834.8
1263.124	12585.8
1268	12438.8
1272.871	12307.8
1277.737	12215.8
1282.599	12098.8
1287.455	12118.8
1292.306	12154.8
1297.153	12217.8
1301.995	12239.8
1306.832	12276.8
1311.664	12275.8
1316.491	12303.8
1321.314	12157.8
1326.132	11956.8
1330.945	11699.8
1335.753	11391.8
1340.556	11069.8
1345.354	10838.8
1350.148	10696.8
1354.937	10624.8
1359.722	10652.8
1364.501	10688.8
1369.276	10787.8
1374.046	10947.8
1378.811	11107.8
1383.572	11242.8
1388.327	11248.8
1393.079	11263.8
1397.825	11073.8
1402.567	10939.8
1407.304	10783.8
1412.036	10686.8
1416.764	10632.8
1421.487	10547.8
1426.205	10523.8
1430.919	10425.8
1435.628	10461.8
1440.333	10451.8
1445.032	10502.8
1449.727	10522.8
1454.418	10486.8
1459.104	10384.8
1463.785	10180.8
1468.462	9939.8
1473.134	9777.8
1477.802	9541.8
1482.465	9358.8
1487.123	9266.8
1491.777	9209.8
1496.426	9244.8
1501.071	9390.8
1505.711	9535.8
1510.347	9754.8
1514.978	9902.8
1519.604	10008.8
1524.226	10089.8
1528.844	10132.8
1533.457	10132.8
1538.065	10090.8
1542.669	10003.8
1547.269	9971.8
1551.864	9918.8
1556.454	9893.8
1561.041	9892.8
1565.622	9888.8
1570.199	9862.8
1574.772	9941.8
1579.34	9987.8
1583.904	10112.8
1588.464	10116.8
1593.019	10095.8
1597.569	10049.8
1602.115	10033.8
1606.657	9996.8
1611.195	9921.8
1615.728	9845.8
1620.256	9783.8
1624.78	9815.8
1629.3	9832.8
1633.816	9839.8
1638.327	9936.8
1642.834	9924.8
1647.336	9973.8
1651.834	10013.8
1656.328	9991.8
1660.817	9928.8
1665.302	9841.8
1669.783	9620.8
1674.259	9410.8
1678.732	9150.8
1683.199	8788.8
1687.663	8460.8
1692.122	8239.8
1696.577	8068.8
1701.028	8099.8
1705.474	8170.8
1709.917	8254.8
1714.355	8234.8
1718.788	8175.8
1723.218	8071.8
1727.643	7920.8
1732.064	7766.8
1736.481	7584.8
1740.893	7455.8
1745.301	7245.8
1749.705	7039.8
1754.105	6823.8
1758.501	6602.8
1762.893	6448.8
1767.28	6297.8
1771.663	6148.8
1776.042	6033.8
1780.417	5975.8
1784.787	6005.8
1789.154	6023.8
1793.516	6121.8
1797.874	6256.8
1802.228	6350.8
1806.578	6440.8
1810.924	6408.8
1815.266	6405.8
1819.603	6321.8
1823.937	6196.8
1828.266	6064.8
1832.591	5992.8
1836.913	5919.8
1841.23	5853.8
1845.543	5829.8
1849.852	5807.8
1854.156	5782.8
1858.457	5767.8
1862.754	5752.8
1867.047	5783.8
1871.335	5754.8
1875.62	5732.8
1879.9	5700.8
1884.177	5664.8
1888.449	5604.8
1892.718	5546.8
1896.982	5514.8
1901.243	5464.8
1905.499	5388.8
1909.752	5390.8
1914	5393.8
1918.245	5411.8
1922.485	5461.8
1926.722	5455.8
1930.954	5554.8
1935.183	5607.8
1939.408	5674.8
1943.628	5697.8
1947.845	5705.8
1952.058	5708.8
1956.267	5653.8
1960.472	5628.8
1964.673	5514.8
1968.87	5421.8
1973.063	5381.8
1977.252	5287.8
1981.438	5225.8
1985.619	5203.8
1989.797	5146.8
1993.971	5112.8
1998.14	5085.8
2002.306	5063.8
2006.469	5087.8
2010.627	5009.8
2014.781	5010.8
2018.932	4954.8
2023.078	4904.8
2027.221	4842.8
2031.36	4781.8
2035.495	4698.8
2039.627	4636.8
2043.754	4592.8
2047.878	4529.8
2051.998	4501.8
2056.114	4477.8
2060.226	4483.8
2064.334	4459.8
2068.439	4484.8
2072.54	4536.8
2076.637	4555.8
2080.73	4557.8
2084.82	4575.8
2088.906	4619.8
2092.988	4623.8
2097.066	4631.8
2101.14	4616.8
2105.211	4528.8
2109.278	4523.8
2113.342	4508.8
2117.401	4442.8
2121.457	4477.8
2125.509	4418.8
2129.558	4422.8
2133.602	4376.8
2137.643	4358.8
2141.681	4324.8
2145.714	4313.8
2149.744	4307.8
2153.77	4274.8
2157.793	4224.8
2161.812	4204.8
2165.827	4123.8
2169.838	4048.8
2173.846	3999.8
2177.851	3915.8
2181.851	3855.8
2185.848	3820.8
2189.841	3772.8
2193.831	3731.8
2197.817	3702.8
2201.799	3705.8
2205.778	3688.8
2209.753	3676.8
2213.725	3649.8
2217.693	3639.8
2221.657	3636.8
2225.618	3625.8
2229.575	3629.8
2233.529	3560.8
2237.479	3556.8
2241.425	3475.8
2245.368	3480.8
2249.307	3398.8
2253.243	3355.8
2257.175	3304.8
2261.104	3264.8
2265.029	3239.8
2268.95	3186.8
2272.868	3161.8
2276.783	3151.8
2280.694	3093.8
2284.601	3093.8
2288.505	3058.8
2292.405	3028.8
2296.302	2971.8
2300.195	2972.8
2304.085	2911.8
2307.971	2887.8
2311.854	2858.8
2315.734	2801.8
2319.609	2777.8
2323.482	2726.8
2327.351	2700.8
2331.216	2701.8
2335.078	2673.8
2338.937	2684.8
2342.792	2638.8
2346.643	2619.8
2350.492	2647.8
2354.336	2633.8
2358.178	2633.8
2362.015	2677.8
2365.85	2664.8
2369.681	2666.8
2373.508	2659.8
2377.333	2682.8
2381.153	2657.8
2384.971	2619.8
2388.785	2619.8
2392.595	2606.8
2396.402	2548.8
2400.206	2554.8
2404.007	2517.8
2407.804	2514.8
2411.597	2500.8
2415.388	2492.8
2419.174	2477.8
2422.958	2472.8
2426.738	2439.8
2430.515	2420.8
2434.289	2402.8
2438.059	2368.8
2441.825	2356.8
2445.589	2318.8
2449.349	2294.8
2453.106	2257.8
2456.859	2240.8
2460.61	2210.8
2464.356	2187.8
2468.1	2161.8
2471.84	2151.8
2475.577	2113.8
2479.311	2115.8
2483.041	2105.8
2486.768	2084.8
2490.492	2072.8
2494.213	2075.8
2497.93	2067.8
2501.644	2054.8
2505.355	2040.8
2509.062	2031.8
2512.766	2021.8
2516.467	2008.8
2520.165	1993.8
2523.859	1980.8
2527.551	1968.8
2531.239	1958.8
2534.923	1927.8
2538.605	1943.8
2542.283	1919.8
2545.958	1901.8
2549.63	1929.8
2553.299	1929.8
2556.964	1915.8
2560.626	1925.8
2564.285	1886.8
2567.941	1885.8
2571.594	1880.8
2575.243	1867.8
2578.89	1858.8
2582.533	1838.8
2586.173	1824.8
2589.809	1812.8
2593.443	1816.8
2597.073	1795.8
2600.701	1760.8
2604.325	1758.8
2607.946	1760.8
2611.564	1750.8
2615.178	1731.8
2618.79	1715.8
2622.398	1677.8
2626.004	1686.8
2629.606	1682.8
2633.205	1646.8
2636.801	1614.8
2640.394	1606.8
2643.983	1575.8
2647.57	1559.8
2651.153	1527.8
2654.734	1502.8
2658.311	1478.8
2661.885	1474.8
2665.456	1454.8
2669.025	1416.8
2672.589	1404.8
2676.151	1392.8
2679.71	1379.8
2683.266	1348.8
2686.819	1341.8
2690.368	1305.8
2693.915	1283.8
2697.458	1236.8
2700.999	1234.8
2704.536	1205.8
2708.071	1160.8
2711.602	1136.8
2715.13	1112.8
2718.656	1088.8
2722.178	1070.8
2725.697	1046.8
2729.214	1050.8
2732.727	1036.8
2736.237	1022.8
2739.744	1029.8
2743.249	1043.8
2746.75	1031.8
2750.248	1044.8
2753.743	1043.8
2757.236	1063.8
2760.725	1090.8
2764.211	1093.8
2767.695	1084.8
2771.175	1084.8
2774.652	1086.8
2778.127	1088.8
2781.598	1076.8
2785.067	1077.8
2788.532	1068.8
2791.995	1062.8
2795.455	1056.8
2798.911	1045.8
2802.365	1053.8
2805.816	1067.8
2809.264	1068.8
2812.709	1072.8
2816.151	1050.8
2819.59	1058.8
2823.026	1061.8
2826.46	1064.8
2829.89	1054.8
2833.318	1059.8
2836.742	1073.8
2840.164	1079.8
2843.583	1092.8
2846.999	1111.8
2850.412	1103.8
2853.822	1127.8
2857.229	1132.8
2860.634	1158.8
2864.035	1174.8
2867.434	1199.8
2870.83	1211.8
2874.223	1240.8
2877.613	1267.8
2881	1263.8
2884.385	1290.8
2887.766	1263.8
2891.145	1285.8
2894.521	1264.8
2897.894	1280.8
2901.264	1269.8
2904.631	1291.8
2907.996	1288.8
2911.358	1272.8
2914.717	1293.8
2918.073	1303.8
2921.426	1323.8
2924.777	1329.8
2928.124	1361.8
2931.469	1388.8
2934.811	1408.8
2938.15	1432.8
2941.487	1425.8
2944.821	1443.8
2948.152	1421.8
2951.48	1441.8
2954.805	1398.8
2958.128	1389.8
2961.447	1377.8
2964.765	1382.8
2968.079	1387.8
2971.39	1391.8
2974.699	1388.8
2978.005	1424.8
2981.308	1461.8
2984.609	1471.8
2987.907	1502.8
2991.202	1532.8
2994.494	1560.8
2997.784	1599.8
3001.07	1630.8
3004.355	1648.8
3007.636	1659.8
3010.915	1688.8
3014.191	1716.8
3017.464	1736.8
3020.734	1725.8
3024.002	1738.8
3027.267	1759.8
3030.53	1756.8
3033.789	1773.8
3037.046	1790.8
3040.301	1834.8
3043.552	1873.8
3046.801	1915.8
3050.048	1967.8
3053.291	2011.8
3056.532	2050.8
3059.771	2123.8
3063.006	2174.8
3066.239	2235.8
3069.469	2296.8
3072.697	2359.8
3075.922	2412.8
3079.144	2470.8
3082.364	2542.8
3085.581	2601.8
3088.795	2647.8
3092.007	2700.8
3095.216	2761.8
3098.423	2797.8
3101.627	2871.8
3104.828	2927.8
3108.026	3004.8
3111.222	3060.8
3114.416	3139.8
3117.607	3228.8
3120.795	3289.8
3123.98	3377.8
3127.163	3430.8
3130.344	3514.8
3133.521	3595.8
3136.696	3674.8
3139.869	3745.8
3143.039	3794.8
3146.206	3870.8
3149.371	3911.8
3152.533	3941.8
3155.693	3971.8
3158.85	4004.8
3162.005	4025.8
3165.157	4020.8
3168.306	4054.8
3171.453	4045.8
3174.597	4085.8
3177.739	4067.8
3180.878	4090.8
3184.014	4098.8
3187.149	4076.8
3190.28	4107.8
3193.409	4116.8
3196.536	4082.8
3199.659	4085.8
3202.781	4115.8
3205.9	4131.8
3209.016	4095.8
3212.13	4078.8
3215.241	4044.8
3218.35	4032.8
3221.456	3983.8
3224.56	3922.8
3227.661	3868.8
3230.76	3838.8
3233.856	3819.8
3236.95	3757.8
3240.041	3756.8
3243.13	3699.8
3246.216	3663.8
3249.3	3657.8
3252.382	3636.8
3255.46	3606.8
3258.537	3634.8
3261.611	3621.8
3264.682	3612.8
3267.751	3566.8
3270.818	3586.8
3273.882	3587.8
3276.943	3572.8
3280.002	3552.8
3283.059	3512.8
3286.113	3470.8
3289.165	3432.8
3292.214	3384.8
3295.261	3325.8
3298.306	3285.8
3301.348	3182.8
3304.387	3179.8
3307.425	3135.8
3310.459	3075.8
3313.492	3057.8
3316.521	3009.8
3319.549	2969.8
3322.574	2931.8
3325.597	2908.8
3328.617	2911.8
3331.635	2885.8
3334.65	2865.8
3337.663	2840.8
3340.674	2818.8
3343.682	2831.8
3346.688	2842.8
3349.691	2812.8
3352.692	2760.8
3355.691	2746.8
3358.687	2741.8
3361.681	2682.8
3364.673	2678.8
3367.662	2643.8
3370.649	2588.8
3373.633	2555.8
3376.615	2515.8
3379.595	2492.8
3382.572	2441.8
3385.547	2414.8
3388.52	2373.8
3391.49	2318.8
3394.458	2316.8
3397.424	2271.8
3400.387	2238.8
3403.348	2212.8
3406.307	2210.8
3409.263	2166.8
3412.217	2145.8
3415.168	2120.8
3418.118	2062.8
3421.065	2051.8
3424.009	2034.8
3426.951	1971.8
3429.891	1970.8
3432.829	1921.8
3435.764	1857.8
3438.697	1821.8
3441.628	1769.8
3444.557	1729.8
3447.483	1680.8
3450.407	1620.8
3453.328	1578.8
3456.247	1516.8
3459.164	1451.8
3462.079	1407.8
3464.991	1359.8
3467.902	1294.8
3470.809	1265.8
3473.715	1178.8
3476.618	1169.8
3479.519	1126.8
3482.418	1115.8
3485.315	1053.8
3488.209	995.8
3491.101	977.8
3493.99	945.8
3496.878	903.8
3499.763	864.8
3502.646	849.8
3505.527	804.8
3508.405	765.8
3511.281	706.8
3514.155	681.8
3517.027	630.8
3519.897	585.8
3522.764	557.8
3525.629	520.8
3528.492	473.8
3531.352	429.8
3534.211	391.8
3537.067	358.8
3539.921	312.8
3542.773	285.8
3545.622	250.8
3548.469	226.8
3551.315	186.8
3554.157	174.8
3556.998	135.8
3559.837	107.8
3562.673	81.8
3565.507	62.8
3568.339	35.8
3571.169	32.8
3573.996	9.8
3576.822	-12.2
3579.645	-35.2
3582.466	-52.2
3585.285	-75.2
3588.101	-105.2
3590.916	-130.2
3593.728	-145.2
3596.538	-151.2
3599.346	-164.2
3602.152	-185.2
3604.956	-199.2
3607.757	-223.2
3610.556	-229.2
3613.354	-248.2
3616.149	-255.2
3618.942	-270.2
3621.732	-293.2
3624.521	-295.2
3627.307	-312.2
3630.092	-315.2
3632.874	-336.2
3635.654	-337.2
3638.432	-343.2
3641.208	-354.2
3643.982	-360.2
3646.753	-369.2
3649.523	-388.2
3652.29	-398.2
3655.055	-406.2
3657.818	-412.2
3660.579	-427.2
3663.338	-434.2
3666.095	-439.2
3668.849	-457.2
3671.602	-463.2
3674.352	-467.2
3677.101	-476.2
3679.847	-494.2
3682.591	-484.2
3685.333	-491.2
3688.073	-494.2
3690.811	-503.2
3693.547	-508.2
3696.281	-523.2
3699.013	-520.2
3701.742	-530.2
3704.47	-530.2
3707.195	-544.2
3709.919	-540.2
3712.64	-539.2
3715.359	-547.2
3718.076	-552.2
3720.792	-557.2
3723.505	-562.2
3726.216	-560.2
3728.925	-562.2
3731.632	-577.2
3734.336	-575.2
3737.039	-579.2
3739.74	-577.2
3742.439	-578.2
3745.136	-587.2
3747.83	-587.2
3750.523	-582.2
3753.213	-595.2
3755.902	-591.2
3758.589	-587.2
3761.273	-590.2
3763.956	-598.2
3766.636	-596.2
3769.315	-598.2
3771.991	-601.2
3774.665	-606.2
3777.338	-602.2
3780.008	-601.2
3782.677	-608.2
3785.343	-610.2
3788.007	-604.2
3790.67	-611.2
3793.33	-613.2
3795.989	-616.2
3798.645	-617.2
3801.299	-620.2
3803.952	-624.2
3806.602	-621.2
3809.251	-625.2
3811.897	-625.2
3814.542	-615.2
3817.184	-622.2
3819.825	-619.2
3822.463	-621.2
3825.1	-625.2
3827.735	-629.2
3830.367	-625.2
3832.998	-628.2
3835.627	-628.2
3838.253	-632.2
3840.878	-631.2
3843.501	-635.2
3846.122	-628.2
3848.741	-632.2
3851.358	-636.2
3853.973	-630.2
3856.586	-633.2
3859.197	-639.2
3861.806	-634.2
3864.414	-633.2
3867.019	-622.2
3869.622	-638.2
3872.224	-630.2
3874.823	-620.2
3877.421	-598.2
3880.016	-577.2
3882.61	-544.2
3885.202	-543.2
3887.792	-565.2
3890.38	-595.2
3892.966	-618.2
3895.55	-631.2
3898.132	-639.2
3900.713	-641.2
3903.291	-644.2
3905.868	-643.2
3908.442	-645.2
3911.015	-640.2
3913.586	-644.2
3916.155	-646.2
3918.722	-649.2
3921.287	-642.2
3923.85	-642.2
3926.411	-646.2
3928.971	-650.2
3931.528	-648.2
3934.084	-641.2
3936.638	-651.2
3939.19	-653.2
3941.74	-659.2
3944.288	-652.2
3946.834	-658.2
3949.378	-655.2
3951.921	-656.2
3954.462	-652.2
3957	-647.2
3959.537	-642.2
3962.072	-646.2
3964.606	-649.2
3967.137	-652.2
3969.667	-648.2
3972.194	-642.2
3974.72	-645.2
3977.244	-639.2
3979.766	-635.2
3982.286	-639.2
3984.805	-631.2
3987.321	-634.2
3989.836	-638.2
3992.349	-639.2
3994.86	-634.2
3997.369	-647.2
3999.877	-638.2
4002.382	-633.2
4004.886	-640.2
4007.388	-644.2
4009.888	-638.2
4012.386	-638.2
4014.883	-641.2
4017.377	-637.2
4019.87	-639.2
4022.361	-639.2
4024.85	-635.2
4027.338	-643.2
4029.823	-635.2
4032.307	-639.2
4034.789	-641.2
4037.269	-645.2
4039.747	-643.2
4042.224	-637.2
4044.699	-646.2
4047.172	-643.2
4049.643	-641.2
4052.112	-645.2
4054.58	-638.2
4057.046	-643.2
4059.51	-642.2
4061.972	-642.2
4064.432	-638.2
4066.891	-642.2
4069.348	-646.2
4071.803	-646.2
4074.256	-642.2
4076.708	-640.2
4079.158	-639.2
4081.606	-635.2
4084.052	-633.2
4086.497	-644.2
4088.939	-629.2
4091.38	-633.2
4093.819	-636.2
4096.257	-672.2
4098.693	-675.2
4101.127	-677.2
4103.559	-677.2
4105.989	-398.2
4108.418	-378.2
4110.845	-367.2
4113.27	-333.2
4115.694	-278.2
4118.115	-242.2
4120.535	-640.2
4122.954	-646.2
4125.37	-637.2
4127.785	-637.2
4130.198	-640.2
4132.609	-632.2
4135.019	-676.2
4137.427	-672.2
4139.833	-672.2
4142.237	-673.2
