Data from 2018-2-7_conc=6_RamanShift_09.txt Node
Date: Tue Feb 13 14:32:13 IST 2018
User: aro
Spectrometer: QEPB0276
Trigger mode: 0
Integration Time (sec): 3.000000E1
Scans to average: 1
Electric dark correction enabled: true
Nonlinearity correction enabled: false
Boxcar width: 0
XAxis mode: Raman Shifts
Number of Pixels in Spectrum: 1044
>>>>>Begin Spectral Data<<<<<
160.701	-152.9
166.742	32.1
172.777	582.1
178.805	2227.1
184.826	6075.1
190.841	12630.1
196.849	19986.1
202.85	25015.1
208.845	26656.1
214.833	26312.1
220.815	25898.1
226.789	25586.1
232.758	25629.1
238.719	25324.1
244.674	24995.1
250.623	24539.1
256.565	23998.1
262.5	23459.1
268.429	23043.1
274.351	22693.1
280.267	22413.1
286.176	22134.1
292.079	21888.1
297.975	21688.1
303.865	21524.1
309.748	21350.1
315.625	21230.1
321.495	21093.1
327.359	21068.1
333.217	20991.1
339.068	20944.1
344.912	20978.1
350.751	20906.1
356.583	20947.1
362.408	20853.1
368.227	20856.1
374.04	20861.1
379.847	20935.1
385.647	21007.1
391.44	21055.1
397.228	21151.1
403.009	21244.1
408.784	21317.1
414.553	21409.1
420.315	21430.1
426.071	21447.1
431.821	21427.1
437.565	21413.1
443.302	21358.1
449.033	21370.1
454.758	21290.1
460.477	21297.1
466.189	21240.1
471.896	21133.1
477.596	21130.1
483.29	21062.1
488.978	21061.1
494.66	20953.1
500.335	20812.1
506.005	20659.1
511.668	20397.1
517.325	20146.1
522.977	19977.1
528.622	19803.1
534.261	19732.1
539.894	19629.1
545.521	19550.1
551.141	19486.1
556.756	19378.1
562.365	19392.1
567.968	19220.1
573.565	19205.1
579.155	19068.1
584.74	19081.1
590.319	18976.1
595.892	18857.1
601.459	18840.1
607.02	18740.1
612.575	18613.1
618.124	18489.1
623.667	18449.1
629.204	18282.1
634.735	18229.1
640.261	18158.1
645.781	18119.1
651.294	18035.1
656.802	18072.1
662.304	18003.1
667.8	17960.1
673.29	17955.1
678.775	17970.1
684.254	17842.1
689.726	17847.1
695.193	17749.1
700.655	17644.1
706.11	17532.1
711.56	17470.1
717.004	17396.1
722.442	17303.1
727.874	17253.1
733.301	17192.1
738.722	17146.1
744.137	17111.1
749.547	17115.1
754.951	17077.1
760.349	17180.1
765.741	17100.1
771.128	17143.1
776.509	17139.1
781.885	17136.1
787.254	17099.1
792.618	17018.1
797.977	16891.1
803.33	16778.1
808.677	16740.1
814.019	16627.1
819.355	16520.1
824.686	16497.1
830.011	16418.1
835.33	16384.1
840.644	16446.1
845.952	16453.1
851.255	16529.1
856.552	16538.1
861.844	16493.1
867.13	16431.1
872.41	16333.1
877.686	16284.1
882.955	16197.1
888.219	15976.1
893.478	15868.1
898.731	15622.1
903.979	15509.1
909.221	15403.1
914.458	15332.1
919.69	15290.1
924.916	15364.1
930.136	15453.1
935.351	15466.1
940.561	15474.1
945.766	15349.1
950.965	15259.1
956.158	15186.1
961.347	15060.1
966.529	14871.1
971.707	14632.1
976.879	14532.1
982.046	14405.1
987.208	14352.1
992.364	14359.1
997.515	14407.1
1002.66	14574.1
1007.801	14701.1
1012.936	14868.1
1018.066	14865.1
1023.19	14827.1
1028.309	14812.1
1033.423	14818.1
1038.532	14742.1
1043.636	14600.1
1048.734	14376.1
1053.827	14235.1
1058.915	14084.1
1063.998	13929.1
1069.075	13905.1
1074.147	13966.1
1079.214	13982.1
1084.276	14079.1
1089.333	14183.1
1094.385	14245.1
1099.431	14261.1
1104.472	14297.1
1109.509	14192.1
1114.54	14074.1
1119.565	13821.1
1124.586	13709.1
1129.602	13545.1
1134.613	13457.1
1139.618	13378.1
1144.619	13365.1
1149.614	13346.1
1154.604	13354.1
1159.589	13373.1
1164.57	13462.1
1169.545	13459.1
1174.515	13350.1
1179.48	13375.1
1184.44	13315.1
1189.395	13171.1
1194.345	13052.1
1199.29	13060.1
1204.23	12994.1
1209.165	13119.1
1214.095	13185.1
1219.021	13183.1
1223.941	13219.1
1228.856	13357.1
1233.766	13373.1
1238.672	13410.1
1243.572	13384.1
1248.467	13321.1
1253.358	13147.1
1258.244	12968.1
1263.124	12727.1
1268	12560.1
1272.871	12446.1
1277.737	12311.1
1282.599	12257.1
1287.455	12278.1
1292.306	12264.1
1297.153	12350.1
1301.995	12458.1
1306.832	12382.1
1311.664	12403.1
1316.491	12383.1
1321.314	12304.1
1326.132	12065.1
1330.945	11818.1
1335.753	11469.1
1340.556	11232.1
1345.354	10970.1
1350.148	10838.1
1354.937	10809.1
1359.722	10780.1
1364.501	10882.1
1369.276	11013.1
1374.046	11123.1
1378.811	11318.1
1383.572	11419.1
1388.327	11435.1
1393.079	11338.1
1397.825	11232.1
1402.567	11073.1
1407.304	10930.1
1412.036	10805.1
1416.764	10741.1
1421.487	10621.1
1426.205	10552.1
1430.919	10549.1
1435.628	10560.1
1440.333	10606.1
1445.032	10581.1
1449.727	10622.1
1454.418	10627.1
1459.104	10472.1
1463.785	10313.1
1468.462	10048.1
1473.134	9869.1
1477.802	9686.1
1482.465	9502.1
1487.123	9399.1
1491.777	9364.1
1496.426	9454.1
1501.071	9550.1
1505.711	9688.1
1510.347	9865.1
1514.978	10064.1
1519.604	10185.1
1524.226	10261.1
1528.844	10291.1
1533.457	10219.1
1538.065	10180.1
1542.669	10152.1
1547.269	10050.1
1551.864	9988.1
1556.454	9951.1
1561.041	9997.1
1565.622	9944.1
1570.199	9968.1
1574.772	10051.1
1579.34	10118.1
1583.904	10104.1
1588.464	10187.1
1593.019	10164.1
1597.569	10159.1
1602.115	10103.1
1606.657	10004.1
1611.195	9988.1
1615.728	9888.1
1620.256	9836.1
1624.78	9859.1
1629.3	9874.1
1633.816	9918.1
1638.327	9985.1
1642.834	10006.1
1647.336	10009.1
1651.834	10046.1
1656.328	10017.1
1660.817	10010.1
1665.302	9884.1
1669.783	9667.1
1674.259	9462.1
1678.732	9229.1
1683.199	8871.1
1687.663	8590.1
1692.122	8340.1
1696.577	8194.1
1701.028	8189.1
1705.474	8262.1
1709.917	8354.1
1714.355	8359.1
1718.788	8279.1
1723.218	8144.1
1727.643	8023.1
1732.064	7889.1
1736.481	7682.1
1740.893	7502.1
1745.301	7269.1
1749.705	7071.1
1754.105	6894.1
1758.501	6692.1
1762.893	6517.1
1767.28	6323.1
1771.663	6218.1
1776.042	6099.1
1780.417	6068.1
1784.787	6061.1
1789.154	6142.1
1793.516	6253.1
1797.874	6369.1
1802.228	6513.1
1806.578	6547.1
1810.924	6556.1
1815.266	6492.1
1819.603	6364.1
1823.937	6286.1
1828.266	6148.1
1832.591	6102.1
1836.913	6022.1
1841.23	5928.1
1845.543	5932.1
1849.852	5883.1
1854.156	5873.1
1858.457	5839.1
1862.754	5836.1
1867.047	5861.1
1871.335	5804.1
1875.62	5820.1
1879.9	5785.1
1884.177	5729.1
1888.449	5690.1
1892.718	5647.1
1896.982	5555.1
1901.243	5522.1
1905.499	5474.1
1909.752	5436.1
1914	5447.1
1918.245	5496.1
1922.485	5513.1
1926.722	5560.1
1930.954	5614.1
1935.183	5693.1
1939.408	5764.1
1943.628	5795.1
1947.845	5811.1
1952.058	5776.1
1956.267	5746.1
1960.472	5682.1
1964.673	5600.1
1968.87	5493.1
1973.063	5428.1
1977.252	5348.1
1981.438	5303.1
1985.619	5240.1
1989.797	5198.1
1993.971	5150.1
1998.14	5156.1
2002.306	5114.1
2006.469	5096.1
2010.627	5101.1
2014.781	5036.1
2018.932	5009.1
2023.078	4961.1
2027.221	4890.1
2031.36	4809.1
2035.495	4725.1
2039.627	4655.1
2043.754	4615.1
2047.878	4549.1
2051.998	4516.1
2056.114	4532.1
2060.226	4521.1
2064.334	4545.1
2068.439	4529.1
2072.54	4541.1
2076.637	4589.1
2080.73	4627.1
2084.82	4648.1
2088.906	4651.1
2092.988	4668.1
2097.066	4646.1
2101.14	4596.1
2105.211	4574.1
2109.278	4558.1
2113.342	4540.1
2117.401	4514.1
2121.457	4507.1
2125.509	4466.1
2129.558	4458.1
2133.602	4379.1
2137.643	4396.1
2141.681	4362.1
2145.714	4331.1
2149.744	4294.1
2153.77	4286.1
2157.793	4242.1
2161.812	4214.1
2165.827	4139.1
2169.838	4052.1
2173.846	4003.1
2177.851	3920.1
2181.851	3860.1
2185.848	3833.1
2189.841	3796.1
2193.831	3755.1
2197.817	3713.1
2201.799	3713.1
2205.778	3695.1
2209.753	3682.1
2213.725	3662.1
2217.693	3668.1
2221.657	3619.1
2225.618	3642.1
2229.575	3625.1
2233.529	3576.1
2237.479	3554.1
2241.425	3528.1
2245.368	3462.1
2249.307	3424.1
2253.243	3356.1
2257.175	3339.1
2261.104	3250.1
2265.029	3255.1
2268.95	3194.1
2272.868	3172.1
2276.783	3144.1
2280.694	3086.1
2284.601	3070.1
2288.505	3069.1
2292.405	3014.1
2296.302	2980.1
2300.195	2938.1
2304.085	2905.1
2307.971	2863.1
2311.854	2844.1
2315.734	2787.1
2319.609	2754.1
2323.482	2716.1
2327.351	2676.1
2331.216	2689.1
2335.078	2667.1
2338.937	2635.1
2342.792	2622.1
2346.643	2605.1
2350.492	2629.1
2354.336	2616.1
2358.178	2614.1
2362.015	2641.1
2365.85	2643.1
2369.681	2644.1
2373.508	2626.1
2377.333	2667.1
2381.153	2623.1
2384.971	2617.1
2388.785	2615.1
2392.595	2611.1
2396.402	2560.1
2400.206	2541.1
2404.007	2507.1
2407.804	2496.1
2411.597	2456.1
2415.388	2460.1
2419.174	2474.1
2422.958	2450.1
2426.738	2390.1
2430.515	2400.1
2434.289	2394.1
2438.059	2353.1
2441.825	2334.1
2445.589	2302.1
2449.349	2290.1
2453.106	2263.1
2456.859	2234.1
2460.61	2190.1
2464.356	2161.1
2468.1	2138.1
2471.84	2112.1
2475.577	2093.1
2479.311	2098.1
2483.041	2083.1
2486.768	2058.1
2490.492	2074.1
2494.213	2059.1
2497.93	2033.1
2501.644	2046.1
2505.355	2027.1
2509.062	2004.1
2512.766	1989.1
2516.467	2007.1
2520.165	1990.1
2523.859	1956.1
2527.551	1946.1
2531.239	1936.1
2534.923	1929.1
2538.605	1927.1
2542.283	1923.1
2545.958	1901.1
2549.63	1884.1
2553.299	1907.1
2556.964	1906.1
2560.626	1891.1
2564.285	1889.1
2567.941	1874.1
2571.594	1853.1
2575.243	1856.1
2578.89	1846.1
2582.533	1830.1
2586.173	1808.1
2589.809	1805.1
2593.443	1773.1
2597.073	1775.1
2600.701	1749.1
2604.325	1736.1
2607.946	1724.1
2611.564	1718.1
2615.178	1705.1
2618.79	1695.1
2622.398	1664.1
2626.004	1659.1
2629.606	1635.1
2633.205	1600.1
2636.801	1576.1
2640.394	1578.1
2643.983	1554.1
2647.57	1537.1
2651.153	1492.1
2654.734	1486.1
2658.311	1459.1
2661.885	1444.1
2665.456	1421.1
2669.025	1396.1
2672.589	1400.1
2676.151	1362.1
2679.71	1342.1
2683.266	1302.1
2686.819	1306.1
2690.368	1269.1
2693.915	1254.1
2697.458	1226.1
2700.999	1198.1
2704.536	1168.1
2708.071	1128.1
2711.602	1109.1
2715.13	1093.1
2718.656	1076.1
2722.178	1044.1
2725.697	1039.1
2729.214	1019.1
2732.727	1028.1
2736.237	1002.1
2739.744	1013.1
2743.249	1006.1
2746.75	1018.1
2750.248	1019.1
2753.743	1048.1
2757.236	1072.1
2760.725	1071.1
2764.211	1073.1
2767.695	1070.1
2771.175	1073.1
2774.652	1070.1
2778.127	1064.1
2781.598	1055.1
2785.067	1044.1
2788.532	1027.1
2791.995	1029.1
2795.455	1036.1
2798.911	1028.1
2802.365	1026.1
2805.816	1043.1
2809.264	1031.1
2812.709	1040.1
2816.151	1024.1
2819.59	1027.1
2823.026	1032.1
2826.46	1033.1
2829.89	1040.1
2833.318	1046.1
2836.742	1055.1
2840.164	1060.1
2843.583	1060.1
2846.999	1053.1
2850.412	1084.1
2853.822	1089.1
2857.229	1106.1
2860.634	1114.1
2864.035	1141.1
2867.434	1159.1
2870.83	1188.1
2874.223	1193.1
2877.613	1225.1
2881	1242.1
2884.385	1246.1
2887.766	1230.1
2891.145	1230.1
2894.521	1234.1
2897.894	1225.1
2901.264	1223.1
2904.631	1221.1
2907.996	1214.1
2911.358	1255.1
2914.717	1235.1
2918.073	1258.1
2921.426	1273.1
2924.777	1308.1
2928.124	1322.1
2931.469	1339.1
2934.811	1348.1
2938.15	1358.1
2941.487	1379.1
2944.821	1371.1
2948.152	1372.1
2951.48	1379.1
2954.805	1360.1
2958.128	1334.1
2961.447	1329.1
2964.765	1332.1
2968.079	1343.1
2971.39	1356.1
2974.699	1357.1
2978.005	1383.1
2981.308	1406.1
2984.609	1417.1
2987.907	1444.1
2991.202	1475.1
2994.494	1503.1
2997.784	1529.1
3001.07	1564.1
3004.355	1584.1
3007.636	1628.1
3010.915	1606.1
3014.191	1636.1
3017.464	1645.1
3020.734	1661.1
3024.002	1683.1
3027.267	1697.1
3030.53	1694.1
3033.789	1721.1
3037.046	1738.1
3040.301	1776.1
3043.552	1808.1
3046.801	1839.1
3050.048	1868.1
3053.291	1913.1
3056.532	2003.1
3059.771	2017.1
3063.006	2076.1
3066.239	2137.1
3069.469	2209.1
3072.697	2241.1
3075.922	2314.1
3079.144	2384.1
3082.364	2426.1
3085.581	2478.1
3088.795	2543.1
3092.007	2593.1
3095.216	2632.1
3098.423	2693.1
3101.627	2745.1
3104.828	2810.1
3108.026	2892.1
3111.222	2964.1
3114.416	2986.1
3117.607	3063.1
3120.795	3120.1
3123.98	3202.1
3127.163	3286.1
3130.344	3359.1
3133.521	3460.1
3136.696	3509.1
3139.869	3583.1
3143.039	3646.1
3146.206	3701.1
3149.371	3738.1
3152.533	3785.1
3155.693	3830.1
3158.85	3848.1
3162.005	3849.1
3165.157	3850.1
3168.306	3874.1
3171.453	3879.1
3174.597	3871.1
3177.739	3882.1
3180.878	3889.1
3184.014	3909.1
3187.149	3925.1
3190.28	3916.1
3193.409	3909.1
3196.536	3930.1
3199.659	3978.1
3202.781	3906.1
3205.9	3965.1
3209.016	3949.1
3212.13	3892.1
3215.241	3889.1
3218.35	3843.1
3221.456	3798.1
3224.56	3770.1
3227.661	3739.1
3230.76	3698.1
3233.856	3655.1
3236.95	3641.1
3240.041	3590.1
3243.13	3542.1
3246.216	3521.1
3249.3	3500.1
3252.382	3509.1
3255.46	3466.1
3258.537	3492.1
3261.611	3482.1
3264.682	3456.1
3267.751	3470.1
3270.818	3482.1
3273.882	3428.1
3276.943	3421.1
3280.002	3404.1
3283.059	3359.1
3286.113	3343.1
3289.165	3307.1
3292.214	3251.1
3295.261	3203.1
3298.306	3139.1
3301.348	3100.1
3304.387	3035.1
3307.425	3027.1
3310.459	2984.1
3313.492	2912.1
3316.521	2869.1
3319.549	2840.1
3322.574	2833.1
3325.597	2767.1
3328.617	2753.1
3331.635	2731.1
3334.65	2737.1
3337.663	2689.1
3340.674	2706.1
3343.682	2716.1
3346.688	2675.1
3349.691	2680.1
3352.692	2641.1
3355.691	2624.1
3358.687	2613.1
3361.681	2566.1
3364.673	2548.1
3367.662	2518.1
3370.649	2471.1
3373.633	2444.1
3376.615	2407.1
3379.595	2379.1
3382.572	2328.1
3385.547	2300.1
3388.52	2257.1
3391.49	2222.1
3394.458	2199.1
3397.424	2158.1
3400.387	2127.1
3403.348	2123.1
3406.307	2090.1
3409.263	2060.1
3412.217	2033.1
3415.168	2021.1
3418.118	1991.1
3421.065	1961.1
3424.009	1909.1
3426.951	1902.1
3429.891	1857.1
3432.829	1828.1
3435.764	1763.1
3438.697	1747.1
3441.628	1703.1
3444.557	1644.1
3447.483	1595.1
3450.407	1541.1
3453.328	1469.1
3456.247	1431.1
3459.164	1386.1
3462.079	1335.1
3464.991	1291.1
3467.902	1233.1
3470.809	1188.1
3473.715	1157.1
3476.618	1120.1
3479.519	1068.1
3482.418	1041.1
3485.315	986.1
3488.209	948.1
3491.101	917.1
3493.99	896.1
3496.878	849.1
3499.763	803.1
3502.646	782.1
3505.527	757.1
3508.405	714.1
3511.281	667.1
3514.155	630.1
3517.027	593.1
3519.897	547.1
3522.764	515.1
3525.629	473.1
3528.492	438.1
3531.352	391.1
3534.211	356.1
3537.067	308.1
3539.921	286.1
3542.773	251.1
3545.622	217.1
3548.469	194.1
3551.315	155.1
3554.157	131.1
3556.998	114.1
3559.837	88.1
3562.673	66.1
3565.507	40.1
3568.339	22.1
3571.169	1.1
3573.996	-22.9
3576.822	-44.9
3579.645	-55.9
3582.466	-86.9
3585.285	-86.9
3588.101	-110.9
3590.916	-125.9
3593.728	-140.9
3596.538	-170.9
3599.346	-182.9
3602.152	-199.9
3604.956	-220.9
3607.757	-232.9
3610.556	-250.9
3613.354	-264.9
3616.149	-273.9
3618.942	-283.9
3621.732	-297.9
3624.521	-306.9
3627.307	-317.9
3630.092	-325.9
3632.874	-341.9
3635.654	-356.9
3638.432	-357.9
3641.208	-367.9
3643.982	-374.9
3646.753	-379.9
3649.523	-395.9
3652.29	-401.9
3655.055	-406.9
3657.818	-421.9
3660.579	-435.9
3663.338	-438.9
3666.095	-448.9
3668.849	-461.9
3671.602	-473.9
3674.352	-472.9
3677.101	-484.9
3679.847	-491.9
3682.591	-483.9
3685.333	-497.9
3688.073	-498.9
3690.811	-508.9
3693.547	-513.9
3696.281	-520.9
3699.013	-524.9
3701.742	-530.9
3704.47	-536.9
3707.195	-546.9
3709.919	-545.9
3712.64	-546.9
3715.359	-555.9
3718.076	-550.9
3720.792	-561.9
3723.505	-558.9
3726.216	-564.9
3728.925	-567.9
3731.632	-578.9
3734.336	-581.9
3737.039	-582.9
3739.74	-576.9
3742.439	-581.9
3745.136	-587.9
3747.83	-582.9
3750.523	-588.9
3753.213	-591.9
3755.902	-590.9
3758.589	-592.9
3761.273	-586.9
3763.956	-601.9
3766.636	-595.9
3769.315	-600.9
3771.991	-604.9
3774.665	-601.9
3777.338	-611.9
3780.008	-604.9
3782.677	-612.9
3785.343	-612.9
3788.007	-601.9
3790.67	-608.9
3793.33	-615.9
3795.989	-614.9
3798.645	-621.9
3801.299	-617.9
3803.952	-616.9
3806.602	-624.9
3809.251	-621.9
3811.897	-618.9
3814.542	-616.9
3817.184	-621.9
3819.825	-622.9
3822.463	-623.9
3825.1	-632.9
3827.735	-626.9
3830.367	-629.9
3832.998	-629.9
3835.627	-630.9
3838.253	-634.9
3840.878	-632.9
3843.501	-627.9
3846.122	-630.9
3848.741	-630.9
3851.358	-630.9
3853.973	-632.9
3856.586	-629.9
3859.197	-629.9
3861.806	-632.9
3864.414	-632.9
3867.019	-626.9
3869.622	-634.9
3872.224	-629.9
3874.823	-616.9
3877.421	-600.9
3880.016	-583.9
3882.61	-546.9
3885.202	-548.9
3887.792	-575.9
3890.38	-602.9
3892.966	-624.9
3895.55	-628.9
3898.132	-636.9
3900.713	-644.9
3903.291	-646.9
3905.868	-649.9
3908.442	-648.9
3911.015	-642.9
3913.586	-647.9
3916.155	-646.9
3918.722	-645.9
3921.287	-640.9
3923.85	-643.9
3926.411	-646.9
3928.971	-649.9
3931.528	-645.9
3934.084	-645.9
3936.638	-645.9
3939.19	-650.9
3941.74	-655.9
3944.288	-654.9
3946.834	-650.9
3949.378	-656.9
3951.921	-653.9
3954.462	-651.9
3957	-649.9
3959.537	-640.9
3962.072	-648.9
3964.606	-645.9
3967.137	-648.9
3969.667	-645.9
3972.194	-642.9
3974.72	-645.9
3977.244	-635.9
3979.766	-638.9
3982.286	-636.9
3984.805	-629.9
3987.321	-630.9
3989.836	-631.9
3992.349	-631.9
3994.86	-627.9
3997.369	-646.9
3999.877	-631.9
4002.382	-632.9
4004.886	-638.9
4007.388	-635.9
4009.888	-636.9
4012.386	-636.9
4014.883	-634.9
4017.377	-632.9
4019.87	-640.9
4022.361	-639.9
4024.85	-640.9
4027.338	-641.9
4029.823	-636.9
4032.307	-641.9
4034.789	-643.9
4037.269	-647.9
4039.747	-640.9
4042.224	-638.9
4044.699	-640.9
4047.172	-635.9
4049.643	-632.9
4052.112	-638.9
4054.58	-634.9
4057.046	-643.9
4059.51	-640.9
4061.972	-642.9
4064.432	-641.9
4066.891	-636.9
4069.348	-636.9
4071.803	-633.9
4074.256	-632.9
4076.708	-637.9
4079.158	-638.9
4081.606	-635.9
4084.052	-635.9
4086.497	-643.9
4088.939	-634.9
4091.38	-628.9
4093.819	-636.9
4096.257	-671.9
4098.693	-668.9
4101.127	-669.9
4103.559	-675.9
4105.989	-390.9
4108.418	-389.9
4110.845	-367.9
4113.27	-337.9
4115.694	-285.9
4118.115	-246.9
4120.535	-636.9
4122.954	-645.9
4125.37	-643.9
4127.785	-640.9
4130.198	-640.9
4132.609	-637.9
4135.019	-674.9
4137.427	-671.9
4139.833	-671.9
4142.237	-669.9
