Data from 2018-2-7_conc=2_RamanShift_18.txt Node
Date: Tue Feb 13 11:56:44 IST 2018
User: aro
Spectrometer: QEPB0276
Trigger mode: 0
Integration Time (sec): 3.000000E1
Scans to average: 1
Electric dark correction enabled: true
Nonlinearity correction enabled: false
Boxcar width: 0
XAxis mode: Raman Shifts
Number of Pixels in Spectrum: 1044
>>>>>Begin Spectral Data<<<<<
160.701	-144.8
166.742	29.2
172.777	533.2
178.805	2019.2
184.826	5535.2
190.841	11381.2
196.849	18012.2
202.85	22559.2
208.845	23992.2
214.833	23772.2
220.815	23276.2
226.789	23000.2
232.758	22952.2
238.719	22765.2
244.674	22423.2
250.623	21942.2
256.565	21510.2
262.5	20988.2
268.429	20629.2
274.351	20326.2
280.267	20030.2
286.176	19800.2
292.079	19585.2
297.975	19380.2
303.865	19174.2
309.748	19115.2
315.625	18924.2
321.495	18830.2
327.359	18679.2
333.217	18722.2
339.068	18672.2
344.912	18640.2
350.751	18679.2
356.583	18582.2
362.408	18586.2
368.227	18557.2
374.04	18584.2
379.847	18617.2
385.647	18689.2
391.44	18792.2
397.228	18810.2
403.009	18917.2
408.784	18996.2
414.553	19042.2
420.315	19100.2
426.071	19152.2
431.821	19085.2
437.565	19023.2
443.302	19078.2
449.033	19033.2
454.758	19010.2
460.477	18937.2
466.189	18889.2
471.896	18869.2
477.596	18772.2
483.29	18775.2
488.978	18711.2
494.66	18680.2
500.335	18545.2
506.005	18330.2
511.668	18103.2
517.325	17905.2
522.977	17745.2
528.622	17562.2
534.261	17455.2
539.894	17397.2
545.521	17366.2
551.141	17276.2
556.756	17226.2
562.365	17155.2
567.968	17064.2
573.565	17052.2
579.155	16957.2
584.74	16867.2
590.319	16816.2
595.892	16713.2
601.459	16728.2
607.02	16618.2
612.575	16511.2
618.124	16426.2
623.667	16298.2
629.204	16271.2
634.735	16094.2
640.261	16092.2
645.781	16071.2
651.294	15964.2
656.802	16029.2
662.304	15992.2
667.8	15870.2
673.29	15860.2
678.775	15858.2
684.254	15831.2
689.726	15752.2
695.193	15725.2
700.655	15634.2
706.11	15535.2
711.56	15503.2
717.004	15362.2
722.442	15382.2
727.874	15265.2
733.301	15211.2
738.722	15190.2
744.137	15181.2
749.547	15167.2
754.951	15221.2
760.349	15132.2
765.741	15169.2
771.128	15197.2
776.509	15153.2
781.885	15169.2
787.254	15142.2
792.618	15066.2
797.977	14981.2
803.33	14889.2
808.677	14805.2
814.019	14732.2
819.355	14614.2
824.686	14563.2
830.011	14549.2
835.33	14546.2
840.644	14554.2
845.952	14574.2
851.255	14626.2
856.552	14647.2
861.844	14557.2
867.13	14557.2
872.41	14493.2
877.686	14431.2
882.955	14374.2
888.219	14241.2
893.478	14075.2
898.731	13889.2
903.979	13731.2
909.221	13666.2
914.458	13569.2
919.69	13578.2
924.916	13621.2
930.136	13698.2
935.351	13697.2
940.561	13661.2
945.766	13662.2
950.965	13578.2
956.158	13463.2
961.347	13363.2
966.529	13206.2
971.707	12967.2
976.879	12839.2
982.046	12730.2
987.208	12724.2
992.364	12750.2
997.515	12772.2
1002.66	12882.2
1007.801	13025.2
1012.936	13167.2
1018.066	13164.2
1023.19	13163.2
1028.309	13117.2
1033.423	13099.2
1038.532	13015.2
1043.636	12951.2
1048.734	12757.2
1053.827	12631.2
1058.915	12473.2
1063.998	12401.2
1069.075	12383.2
1074.147	12330.2
1079.214	12435.2
1084.276	12531.2
1089.333	12608.2
1094.385	12648.2
1099.431	12647.2
1104.472	12672.2
1109.509	12607.2
1114.54	12409.2
1119.565	12255.2
1124.586	12143.2
1129.602	12006.2
1134.613	11915.2
1139.618	11869.2
1144.619	11796.2
1149.614	11834.2
1154.604	11856.2
1159.589	11908.2
1164.57	11933.2
1169.545	11992.2
1174.515	11904.2
1179.48	11906.2
1184.44	11788.2
1189.395	11688.2
1194.345	11593.2
1199.29	11570.2
1204.23	11593.2
1209.165	11615.2
1214.095	11692.2
1219.021	11755.2
1223.941	11807.2
1228.856	11894.2
1233.766	11881.2
1238.672	11907.2
1243.572	11934.2
1248.467	11752.2
1253.358	11691.2
1258.244	11543.2
1263.124	11345.2
1268	11219.2
1272.871	11076.2
1277.737	11015.2
1282.599	10911.2
1287.455	10931.2
1292.306	10914.2
1297.153	10979.2
1301.995	10987.2
1306.832	11057.2
1311.664	11055.2
1316.491	11012.2
1321.314	10919.2
1326.132	10750.2
1330.945	10537.2
1335.753	10246.2
1340.556	9984.2
1345.354	9792.2
1350.148	9650.2
1354.937	9570.2
1359.722	9582.2
1364.501	9562.2
1369.276	9682.2
1374.046	9763.2
1378.811	9919.2
1383.572	10004.2
1388.327	10049.2
1393.079	9969.2
1397.825	9931.2
1402.567	9779.2
1407.304	9670.2
1412.036	9529.2
1416.764	9506.2
1421.487	9439.2
1426.205	9411.2
1430.919	9408.2
1435.628	9385.2
1440.333	9413.2
1445.032	9431.2
1449.727	9478.2
1454.418	9415.2
1459.104	9353.2
1463.785	9138.2
1468.462	8953.2
1473.134	8760.2
1477.802	8553.2
1482.465	8412.2
1487.123	8307.2
1491.777	8278.2
1496.426	8280.2
1501.071	8360.2
1505.711	8480.2
1510.347	8605.2
1514.978	8763.2
1519.604	8885.2
1524.226	8967.2
1528.844	8996.2
1533.457	8963.2
1538.065	8926.2
1542.669	8905.2
1547.269	8850.2
1551.864	8824.2
1556.454	8782.2
1561.041	8785.2
1565.622	8794.2
1570.199	8780.2
1574.772	8794.2
1579.34	8888.2
1583.904	8979.2
1588.464	9001.2
1593.019	9005.2
1597.569	8979.2
1602.115	8937.2
1606.657	8873.2
1611.195	8862.2
1615.728	8774.2
1620.256	8735.2
1624.78	8700.2
1629.3	8753.2
1633.816	8773.2
1638.327	8805.2
1642.834	8831.2
1647.336	8883.2
1651.834	8894.2
1656.328	8870.2
1660.817	8810.2
1665.302	8698.2
1669.783	8504.2
1674.259	8366.2
1678.732	8083.2
1683.199	7830.2
1687.663	7531.2
1692.122	7300.2
1696.577	7182.2
1701.028	7139.2
1705.474	7159.2
1709.917	7213.2
1714.355	7210.2
1718.788	7202.2
1723.218	7092.2
1727.643	6981.2
1732.064	6839.2
1736.481	6709.2
1740.893	6538.2
1745.301	6364.2
1749.705	6192.2
1754.105	6013.2
1758.501	5863.2
1762.893	5685.2
1767.28	5541.2
1771.663	5405.2
1776.042	5335.2
1780.417	5256.2
1784.787	5236.2
1789.154	5289.2
1793.516	5387.2
1797.874	5467.2
1802.228	5564.2
1806.578	5605.2
1810.924	5623.2
1815.266	5621.2
1819.603	5541.2
1823.937	5435.2
1828.266	5340.2
1832.591	5285.2
1836.913	5190.2
1841.23	5162.2
1845.543	5145.2
1849.852	5103.2
1854.156	5106.2
1858.457	5064.2
1862.754	5096.2
1867.047	5019.2
1871.335	5054.2
1875.62	5034.2
1879.9	5017.2
1884.177	4997.2
1888.449	4940.2
1892.718	4861.2
1896.982	4807.2
1901.243	4775.2
1905.499	4719.2
1909.752	4712.2
1914	4674.2
1918.245	4716.2
1922.485	4749.2
1926.722	4768.2
1930.954	4807.2
1935.183	4852.2
1939.408	4940.2
1943.628	4976.2
1947.845	4969.2
1952.058	4940.2
1956.267	4923.2
1960.472	4888.2
1964.673	4818.2
1968.87	4771.2
1973.063	4660.2
1977.252	4614.2
1981.438	4559.2
1985.619	4557.2
1989.797	4502.2
1993.971	4451.2
1998.14	4472.2
2002.306	4434.2
2006.469	4437.2
2010.627	4378.2
2014.781	4380.2
2018.932	4345.2
2023.078	4320.2
2027.221	4238.2
2031.36	4149.2
2035.495	4090.2
2039.627	4030.2
2043.754	3974.2
2047.878	3958.2
2051.998	3926.2
2056.114	3882.2
2060.226	3883.2
2064.334	3888.2
2068.439	3913.2
2072.54	3947.2
2076.637	3975.2
2080.73	3959.2
2084.82	3998.2
2088.906	4002.2
2092.988	4008.2
2097.066	4002.2
2101.14	3987.2
2105.211	3937.2
2109.278	3925.2
2113.342	3904.2
2117.401	3888.2
2121.457	3866.2
2125.509	3846.2
2129.558	3822.2
2133.602	3819.2
2137.643	3786.2
2141.681	3780.2
2145.714	3793.2
2149.744	3734.2
2153.77	3713.2
2157.793	3677.2
2161.812	3664.2
2165.827	3581.2
2169.838	3543.2
2173.846	3478.2
2177.851	3438.2
2181.851	3380.2
2185.848	3339.2
2189.841	3296.2
2193.831	3268.2
2197.817	3241.2
2201.799	3214.2
2205.778	3200.2
2209.753	3181.2
2213.725	3200.2
2217.693	3188.2
2221.657	3171.2
2225.618	3158.2
2229.575	3141.2
2233.529	3111.2
2237.479	3072.2
2241.425	3057.2
2245.368	3018.2
2249.307	3003.2
2253.243	2915.2
2257.175	2898.2
2261.104	2859.2
2265.029	2784.2
2268.95	2799.2
2272.868	2750.2
2276.783	2734.2
2280.694	2708.2
2284.601	2684.2
2288.505	2617.2
2292.405	2668.2
2296.302	2597.2
2300.195	2582.2
2304.085	2530.2
2307.971	2514.2
2311.854	2469.2
2315.734	2446.2
2319.609	2420.2
2323.482	2379.2
2327.351	2369.2
2331.216	2346.2
2335.078	2340.2
2338.937	2334.2
2342.792	2308.2
2346.643	2325.2
2350.492	2319.2
2354.336	2327.2
2358.178	2316.2
2362.015	2335.2
2365.85	2339.2
2369.681	2349.2
2373.508	2330.2
2377.333	2356.2
2381.153	2329.2
2384.971	2324.2
2388.785	2314.2
2392.595	2285.2
2396.402	2275.2
2400.206	2242.2
2404.007	2222.2
2407.804	2229.2
2411.597	2219.2
2415.388	2214.2
2419.174	2196.2
2422.958	2156.2
2426.738	2148.2
2430.515	2134.2
2434.289	2122.2
2438.059	2116.2
2441.825	2075.2
2445.589	2070.2
2449.349	2039.2
2453.106	1999.2
2456.859	1980.2
2460.61	1948.2
2464.356	1944.2
2468.1	1912.2
2471.84	1900.2
2475.577	1870.2
2479.311	1879.2
2483.041	1845.2
2486.768	1850.2
2490.492	1867.2
2494.213	1841.2
2497.93	1811.2
2501.644	1794.2
2505.355	1803.2
2509.062	1795.2
2512.766	1782.2
2516.467	1764.2
2520.165	1765.2
2523.859	1750.2
2527.551	1721.2
2531.239	1733.2
2534.923	1711.2
2538.605	1702.2
2542.283	1697.2
2545.958	1680.2
2549.63	1677.2
2553.299	1692.2
2556.964	1662.2
2560.626	1660.2
2564.285	1665.2
2567.941	1654.2
2571.594	1635.2
2575.243	1632.2
2578.89	1621.2
2582.533	1593.2
2586.173	1603.2
2589.809	1586.2
2593.443	1583.2
2597.073	1550.2
2600.701	1558.2
2604.325	1544.2
2607.946	1505.2
2611.564	1520.2
2615.178	1520.2
2618.79	1500.2
2622.398	1490.2
2626.004	1444.2
2629.606	1462.2
2633.205	1420.2
2636.801	1403.2
2640.394	1394.2
2643.983	1382.2
2647.57	1350.2
2651.153	1335.2
2654.734	1317.2
2658.311	1294.2
2661.885	1274.2
2665.456	1272.2
2669.025	1241.2
2672.589	1225.2
2676.151	1218.2
2679.71	1216.2
2683.266	1171.2
2686.819	1168.2
2690.368	1135.2
2693.915	1123.2
2697.458	1097.2
2700.999	1062.2
2704.536	1062.2
2708.071	1027.2
2711.602	984.2
2715.13	983.2
2718.656	948.2
2722.178	935.2
2725.697	921.2
2729.214	913.2
2732.727	897.2
2736.237	890.2
2739.744	894.2
2743.249	896.2
2746.75	892.2
2750.248	898.2
2753.743	892.2
2757.236	920.2
2760.725	911.2
2764.211	923.2
2767.695	929.2
2771.175	941.2
2774.652	924.2
2778.127	925.2
2781.598	915.2
2785.067	910.2
2788.532	904.2
2791.995	898.2
2795.455	906.2
2798.911	913.2
2802.365	904.2
2805.816	911.2
2809.264	909.2
2812.709	921.2
2816.151	912.2
2819.59	908.2
2823.026	900.2
2826.46	898.2
2829.89	903.2
2833.318	906.2
2836.742	921.2
2840.164	923.2
2843.583	949.2
2846.999	946.2
2850.412	952.2
2853.822	971.2
2857.229	992.2
2860.634	1005.2
2864.035	1006.2
2867.434	1025.2
2870.83	1049.2
2874.223	1078.2
2877.613	1086.2
2881	1090.2
2884.385	1120.2
2887.766	1110.2
2891.145	1088.2
2894.521	1111.2
2897.894	1093.2
2901.264	1116.2
2904.631	1115.2
2907.996	1111.2
2911.358	1115.2
2914.717	1116.2
2918.073	1130.2
2921.426	1135.2
2924.777	1158.2
2928.124	1171.2
2931.469	1183.2
2934.811	1213.2
2938.15	1228.2
2941.487	1239.2
2944.821	1240.2
2948.152	1229.2
2951.48	1229.2
2954.805	1193.2
2958.128	1216.2
2961.447	1180.2
2964.765	1182.2
2968.079	1188.2
2971.39	1206.2
2974.699	1214.2
2978.005	1213.2
2981.308	1222.2
2984.609	1288.2
2987.907	1283.2
2991.202	1322.2
2994.494	1331.2
2997.784	1360.2
3001.07	1388.2
3004.355	1421.2
3007.636	1425.2
3010.915	1456.2
3014.191	1490.2
3017.464	1482.2
3020.734	1480.2
3024.002	1487.2
3027.267	1506.2
3030.53	1525.2
3033.789	1537.2
3037.046	1559.2
3040.301	1585.2
3043.552	1606.2
3046.801	1645.2
3050.048	1694.2
3053.291	1744.2
3056.532	1772.2
3059.771	1817.2
3063.006	1882.2
3066.239	1937.2
3069.469	1985.2
3072.697	2060.2
3075.922	2097.2
3079.144	2151.2
3082.364	2199.2
3085.581	2230.2
3088.795	2285.2
3092.007	2329.2
3095.216	2368.2
3098.423	2442.2
3101.627	2488.2
3104.828	2530.2
3108.026	2583.2
3111.222	2663.2
3114.416	2702.2
3117.607	2787.2
3120.795	2821.2
3123.98	2903.2
3127.163	2980.2
3130.344	3050.2
3133.521	3122.2
3136.696	3192.2
3139.869	3258.2
3143.039	3342.2
3146.206	3356.2
3149.371	3415.2
3152.533	3426.2
3155.693	3479.2
3158.85	3450.2
3162.005	3501.2
3165.157	3501.2
3168.306	3516.2
3171.453	3507.2
3174.597	3531.2
3177.739	3517.2
3180.878	3544.2
3184.014	3523.2
3187.149	3543.2
3190.28	3526.2
3193.409	3552.2
3196.536	3541.2
3199.659	3558.2
3202.781	3537.2
3205.9	3568.2
3209.016	3564.2
3212.13	3506.2
3215.241	3519.2
3218.35	3482.2
3221.456	3414.2
3224.56	3395.2
3227.661	3373.2
3230.76	3309.2
3233.856	3293.2
3236.95	3246.2
3240.041	3213.2
3243.13	3180.2
3246.216	3182.2
3249.3	3157.2
3252.382	3128.2
3255.46	3149.2
3258.537	3115.2
3261.611	3138.2
3264.682	3136.2
3267.751	3102.2
3270.818	3135.2
3273.882	3095.2
3276.943	3057.2
3280.002	3055.2
3283.059	3028.2
3286.113	2993.2
3289.165	2954.2
3292.214	2942.2
3295.261	2877.2
3298.306	2800.2
3301.348	2781.2
3304.387	2741.2
3307.425	2681.2
3310.459	2646.2
3313.492	2594.2
3316.521	2582.2
3319.549	2560.2
3322.574	2537.2
3325.597	2501.2
3328.617	2494.2
3331.635	2469.2
3334.65	2462.2
3337.663	2447.2
3340.674	2410.2
3343.682	2424.2
3346.688	2431.2
3349.691	2395.2
3352.692	2398.2
3355.691	2409.2
3358.687	2366.2
3361.681	2302.2
3364.673	2314.2
3367.662	2249.2
3370.649	2245.2
3373.633	2196.2
3376.615	2168.2
3379.595	2141.2
3382.572	2111.2
3385.547	2069.2
3388.52	2038.2
3391.49	1988.2
3394.458	1980.2
3397.424	1958.2
3400.387	1948.2
3403.348	1881.2
3406.307	1881.2
3409.263	1861.2
3412.217	1848.2
3415.168	1825.2
3418.118	1799.2
3421.065	1759.2
3424.009	1744.2
3426.951	1702.2
3429.891	1690.2
3432.829	1630.2
3435.764	1608.2
3438.697	1553.2
3441.628	1519.2
3444.557	1457.2
3447.483	1414.2
3450.407	1366.2
3453.328	1327.2
3456.247	1288.2
3459.164	1239.2
3462.079	1182.2
3464.991	1157.2
3467.902	1101.2
3470.809	1066.2
3473.715	1029.2
3476.618	986.2
3479.519	949.2
3482.418	927.2
3485.315	885.2
3488.209	832.2
3491.101	821.2
3493.99	799.2
3496.878	747.2
3499.763	703.2
3502.646	694.2
3505.527	658.2
3508.405	627.2
3511.281	594.2
3514.155	557.2
3517.027	518.2
3519.897	485.2
3522.764	452.2
3525.629	425.2
3528.492	383.2
3531.352	343.2
3534.211	311.2
3537.067	279.2
3539.921	239.2
3542.773	219.2
3545.622	196.2
3548.469	167.2
3551.315	140.2
3554.157	101.2
3556.998	96.2
3559.837	72.2
3562.673	39.2
3565.507	17.2
3568.339	2.2
3571.169	-2.8
3573.996	-19.8
3576.822	-30.8
3579.645	-63.8
3582.466	-78.8
3585.285	-103.8
3588.101	-117.8
3590.916	-123.8
3593.728	-147.8
3596.538	-165.8
3599.346	-178.8
3602.152	-198.8
3604.956	-202.8
3607.757	-215.8
3610.556	-225.8
3613.354	-242.8
3616.149	-256.8
3618.942	-264.8
3621.732	-283.8
3624.521	-294.8
3627.307	-298.8
3630.092	-296.8
3632.874	-316.8
3635.654	-325.8
3638.432	-321.8
3641.208	-335.8
3643.982	-348.8
3646.753	-348.8
3649.523	-363.8
3652.29	-365.8
3655.055	-379.8
3657.818	-379.8
3660.579	-391.8
3663.338	-403.8
3666.095	-407.8
3668.849	-417.8
3671.602	-420.8
3674.352	-432.8
3677.101	-438.8
3679.847	-450.8
3682.591	-442.8
3685.333	-447.8
3688.073	-454.8
3690.811	-460.8
3693.547	-461.8
3696.281	-473.8
3699.013	-472.8
3701.742	-487.8
3704.47	-486.8
3707.195	-495.8
3709.919	-496.8
3712.64	-497.8
3715.359	-503.8
3718.076	-499.8
3720.792	-509.8
3723.505	-508.8
3726.216	-514.8
3728.925	-508.8
3731.632	-517.8
3734.336	-525.8
3737.039	-524.8
3739.74	-521.8
3742.439	-528.8
3745.136	-526.8
3747.83	-524.8
3750.523	-534.8
3753.213	-528.8
3755.902	-537.8
3758.589	-541.8
3761.273	-534.8
3763.956	-541.8
3766.636	-543.8
3769.315	-544.8
3771.991	-541.8
3774.665	-543.8
3777.338	-546.8
3780.008	-545.8
3782.677	-542.8
3785.343	-556.8
3788.007	-545.8
3790.67	-551.8
3793.33	-558.8
3795.989	-558.8
3798.645	-551.8
3801.299	-561.8
3803.952	-563.8
3806.602	-559.8
3809.251	-566.8
3811.897	-555.8
3814.542	-555.8
3817.184	-561.8
3819.825	-560.8
3822.463	-563.8
3825.1	-566.8
3827.735	-564.8
3830.367	-563.8
3832.998	-569.8
3835.627	-567.8
3838.253	-568.8
3840.878	-571.8
3843.501	-568.8
3846.122	-562.8
3848.741	-571.8
3851.358	-572.8
3853.973	-570.8
3856.586	-572.8
3859.197	-577.8
3861.806	-574.8
3864.414	-568.8
3867.019	-570.8
3869.622	-568.8
3872.224	-570.8
3874.823	-555.8
3877.421	-533.8
3880.016	-523.8
3882.61	-494.8
3885.202	-503.8
3887.792	-523.8
3890.38	-542.8
3892.966	-553.8
3895.55	-566.8
3898.132	-581.8
3900.713	-581.8
3903.291	-584.8
3905.868	-581.8
3908.442	-584.8
3911.015	-582.8
3913.586	-582.8
3916.155	-581.8
3918.722	-579.8
3921.287	-583.8
3923.85	-580.8
3926.411	-581.8
3928.971	-578.8
3931.528	-584.8
3934.084	-575.8
3936.638	-589.8
3939.19	-588.8
3941.74	-590.8
3944.288	-592.8
3946.834	-592.8
3949.378	-589.8
3951.921	-591.8
3954.462	-589.8
3957	-580.8
3959.537	-580.8
3962.072	-580.8
3964.606	-585.8
3967.137	-583.8
3969.667	-577.8
3972.194	-574.8
3974.72	-581.8
3977.244	-578.8
3979.766	-579.8
3982.286	-578.8
3984.805	-568.8
3987.321	-575.8
3989.836	-577.8
3992.349	-572.8
3994.86	-571.8
3997.369	-582.8
3999.877	-574.8
4002.382	-571.8
4004.886	-573.8
4007.388	-571.8
4009.888	-567.8
4012.386	-574.8
4014.883	-568.8
4017.377	-573.8
4019.87	-571.8
4022.361	-573.8
4024.85	-576.8
4027.338	-578.8
4029.823	-575.8
4032.307	-578.8
4034.789	-582.8
4037.269	-584.8
4039.747	-582.8
4042.224	-575.8
4044.699	-582.8
4047.172	-577.8
4049.643	-575.8
4052.112	-574.8
4054.58	-566.8
4057.046	-580.8
4059.51	-578.8
4061.972	-579.8
4064.432	-573.8
4066.891	-577.8
4069.348	-578.8
4071.803	-578.8
4074.256	-578.8
4076.708	-578.8
4079.158	-584.8
4081.606	-570.8
4084.052	-575.8
4086.497	-578.8
4088.939	-577.8
4091.38	-567.8
4093.819	-572.8
4096.257	-604.8
4098.693	-608.8
4101.127	-608.8
4103.559	-609.8
4105.989	-357.8
4108.418	-347.8
4110.845	-325.8
4113.27	-300.8
4115.694	-256.8
4118.115	-224.8
4120.535	-578.8
4122.954	-576.8
4125.37	-573.8
4127.785	-573.8
4130.198	-582.8
4132.609	-570.8
4135.019	-608.8
4137.427	-609.8
4139.833	-608.8
4142.237	-609.8
