Data from 2018-2-7_conc=5_RamanShift_14.txt Node
Date: Tue Feb 13 14:06:13 IST 2018
User: aro
Spectrometer: QEPB0276
Trigger mode: 0
Integration Time (sec): 3.000000E1
Scans to average: 1
Electric dark correction enabled: true
Nonlinearity correction enabled: false
Boxcar width: 0
XAxis mode: Raman Shifts
Number of Pixels in Spectrum: 1044
>>>>>Begin Spectral Data<<<<<
160.701	-167.4
166.742	24.6
172.777	600.6
178.805	2341.6
184.826	6402.6
190.841	13213.6
196.849	20930.6
202.85	26167.6
208.845	27880.6
214.833	27621.6
220.815	27032.6
226.789	26808.6
232.758	26691.6
238.719	26439.6
244.674	26112.6
250.623	25577.6
256.565	25018.6
262.5	24503.6
268.429	24013.6
274.351	23698.6
280.267	23354.6
286.176	23070.6
292.079	22832.6
297.975	22601.6
303.865	22381.6
309.748	22224.6
315.625	22122.6
321.495	21980.6
327.359	21856.6
333.217	21875.6
339.068	21802.6
344.912	21785.6
350.751	21752.6
356.583	21730.6
362.408	21675.6
368.227	21742.6
374.04	21729.6
379.847	21834.6
385.647	21934.6
391.44	21926.6
397.228	22045.6
403.009	22110.6
408.784	22154.6
414.553	22243.6
420.315	22308.6
426.071	22374.6
431.821	22244.6
437.565	22226.6
443.302	22258.6
449.033	22256.6
454.758	22149.6
460.477	22072.6
466.189	22026.6
471.896	21986.6
477.596	21999.6
483.29	21883.6
488.978	21859.6
494.66	21822.6
500.335	21629.6
506.005	21414.6
511.668	21170.6
517.325	20987.6
522.977	20768.6
528.622	20589.6
534.261	20520.6
539.894	20437.6
545.521	20306.6
551.141	20218.6
556.756	20159.6
562.365	20018.6
567.968	20021.6
573.565	19944.6
579.155	19858.6
584.74	19755.6
590.319	19677.6
595.892	19539.6
601.459	19556.6
607.02	19419.6
612.575	19320.6
618.124	19258.6
623.667	19069.6
629.204	19004.6
634.735	18930.6
640.261	18866.6
645.781	18807.6
651.294	18814.6
656.802	18748.6
662.304	18687.6
667.8	18649.6
673.29	18607.6
678.775	18683.6
684.254	18483.6
689.726	18480.6
695.193	18433.6
700.655	18342.6
706.11	18264.6
711.56	18183.6
717.004	18078.6
722.442	18007.6
727.874	17921.6
733.301	17832.6
738.722	17802.6
744.137	17762.6
749.547	17733.6
754.951	17771.6
760.349	17803.6
765.741	17763.6
771.128	17760.6
776.509	17821.6
781.885	17787.6
787.254	17767.6
792.618	17656.6
797.977	17549.6
803.33	17365.6
808.677	17335.6
814.019	17188.6
819.355	17134.6
824.686	17075.6
830.011	17058.6
835.33	16982.6
840.644	17048.6
845.952	17060.6
851.255	17143.6
856.552	17116.6
861.844	17090.6
867.13	17040.6
872.41	16994.6
877.686	16900.6
882.955	16747.6
888.219	16630.6
893.478	16466.6
898.731	16249.6
903.979	16060.6
909.221	15952.6
914.458	15887.6
919.69	15892.6
924.916	15940.6
930.136	16040.6
935.351	16065.6
940.561	16015.6
945.766	15984.6
950.965	15886.6
956.158	15813.6
961.347	15622.6
966.529	15445.6
971.707	15247.6
976.879	15035.6
982.046	14915.6
987.208	14889.6
992.364	14914.6
997.515	14955.6
1002.66	15122.6
1007.801	15309.6
1012.936	15412.6
1018.066	15410.6
1023.19	15394.6
1028.309	15386.6
1033.423	15331.6
1038.532	15285.6
1043.636	15133.6
1048.734	14983.6
1053.827	14757.6
1058.915	14580.6
1063.998	14504.6
1069.075	14434.6
1074.147	14499.6
1079.214	14604.6
1084.276	14614.6
1089.333	14732.6
1094.385	14821.6
1099.431	14802.6
1104.472	14842.6
1109.509	14723.6
1114.54	14550.6
1119.565	14389.6
1124.586	14252.6
1129.602	14067.6
1134.613	13919.6
1139.618	13886.6
1144.619	13815.6
1149.614	13839.6
1154.604	13932.6
1159.589	13906.6
1164.57	13946.6
1169.545	13974.6
1174.515	14027.6
1179.48	13890.6
1184.44	13790.6
1189.395	13715.6
1194.345	13607.6
1199.29	13524.6
1204.23	13574.6
1209.165	13574.6
1214.095	13635.6
1219.021	13749.6
1223.941	13785.6
1228.856	13880.6
1233.766	13919.6
1238.672	13923.6
1243.572	13924.6
1248.467	13823.6
1253.358	13674.6
1258.244	13501.6
1263.124	13234.6
1268	13053.6
1272.871	12917.6
1277.737	12856.6
1282.599	12764.6
1287.455	12803.6
1292.306	12786.6
1297.153	12799.6
1301.995	12872.6
1306.832	12867.6
1311.664	12941.6
1316.491	12925.6
1321.314	12795.6
1326.132	12550.6
1330.945	12336.6
1335.753	12047.6
1340.556	11719.6
1345.354	11455.6
1350.148	11279.6
1354.937	11210.6
1359.722	11153.6
1364.501	11223.6
1369.276	11323.6
1374.046	11498.6
1378.811	11688.6
1383.572	11797.6
1388.327	11822.6
1393.079	11785.6
1397.825	11631.6
1402.567	11447.6
1407.304	11334.6
1412.036	11202.6
1416.764	11136.6
1421.487	11077.6
1426.205	10963.6
1430.919	10999.6
1435.628	10980.6
1440.333	11023.6
1445.032	11041.6
1449.727	11064.6
1454.418	11043.6
1459.104	10924.6
1463.785	10712.6
1468.462	10469.6
1473.134	10245.6
1477.802	10059.6
1482.465	9890.6
1487.123	9746.6
1491.777	9716.6
1496.426	9745.6
1501.071	9857.6
1505.711	10009.6
1510.347	10150.6
1514.978	10354.6
1519.604	10496.6
1524.226	10594.6
1528.844	10638.6
1533.457	10582.6
1538.065	10552.6
1542.669	10536.6
1547.269	10436.6
1551.864	10374.6
1556.454	10337.6
1561.041	10308.6
1565.622	10264.6
1570.199	10368.6
1574.772	10434.6
1579.34	10464.6
1583.904	10516.6
1588.464	10585.6
1593.019	10583.6
1597.569	10542.6
1602.115	10500.6
1606.657	10437.6
1611.195	10355.6
1615.728	10305.6
1620.256	10275.6
1624.78	10247.6
1629.3	10252.6
1633.816	10297.6
1638.327	10345.6
1642.834	10405.6
1647.336	10471.6
1651.834	10434.6
1656.328	10446.6
1660.817	10377.6
1665.302	10245.6
1669.783	10080.6
1674.259	9831.6
1678.732	9564.6
1683.199	9225.6
1687.663	8926.6
1692.122	8603.6
1696.577	8510.6
1701.028	8474.6
1705.474	8510.6
1709.917	8609.6
1714.355	8586.6
1718.788	8570.6
1723.218	8471.6
1727.643	8293.6
1732.064	8142.6
1736.481	7944.6
1740.893	7761.6
1745.301	7562.6
1749.705	7330.6
1754.105	7137.6
1758.501	6940.6
1762.893	6753.6
1767.28	6590.6
1771.663	6450.6
1776.042	6331.6
1780.417	6287.6
1784.787	6234.6
1789.154	6280.6
1793.516	6398.6
1797.874	6551.6
1802.228	6659.6
1806.578	6695.6
1810.924	6688.6
1815.266	6656.6
1819.603	6538.6
1823.937	6510.6
1828.266	6337.6
1832.591	6287.6
1836.913	6198.6
1841.23	6115.6
1845.543	6068.6
1849.852	6049.6
1854.156	6038.6
1858.457	6017.6
1862.754	6025.6
1867.047	6007.6
1871.335	6011.6
1875.62	5977.6
1879.9	5992.6
1884.177	5926.6
1888.449	5849.6
1892.718	5805.6
1896.982	5740.6
1901.243	5683.6
1905.499	5638.6
1909.752	5614.6
1914	5631.6
1918.245	5623.6
1922.485	5665.6
1926.722	5721.6
1930.954	5827.6
1935.183	5858.6
1939.408	5901.6
1943.628	5937.6
1947.845	5942.6
1952.058	5959.6
1956.267	5886.6
1960.472	5833.6
1964.673	5768.6
1968.87	5642.6
1973.063	5535.6
1977.252	5476.6
1981.438	5449.6
1985.619	5401.6
1989.797	5347.6
1993.971	5319.6
1998.14	5271.6
2002.306	5278.6
2006.469	5228.6
2010.627	5231.6
2014.781	5206.6
2018.932	5126.6
2023.078	5125.6
2027.221	5035.6
2031.36	4980.6
2035.495	4870.6
2039.627	4788.6
2043.754	4776.6
2047.878	4690.6
2051.998	4702.6
2056.114	4670.6
2060.226	4680.6
2064.334	4666.6
2068.439	4659.6
2072.54	4696.6
2076.637	4717.6
2080.73	4761.6
2084.82	4771.6
2088.906	4793.6
2092.988	4785.6
2097.066	4757.6
2101.14	4739.6
2105.211	4735.6
2109.278	4697.6
2113.342	4661.6
2117.401	4644.6
2121.457	4629.6
2125.509	4578.6
2129.558	4558.6
2133.602	4513.6
2137.643	4514.6
2141.681	4498.6
2145.714	4471.6
2149.744	4418.6
2153.77	4423.6
2157.793	4368.6
2161.812	4338.6
2165.827	4241.6
2169.838	4176.6
2173.846	4122.6
2177.851	4040.6
2181.851	3978.6
2185.848	3943.6
2189.841	3897.6
2193.831	3863.6
2197.817	3832.6
2201.799	3814.6
2205.778	3800.6
2209.753	3826.6
2213.725	3783.6
2217.693	3749.6
2221.657	3741.6
2225.618	3751.6
2229.575	3750.6
2233.529	3682.6
2237.479	3664.6
2241.425	3606.6
2245.368	3577.6
2249.307	3512.6
2253.243	3472.6
2257.175	3426.6
2261.104	3355.6
2265.029	3333.6
2268.95	3307.6
2272.868	3257.6
2276.783	3236.6
2280.694	3193.6
2284.601	3182.6
2288.505	3135.6
2292.405	3106.6
2296.302	3070.6
2300.195	3067.6
2304.085	2986.6
2307.971	2980.6
2311.854	2903.6
2315.734	2860.6
2319.609	2847.6
2323.482	2809.6
2327.351	2784.6
2331.216	2758.6
2335.078	2770.6
2338.937	2742.6
2342.792	2708.6
2346.643	2710.6
2350.492	2705.6
2354.336	2708.6
2358.178	2710.6
2362.015	2749.6
2365.85	2737.6
2369.681	2746.6
2373.508	2704.6
2377.333	2719.6
2381.153	2714.6
2384.971	2714.6
2388.785	2697.6
2392.595	2654.6
2396.402	2636.6
2400.206	2632.6
2404.007	2596.6
2407.804	2603.6
2411.597	2575.6
2415.388	2532.6
2419.174	2531.6
2422.958	2516.6
2426.738	2504.6
2430.515	2458.6
2434.289	2460.6
2438.059	2435.6
2441.825	2407.6
2445.589	2374.6
2449.349	2361.6
2453.106	2338.6
2456.859	2289.6
2460.61	2294.6
2464.356	2275.6
2468.1	2227.6
2471.84	2203.6
2475.577	2171.6
2479.311	2169.6
2483.041	2173.6
2486.768	2134.6
2490.492	2150.6
2494.213	2106.6
2497.93	2129.6
2501.644	2111.6
2505.355	2094.6
2509.062	2100.6
2512.766	2076.6
2516.467	2056.6
2520.165	2049.6
2523.859	2038.6
2527.551	2024.6
2531.239	2003.6
2534.923	1971.6
2538.605	1968.6
2542.283	1972.6
2545.958	1948.6
2549.63	1964.6
2553.299	1970.6
2556.964	1978.6
2560.626	1953.6
2564.285	1936.6
2567.941	1918.6
2571.594	1920.6
2575.243	1908.6
2578.89	1900.6
2582.533	1878.6
2586.173	1864.6
2589.809	1843.6
2593.443	1840.6
2597.073	1828.6
2600.701	1795.6
2604.325	1790.6
2607.946	1779.6
2611.564	1756.6
2615.178	1748.6
2618.79	1749.6
2622.398	1716.6
2626.004	1697.6
2629.606	1700.6
2633.205	1666.6
2636.801	1654.6
2640.394	1639.6
2643.983	1620.6
2647.57	1569.6
2651.153	1566.6
2654.734	1534.6
2658.311	1508.6
2661.885	1485.6
2665.456	1471.6
2669.025	1459.6
2672.589	1436.6
2676.151	1418.6
2679.71	1410.6
2683.266	1360.6
2686.819	1345.6
2690.368	1318.6
2693.915	1283.6
2697.458	1272.6
2700.999	1241.6
2704.536	1219.6
2708.071	1179.6
2711.602	1163.6
2715.13	1156.6
2718.656	1121.6
2722.178	1095.6
2725.697	1092.6
2729.214	1070.6
2732.727	1050.6
2736.237	1061.6
2739.744	1050.6
2743.249	1041.6
2746.75	1053.6
2750.248	1048.6
2753.743	1066.6
2757.236	1064.6
2760.725	1084.6
2764.211	1110.6
2767.695	1108.6
2771.175	1106.6
2774.652	1089.6
2778.127	1086.6
2781.598	1076.6
2785.067	1066.6
2788.532	1057.6
2791.995	1061.6
2795.455	1083.6
2798.911	1065.6
2802.365	1072.6
2805.816	1068.6
2809.264	1076.6
2812.709	1070.6
2816.151	1065.6
2819.59	1075.6
2823.026	1067.6
2826.46	1061.6
2829.89	1068.6
2833.318	1078.6
2836.742	1083.6
2840.164	1089.6
2843.583	1105.6
2846.999	1105.6
2850.412	1126.6
2853.822	1123.6
2857.229	1137.6
2860.634	1168.6
2864.035	1170.6
2867.434	1197.6
2870.83	1230.6
2874.223	1247.6
2877.613	1289.6
2881	1279.6
2884.385	1304.6
2887.766	1276.6
2891.145	1303.6
2894.521	1284.6
2897.894	1283.6
2901.264	1287.6
2904.631	1297.6
2907.996	1301.6
2911.358	1301.6
2914.717	1313.6
2918.073	1321.6
2921.426	1333.6
2924.777	1350.6
2928.124	1389.6
2931.469	1399.6
2934.811	1427.6
2938.15	1450.6
2941.487	1438.6
2944.821	1456.6
2948.152	1468.6
2951.48	1466.6
2954.805	1442.6
2958.128	1412.6
2961.447	1417.6
2964.765	1391.6
2968.079	1386.6
2971.39	1412.6
2974.699	1442.6
2978.005	1454.6
2981.308	1486.6
2984.609	1522.6
2987.907	1521.6
2991.202	1561.6
2994.494	1586.6
2997.784	1617.6
3001.07	1652.6
3004.355	1677.6
3007.636	1717.6
3010.915	1720.6
3014.191	1758.6
3017.464	1749.6
3020.734	1776.6
3024.002	1761.6
3027.267	1774.6
3030.53	1788.6
3033.789	1847.6
3037.046	1837.6
3040.301	1872.6
3043.552	1905.6
3046.801	1958.6
3050.048	1998.6
3053.291	2031.6
3056.532	2094.6
3059.771	2148.6
3063.006	2219.6
3066.239	2264.6
3069.469	2354.6
3072.697	2433.6
3075.922	2470.6
3079.144	2544.6
3082.364	2588.6
3085.581	2630.6
3088.795	2724.6
3092.007	2765.6
3095.216	2816.6
3098.423	2892.6
3101.627	2934.6
3104.828	3007.6
3108.026	3083.6
3111.222	3120.6
3114.416	3216.6
3117.607	3300.6
3120.795	3341.6
3123.98	3438.6
3127.163	3527.6
3130.344	3619.6
3133.521	3697.6
3136.696	3764.6
3139.869	3846.6
3143.039	3922.6
3146.206	3996.6
3149.371	4015.6
3152.533	4067.6
3155.693	4090.6
3158.85	4121.6
3162.005	4125.6
3165.157	4117.6
3168.306	4127.6
3171.453	4191.6
3174.597	4167.6
3177.739	4174.6
3180.878	4163.6
3184.014	4196.6
3187.149	4192.6
3190.28	4178.6
3193.409	4210.6
3196.536	4223.6
3199.659	4214.6
3202.781	4266.6
3205.9	4228.6
3209.016	4206.6
3212.13	4194.6
3215.241	4170.6
3218.35	4094.6
3221.456	4081.6
3224.56	4042.6
3227.661	4007.6
3230.76	3963.6
3233.856	3921.6
3236.95	3877.6
3240.041	3857.6
3243.13	3832.6
3246.216	3802.6
3249.3	3771.6
3252.382	3759.6
3255.46	3756.6
3258.537	3740.6
3261.611	3736.6
3264.682	3726.6
3267.751	3739.6
3270.818	3720.6
3273.882	3692.6
3276.943	3674.6
3280.002	3650.6
3283.059	3625.6
3286.113	3578.6
3289.165	3545.6
3292.214	3479.6
3295.261	3424.6
3298.306	3373.6
3301.348	3300.6
3304.387	3253.6
3307.425	3201.6
3310.459	3190.6
3313.492	3093.6
3316.521	3094.6
3319.549	3066.6
3322.574	3016.6
3325.597	2979.6
3328.617	2995.6
3331.635	2950.6
3334.65	2909.6
3337.663	2924.6
3340.674	2899.6
3343.682	2892.6
3346.688	2850.6
3349.691	2839.6
3352.692	2872.6
3355.691	2824.6
3358.687	2799.6
3361.681	2762.6
3364.673	2724.6
3367.662	2689.6
3370.649	2663.6
3373.633	2606.6
3376.615	2583.6
3379.595	2544.6
3382.572	2510.6
3385.547	2481.6
3388.52	2458.6
3391.49	2395.6
3394.458	2344.6
3397.424	2325.6
3400.387	2314.6
3403.348	2261.6
3406.307	2256.6
3409.263	2231.6
3412.217	2207.6
3415.168	2179.6
3418.118	2161.6
3421.065	2095.6
3424.009	2091.6
3426.951	2031.6
3429.891	2007.6
3432.829	1962.6
3435.764	1924.6
3438.697	1870.6
3441.628	1833.6
3444.557	1771.6
3447.483	1723.6
3450.407	1656.6
3453.328	1597.6
3456.247	1551.6
3459.164	1469.6
3462.079	1455.6
3464.991	1382.6
3467.902	1335.6
3470.809	1300.6
3473.715	1246.6
3476.618	1202.6
3479.519	1157.6
3482.418	1117.6
3485.315	1083.6
3488.209	1018.6
3491.101	1007.6
3493.99	973.6
3496.878	918.6
3499.763	879.6
3502.646	849.6
3505.527	815.6
3508.405	770.6
3511.281	715.6
3514.155	697.6
3517.027	665.6
3519.897	595.6
3522.764	553.6
3525.629	510.6
3528.492	465.6
3531.352	419.6
3534.211	393.6
3537.067	338.6
3539.921	316.6
3542.773	280.6
3545.622	253.6
3548.469	216.6
3551.315	177.6
3554.157	159.6
3556.998	135.6
3559.837	99.6
3562.673	77.6
3565.507	62.6
3568.339	30.6
3571.169	4.6
3573.996	-12.4
3576.822	-29.4
3579.645	-51.4
3582.466	-70.4
3585.285	-96.4
3588.101	-123.4
3590.916	-139.4
3593.728	-166.4
3596.538	-176.4
3599.346	-182.4
3602.152	-212.4
3604.956	-223.4
3607.757	-242.4
3610.556	-264.4
3613.354	-277.4
3616.149	-290.4
3618.942	-296.4
3621.732	-303.4
3624.521	-315.4
3627.307	-326.4
3630.092	-335.4
3632.874	-357.4
3635.654	-366.4
3638.432	-374.4
3641.208	-381.4
3643.982	-381.4
3646.753	-393.4
3649.523	-412.4
3652.29	-414.4
3655.055	-432.4
3657.818	-439.4
3660.579	-455.4
3663.338	-446.4
3666.095	-473.4
3668.849	-482.4
3671.602	-493.4
3674.352	-499.4
3677.101	-502.4
3679.847	-514.4
3682.591	-508.4
3685.333	-519.4
3688.073	-525.4
3690.811	-523.4
3693.547	-525.4
3696.281	-544.4
3699.013	-543.4
3701.742	-548.4
3704.47	-561.4
3707.195	-566.4
3709.919	-568.4
3712.64	-567.4
3715.359	-573.4
3718.076	-580.4
3720.792	-585.4
3723.505	-582.4
3726.216	-588.4
3728.925	-589.4
3731.632	-604.4
3734.336	-603.4
3737.039	-610.4
3739.74	-609.4
3742.439	-611.4
3745.136	-612.4
3747.83	-615.4
3750.523	-613.4
3753.213	-628.4
3755.902	-623.4
3758.589	-618.4
3761.273	-617.4
3763.956	-623.4
3766.636	-621.4
3769.315	-628.4
3771.991	-628.4
3774.665	-630.4
3777.338	-629.4
3780.008	-634.4
3782.677	-634.4
3785.343	-637.4
3788.007	-633.4
3790.67	-639.4
3793.33	-639.4
3795.989	-643.4
3798.645	-648.4
3801.299	-645.4
3803.952	-653.4
3806.602	-646.4
3809.251	-657.4
3811.897	-644.4
3814.542	-642.4
3817.184	-641.4
3819.825	-646.4
3822.463	-646.4
3825.1	-652.4
3827.735	-651.4
3830.367	-654.4
3832.998	-654.4
3835.627	-660.4
3838.253	-651.4
3840.878	-659.4
3843.501	-656.4
3846.122	-655.4
3848.741	-658.4
3851.358	-660.4
3853.973	-658.4
3856.586	-659.4
3859.197	-662.4
3861.806	-661.4
3864.414	-663.4
3867.019	-653.4
3869.622	-667.4
3872.224	-653.4
3874.823	-643.4
3877.421	-615.4
3880.016	-597.4
3882.61	-566.4
3885.202	-566.4
3887.792	-599.4
3890.38	-627.4
3892.966	-641.4
3895.55	-660.4
3898.132	-665.4
3900.713	-671.4
3903.291	-670.4
3905.868	-671.4
3908.442	-673.4
3911.015	-668.4
3913.586	-672.4
3916.155	-673.4
3918.722	-668.4
3921.287	-676.4
3923.85	-669.4
3926.411	-676.4
3928.971	-675.4
3931.528	-678.4
3934.084	-673.4
3936.638	-676.4
3939.19	-676.4
3941.74	-681.4
3944.288	-679.4
3946.834	-678.4
3949.378	-678.4
3951.921	-675.4
3954.462	-672.4
3957	-678.4
3959.537	-671.4
3962.072	-673.4
3964.606	-666.4
3967.137	-679.4
3969.667	-668.4
3972.194	-668.4
3974.72	-668.4
3977.244	-666.4
3979.766	-666.4
3982.286	-668.4
3984.805	-657.4
3987.321	-661.4
3989.836	-667.4
3992.349	-667.4
3994.86	-662.4
3997.369	-672.4
3999.877	-666.4
4002.382	-658.4
4004.886	-663.4
4007.388	-668.4
4009.888	-660.4
4012.386	-661.4
4014.883	-663.4
4017.377	-656.4
4019.87	-658.4
4022.361	-662.4
4024.85	-663.4
4027.338	-666.4
4029.823	-656.4
4032.307	-670.4
4034.789	-666.4
4037.269	-671.4
4039.747	-671.4
4042.224	-661.4
4044.699	-662.4
4047.172	-671.4
4049.643	-667.4
4052.112	-662.4
4054.58	-659.4
4057.046	-668.4
4059.51	-671.4
4061.972	-671.4
4064.432	-668.4
4066.891	-665.4
4069.348	-671.4
4071.803	-667.4
4074.256	-663.4
4076.708	-666.4
4079.158	-663.4
4081.606	-658.4
4084.052	-659.4
4086.497	-667.4
4088.939	-656.4
4091.38	-658.4
4093.819	-661.4
4096.257	-699.4
4098.693	-700.4
4101.127	-704.4
4103.559	-703.4
4105.989	-414.4
4108.418	-398.4
4110.845	-378.4
4113.27	-349.4
4115.694	-302.4
4118.115	-255.4
4120.535	-660.4
4122.954	-670.4
4125.37	-665.4
4127.785	-658.4
4130.198	-670.4
4132.609	-659.4
4135.019	-703.4
4137.427	-700.4
4139.833	-697.4
4142.237	-698.4
