Data from 2018-2-7_conc=5_RamanShift_11.txt Node
Date: Tue Feb 13 14:03:13 IST 2018
User: aro
Spectrometer: QEPB0276
Trigger mode: 0
Integration Time (sec): 3.000000E1
Scans to average: 1
Electric dark correction enabled: true
Nonlinearity correction enabled: false
Boxcar width: 0
XAxis mode: Raman Shifts
Number of Pixels in Spectrum: 1044
>>>>>Begin Spectral Data<<<<<
160.701	-145.9
166.742	25.1
172.777	563.1
178.805	2113.1
184.826	5821.1
190.841	11985.1
196.849	18905.1
202.85	23718.1
208.845	25278.1
214.833	24963.1
220.815	24520.1
226.789	24367.1
232.758	24261.1
238.719	24115.1
244.674	23736.1
250.623	23332.1
256.565	22858.1
262.5	22410.1
268.429	22022.1
274.351	21713.1
280.267	21372.1
286.176	21186.1
292.079	20986.1
297.975	20807.1
303.865	20586.1
309.748	20433.1
315.625	20329.1
321.495	20220.1
327.359	20108.1
333.217	20053.1
339.068	20140.1
344.912	20115.1
350.751	20026.1
356.583	20015.1
362.408	20041.1
368.227	19969.1
374.04	20091.1
379.847	20067.1
385.647	20195.1
391.44	20234.1
397.228	20304.1
403.009	20359.1
408.784	20428.1
414.553	20507.1
420.315	20524.1
426.071	20617.1
431.821	20563.1
437.565	20563.1
443.302	20531.1
449.033	20503.1
454.758	20430.1
460.477	20427.1
466.189	20315.1
471.896	20292.1
477.596	20263.1
483.29	20248.1
488.978	20186.1
494.66	20090.1
500.335	20024.1
506.005	19786.1
511.668	19577.1
517.325	19277.1
522.977	19180.1
528.622	18951.1
534.261	18929.1
539.894	18882.1
545.521	18803.1
551.141	18695.1
556.756	18641.1
562.365	18562.1
567.968	18481.1
573.565	18437.1
579.155	18299.1
584.74	18311.1
590.319	18214.1
595.892	18154.1
601.459	18141.1
607.02	18075.1
612.575	17920.1
618.124	17818.1
623.667	17758.1
629.204	17640.1
634.735	17547.1
640.261	17446.1
645.781	17376.1
651.294	17361.1
656.802	17378.1
662.304	17325.1
667.8	17290.1
673.29	17283.1
678.775	17243.1
684.254	17220.1
689.726	17208.1
695.193	17091.1
700.655	17001.1
706.11	16922.1
711.56	16837.1
717.004	16776.1
722.442	16769.1
727.874	16669.1
733.301	16595.1
738.722	16546.1
744.137	16511.1
749.547	16497.1
754.951	16497.1
760.349	16568.1
765.741	16497.1
771.128	16559.1
776.509	16569.1
781.885	16505.1
787.254	16505.1
792.618	16426.1
797.977	16350.1
803.33	16198.1
808.677	16110.1
814.019	16059.1
819.355	16015.1
824.686	15929.1
830.011	15881.1
835.33	15879.1
840.644	15876.1
845.952	15964.1
851.255	15942.1
856.552	16005.1
861.844	15985.1
867.13	15921.1
872.41	15858.1
877.686	15785.1
882.955	15703.1
888.219	15551.1
893.478	15403.1
898.731	15182.1
903.979	15034.1
909.221	14956.1
914.458	14855.1
919.69	14882.1
924.916	14988.1
930.136	14969.1
935.351	15038.1
940.561	15032.1
945.766	14960.1
950.965	14867.1
956.158	14802.1
961.347	14665.1
966.529	14500.1
971.707	14262.1
976.879	14098.1
982.046	14029.1
987.208	13974.1
992.364	13967.1
997.515	14078.1
1002.66	14154.1
1007.801	14348.1
1012.936	14420.1
1018.066	14477.1
1023.19	14423.1
1028.309	14454.1
1033.423	14411.1
1038.532	14314.1
1043.636	14208.1
1048.734	14027.1
1053.827	13840.1
1058.915	13721.1
1063.998	13616.1
1069.075	13598.1
1074.147	13609.1
1079.214	13641.1
1084.276	13770.1
1089.333	13889.1
1094.385	13867.1
1099.431	13946.1
1104.472	13930.1
1109.509	13827.1
1114.54	13741.1
1119.565	13486.1
1124.586	13380.1
1129.602	13250.1
1134.613	13196.1
1139.618	13060.1
1144.619	13045.1
1149.614	13038.1
1154.604	13070.1
1159.589	13120.1
1164.57	13144.1
1169.545	13176.1
1174.515	13171.1
1179.48	13141.1
1184.44	12993.1
1189.395	12919.1
1194.345	12823.1
1199.29	12725.1
1204.23	12803.1
1209.165	12834.1
1214.095	12904.1
1219.021	12891.1
1223.941	12978.1
1228.856	13126.1
1233.766	13128.1
1238.672	13132.1
1243.572	13130.1
1248.467	13031.1
1253.358	12938.1
1258.244	12708.1
1263.124	12516.1
1268	12340.1
1272.871	12211.1
1277.737	12104.1
1282.599	12044.1
1287.455	12078.1
1292.306	12052.1
1297.153	12136.1
1301.995	12199.1
1306.832	12190.1
1311.664	12220.1
1316.491	12159.1
1321.314	12056.1
1326.132	11846.1
1330.945	11626.1
1335.753	11369.1
1340.556	11061.1
1345.354	10832.1
1350.148	10648.1
1354.937	10553.1
1359.722	10539.1
1364.501	10549.1
1369.276	10642.1
1374.046	10739.1
1378.811	10900.1
1383.572	10987.1
1388.327	11081.1
1393.079	11044.1
1397.825	10910.1
1402.567	10817.1
1407.304	10690.1
1412.036	10596.1
1416.764	10505.1
1421.487	10470.1
1426.205	10379.1
1430.919	10403.1
1435.628	10377.1
1440.333	10406.1
1445.032	10402.1
1449.727	10438.1
1454.418	10410.1
1459.104	10326.1
1463.785	10067.1
1468.462	9884.1
1473.134	9649.1
1477.802	9421.1
1482.465	9235.1
1487.123	9148.1
1491.777	9091.1
1496.426	9124.1
1501.071	9215.1
1505.711	9336.1
1510.347	9519.1
1514.978	9646.1
1519.604	9759.1
1524.226	9882.1
1528.844	9921.1
1533.457	9912.1
1538.065	9870.1
1542.669	9823.1
1547.269	9751.1
1551.864	9693.1
1556.454	9703.1
1561.041	9694.1
1565.622	9658.1
1570.199	9738.1
1574.772	9743.1
1579.34	9801.1
1583.904	9863.1
1588.464	9920.1
1593.019	9913.1
1597.569	9867.1
1602.115	9839.1
1606.657	9709.1
1611.195	9712.1
1615.728	9610.1
1620.256	9592.1
1624.78	9564.1
1629.3	9577.1
1633.816	9601.1
1638.327	9659.1
1642.834	9665.1
1647.336	9718.1
1651.834	9667.1
1656.328	9678.1
1660.817	9578.1
1665.302	9515.1
1669.783	9334.1
1674.259	9141.1
1678.732	8802.1
1683.199	8550.1
1687.663	8227.1
1692.122	7984.1
1696.577	7777.1
1701.028	7764.1
1705.474	7785.1
1709.917	7911.1
1714.355	7977.1
1718.788	7925.1
1723.218	7810.1
1727.643	7680.1
1732.064	7575.1
1736.481	7415.1
1740.893	7252.1
1745.301	7037.1
1749.705	6871.1
1754.105	6659.1
1758.501	6492.1
1762.893	6273.1
1767.28	6137.1
1771.663	6003.1
1776.042	5869.1
1780.417	5811.1
1784.787	5785.1
1789.154	5808.1
1793.516	5885.1
1797.874	5992.1
1802.228	6092.1
1806.578	6230.1
1810.924	6181.1
1815.266	6190.1
1819.603	6106.1
1823.937	6012.1
1828.266	5922.1
1832.591	5840.1
1836.913	5796.1
1841.23	5718.1
1845.543	5680.1
1849.852	5659.1
1854.156	5642.1
1858.457	5606.1
1862.754	5621.1
1867.047	5609.1
1871.335	5572.1
1875.62	5566.1
1879.9	5559.1
1884.177	5521.1
1888.449	5460.1
1892.718	5366.1
1896.982	5320.1
1901.243	5227.1
1905.499	5177.1
1909.752	5205.1
1914	5164.1
1918.245	5173.1
1922.485	5203.1
1926.722	5254.1
1930.954	5291.1
1935.183	5339.1
1939.408	5425.1
1943.628	5468.1
1947.845	5479.1
1952.058	5450.1
1956.267	5427.1
1960.472	5374.1
1964.673	5282.1
1968.87	5218.1
1973.063	5136.1
1977.252	5106.1
1981.438	5050.1
1985.619	4963.1
1989.797	4953.1
1993.971	4926.1
1998.14	4913.1
2002.306	4892.1
2006.469	4870.1
2010.627	4824.1
2014.781	4827.1
2018.932	4811.1
2023.078	4746.1
2027.221	4709.1
2031.36	4595.1
2035.495	4489.1
2039.627	4474.1
2043.754	4421.1
2047.878	4359.1
2051.998	4301.1
2056.114	4296.1
2060.226	4278.1
2064.334	4278.1
2068.439	4292.1
2072.54	4321.1
2076.637	4345.1
2080.73	4371.1
2084.82	4356.1
2088.906	4383.1
2092.988	4380.1
2097.066	4362.1
2101.14	4356.1
2105.211	4349.1
2109.278	4309.1
2113.342	4288.1
2117.401	4267.1
2121.457	4242.1
2125.509	4233.1
2129.558	4199.1
2133.602	4192.1
2137.643	4175.1
2141.681	4154.1
2145.714	4132.1
2149.744	4104.1
2153.77	4098.1
2157.793	4029.1
2161.812	4005.1
2165.827	3938.1
2169.838	3907.1
2173.846	3825.1
2177.851	3795.1
2181.851	3730.1
2185.848	3684.1
2189.841	3666.1
2193.831	3572.1
2197.817	3598.1
2201.799	3566.1
2205.778	3518.1
2209.753	3531.1
2213.725	3511.1
2217.693	3501.1
2221.657	3506.1
2225.618	3487.1
2229.575	3488.1
2233.529	3449.1
2237.479	3431.1
2241.425	3364.1
2245.368	3359.1
2249.307	3294.1
2253.243	3244.1
2257.175	3220.1
2261.104	3154.1
2265.029	3120.1
2268.95	3088.1
2272.868	3082.1
2276.783	3045.1
2280.694	3023.1
2284.601	3008.1
2288.505	2950.1
2292.405	2925.1
2296.302	2919.1
2300.195	2895.1
2304.085	2851.1
2307.971	2806.1
2311.854	2759.1
2315.734	2752.1
2319.609	2708.1
2323.482	2680.1
2327.351	2656.1
2331.216	2634.1
2335.078	2598.1
2338.937	2604.1
2342.792	2614.1
2346.643	2598.1
2350.492	2614.1
2354.336	2615.1
2358.178	2607.1
2362.015	2630.1
2365.85	2635.1
2369.681	2658.1
2373.508	2649.1
2377.333	2642.1
2381.153	2596.1
2384.971	2625.1
2388.785	2600.1
2392.595	2589.1
2396.402	2571.1
2400.206	2532.1
2404.007	2516.1
2407.804	2520.1
2411.597	2500.1
2415.388	2483.1
2419.174	2451.1
2422.958	2451.1
2426.738	2425.1
2430.515	2401.1
2434.289	2413.1
2438.059	2377.1
2441.825	2362.1
2445.589	2338.1
2449.349	2306.1
2453.106	2277.1
2456.859	2240.1
2460.61	2227.1
2464.356	2183.1
2468.1	2169.1
2471.84	2148.1
2475.577	2128.1
2479.311	2101.1
2483.041	2140.1
2486.768	2115.1
2490.492	2092.1
2494.213	2079.1
2497.93	2078.1
2501.644	2052.1
2505.355	2047.1
2509.062	2032.1
2512.766	2007.1
2516.467	1990.1
2520.165	2014.1
2523.859	1971.1
2527.551	1972.1
2531.239	1924.1
2534.923	1929.1
2538.605	1908.1
2542.283	1905.1
2545.958	1926.1
2549.63	1881.1
2553.299	1903.1
2556.964	1890.1
2560.626	1881.1
2564.285	1888.1
2567.941	1879.1
2571.594	1855.1
2575.243	1841.1
2578.89	1852.1
2582.533	1827.1
2586.173	1821.1
2589.809	1809.1
2593.443	1778.1
2597.073	1756.1
2600.701	1759.1
2604.325	1735.1
2607.946	1725.1
2611.564	1728.1
2615.178	1731.1
2618.79	1677.1
2622.398	1674.1
2626.004	1658.1
2629.606	1655.1
2633.205	1634.1
2636.801	1611.1
2640.394	1583.1
2643.983	1563.1
2647.57	1546.1
2651.153	1527.1
2654.734	1514.1
2658.311	1487.1
2661.885	1455.1
2665.456	1444.1
2669.025	1438.1
2672.589	1408.1
2676.151	1401.1
2679.71	1379.1
2683.266	1345.1
2686.819	1320.1
2690.368	1299.1
2693.915	1281.1
2697.458	1245.1
2700.999	1237.1
2704.536	1195.1
2708.071	1166.1
2711.602	1158.1
2715.13	1121.1
2718.656	1096.1
2722.178	1052.1
2725.697	1032.1
2729.214	1022.1
2732.727	1024.1
2736.237	1019.1
2739.744	1009.1
2743.249	996.1
2746.75	1013.1
2750.248	1005.1
2753.743	1017.1
2757.236	1018.1
2760.725	1018.1
2764.211	1045.1
2767.695	1053.1
2771.175	1047.1
2774.652	1051.1
2778.127	1053.1
2781.598	1025.1
2785.067	1024.1
2788.532	1020.1
2791.995	1027.1
2795.455	1012.1
2798.911	1024.1
2802.365	1034.1
2805.816	1036.1
2809.264	1029.1
2812.709	1004.1
2816.151	1012.1
2819.59	1020.1
2823.026	1029.1
2826.46	1008.1
2829.89	1028.1
2833.318	1027.1
2836.742	1018.1
2840.164	1045.1
2843.583	1044.1
2846.999	1049.1
2850.412	1059.1
2853.822	1074.1
2857.229	1080.1
2860.634	1101.1
2864.035	1111.1
2867.434	1164.1
2870.83	1162.1
2874.223	1163.1
2877.613	1206.1
2881	1198.1
2884.385	1226.1
2887.766	1208.1
2891.145	1212.1
2894.521	1196.1
2897.894	1192.1
2901.264	1199.1
2904.631	1199.1
2907.996	1201.1
2911.358	1210.1
2914.717	1220.1
2918.073	1218.1
2921.426	1229.1
2924.777	1258.1
2928.124	1278.1
2931.469	1263.1
2934.811	1310.1
2938.15	1322.1
2941.487	1319.1
2944.821	1344.1
2948.152	1321.1
2951.48	1313.1
2954.805	1296.1
2958.128	1285.1
2961.447	1272.1
2964.765	1268.1
2968.079	1263.1
2971.39	1279.1
2974.699	1298.1
2978.005	1291.1
2981.308	1335.1
2984.609	1348.1
2987.907	1351.1
2991.202	1382.1
2994.494	1412.1
2997.784	1441.1
3001.07	1469.1
3004.355	1503.1
3007.636	1508.1
3010.915	1531.1
3014.191	1553.1
3017.464	1552.1
3020.734	1563.1
3024.002	1573.1
3027.267	1584.1
3030.53	1597.1
3033.789	1594.1
3037.046	1653.1
3040.301	1661.1
3043.552	1698.1
3046.801	1739.1
3050.048	1762.1
3053.291	1826.1
3056.532	1863.1
3059.771	1894.1
3063.006	1952.1
3066.239	2007.1
3069.469	2053.1
3072.697	2142.1
3075.922	2178.1
3079.144	2245.1
3082.364	2284.1
3085.581	2316.1
3088.795	2372.1
3092.007	2426.1
3095.216	2445.1
3098.423	2507.1
3101.627	2582.1
3104.828	2614.1
3108.026	2691.1
3111.222	2743.1
3114.416	2802.1
3117.607	2853.1
3120.795	2931.1
3123.98	3003.1
3127.163	3064.1
3130.344	3129.1
3133.521	3218.1
3136.696	3280.1
3139.869	3324.1
3143.039	3417.1
3146.206	3449.1
3149.371	3488.1
3152.533	3511.1
3155.693	3549.1
3158.85	3600.1
3162.005	3549.1
3165.157	3591.1
3168.306	3601.1
3171.453	3597.1
3174.597	3586.1
3177.739	3614.1
3180.878	3621.1
3184.014	3629.1
3187.149	3622.1
3190.28	3648.1
3193.409	3647.1
3196.536	3619.1
3199.659	3633.1
3202.781	3645.1
3205.9	3610.1
3209.016	3643.1
3212.13	3625.1
3215.241	3563.1
3218.35	3550.1
3221.456	3506.1
3224.56	3472.1
3227.661	3448.1
3230.76	3412.1
3233.856	3372.1
3236.95	3339.1
3240.041	3305.1
3243.13	3246.1
3246.216	3233.1
3249.3	3214.1
3252.382	3211.1
3255.46	3198.1
3258.537	3190.1
3261.611	3183.1
3264.682	3184.1
3267.751	3175.1
3270.818	3179.1
3273.882	3162.1
3276.943	3093.1
3280.002	3121.1
3283.059	3076.1
3286.113	3044.1
3289.165	3004.1
3292.214	3005.1
3295.261	2935.1
3298.306	2874.1
3301.348	2836.1
3304.387	2802.1
3307.425	2740.1
3310.459	2722.1
3313.492	2665.1
3316.521	2643.1
3319.549	2608.1
3322.574	2587.1
3325.597	2551.1
3328.617	2568.1
3331.635	2532.1
3334.65	2512.1
3337.663	2504.1
3340.674	2490.1
3343.682	2463.1
3346.688	2469.1
3349.691	2448.1
3352.692	2438.1
3355.691	2413.1
3358.687	2414.1
3361.681	2373.1
3364.673	2346.1
3367.662	2300.1
3370.649	2281.1
3373.633	2229.1
3376.615	2219.1
3379.595	2167.1
3382.572	2140.1
3385.547	2114.1
3388.52	2074.1
3391.49	2047.1
3394.458	2023.1
3397.424	1991.1
3400.387	1953.1
3403.348	1955.1
3406.307	1894.1
3409.263	1875.1
3412.217	1870.1
3415.168	1833.1
3418.118	1807.1
3421.065	1793.1
3424.009	1767.1
3426.951	1727.1
3429.891	1710.1
3432.829	1668.1
3435.764	1622.1
3438.697	1594.1
3441.628	1558.1
3444.557	1511.1
3447.483	1456.1
3450.407	1396.1
3453.328	1352.1
3456.247	1295.1
3459.164	1253.1
3462.079	1231.1
3464.991	1162.1
3467.902	1089.1
3470.809	1079.1
3473.715	1024.1
3476.618	1007.1
3479.519	958.1
3482.418	941.1
3485.315	890.1
3488.209	853.1
3491.101	816.1
3493.99	793.1
3496.878	768.1
3499.763	734.1
3502.646	712.1
3505.527	652.1
3508.405	624.1
3511.281	595.1
3514.155	552.1
3517.027	503.1
3519.897	479.1
3522.764	460.1
3525.629	422.1
3528.492	367.1
3531.352	334.1
3534.211	299.1
3537.067	254.1
3539.921	234.1
3542.773	208.1
3545.622	160.1
3548.469	140.1
3551.315	126.1
3554.157	101.1
3556.998	85.1
3559.837	44.1
3562.673	22.1
3565.507	10.1
3568.339	-10.9
3571.169	-17.9
3573.996	-40.9
3576.822	-66.9
3579.645	-77.9
3582.466	-101.9
3585.285	-120.9
3588.101	-131.9
3590.916	-150.9
3593.728	-166.9
3596.538	-189.9
3599.346	-203.9
3602.152	-211.9
3604.956	-226.9
3607.757	-243.9
3610.556	-248.9
3613.354	-272.9
3616.149	-273.9
3618.942	-287.9
3621.732	-304.9
3624.521	-307.9
3627.307	-320.9
3630.092	-332.9
3632.874	-332.9
3635.654	-339.9
3638.432	-354.9
3641.208	-360.9
3643.982	-361.9
3646.753	-371.9
3649.523	-380.9
3652.29	-394.9
3655.055	-399.9
3657.818	-410.9
3660.579	-418.9
3663.338	-420.9
3666.095	-433.9
3668.849	-453.9
3671.602	-451.9
3674.352	-453.9
3677.101	-455.9
3679.847	-471.9
3682.591	-477.9
3685.333	-477.9
3688.073	-480.9
3690.811	-485.9
3693.547	-488.9
3696.281	-499.9
3699.013	-498.9
3701.742	-509.9
3704.47	-507.9
3707.195	-525.9
3709.919	-518.9
3712.64	-514.9
3715.359	-528.9
3718.076	-531.9
3720.792	-531.9
3723.505	-538.9
3726.216	-538.9
3728.925	-546.9
3731.632	-548.9
3734.336	-551.9
3737.039	-557.9
3739.74	-548.9
3742.439	-550.9
3745.136	-553.9
3747.83	-561.9
3750.523	-557.9
3753.213	-567.9
3755.902	-563.9
3758.589	-562.9
3761.273	-564.9
3763.956	-564.9
3766.636	-566.9
3769.315	-573.9
3771.991	-573.9
3774.665	-568.9
3777.338	-576.9
3780.008	-573.9
3782.677	-580.9
3785.343	-582.9
3788.007	-569.9
3790.67	-583.9
3793.33	-583.9
3795.989	-586.9
3798.645	-585.9
3801.299	-593.9
3803.952	-591.9
3806.602	-585.9
3809.251	-595.9
3811.897	-586.9
3814.542	-585.9
3817.184	-586.9
3819.825	-591.9
3822.463	-587.9
3825.1	-591.9
3827.735	-598.9
3830.367	-593.9
3832.998	-598.9
3835.627	-601.9
3838.253	-601.9
3840.878	-595.9
3843.501	-597.9
3846.122	-591.9
3848.741	-600.9
3851.358	-605.9
3853.973	-597.9
3856.586	-603.9
3859.197	-600.9
3861.806	-603.9
3864.414	-596.9
3867.019	-600.9
3869.622	-604.9
3872.224	-594.9
3874.823	-581.9
3877.421	-563.9
3880.016	-552.9
3882.61	-520.9
3885.202	-523.9
3887.792	-549.9
3890.38	-571.9
3892.966	-591.9
3895.55	-599.9
3898.132	-603.9
3900.713	-609.9
3903.291	-613.9
3905.868	-609.9
3908.442	-613.9
3911.015	-605.9
3913.586	-612.9
3916.155	-611.9
3918.722	-611.9
3921.287	-609.9
3923.85	-613.9
3926.411	-609.9
3928.971	-620.9
3931.528	-612.9
3934.084	-610.9
3936.638	-615.9
3939.19	-621.9
3941.74	-621.9
3944.288	-623.9
3946.834	-619.9
3949.378	-621.9
3951.921	-619.9
3954.462	-621.9
3957	-613.9
3959.537	-610.9
3962.072	-614.9
3964.606	-610.9
3967.137	-621.9
3969.667	-618.9
3972.194	-609.9
3974.72	-612.9
3977.244	-606.9
3979.766	-603.9
3982.286	-606.9
3984.805	-600.9
3987.321	-599.9
3989.836	-601.9
3992.349	-601.9
3994.86	-602.9
3997.369	-609.9
3999.877	-606.9
4002.382	-598.9
4004.886	-604.9
4007.388	-607.9
4009.888	-605.9
4012.386	-605.9
4014.883	-603.9
4017.377	-604.9
4019.87	-601.9
4022.361	-602.9
4024.85	-599.9
4027.338	-606.9
4029.823	-607.9
4032.307	-608.9
4034.789	-611.9
4037.269	-613.9
4039.747	-614.9
4042.224	-605.9
4044.699	-605.9
4047.172	-605.9
4049.643	-604.9
4052.112	-611.9
4054.58	-599.9
4057.046	-611.9
4059.51	-608.9
4061.972	-610.9
4064.432	-601.9
4066.891	-606.9
4069.348	-607.9
4071.803	-603.9
4074.256	-603.9
4076.708	-607.9
4079.158	-607.9
4081.606	-608.9
4084.052	-606.9
4086.497	-608.9
4088.939	-597.9
4091.38	-602.9
4093.819	-604.9
4096.257	-643.9
4098.693	-642.9
4101.127	-641.9
4103.559	-644.9
4105.989	-385.9
4108.418	-357.9
4110.845	-342.9
4113.27	-323.9
4115.694	-267.9
4118.115	-231.9
4120.535	-605.9
4122.954	-613.9
4125.37	-606.9
4127.785	-608.9
4130.198	-608.9
4132.609	-601.9
4135.019	-641.9
4137.427	-640.9
4139.833	-636.9
4142.237	-635.9
