Data from 2018-2-7_conc=4_RamanShift_28.txt Node
Date: Tue Feb 13 13:49:13 IST 2018
User: aro
Spectrometer: QEPB0276
Trigger mode: 0
Integration Time (sec): 3.000000E1
Scans to average: 1
Electric dark correction enabled: true
Nonlinearity correction enabled: false
Boxcar width: 0
XAxis mode: Raman Shifts
Number of Pixels in Spectrum: 1044
>>>>>Begin Spectral Data<<<<<
160.701	-176.6
166.742	32.4
172.777	586.4
178.805	2287.4
184.826	6230.4
190.841	12878.4
196.849	20360.4
202.85	25456.4
208.845	26990.4
214.833	26636.4
220.815	26133.4
226.789	25883.4
232.758	25793.4
238.719	25476.4
244.674	25114.4
250.623	24641.4
256.565	24092.4
262.5	23527.4
268.429	23003.4
274.351	22693.4
280.267	22381.4
286.176	22124.4
292.079	21870.4
297.975	21588.4
303.865	21499.4
309.748	21197.4
315.625	21048.4
321.495	20951.4
327.359	20864.4
333.217	20795.4
339.068	20814.4
344.912	20751.4
350.751	20748.4
356.583	20733.4
362.408	20763.4
368.227	20711.4
374.04	20765.4
379.847	20829.4
385.647	20890.4
391.44	20934.4
397.228	21035.4
403.009	21116.4
408.784	21227.4
414.553	21264.4
420.315	21293.4
426.071	21353.4
431.821	21256.4
437.565	21258.4
443.302	21233.4
449.033	21176.4
454.758	21197.4
460.477	21085.4
466.189	21025.4
471.896	21007.4
477.596	20966.4
483.29	20953.4
488.978	20893.4
494.66	20811.4
500.335	20637.4
506.005	20416.4
511.668	20122.4
517.325	19918.4
522.977	19716.4
528.622	19604.4
534.261	19473.4
539.894	19384.4
545.521	19291.4
551.141	19183.4
556.756	19105.4
562.365	19068.4
567.968	19017.4
573.565	18910.4
579.155	18863.4
584.74	18794.4
590.319	18706.4
595.892	18613.4
601.459	18510.4
607.02	18484.4
612.575	18307.4
618.124	18233.4
623.667	18110.4
629.204	18004.4
634.735	17923.4
640.261	17846.4
645.781	17834.4
651.294	17766.4
656.802	17813.4
662.304	17741.4
667.8	17694.4
673.29	17669.4
678.775	17622.4
684.254	17541.4
689.726	17477.4
695.193	17465.4
700.655	17346.4
706.11	17293.4
711.56	17203.4
717.004	17052.4
722.442	17000.4
727.874	16928.4
733.301	16914.4
738.722	16888.4
744.137	16801.4
749.547	16796.4
754.951	16788.4
760.349	16798.4
765.741	16884.4
771.128	16838.4
776.509	16870.4
781.885	16800.4
787.254	16790.4
792.618	16709.4
797.977	16591.4
803.33	16487.4
808.677	16410.4
814.019	16289.4
819.355	16230.4
824.686	16113.4
830.011	16072.4
835.33	16120.4
840.644	16145.4
845.952	16135.4
851.255	16167.4
856.552	16231.4
861.844	16180.4
867.13	16165.4
872.41	16103.4
877.686	15985.4
882.955	15873.4
888.219	15724.4
893.478	15557.4
898.731	15322.4
903.979	15176.4
909.221	15045.4
914.458	14998.4
919.69	14999.4
924.916	15050.4
930.136	15051.4
935.351	15145.4
940.561	15157.4
945.766	15102.4
950.965	15016.4
956.158	14846.4
961.347	14747.4
966.529	14570.4
971.707	14339.4
976.879	14185.4
982.046	14073.4
987.208	14070.4
992.364	14035.4
997.515	14099.4
1002.66	14259.4
1007.801	14478.4
1012.936	14548.4
1018.066	14478.4
1023.19	14533.4
1028.309	14495.4
1033.423	14445.4
1038.532	14423.4
1043.636	14245.4
1048.734	14120.4
1053.827	13866.4
1058.915	13739.4
1063.998	13673.4
1069.075	13668.4
1074.147	13635.4
1079.214	13716.4
1084.276	13767.4
1089.333	13876.4
1094.385	13956.4
1099.431	13972.4
1104.472	13939.4
1109.509	13857.4
1114.54	13752.4
1119.565	13549.4
1124.586	13367.4
1129.602	13254.4
1134.613	13139.4
1139.618	13114.4
1144.619	13041.4
1149.614	13062.4
1154.604	13101.4
1159.589	13105.4
1164.57	13109.4
1169.545	13181.4
1174.515	13162.4
1179.48	13092.4
1184.44	12976.4
1189.395	12882.4
1194.345	12807.4
1199.29	12739.4
1204.23	12797.4
1209.165	12789.4
1214.095	12868.4
1219.021	12947.4
1223.941	13023.4
1228.856	13154.4
1233.766	13119.4
1238.672	13103.4
1243.572	13106.4
1248.467	13057.4
1253.358	12886.4
1258.244	12704.4
1263.124	12519.4
1268	12329.4
1272.871	12172.4
1277.737	12052.4
1282.599	11998.4
1287.455	12011.4
1292.306	12023.4
1297.153	12053.4
1301.995	12093.4
1306.832	12141.4
1311.664	12176.4
1316.491	12080.4
1321.314	12022.4
1326.132	11834.4
1330.945	11610.4
1335.753	11283.4
1340.556	11059.4
1345.354	10864.4
1350.148	10714.4
1354.937	10619.4
1359.722	10596.4
1364.501	10637.4
1369.276	10678.4
1374.046	10795.4
1378.811	10946.4
1383.572	11016.4
1388.327	11079.4
1393.079	11056.4
1397.825	10950.4
1402.567	10791.4
1407.304	10616.4
1412.036	10546.4
1416.764	10507.4
1421.487	10415.4
1426.205	10398.4
1430.919	10332.4
1435.628	10352.4
1440.333	10368.4
1445.032	10381.4
1449.727	10408.4
1454.418	10397.4
1459.104	10300.4
1463.785	10076.4
1468.462	9855.4
1473.134	9729.4
1477.802	9494.4
1482.465	9346.4
1487.123	9216.4
1491.777	9208.4
1496.426	9252.4
1501.071	9317.4
1505.711	9437.4
1510.347	9608.4
1514.978	9732.4
1519.604	9837.4
1524.226	9975.4
1528.844	9975.4
1533.457	9924.4
1538.065	9891.4
1542.669	9858.4
1547.269	9765.4
1551.864	9763.4
1556.454	9713.4
1561.041	9718.4
1565.622	9702.4
1570.199	9732.4
1574.772	9791.4
1579.34	9873.4
1583.904	9936.4
1588.464	9986.4
1593.019	9977.4
1597.569	9915.4
1602.115	9937.4
1606.657	9854.4
1611.195	9852.4
1615.728	9746.4
1620.256	9713.4
1624.78	9739.4
1629.3	9713.4
1633.816	9709.4
1638.327	9817.4
1642.834	9848.4
1647.336	9912.4
1651.834	9866.4
1656.328	9932.4
1660.817	9794.4
1665.302	9733.4
1669.783	9545.4
1674.259	9320.4
1678.732	9042.4
1683.199	8744.4
1687.663	8457.4
1692.122	8211.4
1696.577	8022.4
1701.028	7979.4
1705.474	8029.4
1709.917	8094.4
1714.355	8099.4
1718.788	7999.4
1723.218	7915.4
1727.643	7792.4
1732.064	7630.4
1736.481	7427.4
1740.893	7263.4
1745.301	7050.4
1749.705	6910.4
1754.105	6700.4
1758.501	6482.4
1762.893	6295.4
1767.28	6185.4
1771.663	6021.4
1776.042	5955.4
1780.417	5907.4
1784.787	5907.4
1789.154	5942.4
1793.516	6021.4
1797.874	6118.4
1802.228	6197.4
1806.578	6225.4
1810.924	6234.4
1815.266	6179.4
1819.603	6094.4
1823.937	6031.4
1828.266	5931.4
1832.591	5864.4
1836.913	5782.4
1841.23	5719.4
1845.543	5653.4
1849.852	5652.4
1854.156	5630.4
1858.457	5645.4
1862.754	5629.4
1867.047	5620.4
1871.335	5633.4
1875.62	5618.4
1879.9	5593.4
1884.177	5556.4
1888.449	5501.4
1892.718	5441.4
1896.982	5395.4
1901.243	5337.4
1905.499	5299.4
1909.752	5266.4
1914	5269.4
1918.245	5284.4
1922.485	5319.4
1926.722	5374.4
1930.954	5445.4
1935.183	5448.4
1939.408	5529.4
1943.628	5551.4
1947.845	5555.4
1952.058	5546.4
1956.267	5531.4
1960.472	5456.4
1964.673	5392.4
1968.87	5279.4
1973.063	5196.4
1977.252	5118.4
1981.438	5081.4
1985.619	5040.4
1989.797	4977.4
1993.971	4993.4
1998.14	4962.4
2002.306	4925.4
2006.469	4922.4
2010.627	4891.4
2014.781	4871.4
2018.932	4822.4
2023.078	4771.4
2027.221	4718.4
2031.36	4656.4
2035.495	4560.4
2039.627	4490.4
2043.754	4448.4
2047.878	4428.4
2051.998	4408.4
2056.114	4373.4
2060.226	4370.4
2064.334	4394.4
2068.439	4398.4
2072.54	4408.4
2076.637	4458.4
2080.73	4465.4
2084.82	4481.4
2088.906	4479.4
2092.988	4518.4
2097.066	4481.4
2101.14	4449.4
2105.211	4398.4
2109.278	4385.4
2113.342	4369.4
2117.401	4346.4
2121.457	4320.4
2125.509	4291.4
2129.558	4251.4
2133.602	4244.4
2137.643	4223.4
2141.681	4233.4
2145.714	4181.4
2149.744	4155.4
2153.77	4117.4
2157.793	4102.4
2161.812	4041.4
2165.827	3980.4
2169.838	3934.4
2173.846	3845.4
2177.851	3777.4
2181.851	3740.4
2185.848	3694.4
2189.841	3657.4
2193.831	3604.4
2197.817	3570.4
2201.799	3557.4
2205.778	3541.4
2209.753	3550.4
2213.725	3531.4
2217.693	3510.4
2221.657	3506.4
2225.618	3492.4
2229.575	3465.4
2233.529	3451.4
2237.479	3399.4
2241.425	3388.4
2245.368	3326.4
2249.307	3302.4
2253.243	3236.4
2257.175	3198.4
2261.104	3149.4
2265.029	3109.4
2268.95	3078.4
2272.868	3023.4
2276.783	3004.4
2280.694	2954.4
2284.601	2946.4
2288.505	2943.4
2292.405	2911.4
2296.302	2861.4
2300.195	2835.4
2304.085	2802.4
2307.971	2745.4
2311.854	2714.4
2315.734	2690.4
2319.609	2653.4
2323.482	2625.4
2327.351	2578.4
2331.216	2561.4
2335.078	2555.4
2338.937	2524.4
2342.792	2516.4
2346.643	2507.4
2350.492	2512.4
2354.336	2511.4
2358.178	2519.4
2362.015	2521.4
2365.85	2559.4
2369.681	2524.4
2373.508	2538.4
2377.333	2538.4
2381.153	2555.4
2384.971	2538.4
2388.785	2492.4
2392.595	2469.4
2396.402	2450.4
2400.206	2414.4
2404.007	2418.4
2407.804	2401.4
2411.597	2382.4
2415.388	2361.4
2419.174	2338.4
2422.958	2312.4
2426.738	2316.4
2430.515	2277.4
2434.289	2287.4
2438.059	2257.4
2441.825	2233.4
2445.589	2236.4
2449.349	2175.4
2453.106	2154.4
2456.859	2107.4
2460.61	2106.4
2464.356	2085.4
2468.1	2041.4
2471.84	2012.4
2475.577	2027.4
2479.311	1991.4
2483.041	1985.4
2486.768	1968.4
2490.492	1984.4
2494.213	1963.4
2497.93	1980.4
2501.644	1951.4
2505.355	1948.4
2509.062	1927.4
2512.766	1920.4
2516.467	1920.4
2520.165	1907.4
2523.859	1888.4
2527.551	1881.4
2531.239	1866.4
2534.923	1827.4
2538.605	1835.4
2542.283	1841.4
2545.958	1840.4
2549.63	1805.4
2553.299	1798.4
2556.964	1812.4
2560.626	1798.4
2564.285	1785.4
2567.941	1771.4
2571.594	1762.4
2575.243	1752.4
2578.89	1733.4
2582.533	1723.4
2586.173	1700.4
2589.809	1711.4
2593.443	1686.4
2597.073	1677.4
2600.701	1657.4
2604.325	1621.4
2607.946	1637.4
2611.564	1626.4
2615.178	1610.4
2618.79	1598.4
2622.398	1580.4
2626.004	1573.4
2629.606	1564.4
2633.205	1543.4
2636.801	1514.4
2640.394	1513.4
2643.983	1472.4
2647.57	1458.4
2651.153	1445.4
2654.734	1409.4
2658.311	1373.4
2661.885	1356.4
2665.456	1348.4
2669.025	1341.4
2672.589	1314.4
2676.151	1291.4
2679.71	1282.4
2683.266	1245.4
2686.819	1234.4
2690.368	1199.4
2693.915	1193.4
2697.458	1170.4
2700.999	1130.4
2704.536	1128.4
2708.071	1090.4
2711.602	1082.4
2715.13	1041.4
2718.656	1025.4
2722.178	1011.4
2725.697	1003.4
2729.214	974.4
2732.727	985.4
2736.237	964.4
2739.744	966.4
2743.249	966.4
2746.75	969.4
2750.248	971.4
2753.743	969.4
2757.236	1003.4
2760.725	982.4
2764.211	1028.4
2767.695	1003.4
2771.175	993.4
2774.652	969.4
2778.127	991.4
2781.598	983.4
2785.067	998.4
2788.532	976.4
2791.995	987.4
2795.455	977.4
2798.911	997.4
2802.365	1006.4
2805.816	978.4
2809.264	982.4
2812.709	979.4
2816.151	1001.4
2819.59	995.4
2823.026	969.4
2826.46	992.4
2829.89	992.4
2833.318	986.4
2836.742	987.4
2840.164	1014.4
2843.583	1009.4
2846.999	1031.4
2850.412	1038.4
2853.822	1049.4
2857.229	1067.4
2860.634	1074.4
2864.035	1107.4
2867.434	1121.4
2870.83	1142.4
2874.223	1165.4
2877.613	1182.4
2881	1210.4
2884.385	1210.4
2887.766	1224.4
2891.145	1206.4
2894.521	1220.4
2897.894	1227.4
2901.264	1235.4
2904.631	1217.4
2907.996	1215.4
2911.358	1233.4
2914.717	1240.4
2918.073	1237.4
2921.426	1269.4
2924.777	1273.4
2928.124	1304.4
2931.469	1328.4
2934.811	1359.4
2938.15	1368.4
2941.487	1372.4
2944.821	1386.4
2948.152	1390.4
2951.48	1396.4
2954.805	1370.4
2958.128	1364.4
2961.447	1329.4
2964.765	1353.4
2968.079	1339.4
2971.39	1356.4
2974.699	1385.4
2978.005	1380.4
2981.308	1419.4
2984.609	1449.4
2987.907	1472.4
2991.202	1503.4
2994.494	1540.4
2997.784	1562.4
3001.07	1587.4
3004.355	1601.4
3007.636	1598.4
3010.915	1662.4
3014.191	1683.4
3017.464	1693.4
3020.734	1684.4
3024.002	1699.4
3027.267	1710.4
3030.53	1730.4
3033.789	1746.4
3037.046	1771.4
3040.301	1808.4
3043.552	1839.4
3046.801	1888.4
3050.048	1947.4
3053.291	1955.4
3056.532	2022.4
3059.771	2078.4
3063.006	2153.4
3066.239	2220.4
3069.469	2276.4
3072.697	2350.4
3075.922	2418.4
3079.144	2452.4
3082.364	2531.4
3085.581	2572.4
3088.795	2640.4
3092.007	2681.4
3095.216	2741.4
3098.423	2778.4
3101.627	2865.4
3104.828	2922.4
3108.026	2971.4
3111.222	3060.4
3114.416	3122.4
3117.607	3212.4
3120.795	3265.4
3123.98	3343.4
3127.163	3445.4
3130.344	3509.4
3133.521	3544.4
3136.696	3692.4
3139.869	3727.4
3143.039	3813.4
3146.206	3842.4
3149.371	3906.4
3152.533	3976.4
3155.693	3956.4
3158.85	4007.4
3162.005	4017.4
3165.157	4040.4
3168.306	4044.4
3171.453	4037.4
3174.597	4053.4
3177.739	4087.4
3180.878	4096.4
3184.014	4083.4
3187.149	4096.4
3190.28	4102.4
3193.409	4116.4
3196.536	4096.4
3199.659	4104.4
3202.781	4120.4
3205.9	4139.4
3209.016	4108.4
3212.13	4072.4
3215.241	4063.4
3218.35	4016.4
3221.456	3993.4
3224.56	3926.4
3227.661	3906.4
3230.76	3858.4
3233.856	3814.4
3236.95	3796.4
3240.041	3747.4
3243.13	3699.4
3246.216	3698.4
3249.3	3655.4
3252.382	3657.4
3255.46	3665.4
3258.537	3636.4
3261.611	3648.4
3264.682	3624.4
3267.751	3633.4
3270.818	3643.4
3273.882	3610.4
3276.943	3596.4
3280.002	3546.4
3283.059	3536.4
3286.113	3492.4
3289.165	3420.4
3292.214	3384.4
3295.261	3367.4
3298.306	3286.4
3301.348	3226.4
3304.387	3188.4
3307.425	3154.4
3310.459	3089.4
3313.492	3022.4
3316.521	3007.4
3319.549	2978.4
3322.574	2970.4
3325.597	2924.4
3328.617	2911.4
3331.635	2878.4
3334.65	2903.4
3337.663	2851.4
3340.674	2843.4
3343.682	2816.4
3346.688	2816.4
3349.691	2803.4
3352.692	2772.4
3355.691	2768.4
3358.687	2759.4
3361.681	2698.4
3364.673	2670.4
3367.662	2642.4
3370.649	2614.4
3373.633	2569.4
3376.615	2523.4
3379.595	2505.4
3382.572	2475.4
3385.547	2425.4
3388.52	2409.4
3391.49	2343.4
3394.458	2302.4
3397.424	2287.4
3400.387	2248.4
3403.348	2229.4
3406.307	2197.4
3409.263	2161.4
3412.217	2151.4
3415.168	2131.4
3418.118	2105.4
3421.065	2081.4
3424.009	2048.4
3426.951	2002.4
3429.891	1981.4
3432.829	1912.4
3435.764	1886.4
3438.697	1833.4
3441.628	1777.4
3444.557	1729.4
3447.483	1672.4
3450.407	1605.4
3453.328	1565.4
3456.247	1497.4
3459.164	1483.4
3462.079	1411.4
3464.991	1349.4
3467.902	1305.4
3470.809	1260.4
3473.715	1199.4
3476.618	1184.4
3479.519	1114.4
3482.418	1104.4
3485.315	1053.4
3488.209	1015.4
3491.101	996.4
3493.99	940.4
3496.878	907.4
3499.763	863.4
3502.646	827.4
3505.527	793.4
3508.405	739.4
3511.281	712.4
3514.155	683.4
3517.027	633.4
3519.897	585.4
3522.764	555.4
3525.629	511.4
3528.492	463.4
3531.352	415.4
3534.211	381.4
3537.067	347.4
3539.921	303.4
3542.773	281.4
3545.622	244.4
3548.469	207.4
3551.315	182.4
3554.157	148.4
3556.998	123.4
3559.837	98.4
3562.673	71.4
3565.507	55.4
3568.339	38.4
3571.169	14.4
3573.996	-7.6
3576.822	-23.6
3579.645	-40.6
3582.466	-63.6
3585.285	-90.6
3588.101	-103.6
3590.916	-129.6
3593.728	-144.6
3596.538	-167.6
3599.346	-185.6
3602.152	-199.6
3604.956	-219.6
3607.757	-230.6
3610.556	-237.6
3613.354	-258.6
3616.149	-279.6
3618.942	-284.6
3621.732	-298.6
3624.521	-309.6
3627.307	-311.6
3630.092	-335.6
3632.874	-341.6
3635.654	-349.6
3638.432	-349.6
3641.208	-375.6
3643.982	-383.6
3646.753	-385.6
3649.523	-394.6
3652.29	-404.6
3655.055	-405.6
3657.818	-421.6
3660.579	-428.6
3663.338	-439.6
3666.095	-456.6
3668.849	-469.6
3671.602	-473.6
3674.352	-480.6
3677.101	-486.6
3679.847	-495.6
3682.591	-496.6
3685.333	-500.6
3688.073	-519.6
3690.811	-516.6
3693.547	-522.6
3696.281	-535.6
3699.013	-533.6
3701.742	-542.6
3704.47	-544.6
3707.195	-552.6
3709.919	-555.6
3712.64	-556.6
3715.359	-560.6
3718.076	-558.6
3720.792	-568.6
3723.505	-567.6
3726.216	-573.6
3728.925	-567.6
3731.632	-585.6
3734.336	-592.6
3737.039	-590.6
3739.74	-586.6
3742.439	-580.6
3745.136	-592.6
3747.83	-596.6
3750.523	-587.6
3753.213	-606.6
3755.902	-603.6
3758.589	-599.6
3761.273	-600.6
3763.956	-613.6
3766.636	-605.6
3769.315	-613.6
3771.991	-616.6
3774.665	-612.6
3777.338	-612.6
3780.008	-620.6
3782.677	-622.6
3785.343	-627.6
3788.007	-613.6
3790.67	-624.6
3793.33	-629.6
3795.989	-625.6
3798.645	-635.6
3801.299	-633.6
3803.952	-637.6
3806.602	-631.6
3809.251	-637.6
3811.897	-628.6
3814.542	-633.6
3817.184	-628.6
3819.825	-632.6
3822.463	-629.6
3825.1	-640.6
3827.735	-638.6
3830.367	-637.6
3832.998	-647.6
3835.627	-635.6
3838.253	-642.6
3840.878	-641.6
3843.501	-645.6
3846.122	-640.6
3848.741	-644.6
3851.358	-638.6
3853.973	-642.6
3856.586	-642.6
3859.197	-644.6
3861.806	-644.6
3864.414	-642.6
3867.019	-641.6
3869.622	-650.6
3872.224	-637.6
3874.823	-626.6
3877.421	-610.6
3880.016	-589.6
3882.61	-555.6
3885.202	-545.6
3887.792	-575.6
3890.38	-604.6
3892.966	-624.6
3895.55	-641.6
3898.132	-644.6
3900.713	-651.6
3903.291	-653.6
3905.868	-658.6
3908.442	-656.6
3911.015	-653.6
3913.586	-652.6
3916.155	-661.6
3918.722	-656.6
3921.287	-657.6
3923.85	-658.6
3926.411	-662.6
3928.971	-660.6
3931.528	-657.6
3934.084	-652.6
3936.638	-658.6
3939.19	-662.6
3941.74	-662.6
3944.288	-664.6
3946.834	-663.6
3949.378	-662.6
3951.921	-661.6
3954.462	-664.6
3957	-652.6
3959.537	-653.6
3962.072	-652.6
3964.606	-649.6
3967.137	-658.6
3969.667	-650.6
3972.194	-650.6
3974.72	-656.6
3977.244	-645.6
3979.766	-648.6
3982.286	-650.6
3984.805	-638.6
3987.321	-643.6
3989.836	-649.6
3992.349	-644.6
3994.86	-638.6
3997.369	-660.6
3999.877	-643.6
4002.382	-646.6
4004.886	-649.6
4007.388	-651.6
4009.888	-646.6
4012.386	-646.6
4014.883	-645.6
4017.377	-640.6
4019.87	-645.6
4022.361	-649.6
4024.85	-644.6
4027.338	-648.6
4029.823	-644.6
4032.307	-646.6
4034.789	-650.6
4037.269	-656.6
4039.747	-649.6
4042.224	-645.6
4044.699	-648.6
4047.172	-656.6
4049.643	-647.6
4052.112	-652.6
4054.58	-646.6
4057.046	-648.6
4059.51	-655.6
4061.972	-660.6
4064.432	-649.6
4066.891	-648.6
4069.348	-656.6
4071.803	-655.6
4074.256	-649.6
4076.708	-647.6
4079.158	-648.6
4081.606	-642.6
4084.052	-644.6
4086.497	-652.6
4088.939	-644.6
4091.38	-641.6
4093.819	-640.6
4096.257	-681.6
4098.693	-684.6
4101.127	-681.6
4103.559	-684.6
4105.989	-408.6
4108.418	-387.6
4110.845	-367.6
4113.27	-342.6
4115.694	-296.6
4118.115	-253.6
4120.535	-645.6
4122.954	-652.6
4125.37	-645.6
4127.785	-647.6
4130.198	-650.6
4132.609	-644.6
4135.019	-685.6
4137.427	-684.6
4139.833	-680.6
4142.237	-678.6
