Data from 2018-2-7_conc=2_RamanShift_21.txt Node
Date: Tue Feb 13 11:59:14 IST 2018
User: aro
Spectrometer: QEPB0276
Trigger mode: 0
Integration Time (sec): 3.000000E1
Scans to average: 1
Electric dark correction enabled: true
Nonlinearity correction enabled: false
Boxcar width: 0
XAxis mode: Raman Shifts
Number of Pixels in Spectrum: 1044
>>>>>Begin Spectral Data<<<<<
160.701	-162.8
166.742	38.2
172.777	568.2
178.805	2187.2
184.826	5987.2
190.841	12328.2
196.849	19549.2
202.85	24530.2
208.845	26068.2
214.833	25724.2
220.815	25276.2
226.789	25159.2
232.758	24955.2
238.719	24785.2
244.674	24452.2
250.623	24003.2
256.565	23459.2
262.5	22940.2
268.429	22553.2
274.351	22230.2
280.267	21914.2
286.176	21654.2
292.079	21420.2
297.975	21212.2
303.865	20973.2
309.748	20873.2
315.625	20715.2
321.495	20598.2
327.359	20510.2
333.217	20477.2
339.068	20400.2
344.912	20474.2
350.751	20467.2
356.583	20353.2
362.408	20372.2
368.227	20351.2
374.04	20384.2
379.847	20445.2
385.647	20526.2
391.44	20523.2
397.228	20660.2
403.009	20745.2
408.784	20781.2
414.553	20895.2
420.315	20881.2
426.071	20899.2
431.821	20873.2
437.565	20891.2
443.302	20881.2
449.033	20801.2
454.758	20809.2
460.477	20692.2
466.189	20742.2
471.896	20648.2
477.596	20633.2
483.29	20511.2
488.978	20558.2
494.66	20435.2
500.335	20298.2
506.005	20102.2
511.668	19857.2
517.325	19611.2
522.977	19434.2
528.622	19314.2
534.261	19228.2
539.894	19161.2
545.521	19030.2
551.141	18997.2
556.756	18874.2
562.365	18816.2
567.968	18758.2
573.565	18694.2
579.155	18636.2
584.74	18533.2
590.319	18493.2
595.892	18352.2
601.459	18287.2
607.02	18281.2
612.575	18144.2
618.124	18008.2
623.667	17936.2
629.204	17857.2
634.735	17806.2
640.261	17668.2
645.781	17577.2
651.294	17582.2
656.802	17582.2
662.304	17548.2
667.8	17498.2
673.29	17465.2
678.775	17472.2
684.254	17396.2
689.726	17340.2
695.193	17310.2
700.655	17192.2
706.11	17091.2
711.56	17005.2
717.004	16939.2
722.442	16875.2
727.874	16801.2
733.301	16771.2
738.722	16705.2
744.137	16666.2
749.547	16693.2
754.951	16641.2
760.349	16729.2
765.741	16696.2
771.128	16708.2
776.509	16687.2
781.885	16696.2
787.254	16677.2
792.618	16578.2
797.977	16490.2
803.33	16368.2
808.677	16344.2
814.019	16230.2
819.355	16094.2
824.686	16119.2
830.011	16020.2
835.33	16077.2
840.644	16019.2
845.952	16091.2
851.255	16099.2
856.552	16094.2
861.844	16078.2
867.13	16073.2
872.41	16008.2
877.686	15871.2
882.955	15776.2
888.219	15636.2
893.478	15434.2
898.731	15293.2
903.979	15098.2
909.221	14992.2
914.458	14989.2
919.69	14972.2
924.916	14964.2
930.136	15076.2
935.351	15059.2
940.561	15022.2
945.766	14957.2
950.965	14935.2
956.158	14837.2
961.347	14677.2
966.529	14515.2
971.707	14304.2
976.879	14126.2
982.046	13964.2
987.208	13997.2
992.364	13964.2
997.515	14028.2
1002.66	14195.2
1007.801	14361.2
1012.936	14434.2
1018.066	14450.2
1023.19	14495.2
1028.309	14416.2
1033.423	14466.2
1038.532	14363.2
1043.636	14205.2
1048.734	14015.2
1053.827	13854.2
1058.915	13763.2
1063.998	13644.2
1069.075	13605.2
1074.147	13633.2
1079.214	13723.2
1084.276	13793.2
1089.333	13824.2
1094.385	13905.2
1099.431	13953.2
1104.472	13955.2
1109.509	13814.2
1114.54	13734.2
1119.565	13509.2
1124.586	13374.2
1129.602	13206.2
1134.613	13132.2
1139.618	13089.2
1144.619	12982.2
1149.614	13058.2
1154.604	13075.2
1159.589	13118.2
1164.57	13087.2
1169.545	13155.2
1174.515	13099.2
1179.48	13051.2
1184.44	12963.2
1189.395	12895.2
1194.345	12798.2
1199.29	12746.2
1204.23	12678.2
1209.165	12751.2
1214.095	12857.2
1219.021	12887.2
1223.941	12961.2
1228.856	13052.2
1233.766	13054.2
1238.672	13101.2
1243.572	13127.2
1248.467	12949.2
1253.358	12851.2
1258.244	12645.2
1263.124	12442.2
1268	12284.2
1272.871	12109.2
1277.737	12059.2
1282.599	12000.2
1287.455	11973.2
1292.306	11983.2
1297.153	12041.2
1301.995	12118.2
1306.832	12194.2
1311.664	12167.2
1316.491	12121.2
1321.314	12010.2
1326.132	11836.2
1330.945	11536.2
1335.753	11305.2
1340.556	11001.2
1345.354	10780.2
1350.148	10661.2
1354.937	10539.2
1359.722	10578.2
1364.501	10616.2
1369.276	10723.2
1374.046	10848.2
1378.811	10994.2
1383.572	11081.2
1388.327	11130.2
1393.079	11084.2
1397.825	10941.2
1402.567	10806.2
1407.304	10663.2
1412.036	10580.2
1416.764	10461.2
1421.487	10439.2
1426.205	10370.2
1430.919	10310.2
1435.628	10316.2
1440.333	10362.2
1445.032	10404.2
1449.727	10371.2
1454.418	10379.2
1459.104	10261.2
1463.785	10084.2
1468.462	9859.2
1473.134	9644.2
1477.802	9505.2
1482.465	9281.2
1487.123	9225.2
1491.777	9181.2
1496.426	9225.2
1501.071	9330.2
1505.711	9495.2
1510.347	9663.2
1514.978	9783.2
1519.604	9951.2
1524.226	10091.2
1528.844	10047.2
1533.457	10020.2
1538.065	9985.2
1542.669	9931.2
1547.269	9811.2
1551.864	9780.2
1556.454	9749.2
1561.041	9761.2
1565.622	9708.2
1570.199	9796.2
1574.772	9789.2
1579.34	9865.2
1583.904	9893.2
1588.464	9954.2
1593.019	9963.2
1597.569	9913.2
1602.115	9865.2
1606.657	9780.2
1611.195	9731.2
1615.728	9714.2
1620.256	9636.2
1624.78	9645.2
1629.3	9640.2
1633.816	9674.2
1638.327	9725.2
1642.834	9780.2
1647.336	9779.2
1651.834	9817.2
1656.328	9832.2
1660.817	9750.2
1665.302	9614.2
1669.783	9486.2
1674.259	9245.2
1678.732	8954.2
1683.199	8660.2
1687.663	8378.2
1692.122	8117.2
1696.577	8026.2
1701.028	7992.2
1705.474	8068.2
1709.917	8161.2
1714.355	8159.2
1718.788	8116.2
1723.218	7980.2
1727.643	7834.2
1732.064	7683.2
1736.481	7522.2
1740.893	7307.2
1745.301	7151.2
1749.705	6963.2
1754.105	6717.2
1758.501	6545.2
1762.893	6398.2
1767.28	6216.2
1771.663	6067.2
1776.042	6000.2
1780.417	5983.2
1784.787	5945.2
1789.154	6003.2
1793.516	6098.2
1797.874	6209.2
1802.228	6320.2
1806.578	6425.2
1810.924	6357.2
1815.266	6348.2
1819.603	6231.2
1823.937	6152.2
1828.266	6046.2
1832.591	5943.2
1836.913	5867.2
1841.23	5805.2
1845.543	5797.2
1849.852	5752.2
1854.156	5732.2
1858.457	5716.2
1862.754	5728.2
1867.047	5683.2
1871.335	5712.2
1875.62	5647.2
1879.9	5656.2
1884.177	5624.2
1888.449	5573.2
1892.718	5515.2
1896.982	5465.2
1901.243	5413.2
1905.499	5344.2
1909.752	5350.2
1914	5338.2
1918.245	5397.2
1922.485	5420.2
1926.722	5480.2
1930.954	5520.2
1935.183	5607.2
1939.408	5631.2
1943.628	5672.2
1947.845	5692.2
1952.058	5698.2
1956.267	5640.2
1960.472	5569.2
1964.673	5502.2
1968.87	5399.2
1973.063	5277.2
1977.252	5252.2
1981.438	5188.2
1985.619	5132.2
1989.797	5108.2
1993.971	5076.2
1998.14	5043.2
2002.306	5029.2
2006.469	4984.2
2010.627	4967.2
2014.781	4949.2
2018.932	4900.2
2023.078	4861.2
2027.221	4803.2
2031.36	4724.2
2035.495	4626.2
2039.627	4563.2
2043.754	4519.2
2047.878	4463.2
2051.998	4442.2
2056.114	4433.2
2060.226	4420.2
2064.334	4439.2
2068.439	4453.2
2072.54	4487.2
2076.637	4520.2
2080.73	4527.2
2084.82	4539.2
2088.906	4590.2
2092.988	4592.2
2097.066	4567.2
2101.14	4551.2
2105.211	4513.2
2109.278	4494.2
2113.342	4480.2
2117.401	4453.2
2121.457	4373.2
2125.509	4383.2
2129.558	4371.2
2133.602	4319.2
2137.643	4333.2
2141.681	4299.2
2145.714	4287.2
2149.744	4224.2
2153.77	4220.2
2157.793	4141.2
2161.812	4112.2
2165.827	4041.2
2169.838	3988.2
2173.846	3935.2
2177.851	3872.2
2181.851	3801.2
2185.848	3781.2
2189.841	3748.2
2193.831	3706.2
2197.817	3650.2
2201.799	3663.2
2205.778	3642.2
2209.753	3596.2
2213.725	3627.2
2217.693	3582.2
2221.657	3574.2
2225.618	3565.2
2229.575	3554.2
2233.529	3500.2
2237.479	3487.2
2241.425	3434.2
2245.368	3393.2
2249.307	3362.2
2253.243	3311.2
2257.175	3267.2
2261.104	3215.2
2265.029	3195.2
2268.95	3172.2
2272.868	3099.2
2276.783	3090.2
2280.694	3035.2
2284.601	3025.2
2288.505	2996.2
2292.405	2965.2
2296.302	2940.2
2300.195	2920.2
2304.085	2887.2
2307.971	2847.2
2311.854	2813.2
2315.734	2763.2
2319.609	2725.2
2323.482	2685.2
2327.351	2668.2
2331.216	2646.2
2335.078	2609.2
2338.937	2622.2
2342.792	2599.2
2346.643	2600.2
2350.492	2589.2
2354.336	2594.2
2358.178	2581.2
2362.015	2615.2
2365.85	2613.2
2369.681	2624.2
2373.508	2601.2
2377.333	2614.2
2381.153	2606.2
2384.971	2596.2
2388.785	2550.2
2392.595	2532.2
2396.402	2514.2
2400.206	2504.2
2404.007	2482.2
2407.804	2462.2
2411.597	2464.2
2415.388	2449.2
2419.174	2426.2
2422.958	2412.2
2426.738	2397.2
2430.515	2375.2
2434.289	2368.2
2438.059	2330.2
2441.825	2316.2
2445.589	2301.2
2449.349	2259.2
2453.106	2243.2
2456.859	2204.2
2460.61	2184.2
2464.356	2161.2
2468.1	2133.2
2471.84	2099.2
2475.577	2099.2
2479.311	2057.2
2483.041	2058.2
2486.768	2047.2
2490.492	2084.2
2494.213	2057.2
2497.93	2028.2
2501.644	2026.2
2505.355	2016.2
2509.062	1998.2
2512.766	2010.2
2516.467	1980.2
2520.165	1981.2
2523.859	1937.2
2527.551	1939.2
2531.239	1920.2
2534.923	1924.2
2538.605	1904.2
2542.283	1909.2
2545.958	1912.2
2549.63	1880.2
2553.299	1911.2
2556.964	1880.2
2560.626	1884.2
2564.285	1875.2
2567.941	1887.2
2571.594	1879.2
2575.243	1865.2
2578.89	1830.2
2582.533	1818.2
2586.173	1810.2
2589.809	1794.2
2593.443	1766.2
2597.073	1747.2
2600.701	1751.2
2604.325	1721.2
2607.946	1731.2
2611.564	1715.2
2615.178	1698.2
2618.79	1696.2
2622.398	1666.2
2626.004	1643.2
2629.606	1644.2
2633.205	1602.2
2636.801	1592.2
2640.394	1569.2
2643.983	1561.2
2647.57	1515.2
2651.153	1499.2
2654.734	1476.2
2658.311	1463.2
2661.885	1442.2
2665.456	1419.2
2669.025	1407.2
2672.589	1390.2
2676.151	1369.2
2679.71	1334.2
2683.266	1345.2
2686.819	1302.2
2690.368	1285.2
2693.915	1255.2
2697.458	1218.2
2700.999	1190.2
2704.536	1176.2
2708.071	1138.2
2711.602	1142.2
2715.13	1114.2
2718.656	1089.2
2722.178	1042.2
2725.697	1047.2
2729.214	1028.2
2732.727	1020.2
2736.237	1024.2
2739.744	1026.2
2743.249	1018.2
2746.75	1013.2
2750.248	1035.2
2753.743	1052.2
2757.236	1074.2
2760.725	1045.2
2764.211	1077.2
2767.695	1054.2
2771.175	1072.2
2774.652	1054.2
2778.127	1065.2
2781.598	1048.2
2785.067	1047.2
2788.532	1045.2
2791.995	1043.2
2795.455	1028.2
2798.911	1044.2
2802.365	1042.2
2805.816	1069.2
2809.264	1059.2
2812.709	1044.2
2816.151	1036.2
2819.59	1051.2
2823.026	1046.2
2826.46	1035.2
2829.89	1041.2
2833.318	1034.2
2836.742	1037.2
2840.164	1064.2
2843.583	1044.2
2846.999	1073.2
2850.412	1082.2
2853.822	1107.2
2857.229	1129.2
2860.634	1131.2
2864.035	1150.2
2867.434	1142.2
2870.83	1197.2
2874.223	1208.2
2877.613	1228.2
2881	1227.2
2884.385	1226.2
2887.766	1216.2
2891.145	1246.2
2894.521	1221.2
2897.894	1236.2
2901.264	1244.2
2904.631	1226.2
2907.996	1233.2
2911.358	1230.2
2914.717	1249.2
2918.073	1250.2
2921.426	1269.2
2924.777	1285.2
2928.124	1320.2
2931.469	1319.2
2934.811	1345.2
2938.15	1346.2
2941.487	1359.2
2944.821	1373.2
2948.152	1357.2
2951.48	1353.2
2954.805	1336.2
2958.128	1337.2
2961.447	1322.2
2964.765	1322.2
2968.079	1343.2
2971.39	1351.2
2974.699	1360.2
2978.005	1386.2
2981.308	1400.2
2984.609	1417.2
2987.907	1430.2
2991.202	1466.2
2994.494	1499.2
2997.784	1530.2
3001.07	1559.2
3004.355	1580.2
3007.636	1586.2
3010.915	1620.2
3014.191	1649.2
3017.464	1659.2
3020.734	1658.2
3024.002	1674.2
3027.267	1700.2
3030.53	1685.2
3033.789	1699.2
3037.046	1717.2
3040.301	1763.2
3043.552	1777.2
3046.801	1836.2
3050.048	1871.2
3053.291	1931.2
3056.532	1965.2
3059.771	2031.2
3063.006	2074.2
3066.239	2150.2
3069.469	2182.2
3072.697	2273.2
3075.922	2293.2
3079.144	2358.2
3082.364	2409.2
3085.581	2476.2
3088.795	2541.2
3092.007	2555.2
3095.216	2618.2
3098.423	2672.2
3101.627	2739.2
3104.828	2795.2
3108.026	2848.2
3111.222	2913.2
3114.416	2998.2
3117.607	3057.2
3120.795	3110.2
3123.98	3186.2
3127.163	3271.2
3130.344	3348.2
3133.521	3394.2
3136.696	3490.2
3139.869	3562.2
3143.039	3649.2
3146.206	3666.2
3149.371	3708.2
3152.533	3764.2
3155.693	3773.2
3158.85	3816.2
3162.005	3808.2
3165.157	3816.2
3168.306	3843.2
3171.453	3842.2
3174.597	3872.2
3177.739	3827.2
3180.878	3835.2
3184.014	3877.2
3187.149	3905.2
3190.28	3885.2
3193.409	3876.2
3196.536	3891.2
3199.659	3901.2
3202.781	3883.2
3205.9	3894.2
3209.016	3877.2
3212.13	3853.2
3215.241	3836.2
3218.35	3815.2
3221.456	3771.2
3224.56	3721.2
3227.661	3705.2
3230.76	3670.2
3233.856	3590.2
3236.95	3594.2
3240.041	3538.2
3243.13	3494.2
3246.216	3469.2
3249.3	3477.2
3252.382	3477.2
3255.46	3478.2
3258.537	3420.2
3261.611	3436.2
3264.682	3418.2
3267.751	3439.2
3270.818	3439.2
3273.882	3436.2
3276.943	3389.2
3280.002	3362.2
3283.059	3338.2
3286.113	3281.2
3289.165	3260.2
3292.214	3226.2
3295.261	3138.2
3298.306	3091.2
3301.348	3041.2
3304.387	3008.2
3307.425	2954.2
3310.459	2925.2
3313.492	2873.2
3316.521	2852.2
3319.549	2788.2
3322.574	2784.2
3325.597	2741.2
3328.617	2739.2
3331.635	2708.2
3334.65	2702.2
3337.663	2667.2
3340.674	2669.2
3343.682	2672.2
3346.688	2645.2
3349.691	2663.2
3352.692	2605.2
3355.691	2592.2
3358.687	2578.2
3361.681	2537.2
3364.673	2523.2
3367.662	2497.2
3370.649	2421.2
3373.633	2419.2
3376.615	2378.2
3379.595	2347.2
3382.572	2309.2
3385.547	2280.2
3388.52	2249.2
3391.49	2183.2
3394.458	2179.2
3397.424	2132.2
3400.387	2119.2
3403.348	2087.2
3406.307	2074.2
3409.263	2060.2
3412.217	2016.2
3415.168	2001.2
3418.118	1983.2
3421.065	1923.2
3424.009	1888.2
3426.951	1860.2
3429.891	1852.2
3432.829	1805.2
3435.764	1754.2
3438.697	1725.2
3441.628	1670.2
3444.557	1609.2
3447.483	1570.2
3450.407	1510.2
3453.328	1468.2
3456.247	1417.2
3459.164	1361.2
3462.079	1297.2
3464.991	1262.2
3467.902	1216.2
3470.809	1183.2
3473.715	1135.2
3476.618	1105.2
3479.519	1046.2
3482.418	1018.2
3485.315	986.2
3488.209	946.2
3491.101	917.2
3493.99	888.2
3496.878	828.2
3499.763	813.2
3502.646	764.2
3505.527	734.2
3508.405	697.2
3511.281	672.2
3514.155	625.2
3517.027	581.2
3519.897	549.2
3522.764	496.2
3525.629	478.2
3528.492	430.2
3531.352	384.2
3534.211	347.2
3537.067	311.2
3539.921	276.2
3542.773	254.2
3545.622	226.2
3548.469	193.2
3551.315	165.2
3554.157	129.2
3556.998	109.2
3559.837	76.2
3562.673	60.2
3565.507	40.2
3568.339	24.2
3571.169	6.2
3573.996	-19.8
3576.822	-30.8
3579.645	-47.8
3582.466	-72.8
3585.285	-94.8
3588.101	-102.8
3590.916	-126.8
3593.728	-150.8
3596.538	-153.8
3599.346	-174.8
3602.152	-195.8
3604.956	-208.8
3607.757	-225.8
3610.556	-234.8
3613.354	-261.8
3616.149	-260.8
3618.942	-287.8
3621.732	-295.8
3624.521	-310.8
3627.307	-316.8
3630.092	-324.8
3632.874	-335.8
3635.654	-344.8
3638.432	-341.8
3641.208	-361.8
3643.982	-366.8
3646.753	-371.8
3649.523	-389.8
3652.29	-395.8
3655.055	-397.8
3657.818	-405.8
3660.579	-421.8
3663.338	-427.8
3666.095	-430.8
3668.849	-451.8
3671.602	-455.8
3674.352	-461.8
3677.101	-466.8
3679.847	-482.8
3682.591	-484.8
3685.333	-493.8
3688.073	-489.8
3690.811	-500.8
3693.547	-497.8
3696.281	-506.8
3699.013	-505.8
3701.742	-514.8
3704.47	-522.8
3707.195	-531.8
3709.919	-530.8
3712.64	-533.8
3715.359	-537.8
3718.076	-540.8
3720.792	-546.8
3723.505	-544.8
3726.216	-549.8
3728.925	-555.8
3731.632	-561.8
3734.336	-565.8
3737.039	-569.8
3739.74	-568.8
3742.439	-565.8
3745.136	-573.8
3747.83	-570.8
3750.523	-567.8
3753.213	-569.8
3755.902	-576.8
3758.589	-576.8
3761.273	-571.8
3763.956	-586.8
3766.636	-584.8
3769.315	-583.8
3771.991	-588.8
3774.665	-585.8
3777.338	-592.8
3780.008	-588.8
3782.677	-590.8
3785.343	-593.8
3788.007	-589.8
3790.67	-596.8
3793.33	-597.8
3795.989	-596.8
3798.645	-599.8
3801.299	-605.8
3803.952	-604.8
3806.602	-596.8
3809.251	-610.8
3811.897	-602.8
3814.542	-602.8
3817.184	-609.8
3819.825	-607.8
3822.463	-608.8
3825.1	-611.8
3827.735	-616.8
3830.367	-613.8
3832.998	-612.8
3835.627	-611.8
3838.253	-616.8
3840.878	-617.8
3843.501	-615.8
3846.122	-616.8
3848.741	-612.8
3851.358	-616.8
3853.973	-614.8
3856.586	-617.8
3859.197	-618.8
3861.806	-617.8
3864.414	-615.8
3867.019	-612.8
3869.622	-615.8
3872.224	-619.8
3874.823	-600.8
3877.421	-585.8
3880.016	-575.8
3882.61	-542.8
3885.202	-551.8
3887.792	-569.8
3890.38	-592.8
3892.966	-600.8
3895.55	-618.8
3898.132	-622.8
3900.713	-627.8
3903.291	-627.8
3905.868	-627.8
3908.442	-625.8
3911.015	-626.8
3913.586	-631.8
3916.155	-627.8
3918.722	-629.8
3921.287	-631.8
3923.85	-626.8
3926.411	-628.8
3928.971	-624.8
3931.528	-630.8
3934.084	-627.8
3936.638	-633.8
3939.19	-634.8
3941.74	-637.8
3944.288	-639.8
3946.834	-635.8
3949.378	-638.8
3951.921	-637.8
3954.462	-631.8
3957	-633.8
3959.537	-628.8
3962.072	-628.8
3964.606	-624.8
3967.137	-629.8
3969.667	-624.8
3972.194	-627.8
3974.72	-622.8
3977.244	-621.8
3979.766	-619.8
3982.286	-621.8
3984.805	-615.8
3987.321	-618.8
3989.836	-620.8
3992.349	-618.8
3994.86	-618.8
3997.369	-628.8
3999.877	-618.8
4002.382	-617.8
4004.886	-621.8
4007.388	-620.8
4009.888	-609.8
4012.386	-617.8
4014.883	-615.8
4017.377	-619.8
4019.87	-617.8
4022.361	-621.8
4024.85	-618.8
4027.338	-626.8
4029.823	-620.8
4032.307	-619.8
4034.789	-627.8
4037.269	-629.8
4039.747	-628.8
4042.224	-620.8
4044.699	-625.8
4047.172	-625.8
4049.643	-622.8
4052.112	-617.8
4054.58	-615.8
4057.046	-626.8
4059.51	-618.8
4061.972	-621.8
4064.432	-622.8
4066.891	-622.8
4069.348	-622.8
4071.803	-628.8
4074.256	-626.8
4076.708	-629.8
4079.158	-626.8
4081.606	-623.8
4084.052	-621.8
4086.497	-622.8
4088.939	-614.8
4091.38	-611.8
4093.819	-617.8
4096.257	-657.8
4098.693	-658.8
4101.127	-655.8
4103.559	-658.8
4105.989	-391.8
4108.418	-372.8
4110.845	-342.8
4113.27	-328.8
4115.694	-275.8
4118.115	-242.8
4120.535	-621.8
4122.954	-623.8
4125.37	-620.8
4127.785	-619.8
4130.198	-627.8
4132.609	-619.8
4135.019	-661.8
4137.427	-656.8
4139.833	-655.8
4142.237	-656.8
