Data from 2018-2-7_conc=3_RamanShift_25.txt Node
Date: Tue Feb 13 12:39:44 IST 2018
User: aro
Spectrometer: QEPB0276
Trigger mode: 0
Integration Time (sec): 3.000000E1
Scans to average: 1
Electric dark correction enabled: true
Nonlinearity correction enabled: false
Boxcar width: 0
XAxis mode: Raman Shifts
Number of Pixels in Spectrum: 1044
>>>>>Begin Spectral Data<<<<<
160.701	-161.8
166.742	35.2
172.777	582.2
178.805	2241.2
184.826	6136.2
190.841	12729.2
196.849	20099.2
202.85	25228.2
208.845	26762.2
214.833	26546.2
220.815	25997.2
226.789	25840.2
232.758	25713.2
238.719	25520.2
244.674	25162.2
250.623	24649.2
256.565	24095.2
262.5	23542.2
268.429	23209.2
274.351	22845.2
280.267	22541.2
286.176	22298.2
292.079	22020.2
297.975	21796.2
303.865	21583.2
309.748	21436.2
315.625	21250.2
321.495	21196.2
327.359	21118.2
333.217	21024.2
339.068	21112.2
344.912	20989.2
350.751	20985.2
356.583	20910.2
362.408	20962.2
368.227	20924.2
374.04	20988.2
379.847	21011.2
385.647	21060.2
391.44	21211.2
397.228	21245.2
403.009	21307.2
408.784	21434.2
414.553	21479.2
420.315	21529.2
426.071	21575.2
431.821	21521.2
437.565	21492.2
443.302	21455.2
449.033	21439.2
454.758	21445.2
460.477	21357.2
466.189	21334.2
471.896	21245.2
477.596	21139.2
483.29	21181.2
488.978	21111.2
494.66	21018.2
500.335	20890.2
506.005	20722.2
511.668	20431.2
517.325	20219.2
522.977	20090.2
528.622	19843.2
534.261	19784.2
539.894	19716.2
545.521	19564.2
551.141	19563.2
556.756	19524.2
562.365	19432.2
567.968	19354.2
573.565	19292.2
579.155	19156.2
584.74	19095.2
590.319	19069.2
595.892	18928.2
601.459	18909.2
607.02	18814.2
612.575	18646.2
618.124	18599.2
623.667	18484.2
629.204	18383.2
634.735	18257.2
640.261	18236.2
645.781	18145.2
651.294	18205.2
656.802	18154.2
662.304	18167.2
667.8	18084.2
673.29	18024.2
678.775	17994.2
684.254	17901.2
689.726	17854.2
695.193	17860.2
700.655	17788.2
706.11	17693.2
711.56	17584.2
717.004	17484.2
722.442	17436.2
727.874	17336.2
733.301	17240.2
738.722	17235.2
744.137	17235.2
749.547	17207.2
754.951	17194.2
760.349	17236.2
765.741	17247.2
771.128	17221.2
776.509	17227.2
781.885	17213.2
787.254	17254.2
792.618	17135.2
797.977	16996.2
803.33	16921.2
808.677	16811.2
814.019	16684.2
819.355	16618.2
824.686	16598.2
830.011	16533.2
835.33	16495.2
840.644	16555.2
845.952	16551.2
851.255	16599.2
856.552	16682.2
861.844	16617.2
867.13	16578.2
872.41	16472.2
877.686	16394.2
882.955	16330.2
888.219	16157.2
893.478	15966.2
898.731	15762.2
903.979	15631.2
909.221	15523.2
914.458	15436.2
919.69	15437.2
924.916	15496.2
930.136	15558.2
935.351	15548.2
940.561	15530.2
945.766	15523.2
950.965	15436.2
956.158	15339.2
961.347	15199.2
966.529	15067.2
971.707	14824.2
976.879	14623.2
982.046	14488.2
987.208	14471.2
992.364	14497.2
997.515	14549.2
1002.66	14697.2
1007.801	14828.2
1012.936	14954.2
1018.066	14958.2
1023.19	14960.2
1028.309	14985.2
1033.423	14909.2
1038.532	14793.2
1043.636	14712.2
1048.734	14479.2
1053.827	14320.2
1058.915	14180.2
1063.998	14148.2
1069.075	14115.2
1074.147	13975.2
1079.214	14135.2
1084.276	14240.2
1089.333	14295.2
1094.385	14399.2
1099.431	14415.2
1104.472	14413.2
1109.509	14324.2
1114.54	14119.2
1119.565	13963.2
1124.586	13797.2
1129.602	13678.2
1134.613	13543.2
1139.618	13489.2
1144.619	13478.2
1149.614	13465.2
1154.604	13516.2
1159.589	13515.2
1164.57	13559.2
1169.545	13546.2
1174.515	13606.2
1179.48	13492.2
1184.44	13416.2
1189.395	13277.2
1194.345	13224.2
1199.29	13122.2
1204.23	13156.2
1209.165	13182.2
1214.095	13285.2
1219.021	13350.2
1223.941	13400.2
1228.856	13443.2
1233.766	13541.2
1238.672	13544.2
1243.572	13552.2
1248.467	13448.2
1253.358	13294.2
1258.244	13118.2
1263.124	12857.2
1268	12721.2
1272.871	12605.2
1277.737	12492.2
1282.599	12377.2
1287.455	12405.2
1292.306	12422.2
1297.153	12491.2
1301.995	12491.2
1306.832	12528.2
1311.664	12590.2
1316.491	12507.2
1321.314	12380.2
1326.132	12223.2
1330.945	11909.2
1335.753	11657.2
1340.556	11356.2
1345.354	11154.2
1350.148	10949.2
1354.937	10829.2
1359.722	10834.2
1364.501	10872.2
1369.276	10965.2
1374.046	11130.2
1378.811	11242.2
1383.572	11419.2
1388.327	11376.2
1393.079	11412.2
1397.825	11277.2
1402.567	11129.2
1407.304	10964.2
1412.036	10889.2
1416.764	10792.2
1421.487	10747.2
1426.205	10721.2
1430.919	10656.2
1435.628	10649.2
1440.333	10714.2
1445.032	10655.2
1449.727	10738.2
1454.418	10697.2
1459.104	10551.2
1463.785	10362.2
1468.462	10112.2
1473.134	9955.2
1477.802	9703.2
1482.465	9508.2
1487.123	9406.2
1491.777	9352.2
1496.426	9442.2
1501.071	9502.2
1505.711	9657.2
1510.347	9811.2
1514.978	10015.2
1519.604	10072.2
1524.226	10231.2
1528.844	10245.2
1533.457	10260.2
1538.065	10229.2
1542.669	10088.2
1547.269	10039.2
1551.864	9979.2
1556.454	9960.2
1561.041	9969.2
1565.622	9985.2
1570.199	9957.2
1574.772	10100.2
1579.34	10120.2
1583.904	10162.2
1588.464	10218.2
1593.019	10220.2
1597.569	10138.2
1602.115	10140.2
1606.657	10034.2
1611.195	9999.2
1615.728	9903.2
1620.256	9879.2
1624.78	9850.2
1629.3	9893.2
1633.816	9940.2
1638.327	9942.2
1642.834	9979.2
1647.336	10045.2
1651.834	10066.2
1656.328	10025.2
1660.817	9963.2
1665.302	9798.2
1669.783	9642.2
1674.259	9443.2
1678.732	9126.2
1683.199	8844.2
1687.663	8502.2
1692.122	8247.2
1696.577	8094.2
1701.028	8030.2
1705.474	8110.2
1709.917	8213.2
1714.355	8245.2
1718.788	8213.2
1723.218	8103.2
1727.643	7960.2
1732.064	7839.2
1736.481	7615.2
1740.893	7446.2
1745.301	7255.2
1749.705	7055.2
1754.105	6866.2
1758.501	6669.2
1762.893	6434.2
1767.28	6256.2
1771.663	6112.2
1776.042	5999.2
1780.417	5940.2
1784.787	5942.2
1789.154	6004.2
1793.516	6128.2
1797.874	6223.2
1802.228	6325.2
1806.578	6419.2
1810.924	6387.2
1815.266	6338.2
1819.603	6261.2
1823.937	6173.2
1828.266	6078.2
1832.591	6007.2
1836.913	5933.2
1841.23	5872.2
1845.543	5818.2
1849.852	5761.2
1854.156	5756.2
1858.457	5770.2
1862.754	5748.2
1867.047	5753.2
1871.335	5713.2
1875.62	5760.2
1879.9	5685.2
1884.177	5644.2
1888.449	5564.2
1892.718	5547.2
1896.982	5486.2
1901.243	5404.2
1905.499	5349.2
1909.752	5327.2
1914	5309.2
1918.245	5351.2
1922.485	5368.2
1926.722	5443.2
1930.954	5504.2
1935.183	5537.2
1939.408	5604.2
1943.628	5652.2
1947.845	5685.2
1952.058	5659.2
1956.267	5651.2
1960.472	5546.2
1964.673	5442.2
1968.87	5422.2
1973.063	5328.2
1977.252	5221.2
1981.438	5205.2
1985.619	5116.2
1989.797	5101.2
1993.971	5063.2
1998.14	5065.2
2002.306	5012.2
2006.469	4987.2
2010.627	5001.2
2014.781	4940.2
2018.932	4897.2
2023.078	4865.2
2027.221	4795.2
2031.36	4712.2
2035.495	4651.2
2039.627	4565.2
2043.754	4526.2
2047.878	4493.2
2051.998	4427.2
2056.114	4432.2
2060.226	4433.2
2064.334	4419.2
2068.439	4450.2
2072.54	4442.2
2076.637	4492.2
2080.73	4515.2
2084.82	4539.2
2088.906	4530.2
2092.988	4566.2
2097.066	4534.2
2101.14	4541.2
2105.211	4494.2
2109.278	4454.2
2113.342	4428.2
2117.401	4399.2
2121.457	4384.2
2125.509	4360.2
2129.558	4361.2
2133.602	4345.2
2137.643	4331.2
2141.681	4322.2
2145.714	4261.2
2149.744	4256.2
2153.77	4216.2
2157.793	4176.2
2161.812	4138.2
2165.827	4042.2
2169.838	4000.2
2173.846	3922.2
2177.851	3872.2
2181.851	3812.2
2185.848	3807.2
2189.841	3742.2
2193.831	3695.2
2197.817	3671.2
2201.799	3664.2
2205.778	3636.2
2209.753	3661.2
2213.725	3587.2
2217.693	3616.2
2221.657	3580.2
2225.618	3587.2
2229.575	3539.2
2233.529	3523.2
2237.479	3485.2
2241.425	3454.2
2245.368	3409.2
2249.307	3357.2
2253.243	3321.2
2257.175	3260.2
2261.104	3231.2
2265.029	3172.2
2268.95	3155.2
2272.868	3119.2
2276.783	3075.2
2280.694	3051.2
2284.601	3033.2
2288.505	3028.2
2292.405	2987.2
2296.302	2945.2
2300.195	2925.2
2304.085	2898.2
2307.971	2836.2
2311.854	2787.2
2315.734	2771.2
2319.609	2731.2
2323.482	2698.2
2327.351	2660.2
2331.216	2668.2
2335.078	2634.2
2338.937	2622.2
2342.792	2642.2
2346.643	2634.2
2350.492	2603.2
2354.336	2604.2
2358.178	2630.2
2362.015	2654.2
2365.85	2651.2
2369.681	2647.2
2373.508	2650.2
2377.333	2643.2
2381.153	2669.2
2384.971	2634.2
2388.785	2639.2
2392.595	2579.2
2396.402	2588.2
2400.206	2545.2
2404.007	2534.2
2407.804	2527.2
2411.597	2497.2
2415.388	2477.2
2419.174	2457.2
2422.958	2438.2
2426.738	2439.2
2430.515	2415.2
2434.289	2418.2
2438.059	2377.2
2441.825	2328.2
2445.589	2333.2
2449.349	2325.2
2453.106	2257.2
2456.859	2253.2
2460.61	2226.2
2464.356	2192.2
2468.1	2182.2
2471.84	2143.2
2475.577	2115.2
2479.311	2138.2
2483.041	2106.2
2486.768	2098.2
2490.492	2080.2
2494.213	2084.2
2497.93	2060.2
2501.644	2046.2
2505.355	2043.2
2509.062	2037.2
2512.766	2014.2
2516.467	2028.2
2520.165	2000.2
2523.859	1963.2
2527.551	1960.2
2531.239	1957.2
2534.923	1943.2
2538.605	1916.2
2542.283	1919.2
2545.958	1915.2
2549.63	1914.2
2553.299	1911.2
2556.964	1888.2
2560.626	1904.2
2564.285	1875.2
2567.941	1868.2
2571.594	1872.2
2575.243	1858.2
2578.89	1859.2
2582.533	1862.2
2586.173	1822.2
2589.809	1801.2
2593.443	1775.2
2597.073	1766.2
2600.701	1762.2
2604.325	1736.2
2607.946	1729.2
2611.564	1725.2
2615.178	1722.2
2618.79	1699.2
2622.398	1677.2
2626.004	1662.2
2629.606	1642.2
2633.205	1596.2
2636.801	1599.2
2640.394	1584.2
2643.983	1566.2
2647.57	1529.2
2651.153	1520.2
2654.734	1476.2
2658.311	1479.2
2661.885	1448.2
2665.456	1425.2
2669.025	1417.2
2672.589	1408.2
2676.151	1378.2
2679.71	1349.2
2683.266	1351.2
2686.819	1304.2
2690.368	1310.2
2693.915	1268.2
2697.458	1222.2
2700.999	1214.2
2704.536	1185.2
2708.071	1151.2
2711.602	1126.2
2715.13	1098.2
2718.656	1082.2
2722.178	1051.2
2725.697	1045.2
2729.214	1028.2
2732.727	1017.2
2736.237	1029.2
2739.744	1006.2
2743.249	1018.2
2746.75	1009.2
2750.248	1033.2
2753.743	1025.2
2757.236	1051.2
2760.725	1032.2
2764.211	1058.2
2767.695	1060.2
2771.175	1074.2
2774.652	1058.2
2778.127	1047.2
2781.598	1017.2
2785.067	1034.2
2788.532	1032.2
2791.995	1032.2
2795.455	1035.2
2798.911	1036.2
2802.365	1049.2
2805.816	1057.2
2809.264	1030.2
2812.709	1039.2
2816.151	1043.2
2819.59	1035.2
2823.026	1037.2
2826.46	1050.2
2829.89	1047.2
2833.318	1046.2
2836.742	1051.2
2840.164	1060.2
2843.583	1078.2
2846.999	1068.2
2850.412	1089.2
2853.822	1090.2
2857.229	1112.2
2860.634	1107.2
2864.035	1167.2
2867.434	1179.2
2870.83	1199.2
2874.223	1200.2
2877.613	1218.2
2881	1243.2
2884.385	1256.2
2887.766	1247.2
2891.145	1257.2
2894.521	1247.2
2897.894	1226.2
2901.264	1251.2
2904.631	1261.2
2907.996	1224.2
2911.358	1255.2
2914.717	1273.2
2918.073	1258.2
2921.426	1283.2
2924.777	1312.2
2928.124	1320.2
2931.469	1331.2
2934.811	1374.2
2938.15	1364.2
2941.487	1391.2
2944.821	1381.2
2948.152	1382.2
2951.48	1372.2
2954.805	1371.2
2958.128	1346.2
2961.447	1361.2
2964.765	1342.2
2968.079	1320.2
2971.39	1336.2
2974.699	1348.2
2978.005	1378.2
2981.308	1411.2
2984.609	1424.2
2987.907	1431.2
2991.202	1486.2
2994.494	1506.2
2997.784	1545.2
3001.07	1569.2
3004.355	1591.2
3007.636	1606.2
3010.915	1635.2
3014.191	1655.2
3017.464	1669.2
3020.734	1689.2
3024.002	1690.2
3027.267	1692.2
3030.53	1719.2
3033.789	1723.2
3037.046	1758.2
3040.301	1776.2
3043.552	1806.2
3046.801	1851.2
3050.048	1882.2
3053.291	1950.2
3056.532	1997.2
3059.771	2037.2
3063.006	2124.2
3066.239	2177.2
3069.469	2245.2
3072.697	2301.2
3075.922	2363.2
3079.144	2423.2
3082.364	2472.2
3085.581	2520.2
3088.795	2569.2
3092.007	2630.2
3095.216	2690.2
3098.423	2714.2
3101.627	2783.2
3104.828	2880.2
3108.026	2928.2
3111.222	2979.2
3114.416	3068.2
3117.607	3123.2
3120.795	3183.2
3123.98	3279.2
3127.163	3355.2
3130.344	3414.2
3133.521	3508.2
3136.696	3585.2
3139.869	3645.2
3143.039	3699.2
3146.206	3775.2
3149.371	3812.2
3152.533	3831.2
3155.693	3862.2
3158.85	3880.2
3162.005	3906.2
3165.157	3914.2
3168.306	3938.2
3171.453	3907.2
3174.597	3950.2
3177.739	3962.2
3180.878	3931.2
3184.014	3954.2
3187.149	3949.2
3190.28	3954.2
3193.409	3973.2
3196.536	3984.2
3199.659	3964.2
3202.781	3976.2
3205.9	3989.2
3209.016	3951.2
3212.13	3947.2
3215.241	3914.2
3218.35	3900.2
3221.456	3825.2
3224.56	3794.2
3227.661	3768.2
3230.76	3720.2
3233.856	3692.2
3236.95	3646.2
3240.041	3624.2
3243.13	3597.2
3246.216	3561.2
3249.3	3539.2
3252.382	3514.2
3255.46	3520.2
3258.537	3456.2
3261.611	3495.2
3264.682	3511.2
3267.751	3476.2
3270.818	3477.2
3273.882	3473.2
3276.943	3409.2
3280.002	3443.2
3283.059	3380.2
3286.113	3394.2
3289.165	3322.2
3292.214	3266.2
3295.261	3207.2
3298.306	3131.2
3301.348	3136.2
3304.387	3085.2
3307.425	3023.2
3310.459	2966.2
3313.492	2929.2
3316.521	2922.2
3319.549	2840.2
3322.574	2823.2
3325.597	2791.2
3328.617	2781.2
3331.635	2742.2
3334.65	2756.2
3337.663	2716.2
3340.674	2738.2
3343.682	2706.2
3346.688	2707.2
3349.691	2665.2
3352.692	2656.2
3355.691	2663.2
3358.687	2616.2
3361.681	2564.2
3364.673	2564.2
3367.662	2535.2
3370.649	2480.2
3373.633	2448.2
3376.615	2407.2
3379.595	2355.2
3382.572	2316.2
3385.547	2283.2
3388.52	2278.2
3391.49	2227.2
3394.458	2194.2
3397.424	2152.2
3400.387	2143.2
3403.348	2119.2
3406.307	2097.2
3409.263	2067.2
3412.217	2044.2
3415.168	2017.2
3418.118	1993.2
3421.065	1976.2
3424.009	1940.2
3426.951	1902.2
3429.891	1880.2
3432.829	1842.2
3435.764	1795.2
3438.697	1742.2
3441.628	1695.2
3444.557	1642.2
3447.483	1592.2
3450.407	1537.2
3453.328	1487.2
3456.247	1452.2
3459.164	1385.2
3462.079	1326.2
3464.991	1268.2
3467.902	1213.2
3470.809	1199.2
3473.715	1137.2
3476.618	1116.2
3479.519	1067.2
3482.418	1029.2
3485.315	990.2
3488.209	942.2
3491.101	926.2
3493.99	889.2
3496.878	836.2
3499.763	807.2
3502.646	771.2
3505.527	733.2
3508.405	692.2
3511.281	666.2
3514.155	634.2
3517.027	584.2
3519.897	563.2
3522.764	511.2
3525.629	467.2
3528.492	423.2
3531.352	390.2
3534.211	345.2
3537.067	309.2
3539.921	265.2
3542.773	257.2
3545.622	201.2
3548.469	169.2
3551.315	137.2
3554.157	127.2
3556.998	95.2
3559.837	81.2
3562.673	55.2
3565.507	44.2
3568.339	19.2
3571.169	-0.8
3573.996	-19.8
3576.822	-28.8
3579.645	-54.8
3582.466	-91.8
3585.285	-109.8
3588.101	-122.8
3590.916	-135.8
3593.728	-169.8
3596.538	-171.8
3599.346	-198.8
3602.152	-202.8
3604.956	-227.8
3607.757	-248.8
3610.556	-256.8
3613.354	-265.8
3616.149	-280.8
3618.942	-291.8
3621.732	-303.8
3624.521	-310.8
3627.307	-323.8
3630.092	-329.8
3632.874	-350.8
3635.654	-354.8
3638.432	-359.8
3641.208	-373.8
3643.982	-374.8
3646.753	-383.8
3649.523	-401.8
3652.29	-413.8
3655.055	-413.8
3657.818	-422.8
3660.579	-433.8
3663.338	-435.8
3666.095	-447.8
3668.849	-464.8
3671.602	-465.8
3674.352	-473.8
3677.101	-477.8
3679.847	-490.8
3682.591	-493.8
3685.333	-497.8
3688.073	-501.8
3690.811	-512.8
3693.547	-507.8
3696.281	-523.8
3699.013	-527.8
3701.742	-535.8
3704.47	-533.8
3707.195	-541.8
3709.919	-538.8
3712.64	-549.8
3715.359	-546.8
3718.076	-554.8
3720.792	-561.8
3723.505	-564.8
3726.216	-563.8
3728.925	-570.8
3731.632	-579.8
3734.336	-576.8
3737.039	-581.8
3739.74	-581.8
3742.439	-583.8
3745.136	-578.8
3747.83	-586.8
3750.523	-584.8
3753.213	-595.8
3755.902	-594.8
3758.589	-584.8
3761.273	-589.8
3763.956	-600.8
3766.636	-598.8
3769.315	-594.8
3771.991	-600.8
3774.665	-596.8
3777.338	-605.8
3780.008	-605.8
3782.677	-605.8
3785.343	-606.8
3788.007	-605.8
3790.67	-617.8
3793.33	-616.8
3795.989	-611.8
3798.645	-617.8
3801.299	-624.8
3803.952	-625.8
3806.602	-619.8
3809.251	-627.8
3811.897	-622.8
3814.542	-616.8
3817.184	-624.8
3819.825	-624.8
3822.463	-621.8
3825.1	-629.8
3827.735	-630.8
3830.367	-633.8
3832.998	-629.8
3835.627	-628.8
3838.253	-634.8
3840.878	-630.8
3843.501	-632.8
3846.122	-625.8
3848.741	-626.8
3851.358	-635.8
3853.973	-636.8
3856.586	-632.8
3859.197	-639.8
3861.806	-627.8
3864.414	-627.8
3867.019	-633.8
3869.622	-634.8
3872.224	-625.8
3874.823	-612.8
3877.421	-602.8
3880.016	-585.8
3882.61	-549.8
3885.202	-552.8
3887.792	-574.8
3890.38	-596.8
3892.966	-620.8
3895.55	-629.8
3898.132	-632.8
3900.713	-643.8
3903.291	-642.8
3905.868	-645.8
3908.442	-648.8
3911.015	-646.8
3913.586	-649.8
3916.155	-642.8
3918.722	-647.8
3921.287	-649.8
3923.85	-648.8
3926.411	-650.8
3928.971	-648.8
3931.528	-650.8
3934.084	-643.8
3936.638	-645.8
3939.19	-648.8
3941.74	-650.8
3944.288	-651.8
3946.834	-649.8
3949.378	-650.8
3951.921	-644.8
3954.462	-647.8
3957	-642.8
3959.537	-640.8
3962.072	-647.8
3964.606	-637.8
3967.137	-652.8
3969.667	-645.8
3972.194	-645.8
3974.72	-642.8
3977.244	-639.8
3979.766	-642.8
3982.286	-638.8
3984.805	-636.8
3987.321	-633.8
3989.836	-639.8
3992.349	-637.8
3994.86	-629.8
3997.369	-642.8
3999.877	-629.8
4002.382	-629.8
4004.886	-633.8
4007.388	-633.8
4009.888	-631.8
4012.386	-629.8
4014.883	-637.8
4017.377	-631.8
4019.87	-631.8
4022.361	-636.8
4024.85	-635.8
4027.338	-642.8
4029.823	-630.8
4032.307	-638.8
4034.789	-639.8
4037.269	-644.8
4039.747	-641.8
4042.224	-636.8
4044.699	-636.8
4047.172	-638.8
4049.643	-634.8
4052.112	-636.8
4054.58	-627.8
4057.046	-644.8
4059.51	-636.8
4061.972	-643.8
4064.432	-642.8
4066.891	-633.8
4069.348	-639.8
4071.803	-641.8
4074.256	-636.8
4076.708	-638.8
4079.158	-643.8
4081.606	-636.8
4084.052	-635.8
4086.497	-636.8
4088.939	-628.8
4091.38	-631.8
4093.819	-636.8
4096.257	-673.8
4098.693	-673.8
4101.127	-673.8
4103.559	-670.8
4105.989	-398.8
4108.418	-375.8
4110.845	-352.8
4113.27	-336.8
4115.694	-294.8
4118.115	-240.8
4120.535	-633.8
4122.954	-639.8
4125.37	-637.8
4127.785	-635.8
4130.198	-647.8
4132.609	-635.8
4135.019	-678.8
4137.427	-672.8
4139.833	-671.8
4142.237	-673.8
