Data from 2018-2-7_conc=6_RamanShift_21.txt Node
Date: Tue Feb 13 14:41:43 IST 2018
User: aro
Spectrometer: QEPB0276
Trigger mode: 0
Integration Time (sec): 3.000000E1
Scans to average: 1
Electric dark correction enabled: true
Nonlinearity correction enabled: false
Boxcar width: 0
XAxis mode: Raman Shifts
Number of Pixels in Spectrum: 1044
>>>>>Begin Spectral Data<<<<<
160.701	-154.9
166.742	27.1
172.777	566.1
178.805	2213.1
184.826	6002.1
190.841	12421.1
196.849	19669.1
202.85	24692.1
208.845	26255.1
214.833	26001.1
220.815	25533.1
226.789	25350.1
232.758	25230.1
238.719	25010.1
244.674	24757.1
250.623	24289.1
256.565	23841.1
262.5	23265.1
268.429	22847.1
274.351	22543.1
280.267	22232.1
286.176	21970.1
292.079	21735.1
297.975	21626.1
303.865	21369.1
309.748	21182.1
315.625	21135.1
321.495	21030.1
327.359	20991.1
333.217	20888.1
339.068	20890.1
344.912	20865.1
350.751	20858.1
356.583	20825.1
362.408	20806.1
368.227	20793.1
374.04	20811.1
379.847	20868.1
385.647	20931.1
391.44	20955.1
397.228	21132.1
403.009	21216.1
408.784	21203.1
414.553	21284.1
420.315	21357.1
426.071	21362.1
431.821	21380.1
437.565	21309.1
443.302	21332.1
449.033	21235.1
454.758	21212.1
460.477	21212.1
466.189	21139.1
471.896	21089.1
477.596	21055.1
483.29	21018.1
488.978	20965.1
494.66	20878.1
500.335	20837.1
506.005	20594.1
511.668	20332.1
517.325	20125.1
522.977	19916.1
528.622	19840.1
534.261	19704.1
539.894	19615.1
545.521	19484.1
551.141	19458.1
556.756	19414.1
562.365	19335.1
567.968	19240.1
573.565	19199.1
579.155	19119.1
584.74	19028.1
590.319	19006.1
595.892	18909.1
601.459	18776.1
607.02	18723.1
612.575	18611.1
618.124	18532.1
623.667	18421.1
629.204	18324.1
634.735	18248.1
640.261	18185.1
645.781	18105.1
651.294	18052.1
656.802	18062.1
662.304	18041.1
667.8	17952.1
673.29	17952.1
678.775	17902.1
684.254	17933.1
689.726	17842.1
695.193	17756.1
700.655	17661.1
706.11	17627.1
711.56	17437.1
717.004	17373.1
722.442	17379.1
727.874	17300.1
733.301	17233.1
738.722	17175.1
744.137	17155.1
749.547	17141.1
754.951	17060.1
760.349	17136.1
765.741	17141.1
771.128	17120.1
776.509	17168.1
781.885	17181.1
787.254	17049.1
792.618	17023.1
797.977	16917.1
803.33	16789.1
808.677	16747.1
814.019	16677.1
819.355	16463.1
824.686	16496.1
830.011	16406.1
835.33	16412.1
840.644	16465.1
845.952	16481.1
851.255	16537.1
856.552	16550.1
861.844	16501.1
867.13	16457.1
872.41	16395.1
877.686	16316.1
882.955	16207.1
888.219	16082.1
893.478	15889.1
898.731	15672.1
903.979	15538.1
909.221	15422.1
914.458	15373.1
919.69	15341.1
924.916	15415.1
930.136	15502.1
935.351	15453.1
940.561	15451.1
945.766	15459.1
950.965	15351.1
956.158	15210.1
961.347	15121.1
966.529	14930.1
971.707	14665.1
976.879	14544.1
982.046	14427.1
987.208	14368.1
992.364	14451.1
997.515	14507.1
1002.66	14619.1
1007.801	14777.1
1012.936	14867.1
1018.066	14911.1
1023.19	14845.1
1028.309	14858.1
1033.423	14858.1
1038.532	14791.1
1043.636	14626.1
1048.734	14446.1
1053.827	14291.1
1058.915	14048.1
1063.998	14042.1
1069.075	13980.1
1074.147	13992.1
1079.214	14061.1
1084.276	14129.1
1089.333	14211.1
1094.385	14276.1
1099.431	14325.1
1104.472	14278.1
1109.509	14221.1
1114.54	14074.1
1119.565	13853.1
1124.586	13693.1
1129.602	13625.1
1134.613	13515.1
1139.618	13449.1
1144.619	13385.1
1149.614	13418.1
1154.604	13395.1
1159.589	13465.1
1164.57	13462.1
1169.545	13489.1
1174.515	13528.1
1179.48	13408.1
1184.44	13292.1
1189.395	13227.1
1194.345	13111.1
1199.29	13051.1
1204.23	13072.1
1209.165	13099.1
1214.095	13166.1
1219.021	13241.1
1223.941	13276.1
1228.856	13419.1
1233.766	13406.1
1238.672	13445.1
1243.572	13403.1
1248.467	13315.1
1253.358	13179.1
1258.244	12997.1
1263.124	12811.1
1268	12645.1
1272.871	12479.1
1277.737	12390.1
1282.599	12300.1
1287.455	12298.1
1292.306	12309.1
1297.153	12393.1
1301.995	12424.1
1306.832	12542.1
1311.664	12406.1
1316.491	12402.1
1321.314	12265.1
1326.132	12094.1
1330.945	11834.1
1335.753	11536.1
1340.556	11270.1
1345.354	11045.1
1350.148	10856.1
1354.937	10817.1
1359.722	10814.1
1364.501	10821.1
1369.276	10975.1
1374.046	11113.1
1378.811	11289.1
1383.572	11398.1
1388.327	11420.1
1393.079	11386.1
1397.825	11207.1
1402.567	11074.1
1407.304	10935.1
1412.036	10877.1
1416.764	10753.1
1421.487	10683.1
1426.205	10639.1
1430.919	10576.1
1435.628	10573.1
1440.333	10624.1
1445.032	10612.1
1449.727	10637.1
1454.418	10614.1
1459.104	10493.1
1463.785	10320.1
1468.462	10053.1
1473.134	9901.1
1477.802	9657.1
1482.465	9558.1
1487.123	9421.1
1491.777	9394.1
1496.426	9430.1
1501.071	9549.1
1505.711	9679.1
1510.347	9892.1
1514.978	10028.1
1519.604	10153.1
1524.226	10282.1
1528.844	10295.1
1533.457	10252.1
1538.065	10205.1
1542.669	10178.1
1547.269	10050.1
1551.864	9964.1
1556.454	9965.1
1561.041	9946.1
1565.622	9953.1
1570.199	9930.1
1574.772	10054.1
1579.34	10076.1
1583.904	10153.1
1588.464	10174.1
1593.019	10146.1
1597.569	10132.1
1602.115	10066.1
1606.657	10013.1
1611.195	9954.1
1615.728	9814.1
1620.256	9811.1
1624.78	9792.1
1629.3	9827.1
1633.816	9887.1
1638.327	9885.1
1642.834	9982.1
1647.336	9971.1
1651.834	10027.1
1656.328	9961.1
1660.817	9924.1
1665.302	9824.1
1669.783	9643.1
1674.259	9428.1
1678.732	9157.1
1683.199	8839.1
1687.663	8521.1
1692.122	8266.1
1696.577	8160.1
1701.028	8116.1
1705.474	8175.1
1709.917	8324.1
1714.355	8296.1
1718.788	8270.1
1723.218	8155.1
1727.643	7980.1
1732.064	7847.1
1736.481	7666.1
1740.893	7538.1
1745.301	7303.1
1749.705	7090.1
1754.105	6910.1
1758.501	6708.1
1762.893	6487.1
1767.28	6360.1
1771.663	6184.1
1776.042	6090.1
1780.417	6035.1
1784.787	6025.1
1789.154	6060.1
1793.516	6168.1
1797.874	6291.1
1802.228	6427.1
1806.578	6487.1
1810.924	6499.1
1815.266	6448.1
1819.603	6328.1
1823.937	6264.1
1828.266	6173.1
1832.591	6065.1
1836.913	5979.1
1841.23	5953.1
1845.543	5905.1
1849.852	5876.1
1854.156	5858.1
1858.457	5848.1
1862.754	5806.1
1867.047	5788.1
1871.335	5786.1
1875.62	5804.1
1879.9	5785.1
1884.177	5710.1
1888.449	5666.1
1892.718	5601.1
1896.982	5533.1
1901.243	5485.1
1905.499	5431.1
1909.752	5427.1
1914	5405.1
1918.245	5396.1
1922.485	5468.1
1926.722	5540.1
1930.954	5582.1
1935.183	5677.1
1939.408	5696.1
1943.628	5734.1
1947.845	5731.1
1952.058	5735.1
1956.267	5704.1
1960.472	5629.1
1964.673	5562.1
1968.87	5463.1
1973.063	5371.1
1977.252	5303.1
1981.438	5240.1
1985.619	5188.1
1989.797	5137.1
1993.971	5147.1
1998.14	5131.1
2002.306	5081.1
2006.469	5089.1
2010.627	5032.1
2014.781	4985.1
2018.932	4934.1
2023.078	4914.1
2027.221	4858.1
2031.36	4757.1
2035.495	4677.1
2039.627	4613.1
2043.754	4547.1
2047.878	4492.1
2051.998	4501.1
2056.114	4439.1
2060.226	4415.1
2064.334	4459.1
2068.439	4453.1
2072.54	4493.1
2076.637	4535.1
2080.73	4540.1
2084.82	4582.1
2088.906	4584.1
2092.988	4607.1
2097.066	4559.1
2101.14	4551.1
2105.211	4508.1
2109.278	4483.1
2113.342	4447.1
2117.401	4436.1
2121.457	4422.1
2125.509	4422.1
2129.558	4389.1
2133.602	4344.1
2137.643	4329.1
2141.681	4301.1
2145.714	4290.1
2149.744	4249.1
2153.77	4251.1
2157.793	4164.1
2161.812	4105.1
2165.827	4056.1
2169.838	4011.1
2173.846	3936.1
2177.851	3883.1
2181.851	3801.1
2185.848	3790.1
2189.841	3727.1
2193.831	3691.1
2197.817	3677.1
2201.799	3645.1
2205.778	3637.1
2209.753	3629.1
2213.725	3632.1
2217.693	3601.1
2221.657	3582.1
2225.618	3589.1
2229.575	3552.1
2233.529	3524.1
2237.479	3514.1
2241.425	3447.1
2245.368	3414.1
2249.307	3352.1
2253.243	3326.1
2257.175	3264.1
2261.104	3224.1
2265.029	3167.1
2268.95	3161.1
2272.868	3107.1
2276.783	3087.1
2280.694	3080.1
2284.601	3018.1
2288.505	3006.1
2292.405	2975.1
2296.302	2934.1
2300.195	2927.1
2304.085	2885.1
2307.971	2845.1
2311.854	2791.1
2315.734	2758.1
2319.609	2739.1
2323.482	2703.1
2327.351	2678.1
2331.216	2617.1
2335.078	2609.1
2338.937	2625.1
2342.792	2607.1
2346.643	2599.1
2350.492	2588.1
2354.336	2604.1
2358.178	2619.1
2362.015	2635.1
2365.85	2637.1
2369.681	2615.1
2373.508	2600.1
2377.333	2622.1
2381.153	2612.1
2384.971	2595.1
2388.785	2580.1
2392.595	2581.1
2396.402	2518.1
2400.206	2524.1
2404.007	2521.1
2407.804	2470.1
2411.597	2447.1
2415.388	2446.1
2419.174	2436.1
2422.958	2408.1
2426.738	2403.1
2430.515	2378.1
2434.289	2357.1
2438.059	2329.1
2441.825	2335.1
2445.589	2289.1
2449.349	2285.1
2453.106	2246.1
2456.859	2200.1
2460.61	2192.1
2464.356	2161.1
2468.1	2128.1
2471.84	2106.1
2475.577	2096.1
2479.311	2086.1
2483.041	2065.1
2486.768	2070.1
2490.492	2056.1
2494.213	2044.1
2497.93	2020.1
2501.644	2020.1
2505.355	2009.1
2509.062	2006.1
2512.766	1979.1
2516.467	1983.1
2520.165	1972.1
2523.859	1930.1
2527.551	1936.1
2531.239	1914.1
2534.923	1899.1
2538.605	1903.1
2542.283	1916.1
2545.958	1889.1
2549.63	1883.1
2553.299	1893.1
2556.964	1875.1
2560.626	1890.1
2564.285	1864.1
2567.941	1867.1
2571.594	1832.1
2575.243	1809.1
2578.89	1812.1
2582.533	1795.1
2586.173	1790.1
2589.809	1777.1
2593.443	1748.1
2597.073	1763.1
2600.701	1723.1
2604.325	1706.1
2607.946	1694.1
2611.564	1692.1
2615.178	1681.1
2618.79	1670.1
2622.398	1648.1
2626.004	1644.1
2629.606	1613.1
2633.205	1585.1
2636.801	1573.1
2640.394	1572.1
2643.983	1523.1
2647.57	1498.1
2651.153	1498.1
2654.734	1451.1
2658.311	1442.1
2661.885	1424.1
2665.456	1400.1
2669.025	1392.1
2672.589	1366.1
2676.151	1357.1
2679.71	1322.1
2683.266	1308.1
2686.819	1278.1
2690.368	1267.1
2693.915	1257.1
2697.458	1200.1
2700.999	1183.1
2704.536	1160.1
2708.071	1116.1
2711.602	1101.1
2715.13	1084.1
2718.656	1066.1
2722.178	1022.1
2725.697	1000.1
2729.214	983.1
2732.727	995.1
2736.237	974.1
2739.744	986.1
2743.249	1000.1
2746.75	987.1
2750.248	996.1
2753.743	1007.1
2757.236	1027.1
2760.725	1033.1
2764.211	1035.1
2767.695	1021.1
2771.175	1022.1
2774.652	1042.1
2778.127	1033.1
2781.598	1029.1
2785.067	1020.1
2788.532	1009.1
2791.995	1020.1
2795.455	1008.1
2798.911	1010.1
2802.365	1010.1
2805.816	1002.1
2809.264	1017.1
2812.709	1014.1
2816.151	1019.1
2819.59	1022.1
2823.026	998.1
2826.46	1004.1
2829.89	1019.1
2833.318	1005.1
2836.742	1020.1
2840.164	1041.1
2843.583	1041.1
2846.999	1034.1
2850.412	1070.1
2853.822	1050.1
2857.229	1081.1
2860.634	1084.1
2864.035	1120.1
2867.434	1132.1
2870.83	1147.1
2874.223	1182.1
2877.613	1199.1
2881	1195.1
2884.385	1205.1
2887.766	1212.1
2891.145	1212.1
2894.521	1191.1
2897.894	1185.1
2901.264	1195.1
2904.631	1204.1
2907.996	1216.1
2911.358	1210.1
2914.717	1202.1
2918.073	1206.1
2921.426	1245.1
2924.777	1250.1
2928.124	1264.1
2931.469	1268.1
2934.811	1316.1
2938.15	1325.1
2941.487	1338.1
2944.821	1335.1
2948.152	1344.1
2951.48	1347.1
2954.805	1308.1
2958.128	1286.1
2961.447	1288.1
2964.765	1289.1
2968.079	1279.1
2971.39	1286.1
2974.699	1299.1
2978.005	1345.1
2981.308	1366.1
2984.609	1388.1
2987.907	1373.1
2991.202	1449.1
2994.494	1466.1
2997.784	1487.1
3001.07	1526.1
3004.355	1541.1
3007.636	1535.1
3010.915	1544.1
3014.191	1579.1
3017.464	1607.1
3020.734	1603.1
3024.002	1625.1
3027.267	1620.1
3030.53	1652.1
3033.789	1657.1
3037.046	1703.1
3040.301	1708.1
3043.552	1737.1
3046.801	1779.1
3050.048	1818.1
3053.291	1862.1
3056.532	1928.1
3059.771	1973.1
3063.006	2012.1
3066.239	2077.1
3069.469	2136.1
3072.697	2218.1
3075.922	2265.1
3079.144	2334.1
3082.364	2358.1
3085.581	2411.1
3088.795	2441.1
3092.007	2518.1
3095.216	2578.1
3098.423	2623.1
3101.627	2651.1
3104.828	2758.1
3108.026	2781.1
3111.222	2863.1
3114.416	2947.1
3117.607	3029.1
3120.795	3063.1
3123.98	3134.1
3127.163	3229.1
3130.344	3306.1
3133.521	3377.1
3136.696	3451.1
3139.869	3508.1
3143.039	3564.1
3146.206	3638.1
3149.371	3674.1
3152.533	3721.1
3155.693	3718.1
3158.85	3753.1
3162.005	3771.1
3165.157	3815.1
3168.306	3760.1
3171.453	3797.1
3174.597	3806.1
3177.739	3795.1
3180.878	3783.1
3184.014	3798.1
3187.149	3810.1
3190.28	3836.1
3193.409	3844.1
3196.536	3844.1
3199.659	3845.1
3202.781	3843.1
3205.9	3840.1
3209.016	3863.1
3212.13	3813.1
3215.241	3778.1
3218.35	3765.1
3221.456	3707.1
3224.56	3654.1
3227.661	3630.1
3230.76	3596.1
3233.856	3561.1
3236.95	3506.1
3240.041	3489.1
3243.13	3444.1
3246.216	3426.1
3249.3	3434.1
3252.382	3422.1
3255.46	3394.1
3258.537	3376.1
3261.611	3396.1
3264.682	3371.1
3267.751	3372.1
3270.818	3375.1
3273.882	3349.1
3276.943	3341.1
3280.002	3343.1
3283.059	3285.1
3286.113	3241.1
3289.165	3209.1
3292.214	3163.1
3295.261	3102.1
3298.306	3042.1
3301.348	3010.1
3304.387	2980.1
3307.425	2936.1
3310.459	2871.1
3313.492	2827.1
3316.521	2775.1
3319.549	2772.1
3322.574	2722.1
3325.597	2703.1
3328.617	2691.1
3331.635	2652.1
3334.65	2670.1
3337.663	2636.1
3340.674	2625.1
3343.682	2601.1
3346.688	2630.1
3349.691	2596.1
3352.692	2576.1
3355.691	2546.1
3358.687	2539.1
3361.681	2509.1
3364.673	2475.1
3367.662	2452.1
3370.649	2417.1
3373.633	2402.1
3376.615	2352.1
3379.595	2316.1
3382.572	2276.1
3385.547	2234.1
3388.52	2202.1
3391.49	2158.1
3394.458	2141.1
3397.424	2101.1
3400.387	2090.1
3403.348	2058.1
3406.307	2053.1
3409.263	2008.1
3412.217	1972.1
3415.168	1968.1
3418.118	1923.1
3421.065	1911.1
3424.009	1888.1
3426.951	1851.1
3429.891	1809.1
3432.829	1780.1
3435.764	1728.1
3438.697	1678.1
3441.628	1637.1
3444.557	1598.1
3447.483	1544.1
3450.407	1474.1
3453.328	1434.1
3456.247	1394.1
3459.164	1339.1
3462.079	1278.1
3464.991	1252.1
3467.902	1185.1
3470.809	1152.1
3473.715	1108.1
3476.618	1079.1
3479.519	1034.1
3482.418	1006.1
3485.315	967.1
3488.209	907.1
3491.101	888.1
3493.99	863.1
3496.878	826.1
3499.763	792.1
3502.646	749.1
3505.527	705.1
3508.405	680.1
3511.281	646.1
3514.155	610.1
3517.027	571.1
3519.897	529.1
3522.764	492.1
3525.629	444.1
3528.492	413.1
3531.352	371.1
3534.211	330.1
3537.067	291.1
3539.921	269.1
3542.773	242.1
3545.622	197.1
3548.469	169.1
3551.315	144.1
3554.157	126.1
3556.998	106.1
3559.837	75.1
3562.673	48.1
3565.507	24.1
3568.339	11.1
3571.169	-14.9
3573.996	-36.9
3576.822	-39.9
3579.645	-65.9
3582.466	-91.9
3585.285	-114.9
3588.101	-120.9
3590.916	-135.9
3593.728	-168.9
3596.538	-173.9
3599.346	-203.9
3602.152	-213.9
3604.956	-228.9
3607.757	-242.9
3610.556	-249.9
3613.354	-266.9
3616.149	-286.9
3618.942	-296.9
3621.732	-303.9
3624.521	-311.9
3627.307	-321.9
3630.092	-336.9
3632.874	-342.9
3635.654	-345.9
3638.432	-362.9
3641.208	-365.9
3643.982	-375.9
3646.753	-381.9
3649.523	-396.9
3652.29	-402.9
3655.055	-404.9
3657.818	-419.9
3660.579	-434.9
3663.338	-436.9
3666.095	-457.9
3668.849	-469.9
3671.602	-467.9
3674.352	-467.9
3677.101	-478.9
3679.847	-484.9
3682.591	-484.9
3685.333	-489.9
3688.073	-500.9
3690.811	-498.9
3693.547	-504.9
3696.281	-513.9
3699.013	-516.9
3701.742	-522.9
3704.47	-526.9
3707.195	-540.9
3709.919	-531.9
3712.64	-535.9
3715.359	-543.9
3718.076	-550.9
3720.792	-549.9
3723.505	-549.9
3726.216	-557.9
3728.925	-561.9
3731.632	-573.9
3734.336	-569.9
3737.039	-578.9
3739.74	-567.9
3742.439	-569.9
3745.136	-581.9
3747.83	-582.9
3750.523	-579.9
3753.213	-583.9
3755.902	-587.9
3758.589	-579.9
3761.273	-588.9
3763.956	-589.9
3766.636	-593.9
3769.315	-594.9
3771.991	-593.9
3774.665	-590.9
3777.338	-601.9
3780.008	-597.9
3782.677	-592.9
3785.343	-602.9
3788.007	-592.9
3790.67	-601.9
3793.33	-609.9
3795.989	-609.9
3798.645	-606.9
3801.299	-611.9
3803.952	-614.9
3806.602	-613.9
3809.251	-620.9
3811.897	-607.9
3814.542	-610.9
3817.184	-619.9
3819.825	-618.9
3822.463	-614.9
3825.1	-613.9
3827.735	-613.9
3830.367	-613.9
3832.998	-621.9
3835.627	-620.9
3838.253	-625.9
3840.878	-621.9
3843.501	-618.9
3846.122	-619.9
3848.741	-618.9
3851.358	-630.9
3853.973	-624.9
3856.586	-618.9
3859.197	-625.9
3861.806	-627.9
3864.414	-624.9
3867.019	-621.9
3869.622	-628.9
3872.224	-622.9
3874.823	-610.9
3877.421	-593.9
3880.016	-575.9
3882.61	-540.9
3885.202	-540.9
3887.792	-556.9
3890.38	-586.9
3892.966	-609.9
3895.55	-615.9
3898.132	-626.9
3900.713	-637.9
3903.291	-634.9
3905.868	-632.9
3908.442	-634.9
3911.015	-633.9
3913.586	-634.9
3916.155	-636.9
3918.722	-634.9
3921.287	-635.9
3923.85	-634.9
3926.411	-642.9
3928.971	-639.9
3931.528	-640.9
3934.084	-636.9
3936.638	-643.9
3939.19	-641.9
3941.74	-645.9
3944.288	-638.9
3946.834	-647.9
3949.378	-644.9
3951.921	-642.9
3954.462	-641.9
3957	-633.9
3959.537	-633.9
3962.072	-630.9
3964.606	-632.9
3967.137	-642.9
3969.667	-636.9
3972.194	-631.9
3974.72	-630.9
3977.244	-632.9
3979.766	-621.9
3982.286	-627.9
3984.805	-623.9
3987.321	-625.9
3989.836	-626.9
3992.349	-626.9
3994.86	-630.9
3997.369	-636.9
3999.877	-627.9
4002.382	-622.9
4004.886	-630.9
4007.388	-625.9
4009.888	-624.9
4012.386	-627.9
4014.883	-622.9
4017.377	-623.9
4019.87	-621.9
4022.361	-624.9
4024.85	-631.9
4027.338	-624.9
4029.823	-625.9
4032.307	-629.9
4034.789	-631.9
4037.269	-630.9
4039.747	-635.9
4042.224	-626.9
4044.699	-632.9
4047.172	-631.9
4049.643	-630.9
4052.112	-634.9
4054.58	-624.9
4057.046	-640.9
4059.51	-635.9
4061.972	-634.9
4064.432	-627.9
4066.891	-629.9
4069.348	-635.9
4071.803	-632.9
4074.256	-626.9
4076.708	-630.9
4079.158	-622.9
4081.606	-626.9
4084.052	-620.9
4086.497	-627.9
4088.939	-624.9
4091.38	-620.9
4093.819	-622.9
4096.257	-659.9
4098.693	-661.9
4101.127	-660.9
4103.559	-662.9
4105.989	-394.9
4108.418	-379.9
4110.845	-359.9
4113.27	-336.9
4115.694	-272.9
4118.115	-231.9
4120.535	-626.9
4122.954	-631.9
4125.37	-624.9
4127.785	-623.9
4130.198	-630.9
4132.609	-626.9
4135.019	-665.9
4137.427	-661.9
4139.833	-661.9
4142.237	-661.9
