Data from 2018-2-7_conc=5_RamanShift_13.txt Node
Date: Tue Feb 13 14:05:13 IST 2018
User: aro
Spectrometer: QEPB0276
Trigger mode: 0
Integration Time (sec): 3.000000E1
Scans to average: 1
Electric dark correction enabled: true
Nonlinearity correction enabled: false
Boxcar width: 0
XAxis mode: Raman Shifts
Number of Pixels in Spectrum: 1044
>>>>>Begin Spectral Data<<<<<
160.701	-146.8
166.742	25.2
172.777	553.2
178.805	2118.2
184.826	5856.2
190.841	12066.2
196.849	19083.2
202.85	23860.2
208.845	25340.2
214.833	25042.2
220.815	24530.2
226.789	24265.2
232.758	24145.2
238.719	23963.2
244.674	23502.2
250.623	23077.2
256.565	22634.2
262.5	22072.2
268.429	21614.2
274.351	21318.2
280.267	20963.2
286.176	20671.2
292.079	20525.2
297.975	20251.2
303.865	20106.2
309.748	19916.2
315.625	19745.2
321.495	19625.2
327.359	19549.2
333.217	19539.2
339.068	19469.2
344.912	19519.2
350.751	19389.2
356.583	19427.2
362.408	19413.2
368.227	19422.2
374.04	19511.2
379.847	19487.2
385.647	19560.2
391.44	19657.2
397.228	19696.2
403.009	19804.2
408.784	19843.2
414.553	19854.2
420.315	19911.2
426.071	19971.2
431.821	19926.2
437.565	19924.2
443.302	19883.2
449.033	19869.2
454.758	19864.2
460.477	19773.2
466.189	19721.2
471.896	19667.2
477.596	19612.2
483.29	19633.2
488.978	19589.2
494.66	19427.2
500.335	19322.2
506.005	19138.2
511.668	18899.2
517.325	18704.2
522.977	18501.2
528.622	18375.2
534.261	18323.2
539.894	18127.2
545.521	18049.2
551.141	18085.2
556.756	17968.2
562.365	17908.2
567.968	17832.2
573.565	17757.2
579.155	17686.2
584.74	17614.2
590.319	17573.2
595.892	17448.2
601.459	17413.2
607.02	17361.2
612.575	17255.2
618.124	17113.2
623.667	17019.2
629.204	16941.2
634.735	16840.2
640.261	16827.2
645.781	16761.2
651.294	16675.2
656.802	16652.2
662.304	16701.2
667.8	16623.2
673.29	16630.2
678.775	16540.2
684.254	16484.2
689.726	16452.2
695.193	16413.2
700.655	16291.2
706.11	16242.2
711.56	16151.2
717.004	16063.2
722.442	16049.2
727.874	15929.2
733.301	15853.2
738.722	15848.2
744.137	15793.2
749.547	15789.2
754.951	15810.2
760.349	15782.2
765.741	15793.2
771.128	15845.2
776.509	15801.2
781.885	15823.2
787.254	15720.2
792.618	15700.2
797.977	15588.2
803.33	15464.2
808.677	15351.2
814.019	15332.2
819.355	15247.2
824.686	15152.2
830.011	15171.2
835.33	15178.2
840.644	15155.2
845.952	15174.2
851.255	15181.2
856.552	15201.2
861.844	15162.2
867.13	15146.2
872.41	15052.2
877.686	14958.2
882.955	14872.2
888.219	14789.2
893.478	14596.2
898.731	14402.2
903.979	14245.2
909.221	14176.2
914.458	14095.2
919.69	14110.2
924.916	14191.2
930.136	14186.2
935.351	14187.2
940.561	14247.2
945.766	14165.2
950.965	14102.2
956.158	14026.2
961.347	13897.2
966.529	13719.2
971.707	13491.2
976.879	13352.2
982.046	13218.2
987.208	13211.2
992.364	13226.2
997.515	13319.2
1002.66	13410.2
1007.801	13525.2
1012.936	13656.2
1018.066	13644.2
1023.19	13647.2
1028.309	13659.2
1033.423	13665.2
1038.532	13540.2
1043.636	13471.2
1048.734	13244.2
1053.827	13059.2
1058.915	12914.2
1063.998	12872.2
1069.075	12826.2
1074.147	12819.2
1079.214	12907.2
1084.276	12984.2
1089.333	13035.2
1094.385	13118.2
1099.431	13151.2
1104.472	13165.2
1109.509	13089.2
1114.54	12920.2
1119.565	12680.2
1124.586	12602.2
1129.602	12496.2
1134.613	12394.2
1139.618	12353.2
1144.619	12262.2
1149.614	12301.2
1154.604	12340.2
1159.589	12287.2
1164.57	12374.2
1169.545	12347.2
1174.515	12379.2
1179.48	12333.2
1184.44	12212.2
1189.395	12170.2
1194.345	12047.2
1199.29	11967.2
1204.23	12009.2
1209.165	12014.2
1214.095	12061.2
1219.021	12122.2
1223.941	12230.2
1228.856	12320.2
1233.766	12294.2
1238.672	12339.2
1243.572	12364.2
1248.467	12231.2
1253.358	12099.2
1258.244	11936.2
1263.124	11719.2
1268	11595.2
1272.871	11450.2
1277.737	11349.2
1282.599	11281.2
1287.455	11299.2
1292.306	11325.2
1297.153	11358.2
1301.995	11381.2
1306.832	11402.2
1311.664	11412.2
1316.491	11404.2
1321.314	11272.2
1326.132	11086.2
1330.945	10861.2
1335.753	10647.2
1340.556	10328.2
1345.354	10123.2
1350.148	10012.2
1354.937	9891.2
1359.722	9931.2
1364.501	9949.2
1369.276	10067.2
1374.046	10190.2
1378.811	10360.2
1383.572	10392.2
1388.327	10463.2
1393.079	10330.2
1397.825	10273.2
1402.567	10099.2
1407.304	9985.2
1412.036	9918.2
1416.764	9824.2
1421.487	9758.2
1426.205	9721.2
1430.919	9680.2
1435.628	9693.2
1440.333	9707.2
1445.032	9769.2
1449.727	9786.2
1454.418	9724.2
1459.104	9622.2
1463.785	9442.2
1468.462	9235.2
1473.134	9081.2
1477.802	8817.2
1482.465	8721.2
1487.123	8600.2
1491.777	8525.2
1496.426	8622.2
1501.071	8705.2
1505.711	8853.2
1510.347	8978.2
1514.978	9145.2
1519.604	9232.2
1524.226	9378.2
1528.844	9398.2
1533.457	9355.2
1538.065	9302.2
1542.669	9214.2
1547.269	9159.2
1551.864	9119.2
1556.454	9123.2
1561.041	9114.2
1565.622	9116.2
1570.199	9082.2
1574.772	9189.2
1579.34	9231.2
1583.904	9288.2
1588.464	9344.2
1593.019	9352.2
1597.569	9335.2
1602.115	9274.2
1606.657	9270.2
1611.195	9194.2
1615.728	9123.2
1620.256	9067.2
1624.78	9081.2
1629.3	9074.2
1633.816	9156.2
1638.327	9171.2
1642.834	9185.2
1647.336	9250.2
1651.834	9256.2
1656.328	9248.2
1660.817	9176.2
1665.302	9067.2
1669.783	8878.2
1674.259	8649.2
1678.732	8395.2
1683.199	8170.2
1687.663	7837.2
1692.122	7606.2
1696.577	7443.2
1701.028	7452.2
1705.474	7529.2
1709.917	7578.2
1714.355	7593.2
1718.788	7536.2
1723.218	7386.2
1727.643	7250.2
1732.064	7144.2
1736.481	6973.2
1740.893	6821.2
1745.301	6636.2
1749.705	6469.2
1754.105	6239.2
1758.501	6085.2
1762.893	5893.2
1767.28	5763.2
1771.663	5595.2
1776.042	5512.2
1780.417	5463.2
1784.787	5493.2
1789.154	5531.2
1793.516	5614.2
1797.874	5718.2
1802.228	5822.2
1806.578	5886.2
1810.924	5863.2
1815.266	5859.2
1819.603	5749.2
1823.937	5661.2
1828.266	5550.2
1832.591	5485.2
1836.913	5425.2
1841.23	5370.2
1845.543	5359.2
1849.852	5321.2
1854.156	5276.2
1858.457	5248.2
1862.754	5260.2
1867.047	5262.2
1871.335	5273.2
1875.62	5227.2
1879.9	5242.2
1884.177	5178.2
1888.449	5127.2
1892.718	5033.2
1896.982	5043.2
1901.243	4961.2
1905.499	4943.2
1909.752	4899.2
1914	4908.2
1918.245	4941.2
1922.485	4951.2
1926.722	4998.2
1930.954	5070.2
1935.183	5129.2
1939.408	5182.2
1943.628	5195.2
1947.845	5214.2
1952.058	5212.2
1956.267	5151.2
1960.472	5098.2
1964.673	5017.2
1968.87	4942.2
1973.063	4848.2
1977.252	4802.2
1981.438	4760.2
1985.619	4724.2
1989.797	4668.2
1993.971	4668.2
1998.14	4623.2
2002.306	4622.2
2006.469	4608.2
2010.627	4601.2
2014.781	4561.2
2018.932	4531.2
2023.078	4470.2
2027.221	4419.2
2031.36	4319.2
2035.495	4235.2
2039.627	4180.2
2043.754	4145.2
2047.878	4118.2
2051.998	4108.2
2056.114	4072.2
2060.226	4096.2
2064.334	4069.2
2068.439	4100.2
2072.54	4111.2
2076.637	4120.2
2080.73	4184.2
2084.82	4187.2
2088.906	4177.2
2092.988	4205.2
2097.066	4186.2
2101.14	4151.2
2105.211	4141.2
2109.278	4105.2
2113.342	4111.2
2117.401	4093.2
2121.457	4062.2
2125.509	4055.2
2129.558	4028.2
2133.602	3994.2
2137.643	3992.2
2141.681	3973.2
2145.714	3950.2
2149.744	3910.2
2153.77	3880.2
2157.793	3832.2
2161.812	3789.2
2165.827	3744.2
2169.838	3687.2
2173.846	3598.2
2177.851	3584.2
2181.851	3500.2
2185.848	3471.2
2189.841	3458.2
2193.831	3384.2
2197.817	3377.2
2201.799	3350.2
2205.778	3347.2
2209.753	3341.2
2213.725	3314.2
2217.693	3292.2
2221.657	3268.2
2225.618	3279.2
2229.575	3283.2
2233.529	3220.2
2237.479	3207.2
2241.425	3172.2
2245.368	3104.2
2249.307	3083.2
2253.243	3033.2
2257.175	3001.2
2261.104	2971.2
2265.029	2921.2
2268.95	2893.2
2272.868	2848.2
2276.783	2852.2
2280.694	2777.2
2284.601	2785.2
2288.505	2758.2
2292.405	2756.2
2296.302	2707.2
2300.195	2664.2
2304.085	2643.2
2307.971	2605.2
2311.854	2579.2
2315.734	2527.2
2319.609	2501.2
2323.482	2456.2
2327.351	2428.2
2331.216	2438.2
2335.078	2418.2
2338.937	2395.2
2342.792	2415.2
2346.643	2364.2
2350.492	2390.2
2354.336	2407.2
2358.178	2391.2
2362.015	2408.2
2365.85	2417.2
2369.681	2420.2
2373.508	2393.2
2377.333	2413.2
2381.153	2396.2
2384.971	2407.2
2388.785	2381.2
2392.595	2344.2
2396.402	2308.2
2400.206	2292.2
2404.007	2282.2
2407.804	2265.2
2411.597	2258.2
2415.388	2251.2
2419.174	2237.2
2422.958	2228.2
2426.738	2216.2
2430.515	2159.2
2434.289	2175.2
2438.059	2137.2
2441.825	2139.2
2445.589	2098.2
2449.349	2107.2
2453.106	2070.2
2456.859	2014.2
2460.61	1988.2
2464.356	1960.2
2468.1	1946.2
2471.84	1943.2
2475.577	1928.2
2479.311	1908.2
2483.041	1908.2
2486.768	1891.2
2490.492	1883.2
2494.213	1890.2
2497.93	1850.2
2501.644	1868.2
2505.355	1858.2
2509.062	1853.2
2512.766	1837.2
2516.467	1824.2
2520.165	1794.2
2523.859	1787.2
2527.551	1763.2
2531.239	1754.2
2534.923	1755.2
2538.605	1752.2
2542.283	1753.2
2545.958	1749.2
2549.63	1730.2
2553.299	1732.2
2556.964	1724.2
2560.626	1704.2
2564.285	1713.2
2567.941	1713.2
2571.594	1681.2
2575.243	1688.2
2578.89	1695.2
2582.533	1657.2
2586.173	1636.2
2589.809	1636.2
2593.443	1613.2
2597.073	1610.2
2600.701	1571.2
2604.325	1558.2
2607.946	1566.2
2611.564	1551.2
2615.178	1557.2
2618.79	1540.2
2622.398	1529.2
2626.004	1506.2
2629.606	1484.2
2633.205	1460.2
2636.801	1452.2
2640.394	1422.2
2643.983	1392.2
2647.57	1384.2
2651.153	1390.2
2654.734	1341.2
2658.311	1320.2
2661.885	1305.2
2665.456	1278.2
2669.025	1289.2
2672.589	1258.2
2676.151	1248.2
2679.71	1218.2
2683.266	1198.2
2686.819	1182.2
2690.368	1166.2
2693.915	1140.2
2697.458	1113.2
2700.999	1065.2
2704.536	1064.2
2708.071	1048.2
2711.602	1014.2
2715.13	979.2
2718.656	971.2
2722.178	951.2
2725.697	933.2
2729.214	935.2
2732.727	917.2
2736.237	892.2
2739.744	913.2
2743.249	913.2
2746.75	908.2
2750.248	935.2
2753.743	935.2
2757.236	935.2
2760.725	932.2
2764.211	967.2
2767.695	963.2
2771.175	974.2
2774.652	960.2
2778.127	957.2
2781.598	932.2
2785.067	940.2
2788.532	944.2
2791.995	926.2
2795.455	933.2
2798.911	950.2
2802.365	951.2
2805.816	959.2
2809.264	930.2
2812.709	956.2
2816.151	949.2
2819.59	933.2
2823.026	927.2
2826.46	934.2
2829.89	944.2
2833.318	944.2
2836.742	942.2
2840.164	961.2
2843.583	965.2
2846.999	977.2
2850.412	985.2
2853.822	1001.2
2857.229	1013.2
2860.634	1015.2
2864.035	1061.2
2867.434	1083.2
2870.83	1081.2
2874.223	1099.2
2877.613	1117.2
2881	1144.2
2884.385	1162.2
2887.766	1165.2
2891.145	1149.2
2894.521	1154.2
2897.894	1151.2
2901.264	1159.2
2904.631	1141.2
2907.996	1146.2
2911.358	1156.2
2914.717	1168.2
2918.073	1178.2
2921.426	1190.2
2924.777	1206.2
2928.124	1243.2
2931.469	1241.2
2934.811	1262.2
2938.15	1290.2
2941.487	1280.2
2944.821	1298.2
2948.152	1305.2
2951.48	1289.2
2954.805	1298.2
2958.128	1263.2
2961.447	1254.2
2964.765	1240.2
2968.079	1263.2
2971.39	1274.2
2974.699	1275.2
2978.005	1304.2
2981.308	1321.2
2984.609	1362.2
2987.907	1355.2
2991.202	1414.2
2994.494	1436.2
2997.784	1430.2
3001.07	1460.2
3004.355	1508.2
3007.636	1520.2
3010.915	1552.2
3014.191	1573.2
3017.464	1570.2
3020.734	1584.2
3024.002	1592.2
3027.267	1600.2
3030.53	1613.2
3033.789	1632.2
3037.046	1672.2
3040.301	1690.2
3043.552	1714.2
3046.801	1773.2
3050.048	1804.2
3053.291	1857.2
3056.532	1897.2
3059.771	1959.2
3063.006	2019.2
3066.239	2086.2
3069.469	2132.2
3072.697	2185.2
3075.922	2231.2
3079.144	2307.2
3082.364	2342.2
3085.581	2406.2
3088.795	2450.2
3092.007	2507.2
3095.216	2530.2
3098.423	2594.2
3101.627	2649.2
3104.828	2740.2
3108.026	2766.2
3111.222	2818.2
3114.416	2916.2
3117.607	2981.2
3120.795	3036.2
3123.98	3118.2
3127.163	3183.2
3130.344	3276.2
3133.521	3323.2
3136.696	3447.2
3139.869	3506.2
3143.039	3563.2
3146.206	3617.2
3149.371	3644.2
3152.533	3697.2
3155.693	3691.2
3158.85	3703.2
3162.005	3731.2
3165.157	3737.2
3168.306	3765.2
3171.453	3778.2
3174.597	3792.2
3177.739	3802.2
3180.878	3800.2
3184.014	3826.2
3187.149	3775.2
3190.28	3823.2
3193.409	3810.2
3196.536	3839.2
3199.659	3827.2
3202.781	3831.2
3205.9	3833.2
3209.016	3834.2
3212.13	3804.2
3215.241	3778.2
3218.35	3742.2
3221.456	3684.2
3224.56	3672.2
3227.661	3613.2
3230.76	3601.2
3233.856	3532.2
3236.95	3519.2
3240.041	3486.2
3243.13	3464.2
3246.216	3431.2
3249.3	3432.2
3252.382	3377.2
3255.46	3391.2
3258.537	3397.2
3261.611	3374.2
3264.682	3371.2
3267.751	3381.2
3270.818	3350.2
3273.882	3347.2
3276.943	3346.2
3280.002	3289.2
3283.059	3289.2
3286.113	3213.2
3289.165	3189.2
3292.214	3155.2
3295.261	3093.2
3298.306	3040.2
3301.348	2997.2
3304.387	2949.2
3307.425	2930.2
3310.459	2874.2
3313.492	2809.2
3316.521	2788.2
3319.549	2764.2
3322.574	2723.2
3325.597	2702.2
3328.617	2712.2
3331.635	2653.2
3334.65	2656.2
3337.663	2632.2
3340.674	2599.2
3343.682	2629.2
3346.688	2611.2
3349.691	2597.2
3352.692	2566.2
3355.691	2542.2
3358.687	2529.2
3361.681	2507.2
3364.673	2496.2
3367.662	2454.2
3370.649	2419.2
3373.633	2383.2
3376.615	2329.2
3379.595	2293.2
3382.572	2290.2
3385.547	2253.2
3388.52	2209.2
3391.49	2165.2
3394.458	2138.2
3397.424	2106.2
3400.387	2057.2
3403.348	2060.2
3406.307	2041.2
3409.263	2033.2
3412.217	1969.2
3415.168	1965.2
3418.118	1969.2
3421.065	1901.2
3424.009	1878.2
3426.951	1845.2
3429.891	1803.2
3432.829	1762.2
3435.764	1739.2
3438.697	1693.2
3441.628	1644.2
3444.557	1606.2
3447.483	1544.2
3450.407	1510.2
3453.328	1459.2
3456.247	1397.2
3459.164	1336.2
3462.079	1299.2
3464.991	1251.2
3467.902	1181.2
3470.809	1156.2
3473.715	1113.2
3476.618	1072.2
3479.519	1032.2
3482.418	991.2
3485.315	969.2
3488.209	915.2
3491.101	880.2
3493.99	854.2
3496.878	822.2
3499.763	792.2
3502.646	751.2
3505.527	722.2
3508.405	693.2
3511.281	637.2
3514.155	613.2
3517.027	574.2
3519.897	525.2
3522.764	487.2
3525.629	456.2
3528.492	421.2
3531.352	376.2
3534.211	344.2
3537.067	307.2
3539.921	270.2
3542.773	244.2
3545.622	211.2
3548.469	191.2
3551.315	160.2
3554.157	132.2
3556.998	106.2
3559.837	76.2
3562.673	66.2
3565.507	36.2
3568.339	33.2
3571.169	-8.8
3573.996	-17.8
3576.822	-44.8
3579.645	-53.8
3582.466	-93.8
3585.285	-92.8
3588.101	-109.8
3590.916	-129.8
3593.728	-158.8
3596.538	-160.8
3599.346	-184.8
3602.152	-194.8
3604.956	-210.8
3607.757	-224.8
3610.556	-237.8
3613.354	-250.8
3616.149	-264.8
3618.942	-270.8
3621.732	-285.8
3624.521	-280.8
3627.307	-303.8
3630.092	-313.8
3632.874	-336.8
3635.654	-336.8
3638.432	-345.8
3641.208	-347.8
3643.982	-364.8
3646.753	-363.8
3649.523	-380.8
3652.29	-385.8
3655.055	-392.8
3657.818	-404.8
3660.579	-413.8
3663.338	-412.8
3666.095	-427.8
3668.849	-440.8
3671.602	-443.8
3674.352	-445.8
3677.101	-460.8
3679.847	-471.8
3682.591	-459.8
3685.333	-473.8
3688.073	-479.8
3690.811	-481.8
3693.547	-483.8
3696.281	-500.8
3699.013	-497.8
3701.742	-511.8
3704.47	-506.8
3707.195	-519.8
3709.919	-516.8
3712.64	-524.8
3715.359	-525.8
3718.076	-525.8
3720.792	-533.8
3723.505	-530.8
3726.216	-542.8
3728.925	-539.8
3731.632	-551.8
3734.336	-551.8
3737.039	-559.8
3739.74	-557.8
3742.439	-549.8
3745.136	-558.8
3747.83	-559.8
3750.523	-555.8
3753.213	-560.8
3755.902	-561.8
3758.589	-562.8
3761.273	-562.8
3763.956	-569.8
3766.636	-571.8
3769.315	-568.8
3771.991	-574.8
3774.665	-568.8
3777.338	-577.8
3780.008	-576.8
3782.677	-577.8
3785.343	-581.8
3788.007	-571.8
3790.67	-584.8
3793.33	-582.8
3795.989	-588.8
3798.645	-587.8
3801.299	-593.8
3803.952	-596.8
3806.602	-594.8
3809.251	-597.8
3811.897	-591.8
3814.542	-588.8
3817.184	-594.8
3819.825	-590.8
3822.463	-589.8
3825.1	-597.8
3827.735	-604.8
3830.367	-602.8
3832.998	-598.8
3835.627	-602.8
3838.253	-601.8
3840.878	-603.8
3843.501	-603.8
3846.122	-597.8
3848.741	-601.8
3851.358	-602.8
3853.973	-597.8
3856.586	-599.8
3859.197	-598.8
3861.806	-605.8
3864.414	-596.8
3867.019	-601.8
3869.622	-605.8
3872.224	-596.8
3874.823	-589.8
3877.421	-566.8
3880.016	-555.8
3882.61	-516.8
3885.202	-520.8
3887.792	-545.8
3890.38	-571.8
3892.966	-592.8
3895.55	-594.8
3898.132	-606.8
3900.713	-607.8
3903.291	-611.8
3905.868	-611.8
3908.442	-614.8
3911.015	-608.8
3913.586	-613.8
3916.155	-608.8
3918.722	-609.8
3921.287	-615.8
3923.85	-615.8
3926.411	-615.8
3928.971	-617.8
3931.528	-617.8
3934.084	-614.8
3936.638	-621.8
3939.19	-620.8
3941.74	-624.8
3944.288	-624.8
3946.834	-624.8
3949.378	-623.8
3951.921	-620.8
3954.462	-621.8
3957	-618.8
3959.537	-614.8
3962.072	-609.8
3964.606	-613.8
3967.137	-620.8
3969.667	-616.8
3972.194	-610.8
3974.72	-610.8
3977.244	-607.8
3979.766	-605.8
3982.286	-602.8
3984.805	-601.8
3987.321	-600.8
3989.836	-608.8
3992.349	-602.8
3994.86	-596.8
3997.369	-611.8
3999.877	-599.8
4002.382	-600.8
4004.886	-605.8
4007.388	-606.8
4009.888	-600.8
4012.386	-603.8
4014.883	-604.8
4017.377	-604.8
4019.87	-600.8
4022.361	-609.8
4024.85	-602.8
4027.338	-609.8
4029.823	-606.8
4032.307	-607.8
4034.789	-613.8
4037.269	-614.8
4039.747	-609.8
4042.224	-602.8
4044.699	-613.8
4047.172	-615.8
4049.643	-605.8
4052.112	-613.8
4054.58	-600.8
4057.046	-612.8
4059.51	-608.8
4061.972	-613.8
4064.432	-602.8
4066.891	-608.8
4069.348	-611.8
4071.803	-610.8
4074.256	-605.8
4076.708	-611.8
4079.158	-607.8
4081.606	-605.8
4084.052	-605.8
4086.497	-614.8
4088.939	-603.8
4091.38	-600.8
4093.819	-606.8
4096.257	-635.8
4098.693	-637.8
4101.127	-637.8
4103.559	-639.8
4105.989	-381.8
4108.418	-361.8
4110.845	-343.8
4113.27	-325.8
4115.694	-275.8
4118.115	-232.8
4120.535	-605.8
4122.954	-608.8
4125.37	-611.8
4127.785	-612.8
4130.198	-612.8
4132.609	-607.8
4135.019	-640.8
4137.427	-639.8
4139.833	-635.8
4142.237	-633.8
