Data from 2018-2-7_conc=2_RamanShift_29.txt Node
Date: Tue Feb 13 12:05:14 IST 2018
User: aro
Spectrometer: QEPB0276
Trigger mode: 0
Integration Time (sec): 3.000000E1
Scans to average: 1
Electric dark correction enabled: true
Nonlinearity correction enabled: false
Boxcar width: 0
XAxis mode: Raman Shifts
Number of Pixels in Spectrum: 1044
>>>>>Begin Spectral Data<<<<<
160.701	-155.9
166.742	27.1
172.777	557.1
178.805	2145.1
184.826	5851.1
190.841	12023.1
196.849	19017.1
202.85	23775.1
208.845	25231.1
214.833	25073.1
220.815	24665.1
226.789	24412.1
232.758	24385.1
238.719	24240.1
244.674	23842.1
250.623	23487.1
256.565	23002.1
262.5	22567.1
268.429	22121.1
274.351	21799.1
280.267	21582.1
286.176	21343.1
292.079	21158.1
297.975	20957.1
303.865	20736.1
309.748	20615.1
315.625	20535.1
321.495	20426.1
327.359	20370.1
333.217	20297.1
339.068	20320.1
344.912	20283.1
350.751	20261.1
356.583	20210.1
362.408	20187.1
368.227	20178.1
374.04	20222.1
379.847	20238.1
385.647	20413.1
391.44	20434.1
397.228	20523.1
403.009	20583.1
408.784	20665.1
414.553	20760.1
420.315	20780.1
426.071	20774.1
431.821	20762.1
437.565	20769.1
443.302	20768.1
449.033	20707.1
454.758	20655.1
460.477	20597.1
466.189	20498.1
471.896	20524.1
477.596	20489.1
483.29	20434.1
488.978	20437.1
494.66	20331.1
500.335	20245.1
506.005	20025.1
511.668	19779.1
517.325	19572.1
522.977	19360.1
528.622	19241.1
534.261	19106.1
539.894	19033.1
545.521	18908.1
551.141	18982.1
556.756	18794.1
562.365	18765.1
567.968	18689.1
573.565	18687.1
579.155	18616.1
584.74	18548.1
590.319	18451.1
595.892	18396.1
601.459	18307.1
607.02	18259.1
612.575	18147.1
618.124	17967.1
623.667	17886.1
629.204	17836.1
634.735	17707.1
640.261	17675.1
645.781	17546.1
651.294	17603.1
656.802	17569.1
662.304	17535.1
667.8	17502.1
673.29	17480.1
678.775	17433.1
684.254	17335.1
689.726	17341.1
695.193	17328.1
700.655	17192.1
706.11	17090.1
711.56	17030.1
717.004	16899.1
722.442	16879.1
727.874	16813.1
733.301	16744.1
738.722	16686.1
744.137	16645.1
749.547	16652.1
754.951	16710.1
760.349	16710.1
765.741	16675.1
771.128	16729.1
776.509	16703.1
781.885	16698.1
787.254	16638.1
792.618	16567.1
797.977	16476.1
803.33	16359.1
808.677	16277.1
814.019	16199.1
819.355	16098.1
824.686	16010.1
830.011	15985.1
835.33	15993.1
840.644	16006.1
845.952	16063.1
851.255	16054.1
856.552	16117.1
861.844	16047.1
867.13	15995.1
872.41	15931.1
877.686	15913.1
882.955	15759.1
888.219	15652.1
893.478	15476.1
898.731	15295.1
903.979	15091.1
909.221	15025.1
914.458	14993.1
919.69	14942.1
924.916	15013.1
930.136	15026.1
935.351	15082.1
940.561	15109.1
945.766	15028.1
950.965	14988.1
956.158	14891.1
961.347	14716.1
966.529	14521.1
971.707	14365.1
976.879	14207.1
982.046	14045.1
987.208	14016.1
992.364	14050.1
997.515	14118.1
1002.66	14235.1
1007.801	14387.1
1012.936	14497.1
1018.066	14463.1
1023.19	14512.1
1028.309	14454.1
1033.423	14480.1
1038.532	14477.1
1043.636	14244.1
1048.734	14065.1
1053.827	13900.1
1058.915	13779.1
1063.998	13638.1
1069.075	13613.1
1074.147	13646.1
1079.214	13653.1
1084.276	13798.1
1089.333	13855.1
1094.385	13931.1
1099.431	13935.1
1104.472	13952.1
1109.509	13882.1
1114.54	13751.1
1119.565	13567.1
1124.586	13385.1
1129.602	13250.1
1134.613	13184.1
1139.618	13111.1
1144.619	13051.1
1149.614	13059.1
1154.604	13070.1
1159.589	13101.1
1164.57	13116.1
1169.545	13180.1
1174.515	13160.1
1179.48	13033.1
1184.44	12984.1
1189.395	12875.1
1194.345	12772.1
1199.29	12724.1
1204.23	12758.1
1209.165	12740.1
1214.095	12790.1
1219.021	12899.1
1223.941	12986.1
1228.856	13100.1
1233.766	13094.1
1238.672	13137.1
1243.572	13017.1
1248.467	12986.1
1253.358	12875.1
1258.244	12669.1
1263.124	12493.1
1268	12285.1
1272.871	12157.1
1277.737	12083.1
1282.599	11978.1
1287.455	11989.1
1292.306	12012.1
1297.153	12066.1
1301.995	12129.1
1306.832	12099.1
1311.664	12149.1
1316.491	12096.1
1321.314	11990.1
1326.132	11757.1
1330.945	11545.1
1335.753	11305.1
1340.556	11010.1
1345.354	10762.1
1350.148	10635.1
1354.937	10533.1
1359.722	10498.1
1364.501	10583.1
1369.276	10698.1
1374.046	10803.1
1378.811	10892.1
1383.572	11012.1
1388.327	11071.1
1393.079	10994.1
1397.825	10858.1
1402.567	10777.1
1407.304	10611.1
1412.036	10509.1
1416.764	10465.1
1421.487	10468.1
1426.205	10348.1
1430.919	10292.1
1435.628	10300.1
1440.333	10344.1
1445.032	10353.1
1449.727	10376.1
1454.418	10374.1
1459.104	10223.1
1463.785	10025.1
1468.462	9895.1
1473.134	9626.1
1477.802	9425.1
1482.465	9256.1
1487.123	9147.1
1491.777	9133.1
1496.426	9153.1
1501.071	9231.1
1505.711	9377.1
1510.347	9526.1
1514.978	9647.1
1519.604	9785.1
1524.226	9886.1
1528.844	9868.1
1533.457	9842.1
1538.065	9857.1
1542.669	9796.1
1547.269	9727.1
1551.864	9689.1
1556.454	9628.1
1561.041	9600.1
1565.622	9618.1
1570.199	9591.1
1574.772	9706.1
1579.34	9716.1
1583.904	9776.1
1588.464	9812.1
1593.019	9841.1
1597.569	9803.1
1602.115	9744.1
1606.657	9688.1
1611.195	9633.1
1615.728	9555.1
1620.256	9475.1
1624.78	9475.1
1629.3	9524.1
1633.816	9541.1
1638.327	9563.1
1642.834	9624.1
1647.336	9646.1
1651.834	9648.1
1656.328	9663.1
1660.817	9583.1
1665.302	9449.1
1669.783	9311.1
1674.259	9025.1
1678.732	8847.1
1683.199	8550.1
1687.663	8216.1
1692.122	7965.1
1696.577	7858.1
1701.028	7848.1
1705.474	7849.1
1709.917	7925.1
1714.355	7949.1
1718.788	7879.1
1723.218	7795.1
1727.643	7702.1
1732.064	7540.1
1736.481	7401.1
1740.893	7174.1
1745.301	7021.1
1749.705	6772.1
1754.105	6639.1
1758.501	6451.1
1762.893	6273.1
1767.28	6093.1
1771.663	6012.1
1776.042	5897.1
1780.417	5848.1
1784.787	5795.1
1789.154	5853.1
1793.516	5952.1
1797.874	6054.1
1802.228	6145.1
1806.578	6193.1
1810.924	6201.1
1815.266	6156.1
1819.603	6084.1
1823.937	5996.1
1828.266	5893.1
1832.591	5848.1
1836.913	5716.1
1841.23	5672.1
1845.543	5694.1
1849.852	5639.1
1854.156	5618.1
1858.457	5583.1
1862.754	5593.1
1867.047	5574.1
1871.335	5600.1
1875.62	5551.1
1879.9	5535.1
1884.177	5463.1
1888.449	5404.1
1892.718	5380.1
1896.982	5301.1
1901.243	5251.1
1905.499	5214.1
1909.752	5186.1
1914	5198.1
1918.245	5217.1
1922.485	5227.1
1926.722	5284.1
1930.954	5338.1
1935.183	5396.1
1939.408	5442.1
1943.628	5487.1
1947.845	5448.1
1952.058	5445.1
1956.267	5417.1
1960.472	5358.1
1964.673	5265.1
1968.87	5202.1
1973.063	5131.1
1977.252	5069.1
1981.438	5057.1
1985.619	4943.1
1989.797	4907.1
1993.971	4905.1
1998.14	4894.1
2002.306	4879.1
2006.469	4840.1
2010.627	4815.1
2014.781	4765.1
2018.932	4714.1
2023.078	4707.1
2027.221	4615.1
2031.36	4572.1
2035.495	4497.1
2039.627	4408.1
2043.754	4366.1
2047.878	4336.1
2051.998	4311.1
2056.114	4249.1
2060.226	4255.1
2064.334	4271.1
2068.439	4251.1
2072.54	4316.1
2076.637	4306.1
2080.73	4326.1
2084.82	4369.1
2088.906	4396.1
2092.988	4390.1
2097.066	4358.1
2101.14	4326.1
2105.211	4331.1
2109.278	4271.1
2113.342	4270.1
2117.401	4223.1
2121.457	4214.1
2125.509	4212.1
2129.558	4166.1
2133.602	4157.1
2137.643	4117.1
2141.681	4142.1
2145.714	4049.1
2149.744	4081.1
2153.77	4039.1
2157.793	4048.1
2161.812	3947.1
2165.827	3890.1
2169.838	3842.1
2173.846	3779.1
2177.851	3711.1
2181.851	3652.1
2185.848	3601.1
2189.841	3573.1
2193.831	3529.1
2197.817	3516.1
2201.799	3479.1
2205.778	3519.1
2209.753	3472.1
2213.725	3460.1
2217.693	3457.1
2221.657	3456.1
2225.618	3408.1
2229.575	3414.1
2233.529	3387.1
2237.479	3353.1
2241.425	3277.1
2245.368	3275.1
2249.307	3206.1
2253.243	3162.1
2257.175	3145.1
2261.104	3094.1
2265.029	3042.1
2268.95	3013.1
2272.868	2981.1
2276.783	2961.1
2280.694	2937.1
2284.601	2871.1
2288.505	2886.1
2292.405	2826.1
2296.302	2840.1
2300.195	2799.1
2304.085	2755.1
2307.971	2709.1
2311.854	2683.1
2315.734	2640.1
2319.609	2595.1
2323.482	2557.1
2327.351	2540.1
2331.216	2548.1
2335.078	2504.1
2338.937	2509.1
2342.792	2508.1
2346.643	2498.1
2350.492	2490.1
2354.336	2505.1
2358.178	2507.1
2362.015	2535.1
2365.85	2542.1
2369.681	2539.1
2373.508	2535.1
2377.333	2562.1
2381.153	2512.1
2384.971	2520.1
2388.785	2486.1
2392.595	2461.1
2396.402	2424.1
2400.206	2433.1
2404.007	2408.1
2407.804	2385.1
2411.597	2403.1
2415.388	2376.1
2419.174	2353.1
2422.958	2333.1
2426.738	2315.1
2430.515	2320.1
2434.289	2285.1
2438.059	2255.1
2441.825	2266.1
2445.589	2213.1
2449.349	2182.1
2453.106	2163.1
2456.859	2154.1
2460.61	2098.1
2464.356	2090.1
2468.1	2067.1
2471.84	2028.1
2475.577	2005.1
2479.311	2018.1
2483.041	2008.1
2486.768	1988.1
2490.492	1986.1
2494.213	1975.1
2497.93	1970.1
2501.644	1960.1
2505.355	1948.1
2509.062	1908.1
2512.766	1910.1
2516.467	1892.1
2520.165	1915.1
2523.859	1885.1
2527.551	1861.1
2531.239	1844.1
2534.923	1837.1
2538.605	1804.1
2542.283	1821.1
2545.958	1810.1
2549.63	1796.1
2553.299	1789.1
2556.964	1795.1
2560.626	1808.1
2564.285	1791.1
2567.941	1768.1
2571.594	1778.1
2575.243	1764.1
2578.89	1735.1
2582.533	1732.1
2586.173	1708.1
2589.809	1687.1
2593.443	1683.1
2597.073	1675.1
2600.701	1658.1
2604.325	1621.1
2607.946	1654.1
2611.564	1635.1
2615.178	1635.1
2618.79	1612.1
2622.398	1574.1
2626.004	1570.1
2629.606	1552.1
2633.205	1529.1
2636.801	1504.1
2640.394	1486.1
2643.983	1460.1
2647.57	1459.1
2651.153	1465.1
2654.734	1415.1
2658.311	1383.1
2661.885	1339.1
2665.456	1334.1
2669.025	1328.1
2672.589	1322.1
2676.151	1286.1
2679.71	1269.1
2683.266	1260.1
2686.819	1245.1
2690.368	1230.1
2693.915	1204.1
2697.458	1166.1
2700.999	1147.1
2704.536	1118.1
2708.071	1101.1
2711.602	1064.1
2715.13	1023.1
2718.656	1021.1
2722.178	1001.1
2725.697	983.1
2729.214	956.1
2732.727	954.1
2736.237	953.1
2739.744	944.1
2743.249	965.1
2746.75	952.1
2750.248	935.1
2753.743	956.1
2757.236	983.1
2760.725	989.1
2764.211	981.1
2767.695	982.1
2771.175	993.1
2774.652	970.1
2778.127	978.1
2781.598	977.1
2785.067	975.1
2788.532	965.1
2791.995	967.1
2795.455	962.1
2798.911	967.1
2802.365	976.1
2805.816	974.1
2809.264	965.1
2812.709	958.1
2816.151	955.1
2819.59	968.1
2823.026	964.1
2826.46	969.1
2829.89	969.1
2833.318	965.1
2836.742	960.1
2840.164	984.1
2843.583	991.1
2846.999	988.1
2850.412	997.1
2853.822	1003.1
2857.229	1018.1
2860.634	1040.1
2864.035	1042.1
2867.434	1064.1
2870.83	1117.1
2874.223	1114.1
2877.613	1133.1
2881	1136.1
2884.385	1167.1
2887.766	1139.1
2891.145	1144.1
2894.521	1149.1
2897.894	1149.1
2901.264	1149.1
2904.631	1146.1
2907.996	1136.1
2911.358	1153.1
2914.717	1177.1
2918.073	1162.1
2921.426	1190.1
2924.777	1171.1
2928.124	1220.1
2931.469	1220.1
2934.811	1234.1
2938.15	1253.1
2941.487	1275.1
2944.821	1276.1
2948.152	1289.1
2951.48	1269.1
2954.805	1255.1
2958.128	1249.1
2961.447	1215.1
2964.765	1206.1
2968.079	1224.1
2971.39	1231.1
2974.699	1252.1
2978.005	1258.1
2981.308	1279.1
2984.609	1315.1
2987.907	1318.1
2991.202	1353.1
2994.494	1366.1
2997.784	1412.1
3001.07	1427.1
3004.355	1460.1
3007.636	1495.1
3010.915	1478.1
3014.191	1509.1
3017.464	1521.1
3020.734	1519.1
3024.002	1529.1
3027.267	1546.1
3030.53	1553.1
3033.789	1570.1
3037.046	1598.1
3040.301	1598.1
3043.552	1645.1
3046.801	1663.1
3050.048	1713.1
3053.291	1747.1
3056.532	1809.1
3059.771	1864.1
3063.006	1940.1
3066.239	1988.1
3069.469	2020.1
3072.697	2076.1
3075.922	2126.1
3079.144	2189.1
3082.364	2254.1
3085.581	2278.1
3088.795	2335.1
3092.007	2388.1
3095.216	2418.1
3098.423	2487.1
3101.627	2520.1
3104.828	2582.1
3108.026	2645.1
3111.222	2670.1
3114.416	2776.1
3117.607	2854.1
3120.795	2858.1
3123.98	2964.1
3127.163	3030.1
3130.344	3113.1
3133.521	3155.1
3136.696	3269.1
3139.869	3318.1
3143.039	3360.1
3146.206	3414.1
3149.371	3431.1
3152.533	3483.1
3155.693	3493.1
3158.85	3505.1
3162.005	3546.1
3165.157	3558.1
3168.306	3560.1
3171.453	3590.1
3174.597	3593.1
3177.739	3577.1
3180.878	3578.1
3184.014	3598.1
3187.149	3593.1
3190.28	3615.1
3193.409	3613.1
3196.536	3587.1
3199.659	3626.1
3202.781	3616.1
3205.9	3593.1
3209.016	3590.1
3212.13	3596.1
3215.241	3561.1
3218.35	3515.1
3221.456	3488.1
3224.56	3468.1
3227.661	3448.1
3230.76	3387.1
3233.856	3339.1
3236.95	3310.1
3240.041	3268.1
3243.13	3264.1
3246.216	3236.1
3249.3	3205.1
3252.382	3196.1
3255.46	3205.1
3258.537	3164.1
3261.611	3162.1
3264.682	3195.1
3267.751	3157.1
3270.818	3167.1
3273.882	3174.1
3276.943	3155.1
3280.002	3122.1
3283.059	3093.1
3286.113	3019.1
3289.165	3000.1
3292.214	2971.1
3295.261	2914.1
3298.306	2863.1
3301.348	2833.1
3304.387	2757.1
3307.425	2735.1
3310.459	2700.1
3313.492	2655.1
3316.521	2622.1
3319.549	2578.1
3322.574	2562.1
3325.597	2537.1
3328.617	2520.1
3331.635	2524.1
3334.65	2508.1
3337.663	2473.1
3340.674	2461.1
3343.682	2450.1
3346.688	2431.1
3349.691	2443.1
3352.692	2432.1
3355.691	2422.1
3358.687	2372.1
3361.681	2334.1
3364.673	2330.1
3367.662	2295.1
3370.649	2248.1
3373.633	2235.1
3376.615	2181.1
3379.595	2143.1
3382.572	2138.1
3385.547	2097.1
3388.52	2051.1
3391.49	2013.1
3394.458	2003.1
3397.424	1979.1
3400.387	1947.1
3403.348	1923.1
3406.307	1892.1
3409.263	1870.1
3412.217	1839.1
3415.168	1838.1
3418.118	1816.1
3421.065	1776.1
3424.009	1739.1
3426.951	1722.1
3429.891	1673.1
3432.829	1641.1
3435.764	1621.1
3438.697	1579.1
3441.628	1509.1
3444.557	1499.1
3447.483	1439.1
3450.407	1391.1
3453.328	1337.1
3456.247	1282.1
3459.164	1240.1
3462.079	1202.1
3464.991	1141.1
3467.902	1092.1
3470.809	1074.1
3473.715	1009.1
3476.618	993.1
3479.519	952.1
3482.418	913.1
3485.315	880.1
3488.209	859.1
3491.101	822.1
3493.99	783.1
3496.878	753.1
3499.763	713.1
3502.646	688.1
3505.527	663.1
3508.405	610.1
3511.281	572.1
3514.155	554.1
3517.027	510.1
3519.897	480.1
3522.764	444.1
3525.629	401.1
3528.492	370.1
3531.352	336.1
3534.211	297.1
3537.067	272.1
3539.921	241.1
3542.773	197.1
3545.622	165.1
3548.469	147.1
3551.315	118.1
3554.157	96.1
3556.998	72.1
3559.837	40.1
3562.673	29.1
3565.507	17.1
3568.339	-3.9
3571.169	-31.9
3573.996	-50.9
3576.822	-61.9
3579.645	-78.9
3582.466	-93.9
3585.285	-112.9
3588.101	-129.9
3590.916	-152.9
3593.728	-168.9
3596.538	-179.9
3599.346	-205.9
3602.152	-212.9
3604.956	-234.9
3607.757	-243.9
3610.556	-254.9
3613.354	-270.9
3616.149	-271.9
3618.942	-298.9
3621.732	-307.9
3624.521	-310.9
3627.307	-313.9
3630.092	-324.9
3632.874	-342.9
3635.654	-346.9
3638.432	-351.9
3641.208	-349.9
3643.982	-372.9
3646.753	-373.9
3649.523	-386.9
3652.29	-401.9
3655.055	-405.9
3657.818	-407.9
3660.579	-428.9
3663.338	-433.9
3666.095	-437.9
3668.849	-445.9
3671.602	-464.9
3674.352	-462.9
3677.101	-470.9
3679.847	-475.9
3682.591	-470.9
3685.333	-478.9
3688.073	-483.9
3690.811	-489.9
3693.547	-493.9
3696.281	-505.9
3699.013	-506.9
3701.742	-512.9
3704.47	-520.9
3707.195	-522.9
3709.919	-525.9
3712.64	-529.9
3715.359	-529.9
3718.076	-530.9
3720.792	-544.9
3723.505	-534.9
3726.216	-539.9
3728.925	-542.9
3731.632	-549.9
3734.336	-554.9
3737.039	-557.9
3739.74	-553.9
3742.439	-563.9
3745.136	-570.9
3747.83	-562.9
3750.523	-559.9
3753.213	-573.9
3755.902	-567.9
3758.589	-566.9
3761.273	-568.9
3763.956	-576.9
3766.636	-574.9
3769.315	-571.9
3771.991	-574.9
3774.665	-580.9
3777.338	-574.9
3780.008	-577.9
3782.677	-579.9
3785.343	-583.9
3788.007	-574.9
3790.67	-587.9
3793.33	-591.9
3795.989	-594.9
3798.645	-595.9
3801.299	-600.9
3803.952	-595.9
3806.602	-599.9
3809.251	-602.9
3811.897	-592.9
3814.542	-588.9
3817.184	-595.9
3819.825	-597.9
3822.463	-588.9
3825.1	-593.9
3827.735	-604.9
3830.367	-602.9
3832.998	-600.9
3835.627	-605.9
3838.253	-608.9
3840.878	-604.9
3843.501	-609.9
3846.122	-605.9
3848.741	-606.9
3851.358	-606.9
3853.973	-603.9
3856.586	-605.9
3859.197	-604.9
3861.806	-605.9
3864.414	-598.9
3867.019	-605.9
3869.622	-602.9
3872.224	-603.9
3874.823	-592.9
3877.421	-584.9
3880.016	-565.9
3882.61	-530.9
3885.202	-534.9
3887.792	-557.9
3890.38	-583.9
3892.966	-596.9
3895.55	-609.9
3898.132	-605.9
3900.713	-615.9
3903.291	-615.9
3905.868	-612.9
3908.442	-617.9
3911.015	-614.9
3913.586	-615.9
3916.155	-616.9
3918.722	-618.9
3921.287	-614.9
3923.85	-611.9
3926.411	-621.9
3928.971	-621.9
3931.528	-621.9
3934.084	-611.9
3936.638	-624.9
3939.19	-619.9
3941.74	-628.9
3944.288	-622.9
3946.834	-620.9
3949.378	-623.9
3951.921	-619.9
3954.462	-619.9
3957	-617.9
3959.537	-612.9
3962.072	-616.9
3964.606	-613.9
3967.137	-622.9
3969.667	-618.9
3972.194	-617.9
3974.72	-617.9
3977.244	-616.9
3979.766	-611.9
3982.286	-614.9
3984.805	-604.9
3987.321	-606.9
3989.836	-608.9
3992.349	-604.9
3994.86	-600.9
3997.369	-617.9
3999.877	-606.9
4002.382	-604.9
4004.886	-610.9
4007.388	-609.9
4009.888	-607.9
4012.386	-606.9
4014.883	-607.9
4017.377	-610.9
4019.87	-604.9
4022.361	-608.9
4024.85	-611.9
4027.338	-613.9
4029.823	-606.9
4032.307	-608.9
4034.789	-609.9
4037.269	-616.9
4039.747	-616.9
4042.224	-605.9
4044.699	-612.9
4047.172	-608.9
4049.643	-610.9
4052.112	-608.9
4054.58	-607.9
4057.046	-617.9
4059.51	-615.9
4061.972	-611.9
4064.432	-610.9
4066.891	-610.9
4069.348	-610.9
4071.803	-617.9
4074.256	-609.9
4076.708	-609.9
4079.158	-607.9
4081.606	-602.9
4084.052	-601.9
4086.497	-609.9
4088.939	-601.9
4091.38	-599.9
4093.819	-603.9
4096.257	-641.9
4098.693	-644.9
4101.127	-645.9
4103.559	-646.9
4105.989	-373.9
4108.418	-373.9
4110.845	-342.9
4113.27	-319.9
4115.694	-275.9
4118.115	-229.9
4120.535	-606.9
4122.954	-613.9
4125.37	-610.9
4127.785	-610.9
4130.198	-617.9
4132.609	-608.9
4135.019	-646.9
4137.427	-642.9
4139.833	-643.9
4142.237	-639.9
