Data from 2018-2-7_conc=2_RamanShift_02.txt Node
Date: Tue Feb 13 11:42:44 IST 2018
User: aro
Spectrometer: QEPB0276
Trigger mode: 0
Integration Time (sec): 3.000000E1
Scans to average: 1
Electric dark correction enabled: true
Nonlinearity correction enabled: false
Boxcar width: 0
XAxis mode: Raman Shifts
Number of Pixels in Spectrum: 1044
>>>>>Begin Spectral Data<<<<<
160.701	-151.9
166.742	24.1
172.777	564.1
178.805	2163.1
184.826	5923.1
190.841	12108.1
196.849	19149.1
202.85	24009.1
208.845	25468.1
214.833	25128.1
220.815	24678.1
226.789	24472.1
232.758	24289.1
238.719	24147.1
244.674	23817.1
250.623	23334.1
256.565	22801.1
262.5	22370.1
268.429	21933.1
274.351	21531.1
280.267	21284.1
286.176	21033.1
292.079	20755.1
297.975	20602.1
303.865	20418.1
309.748	20248.1
315.625	20097.1
321.495	19958.1
327.359	19941.1
333.217	19780.1
339.068	19777.1
344.912	19847.1
350.751	19717.1
356.583	19721.1
362.408	19740.1
368.227	19667.1
374.04	19690.1
379.847	19791.1
385.647	19898.1
391.44	19920.1
397.228	20067.1
403.009	20067.1
408.784	20194.1
414.553	20266.1
420.315	20258.1
426.071	20309.1
431.821	20239.1
437.565	20232.1
443.302	20240.1
449.033	20165.1
454.758	20154.1
460.477	20104.1
466.189	20100.1
471.896	20032.1
477.596	20005.1
483.29	19935.1
488.978	19870.1
494.66	19826.1
500.335	19675.1
506.005	19514.1
511.668	19278.1
517.325	19010.1
522.977	18860.1
528.622	18754.1
534.261	18650.1
539.894	18546.1
545.521	18476.1
551.141	18435.1
556.756	18285.1
562.365	18261.1
567.968	18227.1
573.565	18096.1
579.155	17987.1
584.74	17994.1
590.319	17918.1
595.892	17889.1
601.459	17801.1
607.02	17661.1
612.575	17637.1
618.124	17460.1
623.667	17417.1
629.204	17330.1
634.735	17207.1
640.261	17220.1
645.781	17070.1
651.294	17048.1
656.802	17023.1
662.304	16993.1
667.8	16963.1
673.29	16915.1
678.775	16949.1
684.254	16826.1
689.726	16769.1
695.193	16751.1
700.655	16707.1
706.11	16588.1
711.56	16525.1
717.004	16426.1
722.442	16328.1
727.874	16329.1
733.301	16286.1
738.722	16233.1
744.137	16181.1
749.547	16176.1
754.951	16208.1
760.349	16191.1
765.741	16154.1
771.128	16239.1
776.509	16174.1
781.885	16247.1
787.254	16179.1
792.618	16092.1
797.977	16003.1
803.33	15871.1
808.677	15749.1
814.019	15691.1
819.355	15659.1
824.686	15559.1
830.011	15493.1
835.33	15507.1
840.644	15562.1
845.952	15617.1
851.255	15667.1
856.552	15618.1
861.844	15554.1
867.13	15586.1
872.41	15501.1
877.686	15442.1
882.955	15275.1
888.219	15130.1
893.478	14972.1
898.731	14808.1
903.979	14672.1
909.221	14586.1
914.458	14477.1
919.69	14492.1
924.916	14507.1
930.136	14598.1
935.351	14641.1
940.561	14579.1
945.766	14541.1
950.965	14494.1
956.158	14403.1
961.347	14242.1
966.529	14066.1
971.707	13862.1
976.879	13727.1
982.046	13596.1
987.208	13589.1
992.364	13540.1
997.515	13609.1
1002.66	13812.1
1007.801	13906.1
1012.936	14019.1
1018.066	14010.1
1023.19	13990.1
1028.309	14059.1
1033.423	14054.1
1038.532	13938.1
1043.636	13791.1
1048.734	13624.1
1053.827	13452.1
1058.915	13331.1
1063.998	13230.1
1069.075	13202.1
1074.147	13236.1
1079.214	13290.1
1084.276	13319.1
1089.333	13440.1
1094.385	13500.1
1099.431	13533.1
1104.472	13515.1
1109.509	13464.1
1114.54	13263.1
1119.565	13130.1
1124.586	12975.1
1129.602	12818.1
1134.613	12737.1
1139.618	12667.1
1144.619	12602.1
1149.614	12623.1
1154.604	12686.1
1159.589	12703.1
1164.57	12739.1
1169.545	12739.1
1174.515	12738.1
1179.48	12647.1
1184.44	12640.1
1189.395	12523.1
1194.345	12355.1
1199.29	12303.1
1204.23	12325.1
1209.165	12364.1
1214.095	12462.1
1219.021	12528.1
1223.941	12565.1
1228.856	12684.1
1233.766	12701.1
1238.672	12717.1
1243.572	12673.1
1248.467	12650.1
1253.358	12483.1
1258.244	12324.1
1263.124	12115.1
1268	11936.1
1272.871	11794.1
1277.737	11671.1
1282.599	11628.1
1287.455	11632.1
1292.306	11625.1
1297.153	11713.1
1301.995	11771.1
1306.832	11815.1
1311.664	11791.1
1316.491	11787.1
1321.314	11657.1
1326.132	11439.1
1330.945	11211.1
1335.753	10975.1
1340.556	10691.1
1345.354	10458.1
1350.148	10321.1
1354.937	10272.1
1359.722	10219.1
1364.501	10232.1
1369.276	10325.1
1374.046	10471.1
1378.811	10598.1
1383.572	10664.1
1388.327	10703.1
1393.079	10645.1
1397.825	10568.1
1402.567	10455.1
1407.304	10296.1
1412.036	10204.1
1416.764	10145.1
1421.487	10115.1
1426.205	9973.1
1430.919	10017.1
1435.628	9998.1
1440.333	10022.1
1445.032	10057.1
1449.727	10061.1
1454.418	10059.1
1459.104	9976.1
1463.785	9750.1
1468.462	9579.1
1473.134	9308.1
1477.802	9142.1
1482.465	8980.1
1487.123	8872.1
1491.777	8823.1
1496.426	8851.1
1501.071	8907.1
1505.711	9059.1
1510.347	9182.1
1514.978	9365.1
1519.604	9495.1
1524.226	9575.1
1528.844	9560.1
1533.457	9600.1
1538.065	9512.1
1542.669	9454.1
1547.269	9445.1
1551.864	9382.1
1556.454	9338.1
1561.041	9363.1
1565.622	9365.1
1570.199	9360.1
1574.772	9442.1
1579.34	9528.1
1583.904	9570.1
1588.464	9596.1
1593.019	9562.1
1597.569	9572.1
1602.115	9518.1
1606.657	9477.1
1611.195	9397.1
1615.728	9340.1
1620.256	9302.1
1624.78	9310.1
1629.3	9292.1
1633.816	9352.1
1638.327	9365.1
1642.834	9420.1
1647.336	9458.1
1651.834	9460.1
1656.328	9432.1
1660.817	9381.1
1665.302	9266.1
1669.783	9100.1
1674.259	8870.1
1678.732	8587.1
1683.199	8295.1
1687.663	7982.1
1692.122	7730.1
1696.577	7608.1
1701.028	7552.1
1705.474	7588.1
1709.917	7648.1
1714.355	7699.1
1718.788	7642.1
1723.218	7511.1
1727.643	7425.1
1732.064	7280.1
1736.481	7148.1
1740.893	6975.1
1745.301	6777.1
1749.705	6598.1
1754.105	6383.1
1758.501	6205.1
1762.893	6076.1
1767.28	5880.1
1771.663	5792.1
1776.042	5660.1
1780.417	5612.1
1784.787	5597.1
1789.154	5614.1
1793.516	5695.1
1797.874	5771.1
1802.228	5834.1
1806.578	5908.1
1810.924	5940.1
1815.266	5902.1
1819.603	5869.1
1823.937	5745.1
1828.266	5660.1
1832.591	5594.1
1836.913	5544.1
1841.23	5459.1
1845.543	5488.1
1849.852	5385.1
1854.156	5399.1
1858.457	5397.1
1862.754	5404.1
1867.047	5390.1
1871.335	5396.1
1875.62	5348.1
1879.9	5347.1
1884.177	5283.1
1888.449	5231.1
1892.718	5158.1
1896.982	5084.1
1901.243	5058.1
1905.499	5031.1
1909.752	4980.1
1914	4997.1
1918.245	4950.1
1922.485	4988.1
1926.722	5020.1
1930.954	5073.1
1935.183	5188.1
1939.408	5181.1
1943.628	5199.1
1947.845	5251.1
1952.058	5238.1
1956.267	5230.1
1960.472	5165.1
1964.673	5076.1
1968.87	5002.1
1973.063	4901.1
1977.252	4890.1
1981.438	4841.1
1985.619	4783.1
1989.797	4764.1
1993.971	4721.1
1998.14	4674.1
2002.306	4693.1
2006.469	4694.1
2010.627	4642.1
2014.781	4606.1
2018.932	4571.1
2023.078	4553.1
2027.221	4470.1
2031.36	4406.1
2035.495	4324.1
2039.627	4264.1
2043.754	4230.1
2047.878	4190.1
2051.998	4162.1
2056.114	4117.1
2060.226	4093.1
2064.334	4124.1
2068.439	4117.1
2072.54	4147.1
2076.637	4153.1
2080.73	4213.1
2084.82	4199.1
2088.906	4237.1
2092.988	4202.1
2097.066	4207.1
2101.14	4182.1
2105.211	4165.1
2109.278	4147.1
2113.342	4141.1
2117.401	4092.1
2121.457	4070.1
2125.509	4058.1
2129.558	4073.1
2133.602	3988.1
2137.643	4010.1
2141.681	4011.1
2145.714	3962.1
2149.744	3933.1
2153.77	3937.1
2157.793	3889.1
2161.812	3838.1
2165.827	3785.1
2169.838	3745.1
2173.846	3682.1
2177.851	3591.1
2181.851	3555.1
2185.848	3533.1
2189.841	3472.1
2193.831	3479.1
2197.817	3427.1
2201.799	3413.1
2205.778	3399.1
2209.753	3360.1
2213.725	3358.1
2217.693	3356.1
2221.657	3346.1
2225.618	3360.1
2229.575	3330.1
2233.529	3292.1
2237.479	3277.1
2241.425	3227.1
2245.368	3163.1
2249.307	3146.1
2253.243	3085.1
2257.175	3081.1
2261.104	3003.1
2265.029	2988.1
2268.95	2927.1
2272.868	2896.1
2276.783	2890.1
2280.694	2865.1
2284.601	2847.1
2288.505	2815.1
2292.405	2778.1
2296.302	2758.1
2300.195	2726.1
2304.085	2711.1
2307.971	2649.1
2311.854	2618.1
2315.734	2569.1
2319.609	2551.1
2323.482	2515.1
2327.351	2499.1
2331.216	2474.1
2335.078	2506.1
2338.937	2471.1
2342.792	2446.1
2346.643	2477.1
2350.492	2454.1
2354.336	2463.1
2358.178	2457.1
2362.015	2480.1
2365.85	2502.1
2369.681	2488.1
2373.508	2489.1
2377.333	2472.1
2381.153	2480.1
2384.971	2453.1
2388.785	2450.1
2392.595	2433.1
2396.402	2400.1
2400.206	2384.1
2404.007	2389.1
2407.804	2359.1
2411.597	2331.1
2415.388	2321.1
2419.174	2289.1
2422.958	2311.1
2426.738	2276.1
2430.515	2273.1
2434.289	2235.1
2438.059	2215.1
2441.825	2218.1
2445.589	2202.1
2449.349	2164.1
2453.106	2152.1
2456.859	2111.1
2460.61	2076.1
2464.356	2042.1
2468.1	2022.1
2471.84	1996.1
2475.577	1992.1
2479.311	1996.1
2483.041	1970.1
2486.768	1967.1
2490.492	1960.1
2494.213	1936.1
2497.93	1949.1
2501.644	1926.1
2505.355	1915.1
2509.062	1908.1
2512.766	1896.1
2516.467	1892.1
2520.165	1869.1
2523.859	1850.1
2527.551	1817.1
2531.239	1806.1
2534.923	1810.1
2538.605	1773.1
2542.283	1801.1
2545.958	1773.1
2549.63	1781.1
2553.299	1755.1
2556.964	1778.1
2560.626	1748.1
2564.285	1754.1
2567.941	1754.1
2571.594	1748.1
2575.243	1707.1
2578.89	1722.1
2582.533	1704.1
2586.173	1715.1
2589.809	1673.1
2593.443	1658.1
2597.073	1638.1
2600.701	1614.1
2604.325	1649.1
2607.946	1608.1
2611.564	1602.1
2615.178	1603.1
2618.79	1573.1
2622.398	1576.1
2626.004	1548.1
2629.606	1547.1
2633.205	1505.1
2636.801	1486.1
2640.394	1473.1
2643.983	1450.1
2647.57	1422.1
2651.153	1415.1
2654.734	1381.1
2658.311	1359.1
2661.885	1367.1
2665.456	1324.1
2669.025	1311.1
2672.589	1316.1
2676.151	1269.1
2679.71	1292.1
2683.266	1253.1
2686.819	1228.1
2690.368	1210.1
2693.915	1176.1
2697.458	1157.1
2700.999	1145.1
2704.536	1103.1
2708.071	1100.1
2711.602	1051.1
2715.13	1033.1
2718.656	995.1
2722.178	992.1
2725.697	973.1
2729.214	963.1
2732.727	953.1
2736.237	934.1
2739.744	934.1
2743.249	931.1
2746.75	933.1
2750.248	936.1
2753.743	952.1
2757.236	943.1
2760.725	968.1
2764.211	987.1
2767.695	966.1
2771.175	993.1
2774.652	971.1
2778.127	978.1
2781.598	961.1
2785.067	954.1
2788.532	948.1
2791.995	943.1
2795.455	956.1
2798.911	960.1
2802.365	955.1
2805.816	966.1
2809.264	960.1
2812.709	956.1
2816.151	950.1
2819.59	961.1
2823.026	965.1
2826.46	954.1
2829.89	956.1
2833.318	951.1
2836.742	965.1
2840.164	986.1
2843.583	1004.1
2846.999	999.1
2850.412	1003.1
2853.822	1019.1
2857.229	1022.1
2860.634	1051.1
2864.035	1051.1
2867.434	1086.1
2870.83	1091.1
2874.223	1126.1
2877.613	1149.1
2881	1154.1
2884.385	1177.1
2887.766	1164.1
2891.145	1157.1
2894.521	1168.1
2897.894	1146.1
2901.264	1144.1
2904.631	1149.1
2907.996	1140.1
2911.358	1184.1
2914.717	1177.1
2918.073	1171.1
2921.426	1199.1
2924.777	1229.1
2928.124	1226.1
2931.469	1252.1
2934.811	1274.1
2938.15	1295.1
2941.487	1302.1
2944.821	1319.1
2948.152	1302.1
2951.48	1309.1
2954.805	1269.1
2958.128	1266.1
2961.447	1267.1
2964.765	1239.1
2968.079	1254.1
2971.39	1250.1
2974.699	1290.1
2978.005	1294.1
2981.308	1326.1
2984.609	1332.1
2987.907	1368.1
2991.202	1383.1
2994.494	1428.1
2997.784	1447.1
3001.07	1457.1
3004.355	1511.1
3007.636	1505.1
3010.915	1528.1
3014.191	1550.1
3017.464	1557.1
3020.734	1576.1
3024.002	1574.1
3027.267	1597.1
3030.53	1592.1
3033.789	1632.1
3037.046	1638.1
3040.301	1687.1
3043.552	1715.1
3046.801	1750.1
3050.048	1787.1
3053.291	1829.1
3056.532	1882.1
3059.771	1945.1
3063.006	2006.1
3066.239	2062.1
3069.469	2122.1
3072.697	2180.1
3075.922	2237.1
3079.144	2283.1
3082.364	2336.1
3085.581	2370.1
3088.795	2457.1
3092.007	2467.1
3095.216	2544.1
3098.423	2596.1
3101.627	2628.1
3104.828	2711.1
3108.026	2747.1
3111.222	2839.1
3114.416	2895.1
3117.607	2989.1
3120.795	3025.1
3123.98	3087.1
3127.163	3185.1
3130.344	3233.1
3133.521	3333.1
3136.696	3403.1
3139.869	3461.1
3143.039	3512.1
3146.206	3585.1
3149.371	3636.1
3152.533	3671.1
3155.693	3667.1
3158.85	3697.1
3162.005	3712.1
3165.157	3725.1
3168.306	3740.1
3171.453	3747.1
3174.597	3769.1
3177.739	3760.1
3180.878	3750.1
3184.014	3785.1
3187.149	3756.1
3190.28	3752.1
3193.409	3758.1
3196.536	3776.1
3199.659	3776.1
3202.781	3791.1
3205.9	3759.1
3209.016	3768.1
3212.13	3761.1
3215.241	3718.1
3218.35	3701.1
3221.456	3621.1
3224.56	3609.1
3227.661	3563.1
3230.76	3520.1
3233.856	3476.1
3236.95	3449.1
3240.041	3405.1
3243.13	3393.1
3246.216	3372.1
3249.3	3358.1
3252.382	3345.1
3255.46	3323.1
3258.537	3306.1
3261.611	3305.1
3264.682	3320.1
3267.751	3295.1
3270.818	3276.1
3273.882	3296.1
3276.943	3295.1
3280.002	3225.1
3283.059	3203.1
3286.113	3168.1
3289.165	3114.1
3292.214	3088.1
3295.261	3019.1
3298.306	2996.1
3301.348	2935.1
3304.387	2913.1
3307.425	2860.1
3310.459	2816.1
3313.492	2789.1
3316.521	2756.1
3319.549	2731.1
3322.574	2691.1
3325.597	2649.1
3328.617	2642.1
3331.635	2617.1
3334.65	2591.1
3337.663	2592.1
3340.674	2575.1
3343.682	2565.1
3346.688	2560.1
3349.691	2562.1
3352.692	2538.1
3355.691	2528.1
3358.687	2495.1
3361.681	2474.1
3364.673	2436.1
3367.662	2393.1
3370.649	2359.1
3373.633	2330.1
3376.615	2289.1
3379.595	2249.1
3382.572	2214.1
3385.547	2194.1
3388.52	2164.1
3391.49	2125.1
3394.458	2090.1
3397.424	2042.1
3400.387	2047.1
3403.348	2007.1
3406.307	2010.1
3409.263	1971.1
3412.217	1925.1
3415.168	1929.1
3418.118	1894.1
3421.065	1875.1
3424.009	1844.1
3426.951	1819.1
3429.891	1787.1
3432.829	1730.1
3435.764	1700.1
3438.697	1634.1
3441.628	1603.1
3444.557	1540.1
3447.483	1511.1
3450.407	1449.1
3453.328	1389.1
3456.247	1357.1
3459.164	1304.1
3462.079	1242.1
3464.991	1200.1
3467.902	1152.1
3470.809	1114.1
3473.715	1065.1
3476.618	1057.1
3479.519	987.1
3482.418	967.1
3485.315	926.1
3488.209	884.1
3491.101	852.1
3493.99	837.1
3496.878	795.1
3499.763	759.1
3502.646	727.1
3505.527	680.1
3508.405	675.1
3511.281	627.1
3514.155	582.1
3517.027	544.1
3519.897	501.1
3522.764	473.1
3525.629	437.1
3528.492	375.1
3531.352	357.1
3534.211	316.1
3537.067	278.1
3539.921	248.1
3542.773	228.1
3545.622	196.1
3548.469	159.1
3551.315	128.1
3554.157	113.1
3556.998	87.1
3559.837	60.1
3562.673	36.1
3565.507	16.1
3568.339	2.1
3571.169	-10.9
3573.996	-40.9
3576.822	-45.9
3579.645	-85.9
3582.466	-100.9
3585.285	-110.9
3588.101	-117.9
3590.916	-145.9
3593.728	-157.9
3596.538	-179.9
3599.346	-190.9
3602.152	-211.9
3604.956	-221.9
3607.757	-234.9
3610.556	-255.9
3613.354	-274.9
3616.149	-271.9
3618.942	-291.9
3621.732	-300.9
3624.521	-309.9
3627.307	-318.9
3630.092	-330.9
3632.874	-344.9
3635.654	-343.9
3638.432	-355.9
3641.208	-369.9
3643.982	-368.9
3646.753	-380.9
3649.523	-385.9
3652.29	-388.9
3655.055	-403.9
3657.818	-409.9
3660.579	-426.9
3663.338	-420.9
3666.095	-446.9
3668.849	-456.9
3671.602	-458.9
3674.352	-458.9
3677.101	-466.9
3679.847	-480.9
3682.591	-478.9
3685.333	-489.9
3688.073	-483.9
3690.811	-494.9
3693.547	-494.9
3696.281	-516.9
3699.013	-508.9
3701.742	-516.9
3704.47	-518.9
3707.195	-525.9
3709.919	-527.9
3712.64	-526.9
3715.359	-535.9
3718.076	-533.9
3720.792	-535.9
3723.505	-543.9
3726.216	-549.9
3728.925	-553.9
3731.632	-558.9
3734.336	-560.9
3737.039	-566.9
3739.74	-554.9
3742.439	-564.9
3745.136	-569.9
3747.83	-574.9
3750.523	-568.9
3753.213	-574.9
3755.902	-569.9
3758.589	-574.9
3761.273	-569.9
3763.956	-580.9
3766.636	-573.9
3769.315	-581.9
3771.991	-580.9
3774.665	-583.9
3777.338	-583.9
3780.008	-587.9
3782.677	-583.9
3785.343	-590.9
3788.007	-579.9
3790.67	-591.9
3793.33	-596.9
3795.989	-597.9
3798.645	-603.9
3801.299	-595.9
3803.952	-603.9
3806.602	-598.9
3809.251	-607.9
3811.897	-595.9
3814.542	-593.9
3817.184	-604.9
3819.825	-600.9
3822.463	-600.9
3825.1	-610.9
3827.735	-608.9
3830.367	-609.9
3832.998	-610.9
3835.627	-606.9
3838.253	-613.9
3840.878	-608.9
3843.501	-611.9
3846.122	-609.9
3848.741	-610.9
3851.358	-618.9
3853.973	-606.9
3856.586	-610.9
3859.197	-612.9
3861.806	-615.9
3864.414	-611.9
3867.019	-605.9
3869.622	-609.9
3872.224	-610.9
3874.823	-598.9
3877.421	-582.9
3880.016	-571.9
3882.61	-550.9
3885.202	-549.9
3887.792	-571.9
3890.38	-583.9
3892.966	-602.9
3895.55	-609.9
3898.132	-614.9
3900.713	-624.9
3903.291	-623.9
3905.868	-624.9
3908.442	-621.9
3911.015	-627.9
3913.586	-625.9
3916.155	-626.9
3918.722	-621.9
3921.287	-622.9
3923.85	-624.9
3926.411	-627.9
3928.971	-623.9
3931.528	-626.9
3934.084	-620.9
3936.638	-626.9
3939.19	-632.9
3941.74	-632.9
3944.288	-629.9
3946.834	-628.9
3949.378	-627.9
3951.921	-623.9
3954.462	-622.9
3957	-625.9
3959.537	-622.9
3962.072	-621.9
3964.606	-623.9
3967.137	-632.9
3969.667	-623.9
3972.194	-618.9
3974.72	-621.9
3977.244	-617.9
3979.766	-610.9
3982.286	-615.9
3984.805	-612.9
3987.321	-617.9
3989.836	-612.9
3992.349	-611.9
3994.86	-603.9
3997.369	-622.9
3999.877	-611.9
4002.382	-615.9
4004.886	-619.9
4007.388	-618.9
4009.888	-608.9
4012.386	-613.9
4014.883	-610.9
4017.377	-611.9
4019.87	-611.9
4022.361	-619.9
4024.85	-613.9
4027.338	-612.9
4029.823	-615.9
4032.307	-611.9
4034.789	-618.9
4037.269	-623.9
4039.747	-620.9
4042.224	-615.9
4044.699	-621.9
4047.172	-618.9
4049.643	-617.9
4052.112	-617.9
4054.58	-614.9
4057.046	-622.9
4059.51	-619.9
4061.972	-620.9
4064.432	-615.9
4066.891	-616.9
4069.348	-617.9
4071.803	-616.9
4074.256	-614.9
4076.708	-611.9
4079.158	-617.9
4081.606	-619.9
4084.052	-611.9
4086.497	-620.9
4088.939	-615.9
4091.38	-611.9
4093.819	-612.9
4096.257	-646.9
4098.693	-651.9
4101.127	-650.9
4103.559	-653.9
4105.989	-394.9
4108.418	-380.9
4110.845	-354.9
4113.27	-332.9
4115.694	-290.9
4118.115	-240.9
4120.535	-616.9
4122.954	-621.9
4125.37	-616.9
4127.785	-616.9
4130.198	-620.9
4132.609	-611.9
4135.019	-652.9
4137.427	-650.9
4139.833	-645.9
4142.237	-649.9
