Data from 2018-2-7_conc=6_RamanShift_15.txt Node
Date: Tue Feb 13 14:36:13 IST 2018
User: aro
Spectrometer: QEPB0276
Trigger mode: 0
Integration Time (sec): 3.000000E1
Scans to average: 1
Electric dark correction enabled: true
Nonlinearity correction enabled: false
Boxcar width: 0
XAxis mode: Raman Shifts
Number of Pixels in Spectrum: 1044
>>>>>Begin Spectral Data<<<<<
160.701	-159.9
166.742	35.1
172.777	581.1
178.805	2252.1
184.826	6136.1
190.841	12725.1
196.849	20216.1
202.85	25217.1
208.845	26903.1
214.833	26577.1
220.815	26068.1
226.789	25768.1
232.758	25632.1
238.719	25436.1
244.674	25003.1
250.623	24525.1
256.565	23970.1
262.5	23444.1
268.429	22947.1
274.351	22582.1
280.267	22251.1
286.176	21968.1
292.079	21725.1
297.975	21424.1
303.865	21218.1
309.748	21145.1
315.625	20948.1
321.495	20858.1
327.359	20787.1
333.217	20667.1
339.068	20679.1
344.912	20654.1
350.751	20629.1
356.583	20668.1
362.408	20559.1
368.227	20595.1
374.04	20631.1
379.847	20688.1
385.647	20726.1
391.44	20867.1
397.228	20936.1
403.009	21025.1
408.784	21063.1
414.553	21138.1
420.315	21150.1
426.071	21162.1
431.821	21164.1
437.565	21168.1
443.302	21084.1
449.033	21074.1
454.758	21004.1
460.477	20923.1
466.189	20944.1
471.896	20859.1
477.596	20817.1
483.29	20745.1
488.978	20777.1
494.66	20659.1
500.335	20569.1
506.005	20355.1
511.668	20022.1
517.325	19735.1
522.977	19559.1
528.622	19487.1
534.261	19284.1
539.894	19235.1
545.521	19143.1
551.141	19036.1
556.756	18967.1
562.365	18892.1
567.968	18827.1
573.565	18716.1
579.155	18672.1
584.74	18604.1
590.319	18557.1
595.892	18421.1
601.459	18409.1
607.02	18320.1
612.575	18189.1
618.124	18109.1
623.667	17917.1
629.204	17862.1
634.735	17799.1
640.261	17727.1
645.781	17688.1
651.294	17599.1
656.802	17597.1
662.304	17587.1
667.8	17539.1
673.29	17507.1
678.775	17504.1
684.254	17399.1
689.726	17330.1
695.193	17278.1
700.655	17216.1
706.11	17147.1
711.56	17014.1
717.004	16980.1
722.442	16890.1
727.874	16787.1
733.301	16677.1
738.722	16691.1
744.137	16614.1
749.547	16595.1
754.951	16667.1
760.349	16601.1
765.741	16664.1
771.128	16720.1
776.509	16690.1
781.885	16662.1
787.254	16588.1
792.618	16564.1
797.977	16395.1
803.33	16271.1
808.677	16211.1
814.019	16174.1
819.355	16005.1
824.686	15952.1
830.011	15942.1
835.33	15929.1
840.644	15902.1
845.952	15970.1
851.255	15997.1
856.552	16028.1
861.844	16002.1
867.13	15970.1
872.41	15803.1
877.686	15773.1
882.955	15649.1
888.219	15467.1
893.478	15302.1
898.731	15173.1
903.979	15010.1
909.221	14950.1
914.458	14817.1
919.69	14788.1
924.916	14927.1
930.136	14873.1
935.351	14956.1
940.561	14891.1
945.766	14882.1
950.965	14826.1
956.158	14692.1
961.347	14595.1
966.529	14338.1
971.707	14168.1
976.879	13996.1
982.046	13882.1
987.208	13827.1
992.364	13806.1
997.515	13924.1
1002.66	14042.1
1007.801	14233.1
1012.936	14299.1
1018.066	14345.1
1023.19	14270.1
1028.309	14284.1
1033.423	14258.1
1038.532	14233.1
1043.636	14026.1
1048.734	13891.1
1053.827	13736.1
1058.915	13556.1
1063.998	13454.1
1069.075	13422.1
1074.147	13433.1
1079.214	13480.1
1084.276	13558.1
1089.333	13642.1
1094.385	13684.1
1099.431	13770.1
1104.472	13728.1
1109.509	13677.1
1114.54	13551.1
1119.565	13331.1
1124.586	13175.1
1129.602	13019.1
1134.613	12944.1
1139.618	12915.1
1144.619	12846.1
1149.614	12847.1
1154.604	12849.1
1159.589	12893.1
1164.57	12961.1
1169.545	12958.1
1174.515	12924.1
1179.48	12855.1
1184.44	12733.1
1189.395	12646.1
1194.345	12589.1
1199.29	12513.1
1204.23	12536.1
1209.165	12556.1
1214.095	12647.1
1219.021	12709.1
1223.941	12754.1
1228.856	12799.1
1233.766	12864.1
1238.672	12901.1
1243.572	12883.1
1248.467	12792.1
1253.358	12655.1
1258.244	12479.1
1263.124	12271.1
1268	12106.1
1272.871	11955.1
1277.737	11838.1
1282.599	11799.1
1287.455	11795.1
1292.306	11805.1
1297.153	11820.1
1301.995	11891.1
1306.832	11899.1
1311.664	11983.1
1316.491	11926.1
1321.314	11774.1
1326.132	11641.1
1330.945	11400.1
1335.753	11103.1
1340.556	10817.1
1345.354	10573.1
1350.148	10407.1
1354.937	10348.1
1359.722	10352.1
1364.501	10354.1
1369.276	10450.1
1374.046	10541.1
1378.811	10708.1
1383.572	10750.1
1388.327	10834.1
1393.079	10810.1
1397.825	10677.1
1402.567	10527.1
1407.304	10432.1
1412.036	10359.1
1416.764	10285.1
1421.487	10267.1
1426.205	10178.1
1430.919	10143.1
1435.628	10093.1
1440.333	10113.1
1445.032	10157.1
1449.727	10157.1
1454.418	10142.1
1459.104	10043.1
1463.785	9877.1
1468.462	9648.1
1473.134	9408.1
1477.802	9197.1
1482.465	9030.1
1487.123	8904.1
1491.777	8883.1
1496.426	8925.1
1501.071	8970.1
1505.711	9166.1
1510.347	9312.1
1514.978	9458.1
1519.604	9586.1
1524.226	9641.1
1528.844	9718.1
1533.457	9669.1
1538.065	9663.1
1542.669	9606.1
1547.269	9535.1
1551.864	9438.1
1556.454	9402.1
1561.041	9504.1
1565.622	9477.1
1570.199	9490.1
1574.772	9596.1
1579.34	9597.1
1583.904	9700.1
1588.464	9719.1
1593.019	9722.1
1597.569	9735.1
1602.115	9679.1
1606.657	9625.1
1611.195	9579.1
1615.728	9490.1
1620.256	9461.1
1624.78	9491.1
1629.3	9478.1
1633.816	9549.1
1638.327	9573.1
1642.834	9598.1
1647.336	9695.1
1651.834	9649.1
1656.328	9640.1
1660.817	9584.1
1665.302	9418.1
1669.783	9254.1
1674.259	9023.1
1678.732	8722.1
1683.199	8472.1
1687.663	8173.1
1692.122	7879.1
1696.577	7711.1
1701.028	7673.1
1705.474	7716.1
1709.917	7748.1
1714.355	7740.1
1718.788	7714.1
1723.218	7607.1
1727.643	7515.1
1732.064	7371.1
1736.481	7157.1
1740.893	7046.1
1745.301	6830.1
1749.705	6614.1
1754.105	6410.1
1758.501	6252.1
1762.893	6063.1
1767.28	5917.1
1771.663	5799.1
1776.042	5720.1
1780.417	5602.1
1784.787	5594.1
1789.154	5622.1
1793.516	5704.1
1797.874	5799.1
1802.228	5919.1
1806.578	5990.1
1810.924	5977.1
1815.266	5951.1
1819.603	5860.1
1823.937	5748.1
1828.266	5661.1
1832.591	5600.1
1836.913	5541.1
1841.23	5467.1
1845.543	5424.1
1849.852	5413.1
1854.156	5409.1
1858.457	5426.1
1862.754	5388.1
1867.047	5369.1
1871.335	5357.1
1875.62	5357.1
1879.9	5342.1
1884.177	5293.1
1888.449	5233.1
1892.718	5173.1
1896.982	5075.1
1901.243	5093.1
1905.499	5003.1
1909.752	4999.1
1914	4989.1
1918.245	5013.1
1922.485	4979.1
1926.722	5062.1
1930.954	5135.1
1935.183	5218.1
1939.408	5237.1
1943.628	5258.1
1947.845	5266.1
1952.058	5259.1
1956.267	5232.1
1960.472	5157.1
1964.673	5088.1
1968.87	5010.1
1973.063	4937.1
1977.252	4887.1
1981.438	4849.1
1985.619	4778.1
1989.797	4753.1
1993.971	4740.1
1998.14	4741.1
2002.306	4695.1
2006.469	4676.1
2010.627	4665.1
2014.781	4659.1
2018.932	4572.1
2023.078	4580.1
2027.221	4502.1
2031.36	4428.1
2035.495	4368.1
2039.627	4281.1
2043.754	4217.1
2047.878	4206.1
2051.998	4160.1
2056.114	4131.1
2060.226	4159.1
2064.334	4148.1
2068.439	4173.1
2072.54	4165.1
2076.637	4196.1
2080.73	4215.1
2084.82	4233.1
2088.906	4234.1
2092.988	4260.1
2097.066	4252.1
2101.14	4217.1
2105.211	4189.1
2109.278	4142.1
2113.342	4163.1
2117.401	4126.1
2121.457	4101.1
2125.509	4074.1
2129.558	4093.1
2133.602	4026.1
2137.643	3995.1
2141.681	3990.1
2145.714	3991.1
2149.744	3974.1
2153.77	3928.1
2157.793	3881.1
2161.812	3853.1
2165.827	3789.1
2169.838	3735.1
2173.846	3695.1
2177.851	3627.1
2181.851	3578.1
2185.848	3529.1
2189.841	3483.1
2193.831	3457.1
2197.817	3421.1
2201.799	3406.1
2205.778	3405.1
2209.753	3358.1
2213.725	3355.1
2217.693	3360.1
2221.657	3356.1
2225.618	3337.1
2229.575	3319.1
2233.529	3271.1
2237.479	3244.1
2241.425	3224.1
2245.368	3171.1
2249.307	3112.1
2253.243	3072.1
2257.175	3034.1
2261.104	3008.1
2265.029	2983.1
2268.95	2941.1
2272.868	2914.1
2276.783	2866.1
2280.694	2826.1
2284.601	2811.1
2288.505	2798.1
2292.405	2754.1
2296.302	2719.1
2300.195	2703.1
2304.085	2667.1
2307.971	2647.1
2311.854	2606.1
2315.734	2546.1
2319.609	2520.1
2323.482	2476.1
2327.351	2441.1
2331.216	2467.1
2335.078	2439.1
2338.937	2427.1
2342.792	2420.1
2346.643	2409.1
2350.492	2376.1
2354.336	2391.1
2358.178	2419.1
2362.015	2416.1
2365.85	2421.1
2369.681	2434.1
2373.508	2425.1
2377.333	2413.1
2381.153	2435.1
2384.971	2409.1
2388.785	2388.1
2392.595	2378.1
2396.402	2348.1
2400.206	2325.1
2404.007	2302.1
2407.804	2298.1
2411.597	2273.1
2415.388	2259.1
2419.174	2247.1
2422.958	2235.1
2426.738	2211.1
2430.515	2205.1
2434.289	2182.1
2438.059	2148.1
2441.825	2145.1
2445.589	2107.1
2449.349	2083.1
2453.106	2057.1
2456.859	2025.1
2460.61	1981.1
2464.356	1994.1
2468.1	1952.1
2471.84	1926.1
2475.577	1923.1
2479.311	1927.1
2483.041	1924.1
2486.768	1890.1
2490.492	1872.1
2494.213	1871.1
2497.93	1840.1
2501.644	1824.1
2505.355	1850.1
2509.062	1860.1
2512.766	1818.1
2516.467	1813.1
2520.165	1796.1
2523.859	1781.1
2527.551	1752.1
2531.239	1752.1
2534.923	1734.1
2538.605	1734.1
2542.283	1712.1
2545.958	1706.1
2549.63	1719.1
2553.299	1710.1
2556.964	1715.1
2560.626	1706.1
2564.285	1683.1
2567.941	1672.1
2571.594	1686.1
2575.243	1684.1
2578.89	1681.1
2582.533	1633.1
2586.173	1616.1
2589.809	1614.1
2593.443	1611.1
2597.073	1579.1
2600.701	1580.1
2604.325	1538.1
2607.946	1547.1
2611.564	1527.1
2615.178	1544.1
2618.79	1516.1
2622.398	1494.1
2626.004	1496.1
2629.606	1459.1
2633.205	1445.1
2636.801	1412.1
2640.394	1423.1
2643.983	1392.1
2647.57	1383.1
2651.153	1363.1
2654.734	1316.1
2658.311	1313.1
2661.885	1291.1
2665.456	1273.1
2669.025	1261.1
2672.589	1239.1
2676.151	1233.1
2679.71	1212.1
2683.266	1193.1
2686.819	1159.1
2690.368	1134.1
2693.915	1127.1
2697.458	1076.1
2700.999	1058.1
2704.536	1058.1
2708.071	1022.1
2711.602	986.1
2715.13	986.1
2718.656	958.1
2722.178	920.1
2725.697	913.1
2729.214	926.1
2732.727	891.1
2736.237	900.1
2739.744	892.1
2743.249	884.1
2746.75	886.1
2750.248	898.1
2753.743	885.1
2757.236	924.1
2760.725	934.1
2764.211	924.1
2767.695	925.1
2771.175	938.1
2774.652	929.1
2778.127	926.1
2781.598	917.1
2785.067	911.1
2788.532	923.1
2791.995	914.1
2795.455	917.1
2798.911	907.1
2802.365	900.1
2805.816	924.1
2809.264	933.1
2812.709	933.1
2816.151	928.1
2819.59	934.1
2823.026	915.1
2826.46	926.1
2829.89	941.1
2833.318	935.1
2836.742	926.1
2840.164	936.1
2843.583	946.1
2846.999	963.1
2850.412	976.1
2853.822	964.1
2857.229	1000.1
2860.634	1034.1
2864.035	1027.1
2867.434	1075.1
2870.83	1098.1
2874.223	1117.1
2877.613	1138.1
2881	1143.1
2884.385	1171.1
2887.766	1168.1
2891.145	1172.1
2894.521	1178.1
2897.894	1173.1
2901.264	1163.1
2904.631	1167.1
2907.996	1178.1
2911.358	1191.1
2914.717	1170.1
2918.073	1205.1
2921.426	1219.1
2924.777	1241.1
2928.124	1249.1
2931.469	1286.1
2934.811	1315.1
2938.15	1333.1
2941.487	1337.1
2944.821	1363.1
2948.152	1321.1
2951.48	1362.1
2954.805	1330.1
2958.128	1305.1
2961.447	1296.1
2964.765	1276.1
2968.079	1298.1
2971.39	1320.1
2974.699	1329.1
2978.005	1356.1
2981.308	1396.1
2984.609	1406.1
2987.907	1416.1
2991.202	1449.1
2994.494	1476.1
2997.784	1516.1
3001.07	1561.1
3004.355	1573.1
3007.636	1606.1
3010.915	1610.1
3014.191	1630.1
3017.464	1641.1
3020.734	1643.1
3024.002	1655.1
3027.267	1678.1
3030.53	1686.1
3033.789	1723.1
3037.046	1713.1
3040.301	1784.1
3043.552	1808.1
3046.801	1855.1
3050.048	1886.1
3053.291	1940.1
3056.532	2010.1
3059.771	2064.1
3063.006	2119.1
3066.239	2197.1
3069.469	2241.1
3072.697	2329.1
3075.922	2343.1
3079.144	2419.1
3082.364	2480.1
3085.581	2526.1
3088.795	2589.1
3092.007	2637.1
3095.216	2692.1
3098.423	2745.1
3101.627	2837.1
3104.828	2906.1
3108.026	2958.1
3111.222	3030.1
3114.416	3083.1
3117.607	3170.1
3120.795	3252.1
3123.98	3285.1
3127.163	3396.1
3130.344	3470.1
3133.521	3577.1
3136.696	3643.1
3139.869	3733.1
3143.039	3786.1
3146.206	3817.1
3149.371	3900.1
3152.533	3936.1
3155.693	3945.1
3158.85	3993.1
3162.005	3987.1
3165.157	4015.1
3168.306	4012.1
3171.453	4023.1
3174.597	4057.1
3177.739	4017.1
3180.878	4049.1
3184.014	4042.1
3187.149	4057.1
3190.28	4089.1
3193.409	4084.1
3196.536	4110.1
3199.659	4075.1
3202.781	4056.1
3205.9	4069.1
3209.016	4083.1
3212.13	4050.1
3215.241	4040.1
3218.35	3984.1
3221.456	3963.1
3224.56	3926.1
3227.661	3852.1
3230.76	3865.1
3233.856	3799.1
3236.95	3747.1
3240.041	3737.1
3243.13	3680.1
3246.216	3668.1
3249.3	3635.1
3252.382	3642.1
3255.46	3619.1
3258.537	3643.1
3261.611	3606.1
3264.682	3617.1
3267.751	3622.1
3270.818	3582.1
3273.882	3582.1
3276.943	3584.1
3280.002	3540.1
3283.059	3495.1
3286.113	3456.1
3289.165	3443.1
3292.214	3399.1
3295.261	3311.1
3298.306	3267.1
3301.348	3211.1
3304.387	3152.1
3307.425	3124.1
3310.459	3080.1
3313.492	3024.1
3316.521	2990.1
3319.549	2975.1
3322.574	2917.1
3325.597	2895.1
3328.617	2886.1
3331.635	2848.1
3334.65	2852.1
3337.663	2835.1
3340.674	2843.1
3343.682	2794.1
3346.688	2804.1
3349.691	2768.1
3352.692	2782.1
3355.691	2746.1
3358.687	2718.1
3361.681	2658.1
3364.673	2682.1
3367.662	2627.1
3370.649	2611.1
3373.633	2548.1
3376.615	2518.1
3379.595	2486.1
3382.572	2462.1
3385.547	2432.1
3388.52	2371.1
3391.49	2341.1
3394.458	2286.1
3397.424	2261.1
3400.387	2231.1
3403.348	2207.1
3406.307	2175.1
3409.263	2158.1
3412.217	2117.1
3415.168	2130.1
3418.118	2107.1
3421.065	2046.1
3424.009	2025.1
3426.951	1985.1
3429.891	1971.1
3432.829	1902.1
3435.764	1876.1
3438.697	1830.1
3441.628	1779.1
3444.557	1700.1
3447.483	1665.1
3450.407	1606.1
3453.328	1542.1
3456.247	1502.1
3459.164	1468.1
3462.079	1412.1
3464.991	1329.1
3467.902	1278.1
3470.809	1248.1
3473.715	1201.1
3476.618	1160.1
3479.519	1126.1
3482.418	1090.1
3485.315	1046.1
3488.209	1009.1
3491.101	958.1
3493.99	937.1
3496.878	897.1
3499.763	869.1
3502.646	826.1
3505.527	795.1
3508.405	760.1
3511.281	716.1
3514.155	664.1
3517.027	620.1
3519.897	570.1
3522.764	539.1
3525.629	495.1
3528.492	459.1
3531.352	410.1
3534.211	394.1
3537.067	345.1
3539.921	312.1
3542.773	283.1
3545.622	245.1
3548.469	213.1
3551.315	191.1
3554.157	153.1
3556.998	124.1
3559.837	104.1
3562.673	88.1
3565.507	53.1
3568.339	39.1
3571.169	13.1
3573.996	-8.9
3576.822	-27.9
3579.645	-46.9
3582.466	-80.9
3585.285	-92.9
3588.101	-113.9
3590.916	-122.9
3593.728	-149.9
3596.538	-171.9
3599.346	-184.9
3602.152	-194.9
3604.956	-215.9
3607.757	-221.9
3610.556	-239.9
3613.354	-256.9
3616.149	-278.9
3618.942	-285.9
3621.732	-293.9
3624.521	-307.9
3627.307	-310.9
3630.092	-330.9
3632.874	-334.9
3635.654	-348.9
3638.432	-353.9
3641.208	-373.9
3643.982	-378.9
3646.753	-388.9
3649.523	-397.9
3652.29	-403.9
3655.055	-409.9
3657.818	-417.9
3660.579	-432.9
3663.338	-440.9
3666.095	-454.9
3668.849	-463.9
3671.602	-473.9
3674.352	-474.9
3677.101	-483.9
3679.847	-497.9
3682.591	-489.9
3685.333	-506.9
3688.073	-507.9
3690.811	-513.9
3693.547	-519.9
3696.281	-528.9
3699.013	-525.9
3701.742	-542.9
3704.47	-540.9
3707.195	-552.9
3709.919	-547.9
3712.64	-557.9
3715.359	-557.9
3718.076	-560.9
3720.792	-566.9
3723.505	-567.9
3726.216	-572.9
3728.925	-578.9
3731.632	-591.9
3734.336	-588.9
3737.039	-594.9
3739.74	-595.9
3742.439	-591.9
3745.136	-589.9
3747.83	-593.9
3750.523	-591.9
3753.213	-600.9
3755.902	-595.9
3758.589	-595.9
3761.273	-599.9
3763.956	-611.9
3766.636	-604.9
3769.315	-611.9
3771.991	-606.9
3774.665	-613.9
3777.338	-613.9
3780.008	-614.9
3782.677	-614.9
3785.343	-613.9
3788.007	-609.9
3790.67	-620.9
3793.33	-624.9
3795.989	-623.9
3798.645	-630.9
3801.299	-631.9
3803.952	-628.9
3806.602	-629.9
3809.251	-634.9
3811.897	-631.9
3814.542	-622.9
3817.184	-630.9
3819.825	-629.9
3822.463	-628.9
3825.1	-632.9
3827.735	-636.9
3830.367	-636.9
3832.998	-636.9
3835.627	-640.9
3838.253	-642.9
3840.878	-640.9
3843.501	-637.9
3846.122	-636.9
3848.741	-641.9
3851.358	-643.9
3853.973	-638.9
3856.586	-638.9
3859.197	-641.9
3861.806	-649.9
3864.414	-638.9
3867.019	-636.9
3869.622	-647.9
3872.224	-632.9
3874.823	-625.9
3877.421	-602.9
3880.016	-583.9
3882.61	-548.9
3885.202	-550.9
3887.792	-571.9
3890.38	-603.9
3892.966	-619.9
3895.55	-635.9
3898.132	-644.9
3900.713	-651.9
3903.291	-651.9
3905.868	-654.9
3908.442	-651.9
3911.015	-652.9
3913.586	-655.9
3916.155	-652.9
3918.722	-652.9
3921.287	-655.9
3923.85	-656.9
3926.411	-657.9
3928.971	-656.9
3931.528	-662.9
3934.084	-650.9
3936.638	-658.9
3939.19	-657.9
3941.74	-663.9
3944.288	-660.9
3946.834	-658.9
3949.378	-659.9
3951.921	-658.9
3954.462	-658.9
3957	-653.9
3959.537	-646.9
3962.072	-651.9
3964.606	-651.9
3967.137	-661.9
3969.667	-650.9
3972.194	-649.9
3974.72	-648.9
3977.244	-646.9
3979.766	-649.9
3982.286	-642.9
3984.805	-636.9
3987.321	-642.9
3989.836	-645.9
3992.349	-644.9
3994.86	-639.9
3997.369	-654.9
3999.877	-640.9
4002.382	-640.9
4004.886	-644.9
4007.388	-648.9
4009.888	-644.9
4012.386	-642.9
4014.883	-644.9
4017.377	-640.9
4019.87	-642.9
4022.361	-644.9
4024.85	-642.9
4027.338	-645.9
4029.823	-645.9
4032.307	-644.9
4034.789	-647.9
4037.269	-647.9
4039.747	-650.9
4042.224	-642.9
4044.699	-647.9
4047.172	-646.9
4049.643	-641.9
4052.112	-644.9
4054.58	-640.9
4057.046	-649.9
4059.51	-650.9
4061.972	-648.9
4064.432	-643.9
4066.891	-647.9
4069.348	-650.9
4071.803	-649.9
4074.256	-646.9
4076.708	-638.9
4079.158	-641.9
4081.606	-642.9
4084.052	-644.9
4086.497	-652.9
4088.939	-646.9
4091.38	-639.9
4093.819	-638.9
4096.257	-677.9
4098.693	-678.9
4101.127	-679.9
4103.559	-680.9
4105.989	-409.9
4108.418	-382.9
4110.845	-361.9
4113.27	-345.9
4115.694	-298.9
4118.115	-255.9
4120.535	-640.9
4122.954	-643.9
4125.37	-644.9
4127.785	-643.9
4130.198	-649.9
4132.609	-637.9
4135.019	-681.9
4137.427	-674.9
4139.833	-674.9
4142.237	-676.9
