Data from 2018-2-7_conc=5_RamanShift_10.txt Node
Date: Tue Feb 13 14:02:43 IST 2018
User: aro
Spectrometer: QEPB0276
Trigger mode: 0
Integration Time (sec): 3.000000E1
Scans to average: 1
Electric dark correction enabled: true
Nonlinearity correction enabled: false
Boxcar width: 0
XAxis mode: Raman Shifts
Number of Pixels in Spectrum: 1044
>>>>>Begin Spectral Data<<<<<
160.701	-142.8
166.742	24.2
172.777	563.2
178.805	2165.2
184.826	5952.2
190.841	12250.2
196.849	19386.2
202.85	24273.2
208.845	25878.2
214.833	25535.2
220.815	25114.2
226.789	25070.2
232.758	24954.2
238.719	24749.2
244.674	24505.2
250.623	24035.2
256.565	23588.2
262.5	23196.2
268.429	22725.2
274.351	22466.2
280.267	22152.2
286.176	21921.2
292.079	21737.2
297.975	21578.2
303.865	21389.2
309.748	21275.2
315.625	21139.2
321.495	21082.2
327.359	20952.2
333.217	20909.2
339.068	20879.2
344.912	20909.2
350.751	20900.2
356.583	20914.2
362.408	20878.2
368.227	20841.2
374.04	20871.2
379.847	20888.2
385.647	21003.2
391.44	21078.2
397.228	21204.2
403.009	21275.2
408.784	21306.2
414.553	21404.2
420.315	21401.2
426.071	21446.2
431.821	21428.2
437.565	21381.2
443.302	21419.2
449.033	21350.2
454.758	21331.2
460.477	21316.2
466.189	21291.2
471.896	21164.2
477.596	21112.2
483.29	21017.2
488.978	21041.2
494.66	20993.2
500.335	20861.2
506.005	20627.2
511.668	20426.2
517.325	20164.2
522.977	20043.2
528.622	19924.2
534.261	19793.2
539.894	19696.2
545.521	19565.2
551.141	19575.2
556.756	19483.2
562.365	19395.2
567.968	19357.2
573.565	19274.2
579.155	19199.2
584.74	19120.2
590.319	19026.2
595.892	19040.2
601.459	18935.2
607.02	18878.2
612.575	18735.2
618.124	18628.2
623.667	18528.2
629.204	18416.2
634.735	18364.2
640.261	18253.2
645.781	18233.2
651.294	18225.2
656.802	18150.2
662.304	18212.2
667.8	18082.2
673.29	18079.2
678.775	18091.2
684.254	18025.2
689.726	17974.2
695.193	17899.2
700.655	17787.2
706.11	17711.2
711.56	17618.2
717.004	17557.2
722.442	17500.2
727.874	17448.2
733.301	17335.2
738.722	17285.2
744.137	17305.2
749.547	17312.2
754.951	17266.2
760.349	17270.2
765.741	17262.2
771.128	17277.2
776.509	17321.2
781.885	17348.2
787.254	17266.2
792.618	17222.2
797.977	17051.2
803.33	17014.2
808.677	16842.2
814.019	16829.2
819.355	16740.2
824.686	16617.2
830.011	16667.2
835.33	16591.2
840.644	16631.2
845.952	16703.2
851.255	16671.2
856.552	16782.2
861.844	16678.2
867.13	16682.2
872.41	16593.2
877.686	16567.2
882.955	16418.2
888.219	16245.2
893.478	16114.2
898.731	15923.2
903.979	15766.2
909.221	15634.2
914.458	15600.2
919.69	15604.2
924.916	15661.2
930.136	15716.2
935.351	15742.2
940.561	15713.2
945.766	15695.2
950.965	15649.2
956.158	15483.2
961.347	15369.2
966.529	15192.2
971.707	14968.2
976.879	14795.2
982.046	14683.2
987.208	14674.2
992.364	14664.2
997.515	14720.2
1002.66	14825.2
1007.801	15013.2
1012.936	15167.2
1018.066	15113.2
1023.19	15118.2
1028.309	15137.2
1033.423	15077.2
1038.532	14963.2
1043.636	14892.2
1048.734	14659.2
1053.827	14584.2
1058.915	14334.2
1063.998	14284.2
1069.075	14262.2
1074.147	14288.2
1079.214	14335.2
1084.276	14429.2
1089.333	14518.2
1094.385	14602.2
1099.431	14617.2
1104.472	14612.2
1109.509	14540.2
1114.54	14332.2
1119.565	14216.2
1124.586	14019.2
1129.602	13854.2
1134.613	13760.2
1139.618	13695.2
1144.619	13679.2
1149.614	13688.2
1154.604	13745.2
1159.589	13746.2
1164.57	13819.2
1169.545	13814.2
1174.515	13828.2
1179.48	13665.2
1184.44	13593.2
1189.395	13507.2
1194.345	13448.2
1199.29	13379.2
1204.23	13336.2
1209.165	13408.2
1214.095	13484.2
1219.021	13592.2
1223.941	13659.2
1228.856	13714.2
1233.766	13802.2
1238.672	13771.2
1243.572	13794.2
1248.467	13653.2
1253.358	13565.2
1258.244	13310.2
1263.124	13093.2
1268	12979.2
1272.871	12801.2
1277.737	12673.2
1282.599	12652.2
1287.455	12611.2
1292.306	12675.2
1297.153	12648.2
1301.995	12780.2
1306.832	12758.2
1311.664	12777.2
1316.491	12722.2
1321.314	12671.2
1326.132	12435.2
1330.945	12164.2
1335.753	11852.2
1340.556	11581.2
1345.354	11326.2
1350.148	11155.2
1354.937	11095.2
1359.722	11022.2
1364.501	11035.2
1369.276	11165.2
1374.046	11291.2
1378.811	11470.2
1383.572	11597.2
1388.327	11618.2
1393.079	11632.2
1397.825	11505.2
1402.567	11277.2
1407.304	11178.2
1412.036	11079.2
1416.764	11002.2
1421.487	10923.2
1426.205	10888.2
1430.919	10880.2
1435.628	10859.2
1440.333	10910.2
1445.032	10917.2
1449.727	10952.2
1454.418	10912.2
1459.104	10823.2
1463.785	10572.2
1468.462	10329.2
1473.134	10069.2
1477.802	9917.2
1482.465	9753.2
1487.123	9607.2
1491.777	9548.2
1496.426	9582.2
1501.071	9684.2
1505.711	9827.2
1510.347	10016.2
1514.978	10141.2
1519.604	10298.2
1524.226	10378.2
1528.844	10371.2
1533.457	10370.2
1538.065	10342.2
1542.669	10315.2
1547.269	10236.2
1551.864	10147.2
1556.454	10166.2
1561.041	10149.2
1565.622	10136.2
1570.199	10155.2
1574.772	10198.2
1579.34	10268.2
1583.904	10311.2
1588.464	10396.2
1593.019	10299.2
1597.569	10320.2
1602.115	10247.2
1606.657	10157.2
1611.195	10097.2
1615.728	10045.2
1620.256	10034.2
1624.78	9965.2
1629.3	10032.2
1633.816	10004.2
1638.327	10037.2
1642.834	10072.2
1647.336	10125.2
1651.834	10072.2
1656.328	10053.2
1660.817	10009.2
1665.302	9903.2
1669.783	9741.2
1674.259	9486.2
1678.732	9217.2
1683.199	8919.2
1687.663	8547.2
1692.122	8346.2
1696.577	8186.2
1701.028	8176.2
1705.474	8217.2
1709.917	8315.2
1714.355	8352.2
1718.788	8280.2
1723.218	8216.2
1727.643	8072.2
1732.064	7965.2
1736.481	7757.2
1740.893	7594.2
1745.301	7394.2
1749.705	7207.2
1754.105	7027.2
1758.501	6792.2
1762.893	6591.2
1767.28	6442.2
1771.663	6311.2
1776.042	6190.2
1780.417	6142.2
1784.787	6125.2
1789.154	6150.2
1793.516	6231.2
1797.874	6385.2
1802.228	6468.2
1806.578	6546.2
1810.924	6551.2
1815.266	6500.2
1819.603	6427.2
1823.937	6331.2
1828.266	6236.2
1832.591	6187.2
1836.913	6128.2
1841.23	6029.2
1845.543	5999.2
1849.852	5967.2
1854.156	5917.2
1858.457	5918.2
1862.754	5907.2
1867.047	5933.2
1871.335	5908.2
1875.62	5880.2
1879.9	5884.2
1884.177	5787.2
1888.449	5751.2
1892.718	5666.2
1896.982	5607.2
1901.243	5563.2
1905.499	5483.2
1909.752	5460.2
1914	5420.2
1918.245	5493.2
1922.485	5492.2
1926.722	5541.2
1930.954	5618.2
1935.183	5661.2
1939.408	5717.2
1943.628	5737.2
1947.845	5790.2
1952.058	5768.2
1956.267	5710.2
1960.472	5669.2
1964.673	5592.2
1968.87	5499.2
1973.063	5426.2
1977.252	5356.2
1981.438	5309.2
1985.619	5297.2
1989.797	5231.2
1993.971	5189.2
1998.14	5168.2
2002.306	5147.2
2006.469	5105.2
2010.627	5117.2
2014.781	5070.2
2018.932	5059.2
2023.078	4979.2
2027.221	4926.2
2031.36	4830.2
2035.495	4749.2
2039.627	4661.2
2043.754	4596.2
2047.878	4595.2
2051.998	4541.2
2056.114	4490.2
2060.226	4511.2
2064.334	4504.2
2068.439	4540.2
2072.54	4510.2
2076.637	4553.2
2080.73	4589.2
2084.82	4617.2
2088.906	4608.2
2092.988	4614.2
2097.066	4588.2
2101.14	4555.2
2105.211	4544.2
2109.278	4495.2
2113.342	4500.2
2117.401	4461.2
2121.457	4454.2
2125.509	4423.2
2129.558	4412.2
2133.602	4356.2
2137.643	4359.2
2141.681	4336.2
2145.714	4335.2
2149.744	4312.2
2153.77	4265.2
2157.793	4224.2
2161.812	4190.2
2165.827	4125.2
2169.838	4062.2
2173.846	4016.2
2177.851	3953.2
2181.851	3902.2
2185.848	3841.2
2189.841	3835.2
2193.831	3787.2
2197.817	3723.2
2201.799	3758.2
2205.778	3709.2
2209.753	3683.2
2213.725	3689.2
2217.693	3673.2
2221.657	3663.2
2225.618	3641.2
2229.575	3640.2
2233.529	3583.2
2237.479	3606.2
2241.425	3523.2
2245.368	3497.2
2249.307	3414.2
2253.243	3403.2
2257.175	3347.2
2261.104	3297.2
2265.029	3280.2
2268.95	3229.2
2272.868	3208.2
2276.783	3173.2
2280.694	3154.2
2284.601	3114.2
2288.505	3097.2
2292.405	3050.2
2296.302	3028.2
2300.195	3004.2
2304.085	2952.2
2307.971	2933.2
2311.854	2879.2
2315.734	2862.2
2319.609	2818.2
2323.482	2794.2
2327.351	2760.2
2331.216	2768.2
2335.078	2743.2
2338.937	2729.2
2342.792	2707.2
2346.643	2699.2
2350.492	2698.2
2354.336	2709.2
2358.178	2707.2
2362.015	2756.2
2365.85	2741.2
2369.681	2750.2
2373.508	2743.2
2377.333	2739.2
2381.153	2748.2
2384.971	2726.2
2388.785	2718.2
2392.595	2708.2
2396.402	2645.2
2400.206	2620.2
2404.007	2625.2
2407.804	2598.2
2411.597	2595.2
2415.388	2560.2
2419.174	2590.2
2422.958	2538.2
2426.738	2528.2
2430.515	2497.2
2434.289	2498.2
2438.059	2467.2
2441.825	2467.2
2445.589	2416.2
2449.349	2409.2
2453.106	2347.2
2456.859	2334.2
2460.61	2315.2
2464.356	2279.2
2468.1	2245.2
2471.84	2216.2
2475.577	2210.2
2479.311	2192.2
2483.041	2192.2
2486.768	2177.2
2490.492	2183.2
2494.213	2163.2
2497.93	2140.2
2501.644	2117.2
2505.355	2119.2
2509.062	2096.2
2512.766	2100.2
2516.467	2062.2
2520.165	2064.2
2523.859	2040.2
2527.551	2027.2
2531.239	2031.2
2534.923	2030.2
2538.605	1989.2
2542.283	1990.2
2545.958	1981.2
2549.63	1964.2
2553.299	1973.2
2556.964	1950.2
2560.626	1954.2
2564.285	1949.2
2567.941	1939.2
2571.594	1928.2
2575.243	1933.2
2578.89	1912.2
2582.533	1912.2
2586.173	1872.2
2589.809	1863.2
2593.443	1843.2
2597.073	1830.2
2600.701	1817.2
2604.325	1813.2
2607.946	1810.2
2611.564	1800.2
2615.178	1790.2
2618.79	1756.2
2622.398	1771.2
2626.004	1734.2
2629.606	1705.2
2633.205	1688.2
2636.801	1688.2
2640.394	1645.2
2643.983	1609.2
2647.57	1610.2
2651.153	1592.2
2654.734	1543.2
2658.311	1547.2
2661.885	1514.2
2665.456	1495.2
2669.025	1464.2
2672.589	1470.2
2676.151	1433.2
2679.71	1419.2
2683.266	1392.2
2686.819	1374.2
2690.368	1351.2
2693.915	1316.2
2697.458	1273.2
2700.999	1252.2
2704.536	1237.2
2708.071	1208.2
2711.602	1174.2
2715.13	1131.2
2718.656	1113.2
2722.178	1085.2
2725.697	1077.2
2729.214	1061.2
2732.727	1051.2
2736.237	1052.2
2739.744	1036.2
2743.249	1037.2
2746.75	1027.2
2750.248	1051.2
2753.743	1044.2
2757.236	1051.2
2760.725	1057.2
2764.211	1068.2
2767.695	1086.2
2771.175	1075.2
2774.652	1081.2
2778.127	1074.2
2781.598	1067.2
2785.067	1039.2
2788.532	1060.2
2791.995	1059.2
2795.455	1070.2
2798.911	1067.2
2802.365	1049.2
2805.816	1048.2
2809.264	1068.2
2812.709	1046.2
2816.151	1057.2
2819.59	1053.2
2823.026	1052.2
2826.46	1058.2
2829.89	1051.2
2833.318	1041.2
2836.742	1046.2
2840.164	1062.2
2843.583	1058.2
2846.999	1076.2
2850.412	1120.2
2853.822	1108.2
2857.229	1118.2
2860.634	1134.2
2864.035	1141.2
2867.434	1172.2
2870.83	1168.2
2874.223	1191.2
2877.613	1225.2
2881	1230.2
2884.385	1260.2
2887.766	1231.2
2891.145	1237.2
2894.521	1228.2
2897.894	1222.2
2901.264	1230.2
2904.631	1216.2
2907.996	1244.2
2911.358	1231.2
2914.717	1244.2
2918.073	1243.2
2921.426	1245.2
2924.777	1259.2
2928.124	1275.2
2931.469	1297.2
2934.811	1317.2
2938.15	1327.2
2941.487	1338.2
2944.821	1349.2
2948.152	1336.2
2951.48	1333.2
2954.805	1317.2
2958.128	1303.2
2961.447	1273.2
2964.765	1275.2
2968.079	1280.2
2971.39	1266.2
2974.699	1305.2
2978.005	1311.2
2981.308	1348.2
2984.609	1357.2
2987.907	1387.2
2991.202	1423.2
2994.494	1443.2
2997.784	1443.2
3001.07	1469.2
3004.355	1502.2
3007.636	1516.2
3010.915	1533.2
3014.191	1550.2
3017.464	1577.2
3020.734	1556.2
3024.002	1586.2
3027.267	1588.2
3030.53	1591.2
3033.789	1614.2
3037.046	1641.2
3040.301	1655.2
3043.552	1696.2
3046.801	1707.2
3050.048	1775.2
3053.291	1821.2
3056.532	1855.2
3059.771	1901.2
3063.006	1983.2
3066.239	2012.2
3069.469	2083.2
3072.697	2126.2
3075.922	2199.2
3079.144	2239.2
3082.364	2271.2
3085.581	2323.2
3088.795	2369.2
3092.007	2419.2
3095.216	2490.2
3098.423	2548.2
3101.627	2568.2
3104.828	2628.2
3108.026	2702.2
3111.222	2735.2
3114.416	2780.2
3117.607	2867.2
3120.795	2912.2
3123.98	3003.2
3127.163	3068.2
3130.344	3126.2
3133.521	3203.2
3136.696	3279.2
3139.869	3357.2
3143.039	3395.2
3146.206	3454.2
3149.371	3500.2
3152.533	3529.2
3155.693	3576.2
3158.85	3555.2
3162.005	3580.2
3165.157	3601.2
3168.306	3606.2
3171.453	3621.2
3174.597	3623.2
3177.739	3612.2
3180.878	3620.2
3184.014	3642.2
3187.149	3619.2
3190.28	3628.2
3193.409	3629.2
3196.536	3626.2
3199.659	3640.2
3202.781	3666.2
3205.9	3642.2
3209.016	3652.2
3212.13	3613.2
3215.241	3579.2
3218.35	3557.2
3221.456	3514.2
3224.56	3464.2
3227.661	3436.2
3230.76	3377.2
3233.856	3365.2
3236.95	3331.2
3240.041	3280.2
3243.13	3297.2
3246.216	3248.2
3249.3	3221.2
3252.382	3232.2
3255.46	3216.2
3258.537	3190.2
3261.611	3180.2
3264.682	3196.2
3267.751	3190.2
3270.818	3182.2
3273.882	3179.2
3276.943	3146.2
3280.002	3124.2
3283.059	3088.2
3286.113	3060.2
3289.165	3002.2
3292.214	2961.2
3295.261	2913.2
3298.306	2853.2
3301.348	2839.2
3304.387	2782.2
3307.425	2746.2
3310.459	2691.2
3313.492	2672.2
3316.521	2645.2
3319.549	2613.2
3322.574	2584.2
3325.597	2542.2
3328.617	2562.2
3331.635	2494.2
3334.65	2505.2
3337.663	2460.2
3340.674	2472.2
3343.682	2460.2
3346.688	2485.2
3349.691	2449.2
3352.692	2417.2
3355.691	2399.2
3358.687	2370.2
3361.681	2358.2
3364.673	2353.2
3367.662	2309.2
3370.649	2277.2
3373.633	2239.2
3376.615	2203.2
3379.595	2171.2
3382.572	2112.2
3385.547	2124.2
3388.52	2080.2
3391.49	2026.2
3394.458	2002.2
3397.424	1983.2
3400.387	1946.2
3403.348	1939.2
3406.307	1929.2
3409.263	1871.2
3412.217	1860.2
3415.168	1836.2
3418.118	1802.2
3421.065	1774.2
3424.009	1744.2
3426.951	1728.2
3429.891	1705.2
3432.829	1647.2
3435.764	1629.2
3438.697	1576.2
3441.628	1538.2
3444.557	1466.2
3447.483	1452.2
3450.407	1366.2
3453.328	1336.2
3456.247	1291.2
3459.164	1222.2
3462.079	1181.2
3464.991	1160.2
3467.902	1094.2
3470.809	1064.2
3473.715	1023.2
3476.618	986.2
3479.519	949.2
3482.418	913.2
3485.315	874.2
3488.209	837.2
3491.101	802.2
3493.99	804.2
3496.878	750.2
3499.763	705.2
3502.646	686.2
3505.527	640.2
3508.405	621.2
3511.281	577.2
3514.155	535.2
3517.027	493.2
3519.897	472.2
3522.764	445.2
3525.629	384.2
3528.492	365.2
3531.352	304.2
3534.211	295.2
3537.067	249.2
3539.921	220.2
3542.773	203.2
3545.622	162.2
3548.469	128.2
3551.315	113.2
3554.157	94.2
3556.998	59.2
3559.837	34.2
3562.673	6.2
3565.507	-6.8
3568.339	-13.8
3571.169	-38.8
3573.996	-54.8
3576.822	-80.8
3579.645	-93.8
3582.466	-125.8
3585.285	-128.8
3588.101	-141.8
3590.916	-156.8
3593.728	-186.8
3596.538	-203.8
3599.346	-223.8
3602.152	-227.8
3604.956	-242.8
3607.757	-252.8
3610.556	-266.8
3613.354	-283.8
3616.149	-299.8
3618.942	-299.8
3621.732	-310.8
3624.521	-316.8
3627.307	-335.8
3630.092	-339.8
3632.874	-347.8
3635.654	-359.8
3638.432	-359.8
3641.208	-363.8
3643.982	-379.8
3646.753	-384.8
3649.523	-409.8
3652.29	-407.8
3655.055	-410.8
3657.818	-417.8
3660.579	-427.8
3663.338	-442.8
3666.095	-445.8
3668.849	-457.8
3671.602	-459.8
3674.352	-468.8
3677.101	-481.8
3679.847	-479.8
3682.591	-482.8
3685.333	-489.8
3688.073	-487.8
3690.811	-499.8
3693.547	-505.8
3696.281	-520.8
3699.013	-513.8
3701.742	-526.8
3704.47	-523.8
3707.195	-535.8
3709.919	-529.8
3712.64	-537.8
3715.359	-536.8
3718.076	-539.8
3720.792	-544.8
3723.505	-544.8
3726.216	-554.8
3728.925	-547.8
3731.632	-560.8
3734.336	-564.8
3737.039	-565.8
3739.74	-564.8
3742.439	-563.8
3745.136	-568.8
3747.83	-571.8
3750.523	-569.8
3753.213	-577.8
3755.902	-575.8
3758.589	-573.8
3761.273	-569.8
3763.956	-580.8
3766.636	-582.8
3769.315	-588.8
3771.991	-587.8
3774.665	-585.8
3777.338	-587.8
3780.008	-592.8
3782.677	-592.8
3785.343	-595.8
3788.007	-596.8
3790.67	-592.8
3793.33	-602.8
3795.989	-597.8
3798.645	-604.8
3801.299	-606.8
3803.952	-601.8
3806.602	-602.8
3809.251	-608.8
3811.897	-599.8
3814.542	-599.8
3817.184	-609.8
3819.825	-597.8
3822.463	-605.8
3825.1	-607.8
3827.735	-609.8
3830.367	-614.8
3832.998	-612.8
3835.627	-614.8
3838.253	-613.8
3840.878	-617.8
3843.501	-611.8
3846.122	-610.8
3848.741	-613.8
3851.358	-617.8
3853.973	-612.8
3856.586	-619.8
3859.197	-618.8
3861.806	-612.8
3864.414	-608.8
3867.019	-612.8
3869.622	-617.8
3872.224	-612.8
3874.823	-597.8
3877.421	-578.8
3880.016	-561.8
3882.61	-537.8
3885.202	-526.8
3887.792	-554.8
3890.38	-581.8
3892.966	-597.8
3895.55	-611.8
3898.132	-615.8
3900.713	-625.8
3903.291	-626.8
3905.868	-630.8
3908.442	-627.8
3911.015	-621.8
3913.586	-631.8
3916.155	-630.8
3918.722	-630.8
3921.287	-627.8
3923.85	-626.8
3926.411	-632.8
3928.971	-628.8
3931.528	-630.8
3934.084	-620.8
3936.638	-630.8
3939.19	-632.8
3941.74	-628.8
3944.288	-632.8
3946.834	-633.8
3949.378	-632.8
3951.921	-628.8
3954.462	-633.8
3957	-625.8
3959.537	-619.8
3962.072	-630.8
3964.606	-624.8
3967.137	-637.8
3969.667	-633.8
3972.194	-627.8
3974.72	-624.8
3977.244	-620.8
3979.766	-622.8
3982.286	-620.8
3984.805	-613.8
3987.321	-615.8
3989.836	-621.8
3992.349	-617.8
3994.86	-614.8
3997.369	-622.8
3999.877	-614.8
4002.382	-617.8
4004.886	-614.8
4007.388	-616.8
4009.888	-613.8
4012.386	-616.8
4014.883	-612.8
4017.377	-614.8
4019.87	-610.8
4022.361	-616.8
4024.85	-621.8
4027.338	-621.8
4029.823	-612.8
4032.307	-623.8
4034.789	-625.8
4037.269	-625.8
4039.747	-626.8
4042.224	-619.8
4044.699	-621.8
4047.172	-622.8
4049.643	-622.8
4052.112	-620.8
4054.58	-620.8
4057.046	-621.8
4059.51	-620.8
4061.972	-621.8
4064.432	-622.8
4066.891	-617.8
4069.348	-619.8
4071.803	-619.8
4074.256	-618.8
4076.708	-617.8
4079.158	-620.8
4081.606	-618.8
4084.052	-613.8
4086.497	-622.8
4088.939	-620.8
4091.38	-613.8
4093.819	-613.8
4096.257	-655.8
4098.693	-650.8
4101.127	-656.8
4103.559	-655.8
4105.989	-396.8
4108.418	-378.8
4110.845	-353.8
4113.27	-328.8
4115.694	-278.8
4118.115	-229.8
4120.535	-620.8
4122.954	-626.8
4125.37	-620.8
4127.785	-620.8
4130.198	-625.8
4132.609	-617.8
4135.019	-658.8
4137.427	-651.8
4139.833	-649.8
4142.237	-649.8
