Data from 2018-2-7_conc=02_RamanShift_08.txt Node
Date: Tue Feb 13 11:29:44 IST 2018
User: aro
Spectrometer: QEPB0276
Trigger mode: 0
Integration Time (sec): 3.000000E1
Scans to average: 1
Electric dark correction enabled: true
Nonlinearity correction enabled: false
Boxcar width: 0
XAxis mode: Raman Shifts
Number of Pixels in Spectrum: 1044
>>>>>Begin Spectral Data<<<<<
160.701	-155.8
166.742	23.2
172.777	566.2
178.805	2152.2
184.826	5869.2
190.841	12011.2
196.849	18970.2
202.85	23679.2
208.845	25149.2
214.833	24809.2
220.815	24327.2
226.789	24128.2
232.758	24040.2
238.719	23830.2
244.674	23476.2
250.623	23049.2
256.565	22455.2
262.5	21985.2
268.429	21609.2
274.351	21206.2
280.267	20922.2
286.176	20736.2
292.079	20470.2
297.975	20304.2
303.865	20078.2
309.748	19946.2
315.625	19767.2
321.495	19628.2
327.359	19578.2
333.217	19563.2
339.068	19536.2
344.912	19451.2
350.751	19455.2
356.583	19434.2
362.408	19415.2
368.227	19408.2
374.04	19430.2
379.847	19446.2
385.647	19600.2
391.44	19594.2
397.228	19682.2
403.009	19784.2
408.784	19853.2
414.553	19942.2
420.315	19914.2
426.071	19951.2
431.821	19932.2
437.565	19977.2
443.302	19880.2
449.033	19879.2
454.758	19805.2
460.477	19742.2
466.189	19737.2
471.896	19671.2
477.596	19571.2
483.29	19639.2
488.978	19570.2
494.66	19504.2
500.335	19416.2
506.005	19144.2
511.668	18888.2
517.325	18684.2
522.977	18567.2
528.622	18366.2
534.261	18293.2
539.894	18187.2
545.521	18123.2
551.141	18062.2
556.756	17999.2
562.365	17901.2
567.968	17848.2
573.565	17770.2
579.155	17690.2
584.74	17583.2
590.319	17571.2
595.892	17519.2
601.459	17450.2
607.02	17355.2
612.575	17269.2
618.124	17167.2
623.667	17037.2
629.204	16996.2
634.735	16900.2
640.261	16860.2
645.781	16792.2
651.294	16761.2
656.802	16700.2
662.304	16713.2
667.8	16637.2
673.29	16680.2
678.775	16596.2
684.254	16549.2
689.726	16508.2
695.193	16439.2
700.655	16348.2
706.11	16264.2
711.56	16227.2
717.004	16111.2
722.442	16028.2
727.874	15989.2
733.301	15921.2
738.722	15873.2
744.137	15886.2
749.547	15882.2
754.951	15887.2
760.349	15876.2
765.741	15893.2
771.128	15896.2
776.509	15894.2
781.885	15912.2
787.254	15841.2
792.618	15799.2
797.977	15705.2
803.33	15622.2
808.677	15492.2
814.019	15447.2
819.355	15339.2
824.686	15277.2
830.011	15264.2
835.33	15250.2
840.644	15277.2
845.952	15319.2
851.255	15384.2
856.552	15366.2
861.844	15354.2
867.13	15306.2
872.41	15239.2
877.686	15133.2
882.955	15012.2
888.219	14910.2
893.478	14739.2
898.731	14497.2
903.979	14389.2
909.221	14291.2
914.458	14225.2
919.69	14250.2
924.916	14303.2
930.136	14351.2
935.351	14350.2
940.561	14352.2
945.766	14313.2
950.965	14244.2
956.158	14173.2
961.347	13991.2
966.529	13868.2
971.707	13652.2
976.879	13516.2
982.046	13401.2
987.208	13350.2
992.364	13337.2
997.515	13432.2
1002.66	13582.2
1007.801	13772.2
1012.936	13780.2
1018.066	13820.2
1023.19	13800.2
1028.309	13854.2
1033.423	13764.2
1038.532	13718.2
1043.636	13573.2
1048.734	13392.2
1053.827	13243.2
1058.915	13141.2
1063.998	13039.2
1069.075	12957.2
1074.147	12988.2
1079.214	13042.2
1084.276	13114.2
1089.333	13221.2
1094.385	13249.2
1099.431	13298.2
1104.472	13274.2
1109.509	13217.2
1114.54	13113.2
1119.565	12926.2
1124.586	12773.2
1129.602	12655.2
1134.613	12565.2
1139.618	12503.2
1144.619	12451.2
1149.614	12428.2
1154.604	12490.2
1159.589	12485.2
1164.57	12531.2
1169.545	12635.2
1174.515	12527.2
1179.48	12452.2
1184.44	12407.2
1189.395	12338.2
1194.345	12221.2
1199.29	12194.2
1204.23	12163.2
1209.165	12190.2
1214.095	12240.2
1219.021	12365.2
1223.941	12419.2
1228.856	12484.2
1233.766	12472.2
1238.672	12535.2
1243.572	12541.2
1248.467	12451.2
1253.358	12303.2
1258.244	12115.2
1263.124	11943.2
1268	11799.2
1272.871	11675.2
1277.737	11563.2
1282.599	11528.2
1287.455	11472.2
1292.306	11500.2
1297.153	11536.2
1301.995	11595.2
1306.832	11646.2
1311.664	11604.2
1316.491	11592.2
1321.314	11511.2
1326.132	11290.2
1330.945	11058.2
1335.753	10806.2
1340.556	10613.2
1345.354	10385.2
1350.148	10216.2
1354.937	10180.2
1359.722	10178.2
1364.501	10172.2
1369.276	10286.2
1374.046	10433.2
1378.811	10568.2
1383.572	10636.2
1388.327	10714.2
1393.079	10602.2
1397.825	10505.2
1402.567	10332.2
1407.304	10241.2
1412.036	10159.2
1416.764	10056.2
1421.487	10039.2
1426.205	9909.2
1430.919	9935.2
1435.628	9883.2
1440.333	9921.2
1445.032	9881.2
1449.727	10056.2
1454.418	9991.2
1459.104	9901.2
1463.785	9694.2
1468.462	9507.2
1473.134	9300.2
1477.802	9120.2
1482.465	8929.2
1487.123	8841.2
1491.777	8855.2
1496.426	8888.2
1501.071	8983.2
1505.711	9116.2
1510.347	9252.2
1514.978	9430.2
1519.604	9548.2
1524.226	9621.2
1528.844	9610.2
1533.457	9595.2
1538.065	9544.2
1542.669	9527.2
1547.269	9449.2
1551.864	9395.2
1556.454	9366.2
1561.041	9399.2
1565.622	9367.2
1570.199	9439.2
1574.772	9436.2
1579.34	9548.2
1583.904	9531.2
1588.464	9637.2
1593.019	9559.2
1597.569	9550.2
1602.115	9507.2
1606.657	9463.2
1611.195	9406.2
1615.728	9344.2
1620.256	9290.2
1624.78	9275.2
1629.3	9298.2
1633.816	9344.2
1638.327	9402.2
1642.834	9404.2
1647.336	9489.2
1651.834	9485.2
1656.328	9479.2
1660.817	9404.2
1665.302	9319.2
1669.783	9148.2
1674.259	8916.2
1678.732	8635.2
1683.199	8349.2
1687.663	8083.2
1692.122	7854.2
1696.577	7754.2
1701.028	7721.2
1705.474	7756.2
1709.917	7825.2
1714.355	7837.2
1718.788	7787.2
1723.218	7632.2
1727.643	7534.2
1732.064	7375.2
1736.481	7224.2
1740.893	7042.2
1745.301	6842.2
1749.705	6640.2
1754.105	6470.2
1758.501	6281.2
1762.893	6125.2
1767.28	5961.2
1771.663	5834.2
1776.042	5746.2
1780.417	5701.2
1784.787	5740.2
1789.154	5787.2
1793.516	5896.2
1797.874	5987.2
1802.228	6089.2
1806.578	6134.2
1810.924	6145.2
1815.266	6086.2
1819.603	5984.2
1823.937	5921.2
1828.266	5803.2
1832.591	5703.2
1836.913	5639.2
1841.23	5608.2
1845.543	5565.2
1849.852	5543.2
1854.156	5487.2
1858.457	5480.2
1862.754	5499.2
1867.047	5473.2
1871.335	5512.2
1875.62	5471.2
1879.9	5452.2
1884.177	5417.2
1888.449	5348.2
1892.718	5293.2
1896.982	5247.2
1901.243	5188.2
1905.499	5177.2
1909.752	5159.2
1914	5118.2
1918.245	5165.2
1922.485	5209.2
1926.722	5269.2
1930.954	5358.2
1935.183	5390.2
1939.408	5447.2
1943.628	5485.2
1947.845	5502.2
1952.058	5449.2
1956.267	5421.2
1960.472	5363.2
1964.673	5255.2
1968.87	5159.2
1973.063	5106.2
1977.252	5074.2
1981.438	4965.2
1985.619	4928.2
1989.797	4891.2
1993.971	4866.2
1998.14	4861.2
2002.306	4825.2
2006.469	4814.2
2010.627	4787.2
2014.781	4785.2
2018.932	4741.2
2023.078	4666.2
2027.221	4601.2
2031.36	4547.2
2035.495	4461.2
2039.627	4397.2
2043.754	4393.2
2047.878	4292.2
2051.998	4282.2
2056.114	4270.2
2060.226	4270.2
2064.334	4276.2
2068.439	4290.2
2072.54	4322.2
2076.637	4361.2
2080.73	4385.2
2084.82	4393.2
2088.906	4402.2
2092.988	4413.2
2097.066	4419.2
2101.14	4392.2
2105.211	4371.2
2109.278	4328.2
2113.342	4301.2
2117.401	4271.2
2121.457	4253.2
2125.509	4242.2
2129.558	4205.2
2133.602	4171.2
2137.643	4146.2
2141.681	4145.2
2145.714	4140.2
2149.744	4074.2
2153.77	4076.2
2157.793	4017.2
2161.812	3973.2
2165.827	3921.2
2169.838	3819.2
2173.846	3805.2
2177.851	3729.2
2181.851	3660.2
2185.848	3631.2
2189.841	3588.2
2193.831	3559.2
2197.817	3521.2
2201.799	3505.2
2205.778	3523.2
2209.753	3504.2
2213.725	3512.2
2217.693	3473.2
2221.657	3449.2
2225.618	3467.2
2229.575	3414.2
2233.529	3394.2
2237.479	3366.2
2241.425	3341.2
2245.368	3275.2
2249.307	3242.2
2253.243	3200.2
2257.175	3154.2
2261.104	3128.2
2265.029	3072.2
2268.95	3037.2
2272.868	3019.2
2276.783	2986.2
2280.694	2926.2
2284.601	2915.2
2288.505	2902.2
2292.405	2877.2
2296.302	2857.2
2300.195	2828.2
2304.085	2782.2
2307.971	2748.2
2311.854	2719.2
2315.734	2673.2
2319.609	2624.2
2323.482	2607.2
2327.351	2587.2
2331.216	2574.2
2335.078	2547.2
2338.937	2510.2
2342.792	2532.2
2346.643	2517.2
2350.492	2522.2
2354.336	2511.2
2358.178	2529.2
2362.015	2538.2
2365.85	2547.2
2369.681	2520.2
2373.508	2534.2
2377.333	2544.2
2381.153	2544.2
2384.971	2539.2
2388.785	2507.2
2392.595	2482.2
2396.402	2457.2
2400.206	2432.2
2404.007	2449.2
2407.804	2396.2
2411.597	2379.2
2415.388	2380.2
2419.174	2373.2
2422.958	2352.2
2426.738	2356.2
2430.515	2318.2
2434.289	2300.2
2438.059	2264.2
2441.825	2245.2
2445.589	2231.2
2449.349	2193.2
2453.106	2176.2
2456.859	2165.2
2460.61	2123.2
2464.356	2071.2
2468.1	2079.2
2471.84	2048.2
2475.577	2051.2
2479.311	2021.2
2483.041	2022.2
2486.768	2006.2
2490.492	1998.2
2494.213	1996.2
2497.93	2016.2
2501.644	1968.2
2505.355	1984.2
2509.062	1973.2
2512.766	1975.2
2516.467	1919.2
2520.165	1933.2
2523.859	1929.2
2527.551	1903.2
2531.239	1900.2
2534.923	1871.2
2538.605	1879.2
2542.283	1873.2
2545.958	1856.2
2549.63	1836.2
2553.299	1833.2
2556.964	1849.2
2560.626	1837.2
2564.285	1807.2
2567.941	1810.2
2571.594	1820.2
2575.243	1816.2
2578.89	1783.2
2582.533	1771.2
2586.173	1752.2
2589.809	1735.2
2593.443	1721.2
2597.073	1701.2
2600.701	1700.2
2604.325	1677.2
2607.946	1673.2
2611.564	1674.2
2615.178	1659.2
2618.79	1662.2
2622.398	1611.2
2626.004	1614.2
2629.606	1585.2
2633.205	1558.2
2636.801	1554.2
2640.394	1529.2
2643.983	1501.2
2647.57	1472.2
2651.153	1458.2
2654.734	1458.2
2658.311	1416.2
2661.885	1410.2
2665.456	1378.2
2669.025	1375.2
2672.589	1338.2
2676.151	1338.2
2679.71	1330.2
2683.266	1295.2
2686.819	1253.2
2690.368	1239.2
2693.915	1227.2
2697.458	1190.2
2700.999	1176.2
2704.536	1147.2
2708.071	1122.2
2711.602	1082.2
2715.13	1060.2
2718.656	1035.2
2722.178	1021.2
2725.697	999.2
2729.214	1006.2
2732.727	990.2
2736.237	995.2
2739.744	999.2
2743.249	989.2
2746.75	994.2
2750.248	1013.2
2753.743	1023.2
2757.236	1030.2
2760.725	1036.2
2764.211	1032.2
2767.695	1047.2
2771.175	1058.2
2774.652	1018.2
2778.127	1044.2
2781.598	1017.2
2785.067	1014.2
2788.532	1018.2
2791.995	1010.2
2795.455	1012.2
2798.911	1014.2
2802.365	1016.2
2805.816	1015.2
2809.264	1013.2
2812.709	1013.2
2816.151	1009.2
2819.59	1016.2
2823.026	1014.2
2826.46	1018.2
2829.89	998.2
2833.318	1010.2
2836.742	1010.2
2840.164	1026.2
2843.583	1038.2
2846.999	1043.2
2850.412	1055.2
2853.822	1070.2
2857.229	1080.2
2860.634	1085.2
2864.035	1108.2
2867.434	1113.2
2870.83	1161.2
2874.223	1167.2
2877.613	1205.2
2881	1182.2
2884.385	1219.2
2887.766	1187.2
2891.145	1192.2
2894.521	1203.2
2897.894	1199.2
2901.264	1182.2
2904.631	1181.2
2907.996	1196.2
2911.358	1190.2
2914.717	1213.2
2918.073	1217.2
2921.426	1228.2
2924.777	1251.2
2928.124	1270.2
2931.469	1294.2
2934.811	1306.2
2938.15	1334.2
2941.487	1332.2
2944.821	1329.2
2948.152	1331.2
2951.48	1337.2
2954.805	1319.2
2958.128	1298.2
2961.447	1300.2
2964.765	1288.2
2968.079	1301.2
2971.39	1291.2
2974.699	1298.2
2978.005	1323.2
2981.308	1342.2
2984.609	1378.2
2987.907	1422.2
2991.202	1434.2
2994.494	1452.2
2997.784	1465.2
3001.07	1492.2
3004.355	1518.2
3007.636	1549.2
3010.915	1566.2
3014.191	1586.2
3017.464	1595.2
3020.734	1587.2
3024.002	1604.2
3027.267	1637.2
3030.53	1635.2
3033.789	1644.2
3037.046	1663.2
3040.301	1707.2
3043.552	1765.2
3046.801	1760.2
3050.048	1818.2
3053.291	1858.2
3056.532	1896.2
3059.771	1947.2
3063.006	2011.2
3066.239	2058.2
3069.469	2140.2
3072.697	2187.2
3075.922	2248.2
3079.144	2282.2
3082.364	2337.2
3085.581	2405.2
3088.795	2439.2
3092.007	2491.2
3095.216	2534.2
3098.423	2586.2
3101.627	2651.2
3104.828	2701.2
3108.026	2781.2
3111.222	2823.2
3114.416	2900.2
3117.607	2987.2
3120.795	3013.2
3123.98	3099.2
3127.163	3186.2
3130.344	3251.2
3133.521	3324.2
3136.696	3387.2
3139.869	3477.2
3143.039	3533.2
3146.206	3526.2
3149.371	3613.2
3152.533	3626.2
3155.693	3681.2
3158.85	3703.2
3162.005	3709.2
3165.157	3714.2
3168.306	3744.2
3171.453	3732.2
3174.597	3731.2
3177.739	3743.2
3180.878	3737.2
3184.014	3775.2
3187.149	3739.2
3190.28	3760.2
3193.409	3769.2
3196.536	3780.2
3199.659	3774.2
3202.781	3745.2
3205.9	3774.2
3209.016	3759.2
3212.13	3742.2
3215.241	3740.2
3218.35	3684.2
3221.456	3648.2
3224.56	3606.2
3227.661	3578.2
3230.76	3510.2
3233.856	3494.2
3236.95	3433.2
3240.041	3432.2
3243.13	3415.2
3246.216	3394.2
3249.3	3368.2
3252.382	3356.2
3255.46	3337.2
3258.537	3340.2
3261.611	3349.2
3264.682	3328.2
3267.751	3338.2
3270.818	3337.2
3273.882	3319.2
3276.943	3265.2
3280.002	3260.2
3283.059	3222.2
3286.113	3186.2
3289.165	3183.2
3292.214	3119.2
3295.261	3050.2
3298.306	3004.2
3301.348	2964.2
3304.387	2928.2
3307.425	2887.2
3310.459	2832.2
3313.492	2785.2
3316.521	2761.2
3319.549	2708.2
3322.574	2696.2
3325.597	2663.2
3328.617	2630.2
3331.635	2614.2
3334.65	2604.2
3337.663	2602.2
3340.674	2589.2
3343.682	2579.2
3346.688	2582.2
3349.691	2552.2
3352.692	2531.2
3355.691	2521.2
3358.687	2487.2
3361.681	2469.2
3364.673	2405.2
3367.662	2401.2
3370.649	2348.2
3373.633	2335.2
3376.615	2290.2
3379.595	2257.2
3382.572	2213.2
3385.547	2173.2
3388.52	2168.2
3391.49	2154.2
3394.458	2109.2
3397.424	2069.2
3400.387	2027.2
3403.348	2007.2
3406.307	1993.2
3409.263	1959.2
3412.217	1961.2
3415.168	1937.2
3418.118	1917.2
3421.065	1871.2
3424.009	1836.2
3426.951	1814.2
3429.891	1783.2
3432.829	1748.2
3435.764	1710.2
3438.697	1652.2
3441.628	1604.2
3444.557	1557.2
3447.483	1509.2
3450.407	1459.2
3453.328	1418.2
3456.247	1370.2
3459.164	1316.2
3462.079	1277.2
3464.991	1217.2
3467.902	1178.2
3470.809	1137.2
3473.715	1082.2
3476.618	1061.2
3479.519	1010.2
3482.418	986.2
3485.315	943.2
3488.209	886.2
3491.101	873.2
3493.99	860.2
3496.878	807.2
3499.763	776.2
3502.646	738.2
3505.527	720.2
3508.405	672.2
3511.281	643.2
3514.155	619.2
3517.027	555.2
3519.897	525.2
3522.764	486.2
3525.629	457.2
3528.492	406.2
3531.352	366.2
3534.211	322.2
3537.067	290.2
3539.921	256.2
3542.773	231.2
3545.622	203.2
3548.469	167.2
3551.315	145.2
3554.157	115.2
3556.998	88.2
3559.837	71.2
3562.673	49.2
3565.507	48.2
3568.339	11.2
3571.169	2.2
3573.996	-19.8
3576.822	-42.8
3579.645	-66.8
3582.466	-84.8
3585.285	-96.8
3588.101	-116.8
3590.916	-143.8
3593.728	-155.8
3596.538	-179.8
3599.346	-187.8
3602.152	-196.8
3604.956	-212.8
3607.757	-227.8
3610.556	-229.8
3613.354	-255.8
3616.149	-260.8
3618.942	-286.8
3621.732	-292.8
3624.521	-303.8
3627.307	-305.8
3630.092	-316.8
3632.874	-335.8
3635.654	-334.8
3638.432	-338.8
3641.208	-358.8
3643.982	-366.8
3646.753	-376.8
3649.523	-370.8
3652.29	-384.8
3655.055	-394.8
3657.818	-400.8
3660.579	-414.8
3663.338	-417.8
3666.095	-428.8
3668.849	-444.8
3671.602	-457.8
3674.352	-454.8
3677.101	-466.8
3679.847	-474.8
3682.591	-478.8
3685.333	-484.8
3688.073	-482.8
3690.811	-496.8
3693.547	-495.8
3696.281	-507.8
3699.013	-503.8
3701.742	-504.8
3704.47	-512.8
3707.195	-516.8
3709.919	-519.8
3712.64	-531.8
3715.359	-533.8
3718.076	-532.8
3720.792	-537.8
3723.505	-536.8
3726.216	-542.8
3728.925	-543.8
3731.632	-552.8
3734.336	-550.8
3737.039	-564.8
3739.74	-554.8
3742.439	-559.8
3745.136	-565.8
3747.83	-561.8
3750.523	-565.8
3753.213	-572.8
3755.902	-565.8
3758.589	-565.8
3761.273	-566.8
3763.956	-574.8
3766.636	-571.8
3769.315	-577.8
3771.991	-586.8
3774.665	-580.8
3777.338	-585.8
3780.008	-579.8
3782.677	-584.8
3785.343	-589.8
3788.007	-581.8
3790.67	-586.8
3793.33	-590.8
3795.989	-592.8
3798.645	-597.8
3801.299	-597.8
3803.952	-590.8
3806.602	-596.8
3809.251	-606.8
3811.897	-595.8
3814.542	-590.8
3817.184	-599.8
3819.825	-606.8
3822.463	-598.8
3825.1	-600.8
3827.735	-601.8
3830.367	-604.8
3832.998	-604.8
3835.627	-603.8
3838.253	-610.8
3840.878	-606.8
3843.501	-609.8
3846.122	-608.8
3848.741	-606.8
3851.358	-601.8
3853.973	-605.8
3856.586	-610.8
3859.197	-609.8
3861.806	-616.8
3864.414	-608.8
3867.019	-603.8
3869.622	-615.8
3872.224	-612.8
3874.823	-593.8
3877.421	-574.8
3880.016	-569.8
3882.61	-541.8
3885.202	-550.8
3887.792	-562.8
3890.38	-586.8
3892.966	-604.8
3895.55	-608.8
3898.132	-612.8
3900.713	-622.8
3903.291	-621.8
3905.868	-620.8
3908.442	-619.8
3911.015	-618.8
3913.586	-619.8
3916.155	-618.8
3918.722	-618.8
3921.287	-620.8
3923.85	-625.8
3926.411	-621.8
3928.971	-628.8
3931.528	-625.8
3934.084	-624.8
3936.638	-626.8
3939.19	-627.8
3941.74	-635.8
3944.288	-632.8
3946.834	-633.8
3949.378	-636.8
3951.921	-629.8
3954.462	-628.8
3957	-619.8
3959.537	-614.8
3962.072	-616.8
3964.606	-614.8
3967.137	-624.8
3969.667	-622.8
3972.194	-624.8
3974.72	-620.8
3977.244	-617.8
3979.766	-615.8
3982.286	-612.8
3984.805	-608.8
3987.321	-610.8
3989.836	-617.8
3992.349	-608.8
3994.86	-607.8
3997.369	-612.8
3999.877	-611.8
4002.382	-611.8
4004.886	-616.8
4007.388	-617.8
4009.888	-612.8
4012.386	-609.8
4014.883	-611.8
4017.377	-615.8
4019.87	-611.8
4022.361	-614.8
4024.85	-619.8
4027.338	-616.8
4029.823	-613.8
4032.307	-619.8
4034.789	-616.8
4037.269	-619.8
4039.747	-619.8
4042.224	-608.8
4044.699	-615.8
4047.172	-622.8
4049.643	-620.8
4052.112	-611.8
4054.58	-610.8
4057.046	-618.8
4059.51	-617.8
4061.972	-623.8
4064.432	-618.8
4066.891	-612.8
4069.348	-621.8
4071.803	-618.8
4074.256	-612.8
4076.708	-611.8
4079.158	-615.8
4081.606	-607.8
4084.052	-607.8
4086.497	-611.8
4088.939	-610.8
4091.38	-604.8
4093.819	-616.8
4096.257	-647.8
4098.693	-645.8
4101.127	-646.8
4103.559	-648.8
4105.989	-390.8
4108.418	-365.8
4110.845	-345.8
4113.27	-328.8
4115.694	-282.8
4118.115	-244.8
4120.535	-617.8
4122.954	-624.8
4125.37	-616.8
4127.785	-615.8
4130.198	-619.8
4132.609	-611.8
4135.019	-647.8
4137.427	-646.8
4139.833	-646.8
4142.237	-644.8
