Data from 2018-2-7_dark_RamanShift_01.txt Node
Date: Tue Feb 13 11:03:44 IST 2018
User: aro
Spectrometer: QEPB0276
Trigger mode: 0
Integration Time (sec): 3.000000E1
Scans to average: 1
Electric dark correction enabled: true
Nonlinearity correction enabled: false
Boxcar width: 0
XAxis mode: Raman Shifts
Number of Pixels in Spectrum: 1044
>>>>>Begin Spectral Data<<<<<
160.701	-1.4
166.742	2.6
172.777	3.6
178.805	-7.4
184.826	-3.4
190.841	8.6
196.849	1.6
202.85	5.6
208.845	-0.4
214.833	8.6
220.815	5.6
226.789	5.6
232.758	-2.4
238.719	-1.4
244.674	-0.4
250.623	-4.4
256.565	-1.4
262.5	-4.4
268.429	1.6
274.351	-3.4
280.267	0.6
286.176	-1.4
292.079	4.6
297.975	2.6
303.865	2.6
309.748	3.6
315.625	-4.4
321.495	-4.4
327.359	-3.4
333.217	-5.4
339.068	-3.4
344.912	3.6
350.751	-0.4
356.583	5.6
362.408	4.6
368.227	3.6
374.04	6.6
379.847	5.6
385.647	3.6
391.44	-5.4
397.228	-2.4
403.009	0.6
408.784	-5.4
414.553	-2.4
420.315	-0.4
426.071	-2.4
431.821	2.6
437.565	6.6
443.302	3.6
449.033	3.6
454.758	0.6
460.477	2.6
466.189	0.6
471.896	3.6
477.596	0.6
483.29	2.6
488.978	2.6
494.66	-4.4
500.335	-5.4
506.005	2.6
511.668	-1.4
517.325	5.6
522.977	1.6
528.622	4.6
534.261	0.6
539.894	2.6
545.521	4.6
551.141	-9.4
556.756	-5.4
562.365	0.6
567.968	-7.4
573.565	-1.4
579.155	2.6
584.74	2.6
590.319	3.6
595.892	-1.4
601.459	6.6
607.02	1.6
612.575	1.6
618.124	0.6
623.667	2.6
629.204	-5.4
634.735	-2.4
640.261	-1.4
645.781	-4.4
651.294	2.6
656.802	4.6
662.304	-3.4
667.8	3.6
673.29	5.6
678.775	6.6
684.254	3.6
689.726	-0.4
695.193	-0.4
700.655	3.6
706.11	-3.4
711.56	0.6
717.004	-3.4
722.442	8.6
727.874	4.6
733.301	1.6
738.722	11.6
744.137	0.6
749.547	6.6
754.951	-0.4
760.349	5.6
765.741	4.6
771.128	-1.4
776.509	1.6
781.885	0.6
787.254	3.6
792.618	-3.4
797.977	-1.4
803.33	-6.4
808.677	1.6
814.019	0.6
819.355	2.6
824.686	3.6
830.011	-2.4
835.33	2.6
840.644	-2.4
845.952	-1.4
851.255	0.6
856.552	0.6
861.844	5.6
867.13	6.6
872.41	-2.4
877.686	3.6
882.955	-0.4
888.219	3.6
893.478	3.6
898.731	-0.4
903.979	5.6
909.221	1.6
914.458	0.6
919.69	-1.4
924.916	2.6
930.136	1.6
935.351	-1.4
940.561	6.6
945.766	4.6
950.965	3.6
956.158	4.6
961.347	5.6
966.529	-0.4
971.707	2.6
976.879	-1.4
982.046	-4.4
987.208	-0.4
992.364	3.6
997.515	-1.4
1002.66	0.6
1007.801	4.6
1012.936	4.6
1018.066	3.6
1023.19	3.6
1028.309	-2.4
1033.423	-1.4
1038.532	-2.4
1043.636	0.6
1048.734	-8.4
1053.827	-2.4
1058.915	-1.4
1063.998	1.6
1069.075	-2.4
1074.147	0.6
1079.214	6.6
1084.276	3.6
1089.333	6.6
1094.385	0.6
1099.431	-1.4
1104.472	-2.4
1109.509	-0.4
1114.54	-1.4
1119.565	-1.4
1124.586	1.6
1129.602	0.6
1134.613	6.6
1139.618	6.6
1144.619	-0.4
1149.614	4.6
1154.604	2.6
1159.589	-8.4
1164.57	-4.4
1169.545	0.6
1174.515	0.6
1179.48	2.6
1184.44	-0.4
1189.395	1.6
1194.345	0.6
1199.29	6.6
1204.23	5.6
1209.165	3.6
1214.095	-0.4
1219.021	-2.4
1223.941	6.6
1228.856	0.6
1233.766	-3.4
1238.672	1.6
1243.572	-0.4
1248.467	-1.4
1253.358	-3.4
1258.244	2.6
1263.124	3.6
1268	2.6
1272.871	2.6
1277.737	3.6
1282.599	5.6
1287.455	-2.4
1292.306	6.6
1297.153	4.6
1301.995	-5.4
1306.832	-3.4
1311.664	-2.4
1316.491	1.6
1321.314	-0.4
1326.132	4.6
1330.945	1.6
1335.753	-4.4
1340.556	3.6
1345.354	1.6
1350.148	6.6
1354.937	-0.4
1359.722	6.6
1364.501	-8.4
1369.276	0.6
1374.046	1.6
1378.811	-0.4
1383.572	-0.4
1388.327	2.6
1393.079	7.6
1397.825	1.6
1402.567	-0.4
1407.304	8.6
1412.036	6.6
1416.764	2.6
1421.487	2.6
1426.205	-2.4
1430.919	0.6
1435.628	1.6
1440.333	-1.4
1445.032	-4.4
1449.727	1.6
1454.418	-1.4
1459.104	3.6
1463.785	-2.4
1468.462	4.6
1473.134	-2.4
1477.802	3.6
1482.465	1.6
1487.123	-0.4
1491.777	-0.4
1496.426	-5.4
1501.071	-2.4
1505.711	1.6
1510.347	4.6
1514.978	1.6
1519.604	-2.4
1524.226	3.6
1528.844	-4.4
1533.457	0.6
1538.065	-0.4
1542.669	-0.4
1547.269	-4.4
1551.864	-4.4
1556.454	-4.4
1561.041	4.6
1565.622	-0.4
1570.199	0.6
1574.772	2.6
1579.34	8.6
1583.904	-1.4
1588.464	8.6
1593.019	4.6
1597.569	2.6
1602.115	-6.4
1606.657	1.6
1611.195	1.6
1615.728	5.6
1620.256	-3.4
1624.78	0.6
1629.3	8.6
1633.816	4.6
1638.327	5.6
1642.834	-0.4
1647.336	4.6
1651.834	0.6
1656.328	-1.4
1660.817	-1.4
1665.302	-1.4
1669.783	-5.4
1674.259	2.6
1678.732	0.6
1683.199	-2.4
1687.663	4.6
1692.122	2.6
1696.577	2.6
1701.028	0.6
1705.474	4.6
1709.917	5.6
1714.355	-2.4
1718.788	-0.4
1723.218	-4.4
1727.643	6.6
1732.064	-0.4
1736.481	-2.4
1740.893	8.6
1745.301	10.6
1749.705	2.6
1754.105	0.6
1758.501	3.6
1762.893	3.6
1767.28	-2.4
1771.663	-2.4
1776.042	-3.4
1780.417	-2.4
1784.787	-4.4
1789.154	-4.4
1793.516	-0.4
1797.874	2.6
1802.228	4.6
1806.578	3.6
1810.924	7.6
1815.266	2.6
1819.603	-0.4
1823.937	2.6
1828.266	-5.4
1832.591	-8.4
1836.913	-1.4
1841.23	4.6
1845.543	3.6
1849.852	2.6
1854.156	10.6
1858.457	2.6
1862.754	4.6
1867.047	2.6
1871.335	1.6
1875.62	3.6
1879.9	0.6
1884.177	-1.4
1888.449	-0.4
1892.718	0.6
1896.982	1.6
1901.243	-1.4
1905.499	2.6
1909.752	4.6
1914	-1.4
1918.245	0.6
1922.485	-0.4
1926.722	-2.4
1930.954	1.6
1935.183	0.6
1939.408	2.6
1943.628	-2.4
1947.845	-5.4
1952.058	6.6
1956.267	-0.4
1960.472	8.6
1964.673	0.6
1968.87	-4.4
1973.063	7.6
1977.252	-2.4
1981.438	-1.4
1985.619	-6.4
1989.797	-1.4
1993.971	2.6
1998.14	5.6
2002.306	4.6
2006.469	-1.4
2010.627	-2.4
2014.781	4.6
2018.932	1.6
2023.078	4.6
2027.221	4.6
2031.36	1.6
2035.495	0.6
2039.627	-4.4
2043.754	-2.4
2047.878	0.6
2051.998	-4.4
2056.114	1.6
2060.226	3.6
2064.334	2.6
2068.439	0.6
2072.54	1.6
2076.637	0.6
2080.73	-0.4
2084.82	1.6
2088.906	-1.4
2092.988	2.6
2097.066	4.6
2101.14	7.6
2105.211	-3.4
2109.278	-1.4
2113.342	4.6
2117.401	1.6
2121.457	3.6
2125.509	5.6
2129.558	0.6
2133.602	1.6
2137.643	-0.4
2141.681	2.6
2145.714	-2.4
2149.744	5.6
2153.77	7.6
2157.793	1.6
2161.812	6.6
2165.827	-5.4
2169.838	-0.4
2173.846	1.6
2177.851	-1.4
2181.851	-1.4
2185.848	1.6
2189.841	3.6
2193.831	-6.4
2197.817	3.6
2201.799	-2.4
2205.778	10.6
2209.753	3.6
2213.725	4.6
2217.693	-3.4
2221.657	3.6
2225.618	-3.4
2229.575	-1.4
2233.529	-3.4
2237.479	-6.4
2241.425	-0.4
2245.368	-0.4
2249.307	-0.4
2253.243	-3.4
2257.175	11.6
2261.104	0.6
2265.029	-2.4
2268.95	4.6
2272.868	-2.4
2276.783	-0.4
2280.694	-3.4
2284.601	3.6
2288.505	3.6
2292.405	-0.4
2296.302	1.6
2300.195	1.6
2304.085	0.6
2307.971	2.6
2311.854	4.6
2315.734	2.6
2319.609	9.6
2323.482	3.6
2327.351	3.6
2331.216	-1.4
2335.078	3.6
2338.937	2.6
2342.792	6.6
2346.643	1.6
2350.492	3.6
2354.336	4.6
2358.178	0.6
2362.015	3.6
2365.85	3.6
2369.681	4.6
2373.508	4.6
2377.333	-0.4
2381.153	6.6
2384.971	5.6
2388.785	3.6
2392.595	3.6
2396.402	-0.4
2400.206	7.6
2404.007	-0.4
2407.804	1.6
2411.597	-4.4
2415.388	3.6
2419.174	2.6
2422.958	-6.4
2426.738	3.6
2430.515	-3.4
2434.289	3.6
2438.059	-6.4
2441.825	-0.4
2445.589	1.6
2449.349	2.6
2453.106	-3.4
2456.859	-0.4
2460.61	-1.4
2464.356	-4.4
2468.1	2.6
2471.84	3.6
2475.577	1.6
2479.311	9.6
2483.041	-3.4
2486.768	-0.4
2490.492	3.6
2494.213	-0.4
2497.93	1.6
2501.644	-0.4
2505.355	5.6
2509.062	-3.4
2512.766	-0.4
2516.467	-5.4
2520.165	8.6
2523.859	0.6
2527.551	1.6
2531.239	-1.4
2534.923	2.6
2538.605	-3.4
2542.283	2.6
2545.958	3.6
2549.63	1.6
2553.299	-5.4
2556.964	5.6
2560.626	4.6
2564.285	3.6
2567.941	4.6
2571.594	-5.4
2575.243	3.6
2578.89	5.6
2582.533	0.6
2586.173	6.6
2589.809	1.6
2593.443	-0.4
2597.073	-0.4
2600.701	-1.4
2604.325	2.6
2607.946	2.6
2611.564	1.6
2615.178	6.6
2618.79	1.6
2622.398	-2.4
2626.004	2.6
2629.606	1.6
2633.205	1.6
2636.801	-4.4
2640.394	3.6
2643.983	-0.4
2647.57	3.6
2651.153	0.6
2654.734	3.6
2658.311	0.6
2661.885	5.6
2665.456	-4.4
2669.025	2.6
2672.589	3.6
2676.151	-4.4
2679.71	-1.4
2683.266	-0.4
2686.819	-1.4
2690.368	3.6
2693.915	3.6
2697.458	1.6
2700.999	2.6
2704.536	6.6
2708.071	-0.4
2711.602	1.6
2715.13	-0.4
2718.656	2.6
2722.178	-3.4
2725.697	0.6
2729.214	3.6
2732.727	-0.4
2736.237	1.6
2739.744	4.6
2743.249	-1.4
2746.75	-0.4
2750.248	1.6
2753.743	-4.4
2757.236	7.6
2760.725	-3.4
2764.211	5.6
2767.695	-1.4
2771.175	6.6
2774.652	6.6
2778.127	5.6
2781.598	-1.4
2785.067	-0.4
2788.532	-2.4
2791.995	-1.4
2795.455	-1.4
2798.911	4.6
2802.365	7.6
2805.816	5.6
2809.264	5.6
2812.709	1.6
2816.151	0.6
2819.59	1.6
2823.026	-1.4
2826.46	3.6
2829.89	-2.4
2833.318	2.6
2836.742	1.6
2840.164	1.6
2843.583	2.6
2846.999	2.6
2850.412	3.6
2853.822	6.6
2857.229	7.6
2860.634	-2.4
2864.035	-3.4
2867.434	-4.4
2870.83	-1.4
2874.223	-1.4
2877.613	1.6
2881	1.6
2884.385	5.6
2887.766	0.6
2891.145	4.6
2894.521	3.6
2897.894	5.6
2901.264	0.6
2904.631	2.6
2907.996	-3.4
2911.358	1.6
2914.717	-0.4
2918.073	0.6
2921.426	4.6
2924.777	-1.4
2928.124	7.6
2931.469	0.6
2934.811	4.6
2938.15	2.6
2941.487	2.6
2944.821	1.6
2948.152	-2.4
2951.48	-0.4
2954.805	3.6
2958.128	-0.4
2961.447	-2.4
2964.765	0.6
2968.079	5.6
2971.39	-0.4
2974.699	3.6
2978.005	1.6
2981.308	5.6
2984.609	1.6
2987.907	0.6
2991.202	2.6
2994.494	3.6
2997.784	1.6
3001.07	2.6
3004.355	-1.4
3007.636	-6.4
3010.915	-1.4
3014.191	6.6
3017.464	2.6
3020.734	2.6
3024.002	0.6
3027.267	3.6
3030.53	1.6
3033.789	2.6
3037.046	-4.4
3040.301	-7.4
3043.552	-3.4
3046.801	1.6
3050.048	4.6
3053.291	2.6
3056.532	1.6
3059.771	-3.4
3063.006	8.6
3066.239	1.6
3069.469	-1.4
3072.697	0.6
3075.922	-1.4
3079.144	4.6
3082.364	-2.4
3085.581	-8.4
3088.795	-2.4
3092.007	2.6
3095.216	-0.4
3098.423	3.6
3101.627	-6.4
3104.828	7.6
3108.026	1.6
3111.222	3.6
3114.416	4.6
3117.607	6.6
3120.795	-0.4
3123.98	-5.4
3127.163	-3.4
3130.344	-0.4
3133.521	1.6
3136.696	2.6
3139.869	2.6
3143.039	4.6
3146.206	1.6
3149.371	5.6
3152.533	6.6
3155.693	3.6
3158.85	0.6
3162.005	-2.4
3165.157	-2.4
3168.306	1.6
3171.453	0.6
3174.597	2.6
3177.739	0.6
3180.878	2.6
3184.014	4.6
3187.149	3.6
3190.28	-0.4
3193.409	5.6
3196.536	6.6
3199.659	-0.4
3202.781	3.6
3205.9	-8.4
3209.016	0.6
3212.13	0.6
3215.241	1.6
3218.35	0.6
3221.456	-1.4
3224.56	2.6
3227.661	4.6
3230.76	5.6
3233.856	2.6
3236.95	5.6
3240.041	-4.4
3243.13	-1.4
3246.216	0.6
3249.3	2.6
3252.382	3.6
3255.46	-5.4
3258.537	3.6
3261.611	6.6
3264.682	-0.4
3267.751	6.6
3270.818	2.6
3273.882	0.6
3276.943	-1.4
3280.002	-1.4
3283.059	4.6
3286.113	1.6
3289.165	5.6
3292.214	1.6
3295.261	1.6
3298.306	1.6
3301.348	-0.4
3304.387	-6.4
3307.425	3.6
3310.459	2.6
3313.492	-4.4
3316.521	-0.4
3319.549	1.6
3322.574	0.6
3325.597	-1.4
3328.617	1.6
3331.635	7.6
3334.65	6.6
3337.663	-3.4
3340.674	2.6
3343.682	5.6
3346.688	-0.4
3349.691	0.6
3352.692	-1.4
3355.691	3.6
3358.687	-0.4
3361.681	-4.4
3364.673	1.6
3367.662	-0.4
3370.649	-2.4
3373.633	4.6
3376.615	1.6
3379.595	1.6
3382.572	-0.4
3385.547	0.6
3388.52	2.6
3391.49	-4.4
3394.458	-2.4
3397.424	-4.4
3400.387	-0.4
3403.348	1.6
3406.307	2.6
3409.263	4.6
3412.217	-0.4
3415.168	4.6
3418.118	-1.4
3421.065	-3.4
3424.009	-2.4
3426.951	-1.4
3429.891	5.6
3432.829	-2.4
3435.764	0.6
3438.697	1.6
3441.628	3.6
3444.557	4.6
3447.483	3.6
3450.407	-2.4
3453.328	1.6
3456.247	-1.4
3459.164	1.6
3462.079	0.6
3464.991	-3.4
3467.902	-2.4
3470.809	4.6
3473.715	-1.4
3476.618	6.6
3479.519	5.6
3482.418	2.6
3485.315	2.6
3488.209	-0.4
3491.101	2.6
3493.99	5.6
3496.878	-0.4
3499.763	-4.4
3502.646	-0.4
3505.527	3.6
3508.405	9.6
3511.281	2.6
3514.155	4.6
3517.027	-2.4
3519.897	3.6
3522.764	5.6
3525.629	0.6
3528.492	-0.4
3531.352	-5.4
3534.211	-0.4
3537.067	-2.4
3539.921	0.6
3542.773	6.6
3545.622	-4.4
3548.469	4.6
3551.315	-4.4
3554.157	3.6
3556.998	-1.4
3559.837	-4.4
3562.673	-2.4
3565.507	-2.4
3568.339	5.6
3571.169	0.6
3573.996	1.6
3576.822	3.6
3579.645	6.6
3582.466	-0.4
3585.285	0.6
3588.101	2.6
3590.916	-2.4
3593.728	-2.4
3596.538	-2.4
3599.346	-1.4
3602.152	2.6
3604.956	-0.4
3607.757	3.6
3610.556	4.6
3613.354	0.6
3616.149	6.6
3618.942	4.6
3621.732	1.6
3624.521	1.6
3627.307	0.6
3630.092	-7.4
3632.874	-2.4
3635.654	-1.4
3638.432	-0.4
3641.208	-0.4
3643.982	2.6
3646.753	2.6
3649.523	-2.4
3652.29	1.6
3655.055	7.6
3657.818	-0.4
3660.579	3.6
3663.338	1.6
3666.095	3.6
3668.849	-5.4
3671.602	0.6
3674.352	-0.4
3677.101	3.6
3679.847	-1.4
3682.591	8.6
3685.333	5.6
3688.073	2.6
3690.811	6.6
3693.547	7.6
3696.281	2.6
3699.013	1.6
3701.742	-5.4
3704.47	1.6
3707.195	-3.4
3709.919	4.6
3712.64	2.6
3715.359	-0.4
3718.076	7.6
3720.792	0.6
3723.505	5.6
3726.216	-0.4
3728.925	4.6
3731.632	-5.4
3734.336	-1.4
3737.039	-2.4
3739.74	1.6
3742.439	3.6
3745.136	1.6
3747.83	4.6
3750.523	-0.4
3753.213	1.6
3755.902	-0.4
3758.589	6.6
3761.273	4.6
3763.956	-0.4
3766.636	1.6
3769.315	2.6
3771.991	-3.4
3774.665	-1.4
3777.338	-1.4
3780.008	4.6
3782.677	1.6
3785.343	3.6
3788.007	10.6
3790.67	4.6
3793.33	-0.4
3795.989	1.6
3798.645	-2.4
3801.299	-3.4
3803.952	-8.4
3806.602	-2.4
3809.251	-5.4
3811.897	6.6
3814.542	0.6
3817.184	1.6
3819.825	3.6
3822.463	3.6
3825.1	2.6
3827.735	1.6
3830.367	-1.4
3832.998	0.6
3835.627	-3.4
3838.253	-2.4
3840.878	-0.4
3843.501	-2.4
3846.122	1.6
3848.741	2.6
3851.358	-1.4
3853.973	0.6
3856.586	1.6
3859.197	-2.4
3861.806	-1.4
3864.414	7.6
3867.019	8.6
3869.622	2.6
3872.224	-2.4
3874.823	3.6
3877.421	4.6
3880.016	-4.4
3882.61	4.6
3885.202	2.6
3887.792	-4.4
3890.38	5.6
3892.966	3.6
3895.55	8.6
3898.132	5.6
3900.713	-1.4
3903.291	5.6
3905.868	0.6
3908.442	-0.4
3911.015	1.6
3913.586	-4.4
3916.155	4.6
3918.722	1.6
3921.287	1.6
3923.85	7.6
3926.411	2.6
3928.971	5.6
3931.528	3.6
3934.084	14.6
3936.638	4.6
3939.19	0.6
3941.74	-2.4
3944.288	-1.4
3946.834	-1.4
3949.378	-5.4
3951.921	0.6
3954.462	0.6
3957	2.6
3959.537	5.6
3962.072	2.6
3964.606	4.6
3967.137	5.6
3969.667	0.6
3972.194	-0.4
3974.72	-0.4
3977.244	1.6
3979.766	0.6
3982.286	1.6
3984.805	3.6
3987.321	-1.4
3989.836	2.6
3992.349	1.6
3994.86	7.6
3997.369	1.6
3999.877	0.6
4002.382	3.6
4004.886	2.6
4007.388	2.6
4009.888	1.6
4012.386	-4.4
4014.883	4.6
4017.377	2.6
4019.87	2.6
4022.361	4.6
4024.85	0.6
4027.338	1.6
4029.823	6.6
4032.307	3.6
4034.789	1.6
4037.269	-0.4
4039.747	-1.4
4042.224	5.6
4044.699	3.6
4047.172	-3.4
4049.643	-4.4
4052.112	6.6
4054.58	6.6
4057.046	-0.4
4059.51	4.6
4061.972	-0.4
4064.432	2.6
4066.891	5.6
4069.348	2.6
4071.803	-0.4
4074.256	0.6
4076.708	-3.4
4079.158	-3.4
4081.606	4.6
4084.052	1.6
4086.497	2.6
4088.939	5.6
4091.38	7.6
4093.819	2.6
4096.257	1.6
4098.693	0.6
4101.127	-0.4
4103.559	-1.4
4105.989	5.6
4108.418	4.6
4110.845	-0.4
4113.27	0.6
4115.694	7.6
4118.115	0.6
4120.535	5.6
4122.954	-1.4
4125.37	4.6
4127.785	-0.4
4130.198	-1.4
4132.609	4.6
4135.019	-2.4
4137.427	-2.4
4139.833	2.6
4142.237	4.6
