Data from 2018-2-7_conc=3_RamanShift_03.txt Node
Date: Tue Feb 13 12:20:44 IST 2018
User: aro
Spectrometer: QEPB0276
Trigger mode: 0
Integration Time (sec): 3.000000E1
Scans to average: 1
Electric dark correction enabled: true
Nonlinearity correction enabled: false
Boxcar width: 0
XAxis mode: Raman Shifts
Number of Pixels in Spectrum: 1044
>>>>>Begin Spectral Data<<<<<
160.701	-166.1
166.742	24.9
172.777	602.9
178.805	2305.9
184.826	6256.9
190.841	13003.9
196.849	20568.9
202.85	25757.9
208.845	27397.9
214.833	27099.9
220.815	26616.9
226.789	26535.9
232.758	26448.9
238.719	26270.9
244.674	25937.9
250.623	25490.9
256.565	24976.9
262.5	24421.9
268.429	24053.9
274.351	23686.9
280.267	23353.9
286.176	23149.9
292.079	22909.9
297.975	22750.9
303.865	22527.9
309.748	22391.9
315.625	22274.9
321.495	22155.9
327.359	22051.9
333.217	21964.9
339.068	22001.9
344.912	21968.9
350.751	21891.9
356.583	21959.9
362.408	21962.9
368.227	21912.9
374.04	21963.9
379.847	21990.9
385.647	22051.9
391.44	22223.9
397.228	22324.9
403.009	22368.9
408.784	22463.9
414.553	22533.9
420.315	22595.9
426.071	22557.9
431.821	22556.9
437.565	22518.9
443.302	22530.9
449.033	22472.9
454.758	22377.9
460.477	22421.9
466.189	22324.9
471.896	22324.9
477.596	22267.9
483.29	22243.9
488.978	22163.9
494.66	22132.9
500.335	22035.9
506.005	21778.9
511.668	21517.9
517.325	21325.9
522.977	21111.9
528.622	20985.9
534.261	20900.9
539.894	20783.9
545.521	20647.9
551.141	20681.9
556.756	20566.9
562.365	20514.9
567.968	20437.9
573.565	20338.9
579.155	20292.9
584.74	20185.9
590.319	20156.9
595.892	20053.9
601.459	19985.9
607.02	19919.9
612.575	19813.9
618.124	19659.9
623.667	19557.9
629.204	19467.9
634.735	19375.9
640.261	19339.9
645.781	19308.9
651.294	19202.9
656.802	19234.9
662.304	19155.9
667.8	19166.9
673.29	19157.9
678.775	19072.9
684.254	18972.9
689.726	18984.9
695.193	18942.9
700.655	18788.9
706.11	18662.9
711.56	18660.9
717.004	18569.9
722.442	18515.9
727.874	18459.9
733.301	18319.9
738.722	18273.9
744.137	18251.9
749.547	18317.9
754.951	18284.9
760.349	18268.9
765.741	18302.9
771.128	18277.9
776.509	18307.9
781.885	18335.9
787.254	18269.9
792.618	18181.9
797.977	18073.9
803.33	17967.9
808.677	17870.9
814.019	17770.9
819.355	17640.9
824.686	17621.9
830.011	17611.9
835.33	17533.9
840.644	17575.9
845.952	17601.9
851.255	17723.9
856.552	17669.9
861.844	17644.9
867.13	17618.9
872.41	17565.9
877.686	17523.9
882.955	17339.9
888.219	17181.9
893.478	17023.9
898.731	16817.9
903.979	16584.9
909.221	16461.9
914.458	16449.9
919.69	16485.9
924.916	16524.9
930.136	16555.9
935.351	16602.9
940.561	16578.9
945.766	16572.9
950.965	16502.9
956.158	16368.9
961.347	16245.9
966.529	15981.9
971.707	15863.9
976.879	15603.9
982.046	15517.9
987.208	15448.9
992.364	15471.9
997.515	15566.9
1002.66	15703.9
1007.801	15883.9
1012.936	16011.9
1018.066	16019.9
1023.19	15992.9
1028.309	15980.9
1033.423	15935.9
1038.532	15881.9
1043.636	15722.9
1048.734	15558.9
1053.827	15363.9
1058.915	15195.9
1063.998	15050.9
1069.075	15023.9
1074.147	15059.9
1079.214	15137.9
1084.276	15224.9
1089.333	15353.9
1094.385	15347.9
1099.431	15412.9
1104.472	15410.9
1109.509	15309.9
1114.54	15118.9
1119.565	14955.9
1124.586	14757.9
1129.602	14635.9
1134.613	14547.9
1139.618	14458.9
1144.619	14412.9
1149.614	14422.9
1154.604	14475.9
1159.589	14539.9
1164.57	14511.9
1169.545	14568.9
1174.515	14537.9
1179.48	14444.9
1184.44	14353.9
1189.395	14200.9
1194.345	14158.9
1199.29	14106.9
1204.23	14131.9
1209.165	14147.9
1214.095	14230.9
1219.021	14278.9
1223.941	14371.9
1228.856	14464.9
1233.766	14499.9
1238.672	14507.9
1243.572	14502.9
1248.467	14399.9
1253.358	14250.9
1258.244	14052.9
1263.124	13835.9
1268	13685.9
1272.871	13485.9
1277.737	13318.9
1282.599	13366.9
1287.455	13263.9
1292.306	13263.9
1297.153	13400.9
1301.995	13440.9
1306.832	13471.9
1311.664	13490.9
1316.491	13405.9
1321.314	13306.9
1326.132	13134.9
1330.945	12786.9
1335.753	12484.9
1340.556	12232.9
1345.354	11931.9
1350.148	11738.9
1354.937	11678.9
1359.722	11601.9
1364.501	11701.9
1369.276	11811.9
1374.046	12008.9
1378.811	12184.9
1383.572	12359.9
1388.327	12409.9
1393.079	12327.9
1397.825	12134.9
1402.567	12030.9
1407.304	11878.9
1412.036	11774.9
1416.764	11667.9
1421.487	11611.9
1426.205	11531.9
1430.919	11440.9
1435.628	11496.9
1440.333	11532.9
1445.032	11546.9
1449.727	11549.9
1454.418	11500.9
1459.104	11392.9
1463.785	11156.9
1468.462	10908.9
1473.134	10654.9
1477.802	10472.9
1482.465	10293.9
1487.123	10190.9
1491.777	10152.9
1496.426	10171.9
1501.071	10292.9
1505.711	10459.9
1510.347	10602.9
1514.978	10807.9
1519.604	11013.9
1524.226	11070.9
1528.844	11114.9
1533.457	11077.9
1538.065	11054.9
1542.669	11004.9
1547.269	10910.9
1551.864	10873.9
1556.454	10834.9
1561.041	10800.9
1565.622	10772.9
1570.199	10815.9
1574.772	10848.9
1579.34	10918.9
1583.904	10996.9
1588.464	11006.9
1593.019	10978.9
1597.569	10930.9
1602.115	10812.9
1606.657	10824.9
1611.195	10709.9
1615.728	10660.9
1620.256	10594.9
1624.78	10591.9
1629.3	10558.9
1633.816	10575.9
1638.327	10656.9
1642.834	10671.9
1647.336	10707.9
1651.834	10722.9
1656.328	10675.9
1660.817	10630.9
1665.302	10542.9
1669.783	10346.9
1674.259	10106.9
1678.732	9830.9
1683.199	9481.9
1687.663	9125.9
1692.122	8888.9
1696.577	8734.9
1701.028	8703.9
1705.474	8805.9
1709.917	8929.9
1714.355	8990.9
1718.788	8955.9
1723.218	8844.9
1727.643	8691.9
1732.064	8499.9
1736.481	8347.9
1740.893	8176.9
1745.301	7908.9
1749.705	7697.9
1754.105	7508.9
1758.501	7239.9
1762.893	7047.9
1767.28	6883.9
1771.663	6711.9
1776.042	6597.9
1780.417	6491.9
1784.787	6501.9
1789.154	6563.9
1793.516	6661.9
1797.874	6841.9
1802.228	6969.9
1806.578	7040.9
1810.924	7050.9
1815.266	6986.9
1819.603	6891.9
1823.937	6810.9
1828.266	6675.9
1832.591	6604.9
1836.913	6502.9
1841.23	6435.9
1845.543	6380.9
1849.852	6353.9
1854.156	6361.9
1858.457	6334.9
1862.754	6324.9
1867.047	6272.9
1871.335	6279.9
1875.62	6286.9
1879.9	6279.9
1884.177	6238.9
1888.449	6105.9
1892.718	6042.9
1896.982	5980.9
1901.243	5910.9
1905.499	5883.9
1909.752	5867.9
1914	5853.9
1918.245	5840.9
1922.485	5889.9
1926.722	5952.9
1930.954	6017.9
1935.183	6118.9
1939.408	6150.9
1943.628	6198.9
1947.845	6231.9
1952.058	6171.9
1956.267	6125.9
1960.472	6140.9
1964.673	5994.9
1968.87	5898.9
1973.063	5806.9
1977.252	5753.9
1981.438	5697.9
1985.619	5654.9
1989.797	5564.9
1993.971	5519.9
1998.14	5533.9
2002.306	5507.9
2006.469	5489.9
2010.627	5442.9
2014.781	5420.9
2018.932	5335.9
2023.078	5318.9
2027.221	5247.9
2031.36	5170.9
2035.495	5081.9
2039.627	4961.9
2043.754	4926.9
2047.878	4868.9
2051.998	4830.9
2056.114	4783.9
2060.226	4793.9
2064.334	4800.9
2068.439	4850.9
2072.54	4849.9
2076.637	4873.9
2080.73	4934.9
2084.82	4939.9
2088.906	4953.9
2092.988	4913.9
2097.066	4929.9
2101.14	4913.9
2105.211	4845.9
2109.278	4864.9
2113.342	4824.9
2117.401	4807.9
2121.457	4812.9
2125.509	4771.9
2129.558	4755.9
2133.602	4722.9
2137.643	4699.9
2141.681	4677.9
2145.714	4642.9
2149.744	4618.9
2153.77	4593.9
2157.793	4514.9
2161.812	4499.9
2165.827	4401.9
2169.838	4336.9
2173.846	4277.9
2177.851	4259.9
2181.851	4148.9
2185.848	4093.9
2189.841	4071.9
2193.831	4035.9
2197.817	4001.9
2201.799	4004.9
2205.778	3928.9
2209.753	3955.9
2213.725	3907.9
2217.693	3915.9
2221.657	3913.9
2225.618	3903.9
2229.575	3887.9
2233.529	3819.9
2237.479	3832.9
2241.425	3771.9
2245.368	3735.9
2249.307	3654.9
2253.243	3612.9
2257.175	3583.9
2261.104	3529.9
2265.029	3475.9
2268.95	3449.9
2272.868	3403.9
2276.783	3370.9
2280.694	3347.9
2284.601	3332.9
2288.505	3287.9
2292.405	3273.9
2296.302	3212.9
2300.195	3188.9
2304.085	3160.9
2307.971	3099.9
2311.854	3078.9
2315.734	3022.9
2319.609	2983.9
2323.482	2949.9
2327.351	2930.9
2331.216	2919.9
2335.078	2905.9
2338.937	2897.9
2342.792	2838.9
2346.643	2861.9
2350.492	2881.9
2354.336	2875.9
2358.178	2874.9
2362.015	2908.9
2365.85	2902.9
2369.681	2890.9
2373.508	2893.9
2377.333	2906.9
2381.153	2889.9
2384.971	2871.9
2388.785	2861.9
2392.595	2806.9
2396.402	2807.9
2400.206	2785.9
2404.007	2763.9
2407.804	2735.9
2411.597	2724.9
2415.388	2707.9
2419.174	2695.9
2422.958	2694.9
2426.738	2651.9
2430.515	2633.9
2434.289	2655.9
2438.059	2608.9
2441.825	2582.9
2445.589	2539.9
2449.349	2522.9
2453.106	2473.9
2456.859	2463.9
2460.61	2412.9
2464.356	2413.9
2468.1	2370.9
2471.84	2349.9
2475.577	2322.9
2479.311	2325.9
2483.041	2311.9
2486.768	2301.9
2490.492	2282.9
2494.213	2296.9
2497.93	2271.9
2501.644	2254.9
2505.355	2240.9
2509.062	2227.9
2512.766	2208.9
2516.467	2212.9
2520.165	2196.9
2523.859	2152.9
2527.551	2159.9
2531.239	2141.9
2534.923	2135.9
2538.605	2095.9
2542.283	2121.9
2545.958	2099.9
2549.63	2092.9
2553.299	2100.9
2556.964	2093.9
2560.626	2077.9
2564.285	2063.9
2567.941	2069.9
2571.594	2051.9
2575.243	2034.9
2578.89	2033.9
2582.533	2003.9
2586.173	1988.9
2589.809	1969.9
2593.443	1971.9
2597.073	1931.9
2600.701	1930.9
2604.325	1906.9
2607.946	1895.9
2611.564	1884.9
2615.178	1884.9
2618.79	1851.9
2622.398	1832.9
2626.004	1814.9
2629.606	1790.9
2633.205	1782.9
2636.801	1758.9
2640.394	1747.9
2643.983	1715.9
2647.57	1678.9
2651.153	1664.9
2654.734	1653.9
2658.311	1621.9
2661.885	1579.9
2665.456	1573.9
2669.025	1549.9
2672.589	1548.9
2676.151	1508.9
2679.71	1511.9
2683.266	1468.9
2686.819	1449.9
2690.368	1417.9
2693.915	1400.9
2697.458	1360.9
2700.999	1326.9
2704.536	1277.9
2708.071	1251.9
2711.602	1231.9
2715.13	1223.9
2718.656	1171.9
2722.178	1151.9
2725.697	1141.9
2729.214	1112.9
2732.727	1126.9
2736.237	1107.9
2739.744	1093.9
2743.249	1091.9
2746.75	1084.9
2750.248	1109.9
2753.743	1126.9
2757.236	1133.9
2760.725	1130.9
2764.211	1171.9
2767.695	1145.9
2771.175	1164.9
2774.652	1147.9
2778.127	1151.9
2781.598	1133.9
2785.067	1138.9
2788.532	1128.9
2791.995	1108.9
2795.455	1134.9
2798.911	1129.9
2802.365	1132.9
2805.816	1133.9
2809.264	1129.9
2812.709	1114.9
2816.151	1114.9
2819.59	1133.9
2823.026	1133.9
2826.46	1108.9
2829.89	1118.9
2833.318	1116.9
2836.742	1131.9
2840.164	1139.9
2843.583	1144.9
2846.999	1162.9
2850.412	1142.9
2853.822	1169.9
2857.229	1172.9
2860.634	1209.9
2864.035	1216.9
2867.434	1240.9
2870.83	1257.9
2874.223	1284.9
2877.613	1327.9
2881	1302.9
2884.385	1319.9
2887.766	1328.9
2891.145	1299.9
2894.521	1314.9
2897.894	1304.9
2901.264	1319.9
2904.631	1288.9
2907.996	1293.9
2911.358	1304.9
2914.717	1313.9
2918.073	1318.9
2921.426	1328.9
2924.777	1346.9
2928.124	1348.9
2931.469	1394.9
2934.811	1405.9
2938.15	1398.9
2941.487	1431.9
2944.821	1433.9
2948.152	1438.9
2951.48	1406.9
2954.805	1409.9
2958.128	1396.9
2961.447	1368.9
2964.765	1360.9
2968.079	1365.9
2971.39	1401.9
2974.699	1404.9
2978.005	1398.9
2981.308	1428.9
2984.609	1453.9
2987.907	1480.9
2991.202	1500.9
2994.494	1539.9
2997.784	1573.9
3001.07	1579.9
3004.355	1614.9
3007.636	1647.9
3010.915	1649.9
3014.191	1684.9
3017.464	1693.9
3020.734	1704.9
3024.002	1708.9
3027.267	1722.9
3030.53	1740.9
3033.789	1760.9
3037.046	1744.9
3040.301	1808.9
3043.552	1824.9
3046.801	1860.9
3050.048	1926.9
3053.291	1969.9
3056.532	2024.9
3059.771	2055.9
3063.006	2136.9
3066.239	2187.9
3069.469	2255.9
3072.697	2295.9
3075.922	2352.9
3079.144	2419.9
3082.364	2460.9
3085.581	2519.9
3088.795	2575.9
3092.007	2617.9
3095.216	2685.9
3098.423	2731.9
3101.627	2795.9
3104.828	2839.9
3108.026	2941.9
3111.222	2984.9
3114.416	3070.9
3117.607	3127.9
3120.795	3191.9
3123.98	3292.9
3127.163	3355.9
3130.344	3430.9
3133.521	3519.9
3136.696	3577.9
3139.869	3637.9
3143.039	3703.9
3146.206	3767.9
3149.371	3802.9
3152.533	3852.9
3155.693	3883.9
3158.85	3891.9
3162.005	3891.9
3165.157	3910.9
3168.306	3910.9
3171.453	3906.9
3174.597	3921.9
3177.739	3932.9
3180.878	3929.9
3184.014	3943.9
3187.149	3939.9
3190.28	3960.9
3193.409	3975.9
3196.536	3953.9
3199.659	3961.9
3202.781	3971.9
3205.9	3959.9
3209.016	3917.9
3212.13	3932.9
3215.241	3888.9
3218.35	3865.9
3221.456	3809.9
3224.56	3755.9
3227.661	3727.9
3230.76	3667.9
3233.856	3666.9
3236.95	3591.9
3240.041	3571.9
3243.13	3528.9
3246.216	3507.9
3249.3	3485.9
3252.382	3489.9
3255.46	3472.9
3258.537	3473.9
3261.611	3427.9
3264.682	3467.9
3267.751	3450.9
3270.818	3461.9
3273.882	3415.9
3276.943	3406.9
3280.002	3389.9
3283.059	3347.9
3286.113	3301.9
3289.165	3272.9
3292.214	3239.9
3295.261	3158.9
3298.306	3084.9
3301.348	3083.9
3304.387	3009.9
3307.425	2961.9
3310.459	2928.9
3313.492	2874.9
3316.521	2816.9
3319.549	2829.9
3322.574	2776.9
3325.597	2762.9
3328.617	2760.9
3331.635	2713.9
3334.65	2713.9
3337.663	2696.9
3340.674	2704.9
3343.682	2688.9
3346.688	2667.9
3349.691	2655.9
3352.692	2643.9
3355.691	2619.9
3358.687	2613.9
3361.681	2560.9
3364.673	2533.9
3367.662	2502.9
3370.649	2429.9
3373.633	2419.9
3376.615	2393.9
3379.595	2335.9
3382.572	2321.9
3385.547	2282.9
3388.52	2239.9
3391.49	2176.9
3394.458	2173.9
3397.424	2128.9
3400.387	2113.9
3403.348	2068.9
3406.307	2069.9
3409.263	2041.9
3412.217	2023.9
3415.168	1993.9
3418.118	1966.9
3421.065	1923.9
3424.009	1915.9
3426.951	1860.9
3429.891	1810.9
3432.829	1788.9
3435.764	1745.9
3438.697	1708.9
3441.628	1651.9
3444.557	1613.9
3447.483	1550.9
3450.407	1503.9
3453.328	1431.9
3456.247	1413.9
3459.164	1354.9
3462.079	1308.9
3464.991	1248.9
3467.902	1179.9
3470.809	1153.9
3473.715	1089.9
3476.618	1073.9
3479.519	1030.9
3482.418	1002.9
3485.315	956.9
3488.209	901.9
3491.101	879.9
3493.99	843.9
3496.878	811.9
3499.763	782.9
3502.646	745.9
3505.527	709.9
3508.405	680.9
3511.281	631.9
3514.155	581.9
3517.027	537.9
3519.897	515.9
3522.764	484.9
3525.629	436.9
3528.492	407.9
3531.352	363.9
3534.211	318.9
3537.067	292.9
3539.921	227.9
3542.773	229.9
3545.622	187.9
3548.469	156.9
3551.315	133.9
3554.157	108.9
3556.998	84.9
3559.837	65.9
3562.673	41.9
3565.507	12.9
3568.339	5.9
3571.169	-36.1
3573.996	-45.1
3576.822	-63.1
3579.645	-94.1
3582.466	-114.1
3585.285	-117.1
3588.101	-130.1
3590.916	-163.1
3593.728	-180.1
3596.538	-200.1
3599.346	-208.1
3602.152	-219.1
3604.956	-243.1
3607.757	-259.1
3610.556	-274.1
3613.354	-293.1
3616.149	-294.1
3618.942	-311.1
3621.732	-317.1
3624.521	-332.1
3627.307	-340.1
3630.092	-363.1
3632.874	-365.1
3635.654	-367.1
3638.432	-366.1
3641.208	-390.1
3643.982	-388.1
3646.753	-404.1
3649.523	-412.1
3652.29	-424.1
3655.055	-427.1
3657.818	-439.1
3660.579	-447.1
3663.338	-462.1
3666.095	-479.1
3668.849	-482.1
3671.602	-480.1
3674.352	-492.1
3677.101	-504.1
3679.847	-518.1
3682.591	-501.1
3685.333	-515.1
3688.073	-513.1
3690.811	-524.1
3693.547	-525.1
3696.281	-543.1
3699.013	-540.1
3701.742	-546.1
3704.47	-548.1
3707.195	-562.1
3709.919	-565.1
3712.64	-568.1
3715.359	-574.1
3718.076	-568.1
3720.792	-575.1
3723.505	-575.1
3726.216	-587.1
3728.925	-585.1
3731.632	-598.1
3734.336	-587.1
3737.039	-600.1
3739.74	-601.1
3742.439	-600.1
3745.136	-604.1
3747.83	-601.1
3750.523	-601.1
3753.213	-615.1
3755.902	-606.1
3758.589	-606.1
3761.273	-613.1
3763.956	-614.1
3766.636	-618.1
3769.315	-617.1
3771.991	-619.1
3774.665	-621.1
3777.338	-616.1
3780.008	-624.1
3782.677	-624.1
3785.343	-628.1
3788.007	-616.1
3790.67	-625.1
3793.33	-631.1
3795.989	-630.1
3798.645	-634.1
3801.299	-629.1
3803.952	-638.1
3806.602	-635.1
3809.251	-644.1
3811.897	-634.1
3814.542	-638.1
3817.184	-643.1
3819.825	-644.1
3822.463	-641.1
3825.1	-647.1
3827.735	-649.1
3830.367	-645.1
3832.998	-651.1
3835.627	-654.1
3838.253	-652.1
3840.878	-650.1
3843.501	-647.1
3846.122	-649.1
3848.741	-645.1
3851.358	-645.1
3853.973	-645.1
3856.586	-651.1
3859.197	-650.1
3861.806	-652.1
3864.414	-647.1
3867.019	-650.1
3869.622	-653.1
3872.224	-647.1
3874.823	-638.1
3877.421	-618.1
3880.016	-608.1
3882.61	-577.1
3885.202	-578.1
3887.792	-601.1
3890.38	-627.1
3892.966	-638.1
3895.55	-651.1
3898.132	-650.1
3900.713	-663.1
3903.291	-660.1
3905.868	-664.1
3908.442	-660.1
3911.015	-665.1
3913.586	-664.1
3916.155	-664.1
3918.722	-664.1
3921.287	-660.1
3923.85	-663.1
3926.411	-663.1
3928.971	-669.1
3931.528	-667.1
3934.084	-660.1
3936.638	-665.1
3939.19	-670.1
3941.74	-669.1
3944.288	-672.1
3946.834	-666.1
3949.378	-671.1
3951.921	-670.1
3954.462	-671.1
3957	-666.1
3959.537	-661.1
3962.072	-660.1
3964.606	-663.1
3967.137	-670.1
3969.667	-666.1
3972.194	-664.1
3974.72	-666.1
3977.244	-660.1
3979.766	-653.1
3982.286	-656.1
3984.805	-648.1
3987.321	-651.1
3989.836	-653.1
3992.349	-650.1
3994.86	-647.1
3997.369	-661.1
3999.877	-652.1
4002.382	-650.1
4004.886	-658.1
4007.388	-655.1
4009.888	-654.1
4012.386	-649.1
4014.883	-655.1
4017.377	-653.1
4019.87	-647.1
4022.361	-654.1
4024.85	-654.1
4027.338	-655.1
4029.823	-654.1
4032.307	-654.1
4034.789	-656.1
4037.269	-656.1
4039.747	-659.1
4042.224	-651.1
4044.699	-660.1
4047.172	-658.1
4049.643	-652.1
4052.112	-655.1
4054.58	-655.1
4057.046	-660.1
4059.51	-661.1
4061.972	-661.1
4064.432	-661.1
4066.891	-653.1
4069.348	-660.1
4071.803	-659.1
4074.256	-658.1
4076.708	-654.1
4079.158	-657.1
4081.606	-649.1
4084.052	-650.1
4086.497	-653.1
4088.939	-648.1
4091.38	-642.1
4093.819	-648.1
4096.257	-690.1
4098.693	-693.1
4101.127	-692.1
4103.559	-693.1
4105.989	-413.1
4108.418	-396.1
4110.845	-379.1
4113.27	-345.1
4115.694	-302.1
4118.115	-261.1
4120.535	-652.1
4122.954	-660.1
4125.37	-656.1
4127.785	-658.1
4130.198	-663.1
4132.609	-648.1
4135.019	-694.1
4137.427	-692.1
4139.833	-690.1
4142.237	-691.1
