Data from 2018-2-7_conc=6_RamanShift_10.txt Node
Date: Tue Feb 13 14:33:13 IST 2018
User: aro
Spectrometer: QEPB0276
Trigger mode: 0
Integration Time (sec): 3.000000E1
Scans to average: 1
Electric dark correction enabled: true
Nonlinearity correction enabled: false
Boxcar width: 0
XAxis mode: Raman Shifts
Number of Pixels in Spectrum: 1044
>>>>>Begin Spectral Data<<<<<
160.701	-162.8
166.742	37.2
172.777	603.2
178.805	2313.2
184.826	6356.2
190.841	13113.2
196.849	20855.2
202.85	26112.2
208.845	27776.2
214.833	27478.2
220.815	26996.2
226.789	26580.2
232.758	26638.2
238.719	26465.2
244.674	26092.2
250.623	25589.2
256.565	25087.2
262.5	24542.2
268.429	24093.2
274.351	23747.2
280.267	23407.2
286.176	23100.2
292.079	22895.2
297.975	22669.2
303.865	22468.2
309.748	22324.2
315.625	22149.2
321.495	22027.2
327.359	21987.2
333.217	21911.2
339.068	21909.2
344.912	21892.2
350.751	21912.2
356.583	21864.2
362.408	21827.2
368.227	21813.2
374.04	21853.2
379.847	21908.2
385.647	21957.2
391.44	22033.2
397.228	22186.2
403.009	22227.2
408.784	22270.2
414.553	22362.2
420.315	22392.2
426.071	22457.2
431.821	22404.2
437.565	22404.2
443.302	22377.2
449.033	22313.2
454.758	22299.2
460.477	22210.2
466.189	22132.2
471.896	22143.2
477.596	22054.2
483.29	22019.2
488.978	21977.2
494.66	21902.2
500.335	21765.2
506.005	21581.2
511.668	21241.2
517.325	21049.2
522.977	20866.2
528.622	20695.2
534.261	20522.2
539.894	20443.2
545.521	20337.2
551.141	20300.2
556.756	20170.2
562.365	20169.2
567.968	20071.2
573.565	19988.2
579.155	19936.2
584.74	19787.2
590.319	19750.2
595.892	19638.2
601.459	19640.2
607.02	19532.2
612.575	19381.2
618.124	19285.2
623.667	19153.2
629.204	19073.2
634.735	18903.2
640.261	18879.2
645.781	18821.2
651.294	18766.2
656.802	18818.2
662.304	18749.2
667.8	18723.2
673.29	18626.2
678.775	18625.2
684.254	18563.2
689.726	18528.2
695.193	18420.2
700.655	18276.2
706.11	18287.2
711.56	18123.2
717.004	18033.2
722.442	17965.2
727.874	17905.2
733.301	17809.2
738.722	17767.2
744.137	17696.2
749.547	17749.2
754.951	17718.2
760.349	17756.2
765.741	17738.2
771.128	17760.2
776.509	17741.2
781.885	17760.2
787.254	17707.2
792.618	17623.2
797.977	17524.2
803.33	17405.2
808.677	17267.2
814.019	17239.2
819.355	17115.2
824.686	17024.2
830.011	16956.2
835.33	16966.2
840.644	16939.2
845.952	17049.2
851.255	17121.2
856.552	17039.2
861.844	17038.2
867.13	17006.2
872.41	16907.2
877.686	16808.2
882.955	16700.2
888.219	16489.2
893.478	16355.2
898.731	16168.2
903.979	15956.2
909.221	15823.2
914.458	15783.2
919.69	15776.2
924.916	15809.2
930.136	15907.2
935.351	15893.2
940.561	15914.2
945.766	15850.2
950.965	15752.2
956.158	15661.2
961.347	15466.2
966.529	15303.2
971.707	15122.2
976.879	14917.2
982.046	14774.2
987.208	14720.2
992.364	14742.2
997.515	14816.2
1002.66	14999.2
1007.801	15130.2
1012.936	15293.2
1018.066	15242.2
1023.19	15232.2
1028.309	15148.2
1033.423	15201.2
1038.532	15113.2
1043.636	14940.2
1048.734	14787.2
1053.827	14608.2
1058.915	14369.2
1063.998	14310.2
1069.075	14231.2
1074.147	14341.2
1079.214	14318.2
1084.276	14431.2
1089.333	14528.2
1094.385	14634.2
1099.431	14643.2
1104.472	14603.2
1109.509	14519.2
1114.54	14349.2
1119.565	14132.2
1124.586	13992.2
1129.602	13827.2
1134.613	13752.2
1139.618	13678.2
1144.619	13679.2
1149.614	13617.2
1154.604	13630.2
1159.589	13683.2
1164.57	13694.2
1169.545	13742.2
1174.515	13724.2
1179.48	13626.2
1184.44	13561.2
1189.395	13464.2
1194.345	13359.2
1199.29	13272.2
1204.23	13265.2
1209.165	13329.2
1214.095	13360.2
1219.021	13452.2
1223.941	13568.2
1228.856	13631.2
1233.766	13653.2
1238.672	13697.2
1243.572	13575.2
1248.467	13579.2
1253.358	13363.2
1258.244	13233.2
1263.124	13005.2
1268	12759.2
1272.871	12623.2
1277.737	12528.2
1282.599	12465.2
1287.455	12439.2
1292.306	12465.2
1297.153	12488.2
1301.995	12564.2
1306.832	12607.2
1311.664	12591.2
1316.491	12567.2
1321.314	12456.2
1326.132	12260.2
1330.945	12002.2
1335.753	11696.2
1340.556	11423.2
1345.354	11195.2
1350.148	11043.2
1354.937	10928.2
1359.722	10948.2
1364.501	10950.2
1369.276	11047.2
1374.046	11186.2
1378.811	11292.2
1383.572	11440.2
1388.327	11481.2
1393.079	11425.2
1397.825	11264.2
1402.567	11126.2
1407.304	10978.2
1412.036	10856.2
1416.764	10836.2
1421.487	10757.2
1426.205	10705.2
1430.919	10659.2
1435.628	10627.2
1440.333	10658.2
1445.032	10682.2
1449.727	10725.2
1454.418	10690.2
1459.104	10564.2
1463.785	10400.2
1468.462	10135.2
1473.134	9930.2
1477.802	9731.2
1482.465	9506.2
1487.123	9457.2
1491.777	9466.2
1496.426	9468.2
1501.071	9610.2
1505.711	9692.2
1510.347	9885.2
1514.978	10040.2
1519.604	10117.2
1524.226	10208.2
1528.844	10236.2
1533.457	10206.2
1538.065	10193.2
1542.669	10125.2
1547.269	10030.2
1551.864	9973.2
1556.454	9953.2
1561.041	9930.2
1565.622	9959.2
1570.199	10005.2
1574.772	10029.2
1579.34	10078.2
1583.904	10157.2
1588.464	10209.2
1593.019	10196.2
1597.569	10165.2
1602.115	10120.2
1606.657	10038.2
1611.195	9970.2
1615.728	9977.2
1620.256	9876.2
1624.78	9910.2
1629.3	9896.2
1633.816	9945.2
1638.327	9971.2
1642.834	10019.2
1647.336	10059.2
1651.834	10055.2
1656.328	10027.2
1660.817	9990.2
1665.302	9875.2
1669.783	9680.2
1674.259	9469.2
1678.732	9204.2
1683.199	8861.2
1687.663	8544.2
1692.122	8330.2
1696.577	8185.2
1701.028	8120.2
1705.474	8187.2
1709.917	8227.2
1714.355	8270.2
1718.788	8197.2
1723.218	8067.2
1727.643	7931.2
1732.064	7786.2
1736.481	7618.2
1740.893	7392.2
1745.301	7188.2
1749.705	7002.2
1754.105	6786.2
1758.501	6591.2
1762.893	6439.2
1767.28	6288.2
1771.663	6158.2
1776.042	6029.2
1780.417	6008.2
1784.787	5998.2
1789.154	6072.2
1793.516	6148.2
1797.874	6262.2
1802.228	6320.2
1806.578	6374.2
1810.924	6395.2
1815.266	6329.2
1819.603	6236.2
1823.937	6131.2
1828.266	6058.2
1832.591	5938.2
1836.913	5888.2
1841.23	5810.2
1845.543	5789.2
1849.852	5749.2
1854.156	5727.2
1858.457	5719.2
1862.754	5706.2
1867.047	5671.2
1871.335	5712.2
1875.62	5679.2
1879.9	5645.2
1884.177	5636.2
1888.449	5556.2
1892.718	5545.2
1896.982	5465.2
1901.243	5417.2
1905.499	5383.2
1909.752	5370.2
1914	5358.2
1918.245	5343.2
1922.485	5376.2
1926.722	5437.2
1930.954	5495.2
1935.183	5569.2
1939.408	5588.2
1943.628	5615.2
1947.845	5645.2
1952.058	5605.2
1956.267	5557.2
1960.472	5490.2
1964.673	5423.2
1968.87	5303.2
1973.063	5253.2
1977.252	5175.2
1981.438	5132.2
1985.619	5109.2
1989.797	5054.2
1993.971	4994.2
1998.14	5008.2
2002.306	4998.2
2006.469	4965.2
2010.627	4906.2
2014.781	4874.2
2018.932	4856.2
2023.078	4810.2
2027.221	4747.2
2031.36	4679.2
2035.495	4599.2
2039.627	4556.2
2043.754	4507.2
2047.878	4451.2
2051.998	4437.2
2056.114	4378.2
2060.226	4392.2
2064.334	4410.2
2068.439	4417.2
2072.54	4422.2
2076.637	4462.2
2080.73	4502.2
2084.82	4503.2
2088.906	4490.2
2092.988	4528.2
2097.066	4493.2
2101.14	4471.2
2105.211	4428.2
2109.278	4424.2
2113.342	4396.2
2117.401	4348.2
2121.457	4347.2
2125.509	4335.2
2129.558	4300.2
2133.602	4253.2
2137.643	4235.2
2141.681	4254.2
2145.714	4205.2
2149.744	4166.2
2153.77	4132.2
2157.793	4108.2
2161.812	4038.2
2165.827	3956.2
2169.838	3943.2
2173.846	3867.2
2177.851	3788.2
2181.851	3726.2
2185.848	3712.2
2189.841	3651.2
2193.831	3603.2
2197.817	3597.2
2201.799	3570.2
2205.778	3565.2
2209.753	3525.2
2213.725	3548.2
2217.693	3517.2
2221.657	3510.2
2225.618	3481.2
2229.575	3489.2
2233.529	3461.2
2237.479	3416.2
2241.425	3371.2
2245.368	3331.2
2249.307	3284.2
2253.243	3223.2
2257.175	3199.2
2261.104	3143.2
2265.029	3091.2
2268.95	3091.2
2272.868	3023.2
2276.783	2961.2
2280.694	2961.2
2284.601	2949.2
2288.505	2898.2
2292.405	2886.2
2296.302	2850.2
2300.195	2841.2
2304.085	2794.2
2307.971	2766.2
2311.854	2710.2
2315.734	2662.2
2319.609	2623.2
2323.482	2606.2
2327.351	2567.2
2331.216	2552.2
2335.078	2535.2
2338.937	2523.2
2342.792	2500.2
2346.643	2490.2
2350.492	2498.2
2354.336	2491.2
2358.178	2509.2
2362.015	2489.2
2365.85	2524.2
2369.681	2504.2
2373.508	2515.2
2377.333	2507.2
2381.153	2501.2
2384.971	2498.2
2388.785	2469.2
2392.595	2448.2
2396.402	2411.2
2400.206	2405.2
2404.007	2392.2
2407.804	2382.2
2411.597	2347.2
2415.388	2333.2
2419.174	2328.2
2422.958	2301.2
2426.738	2292.2
2430.515	2248.2
2434.289	2255.2
2438.059	2241.2
2441.825	2236.2
2445.589	2178.2
2449.349	2168.2
2453.106	2124.2
2456.859	2106.2
2460.61	2090.2
2464.356	2033.2
2468.1	2023.2
2471.84	1979.2
2475.577	1996.2
2479.311	1954.2
2483.041	1944.2
2486.768	1949.2
2490.492	1945.2
2494.213	1932.2
2497.93	1938.2
2501.644	1915.2
2505.355	1908.2
2509.062	1906.2
2512.766	1890.2
2516.467	1891.2
2520.165	1859.2
2523.859	1836.2
2527.551	1827.2
2531.239	1838.2
2534.923	1821.2
2538.605	1811.2
2542.283	1775.2
2545.958	1779.2
2549.63	1788.2
2553.299	1774.2
2556.964	1769.2
2560.626	1767.2
2564.285	1768.2
2567.941	1738.2
2571.594	1737.2
2575.243	1742.2
2578.89	1730.2
2582.533	1698.2
2586.173	1703.2
2589.809	1654.2
2593.443	1635.2
2597.073	1630.2
2600.701	1622.2
2604.325	1607.2
2607.946	1613.2
2611.564	1596.2
2615.178	1583.2
2618.79	1558.2
2622.398	1541.2
2626.004	1520.2
2629.606	1514.2
2633.205	1495.2
2636.801	1477.2
2640.394	1456.2
2643.983	1430.2
2647.57	1408.2
2651.153	1392.2
2654.734	1363.2
2658.311	1355.2
2661.885	1324.2
2665.456	1323.2
2669.025	1290.2
2672.589	1276.2
2676.151	1242.2
2679.71	1246.2
2683.266	1215.2
2686.819	1193.2
2690.368	1178.2
2693.915	1149.2
2697.458	1118.2
2700.999	1104.2
2704.536	1067.2
2708.071	1046.2
2711.602	1028.2
2715.13	1005.2
2718.656	989.2
2722.178	955.2
2725.697	934.2
2729.214	928.2
2732.727	932.2
2736.237	922.2
2739.744	912.2
2743.249	923.2
2746.75	959.2
2750.248	943.2
2753.743	939.2
2757.236	961.2
2760.725	964.2
2764.211	970.2
2767.695	969.2
2771.175	988.2
2774.652	955.2
2778.127	953.2
2781.598	940.2
2785.067	952.2
2788.532	960.2
2791.995	945.2
2795.455	936.2
2798.911	949.2
2802.365	945.2
2805.816	954.2
2809.264	934.2
2812.709	937.2
2816.151	933.2
2819.59	949.2
2823.026	939.2
2826.46	932.2
2829.89	949.2
2833.318	966.2
2836.742	942.2
2840.164	979.2
2843.583	988.2
2846.999	981.2
2850.412	1006.2
2853.822	1011.2
2857.229	1020.2
2860.634	1030.2
2864.035	1063.2
2867.434	1082.2
2870.83	1094.2
2874.223	1124.2
2877.613	1149.2
2881	1163.2
2884.385	1196.2
2887.766	1150.2
2891.145	1175.2
2894.521	1168.2
2897.894	1156.2
2901.264	1171.2
2904.631	1163.2
2907.996	1158.2
2911.358	1178.2
2914.717	1186.2
2918.073	1201.2
2921.426	1231.2
2924.777	1248.2
2928.124	1259.2
2931.469	1271.2
2934.811	1300.2
2938.15	1331.2
2941.487	1336.2
2944.821	1347.2
2948.152	1339.2
2951.48	1320.2
2954.805	1316.2
2958.128	1309.2
2961.447	1297.2
2964.765	1280.2
2968.079	1302.2
2971.39	1309.2
2974.699	1339.2
2978.005	1346.2
2981.308	1355.2
2984.609	1391.2
2987.907	1434.2
2991.202	1443.2
2994.494	1462.2
2997.784	1503.2
3001.07	1526.2
3004.355	1554.2
3007.636	1565.2
3010.915	1568.2
3014.191	1622.2
3017.464	1618.2
3020.734	1642.2
3024.002	1657.2
3027.267	1664.2
3030.53	1683.2
3033.789	1707.2
3037.046	1722.2
3040.301	1758.2
3043.552	1796.2
3046.801	1812.2
3050.048	1875.2
3053.291	1924.2
3056.532	1968.2
3059.771	2035.2
3063.006	2113.2
3066.239	2180.2
3069.469	2221.2
3072.697	2275.2
3075.922	2331.2
3079.144	2420.2
3082.364	2479.2
3085.581	2492.2
3088.795	2583.2
3092.007	2632.2
3095.216	2683.2
3098.423	2746.2
3101.627	2819.2
3104.828	2852.2
3108.026	2935.2
3111.222	3007.2
3114.416	3055.2
3117.607	3119.2
3120.795	3202.2
3123.98	3297.2
3127.163	3349.2
3130.344	3432.2
3133.521	3520.2
3136.696	3614.2
3139.869	3671.2
3143.039	3757.2
3146.206	3811.2
3149.371	3844.2
3152.533	3887.2
3155.693	3903.2
3158.85	3921.2
3162.005	3975.2
3165.157	3973.2
3168.306	3976.2
3171.453	4030.2
3174.597	3977.2
3177.739	3999.2
3180.878	4013.2
3184.014	4015.2
3187.149	4011.2
3190.28	4028.2
3193.409	4046.2
3196.536	4042.2
3199.659	4060.2
3202.781	4053.2
3205.9	4040.2
3209.016	4022.2
3212.13	4009.2
3215.241	4003.2
3218.35	3964.2
3221.456	3936.2
3224.56	3868.2
3227.661	3832.2
3230.76	3799.2
3233.856	3763.2
3236.95	3724.2
3240.041	3681.2
3243.13	3666.2
3246.216	3623.2
3249.3	3615.2
3252.382	3586.2
3255.46	3583.2
3258.537	3562.2
3261.611	3566.2
3264.682	3564.2
3267.751	3588.2
3270.818	3557.2
3273.882	3530.2
3276.943	3520.2
3280.002	3490.2
3283.059	3472.2
3286.113	3432.2
3289.165	3375.2
3292.214	3327.2
3295.261	3263.2
3298.306	3188.2
3301.348	3144.2
3304.387	3128.2
3307.425	3056.2
3310.459	3046.2
3313.492	2978.2
3316.521	2947.2
3319.549	2919.2
3322.574	2880.2
3325.597	2872.2
3328.617	2825.2
3331.635	2828.2
3334.65	2817.2
3337.663	2788.2
3340.674	2766.2
3343.682	2766.2
3346.688	2774.2
3349.691	2754.2
3352.692	2733.2
3355.691	2720.2
3358.687	2674.2
3361.681	2641.2
3364.673	2611.2
3367.662	2601.2
3370.649	2569.2
3373.633	2508.2
3376.615	2485.2
3379.595	2438.2
3382.572	2410.2
3385.547	2360.2
3388.52	2330.2
3391.49	2289.2
3394.458	2262.2
3397.424	2205.2
3400.387	2202.2
3403.348	2149.2
3406.307	2156.2
3409.263	2116.2
3412.217	2099.2
3415.168	2089.2
3418.118	2053.2
3421.065	2022.2
3424.009	1988.2
3426.951	1944.2
3429.891	1926.2
3432.829	1893.2
3435.764	1827.2
3438.697	1792.2
3441.628	1748.2
3444.557	1691.2
3447.483	1634.2
3450.407	1598.2
3453.328	1515.2
3456.247	1461.2
3459.164	1433.2
3462.079	1377.2
3464.991	1325.2
3467.902	1243.2
3470.809	1215.2
3473.715	1182.2
3476.618	1144.2
3479.519	1097.2
3482.418	1061.2
3485.315	999.2
3488.209	980.2
3491.101	937.2
3493.99	912.2
3496.878	881.2
3499.763	841.2
3502.646	806.2
3505.527	766.2
3508.405	731.2
3511.281	698.2
3514.155	642.2
3517.027	615.2
3519.897	551.2
3522.764	517.2
3525.629	482.2
3528.492	433.2
3531.352	392.2
3534.211	343.2
3537.067	318.2
3539.921	298.2
3542.773	254.2
3545.622	225.2
3548.469	192.2
3551.315	152.2
3554.157	126.2
3556.998	100.2
3559.837	99.2
3562.673	52.2
3565.507	30.2
3568.339	20.2
3571.169	-2.8
3573.996	-22.8
3576.822	-48.8
3579.645	-59.8
3582.466	-93.8
3585.285	-113.8
3588.101	-116.8
3590.916	-145.8
3593.728	-166.8
3596.538	-189.8
3599.346	-201.8
3602.152	-221.8
3604.956	-248.8
3607.757	-251.8
3610.556	-257.8
3613.354	-281.8
3616.149	-289.8
3618.942	-306.8
3621.732	-314.8
3624.521	-333.8
3627.307	-344.8
3630.092	-350.8
3632.874	-360.8
3635.654	-378.8
3638.432	-376.8
3641.208	-373.8
3643.982	-393.8
3646.753	-395.8
3649.523	-404.8
3652.29	-419.8
3655.055	-420.8
3657.818	-436.8
3660.579	-444.8
3663.338	-448.8
3666.095	-471.8
3668.849	-481.8
3671.602	-491.8
3674.352	-487.8
3677.101	-502.8
3679.847	-511.8
3682.591	-517.8
3685.333	-520.8
3688.073	-524.8
3690.811	-531.8
3693.547	-532.8
3696.281	-551.8
3699.013	-546.8
3701.742	-556.8
3704.47	-556.8
3707.195	-566.8
3709.919	-563.8
3712.64	-571.8
3715.359	-571.8
3718.076	-572.8
3720.792	-579.8
3723.505	-581.8
3726.216	-585.8
3728.925	-588.8
3731.632	-601.8
3734.336	-598.8
3737.039	-608.8
3739.74	-606.8
3742.439	-606.8
3745.136	-613.8
3747.83	-614.8
3750.523	-611.8
3753.213	-620.8
3755.902	-621.8
3758.589	-609.8
3761.273	-623.8
3763.956	-627.8
3766.636	-621.8
3769.315	-623.8
3771.991	-629.8
3774.665	-635.8
3777.338	-627.8
3780.008	-624.8
3782.677	-629.8
3785.343	-631.8
3788.007	-629.8
3790.67	-626.8
3793.33	-637.8
3795.989	-637.8
3798.645	-641.8
3801.299	-644.8
3803.952	-643.8
3806.602	-645.8
3809.251	-645.8
3811.897	-638.8
3814.542	-641.8
3817.184	-645.8
3819.825	-650.8
3822.463	-644.8
3825.1	-646.8
3827.735	-655.8
3830.367	-654.8
3832.998	-659.8
3835.627	-658.8
3838.253	-659.8
3840.878	-651.8
3843.501	-657.8
3846.122	-651.8
3848.741	-658.8
3851.358	-657.8
3853.973	-655.8
3856.586	-652.8
3859.197	-657.8
3861.806	-656.8
3864.414	-648.8
3867.019	-649.8
3869.622	-652.8
3872.224	-653.8
3874.823	-633.8
3877.421	-615.8
3880.016	-597.8
3882.61	-560.8
3885.202	-560.8
3887.792	-591.8
3890.38	-622.8
3892.966	-637.8
3895.55	-651.8
3898.132	-662.8
3900.713	-664.8
3903.291	-664.8
3905.868	-668.8
3908.442	-667.8
3911.015	-668.8
3913.586	-667.8
3916.155	-664.8
3918.722	-667.8
3921.287	-675.8
3923.85	-673.8
3926.411	-666.8
3928.971	-672.8
3931.528	-668.8
3934.084	-668.8
3936.638	-667.8
3939.19	-672.8
3941.74	-672.8
3944.288	-671.8
3946.834	-671.8
3949.378	-674.8
3951.921	-673.8
3954.462	-675.8
3957	-670.8
3959.537	-666.8
3962.072	-666.8
3964.606	-670.8
3967.137	-671.8
3969.667	-670.8
3972.194	-666.8
3974.72	-667.8
3977.244	-666.8
3979.766	-665.8
3982.286	-658.8
3984.805	-651.8
3987.321	-653.8
3989.836	-657.8
3992.349	-654.8
3994.86	-655.8
3997.369	-664.8
3999.877	-655.8
4002.382	-655.8
4004.886	-656.8
4007.388	-659.8
4009.888	-653.8
4012.386	-659.8
4014.883	-653.8
4017.377	-654.8
4019.87	-654.8
4022.361	-658.8
4024.85	-660.8
4027.338	-661.8
4029.823	-657.8
4032.307	-663.8
4034.789	-666.8
4037.269	-678.8
4039.747	-670.8
4042.224	-661.8
4044.699	-661.8
4047.172	-661.8
4049.643	-655.8
4052.112	-656.8
4054.58	-658.8
4057.046	-666.8
4059.51	-661.8
4061.972	-667.8
4064.432	-667.8
4066.891	-655.8
4069.348	-663.8
4071.803	-660.8
4074.256	-659.8
4076.708	-660.8
4079.158	-660.8
4081.606	-656.8
4084.052	-657.8
4086.497	-661.8
4088.939	-657.8
4091.38	-650.8
4093.819	-656.8
4096.257	-696.8
4098.693	-695.8
4101.127	-695.8
4103.559	-695.8
4105.989	-413.8
4108.418	-390.8
4110.845	-373.8
4113.27	-339.8
4115.694	-296.8
4118.115	-247.8
4120.535	-658.8
4122.954	-660.8
4125.37	-662.8
4127.785	-662.8
4130.198	-661.8
4132.609	-656.8
4135.019	-697.8
4137.427	-697.8
4139.833	-699.8
4142.237	-695.8
