Data from 2018-2-7_conc=0_RamanShift_07.txt Node
Date: Tue Feb 13 11:15:44 IST 2018
User: aro
Spectrometer: QEPB0276
Trigger mode: 0
Integration Time (sec): 3.000000E1
Scans to average: 1
Electric dark correction enabled: true
Nonlinearity correction enabled: false
Boxcar width: 0
XAxis mode: Raman Shifts
Number of Pixels in Spectrum: 1044
>>>>>Begin Spectral Data<<<<<
160.701	-163.9
166.742	27.1
172.777	588.1
178.805	2243.1
184.826	6103.1
190.841	12507.1
196.849	19607.1
202.85	24463.1
208.845	25948.1
214.833	25643.1
220.815	25094.1
226.789	24949.1
232.758	24818.1
238.719	24597.1
244.674	24212.1
250.623	23715.1
256.565	23154.1
262.5	22659.1
268.429	22178.1
274.351	21848.1
280.267	21492.1
286.176	21199.1
292.079	21032.1
297.975	20770.1
303.865	20611.1
309.748	20392.1
315.625	20233.1
321.495	20136.1
327.359	20010.1
333.217	20050.1
339.068	20050.1
344.912	19967.1
350.751	19914.1
356.583	19907.1
362.408	19880.1
368.227	19959.1
374.04	19937.1
379.847	19966.1
385.647	20100.1
391.44	20134.1
397.228	20268.1
403.009	20293.1
408.784	20328.1
414.553	20478.1
420.315	20490.1
426.071	20538.1
431.821	20498.1
437.565	20484.1
443.302	20472.1
449.033	20396.1
454.758	20357.1
460.477	20321.1
466.189	20264.1
471.896	20205.1
477.596	20148.1
483.29	20132.1
488.978	20036.1
494.66	19990.1
500.335	19893.1
506.005	19671.1
511.668	19421.1
517.325	19235.1
522.977	19030.1
528.622	18882.1
534.261	18771.1
539.894	18721.1
545.521	18611.1
551.141	18535.1
556.756	18535.1
562.365	18415.1
567.968	18367.1
573.565	18291.1
579.155	18199.1
584.74	18093.1
590.319	18043.1
595.892	17975.1
601.459	17914.1
607.02	17813.1
612.575	17775.1
618.124	17623.1
623.667	17568.1
629.204	17468.1
634.735	17373.1
640.261	17324.1
645.781	17255.1
651.294	17194.1
656.802	17165.1
662.304	17128.1
667.8	17100.1
673.29	17140.1
678.775	17033.1
684.254	16959.1
689.726	16896.1
695.193	16912.1
700.655	16769.1
706.11	16771.1
711.56	16672.1
717.004	16536.1
722.442	16523.1
727.874	16452.1
733.301	16289.1
738.722	16362.1
744.137	16280.1
749.547	16289.1
754.951	16291.1
760.349	16278.1
765.741	16365.1
771.128	16313.1
776.509	16305.1
781.885	16322.1
787.254	16270.1
792.618	16162.1
797.977	16106.1
803.33	15948.1
808.677	15889.1
814.019	15810.1
819.355	15743.1
824.686	15691.1
830.011	15643.1
835.33	15638.1
840.644	15688.1
845.952	15698.1
851.255	15715.1
856.552	15721.1
861.844	15714.1
867.13	15727.1
872.41	15615.1
877.686	15519.1
882.955	15420.1
888.219	15281.1
893.478	15047.1
898.731	14916.1
903.979	14851.1
909.221	14613.1
914.458	14581.1
919.69	14607.1
924.916	14661.1
930.136	14686.1
935.351	14660.1
940.561	14656.1
945.766	14632.1
950.965	14576.1
956.158	14445.1
961.347	14321.1
966.529	14165.1
971.707	13973.1
976.879	13792.1
982.046	13688.1
987.208	13636.1
992.364	13656.1
997.515	13695.1
1002.66	13848.1
1007.801	14015.1
1012.936	14135.1
1018.066	14157.1
1023.19	14057.1
1028.309	14162.1
1033.423	14074.1
1038.532	13984.1
1043.636	13901.1
1048.734	13725.1
1053.827	13537.1
1058.915	13461.1
1063.998	13337.1
1069.075	13276.1
1074.147	13302.1
1079.214	13364.1
1084.276	13381.1
1089.333	13463.1
1094.385	13587.1
1099.431	13622.1
1104.472	13578.1
1109.509	13461.1
1114.54	13355.1
1119.565	13167.1
1124.586	13044.1
1129.602	12919.1
1134.613	12808.1
1139.618	12781.1
1144.619	12718.1
1149.614	12737.1
1154.604	12719.1
1159.589	12817.1
1164.57	12750.1
1169.545	12827.1
1174.515	12784.1
1179.48	12726.1
1184.44	12663.1
1189.395	12558.1
1194.345	12446.1
1199.29	12442.1
1204.23	12421.1
1209.165	12411.1
1214.095	12545.1
1219.021	12622.1
1223.941	12687.1
1228.856	12698.1
1233.766	12778.1
1238.672	12791.1
1243.572	12784.1
1248.467	12661.1
1253.358	12522.1
1258.244	12354.1
1263.124	12197.1
1268	12020.1
1272.871	11797.1
1277.737	11736.1
1282.599	11692.1
1287.455	11724.1
1292.306	11748.1
1297.153	11719.1
1301.995	11836.1
1306.832	11874.1
1311.664	11850.1
1316.491	11838.1
1321.314	11732.1
1326.132	11551.1
1330.945	11315.1
1335.753	11032.1
1340.556	10723.1
1345.354	10521.1
1350.148	10402.1
1354.937	10283.1
1359.722	10339.1
1364.501	10341.1
1369.276	10458.1
1374.046	10598.1
1378.811	10737.1
1383.572	10875.1
1388.327	10894.1
1393.079	10849.1
1397.825	10709.1
1402.567	10533.1
1407.304	10412.1
1412.036	10309.1
1416.764	10304.1
1421.487	10235.1
1426.205	10090.1
1430.919	10089.1
1435.628	10107.1
1440.333	10112.1
1445.032	10123.1
1449.727	10205.1
1454.418	10174.1
1459.104	10056.1
1463.785	9874.1
1468.462	9650.1
1473.134	9388.1
1477.802	9246.1
1482.465	9114.1
1487.123	9011.1
1491.777	9013.1
1496.426	9049.1
1501.071	9101.1
1505.711	9281.1
1510.347	9445.1
1514.978	9601.1
1519.604	9722.1
1524.226	9800.1
1528.844	9843.1
1533.457	9780.1
1538.065	9731.1
1542.669	9718.1
1547.269	9598.1
1551.864	9577.1
1556.454	9566.1
1561.041	9565.1
1565.622	9493.1
1570.199	9564.1
1574.772	9602.1
1579.34	9695.1
1583.904	9702.1
1588.464	9751.1
1593.019	9750.1
1597.569	9764.1
1602.115	9695.1
1606.657	9662.1
1611.195	9581.1
1615.728	9505.1
1620.256	9473.1
1624.78	9477.1
1629.3	9527.1
1633.816	9538.1
1638.327	9567.1
1642.834	9608.1
1647.336	9657.1
1651.834	9721.1
1656.328	9680.1
1660.817	9588.1
1665.302	9511.1
1669.783	9348.1
1674.259	9098.1
1678.732	8853.1
1683.199	8554.1
1687.663	8231.1
1692.122	8029.1
1696.577	7859.1
1701.028	7806.1
1705.474	7879.1
1709.917	7975.1
1714.355	8006.1
1718.788	7909.1
1723.218	7785.1
1727.643	7663.1
1732.064	7501.1
1736.481	7356.1
1740.893	7171.1
1745.301	6970.1
1749.705	6821.1
1754.105	6568.1
1758.501	6390.1
1762.893	6212.1
1767.28	6084.1
1771.663	5927.1
1776.042	5840.1
1780.417	5801.1
1784.787	5795.1
1789.154	5821.1
1793.516	5957.1
1797.874	6083.1
1802.228	6170.1
1806.578	6184.1
1810.924	6196.1
1815.266	6155.1
1819.603	6069.1
1823.937	5967.1
1828.266	5873.1
1832.591	5782.1
1836.913	5701.1
1841.23	5684.1
1845.543	5609.1
1849.852	5595.1
1854.156	5576.1
1858.457	5560.1
1862.754	5564.1
1867.047	5561.1
1871.335	5546.1
1875.62	5548.1
1879.9	5464.1
1884.177	5456.1
1888.449	5438.1
1892.718	5349.1
1896.982	5313.1
1901.243	5255.1
1905.499	5230.1
1909.752	5198.1
1914	5197.1
1918.245	5245.1
1922.485	5285.1
1926.722	5300.1
1930.954	5336.1
1935.183	5439.1
1939.408	5490.1
1943.628	5502.1
1947.845	5486.1
1952.058	5459.1
1956.267	5469.1
1960.472	5356.1
1964.673	5273.1
1968.87	5256.1
1973.063	5149.1
1977.252	5056.1
1981.438	5048.1
1985.619	4976.1
1989.797	4948.1
1993.971	4892.1
1998.14	4887.1
2002.306	4880.1
2006.469	4870.1
2010.627	4805.1
2014.781	4773.1
2018.932	4784.1
2023.078	4681.1
2027.221	4665.1
2031.36	4561.1
2035.495	4530.1
2039.627	4459.1
2043.754	4401.1
2047.878	4358.1
2051.998	4332.1
2056.114	4310.1
2060.226	4308.1
2064.334	4322.1
2068.439	4334.1
2072.54	4333.1
2076.637	4372.1
2080.73	4416.1
2084.82	4426.1
2088.906	4421.1
2092.988	4448.1
2097.066	4436.1
2101.14	4393.1
2105.211	4341.1
2109.278	4365.1
2113.342	4326.1
2117.401	4323.1
2121.457	4299.1
2125.509	4272.1
2129.558	4249.1
2133.602	4204.1
2137.643	4199.1
2141.681	4188.1
2145.714	4182.1
2149.744	4110.1
2153.77	4077.1
2157.793	4075.1
2161.812	4029.1
2165.827	3936.1
2169.838	3903.1
2173.846	3816.1
2177.851	3777.1
2181.851	3733.1
2185.848	3657.1
2189.841	3634.1
2193.831	3577.1
2197.817	3568.1
2201.799	3523.1
2205.778	3519.1
2209.753	3534.1
2213.725	3487.1
2217.693	3482.1
2221.657	3453.1
2225.618	3436.1
2229.575	3463.1
2233.529	3411.1
2237.479	3390.1
2241.425	3339.1
2245.368	3296.1
2249.307	3247.1
2253.243	3191.1
2257.175	3164.1
2261.104	3123.1
2265.029	3083.1
2268.95	3047.1
2272.868	3015.1
2276.783	2995.1
2280.694	2943.1
2284.601	2930.1
2288.505	2890.1
2292.405	2875.1
2296.302	2880.1
2300.195	2818.1
2304.085	2768.1
2307.971	2734.1
2311.854	2684.1
2315.734	2641.1
2319.609	2609.1
2323.482	2558.1
2327.351	2555.1
2331.216	2533.1
2335.078	2544.1
2338.937	2530.1
2342.792	2506.1
2346.643	2487.1
2350.492	2490.1
2354.336	2482.1
2358.178	2510.1
2362.015	2505.1
2365.85	2503.1
2369.681	2528.1
2373.508	2512.1
2377.333	2493.1
2381.153	2509.1
2384.971	2496.1
2388.785	2463.1
2392.595	2459.1
2396.402	2432.1
2400.206	2400.1
2404.007	2375.1
2407.804	2379.1
2411.597	2343.1
2415.388	2343.1
2419.174	2323.1
2422.958	2293.1
2426.738	2307.1
2430.515	2264.1
2434.289	2267.1
2438.059	2237.1
2441.825	2222.1
2445.589	2176.1
2449.349	2169.1
2453.106	2138.1
2456.859	2100.1
2460.61	2103.1
2464.356	2068.1
2468.1	2044.1
2471.84	2007.1
2475.577	1983.1
2479.311	1975.1
2483.041	1960.1
2486.768	1983.1
2490.492	1968.1
2494.213	1966.1
2497.93	1939.1
2501.644	1946.1
2505.355	1945.1
2509.062	1915.1
2512.766	1935.1
2516.467	1891.1
2520.165	1879.1
2523.859	1855.1
2527.551	1863.1
2531.239	1837.1
2534.923	1819.1
2538.605	1818.1
2542.283	1807.1
2545.958	1814.1
2549.63	1815.1
2553.299	1789.1
2556.964	1807.1
2560.626	1783.1
2564.285	1794.1
2567.941	1773.1
2571.594	1746.1
2575.243	1773.1
2578.89	1752.1
2582.533	1723.1
2586.173	1712.1
2589.809	1696.1
2593.443	1680.1
2597.073	1657.1
2600.701	1651.1
2604.325	1634.1
2607.946	1620.1
2611.564	1618.1
2615.178	1611.1
2618.79	1591.1
2622.398	1582.1
2626.004	1553.1
2629.606	1546.1
2633.205	1528.1
2636.801	1496.1
2640.394	1466.1
2643.983	1444.1
2647.57	1413.1
2651.153	1415.1
2654.734	1407.1
2658.311	1391.1
2661.885	1377.1
2665.456	1326.1
2669.025	1333.1
2672.589	1316.1
2676.151	1281.1
2679.71	1282.1
2683.266	1258.1
2686.819	1229.1
2690.368	1199.1
2693.915	1186.1
2697.458	1152.1
2700.999	1137.1
2704.536	1112.1
2708.071	1073.1
2711.602	1057.1
2715.13	1034.1
2718.656	1009.1
2722.178	1001.1
2725.697	991.1
2729.214	961.1
2732.727	949.1
2736.237	945.1
2739.744	963.1
2743.249	950.1
2746.75	966.1
2750.248	950.1
2753.743	971.1
2757.236	995.1
2760.725	1000.1
2764.211	1010.1
2767.695	1003.1
2771.175	996.1
2774.652	997.1
2778.127	997.1
2781.598	988.1
2785.067	990.1
2788.532	995.1
2791.995	967.1
2795.455	975.1
2798.911	975.1
2802.365	986.1
2805.816	984.1
2809.264	963.1
2812.709	993.1
2816.151	977.1
2819.59	972.1
2823.026	967.1
2826.46	970.1
2829.89	984.1
2833.318	979.1
2836.742	982.1
2840.164	1003.1
2843.583	994.1
2846.999	1019.1
2850.412	1020.1
2853.822	1045.1
2857.229	1067.1
2860.634	1081.1
2864.035	1102.1
2867.434	1110.1
2870.83	1127.1
2874.223	1147.1
2877.613	1175.1
2881	1205.1
2884.385	1225.1
2887.766	1199.1
2891.145	1182.1
2894.521	1191.1
2897.894	1202.1
2901.264	1210.1
2904.631	1213.1
2907.996	1181.1
2911.358	1214.1
2914.717	1224.1
2918.073	1249.1
2921.426	1257.1
2924.777	1258.1
2928.124	1296.1
2931.469	1298.1
2934.811	1347.1
2938.15	1331.1
2941.487	1363.1
2944.821	1365.1
2948.152	1353.1
2951.48	1354.1
2954.805	1326.1
2958.128	1322.1
2961.447	1320.1
2964.765	1318.1
2968.079	1305.1
2971.39	1322.1
2974.699	1362.1
2978.005	1362.1
2981.308	1388.1
2984.609	1403.1
2987.907	1428.1
2991.202	1457.1
2994.494	1471.1
2997.784	1499.1
3001.07	1555.1
3004.355	1581.1
3007.636	1589.1
3010.915	1614.1
3014.191	1621.1
3017.464	1654.1
3020.734	1659.1
3024.002	1664.1
3027.267	1669.1
3030.53	1692.1
3033.789	1714.1
3037.046	1724.1
3040.301	1774.1
3043.552	1801.1
3046.801	1826.1
3050.048	1868.1
3053.291	1921.1
3056.532	1975.1
3059.771	2027.1
3063.006	2095.1
3066.239	2142.1
3069.469	2219.1
3072.697	2288.1
3075.922	2365.1
3079.144	2404.1
3082.364	2467.1
3085.581	2497.1
3088.795	2549.1
3092.007	2631.1
3095.216	2649.1
3098.423	2714.1
3101.627	2780.1
3104.828	2855.1
3108.026	2903.1
3111.222	2983.1
3114.416	3045.1
3117.607	3141.1
3120.795	3176.1
3123.98	3259.1
3127.163	3352.1
3130.344	3437.1
3133.521	3486.1
3136.696	3562.1
3139.869	3638.1
3143.039	3696.1
3146.206	3744.1
3149.371	3817.1
3152.533	3825.1
3155.693	3862.1
3158.85	3890.1
3162.005	3910.1
3165.157	3935.1
3168.306	3954.1
3171.453	3951.1
3174.597	3961.1
3177.739	3953.1
3180.878	3958.1
3184.014	3957.1
3187.149	3973.1
3190.28	3978.1
3193.409	3999.1
3196.536	3984.1
3199.659	3977.1
3202.781	4014.1
3205.9	3992.1
3209.016	3983.1
3212.13	3979.1
3215.241	3924.1
3218.35	3888.1
3221.456	3872.1
3224.56	3780.1
3227.661	3770.1
3230.76	3724.1
3233.856	3707.1
3236.95	3644.1
3240.041	3594.1
3243.13	3577.1
3246.216	3577.1
3249.3	3546.1
3252.382	3506.1
3255.46	3522.1
3258.537	3517.1
3261.611	3497.1
3264.682	3493.1
3267.751	3512.1
3270.818	3492.1
3273.882	3440.1
3276.943	3452.1
3280.002	3433.1
3283.059	3376.1
3286.113	3338.1
3289.165	3313.1
3292.214	3241.1
3295.261	3211.1
3298.306	3140.1
3301.348	3107.1
3304.387	3063.1
3307.425	2987.1
3310.459	2982.1
3313.492	2939.1
3316.521	2883.1
3319.549	2868.1
3322.574	2821.1
3325.597	2792.1
3328.617	2789.1
3331.635	2746.1
3334.65	2758.1
3337.663	2713.1
3340.674	2745.1
3343.682	2729.1
3346.688	2695.1
3349.691	2681.1
3352.692	2659.1
3355.691	2662.1
3358.687	2630.1
3361.681	2592.1
3364.673	2562.1
3367.662	2544.1
3370.649	2479.1
3373.633	2443.1
3376.615	2413.1
3379.595	2361.1
3382.572	2360.1
3385.547	2309.1
3388.52	2296.1
3391.49	2272.1
3394.458	2209.1
3397.424	2164.1
3400.387	2122.1
3403.348	2125.1
3406.307	2085.1
3409.263	2064.1
3412.217	2048.1
3415.168	2026.1
3418.118	2008.1
3421.065	1965.1
3424.009	1932.1
3426.951	1890.1
3429.891	1875.1
3432.829	1825.1
3435.764	1779.1
3438.697	1753.1
3441.628	1673.1
3444.557	1615.1
3447.483	1581.1
3450.407	1531.1
3453.328	1478.1
3456.247	1425.1
3459.164	1391.1
3462.079	1343.1
3464.991	1278.1
3467.902	1241.1
3470.809	1186.1
3473.715	1128.1
3476.618	1113.1
3479.519	1057.1
3482.418	1037.1
3485.315	999.1
3488.209	941.1
3491.101	917.1
3493.99	898.1
3496.878	832.1
3499.763	808.1
3502.646	773.1
3505.527	743.1
3508.405	708.1
3511.281	665.1
3514.155	626.1
3517.027	593.1
3519.897	538.1
3522.764	511.1
3525.629	466.1
3528.492	417.1
3531.352	375.1
3534.211	335.1
3537.067	301.1
3539.921	268.1
3542.773	254.1
3545.622	211.1
3548.469	168.1
3551.315	161.1
3554.157	140.1
3556.998	100.1
3559.837	89.1
3562.673	60.1
3565.507	35.1
3568.339	24.1
3571.169	-8.9
3573.996	-31.9
3576.822	-52.9
3579.645	-67.9
3582.466	-90.9
3585.285	-102.9
3588.101	-110.9
3590.916	-140.9
3593.728	-166.9
3596.538	-175.9
3599.346	-195.9
3602.152	-208.9
3604.956	-224.9
3607.757	-242.9
3610.556	-248.9
3613.354	-274.9
3616.149	-278.9
3618.942	-290.9
3621.732	-298.9
3624.521	-319.9
3627.307	-330.9
3630.092	-333.9
3632.874	-348.9
3635.654	-358.9
3638.432	-362.9
3641.208	-366.9
3643.982	-380.9
3646.753	-377.9
3649.523	-395.9
3652.29	-407.9
3655.055	-414.9
3657.818	-422.9
3660.579	-434.9
3663.338	-437.9
3666.095	-454.9
3668.849	-464.9
3671.602	-468.9
3674.352	-475.9
3677.101	-482.9
3679.847	-492.9
3682.591	-491.9
3685.333	-498.9
3688.073	-507.9
3690.811	-507.9
3693.547	-511.9
3696.281	-523.9
3699.013	-531.9
3701.742	-533.9
3704.47	-535.9
3707.195	-547.9
3709.919	-548.9
3712.64	-554.9
3715.359	-554.9
3718.076	-558.9
3720.792	-563.9
3723.505	-564.9
3726.216	-561.9
3728.925	-566.9
3731.632	-580.9
3734.336	-581.9
3737.039	-583.9
3739.74	-576.9
3742.439	-587.9
3745.136	-583.9
3747.83	-592.9
3750.523	-586.9
3753.213	-584.9
3755.902	-597.9
3758.589	-592.9
3761.273	-591.9
3763.956	-601.9
3766.636	-595.9
3769.315	-599.9
3771.991	-597.9
3774.665	-600.9
3777.338	-609.9
3780.008	-602.9
3782.677	-611.9
3785.343	-611.9
3788.007	-607.9
3790.67	-619.9
3793.33	-616.9
3795.989	-618.9
3798.645	-617.9
3801.299	-621.9
3803.952	-617.9
3806.602	-616.9
3809.251	-618.9
3811.897	-620.9
3814.542	-616.9
3817.184	-624.9
3819.825	-623.9
3822.463	-620.9
3825.1	-627.9
3827.735	-631.9
3830.367	-630.9
3832.998	-630.9
3835.627	-634.9
3838.253	-632.9
3840.878	-628.9
3843.501	-633.9
3846.122	-626.9
3848.741	-633.9
3851.358	-635.9
3853.973	-628.9
3856.586	-627.9
3859.197	-635.9
3861.806	-637.9
3864.414	-628.9
3867.019	-635.9
3869.622	-631.9
3872.224	-627.9
3874.823	-617.9
3877.421	-593.9
3880.016	-580.9
3882.61	-550.9
3885.202	-553.9
3887.792	-570.9
3890.38	-595.9
3892.966	-621.9
3895.55	-629.9
3898.132	-640.9
3900.713	-646.9
3903.291	-642.9
3905.868	-644.9
3908.442	-643.9
3911.015	-642.9
3913.586	-644.9
3916.155	-641.9
3918.722	-645.9
3921.287	-646.9
3923.85	-648.9
3926.411	-641.9
3928.971	-643.9
3931.528	-653.9
3934.084	-641.9
3936.638	-646.9
3939.19	-653.9
3941.74	-653.9
3944.288	-651.9
3946.834	-650.9
3949.378	-649.9
3951.921	-650.9
3954.462	-645.9
3957	-645.9
3959.537	-642.9
3962.072	-644.9
3964.606	-640.9
3967.137	-650.9
3969.667	-640.9
3972.194	-645.9
3974.72	-637.9
3977.244	-639.9
3979.766	-638.9
3982.286	-638.9
3984.805	-626.9
3987.321	-632.9
3989.836	-629.9
3992.349	-629.9
3994.86	-634.9
3997.369	-637.9
3999.877	-635.9
4002.382	-630.9
4004.886	-644.9
4007.388	-638.9
4009.888	-633.9
4012.386	-636.9
4014.883	-633.9
4017.377	-629.9
4019.87	-632.9
4022.361	-637.9
4024.85	-634.9
4027.338	-634.9
4029.823	-637.9
4032.307	-641.9
4034.789	-642.9
4037.269	-645.9
4039.747	-643.9
4042.224	-633.9
4044.699	-640.9
4047.172	-639.9
4049.643	-639.9
4052.112	-634.9
4054.58	-631.9
4057.046	-638.9
4059.51	-638.9
4061.972	-644.9
4064.432	-637.9
4066.891	-637.9
4069.348	-640.9
4071.803	-641.9
4074.256	-638.9
4076.708	-639.9
4079.158	-638.9
4081.606	-634.9
4084.052	-639.9
4086.497	-633.9
4088.939	-633.9
4091.38	-634.9
4093.819	-632.9
4096.257	-667.9
4098.693	-672.9
4101.127	-667.9
4103.559	-674.9
4105.989	-394.9
4108.418	-378.9
4110.845	-357.9
4113.27	-345.9
4115.694	-295.9
4118.115	-250.9
4120.535	-634.9
4122.954	-640.9
4125.37	-634.9
4127.785	-638.9
4130.198	-641.9
4132.609	-631.9
4135.019	-676.9
4137.427	-674.9
4139.833	-671.9
4142.237	-670.9
