Data from 2018-2-7_conc=3_RamanShift_08.txt Node
Date: Tue Feb 13 12:24:14 IST 2018
User: aro
Spectrometer: QEPB0276
Trigger mode: 0
Integration Time (sec): 3.000000E1
Scans to average: 1
Electric dark correction enabled: true
Nonlinearity correction enabled: false
Boxcar width: 0
XAxis mode: Raman Shifts
Number of Pixels in Spectrum: 1044
>>>>>Begin Spectral Data<<<<<
160.701	-151.2
166.742	23.8
172.777	569.8
178.805	2185.8
184.826	5944.8
190.841	12269.8
196.849	19482.8
202.85	24345.8
208.845	25907.8
214.833	25567.8
220.815	25090.8
226.789	24801.8
232.758	24705.8
238.719	24525.8
244.674	24133.8
250.623	23682.8
256.565	23163.8
262.5	22636.8
268.429	22192.8
274.351	21881.8
280.267	21437.8
286.176	21214.8
292.079	21035.8
297.975	20799.8
303.865	20572.8
309.748	20421.8
315.625	20219.8
321.495	20155.8
327.359	20058.8
333.217	20038.8
339.068	20033.8
344.912	19990.8
350.751	19896.8
356.583	19956.8
362.408	19889.8
368.227	19927.8
374.04	19969.8
379.847	19918.8
385.647	20064.8
391.44	20129.8
397.228	20229.8
403.009	20285.8
408.784	20395.8
414.553	20447.8
420.315	20506.8
426.071	20502.8
431.821	20441.8
437.565	20476.8
443.302	20403.8
449.033	20407.8
454.758	20332.8
460.477	20276.8
466.189	20296.8
471.896	20283.8
477.596	20133.8
483.29	20150.8
488.978	20062.8
494.66	20021.8
500.335	19916.8
506.005	19702.8
511.668	19426.8
517.325	19238.8
522.977	19005.8
528.622	18897.8
534.261	18759.8
539.894	18695.8
545.521	18563.8
551.141	18549.8
556.756	18454.8
562.365	18376.8
567.968	18297.8
573.565	18222.8
579.155	18105.8
584.74	18068.8
590.319	18062.8
595.892	17961.8
601.459	17933.8
607.02	17818.8
612.575	17747.8
618.124	17634.8
623.667	17536.8
629.204	17377.8
634.735	17380.8
640.261	17252.8
645.781	17221.8
651.294	17210.8
656.802	17135.8
662.304	17101.8
667.8	17110.8
673.29	17017.8
678.775	17056.8
684.254	16937.8
689.726	16922.8
695.193	16859.8
700.655	16753.8
706.11	16647.8
711.56	16577.8
717.004	16487.8
722.442	16464.8
727.874	16353.8
733.301	16312.8
738.722	16371.8
744.137	16211.8
749.547	16229.8
754.951	16266.8
760.349	16247.8
765.741	16238.8
771.128	16269.8
776.509	16281.8
781.885	16287.8
787.254	16253.8
792.618	16212.8
797.977	16071.8
803.33	15980.8
808.677	15819.8
814.019	15783.8
819.355	15648.8
824.686	15644.8
830.011	15580.8
835.33	15608.8
840.644	15622.8
845.952	15619.8
851.255	15682.8
856.552	15626.8
861.844	15660.8
867.13	15599.8
872.41	15590.8
877.686	15489.8
882.955	15300.8
888.219	15203.8
893.478	15035.8
898.731	14814.8
903.979	14690.8
909.221	14641.8
914.458	14565.8
919.69	14569.8
924.916	14581.8
930.136	14625.8
935.351	14687.8
940.561	14662.8
945.766	14613.8
950.965	14534.8
956.158	14446.8
961.347	14254.8
966.529	14087.8
971.707	13895.8
976.879	13772.8
982.046	13632.8
987.208	13558.8
992.364	13584.8
997.515	13648.8
1002.66	13739.8
1007.801	13937.8
1012.936	14077.8
1018.066	14043.8
1023.19	14061.8
1028.309	14061.8
1033.423	14012.8
1038.532	13903.8
1043.636	13851.8
1048.734	13655.8
1053.827	13465.8
1058.915	13323.8
1063.998	13248.8
1069.075	13168.8
1074.147	13226.8
1079.214	13273.8
1084.276	13360.8
1089.333	13409.8
1094.385	13492.8
1099.431	13541.8
1104.472	13535.8
1109.509	13437.8
1114.54	13310.8
1119.565	13141.8
1124.586	12975.8
1129.602	12850.8
1134.613	12745.8
1139.618	12666.8
1144.619	12605.8
1149.614	12690.8
1154.604	12656.8
1159.589	12676.8
1164.57	12710.8
1169.545	12744.8
1174.515	12733.8
1179.48	12678.8
1184.44	12603.8
1189.395	12516.8
1194.345	12392.8
1199.29	12374.8
1204.23	12334.8
1209.165	12371.8
1214.095	12470.8
1219.021	12578.8
1223.941	12588.8
1228.856	12640.8
1233.766	12684.8
1238.672	12707.8
1243.572	12667.8
1248.467	12616.8
1253.358	12422.8
1258.244	12328.8
1263.124	12113.8
1268	11885.8
1272.871	11739.8
1277.737	11703.8
1282.599	11640.8
1287.455	11646.8
1292.306	11686.8
1297.153	11641.8
1301.995	11745.8
1306.832	11795.8
1311.664	11717.8
1316.491	11702.8
1321.314	11620.8
1326.132	11451.8
1330.945	11175.8
1335.753	10914.8
1340.556	10657.8
1345.354	10413.8
1350.148	10328.8
1354.937	10245.8
1359.722	10243.8
1364.501	10344.8
1369.276	10401.8
1374.046	10526.8
1378.811	10684.8
1383.572	10737.8
1388.327	10787.8
1393.079	10740.8
1397.825	10579.8
1402.567	10450.8
1407.304	10300.8
1412.036	10244.8
1416.764	10133.8
1421.487	10081.8
1426.205	10051.8
1430.919	10006.8
1435.628	10023.8
1440.333	9995.8
1445.032	10021.8
1449.727	10082.8
1454.418	10049.8
1459.104	9938.8
1463.785	9710.8
1468.462	9536.8
1473.134	9337.8
1477.802	9126.8
1482.465	8996.8
1487.123	8914.8
1491.777	8897.8
1496.426	8965.8
1501.071	9060.8
1505.711	9205.8
1510.347	9354.8
1514.978	9562.8
1519.604	9586.8
1524.226	9703.8
1528.844	9730.8
1533.457	9726.8
1538.065	9672.8
1542.669	9608.8
1547.269	9502.8
1551.864	9426.8
1556.454	9468.8
1561.041	9421.8
1565.622	9422.8
1570.199	9437.8
1574.772	9470.8
1579.34	9562.8
1583.904	9583.8
1588.464	9626.8
1593.019	9687.8
1597.569	9599.8
1602.115	9581.8
1606.657	9513.8
1611.195	9450.8
1615.728	9384.8
1620.256	9310.8
1624.78	9320.8
1629.3	9401.8
1633.816	9434.8
1638.327	9449.8
1642.834	9520.8
1647.336	9569.8
1651.834	9559.8
1656.328	9529.8
1660.817	9492.8
1665.302	9402.8
1669.783	9232.8
1674.259	9038.8
1678.732	8715.8
1683.199	8428.8
1687.663	8116.8
1692.122	7899.8
1696.577	7778.8
1701.028	7809.8
1705.474	7852.8
1709.917	7879.8
1714.355	7860.8
1718.788	7808.8
1723.218	7722.8
1727.643	7571.8
1732.064	7415.8
1736.481	7231.8
1740.893	7064.8
1745.301	6876.8
1749.705	6674.8
1754.105	6455.8
1758.501	6296.8
1762.893	6109.8
1767.28	5996.8
1771.663	5848.8
1776.042	5730.8
1780.417	5695.8
1784.787	5730.8
1789.154	5783.8
1793.516	5914.8
1797.874	6055.8
1802.228	6117.8
1806.578	6149.8
1810.924	6136.8
1815.266	6100.8
1819.603	5979.8
1823.937	5901.8
1828.266	5787.8
1832.591	5703.8
1836.913	5647.8
1841.23	5597.8
1845.543	5534.8
1849.852	5537.8
1854.156	5508.8
1858.457	5496.8
1862.754	5504.8
1867.047	5507.8
1871.335	5498.8
1875.62	5485.8
1879.9	5485.8
1884.177	5375.8
1888.449	5311.8
1892.718	5287.8
1896.982	5265.8
1901.243	5206.8
1905.499	5157.8
1909.752	5132.8
1914	5137.8
1918.245	5176.8
1922.485	5236.8
1926.722	5268.8
1930.954	5321.8
1935.183	5388.8
1939.408	5473.8
1943.628	5468.8
1947.845	5467.8
1952.058	5452.8
1956.267	5418.8
1960.472	5323.8
1964.673	5275.8
1968.87	5202.8
1973.063	5094.8
1977.252	5018.8
1981.438	4981.8
1985.619	4899.8
1989.797	4905.8
1993.971	4840.8
1998.14	4832.8
2002.306	4832.8
2006.469	4813.8
2010.627	4757.8
2014.781	4756.8
2018.932	4689.8
2023.078	4665.8
2027.221	4613.8
2031.36	4518.8
2035.495	4446.8
2039.627	4372.8
2043.754	4329.8
2047.878	4295.8
2051.998	4305.8
2056.114	4246.8
2060.226	4240.8
2064.334	4238.8
2068.439	4292.8
2072.54	4322.8
2076.637	4355.8
2080.73	4382.8
2084.82	4376.8
2088.906	4409.8
2092.988	4433.8
2097.066	4398.8
2101.14	4384.8
2105.211	4335.8
2109.278	4330.8
2113.342	4255.8
2117.401	4236.8
2121.457	4236.8
2125.509	4221.8
2129.558	4200.8
2133.602	4164.8
2137.643	4139.8
2141.681	4134.8
2145.714	4096.8
2149.744	4080.8
2153.77	4047.8
2157.793	4026.8
2161.812	3952.8
2165.827	3895.8
2169.838	3857.8
2173.846	3781.8
2177.851	3695.8
2181.851	3643.8
2185.848	3628.8
2189.841	3564.8
2193.831	3542.8
2197.817	3500.8
2201.799	3489.8
2205.778	3512.8
2209.753	3463.8
2213.725	3445.8
2217.693	3439.8
2221.657	3435.8
2225.618	3410.8
2229.575	3389.8
2233.529	3382.8
2237.479	3342.8
2241.425	3293.8
2245.368	3249.8
2249.307	3210.8
2253.243	3174.8
2257.175	3136.8
2261.104	3096.8
2265.029	3036.8
2268.95	3014.8
2272.868	2987.8
2276.783	2954.8
2280.694	2919.8
2284.601	2890.8
2288.505	2859.8
2292.405	2840.8
2296.302	2790.8
2300.195	2778.8
2304.085	2764.8
2307.971	2699.8
2311.854	2653.8
2315.734	2625.8
2319.609	2616.8
2323.482	2536.8
2327.351	2523.8
2331.216	2528.8
2335.078	2497.8
2338.937	2469.8
2342.792	2453.8
2346.643	2449.8
2350.492	2442.8
2354.336	2459.8
2358.178	2452.8
2362.015	2478.8
2365.85	2487.8
2369.681	2476.8
2373.508	2476.8
2377.333	2481.8
2381.153	2469.8
2384.971	2459.8
2388.785	2460.8
2392.595	2423.8
2396.402	2393.8
2400.206	2363.8
2404.007	2342.8
2407.804	2338.8
2411.597	2318.8
2415.388	2301.8
2419.174	2303.8
2422.958	2281.8
2426.738	2270.8
2430.515	2266.8
2434.289	2220.8
2438.059	2211.8
2441.825	2180.8
2445.589	2164.8
2449.349	2141.8
2453.106	2079.8
2456.859	2080.8
2460.61	2035.8
2464.356	2025.8
2468.1	2002.8
2471.84	1996.8
2475.577	1960.8
2479.311	1969.8
2483.041	1948.8
2486.768	1962.8
2490.492	1916.8
2494.213	1938.8
2497.93	1930.8
2501.644	1916.8
2505.355	1894.8
2509.062	1895.8
2512.766	1859.8
2516.467	1885.8
2520.165	1878.8
2523.859	1861.8
2527.551	1829.8
2531.239	1830.8
2534.923	1800.8
2538.605	1812.8
2542.283	1803.8
2545.958	1812.8
2549.63	1780.8
2553.299	1779.8
2556.964	1787.8
2560.626	1775.8
2564.285	1766.8
2567.941	1781.8
2571.594	1745.8
2575.243	1747.8
2578.89	1730.8
2582.533	1725.8
2586.173	1692.8
2589.809	1696.8
2593.443	1661.8
2597.073	1660.8
2600.701	1657.8
2604.325	1634.8
2607.946	1623.8
2611.564	1595.8
2615.178	1585.8
2618.79	1597.8
2622.398	1561.8
2626.004	1549.8
2629.606	1515.8
2633.205	1491.8
2636.801	1492.8
2640.394	1470.8
2643.983	1424.8
2647.57	1418.8
2651.153	1394.8
2654.734	1367.8
2658.311	1352.8
2661.885	1340.8
2665.456	1328.8
2669.025	1300.8
2672.589	1300.8
2676.151	1272.8
2679.71	1262.8
2683.266	1213.8
2686.819	1205.8
2690.368	1163.8
2693.915	1153.8
2697.458	1118.8
2700.999	1102.8
2704.536	1093.8
2708.071	1065.8
2711.602	1030.8
2715.13	1017.8
2718.656	989.8
2722.178	971.8
2725.697	940.8
2729.214	946.8
2732.727	937.8
2736.237	947.8
2739.744	952.8
2743.249	944.8
2746.75	945.8
2750.248	960.8
2753.743	983.8
2757.236	983.8
2760.725	993.8
2764.211	1016.8
2767.695	1014.8
2771.175	1006.8
2774.652	1001.8
2778.127	989.8
2781.598	964.8
2785.067	982.8
2788.532	965.8
2791.995	973.8
2795.455	961.8
2798.911	962.8
2802.365	984.8
2805.816	973.8
2809.264	964.8
2812.709	968.8
2816.151	990.8
2819.59	983.8
2823.026	978.8
2826.46	973.8
2829.89	961.8
2833.318	969.8
2836.742	970.8
2840.164	1010.8
2843.583	995.8
2846.999	1017.8
2850.412	1023.8
2853.822	1028.8
2857.229	1070.8
2860.634	1047.8
2864.035	1083.8
2867.434	1105.8
2870.83	1125.8
2874.223	1144.8
2877.613	1162.8
2881	1176.8
2884.385	1194.8
2887.766	1183.8
2891.145	1185.8
2894.521	1186.8
2897.894	1177.8
2901.264	1186.8
2904.631	1182.8
2907.996	1169.8
2911.358	1178.8
2914.717	1197.8
2918.073	1198.8
2921.426	1222.8
2924.777	1237.8
2928.124	1253.8
2931.469	1274.8
2934.811	1319.8
2938.15	1327.8
2941.487	1313.8
2944.821	1350.8
2948.152	1332.8
2951.48	1345.8
2954.805	1308.8
2958.128	1293.8
2961.447	1275.8
2964.765	1294.8
2968.079	1301.8
2971.39	1295.8
2974.699	1320.8
2978.005	1343.8
2981.308	1376.8
2984.609	1415.8
2987.907	1404.8
2991.202	1472.8
2994.494	1496.8
2997.784	1516.8
3001.07	1535.8
3004.355	1563.8
3007.636	1568.8
3010.915	1587.8
3014.191	1626.8
3017.464	1640.8
3020.734	1641.8
3024.002	1644.8
3027.267	1660.8
3030.53	1658.8
3033.789	1709.8
3037.046	1706.8
3040.301	1735.8
3043.552	1798.8
3046.801	1835.8
3050.048	1858.8
3053.291	1908.8
3056.532	1975.8
3059.771	2022.8
3063.006	2086.8
3066.239	2131.8
3069.469	2216.8
3072.697	2269.8
3075.922	2309.8
3079.144	2383.8
3082.364	2440.8
3085.581	2479.8
3088.795	2546.8
3092.007	2607.8
3095.216	2647.8
3098.423	2670.8
3101.627	2764.8
3104.828	2824.8
3108.026	2897.8
3111.222	2957.8
3114.416	3011.8
3117.607	3087.8
3120.795	3165.8
3123.98	3218.8
3127.163	3333.8
3130.344	3402.8
3133.521	3478.8
3136.696	3562.8
3139.869	3608.8
3143.039	3692.8
3146.206	3737.8
3149.371	3760.8
3152.533	3809.8
3155.693	3848.8
3158.85	3879.8
3162.005	3875.8
3165.157	3890.8
3168.306	3929.8
3171.453	3879.8
3174.597	3911.8
3177.739	3910.8
3180.878	3936.8
3184.014	3967.8
3187.149	3947.8
3190.28	3968.8
3193.409	3942.8
3196.536	3979.8
3199.659	3962.8
3202.781	3961.8
3205.9	3946.8
3209.016	3952.8
3212.13	3946.8
3215.241	3885.8
3218.35	3840.8
3221.456	3814.8
3224.56	3798.8
3227.661	3753.8
3230.76	3714.8
3233.856	3665.8
3236.95	3641.8
3240.041	3607.8
3243.13	3582.8
3246.216	3559.8
3249.3	3552.8
3252.382	3520.8
3255.46	3480.8
3258.537	3485.8
3261.611	3483.8
3264.682	3498.8
3267.751	3497.8
3270.818	3478.8
3273.882	3475.8
3276.943	3426.8
3280.002	3397.8
3283.059	3371.8
3286.113	3340.8
3289.165	3287.8
3292.214	3255.8
3295.261	3196.8
3298.306	3126.8
3301.348	3096.8
3304.387	3052.8
3307.425	2982.8
3310.459	2973.8
3313.492	2892.8
3316.521	2878.8
3319.549	2817.8
3322.574	2815.8
3325.597	2775.8
3328.617	2780.8
3331.635	2750.8
3334.65	2740.8
3337.663	2693.8
3340.674	2712.8
3343.682	2680.8
3346.688	2663.8
3349.691	2660.8
3352.692	2642.8
3355.691	2650.8
3358.687	2595.8
3361.681	2585.8
3364.673	2521.8
3367.662	2488.8
3370.649	2461.8
3373.633	2454.8
3376.615	2395.8
3379.595	2385.8
3382.572	2338.8
3385.547	2295.8
3388.52	2262.8
3391.49	2204.8
3394.458	2180.8
3397.424	2149.8
3400.387	2124.8
3403.348	2106.8
3406.307	2091.8
3409.263	2057.8
3412.217	2008.8
3415.168	2011.8
3418.118	1991.8
3421.065	1950.8
3424.009	1936.8
3426.951	1879.8
3429.891	1889.8
3432.829	1824.8
3435.764	1765.8
3438.697	1713.8
3441.628	1685.8
3444.557	1617.8
3447.483	1569.8
3450.407	1534.8
3453.328	1483.8
3456.247	1424.8
3459.164	1391.8
3462.079	1325.8
3464.991	1287.8
3467.902	1231.8
3470.809	1203.8
3473.715	1139.8
3476.618	1113.8
3479.519	1086.8
3482.418	1041.8
3485.315	991.8
3488.209	944.8
3491.101	914.8
3493.99	884.8
3496.878	854.8
3499.763	815.8
3502.646	782.8
3505.527	745.8
3508.405	696.8
3511.281	659.8
3514.155	633.8
3517.027	599.8
3519.897	551.8
3522.764	509.8
3525.629	472.8
3528.492	423.8
3531.352	399.8
3534.211	351.8
3537.067	321.8
3539.921	274.8
3542.773	270.8
3545.622	219.8
3548.469	192.8
3551.315	156.8
3554.157	141.8
3556.998	103.8
3559.837	77.8
3562.673	62.8
3565.507	43.8
3568.339	32.8
3571.169	7.8
3573.996	-20.2
3576.822	-39.2
3579.645	-58.2
3582.466	-67.2
3585.285	-84.2
3588.101	-108.2
3590.916	-124.2
3593.728	-150.2
3596.538	-169.2
3599.346	-187.2
3602.152	-190.2
3604.956	-214.2
3607.757	-234.2
3610.556	-240.2
3613.354	-261.2
3616.149	-274.2
3618.942	-283.2
3621.732	-296.2
3624.521	-305.2
3627.307	-322.2
3630.092	-321.2
3632.874	-324.2
3635.654	-345.2
3638.432	-342.2
3641.208	-360.2
3643.982	-359.2
3646.753	-377.2
3649.523	-382.2
3652.29	-398.2
3655.055	-400.2
3657.818	-410.2
3660.579	-424.2
3663.338	-426.2
3666.095	-433.2
3668.849	-450.2
3671.602	-461.2
3674.352	-461.2
3677.101	-474.2
3679.847	-476.2
3682.591	-478.2
3685.333	-488.2
3688.073	-485.2
3690.811	-498.2
3693.547	-503.2
3696.281	-515.2
3699.013	-510.2
3701.742	-514.2
3704.47	-523.2
3707.195	-530.2
3709.919	-531.2
3712.64	-538.2
3715.359	-539.2
3718.076	-537.2
3720.792	-547.2
3723.505	-550.2
3726.216	-544.2
3728.925	-549.2
3731.632	-561.2
3734.336	-562.2
3737.039	-569.2
3739.74	-563.2
3742.439	-567.2
3745.136	-567.2
3747.83	-573.2
3750.523	-566.2
3753.213	-583.2
3755.902	-579.2
3758.589	-578.2
3761.273	-576.2
3763.956	-589.2
3766.636	-580.2
3769.315	-588.2
3771.991	-588.2
3774.665	-591.2
3777.338	-589.2
3780.008	-591.2
3782.677	-584.2
3785.343	-597.2
3788.007	-584.2
3790.67	-594.2
3793.33	-595.2
3795.989	-598.2
3798.645	-599.2
3801.299	-609.2
3803.952	-604.2
3806.602	-609.2
3809.251	-618.2
3811.897	-605.2
3814.542	-604.2
3817.184	-608.2
3819.825	-600.2
3822.463	-601.2
3825.1	-608.2
3827.735	-613.2
3830.367	-608.2
3832.998	-613.2
3835.627	-619.2
3838.253	-619.2
3840.878	-613.2
3843.501	-618.2
3846.122	-617.2
3848.741	-617.2
3851.358	-622.2
3853.973	-617.2
3856.586	-620.2
3859.197	-622.2
3861.806	-622.2
3864.414	-615.2
3867.019	-610.2
3869.622	-616.2
3872.224	-614.2
3874.823	-601.2
3877.421	-581.2
3880.016	-569.2
3882.61	-536.2
3885.202	-544.2
3887.792	-566.2
3890.38	-587.2
3892.966	-604.2
3895.55	-615.2
3898.132	-622.2
3900.713	-629.2
3903.291	-628.2
3905.868	-633.2
3908.442	-630.2
3911.015	-626.2
3913.586	-634.2
3916.155	-634.2
3918.722	-632.2
3921.287	-629.2
3923.85	-635.2
3926.411	-630.2
3928.971	-635.2
3931.528	-629.2
3934.084	-626.2
3936.638	-633.2
3939.19	-635.2
3941.74	-633.2
3944.288	-641.2
3946.834	-635.2
3949.378	-636.2
3951.921	-630.2
3954.462	-635.2
3957	-635.2
3959.537	-629.2
3962.072	-630.2
3964.606	-631.2
3967.137	-630.2
3969.667	-632.2
3972.194	-630.2
3974.72	-630.2
3977.244	-620.2
3979.766	-617.2
3982.286	-624.2
3984.805	-615.2
3987.321	-622.2
3989.836	-622.2
3992.349	-617.2
3994.86	-616.2
3997.369	-630.2
3999.877	-617.2
4002.382	-615.2
4004.886	-621.2
4007.388	-622.2
4009.888	-620.2
4012.386	-624.2
4014.883	-618.2
4017.377	-620.2
4019.87	-616.2
4022.361	-616.2
4024.85	-623.2
4027.338	-622.2
4029.823	-614.2
4032.307	-629.2
4034.789	-626.2
4037.269	-629.2
4039.747	-628.2
4042.224	-626.2
4044.699	-624.2
4047.172	-628.2
4049.643	-622.2
4052.112	-620.2
4054.58	-617.2
4057.046	-623.2
4059.51	-624.2
4061.972	-631.2
4064.432	-622.2
4066.891	-622.2
4069.348	-624.2
4071.803	-624.2
4074.256	-619.2
4076.708	-620.2
4079.158	-624.2
4081.606	-618.2
4084.052	-620.2
4086.497	-616.2
4088.939	-615.2
4091.38	-614.2
4093.819	-615.2
4096.257	-655.2
4098.693	-659.2
4101.127	-655.2
4103.559	-662.2
4105.989	-393.2
4108.418	-374.2
4110.845	-352.2
4113.27	-330.2
4115.694	-287.2
4118.115	-247.2
4120.535	-624.2
4122.954	-627.2
4125.37	-623.2
4127.785	-623.2
4130.198	-630.2
4132.609	-619.2
4135.019	-662.2
4137.427	-656.2
4139.833	-657.2
4142.237	-652.2
