Data from 2018-2-7_conc=5_RamanShift_28.txt Node
Date: Tue Feb 13 14:17:43 IST 2018
User: aro
Spectrometer: QEPB0276
Trigger mode: 0
Integration Time (sec): 3.000000E1
Scans to average: 1
Electric dark correction enabled: true
Nonlinearity correction enabled: false
Boxcar width: 0
XAxis mode: Raman Shifts
Number of Pixels in Spectrum: 1044
>>>>>Begin Spectral Data<<<<<
160.701	-174.2
166.742	31.8
172.777	616.8
178.805	2307.8
184.826	6293.8
190.841	13046.8
196.849	20645.8
202.85	25910.8
208.845	27516.8
214.833	27323.8
220.815	26855.8
226.789	26588.8
232.758	26537.8
238.719	26238.8
244.674	25916.8
250.623	25428.8
256.565	24955.8
262.5	24437.8
268.429	23974.8
274.351	23609.8
280.267	23279.8
286.176	23028.8
292.079	22817.8
297.975	22593.8
303.865	22466.8
309.748	22244.8
315.625	22128.8
321.495	21947.8
327.359	21876.8
333.217	21862.8
339.068	21850.8
344.912	21845.8
350.751	21760.8
356.583	21775.8
362.408	21740.8
368.227	21766.8
374.04	21701.8
379.847	21767.8
385.647	21874.8
391.44	21940.8
397.228	22014.8
403.009	22166.8
408.784	22289.8
414.553	22288.8
420.315	22327.8
426.071	22338.8
431.821	22318.8
437.565	22337.8
443.302	22256.8
449.033	22252.8
454.758	22190.8
460.477	22128.8
466.189	22100.8
471.896	22023.8
477.596	21942.8
483.29	21896.8
488.978	21865.8
494.66	21829.8
500.335	21604.8
506.005	21436.8
511.668	21169.8
517.325	20906.8
522.977	20757.8
528.622	20594.8
534.261	20464.8
539.894	20359.8
545.521	20344.8
551.141	20190.8
556.756	20143.8
562.365	20058.8
567.968	20015.8
573.565	19909.8
579.155	19808.8
584.74	19767.8
590.319	19666.8
595.892	19599.8
601.459	19471.8
607.02	19419.8
612.575	19331.8
618.124	19208.8
623.667	19089.8
629.204	19021.8
634.735	18917.8
640.261	18844.8
645.781	18806.8
651.294	18755.8
656.802	18655.8
662.304	18665.8
667.8	18649.8
673.29	18643.8
678.775	18575.8
684.254	18501.8
689.726	18417.8
695.193	18388.8
700.655	18287.8
706.11	18239.8
711.56	18111.8
717.004	18037.8
722.442	17981.8
727.874	17909.8
733.301	17859.8
738.722	17804.8
744.137	17717.8
749.547	17781.8
754.951	17780.8
760.349	17726.8
765.741	17767.8
771.128	17769.8
776.509	17750.8
781.885	17787.8
787.254	17707.8
792.618	17610.8
797.977	17492.8
803.33	17398.8
808.677	17341.8
814.019	17209.8
819.355	17114.8
824.686	17024.8
830.011	16989.8
835.33	17029.8
840.644	17045.8
845.952	17035.8
851.255	17119.8
856.552	17149.8
861.844	17081.8
867.13	17086.8
872.41	16915.8
877.686	16874.8
882.955	16715.8
888.219	16605.8
893.478	16428.8
898.731	16210.8
903.979	16029.8
909.221	15932.8
914.458	15897.8
919.69	15829.8
924.916	16015.8
930.136	15930.8
935.351	15977.8
940.561	16021.8
945.766	15947.8
950.965	15881.8
956.158	15697.8
961.347	15580.8
966.529	15443.8
971.707	15177.8
976.879	14996.8
982.046	14923.8
987.208	14835.8
992.364	14884.8
997.515	14941.8
1002.66	15028.8
1007.801	15263.8
1012.936	15357.8
1018.066	15381.8
1023.19	15342.8
1028.309	15331.8
1033.423	15285.8
1038.532	15244.8
1043.636	15073.8
1048.734	14890.8
1053.827	14727.8
1058.915	14513.8
1063.998	14523.8
1069.075	14394.8
1074.147	14393.8
1079.214	14486.8
1084.276	14570.8
1089.333	14672.8
1094.385	14754.8
1099.431	14762.8
1104.472	14740.8
1109.509	14703.8
1114.54	14515.8
1119.565	14320.8
1124.586	14128.8
1129.602	14004.8
1134.613	13897.8
1139.618	13832.8
1144.619	13852.8
1149.614	13849.8
1154.604	13825.8
1159.589	13850.8
1164.57	13861.8
1169.545	13902.8
1174.515	13903.8
1179.48	13802.8
1184.44	13736.8
1189.395	13632.8
1194.345	13570.8
1199.29	13492.8
1204.23	13460.8
1209.165	13506.8
1214.095	13592.8
1219.021	13650.8
1223.941	13716.8
1228.856	13756.8
1233.766	13784.8
1238.672	13852.8
1243.572	13817.8
1248.467	13775.8
1253.358	13590.8
1258.244	13411.8
1263.124	13201.8
1268	12996.8
1272.871	12797.8
1277.737	12754.8
1282.599	12639.8
1287.455	12714.8
1292.306	12738.8
1297.153	12731.8
1301.995	12817.8
1306.832	12844.8
1311.664	12815.8
1316.491	12805.8
1321.314	12650.8
1326.132	12460.8
1330.945	12203.8
1335.753	11912.8
1340.556	11645.8
1345.354	11401.8
1350.148	11226.8
1354.937	11088.8
1359.722	11079.8
1364.501	11151.8
1369.276	11249.8
1374.046	11353.8
1378.811	11497.8
1383.572	11688.8
1388.327	11665.8
1393.079	11657.8
1397.825	11529.8
1402.567	11391.8
1407.304	11236.8
1412.036	11135.8
1416.764	11011.8
1421.487	11001.8
1426.205	10907.8
1430.919	10909.8
1435.628	10879.8
1440.333	10940.8
1445.032	10905.8
1449.727	10976.8
1454.418	10966.8
1459.104	10804.8
1463.785	10577.8
1468.462	10368.8
1473.134	10136.8
1477.802	9924.8
1482.465	9754.8
1487.123	9610.8
1491.777	9599.8
1496.426	9619.8
1501.071	9760.8
1505.711	9897.8
1510.347	10057.8
1514.978	10212.8
1519.604	10321.8
1524.226	10494.8
1528.844	10460.8
1533.457	10454.8
1538.065	10429.8
1542.669	10363.8
1547.269	10281.8
1551.864	10261.8
1556.454	10213.8
1561.041	10179.8
1565.622	10164.8
1570.199	10218.8
1574.772	10285.8
1579.34	10388.8
1583.904	10415.8
1588.464	10471.8
1593.019	10449.8
1597.569	10441.8
1602.115	10324.8
1606.657	10305.8
1611.195	10226.8
1615.728	10169.8
1620.256	10135.8
1624.78	10096.8
1629.3	10152.8
1633.816	10162.8
1638.327	10227.8
1642.834	10261.8
1647.336	10289.8
1651.834	10261.8
1656.328	10275.8
1660.817	10202.8
1665.302	10087.8
1669.783	9907.8
1674.259	9661.8
1678.732	9385.8
1683.199	9039.8
1687.663	8782.8
1692.122	8471.8
1696.577	8316.8
1701.028	8318.8
1705.474	8346.8
1709.917	8434.8
1714.355	8424.8
1718.788	8384.8
1723.218	8287.8
1727.643	8177.8
1732.064	7990.8
1736.481	7845.8
1740.893	7648.8
1745.301	7458.8
1749.705	7236.8
1754.105	7021.8
1758.501	6821.8
1762.893	6628.8
1767.28	6433.8
1771.663	6337.8
1776.042	6213.8
1780.417	6130.8
1784.787	6135.8
1789.154	6183.8
1793.516	6306.8
1797.874	6433.8
1802.228	6486.8
1806.578	6574.8
1810.924	6566.8
1815.266	6552.8
1819.603	6445.8
1823.937	6335.8
1828.266	6242.8
1832.591	6164.8
1836.913	6051.8
1841.23	5999.8
1845.543	5963.8
1849.852	5970.8
1854.156	5929.8
1858.457	5909.8
1862.754	5943.8
1867.047	5910.8
1871.335	5899.8
1875.62	5868.8
1879.9	5878.8
1884.177	5814.8
1888.449	5757.8
1892.718	5690.8
1896.982	5650.8
1901.243	5566.8
1905.499	5555.8
1909.752	5503.8
1914	5514.8
1918.245	5527.8
1922.485	5565.8
1926.722	5571.8
1930.954	5662.8
1935.183	5721.8
1939.408	5806.8
1943.628	5810.8
1947.845	5831.8
1952.058	5860.8
1956.267	5782.8
1960.472	5733.8
1964.673	5630.8
1968.87	5535.8
1973.063	5432.8
1977.252	5375.8
1981.438	5322.8
1985.619	5262.8
1989.797	5239.8
1993.971	5234.8
1998.14	5180.8
2002.306	5193.8
2006.469	5166.8
2010.627	5150.8
2014.781	5096.8
2018.932	5052.8
2023.078	5012.8
2027.221	4946.8
2031.36	4838.8
2035.495	4763.8
2039.627	4732.8
2043.754	4650.8
2047.878	4602.8
2051.998	4582.8
2056.114	4531.8
2060.226	4539.8
2064.334	4570.8
2068.439	4578.8
2072.54	4601.8
2076.637	4608.8
2080.73	4656.8
2084.82	4668.8
2088.906	4678.8
2092.988	4685.8
2097.066	4663.8
2101.14	4651.8
2105.211	4607.8
2109.278	4577.8
2113.342	4567.8
2117.401	4549.8
2121.457	4510.8
2125.509	4495.8
2129.558	4468.8
2133.602	4450.8
2137.643	4405.8
2141.681	4399.8
2145.714	4387.8
2149.744	4356.8
2153.77	4335.8
2157.793	4247.8
2161.812	4245.8
2165.827	4169.8
2169.838	4104.8
2173.846	4064.8
2177.851	3979.8
2181.851	3905.8
2185.848	3863.8
2189.841	3862.8
2193.831	3788.8
2197.817	3758.8
2201.799	3744.8
2205.778	3697.8
2209.753	3733.8
2213.725	3701.8
2217.693	3689.8
2221.657	3684.8
2225.618	3671.8
2229.575	3654.8
2233.529	3634.8
2237.479	3592.8
2241.425	3527.8
2245.368	3495.8
2249.307	3417.8
2253.243	3395.8
2257.175	3358.8
2261.104	3305.8
2265.029	3252.8
2268.95	3225.8
2272.868	3206.8
2276.783	3185.8
2280.694	3117.8
2284.601	3112.8
2288.505	3114.8
2292.405	3042.8
2296.302	3031.8
2300.195	2981.8
2304.085	2964.8
2307.971	2905.8
2311.854	2857.8
2315.734	2819.8
2319.609	2815.8
2323.482	2771.8
2327.351	2727.8
2331.216	2725.8
2335.078	2736.8
2338.937	2701.8
2342.792	2680.8
2346.643	2681.8
2350.492	2657.8
2354.336	2682.8
2358.178	2678.8
2362.015	2686.8
2365.85	2680.8
2369.681	2702.8
2373.508	2708.8
2377.333	2705.8
2381.153	2720.8
2384.971	2677.8
2388.785	2673.8
2392.595	2622.8
2396.402	2619.8
2400.206	2600.8
2404.007	2584.8
2407.804	2550.8
2411.597	2527.8
2415.388	2508.8
2419.174	2480.8
2422.958	2487.8
2426.738	2477.8
2430.515	2430.8
2434.289	2432.8
2438.059	2405.8
2441.825	2402.8
2445.589	2369.8
2449.349	2314.8
2453.106	2293.8
2456.859	2277.8
2460.61	2218.8
2464.356	2213.8
2468.1	2181.8
2471.84	2169.8
2475.577	2157.8
2479.311	2127.8
2483.041	2133.8
2486.768	2124.8
2490.492	2101.8
2494.213	2108.8
2497.93	2089.8
2501.644	2065.8
2505.355	2081.8
2509.062	2056.8
2512.766	2065.8
2516.467	2057.8
2520.165	2035.8
2523.859	1996.8
2527.551	1988.8
2531.239	1987.8
2534.923	1945.8
2538.605	1941.8
2542.283	1946.8
2545.958	1931.8
2549.63	1932.8
2553.299	1922.8
2556.964	1925.8
2560.626	1916.8
2564.285	1916.8
2567.941	1931.8
2571.594	1883.8
2575.243	1885.8
2578.89	1883.8
2582.533	1860.8
2586.173	1851.8
2589.809	1811.8
2593.443	1841.8
2597.073	1782.8
2600.701	1765.8
2604.325	1766.8
2607.946	1771.8
2611.564	1749.8
2615.178	1728.8
2618.79	1710.8
2622.398	1721.8
2626.004	1683.8
2629.606	1664.8
2633.205	1629.8
2636.801	1620.8
2640.394	1604.8
2643.983	1575.8
2647.57	1551.8
2651.153	1529.8
2654.734	1497.8
2658.311	1492.8
2661.885	1459.8
2665.456	1448.8
2669.025	1431.8
2672.589	1419.8
2676.151	1423.8
2679.71	1375.8
2683.266	1343.8
2686.819	1331.8
2690.368	1300.8
2693.915	1268.8
2697.458	1256.8
2700.999	1227.8
2704.536	1214.8
2708.071	1197.8
2711.602	1138.8
2715.13	1120.8
2718.656	1090.8
2722.178	1067.8
2725.697	1051.8
2729.214	1051.8
2732.727	1020.8
2736.237	1026.8
2739.744	1037.8
2743.249	1017.8
2746.75	1016.8
2750.248	1028.8
2753.743	1050.8
2757.236	1053.8
2760.725	1065.8
2764.211	1077.8
2767.695	1081.8
2771.175	1073.8
2774.652	1058.8
2778.127	1066.8
2781.598	1057.8
2785.067	1055.8
2788.532	1053.8
2791.995	1036.8
2795.455	1055.8
2798.911	1051.8
2802.365	1054.8
2805.816	1036.8
2809.264	1029.8
2812.709	1038.8
2816.151	1062.8
2819.59	1061.8
2823.026	1035.8
2826.46	1037.8
2829.89	1066.8
2833.318	1052.8
2836.742	1071.8
2840.164	1076.8
2843.583	1091.8
2846.999	1087.8
2850.412	1093.8
2853.822	1125.8
2857.229	1113.8
2860.634	1127.8
2864.035	1168.8
2867.434	1186.8
2870.83	1203.8
2874.223	1234.8
2877.613	1252.8
2881	1255.8
2884.385	1282.8
2887.766	1264.8
2891.145	1266.8
2894.521	1281.8
2897.894	1262.8
2901.264	1240.8
2904.631	1285.8
2907.996	1254.8
2911.358	1289.8
2914.717	1262.8
2918.073	1295.8
2921.426	1329.8
2924.777	1333.8
2928.124	1327.8
2931.469	1360.8
2934.811	1383.8
2938.15	1399.8
2941.487	1396.8
2944.821	1436.8
2948.152	1421.8
2951.48	1411.8
2954.805	1395.8
2958.128	1376.8
2961.447	1372.8
2964.765	1370.8
2968.079	1368.8
2971.39	1379.8
2974.699	1367.8
2978.005	1406.8
2981.308	1439.8
2984.609	1478.8
2987.907	1482.8
2991.202	1520.8
2994.494	1545.8
2997.784	1588.8
3001.07	1590.8
3004.355	1639.8
3007.636	1655.8
3010.915	1669.8
3014.191	1677.8
3017.464	1695.8
3020.734	1712.8
3024.002	1725.8
3027.267	1725.8
3030.53	1749.8
3033.789	1757.8
3037.046	1788.8
3040.301	1844.8
3043.552	1865.8
3046.801	1895.8
3050.048	1945.8
3053.291	1992.8
3056.532	2049.8
3059.771	2113.8
3063.006	2142.8
3066.239	2200.8
3069.469	2270.8
3072.697	2335.8
3075.922	2379.8
3079.144	2467.8
3082.364	2503.8
3085.581	2554.8
3088.795	2618.8
3092.007	2684.8
3095.216	2737.8
3098.423	2793.8
3101.627	2843.8
3104.828	2908.8
3108.026	2956.8
3111.222	3031.8
3114.416	3111.8
3117.607	3156.8
3120.795	3247.8
3123.98	3318.8
3127.163	3412.8
3130.344	3482.8
3133.521	3556.8
3136.696	3642.8
3139.869	3743.8
3143.039	3757.8
3146.206	3817.8
3149.371	3877.8
3152.533	3899.8
3155.693	3941.8
3158.85	3961.8
3162.005	4006.8
3165.157	4013.8
3168.306	4018.8
3171.453	4003.8
3174.597	4030.8
3177.739	4032.8
3180.878	4043.8
3184.014	4048.8
3187.149	4054.8
3190.28	4074.8
3193.409	4066.8
3196.536	4061.8
3199.659	4077.8
3202.781	4100.8
3205.9	4096.8
3209.016	4075.8
3212.13	4069.8
3215.241	4033.8
3218.35	4019.8
3221.456	3975.8
3224.56	3926.8
3227.661	3880.8
3230.76	3822.8
3233.856	3811.8
3236.95	3773.8
3240.041	3716.8
3243.13	3676.8
3246.216	3678.8
3249.3	3653.8
3252.382	3648.8
3255.46	3600.8
3258.537	3606.8
3261.611	3619.8
3264.682	3590.8
3267.751	3607.8
3270.818	3618.8
3273.882	3577.8
3276.943	3555.8
3280.002	3538.8
3283.059	3516.8
3286.113	3466.8
3289.165	3440.8
3292.214	3388.8
3295.261	3334.8
3298.306	3248.8
3301.348	3210.8
3304.387	3147.8
3307.425	3110.8
3310.459	3068.8
3313.492	3022.8
3316.521	2960.8
3319.549	2965.8
3322.574	2919.8
3325.597	2884.8
3328.617	2860.8
3331.635	2851.8
3334.65	2842.8
3337.663	2820.8
3340.674	2801.8
3343.682	2806.8
3346.688	2812.8
3349.691	2779.8
3352.692	2757.8
3355.691	2744.8
3358.687	2702.8
3361.681	2687.8
3364.673	2647.8
3367.662	2612.8
3370.649	2566.8
3373.633	2556.8
3376.615	2498.8
3379.595	2467.8
3382.572	2442.8
3385.547	2391.8
3388.52	2365.8
3391.49	2334.8
3394.458	2271.8
3397.424	2263.8
3400.387	2237.8
3403.348	2196.8
3406.307	2185.8
3409.263	2157.8
3412.217	2117.8
3415.168	2113.8
3418.118	2066.8
3421.065	2048.8
3424.009	2026.8
3426.951	1960.8
3429.891	1935.8
3432.829	1880.8
3435.764	1856.8
3438.697	1795.8
3441.628	1763.8
3444.557	1703.8
3447.483	1662.8
3450.407	1593.8
3453.328	1538.8
3456.247	1502.8
3459.164	1428.8
3462.079	1387.8
3464.991	1329.8
3467.902	1275.8
3470.809	1239.8
3473.715	1177.8
3476.618	1153.8
3479.519	1127.8
3482.418	1084.8
3485.315	1026.8
3488.209	1009.8
3491.101	983.8
3493.99	931.8
3496.878	893.8
3499.763	834.8
3502.646	815.8
3505.527	782.8
3508.405	750.8
3511.281	699.8
3514.155	646.8
3517.027	615.8
3519.897	570.8
3522.764	544.8
3525.629	496.8
3528.492	458.8
3531.352	415.8
3534.211	385.8
3537.067	316.8
3539.921	287.8
3542.773	272.8
3545.622	239.8
3548.469	204.8
3551.315	176.8
3554.157	147.8
3556.998	115.8
3559.837	90.8
3562.673	64.8
3565.507	58.8
3568.339	24.8
3571.169	6.8
3573.996	-9.2
3576.822	-33.2
3579.645	-52.2
3582.466	-91.2
3585.285	-91.2
3588.101	-112.2
3590.916	-140.2
3593.728	-151.2
3596.538	-179.2
3599.346	-191.2
3602.152	-212.2
3604.956	-230.2
3607.757	-246.2
3610.556	-250.2
3613.354	-273.2
3616.149	-290.2
3618.942	-297.2
3621.732	-309.2
3624.521	-316.2
3627.307	-332.2
3630.092	-342.2
3632.874	-348.2
3635.654	-358.2
3638.432	-367.2
3641.208	-377.2
3643.982	-388.2
3646.753	-387.2
3649.523	-407.2
3652.29	-422.2
3655.055	-427.2
3657.818	-436.2
3660.579	-439.2
3663.338	-446.2
3666.095	-460.2
3668.849	-473.2
3671.602	-480.2
3674.352	-488.2
3677.101	-502.2
3679.847	-507.2
3682.591	-511.2
3685.333	-518.2
3688.073	-521.2
3690.811	-529.2
3693.547	-534.2
3696.281	-538.2
3699.013	-542.2
3701.742	-548.2
3704.47	-548.2
3707.195	-564.2
3709.919	-565.2
3712.64	-566.2
3715.359	-569.2
3718.076	-572.2
3720.792	-578.2
3723.505	-578.2
3726.216	-589.2
3728.925	-583.2
3731.632	-594.2
3734.336	-595.2
3737.039	-597.2
3739.74	-602.2
3742.439	-601.2
3745.136	-601.2
3747.83	-605.2
3750.523	-603.2
3753.213	-616.2
3755.902	-610.2
3758.589	-614.2
3761.273	-608.2
3763.956	-621.2
3766.636	-624.2
3769.315	-627.2
3771.991	-629.2
3774.665	-627.2
3777.338	-628.2
3780.008	-628.2
3782.677	-629.2
3785.343	-630.2
3788.007	-629.2
3790.67	-637.2
3793.33	-638.2
3795.989	-635.2
3798.645	-637.2
3801.299	-642.2
3803.952	-642.2
3806.602	-639.2
3809.251	-644.2
3811.897	-638.2
3814.542	-633.2
3817.184	-644.2
3819.825	-635.2
3822.463	-642.2
3825.1	-649.2
3827.735	-647.2
3830.367	-648.2
3832.998	-655.2
3835.627	-654.2
3838.253	-663.2
3840.878	-654.2
3843.501	-657.2
3846.122	-653.2
3848.741	-648.2
3851.358	-656.2
3853.973	-657.2
3856.586	-655.2
3859.197	-654.2
3861.806	-653.2
3864.414	-652.2
3867.019	-647.2
3869.622	-652.2
3872.224	-650.2
3874.823	-630.2
3877.421	-614.2
3880.016	-603.2
3882.61	-549.2
3885.202	-560.2
3887.792	-587.2
3890.38	-614.2
3892.966	-634.2
3895.55	-650.2
3898.132	-658.2
3900.713	-665.2
3903.291	-668.2
3905.868	-673.2
3908.442	-667.2
3911.015	-668.2
3913.586	-671.2
3916.155	-670.2
3918.722	-669.2
3921.287	-669.2
3923.85	-666.2
3926.411	-668.2
3928.971	-668.2
3931.528	-674.2
3934.084	-659.2
3936.638	-671.2
3939.19	-670.2
3941.74	-669.2
3944.288	-673.2
3946.834	-674.2
3949.378	-676.2
3951.921	-668.2
3954.462	-672.2
3957	-663.2
3959.537	-664.2
3962.072	-669.2
3964.606	-666.2
3967.137	-670.2
3969.667	-671.2
3972.194	-667.2
3974.72	-672.2
3977.244	-662.2
3979.766	-665.2
3982.286	-659.2
3984.805	-653.2
3987.321	-657.2
3989.836	-659.2
3992.349	-658.2
3994.86	-652.2
3997.369	-663.2
3999.877	-655.2
4002.382	-656.2
4004.886	-662.2
4007.388	-657.2
4009.888	-655.2
4012.386	-659.2
4014.883	-653.2
4017.377	-654.2
4019.87	-655.2
4022.361	-659.2
4024.85	-659.2
4027.338	-660.2
4029.823	-656.2
4032.307	-658.2
4034.789	-662.2
4037.269	-664.2
4039.747	-666.2
4042.224	-659.2
4044.699	-661.2
4047.172	-660.2
4049.643	-657.2
4052.112	-661.2
4054.58	-658.2
4057.046	-664.2
4059.51	-662.2
4061.972	-665.2
4064.432	-663.2
4066.891	-657.2
4069.348	-667.2
4071.803	-660.2
4074.256	-657.2
4076.708	-661.2
4079.158	-660.2
4081.606	-654.2
4084.052	-656.2
4086.497	-658.2
4088.939	-658.2
4091.38	-648.2
4093.819	-660.2
4096.257	-690.2
4098.693	-694.2
4101.127	-695.2
4103.559	-695.2
4105.989	-416.2
4108.418	-395.2
4110.845	-378.2
4113.27	-356.2
4115.694	-307.2
4118.115	-251.2
4120.535	-657.2
4122.954	-666.2
4125.37	-656.2
4127.785	-657.2
4130.198	-668.2
4132.609	-655.2
4135.019	-697.2
4137.427	-697.2
4139.833	-693.2
4142.237	-694.2
