Data from 2018-2-7_conc=5_RamanShift_18.txt Node
Date: Tue Feb 13 14:09:13 IST 2018
User: aro
Spectrometer: QEPB0276
Trigger mode: 0
Integration Time (sec): 3.000000E1
Scans to average: 1
Electric dark correction enabled: true
Nonlinearity correction enabled: false
Boxcar width: 0
XAxis mode: Raman Shifts
Number of Pixels in Spectrum: 1044
>>>>>Begin Spectral Data<<<<<
160.701	-164.4
166.742	30.6
172.777	593.6
178.805	2298.6
184.826	6259.6
190.841	12955.6
196.849	20470.6
202.85	25734.6
208.845	27426.6
214.833	27060.6
220.815	26600.6
226.789	26316.6
232.758	26310.6
238.719	26081.6
244.674	25743.6
250.623	25236.6
256.565	24695.6
262.5	24204.6
268.429	23760.6
274.351	23415.6
280.267	23126.6
286.176	22791.6
292.079	22541.6
297.975	22354.6
303.865	22157.6
309.748	22002.6
315.625	21861.6
321.495	21780.6
327.359	21679.6
333.217	21552.6
339.068	21627.6
344.912	21519.6
350.751	21612.6
356.583	21473.6
362.408	21461.6
368.227	21523.6
374.04	21600.6
379.847	21621.6
385.647	21699.6
391.44	21764.6
397.228	21826.6
403.009	21865.6
408.784	22044.6
414.553	22034.6
420.315	22076.6
426.071	22117.6
431.821	22091.6
437.565	22097.6
443.302	22038.6
449.033	21988.6
454.758	21947.6
460.477	21913.6
466.189	21909.6
471.896	21839.6
477.596	21763.6
483.29	21688.6
488.978	21638.6
494.66	21629.6
500.335	21438.6
506.005	21191.6
511.668	20936.6
517.325	20729.6
522.977	20570.6
528.622	20410.6
534.261	20295.6
539.894	20175.6
545.521	20114.6
551.141	20072.6
556.756	19957.6
562.365	19910.6
567.968	19793.6
573.565	19734.6
579.155	19611.6
584.74	19577.6
590.319	19502.6
595.892	19434.6
601.459	19342.6
607.02	19266.6
612.575	19136.6
618.124	19022.6
623.667	18933.6
629.204	18762.6
634.735	18718.6
640.261	18686.6
645.781	18587.6
651.294	18562.6
656.802	18536.6
662.304	18498.6
667.8	18417.6
673.29	18487.6
678.775	18401.6
684.254	18316.6
689.726	18299.6
695.193	18271.6
700.655	18069.6
706.11	18060.6
711.56	17975.6
717.004	17872.6
722.442	17858.6
727.874	17730.6
733.301	17618.6
738.722	17594.6
744.137	17561.6
749.547	17574.6
754.951	17546.6
760.349	17584.6
765.741	17580.6
771.128	17554.6
776.509	17617.6
781.885	17597.6
787.254	17557.6
792.618	17480.6
797.977	17317.6
803.33	17241.6
808.677	17138.6
814.019	17058.6
819.355	16959.6
824.686	16930.6
830.011	16828.6
835.33	16808.6
840.644	16907.6
845.952	16898.6
851.255	16952.6
856.552	16981.6
861.844	16881.6
867.13	16879.6
872.41	16808.6
877.686	16718.6
882.955	16628.6
888.219	16507.6
893.478	16258.6
898.731	16046.6
903.979	15948.6
909.221	15794.6
914.458	15717.6
919.69	15697.6
924.916	15805.6
930.136	15867.6
935.351	15856.6
940.561	15870.6
945.766	15790.6
950.965	15723.6
956.158	15595.6
961.347	15452.6
966.529	15208.6
971.707	15032.6
976.879	14883.6
982.046	14770.6
987.208	14766.6
992.364	14719.6
997.515	14821.6
1002.66	14978.6
1007.801	15142.6
1012.936	15247.6
1018.066	15238.6
1023.19	15238.6
1028.309	15205.6
1033.423	15209.6
1038.532	15070.6
1043.636	14958.6
1048.734	14765.6
1053.827	14626.6
1058.915	14419.6
1063.998	14328.6
1069.075	14360.6
1074.147	14297.6
1079.214	14378.6
1084.276	14461.6
1089.333	14532.6
1094.385	14644.6
1099.431	14652.6
1104.472	14647.6
1109.509	14505.6
1114.54	14417.6
1119.565	14183.6
1124.586	14070.6
1129.602	13916.6
1134.613	13768.6
1139.618	13709.6
1144.619	13714.6
1149.614	13701.6
1154.604	13708.6
1159.589	13762.6
1164.57	13802.6
1169.545	13816.6
1174.515	13799.6
1179.48	13730.6
1184.44	13626.6
1189.395	13507.6
1194.345	13400.6
1199.29	13354.6
1204.23	13369.6
1209.165	13453.6
1214.095	13504.6
1219.021	13577.6
1223.941	13619.6
1228.856	13692.6
1233.766	13741.6
1238.672	13761.6
1243.572	13686.6
1248.467	13622.6
1253.358	13472.6
1258.244	13290.6
1263.124	13085.6
1268	12890.6
1272.871	12728.6
1277.737	12622.6
1282.599	12569.6
1287.455	12566.6
1292.306	12615.6
1297.153	12631.6
1301.995	12656.6
1306.832	12721.6
1311.664	12719.6
1316.491	12682.6
1321.314	12598.6
1326.132	12374.6
1330.945	12136.6
1335.753	11773.6
1340.556	11549.6
1345.354	11300.6
1350.148	11056.6
1354.937	10988.6
1359.722	11011.6
1364.501	11067.6
1369.276	11186.6
1374.046	11302.6
1378.811	11480.6
1383.572	11634.6
1388.327	11649.6
1393.079	11588.6
1397.825	11502.6
1402.567	11283.6
1407.304	11125.6
1412.036	11022.6
1416.764	10946.6
1421.487	10898.6
1426.205	10840.6
1430.919	10737.6
1435.628	10773.6
1440.333	10826.6
1445.032	10806.6
1449.727	10834.6
1454.418	10841.6
1459.104	10713.6
1463.785	10519.6
1468.462	10297.6
1473.134	10087.6
1477.802	9885.6
1482.465	9691.6
1487.123	9590.6
1491.777	9564.6
1496.426	9594.6
1501.071	9701.6
1505.711	9827.6
1510.347	10014.6
1514.978	10217.6
1519.604	10347.6
1524.226	10490.6
1528.844	10449.6
1533.457	10433.6
1538.065	10350.6
1542.669	10288.6
1547.269	10263.6
1551.864	10203.6
1556.454	10156.6
1561.041	10134.6
1565.622	10140.6
1570.199	10137.6
1574.772	10221.6
1579.34	10311.6
1583.904	10394.6
1588.464	10364.6
1593.019	10407.6
1597.569	10379.6
1602.115	10255.6
1606.657	10219.6
1611.195	10173.6
1615.728	10103.6
1620.256	10091.6
1624.78	10028.6
1629.3	10055.6
1633.816	10138.6
1638.327	10154.6
1642.834	10163.6
1647.336	10235.6
1651.834	10269.6
1656.328	10200.6
1660.817	10184.6
1665.302	10017.6
1669.783	9867.6
1674.259	9631.6
1678.732	9351.6
1683.199	9029.6
1687.663	8760.6
1692.122	8500.6
1696.577	8362.6
1701.028	8322.6
1705.474	8430.6
1709.917	8443.6
1714.355	8486.6
1718.788	8406.6
1723.218	8293.6
1727.643	8183.6
1732.064	8026.6
1736.481	7819.6
1740.893	7643.6
1745.301	7448.6
1749.705	7228.6
1754.105	7034.6
1758.501	6816.6
1762.893	6654.6
1767.28	6478.6
1771.663	6342.6
1776.042	6261.6
1780.417	6224.6
1784.787	6209.6
1789.154	6249.6
1793.516	6324.6
1797.874	6455.6
1802.228	6541.6
1806.578	6622.6
1810.924	6573.6
1815.266	6558.6
1819.603	6467.6
1823.937	6408.6
1828.266	6269.6
1832.591	6200.6
1836.913	6110.6
1841.23	6019.6
1845.543	5998.6
1849.852	5984.6
1854.156	5966.6
1858.457	5935.6
1862.754	5941.6
1867.047	5945.6
1871.335	5923.6
1875.62	5941.6
1879.9	5873.6
1884.177	5828.6
1888.449	5803.6
1892.718	5767.6
1896.982	5694.6
1901.243	5616.6
1905.499	5585.6
1909.752	5579.6
1914	5557.6
1918.245	5555.6
1922.485	5600.6
1926.722	5645.6
1930.954	5713.6
1935.183	5779.6
1939.408	5858.6
1943.628	5870.6
1947.845	5909.6
1952.058	5874.6
1956.267	5794.6
1960.472	5750.6
1964.673	5680.6
1968.87	5600.6
1973.063	5506.6
1977.252	5384.6
1981.438	5394.6
1985.619	5297.6
1989.797	5292.6
1993.971	5257.6
1998.14	5268.6
2002.306	5182.6
2006.469	5207.6
2010.627	5144.6
2014.781	5181.6
2018.932	5077.6
2023.078	5039.6
2027.221	4961.6
2031.36	4900.6
2035.495	4818.6
2039.627	4734.6
2043.754	4696.6
2047.878	4636.6
2051.998	4618.6
2056.114	4613.6
2060.226	4585.6
2064.334	4616.6
2068.439	4617.6
2072.54	4635.6
2076.637	4671.6
2080.73	4692.6
2084.82	4734.6
2088.906	4704.6
2092.988	4747.6
2097.066	4717.6
2101.14	4689.6
2105.211	4649.6
2109.278	4637.6
2113.342	4612.6
2117.401	4592.6
2121.457	4550.6
2125.509	4532.6
2129.558	4516.6
2133.602	4460.6
2137.643	4471.6
2141.681	4437.6
2145.714	4437.6
2149.744	4419.6
2153.77	4363.6
2157.793	4324.6
2161.812	4265.6
2165.827	4189.6
2169.838	4155.6
2173.846	4098.6
2177.851	4002.6
2181.851	3950.6
2185.848	3904.6
2189.841	3871.6
2193.831	3819.6
2197.817	3804.6
2201.799	3751.6
2205.778	3760.6
2209.753	3721.6
2213.725	3705.6
2217.693	3711.6
2221.657	3722.6
2225.618	3706.6
2229.575	3687.6
2233.529	3648.6
2237.479	3610.6
2241.425	3563.6
2245.368	3518.6
2249.307	3471.6
2253.243	3422.6
2257.175	3380.6
2261.104	3339.6
2265.029	3294.6
2268.95	3239.6
2272.868	3233.6
2276.783	3201.6
2280.694	3157.6
2284.601	3131.6
2288.505	3106.6
2292.405	3089.6
2296.302	3049.6
2300.195	3003.6
2304.085	2973.6
2307.971	2923.6
2311.854	2899.6
2315.734	2841.6
2319.609	2807.6
2323.482	2773.6
2327.351	2754.6
2331.216	2726.6
2335.078	2719.6
2338.937	2698.6
2342.792	2665.6
2346.643	2661.6
2350.492	2686.6
2354.336	2661.6
2358.178	2681.6
2362.015	2688.6
2365.85	2688.6
2369.681	2700.6
2373.508	2687.6
2377.333	2676.6
2381.153	2674.6
2384.971	2676.6
2388.785	2629.6
2392.595	2635.6
2396.402	2590.6
2400.206	2563.6
2404.007	2575.6
2407.804	2519.6
2411.597	2511.6
2415.388	2502.6
2419.174	2492.6
2422.958	2495.6
2426.738	2469.6
2430.515	2432.6
2434.289	2407.6
2438.059	2401.6
2441.825	2383.6
2445.589	2359.6
2449.349	2328.6
2453.106	2317.6
2456.859	2256.6
2460.61	2224.6
2464.356	2230.6
2468.1	2178.6
2471.84	2163.6
2475.577	2144.6
2479.311	2140.6
2483.041	2112.6
2486.768	2110.6
2490.492	2099.6
2494.213	2108.6
2497.93	2087.6
2501.644	2069.6
2505.355	2063.6
2509.062	2057.6
2512.766	2038.6
2516.467	2014.6
2520.165	2017.6
2523.859	2001.6
2527.551	1983.6
2531.239	1981.6
2534.923	1967.6
2538.605	1934.6
2542.283	1941.6
2545.958	1927.6
2549.63	1918.6
2553.299	1908.6
2556.964	1955.6
2560.626	1924.6
2564.285	1929.6
2567.941	1906.6
2571.594	1899.6
2575.243	1897.6
2578.89	1876.6
2582.533	1856.6
2586.173	1859.6
2589.809	1831.6
2593.443	1823.6
2597.073	1789.6
2600.701	1781.6
2604.325	1762.6
2607.946	1746.6
2611.564	1745.6
2615.178	1740.6
2618.79	1721.6
2622.398	1699.6
2626.004	1695.6
2629.606	1668.6
2633.205	1653.6
2636.801	1626.6
2640.394	1607.6
2643.983	1574.6
2647.57	1563.6
2651.153	1537.6
2654.734	1524.6
2658.311	1476.6
2661.885	1466.6
2665.456	1449.6
2669.025	1416.6
2672.589	1413.6
2676.151	1380.6
2679.71	1402.6
2683.266	1359.6
2686.819	1320.6
2690.368	1304.6
2693.915	1276.6
2697.458	1258.6
2700.999	1218.6
2704.536	1202.6
2708.071	1175.6
2711.602	1155.6
2715.13	1114.6
2718.656	1083.6
2722.178	1078.6
2725.697	1052.6
2729.214	1055.6
2732.727	1049.6
2736.237	1026.6
2739.744	1029.6
2743.249	1052.6
2746.75	1040.6
2750.248	1051.6
2753.743	1051.6
2757.236	1073.6
2760.725	1076.6
2764.211	1094.6
2767.695	1101.6
2771.175	1083.6
2774.652	1077.6
2778.127	1081.6
2781.598	1047.6
2785.067	1066.6
2788.532	1051.6
2791.995	1060.6
2795.455	1063.6
2798.911	1062.6
2802.365	1063.6
2805.816	1063.6
2809.264	1063.6
2812.709	1053.6
2816.151	1055.6
2819.59	1058.6
2823.026	1043.6
2826.46	1045.6
2829.89	1075.6
2833.318	1076.6
2836.742	1054.6
2840.164	1091.6
2843.583	1078.6
2846.999	1097.6
2850.412	1094.6
2853.822	1117.6
2857.229	1140.6
2860.634	1141.6
2864.035	1162.6
2867.434	1194.6
2870.83	1225.6
2874.223	1237.6
2877.613	1246.6
2881	1269.6
2884.385	1283.6
2887.766	1257.6
2891.145	1272.6
2894.521	1267.6
2897.894	1257.6
2901.264	1268.6
2904.631	1256.6
2907.996	1272.6
2911.358	1278.6
2914.717	1277.6
2918.073	1278.6
2921.426	1305.6
2924.777	1319.6
2928.124	1356.6
2931.469	1362.6
2934.811	1396.6
2938.15	1403.6
2941.487	1409.6
2944.821	1419.6
2948.152	1421.6
2951.48	1419.6
2954.805	1406.6
2958.128	1383.6
2961.447	1387.6
2964.765	1361.6
2968.079	1367.6
2971.39	1385.6
2974.699	1414.6
2978.005	1418.6
2981.308	1437.6
2984.609	1458.6
2987.907	1509.6
2991.202	1534.6
2994.494	1558.6
2997.784	1573.6
3001.07	1610.6
3004.355	1636.6
3007.636	1658.6
3010.915	1666.6
3014.191	1699.6
3017.464	1707.6
3020.734	1709.6
3024.002	1721.6
3027.267	1737.6
3030.53	1733.6
3033.789	1753.6
3037.046	1770.6
3040.301	1808.6
3043.552	1848.6
3046.801	1901.6
3050.048	1918.6
3053.291	1984.6
3056.532	2046.6
3059.771	2080.6
3063.006	2151.6
3066.239	2221.6
3069.469	2276.6
3072.697	2349.6
3075.922	2398.6
3079.144	2462.6
3082.364	2494.6
3085.581	2543.6
3088.795	2599.6
3092.007	2677.6
3095.216	2733.6
3098.423	2765.6
3101.627	2853.6
3104.828	2912.6
3108.026	2946.6
3111.222	3038.6
3114.416	3086.6
3117.607	3159.6
3120.795	3246.6
3123.98	3349.6
3127.163	3398.6
3130.344	3491.6
3133.521	3567.6
3136.696	3660.6
3139.869	3711.6
3143.039	3788.6
3146.206	3818.6
3149.371	3900.6
3152.533	3904.6
3155.693	3943.6
3158.85	3959.6
3162.005	3960.6
3165.157	3982.6
3168.306	4006.6
3171.453	4023.6
3174.597	4021.6
3177.739	4039.6
3180.878	4018.6
3184.014	4031.6
3187.149	4064.6
3190.28	4085.6
3193.409	4086.6
3196.536	4057.6
3199.659	4048.6
3202.781	4048.6
3205.9	4081.6
3209.016	4079.6
3212.13	4067.6
3215.241	4027.6
3218.35	3985.6
3221.456	3939.6
3224.56	3900.6
3227.661	3838.6
3230.76	3866.6
3233.856	3795.6
3236.95	3751.6
3240.041	3725.6
3243.13	3667.6
3246.216	3678.6
3249.3	3649.6
3252.382	3630.6
3255.46	3624.6
3258.537	3612.6
3261.611	3607.6
3264.682	3616.6
3267.751	3600.6
3270.818	3603.6
3273.882	3575.6
3276.943	3558.6
3280.002	3542.6
3283.059	3482.6
3286.113	3430.6
3289.165	3421.6
3292.214	3348.6
3295.261	3292.6
3298.306	3229.6
3301.348	3179.6
3304.387	3142.6
3307.425	3068.6
3310.459	3073.6
3313.492	3016.6
3316.521	2961.6
3319.549	2931.6
3322.574	2898.6
3325.597	2884.6
3328.617	2845.6
3331.635	2850.6
3334.65	2818.6
3337.663	2795.6
3340.674	2767.6
3343.682	2803.6
3346.688	2789.6
3349.691	2765.6
3352.692	2760.6
3355.691	2736.6
3358.687	2690.6
3361.681	2654.6
3364.673	2647.6
3367.662	2607.6
3370.649	2551.6
3373.633	2534.6
3376.615	2495.6
3379.595	2472.6
3382.572	2428.6
3385.547	2394.6
3388.52	2350.6
3391.49	2276.6
3394.458	2265.6
3397.424	2244.6
3400.387	2198.6
3403.348	2185.6
3406.307	2163.6
3409.263	2133.6
3412.217	2118.6
3415.168	2086.6
3418.118	2058.6
3421.065	2027.6
3424.009	2014.6
3426.951	1979.6
3429.891	1933.6
3432.829	1880.6
3435.764	1834.6
3438.697	1795.6
3441.628	1762.6
3444.557	1698.6
3447.483	1646.6
3450.407	1605.6
3453.328	1538.6
3456.247	1478.6
3459.164	1436.6
3462.079	1376.6
3464.991	1330.6
3467.902	1260.6
3470.809	1223.6
3473.715	1177.6
3476.618	1157.6
3479.519	1088.6
3482.418	1071.6
3485.315	1030.6
3488.209	990.6
3491.101	957.6
3493.99	919.6
3496.878	871.6
3499.763	831.6
3502.646	832.6
3505.527	764.6
3508.405	729.6
3511.281	681.6
3514.155	655.6
3517.027	619.6
3519.897	562.6
3522.764	517.6
3525.629	487.6
3528.492	444.6
3531.352	398.6
3534.211	374.6
3537.067	331.6
3539.921	285.6
3542.773	270.6
3545.622	226.6
3548.469	191.6
3551.315	170.6
3554.157	140.6
3556.998	111.6
3559.837	97.6
3562.673	60.6
3565.507	36.6
3568.339	28.6
3571.169	5.6
3573.996	-28.4
3576.822	-26.4
3579.645	-58.4
3582.466	-77.4
3585.285	-98.4
3588.101	-119.4
3590.916	-139.4
3593.728	-160.4
3596.538	-168.4
3599.346	-195.4
3602.152	-207.4
3604.956	-229.4
3607.757	-247.4
3610.556	-258.4
3613.354	-276.4
3616.149	-291.4
3618.942	-291.4
3621.732	-313.4
3624.521	-315.4
3627.307	-329.4
3630.092	-340.4
3632.874	-350.4
3635.654	-361.4
3638.432	-370.4
3641.208	-381.4
3643.982	-378.4
3646.753	-395.4
3649.523	-405.4
3652.29	-417.4
3655.055	-418.4
3657.818	-434.4
3660.579	-437.4
3663.338	-447.4
3666.095	-461.4
3668.849	-477.4
3671.602	-484.4
3674.352	-485.4
3677.101	-498.4
3679.847	-511.4
3682.591	-502.4
3685.333	-514.4
3688.073	-515.4
3690.811	-522.4
3693.547	-522.4
3696.281	-529.4
3699.013	-536.4
3701.742	-545.4
3704.47	-545.4
3707.195	-558.4
3709.919	-553.4
3712.64	-563.4
3715.359	-568.4
3718.076	-569.4
3720.792	-578.4
3723.505	-569.4
3726.216	-584.4
3728.925	-586.4
3731.632	-592.4
3734.336	-593.4
3737.039	-594.4
3739.74	-599.4
3742.439	-593.4
3745.136	-604.4
3747.83	-605.4
3750.523	-604.4
3753.213	-614.4
3755.902	-615.4
3758.589	-608.4
3761.273	-612.4
3763.956	-617.4
3766.636	-616.4
3769.315	-617.4
3771.991	-620.4
3774.665	-616.4
3777.338	-614.4
3780.008	-621.4
3782.677	-617.4
3785.343	-622.4
3788.007	-621.4
3790.67	-628.4
3793.33	-633.4
3795.989	-631.4
3798.645	-637.4
3801.299	-633.4
3803.952	-634.4
3806.602	-636.4
3809.251	-647.4
3811.897	-636.4
3814.542	-635.4
3817.184	-643.4
3819.825	-638.4
3822.463	-636.4
3825.1	-645.4
3827.735	-649.4
3830.367	-647.4
3832.998	-645.4
3835.627	-649.4
3838.253	-652.4
3840.878	-643.4
3843.501	-647.4
3846.122	-646.4
3848.741	-643.4
3851.358	-649.4
3853.973	-642.4
3856.586	-648.4
3859.197	-653.4
3861.806	-646.4
3864.414	-642.4
3867.019	-640.4
3869.622	-649.4
3872.224	-642.4
3874.823	-629.4
3877.421	-611.4
3880.016	-599.4
3882.61	-560.4
3885.202	-558.4
3887.792	-579.4
3890.38	-614.4
3892.966	-640.4
3895.55	-652.4
3898.132	-656.4
3900.713	-656.4
3903.291	-665.4
3905.868	-668.4
3908.442	-666.4
3911.015	-661.4
3913.586	-660.4
3916.155	-662.4
3918.722	-663.4
3921.287	-665.4
3923.85	-663.4
3926.411	-664.4
3928.971	-662.4
3931.528	-665.4
3934.084	-651.4
3936.638	-663.4
3939.19	-666.4
3941.74	-670.4
3944.288	-667.4
3946.834	-665.4
3949.378	-664.4
3951.921	-669.4
3954.462	-672.4
3957	-661.4
3959.537	-661.4
3962.072	-662.4
3964.606	-662.4
3967.137	-667.4
3969.667	-665.4
3972.194	-663.4
3974.72	-665.4
3977.244	-659.4
3979.766	-655.4
3982.286	-656.4
3984.805	-644.4
3987.321	-648.4
3989.836	-650.4
3992.349	-648.4
3994.86	-649.4
3997.369	-661.4
3999.877	-647.4
4002.382	-646.4
4004.886	-652.4
4007.388	-655.4
4009.888	-647.4
4012.386	-648.4
4014.883	-644.4
4017.377	-651.4
4019.87	-643.4
4022.361	-650.4
4024.85	-656.4
4027.338	-651.4
4029.823	-652.4
4032.307	-648.4
4034.789	-653.4
4037.269	-662.4
4039.747	-657.4
4042.224	-650.4
4044.699	-656.4
4047.172	-655.4
4049.643	-659.4
4052.112	-651.4
4054.58	-650.4
4057.046	-663.4
4059.51	-659.4
4061.972	-658.4
4064.432	-657.4
4066.891	-649.4
4069.348	-657.4
4071.803	-659.4
4074.256	-652.4
4076.708	-651.4
4079.158	-649.4
4081.606	-646.4
4084.052	-651.4
4086.497	-658.4
4088.939	-647.4
4091.38	-649.4
4093.819	-659.4
4096.257	-682.4
4098.693	-687.4
4101.127	-688.4
4103.559	-692.4
4105.989	-410.4
4108.418	-388.4
4110.845	-372.4
4113.27	-345.4
4115.694	-289.4
4118.115	-257.4
4120.535	-652.4
4122.954	-662.4
4125.37	-658.4
4127.785	-653.4
4130.198	-657.4
4132.609	-652.4
4135.019	-692.4
4137.427	-690.4
4139.833	-684.4
4142.237	-691.4
