Data from 2018-2-7_conc=6_RamanShift_16.txt Node
Date: Tue Feb 13 14:37:13 IST 2018
User: aro
Spectrometer: QEPB0276
Trigger mode: 0
Integration Time (sec): 3.000000E1
Scans to average: 1
Electric dark correction enabled: true
Nonlinearity correction enabled: false
Boxcar width: 0
XAxis mode: Raman Shifts
Number of Pixels in Spectrum: 1044
>>>>>Begin Spectral Data<<<<<
160.701	-160.8
166.742	29.2
172.777	584.2
178.805	2262.2
184.826	6151.2
190.841	12750.2
196.849	20187.2
202.85	25339.2
208.845	26972.2
214.833	26616.2
220.815	26140.2
226.789	25855.2
232.758	25867.2
238.719	25627.2
244.674	25298.2
250.623	24781.2
256.565	24246.2
262.5	23763.2
268.429	23292.2
274.351	22941.2
280.267	22593.2
286.176	22400.2
292.079	22186.2
297.975	21882.2
303.865	21812.2
309.748	21592.2
315.625	21407.2
321.495	21302.2
327.359	21237.2
333.217	21165.2
339.068	21140.2
344.912	21160.2
350.751	21106.2
356.583	21046.2
362.408	21113.2
368.227	21074.2
374.04	21138.2
379.847	21161.2
385.647	21276.2
391.44	21335.2
397.228	21322.2
403.009	21483.2
408.784	21551.2
414.553	21591.2
420.315	21679.2
426.071	21661.2
431.821	21624.2
437.565	21520.2
443.302	21584.2
449.033	21556.2
454.758	21506.2
460.477	21455.2
466.189	21460.2
471.896	21402.2
477.596	21324.2
483.29	21255.2
488.978	21241.2
494.66	21170.2
500.335	21035.2
506.005	20790.2
511.668	20594.2
517.325	20334.2
522.977	20182.2
528.622	20072.2
534.261	19905.2
539.894	19809.2
545.521	19698.2
551.141	19666.2
556.756	19641.2
562.365	19513.2
567.968	19437.2
573.565	19398.2
579.155	19298.2
584.74	19177.2
590.319	19172.2
595.892	19075.2
601.459	18986.2
607.02	18915.2
612.575	18811.2
618.124	18655.2
623.667	18595.2
629.204	18479.2
634.735	18440.2
640.261	18257.2
645.781	18287.2
651.294	18226.2
656.802	18272.2
662.304	18149.2
667.8	18141.2
673.29	18098.2
678.775	18086.2
684.254	17992.2
689.726	17940.2
695.193	17872.2
700.655	17767.2
706.11	17747.2
711.56	17682.2
717.004	17512.2
722.442	17497.2
727.874	17433.2
733.301	17326.2
738.722	17314.2
744.137	17210.2
749.547	17244.2
754.951	17297.2
760.349	17232.2
765.741	17291.2
771.128	17267.2
776.509	17250.2
781.885	17308.2
787.254	17235.2
792.618	17146.2
797.977	17017.2
803.33	16937.2
808.677	16834.2
814.019	16723.2
819.355	16610.2
824.686	16572.2
830.011	16516.2
835.33	16539.2
840.644	16518.2
845.952	16618.2
851.255	16644.2
856.552	16629.2
861.844	16598.2
867.13	16555.2
872.41	16507.2
877.686	16394.2
882.955	16253.2
888.219	16102.2
893.478	15956.2
898.731	15746.2
903.979	15590.2
909.221	15535.2
914.458	15471.2
919.69	15415.2
924.916	15490.2
930.136	15522.2
935.351	15554.2
940.561	15504.2
945.766	15478.2
950.965	15423.2
956.158	15324.2
961.347	15162.2
966.529	14997.2
971.707	14756.2
976.879	14594.2
982.046	14483.2
987.208	14449.2
992.364	14448.2
997.515	14535.2
1002.66	14629.2
1007.801	14823.2
1012.936	14950.2
1018.066	14897.2
1023.19	14943.2
1028.309	14933.2
1033.423	14904.2
1038.532	14809.2
1043.636	14638.2
1048.734	14432.2
1053.827	14347.2
1058.915	14123.2
1063.998	14069.2
1069.075	14030.2
1074.147	14016.2
1079.214	14092.2
1084.276	14151.2
1089.333	14314.2
1094.385	14338.2
1099.431	14361.2
1104.472	14348.2
1109.509	14210.2
1114.54	14100.2
1119.565	13867.2
1124.586	13748.2
1129.602	13642.2
1134.613	13535.2
1139.618	13462.2
1144.619	13424.2
1149.614	13426.2
1154.604	13411.2
1159.589	13459.2
1164.57	13466.2
1169.545	13473.2
1174.515	13525.2
1179.48	13442.2
1184.44	13347.2
1189.395	13235.2
1194.345	13116.2
1199.29	13085.2
1204.23	13119.2
1209.165	13151.2
1214.095	13170.2
1219.021	13238.2
1223.941	13367.2
1228.856	13395.2
1233.766	13476.2
1238.672	13382.2
1243.572	13438.2
1248.467	13363.2
1253.358	13209.2
1258.244	13034.2
1263.124	12816.2
1268	12613.2
1272.871	12534.2
1277.737	12410.2
1282.599	12345.2
1287.455	12279.2
1292.306	12317.2
1297.153	12391.2
1301.995	12417.2
1306.832	12463.2
1311.664	12450.2
1316.491	12408.2
1321.314	12297.2
1326.132	12160.2
1330.945	11915.2
1335.753	11601.2
1340.556	11312.2
1345.354	11087.2
1350.148	10906.2
1354.937	10813.2
1359.722	10822.2
1364.501	10851.2
1369.276	10947.2
1374.046	11028.2
1378.811	11217.2
1383.572	11361.2
1388.327	11401.2
1393.079	11336.2
1397.825	11215.2
1402.567	11050.2
1407.304	10913.2
1412.036	10822.2
1416.764	10755.2
1421.487	10656.2
1426.205	10611.2
1430.919	10580.2
1435.628	10599.2
1440.333	10637.2
1445.032	10638.2
1449.727	10675.2
1454.418	10628.2
1459.104	10552.2
1463.785	10322.2
1468.462	10093.2
1473.134	9857.2
1477.802	9654.2
1482.465	9496.2
1487.123	9447.2
1491.777	9379.2
1496.426	9430.2
1501.071	9478.2
1505.711	9615.2
1510.347	9753.2
1514.978	9937.2
1519.604	10059.2
1524.226	10196.2
1528.844	10205.2
1533.457	10189.2
1538.065	10152.2
1542.669	10060.2
1547.269	9982.2
1551.864	9920.2
1556.454	9918.2
1561.041	9942.2
1565.622	9915.2
1570.199	9926.2
1574.772	10016.2
1579.34	10069.2
1583.904	10086.2
1588.464	10158.2
1593.019	10155.2
1597.569	10130.2
1602.115	10068.2
1606.657	10021.2
1611.195	9970.2
1615.728	9877.2
1620.256	9849.2
1624.78	9860.2
1629.3	9899.2
1633.816	9888.2
1638.327	9949.2
1642.834	9961.2
1647.336	10075.2
1651.834	9981.2
1656.328	10041.2
1660.817	9929.2
1665.302	9864.2
1669.783	9671.2
1674.259	9456.2
1678.732	9166.2
1683.199	8830.2
1687.663	8550.2
1692.122	8234.2
1696.577	8124.2
1701.028	8103.2
1705.474	8150.2
1709.917	8187.2
1714.355	8204.2
1718.788	8184.2
1723.218	8053.2
1727.643	7939.2
1732.064	7751.2
1736.481	7592.2
1740.893	7425.2
1745.301	7222.2
1749.705	7040.2
1754.105	6814.2
1758.501	6655.2
1762.893	6464.2
1767.28	6298.2
1771.663	6092.2
1776.042	6018.2
1780.417	5962.2
1784.787	5945.2
1789.154	5984.2
1793.516	6076.2
1797.874	6183.2
1802.228	6304.2
1806.578	6372.2
1810.924	6390.2
1815.266	6362.2
1819.603	6241.2
1823.937	6188.2
1828.266	6028.2
1832.591	5957.2
1836.913	5857.2
1841.23	5804.2
1845.543	5807.2
1849.852	5778.2
1854.156	5787.2
1858.457	5736.2
1862.754	5742.2
1867.047	5723.2
1871.335	5718.2
1875.62	5689.2
1879.9	5695.2
1884.177	5625.2
1888.449	5597.2
1892.718	5500.2
1896.982	5461.2
1901.243	5394.2
1905.499	5330.2
1909.752	5351.2
1914	5276.2
1918.245	5358.2
1922.485	5367.2
1926.722	5407.2
1930.954	5464.2
1935.183	5529.2
1939.408	5595.2
1943.628	5632.2
1947.845	5640.2
1952.058	5607.2
1956.267	5628.2
1960.472	5532.2
1964.673	5462.2
1968.87	5366.2
1973.063	5295.2
1977.252	5218.2
1981.438	5146.2
1985.619	5116.2
1989.797	5088.2
1993.971	5052.2
1998.14	4992.2
2002.306	5014.2
2006.469	4957.2
2010.627	4952.2
2014.781	4934.2
2018.932	4861.2
2023.078	4848.2
2027.221	4748.2
2031.36	4683.2
2035.495	4582.2
2039.627	4531.2
2043.754	4482.2
2047.878	4446.2
2051.998	4442.2
2056.114	4399.2
2060.226	4383.2
2064.334	4402.2
2068.439	4397.2
2072.54	4472.2
2076.637	4464.2
2080.73	4493.2
2084.82	4501.2
2088.906	4504.2
2092.988	4509.2
2097.066	4550.2
2101.14	4470.2
2105.211	4441.2
2109.278	4441.2
2113.342	4429.2
2117.401	4354.2
2121.457	4340.2
2125.509	4332.2
2129.558	4311.2
2133.602	4263.2
2137.643	4253.2
2141.681	4232.2
2145.714	4203.2
2149.744	4161.2
2153.77	4179.2
2157.793	4123.2
2161.812	4084.2
2165.827	4026.2
2169.838	3952.2
2173.846	3872.2
2177.851	3828.2
2181.851	3750.2
2185.848	3721.2
2189.841	3688.2
2193.831	3644.2
2197.817	3616.2
2201.799	3588.2
2205.778	3580.2
2209.753	3583.2
2213.725	3568.2
2217.693	3547.2
2221.657	3553.2
2225.618	3531.2
2229.575	3506.2
2233.529	3457.2
2237.479	3455.2
2241.425	3387.2
2245.368	3354.2
2249.307	3283.2
2253.243	3278.2
2257.175	3231.2
2261.104	3172.2
2265.029	3142.2
2268.95	3091.2
2272.868	3077.2
2276.783	3032.2
2280.694	3000.2
2284.601	2973.2
2288.505	2937.2
2292.405	2924.2
2296.302	2913.2
2300.195	2860.2
2304.085	2817.2
2307.971	2793.2
2311.854	2751.2
2315.734	2711.2
2319.609	2671.2
2323.482	2620.2
2327.351	2597.2
2331.216	2590.2
2335.078	2607.2
2338.937	2576.2
2342.792	2539.2
2346.643	2550.2
2350.492	2534.2
2354.336	2550.2
2358.178	2557.2
2362.015	2555.2
2365.85	2571.2
2369.681	2576.2
2373.508	2569.2
2377.333	2585.2
2381.153	2554.2
2384.971	2547.2
2388.785	2513.2
2392.595	2515.2
2396.402	2487.2
2400.206	2459.2
2404.007	2461.2
2407.804	2446.2
2411.597	2390.2
2415.388	2403.2
2419.174	2388.2
2422.958	2397.2
2426.738	2336.2
2430.515	2351.2
2434.289	2315.2
2438.059	2292.2
2441.825	2287.2
2445.589	2251.2
2449.349	2209.2
2453.106	2192.2
2456.859	2177.2
2460.61	2139.2
2464.356	2110.2
2468.1	2088.2
2471.84	2071.2
2475.577	2071.2
2479.311	2061.2
2483.041	2037.2
2486.768	2018.2
2490.492	2006.2
2494.213	2010.2
2497.93	1984.2
2501.644	1976.2
2505.355	1965.2
2509.062	1945.2
2512.766	1934.2
2516.467	1927.2
2520.165	1928.2
2523.859	1919.2
2527.551	1902.2
2531.239	1861.2
2534.923	1867.2
2538.605	1820.2
2542.283	1835.2
2545.958	1851.2
2549.63	1846.2
2553.299	1822.2
2556.964	1827.2
2560.626	1834.2
2564.285	1817.2
2567.941	1803.2
2571.594	1774.2
2575.243	1789.2
2578.89	1764.2
2582.533	1754.2
2586.173	1740.2
2589.809	1720.2
2593.443	1717.2
2597.073	1684.2
2600.701	1671.2
2604.325	1655.2
2607.946	1660.2
2611.564	1655.2
2615.178	1635.2
2618.79	1612.2
2622.398	1617.2
2626.004	1587.2
2629.606	1563.2
2633.205	1576.2
2636.801	1508.2
2640.394	1497.2
2643.983	1473.2
2647.57	1459.2
2651.153	1456.2
2654.734	1414.2
2658.311	1404.2
2661.885	1376.2
2665.456	1376.2
2669.025	1343.2
2672.589	1347.2
2676.151	1322.2
2679.71	1299.2
2683.266	1272.2
2686.819	1252.2
2690.368	1230.2
2693.915	1206.2
2697.458	1174.2
2700.999	1137.2
2704.536	1131.2
2708.071	1090.2
2711.602	1066.2
2715.13	1050.2
2718.656	1034.2
2722.178	1004.2
2725.697	996.2
2729.214	977.2
2732.727	973.2
2736.237	978.2
2739.744	960.2
2743.249	949.2
2746.75	967.2
2750.248	977.2
2753.743	976.2
2757.236	988.2
2760.725	990.2
2764.211	1000.2
2767.695	995.2
2771.175	1006.2
2774.652	992.2
2778.127	989.2
2781.598	965.2
2785.067	989.2
2788.532	973.2
2791.995	977.2
2795.455	983.2
2798.911	991.2
2802.365	983.2
2805.816	994.2
2809.264	986.2
2812.709	956.2
2816.151	966.2
2819.59	969.2
2823.026	989.2
2826.46	987.2
2829.89	996.2
2833.318	989.2
2836.742	998.2
2840.164	996.2
2843.583	1012.2
2846.999	1018.2
2850.412	1036.2
2853.822	1035.2
2857.229	1053.2
2860.634	1085.2
2864.035	1097.2
2867.434	1112.2
2870.83	1150.2
2874.223	1164.2
2877.613	1183.2
2881	1189.2
2884.385	1207.2
2887.766	1206.2
2891.145	1190.2
2894.521	1183.2
2897.894	1206.2
2901.264	1197.2
2904.631	1218.2
2907.996	1199.2
2911.358	1228.2
2914.717	1218.2
2918.073	1223.2
2921.426	1230.2
2924.777	1272.2
2928.124	1287.2
2931.469	1301.2
2934.811	1323.2
2938.15	1338.2
2941.487	1352.2
2944.821	1371.2
2948.152	1349.2
2951.48	1353.2
2954.805	1332.2
2958.128	1315.2
2961.447	1318.2
2964.765	1300.2
2968.079	1308.2
2971.39	1332.2
2974.699	1343.2
2978.005	1344.2
2981.308	1387.2
2984.609	1386.2
2987.907	1433.2
2991.202	1454.2
2994.494	1492.2
2997.784	1529.2
3001.07	1547.2
3004.355	1558.2
3007.636	1589.2
3010.915	1616.2
3014.191	1620.2
3017.464	1649.2
3020.734	1642.2
3024.002	1668.2
3027.267	1661.2
3030.53	1714.2
3033.789	1710.2
3037.046	1733.2
3040.301	1768.2
3043.552	1789.2
3046.801	1845.2
3050.048	1885.2
3053.291	1926.2
3056.532	1970.2
3059.771	2038.2
3063.006	2073.2
3066.239	2169.2
3069.469	2215.2
3072.697	2293.2
3075.922	2325.2
3079.144	2384.2
3082.364	2443.2
3085.581	2487.2
3088.795	2560.2
3092.007	2625.2
3095.216	2668.2
3098.423	2701.2
3101.627	2769.2
3104.828	2851.2
3108.026	2916.2
3111.222	2992.2
3114.416	3053.2
3117.607	3127.2
3120.795	3180.2
3123.98	3278.2
3127.163	3372.2
3130.344	3428.2
3133.521	3502.2
3136.696	3624.2
3139.869	3684.2
3143.039	3709.2
3146.206	3760.2
3149.371	3830.2
3152.533	3872.2
3155.693	3839.2
3158.85	3927.2
3162.005	3919.2
3165.157	3941.2
3168.306	3955.2
3171.453	3958.2
3174.597	3986.2
3177.739	3979.2
3180.878	3981.2
3184.014	3993.2
3187.149	4016.2
3190.28	4015.2
3193.409	4006.2
3196.536	4034.2
3199.659	4002.2
3202.781	4044.2
3205.9	4006.2
3209.016	4002.2
3212.13	3988.2
3215.241	3968.2
3218.35	3930.2
3221.456	3886.2
3224.56	3834.2
3227.661	3833.2
3230.76	3783.2
3233.856	3743.2
3236.95	3712.2
3240.041	3685.2
3243.13	3626.2
3246.216	3607.2
3249.3	3598.2
3252.382	3557.2
3255.46	3590.2
3258.537	3575.2
3261.611	3562.2
3264.682	3538.2
3267.751	3541.2
3270.818	3532.2
3273.882	3552.2
3276.943	3528.2
3280.002	3485.2
3283.059	3457.2
3286.113	3382.2
3289.165	3355.2
3292.214	3302.2
3295.261	3274.2
3298.306	3201.2
3301.348	3129.2
3304.387	3123.2
3307.425	3057.2
3310.459	3003.2
3313.492	2971.2
3316.521	2921.2
3319.549	2892.2
3322.574	2884.2
3325.597	2837.2
3328.617	2856.2
3331.635	2817.2
3334.65	2808.2
3337.663	2801.2
3340.674	2766.2
3343.682	2746.2
3346.688	2757.2
3349.691	2728.2
3352.692	2721.2
3355.691	2711.2
3358.687	2677.2
3361.681	2623.2
3364.673	2613.2
3367.662	2576.2
3370.649	2497.2
3373.633	2487.2
3376.615	2460.2
3379.595	2428.2
3382.572	2404.2
3385.547	2353.2
3388.52	2299.2
3391.49	2278.2
3394.458	2243.2
3397.424	2225.2
3400.387	2182.2
3403.348	2156.2
3406.307	2126.2
3409.263	2116.2
3412.217	2089.2
3415.168	2092.2
3418.118	2036.2
3421.065	2003.2
3424.009	1975.2
3426.951	1943.2
3429.891	1933.2
3432.829	1855.2
3435.764	1834.2
3438.697	1777.2
3441.628	1732.2
3444.557	1701.2
3447.483	1626.2
3450.407	1568.2
3453.328	1512.2
3456.247	1483.2
3459.164	1424.2
3462.079	1348.2
3464.991	1336.2
3467.902	1239.2
3470.809	1244.2
3473.715	1183.2
3476.618	1135.2
3479.519	1105.2
3482.418	1053.2
3485.315	1032.2
3488.209	980.2
3491.101	948.2
3493.99	909.2
3496.878	864.2
3499.763	841.2
3502.646	790.2
3505.527	746.2
3508.405	721.2
3511.281	678.2
3514.155	653.2
3517.027	592.2
3519.897	570.2
3522.764	528.2
3525.629	474.2
3528.492	449.2
3531.352	406.2
3534.211	370.2
3537.067	321.2
3539.921	284.2
3542.773	261.2
3545.622	230.2
3548.469	198.2
3551.315	161.2
3554.157	138.2
3556.998	112.2
3559.837	94.2
3562.673	67.2
3565.507	47.2
3568.339	26.2
3571.169	7.2
3573.996	-18.8
3576.822	-40.8
3579.645	-60.8
3582.466	-72.8
3585.285	-93.8
3588.101	-114.8
3590.916	-136.8
3593.728	-164.8
3596.538	-176.8
3599.346	-190.8
3602.152	-207.8
3604.956	-225.8
3607.757	-242.8
3610.556	-246.8
3613.354	-275.8
3616.149	-283.8
3618.942	-299.8
3621.732	-306.8
3624.521	-312.8
3627.307	-322.8
3630.092	-334.8
3632.874	-351.8
3635.654	-357.8
3638.432	-375.8
3641.208	-372.8
3643.982	-383.8
3646.753	-393.8
3649.523	-397.8
3652.29	-412.8
3655.055	-417.8
3657.818	-422.8
3660.579	-434.8
3663.338	-435.8
3666.095	-454.8
3668.849	-478.8
3671.602	-479.8
3674.352	-481.8
3677.101	-494.8
3679.847	-500.8
3682.591	-497.8
3685.333	-501.8
3688.073	-503.8
3690.811	-515.8
3693.547	-516.8
3696.281	-530.8
3699.013	-524.8
3701.742	-539.8
3704.47	-539.8
3707.195	-551.8
3709.919	-550.8
3712.64	-548.8
3715.359	-561.8
3718.076	-563.8
3720.792	-565.8
3723.505	-569.8
3726.216	-574.8
3728.925	-574.8
3731.632	-589.8
3734.336	-590.8
3737.039	-589.8
3739.74	-583.8
3742.439	-589.8
3745.136	-600.8
3747.83	-597.8
3750.523	-594.8
3753.213	-601.8
3755.902	-601.8
3758.589	-594.8
3761.273	-600.8
3763.956	-605.8
3766.636	-609.8
3769.315	-610.8
3771.991	-611.8
3774.665	-609.8
3777.338	-610.8
3780.008	-610.8
3782.677	-622.8
3785.343	-613.8
3788.007	-615.8
3790.67	-618.8
3793.33	-618.8
3795.989	-626.8
3798.645	-622.8
3801.299	-630.8
3803.952	-625.8
3806.602	-629.8
3809.251	-633.8
3811.897	-631.8
3814.542	-625.8
3817.184	-628.8
3819.825	-631.8
3822.463	-632.8
3825.1	-639.8
3827.735	-642.8
3830.367	-640.8
3832.998	-638.8
3835.627	-636.8
3838.253	-639.8
3840.878	-639.8
3843.501	-638.8
3846.122	-637.8
3848.741	-637.8
3851.358	-638.8
3853.973	-635.8
3856.586	-638.8
3859.197	-642.8
3861.806	-638.8
3864.414	-638.8
3867.019	-638.8
3869.622	-642.8
3872.224	-637.8
3874.823	-621.8
3877.421	-599.8
3880.016	-591.8
3882.61	-551.8
3885.202	-549.8
3887.792	-579.8
3890.38	-605.8
3892.966	-625.8
3895.55	-637.8
3898.132	-645.8
3900.713	-650.8
3903.291	-650.8
3905.868	-654.8
3908.442	-652.8
3911.015	-645.8
3913.586	-649.8
3916.155	-652.8
3918.722	-651.8
3921.287	-650.8
3923.85	-652.8
3926.411	-654.8
3928.971	-662.8
3931.528	-653.8
3934.084	-650.8
3936.638	-661.8
3939.19	-663.8
3941.74	-666.8
3944.288	-660.8
3946.834	-656.8
3949.378	-664.8
3951.921	-662.8
3954.462	-662.8
3957	-655.8
3959.537	-646.8
3962.072	-653.8
3964.606	-647.8
3967.137	-653.8
3969.667	-654.8
3972.194	-651.8
3974.72	-650.8
3977.244	-649.8
3979.766	-644.8
3982.286	-648.8
3984.805	-634.8
3987.321	-636.8
3989.836	-639.8
3992.349	-638.8
3994.86	-635.8
3997.369	-653.8
3999.877	-642.8
4002.382	-640.8
4004.886	-646.8
4007.388	-641.8
4009.888	-639.8
4012.386	-642.8
4014.883	-646.8
4017.377	-640.8
4019.87	-641.8
4022.361	-639.8
4024.85	-641.8
4027.338	-648.8
4029.823	-645.8
4032.307	-649.8
4034.789	-647.8
4037.269	-656.8
4039.747	-648.8
4042.224	-642.8
4044.699	-649.8
4047.172	-648.8
4049.643	-643.8
4052.112	-645.8
4054.58	-637.8
4057.046	-647.8
4059.51	-647.8
4061.972	-653.8
4064.432	-647.8
4066.891	-651.8
4069.348	-650.8
4071.803	-651.8
4074.256	-642.8
4076.708	-645.8
4079.158	-644.8
4081.606	-640.8
4084.052	-642.8
4086.497	-650.8
4088.939	-641.8
4091.38	-640.8
4093.819	-643.8
4096.257	-677.8
4098.693	-682.8
4101.127	-681.8
4103.559	-681.8
4105.989	-405.8
4108.418	-380.8
4110.845	-357.8
4113.27	-334.8
4115.694	-288.8
4118.115	-247.8
4120.535	-645.8
4122.954	-650.8
4125.37	-650.8
4127.785	-643.8
4130.198	-654.8
4132.609	-645.8
4135.019	-684.8
4137.427	-676.8
4139.833	-678.8
4142.237	-674.8
