Data from 2018-2-7_conc=02_RamanShift_06.txt Node
Date: Tue Feb 13 11:28:14 IST 2018
User: aro
Spectrometer: QEPB0276
Trigger mode: 0
Integration Time (sec): 3.000000E1
Scans to average: 1
Electric dark correction enabled: true
Nonlinearity correction enabled: false
Boxcar width: 0
XAxis mode: Raman Shifts
Number of Pixels in Spectrum: 1044
>>>>>Begin Spectral Data<<<<<
160.701	-170
166.742	29
172.777	570
178.805	2225
184.826	6023
190.841	12392
196.849	19532
202.85	24479
208.845	25937
214.833	25661
220.815	25255
226.789	25089
232.758	24996
238.719	24815
244.674	24453
250.623	23992
256.565	23500
262.5	23060
268.429	22632
274.351	22308
280.267	22038
286.176	21816
292.079	21565
297.975	21359
303.865	21250
309.748	21062
315.625	20943
321.495	20803
327.359	20788
333.217	20719
339.068	20660
344.912	20666
350.751	20643
356.583	20636
362.408	20524
368.227	20606
374.04	20636
379.847	20660
385.647	20758
391.44	20794
397.228	20888
403.009	20981
408.784	21101
414.553	21124
420.315	21142
426.071	21180
431.821	21126
437.565	21122
443.302	21070
449.033	21028
454.758	21081
460.477	20980
466.189	20914
471.896	20876
477.596	20816
483.29	20768
488.978	20760
494.66	20638
500.335	20529
506.005	20391
511.668	20171
517.325	19913
522.977	19747
528.622	19638
534.261	19524
539.894	19421
545.521	19318
551.141	19289
556.756	19155
562.365	19142
567.968	19072
573.565	19012
579.155	18886
584.74	18896
590.319	18833
595.892	18704
601.459	18606
607.02	18540
612.575	18471
618.124	18393
623.667	18236
629.204	18196
634.735	18100
640.261	18040
645.781	17982
651.294	17995
656.802	17961
662.304	17871
667.8	17848
673.29	17868
678.775	17822
684.254	17695
689.726	17696
695.193	17608
700.655	17552
706.11	17423
711.56	17374
717.004	17357
722.442	17190
727.874	17178
733.301	17089
738.722	17048
744.137	17063
749.547	17014
754.951	17021
760.349	17010
765.741	17116
771.128	17146
776.509	17048
781.885	17089
787.254	17069
792.618	16949
797.977	16861
803.33	16733
808.677	16690
814.019	16539
819.355	16471
824.686	16373
830.011	16390
835.33	16425
840.644	16331
845.952	16406
851.255	16453
856.552	16513
861.844	16471
867.13	16401
872.41	16345
877.686	16243
882.955	16170
888.219	16052
893.478	15883
898.731	15659
903.979	15517
909.221	15399
914.458	15399
919.69	15338
924.916	15431
930.136	15436
935.351	15471
940.561	15453
945.766	15460
950.965	15343
956.158	15250
961.347	15109
966.529	14873
971.707	14688
976.879	14535
982.046	14410
987.208	14376
992.364	14411
997.515	14483
1002.66	14640
1007.801	14806
1012.936	14899
1018.066	14909
1023.19	14893
1028.309	14901
1033.423	14867
1038.532	14780
1043.636	14638
1048.734	14504
1053.827	14342
1058.915	14182
1063.998	14065
1069.075	14002
1074.147	14009
1079.214	14084
1084.276	14178
1089.333	14271
1094.385	14360
1099.431	14354
1104.472	14332
1109.509	14283
1114.54	14085
1119.565	13907
1124.586	13777
1129.602	13678
1134.613	13516
1139.618	13529
1144.619	13437
1149.614	13452
1154.604	13458
1159.589	13505
1164.57	13508
1169.545	13554
1174.515	13567
1179.48	13515
1184.44	13351
1189.395	13324
1194.345	13222
1199.29	13145
1204.23	13119
1209.165	13235
1214.095	13262
1219.021	13329
1223.941	13393
1228.856	13495
1233.766	13525
1238.672	13546
1243.572	13519
1248.467	13473
1253.358	13309
1258.244	13054
1263.124	12876
1268	12667
1272.871	12543
1277.737	12426
1282.599	12395
1287.455	12386
1292.306	12411
1297.153	12456
1301.995	12525
1306.832	12565
1311.664	12534
1316.491	12535
1321.314	12368
1326.132	12223
1330.945	11972
1335.753	11672
1340.556	11332
1345.354	11115
1350.148	10955
1354.937	10851
1359.722	10830
1364.501	10836
1369.276	10948
1374.046	11104
1378.811	11258
1383.572	11297
1388.327	11421
1393.079	11387
1397.825	11265
1402.567	11130
1407.304	10994
1412.036	10865
1416.764	10815
1421.487	10730
1426.205	10718
1430.919	10650
1435.628	10678
1440.333	10695
1445.032	10750
1449.727	10743
1454.418	10698
1459.104	10551
1463.785	10373
1468.462	10113
1473.134	9909
1477.802	9725
1482.465	9530
1487.123	9436
1491.777	9375
1496.426	9377
1501.071	9465
1505.711	9605
1510.347	9764
1514.978	9930
1519.604	10056
1524.226	10149
1528.844	10223
1533.457	10201
1538.065	10192
1542.669	10145
1547.269	10059
1551.864	10013
1556.454	9962
1561.041	9950
1565.622	9967
1570.199	9986
1574.772	10007
1579.34	10114
1583.904	10190
1588.464	10199
1593.019	10161
1597.569	10165
1602.115	10086
1606.657	10034
1611.195	9950
1615.728	9884
1620.256	9802
1624.78	9846
1629.3	9839
1633.816	9853
1638.327	9862
1642.834	9934
1647.336	9984
1651.834	9949
1656.328	9986
1660.817	9885
1665.302	9775
1669.783	9622
1674.259	9332
1678.732	9067
1683.199	8758
1687.663	8413
1692.122	8173
1696.577	8034
1701.028	7993
1705.474	8031
1709.917	8142
1714.355	8154
1718.788	8107
1723.218	8008
1727.643	7940
1732.064	7817
1736.481	7601
1740.893	7457
1745.301	7246
1749.705	7051
1754.105	6825
1758.501	6656
1762.893	6427
1767.28	6275
1771.663	6159
1776.042	6038
1780.417	5940
1784.787	5923
1789.154	5955
1793.516	6067
1797.874	6169
1802.228	6276
1806.578	6367
1810.924	6431
1815.266	6359
1819.603	6276
1823.937	6171
1828.266	6089
1832.591	6011
1836.913	5943
1841.23	5891
1845.543	5815
1849.852	5804
1854.156	5794
1858.457	5781
1862.754	5794
1867.047	5794
1871.335	5695
1875.62	5695
1879.9	5699
1884.177	5661
1888.449	5596
1892.718	5513
1896.982	5448
1901.243	5389
1905.499	5355
1909.752	5313
1914	5300
1918.245	5326
1922.485	5340
1926.722	5374
1930.954	5445
1935.183	5525
1939.408	5565
1943.628	5599
1947.845	5621
1952.058	5625
1956.267	5581
1960.472	5520
1964.673	5441
1968.87	5342
1973.063	5311
1977.252	5258
1981.438	5209
1985.619	5115
1989.797	5076
1993.971	5068
1998.14	5051
2002.306	5050
2006.469	5005
2010.627	4979
2014.781	4947
2018.932	4876
2023.078	4856
2027.221	4768
2031.36	4694
2035.495	4614
2039.627	4524
2043.754	4507
2047.878	4464
2051.998	4435
2056.114	4406
2060.226	4385
2064.334	4380
2068.439	4377
2072.54	4407
2076.637	4423
2080.73	4469
2084.82	4501
2088.906	4510
2092.988	4493
2097.066	4504
2101.14	4485
2105.211	4422
2109.278	4416
2113.342	4396
2117.401	4374
2121.457	4377
2125.509	4333
2129.558	4323
2133.602	4287
2137.643	4288
2141.681	4240
2145.714	4272
2149.744	4218
2153.77	4214
2157.793	4170
2161.812	4097
2165.827	4050
2169.838	3987
2173.846	3914
2177.851	3861
2181.851	3785
2185.848	3766
2189.841	3727
2193.831	3702
2197.817	3654
2201.799	3641
2205.778	3625
2209.753	3613
2213.725	3602
2217.693	3615
2221.657	3568
2225.618	3579
2229.575	3560
2233.529	3525
2237.479	3503
2241.425	3452
2245.368	3428
2249.307	3364
2253.243	3335
2257.175	3269
2261.104	3224
2265.029	3200
2268.95	3163
2272.868	3112
2276.783	3103
2280.694	3075
2284.601	3041
2288.505	3018
2292.405	2996
2296.302	2942
2300.195	2927
2304.085	2927
2307.971	2869
2311.854	2815
2315.734	2796
2319.609	2770
2323.482	2714
2327.351	2699
2331.216	2708
2335.078	2669
2338.937	2680
2342.792	2658
2346.643	2648
2350.492	2657
2354.336	2658
2358.178	2653
2362.015	2665
2365.85	2694
2369.681	2699
2373.508	2690
2377.333	2691
2381.153	2694
2384.971	2688
2388.785	2667
2392.595	2642
2396.402	2614
2400.206	2562
2404.007	2568
2407.804	2561
2411.597	2549
2415.388	2532
2419.174	2511
2422.958	2489
2426.738	2465
2430.515	2442
2434.289	2460
2438.059	2421
2441.825	2409
2445.589	2378
2449.349	2358
2453.106	2319
2456.859	2286
2460.61	2277
2464.356	2203
2468.1	2215
2471.84	2178
2475.577	2165
2479.311	2162
2483.041	2135
2486.768	2123
2490.492	2139
2494.213	2117
2497.93	2101
2501.644	2079
2505.355	2065
2509.062	2045
2512.766	2049
2516.467	2033
2520.165	2034
2523.859	2009
2527.551	1992
2531.239	1977
2534.923	1955
2538.605	1944
2542.283	1946
2545.958	1919
2549.63	1933
2553.299	1914
2556.964	1904
2560.626	1914
2564.285	1909
2567.941	1910
2571.594	1884
2575.243	1887
2578.89	1883
2582.533	1868
2586.173	1843
2589.809	1827
2593.443	1819
2597.073	1793
2600.701	1763
2604.325	1766
2607.946	1756
2611.564	1741
2615.178	1758
2618.79	1717
2622.398	1706
2626.004	1716
2629.606	1657
2633.205	1669
2636.801	1642
2640.394	1628
2643.983	1598
2647.57	1562
2651.153	1541
2654.734	1531
2658.311	1512
2661.885	1487
2665.456	1465
2669.025	1442
2672.589	1434
2676.151	1421
2679.71	1391
2683.266	1346
2686.819	1341
2690.368	1310
2693.915	1300
2697.458	1255
2700.999	1244
2704.536	1205
2708.071	1165
2711.602	1153
2715.13	1135
2718.656	1108
2722.178	1074
2725.697	1068
2729.214	1024
2732.727	1020
2736.237	1012
2739.744	1019
2743.249	1015
2746.75	1009
2750.248	1025
2753.743	1018
2757.236	1032
2760.725	1045
2764.211	1061
2767.695	1049
2771.175	1056
2774.652	1044
2778.127	1040
2781.598	1043
2785.067	1045
2788.532	1034
2791.995	1033
2795.455	1018
2798.911	1038
2802.365	1037
2805.816	1038
2809.264	1046
2812.709	1046
2816.151	1039
2819.59	1033
2823.026	1037
2826.46	1031
2829.89	1041
2833.318	1023
2836.742	1026
2840.164	1055
2843.583	1045
2846.999	1082
2850.412	1069
2853.822	1094
2857.229	1108
2860.634	1107
2864.035	1125
2867.434	1153
2870.83	1174
2874.223	1184
2877.613	1205
2881	1227
2884.385	1241
2887.766	1221
2891.145	1235
2894.521	1225
2897.894	1221
2901.264	1205
2904.631	1231
2907.996	1208
2911.358	1204
2914.717	1229
2918.073	1226
2921.426	1256
2924.777	1260
2928.124	1303
2931.469	1305
2934.811	1323
2938.15	1326
2941.487	1332
2944.821	1348
2948.152	1341
2951.48	1332
2954.805	1319
2958.128	1294
2961.447	1281
2964.765	1272
2968.079	1264
2971.39	1274
2974.699	1301
2978.005	1331
2981.308	1343
2984.609	1355
2987.907	1390
2991.202	1426
2994.494	1439
2997.784	1466
3001.07	1506
3004.355	1526
3007.636	1552
3010.915	1534
3014.191	1575
3017.464	1589
3020.734	1602
3024.002	1841
3027.267	1758
3030.53	1645
3033.789	1648
3037.046	1673
3040.301	1704
3043.552	1743
3046.801	1764
3050.048	1785
3053.291	1845
3056.532	1897
3059.771	1946
3063.006	2007
3066.239	2060
3069.469	2128
3072.697	2174
3075.922	2218
3079.144	2289
3082.364	2327
3085.581	2369
3088.795	2421
3092.007	2476
3095.216	2522
3098.423	2572
3101.627	2628
3104.828	2683
3108.026	2746
3111.222	2813
3114.416	2858
3117.607	2944
3120.795	3003
3123.98	3087
3127.163	3148
3130.344	3222
3133.521	3280
3136.696	3375
3139.869	3434
3143.039	3450
3146.206	3530
3149.371	3566
3152.533	3607
3155.693	3627
3158.85	3679
3162.005	3677
3165.157	3699
3168.306	3691
3171.453	3707
3174.597	3684
3177.739	3703
3180.878	3708
3184.014	3707
3187.149	3709
3190.28	3712
3193.409	3726
3196.536	3747
3199.659	3744
3202.781	3719
3205.9	3720
3209.016	3744
3212.13	3696
3215.241	3679
3218.35	3655
3221.456	3558
3224.56	3562
3227.661	3522
3230.76	3453
3233.856	3416
3236.95	3423
3240.041	3345
3243.13	3321
3246.216	3319
3249.3	3307
3252.382	3269
3255.46	3281
3258.537	3283
3261.611	3262
3264.682	3276
3267.751	3258
3270.818	3261
3273.882	3241
3276.943	3215
3280.002	3173
3283.059	3180
3286.113	3125
3289.165	3091
3292.214	3058
3295.261	3005
3298.306	2952
3301.348	2919
3304.387	2846
3307.425	2807
3310.459	2774
3313.492	2736
3316.521	2682
3319.549	2679
3322.574	2644
3325.597	2583
3328.617	2609
3331.635	2593
3334.65	2577
3337.663	2563
3340.674	2540
3343.682	2540
3346.688	2539
3349.691	2526
3352.692	2484
3355.691	2480
3358.687	2456
3361.681	2432
3364.673	2392
3367.662	2335
3370.649	2318
3373.633	2286
3376.615	2267
3379.595	2212
3382.572	2194
3385.547	2128
3388.52	2129
3391.49	2103
3394.458	2066
3397.424	2000
3400.387	1985
3403.348	1961
3406.307	1955
3409.263	1933
3412.217	1900
3415.168	1880
3418.118	1842
3421.065	1844
3424.009	1800
3426.951	1773
3429.891	1741
3432.829	1687
3435.764	1663
3438.697	1620
3441.628	1571
3444.557	1504
3447.483	1471
3450.407	1425
3453.328	1369
3456.247	1325
3459.164	1270
3462.079	1222
3464.991	1167
3467.902	1133
3470.809	1098
3473.715	1037
3476.618	1017
3479.519	969
3482.418	951
3485.315	916
3488.209	862
3491.101	837
3493.99	791
3496.878	757
3499.763	729
3502.646	700
3505.527	660
3508.405	642
3511.281	605
3514.155	563
3517.027	521
3519.897	486
3522.764	445
3525.629	412
3528.492	383
3531.352	332
3534.211	302
3537.067	265
3539.921	230
3542.773	200
3545.622	164
3548.469	139
3551.315	115
3554.157	89
3556.998	66
3559.837	49
3562.673	22
3565.507	3
3568.339	0
3571.169	-28
3573.996	-57
3576.822	-66
3579.645	-90
3582.466	-111
3585.285	-124
3588.101	-142
3590.916	-157
3593.728	-187
3596.538	-193
3599.346	-213
3602.152	-225
3604.956	-235
3607.757	-253
3610.556	-275
3613.354	-275
3616.149	-286
3618.942	-299
3621.732	-323
3624.521	-315
3627.307	-328
3630.092	-346
3632.874	-350
3635.654	-358
3638.432	-365
3641.208	-378
3643.982	-393
3646.753	-391
3649.523	-402
3652.29	-412
3655.055	-411
3657.818	-423
3660.579	-434
3663.338	-444
3666.095	-455
3668.849	-465
3671.602	-481
3674.352	-481
3677.101	-489
3679.847	-500
3682.591	-497
3685.333	-506
3688.073	-504
3690.811	-512
3693.547	-512
3696.281	-518
3699.013	-516
3701.742	-524
3704.47	-527
3707.195	-540
3709.919	-542
3712.64	-542
3715.359	-547
3718.076	-550
3720.792	-559
3723.505	-559
3726.216	-562
3728.925	-564
3731.632	-571
3734.336	-579
3737.039	-580
3739.74	-575
3742.439	-574
3745.136	-581
3747.83	-582
3750.523	-579
3753.213	-595
3755.902	-585
3758.589	-590
3761.273	-589
3763.956	-598
3766.636	-590
3769.315	-598
3771.991	-597
3774.665	-597
3777.338	-593
3780.008	-600
3782.677	-597
3785.343	-597
3788.007	-599
3790.67	-605
3793.33	-607
3795.989	-611
3798.645	-613
3801.299	-614
3803.952	-622
3806.602	-613
3809.251	-622
3811.897	-610
3814.542	-607
3817.184	-617
3819.825	-617
3822.463	-613
3825.1	-615
3827.735	-624
3830.367	-614
3832.998	-630
3835.627	-627
3838.253	-628
3840.878	-624
3843.501	-627
3846.122	-623
3848.741	-626
3851.358	-629
3853.973	-627
3856.586	-633
3859.197	-632
3861.806	-622
3864.414	-622
3867.019	-622
3869.622	-630
3872.224	-623
3874.823	-614
3877.421	-599
3880.016	-592
3882.61	-562
3885.202	-566
3887.792	-588
3890.38	-607
3892.966	-620
3895.55	-621
3898.132	-631
3900.713	-635
3903.291	-635
3905.868	-638
3908.442	-638
3911.015	-640
3913.586	-638
3916.155	-647
3918.722	-636
3921.287	-639
3923.85	-645
3926.411	-644
3928.971	-643
3931.528	-639
3934.084	-639
3936.638	-645
3939.19	-643
3941.74	-651
3944.288	-644
3946.834	-645
3949.378	-646
3951.921	-647
3954.462	-647
3957	-643
3959.537	-636
3962.072	-642
3964.606	-642
3967.137	-644
3969.667	-641
3972.194	-639
3974.72	-642
3977.244	-636
3979.766	-633
3982.286	-633
3984.805	-625
3987.321	-628
3989.836	-630
3992.349	-629
3994.86	-628
3997.369	-630
3999.877	-628
4002.382	-626
4004.886	-637
4007.388	-631
4009.888	-629
4012.386	-636
4014.883	-627
4017.377	-634
4019.87	-628
4022.361	-632
4024.85	-631
4027.338	-628
4029.823	-634
4032.307	-631
4034.789	-639
4037.269	-642
4039.747	-635
4042.224	-628
4044.699	-630
4047.172	-635
4049.643	-634
4052.112	-631
4054.58	-629
4057.046	-641
4059.51	-634
4061.972	-637
4064.432	-630
4066.891	-630
4069.348	-640
4071.803	-629
4074.256	-630
4076.708	-631
4079.158	-630
4081.606	-632
4084.052	-627
4086.497	-632
4088.939	-626
4091.38	-630
4093.819	-623
4096.257	-666
4098.693	-667
4101.127	-670
4103.559	-666
4105.989	-392
4108.418	-377
4110.845	-351
4113.27	-334
4115.694	-295
4118.115	-254
4120.535	-629
4122.954	-636
4125.37	-631
4127.785	-633
4130.198	-633
4132.609	-630
4135.019	-668
4137.427	-665
4139.833	-660
4142.237	-661
