Data from 2018-2-7_conc=6_RamanShift_03.txt Node
Date: Tue Feb 13 14:27:43 IST 2018
User: aro
Spectrometer: QEPB0276
Trigger mode: 0
Integration Time (sec): 3.000000E1
Scans to average: 1
Electric dark correction enabled: true
Nonlinearity correction enabled: false
Boxcar width: 0
XAxis mode: Raman Shifts
Number of Pixels in Spectrum: 1044
>>>>>Begin Spectral Data<<<<<
160.701	-153
166.742	38
172.777	594
178.805	2285
184.826	6316
190.841	13033
196.849	20711
202.85	26005
208.845	27584
214.833	27372
220.815	26833
226.789	26643
232.758	26558
238.719	26378
244.674	25982
250.623	25489
256.565	24960
262.5	24470
268.429	23974
274.351	23664
280.267	23283
286.176	23098
292.079	22855
297.975	22652
303.865	22432
309.748	22313
315.625	22141
321.495	21978
327.359	21895
333.217	21855
339.068	21853
344.912	21852
350.751	21718
356.583	21721
362.408	21726
368.227	21702
374.04	21834
379.847	21812
385.647	21892
391.44	22016
397.228	22062
403.009	22161
408.784	22190
414.553	22322
420.315	22377
426.071	22379
431.821	22336
437.565	22263
443.302	22266
449.033	22275
454.758	22217
460.477	22155
466.189	22097
471.896	22054
477.596	22006
483.29	21953
488.978	21969
494.66	21866
500.335	21700
506.005	21440
511.668	21212
517.325	20999
522.977	20871
528.622	20764
534.261	20591
539.894	20478
545.521	20415
551.141	20261
556.756	20229
562.365	20202
567.968	20122
573.565	20034
579.155	19966
584.74	19888
590.319	19790
595.892	19660
601.459	19701
607.02	19522
612.575	19439
618.124	19342
623.667	19223
629.204	19146
634.735	19065
640.261	19055
645.781	18938
651.294	18913
656.802	18847
662.304	18871
667.8	18763
673.29	18725
678.775	18731
684.254	18623
689.726	18577
695.193	18487
700.655	18453
706.11	18333
711.56	18247
717.004	18222
722.442	18094
727.874	17992
733.301	17971
738.722	17919
744.137	17905
749.547	17893
754.951	17853
760.349	17865
765.741	17894
771.128	17883
776.509	17871
781.885	17865
787.254	17814
792.618	17787
797.977	17644
803.33	17545
808.677	17510
814.019	17378
819.355	17215
824.686	17265
830.011	17201
835.33	17125
840.644	17178
845.952	17162
851.255	17241
856.552	17268
861.844	17276
867.13	17157
872.41	17151
877.686	17027
882.955	16931
888.219	16711
893.478	16529
898.731	16384
903.979	16161
909.221	16082
914.458	16092
919.69	16018
924.916	16071
930.136	16178
935.351	16122
940.561	16125
945.766	16063
950.965	16025
956.158	15925
961.347	15746
966.529	15544
971.707	15345
976.879	15175
982.046	15064
987.208	15005
992.364	15008
997.515	15073
1002.66	15305
1007.801	15488
1012.936	15538
1018.066	15541
1023.19	15500
1028.309	15557
1033.423	15462
1038.532	15353
1043.636	15249
1048.734	15118
1053.827	14873
1058.915	14712
1063.998	14619
1069.075	14569
1074.147	14618
1079.214	14660
1084.276	14760
1089.333	14820
1094.385	14863
1099.431	14931
1104.472	14962
1109.509	14882
1114.54	14673
1119.565	14507
1124.586	14318
1129.602	14186
1134.613	14030
1139.618	13984
1144.619	13951
1149.614	13956
1154.604	13991
1159.589	14008
1164.57	14067
1169.545	14084
1174.515	14013
1179.48	13942
1184.44	13896
1189.395	13829
1194.345	13685
1199.29	13613
1204.23	13642
1209.165	13747
1214.095	13767
1219.021	13828
1223.941	13891
1228.856	13972
1233.766	14006
1238.672	14018
1243.572	14001
1248.467	13904
1253.358	13755
1258.244	13573
1263.124	13346
1268	13233
1272.871	13015
1277.737	12929
1282.599	12829
1287.455	12788
1292.306	12882
1297.153	12904
1301.995	12988
1306.832	13033
1311.664	13017
1316.491	12974
1321.314	12843
1326.132	12663
1330.945	12341
1335.753	12085
1340.556	11727
1345.354	11489
1350.148	11327
1354.937	11236
1359.722	11267
1364.501	11259
1369.276	11472
1374.046	11581
1378.811	11812
1383.572	11945
1388.327	11916
1393.079	11920
1397.825	11796
1402.567	11565
1407.304	11458
1412.036	11329
1416.764	11239
1421.487	11176
1426.205	11054
1430.919	11082
1435.628	11051
1440.333	11070
1445.032	11065
1449.727	11130
1454.418	11094
1459.104	10974
1463.785	10772
1468.462	10620
1473.134	10267
1477.802	10112
1482.465	9911
1487.123	9820
1491.777	9788
1496.426	9863
1501.071	9970
1505.711	10101
1510.347	10298
1514.978	10498
1519.604	10611
1524.226	10730
1528.844	10737
1533.457	10711
1538.065	10704
1542.669	10610
1547.269	10534
1551.864	10489
1556.454	10405
1561.041	10418
1565.622	10405
1570.199	10470
1574.772	10499
1579.34	10576
1583.904	10570
1588.464	10654
1593.019	10624
1597.569	10609
1602.115	10548
1606.657	10477
1611.195	10385
1615.728	10334
1620.256	10298
1624.78	10283
1629.3	10308
1633.816	10316
1638.327	10371
1642.834	10388
1647.336	10497
1651.834	10466
1656.328	10470
1660.817	10434
1665.302	10293
1669.783	10096
1674.259	9812
1678.732	9529
1683.199	9231
1687.663	8933
1692.122	8677
1696.577	8513
1701.028	8491
1705.474	8573
1709.917	8671
1714.355	8759
1718.788	8683
1723.218	8536
1727.643	8378
1732.064	8193
1736.481	8026
1740.893	7839
1745.301	7659
1749.705	7458
1754.105	7223
1758.501	7025
1762.893	6823
1767.28	6701
1771.663	6495
1776.042	6399
1780.417	6335
1784.787	6350
1789.154	6392
1793.516	6501
1797.874	6675
1802.228	6764
1806.578	6840
1810.924	6847
1815.266	6766
1819.603	6651
1823.937	6581
1828.266	6477
1832.591	6363
1836.913	6275
1841.23	6223
1845.543	6200
1849.852	6161
1854.156	6134
1858.457	6120
1862.754	6137
1867.047	6108
1871.335	6076
1875.62	6105
1879.9	6073
1884.177	6000
1888.449	5934
1892.718	5901
1896.982	5834
1901.243	5764
1905.499	5713
1909.752	5717
1914	5698
1918.245	5758
1922.485	5786
1926.722	5839
1930.954	5897
1935.183	5939
1939.408	6041
1943.628	6086
1947.845	6081
1952.058	6040
1956.267	5978
1960.472	5966
1964.673	5858
1968.87	5752
1973.063	5645
1977.252	5635
1981.438	5579
1985.619	5456
1989.797	5473
1993.971	5425
1998.14	5379
2002.306	5363
2006.469	5318
2010.627	5296
2014.781	5311
2018.932	5223
2023.078	5196
2027.221	5122
2031.36	5042
2035.495	4946
2039.627	4869
2043.754	4841
2047.878	4767
2051.998	4725
2056.114	4723
2060.226	4752
2064.334	4713
2068.439	4743
2072.54	4760
2076.637	4813
2080.73	4902
2084.82	4912
2088.906	4922
2092.988	4897
2097.066	4839
2101.14	4850
2105.211	4809
2109.278	4784
2113.342	4735
2117.401	4721
2121.457	4721
2125.509	4667
2129.558	4629
2133.602	4612
2137.643	4606
2141.681	4576
2145.714	4562
2149.744	4528
2153.77	4499
2157.793	4444
2161.812	4396
2165.827	4319
2169.838	4257
2173.846	4188
2177.851	4148
2181.851	4047
2185.848	4006
2189.841	3992
2193.831	3954
2197.817	3919
2201.799	3890
2205.778	3865
2209.753	3875
2213.725	3872
2217.693	3849
2221.657	3837
2225.618	3827
2229.575	3789
2233.529	3767
2237.479	3749
2241.425	3668
2245.368	3624
2249.307	3556
2253.243	3529
2257.175	3478
2261.104	3437
2265.029	3403
2268.95	3365
2272.868	3333
2276.783	3272
2280.694	3271
2284.601	3228
2288.505	3218
2292.405	3188
2296.302	3142
2300.195	3110
2304.085	3099
2307.971	3050
2311.854	3009
2315.734	2930
2319.609	2866
2323.482	2853
2327.351	2841
2331.216	2827
2335.078	2805
2338.937	2785
2342.792	2772
2346.643	2753
2350.492	2760
2354.336	2762
2358.178	2782
2362.015	2774
2365.85	2785
2369.681	2789
2373.508	2792
2377.333	2790
2381.153	2802
2384.971	2758
2388.785	2756
2392.595	2702
2396.402	2705
2400.206	2636
2404.007	2646
2407.804	2635
2411.597	2601
2415.388	2594
2419.174	2576
2422.958	2577
2426.738	2546
2430.515	2536
2434.289	2539
2438.059	2459
2441.825	2475
2445.589	2451
2449.349	2403
2453.106	2380
2456.859	2360
2460.61	2289
2464.356	2265
2468.1	2259
2471.84	2240
2475.577	2226
2479.311	2223
2483.041	2184
2486.768	2184
2490.492	2194
2494.213	2175
2497.93	2153
2501.644	2160
2505.355	2124
2509.062	2161
2512.766	2142
2516.467	2104
2520.165	2084
2523.859	2073
2527.551	2058
2531.239	2036
2534.923	2033
2538.605	2043
2542.283	2045
2545.958	2007
2549.63	1995
2553.299	2012
2556.964	2001
2560.626	2001
2564.285	1981
2567.941	1991
2571.594	1974
2575.243	1962
2578.89	1933
2582.533	1944
2586.173	1902
2589.809	1902
2593.443	1880
2597.073	1862
2600.701	1854
2604.325	1860
2607.946	1824
2611.564	1816
2615.178	1820
2618.79	1788
2622.398	1772
2626.004	1772
2629.606	1743
2633.205	1723
2636.801	1694
2640.394	1662
2643.983	1628
2647.57	1622
2651.153	1581
2654.734	1580
2658.311	1531
2661.885	1511
2665.456	1517
2669.025	1489
2672.589	1480
2676.151	1453
2679.71	1436
2683.266	1400
2686.819	1383
2690.368	1361
2693.915	1314
2697.458	1304
2700.999	1263
2704.536	1263
2708.071	1216
2711.602	1184
2715.13	1164
2718.656	1157
2722.178	1102
2725.697	1099
2729.214	1079
2732.727	1095
2736.237	1086
2739.744	1090
2743.249	1071
2746.75	1099
2750.248	1100
2753.743	1094
2757.236	1110
2760.725	1120
2764.211	1140
2767.695	1130
2771.175	1139
2774.652	1117
2778.127	1133
2781.598	1111
2785.067	1112
2788.532	1101
2791.995	1102
2795.455	1093
2798.911	1108
2802.365	1094
2805.816	1118
2809.264	1100
2812.709	1093
2816.151	1085
2819.59	1101
2823.026	1101
2826.46	1095
2829.89	1097
2833.318	1092
2836.742	1117
2840.164	1117
2843.583	1110
2846.999	1125
2850.412	1128
2853.822	1151
2857.229	1167
2860.634	1197
2864.035	1201
2867.434	1225
2870.83	1249
2874.223	1272
2877.613	1289
2881	1308
2884.385	1316
2887.766	1307
2891.145	1304
2894.521	1291
2897.894	1293
2901.264	1303
2904.631	1283
2907.996	1284
2911.358	1302
2914.717	1299
2918.073	1307
2921.426	1341
2924.777	1351
2928.124	1374
2931.469	1398
2934.811	1415
2938.15	1425
2941.487	1426
2944.821	1450
2948.152	1445
2951.48	1444
2954.805	1425
2958.128	1396
2961.447	1384
2964.765	1391
2968.079	1388
2971.39	1395
2974.699	1427
2978.005	1427
2981.308	1478
2984.609	1493
2987.907	1505
2991.202	1556
2994.494	1578
2997.784	1608
3001.07	1627
3004.355	1661
3007.636	1694
3010.915	1711
3014.191	1734
3017.464	1750
3020.734	1750
3024.002	1745
3027.267	1747
3030.53	1782
3033.789	1798
3037.046	1802
3040.301	1838
3043.552	1878
3046.801	1923
3050.048	1961
3053.291	2005
3056.532	2064
3059.771	2124
3063.006	2182
3066.239	2253
3069.469	2314
3072.697	2332
3075.922	2411
3079.144	2465
3082.364	2559
3085.581	2566
3088.795	2634
3092.007	2700
3095.216	2743
3098.423	2811
3101.627	2878
3104.828	2949
3108.026	2997
3111.222	3034
3114.416	3142
3117.607	3207
3120.795	3249
3123.98	3349
3127.163	3428
3130.344	3526
3133.521	3579
3136.696	3681
3139.869	3735
3143.039	3792
3146.206	3853
3149.371	3900
3152.533	3935
3155.693	3964
3158.85	3977
3162.005	4030
3165.157	4000
3168.306	4046
3171.453	4051
3174.597	4038
3177.739	4059
3180.878	4062
3184.014	4084
3187.149	4059
3190.28	4066
3193.409	4073
3196.536	4086
3199.659	4095
3202.781	4097
3205.9	4081
3209.016	4059
3212.13	4051
3215.241	3994
3218.35	4001
3221.456	3927
3224.56	3882
3227.661	3863
3230.76	3821
3233.856	3828
3236.95	3740
3240.041	3695
3243.13	3662
3246.216	3669
3249.3	3639
3252.382	3612
3255.46	3597
3258.537	3606
3261.611	3582
3264.682	3596
3267.751	3588
3270.818	3567
3273.882	3578
3276.943	3569
3280.002	3509
3283.059	3511
3286.113	3427
3289.165	3428
3292.214	3355
3295.261	3316
3298.306	3250
3301.348	3209
3304.387	3148
3307.425	3110
3310.459	3068
3313.492	3007
3316.521	2990
3319.549	2952
3322.574	2890
3325.597	2863
3328.617	2882
3331.635	2853
3334.65	2841
3337.663	2808
3340.674	2824
3343.682	2796
3346.688	2785
3349.691	2777
3352.692	2732
3355.691	2748
3358.687	2709
3361.681	2667
3364.673	2638
3367.662	2619
3370.649	2584
3373.633	2530
3376.615	2485
3379.595	2447
3382.572	2428
3385.547	2391
3388.52	2345
3391.49	2284
3394.458	2285
3397.424	2241
3400.387	2233
3403.348	2183
3406.307	2169
3409.263	2137
3412.217	2124
3415.168	2088
3418.118	2055
3421.065	2056
3424.009	2007
3426.951	1982
3429.891	1942
3432.829	1909
3435.764	1846
3438.697	1807
3441.628	1743
3444.557	1691
3447.483	1655
3450.407	1596
3453.328	1530
3456.247	1482
3459.164	1437
3462.079	1380
3464.991	1335
3467.902	1293
3470.809	1232
3473.715	1198
3476.618	1144
3479.519	1107
3482.418	1075
3485.315	1037
3488.209	979
3491.101	958
3493.99	953
3496.878	892
3499.763	870
3502.646	823
3505.527	789
3508.405	734
3511.281	692
3514.155	657
3517.027	603
3519.897	576
3522.764	541
3525.629	493
3528.492	448
3531.352	413
3534.211	386
3537.067	336
3539.921	291
3542.773	275
3545.622	229
3548.469	201
3551.315	167
3554.157	127
3556.998	105
3559.837	107
3562.673	66
3565.507	49
3568.339	32
3571.169	4
3573.996	-15
3576.822	-26
3579.645	-43
3582.466	-76
3585.285	-82
3588.101	-106
3590.916	-130
3593.728	-152
3596.538	-166
3599.346	-189
3602.152	-200
3604.956	-226
3607.757	-249
3610.556	-250
3613.354	-264
3616.149	-288
3618.942	-286
3621.732	-296
3624.521	-307
3627.307	-326
3630.092	-333
3632.874	-337
3635.654	-355
3638.432	-356
3641.208	-366
3643.982	-375
3646.753	-385
3649.523	-400
3652.29	-408
3655.055	-415
3657.818	-431
3660.579	-438
3663.338	-442
3666.095	-461
3668.849	-484
3671.602	-480
3674.352	-487
3677.101	-490
3679.847	-502
3682.591	-498
3685.333	-502
3688.073	-509
3690.811	-528
3693.547	-522
3696.281	-532
3699.013	-533
3701.742	-548
3704.47	-545
3707.195	-550
3709.919	-557
3712.64	-558
3715.359	-563
3718.076	-563
3720.792	-571
3723.505	-575
3726.216	-581
3728.925	-587
3731.632	-592
3734.336	-592
3737.039	-596
3739.74	-600
3742.439	-599
3745.136	-600
3747.83	-605
3750.523	-604
3753.213	-604
3755.902	-606
3758.589	-604
3761.273	-604
3763.956	-611
3766.636	-614
3769.315	-614
3771.991	-616
3774.665	-619
3777.338	-622
3780.008	-614
3782.677	-621
3785.343	-625
3788.007	-626
3790.67	-622
3793.33	-628
3795.989	-632
3798.645	-632
3801.299	-634
3803.952	-636
3806.602	-637
3809.251	-639
3811.897	-634
3814.542	-633
3817.184	-642
3819.825	-640
3822.463	-638
3825.1	-641
3827.735	-644
3830.367	-639
3832.998	-648
3835.627	-646
3838.253	-645
3840.878	-650
3843.501	-646
3846.122	-645
3848.741	-645
3851.358	-653
3853.973	-646
3856.586	-646
3859.197	-650
3861.806	-652
3864.414	-650
3867.019	-649
3869.622	-648
3872.224	-643
3874.823	-630
3877.421	-606
3880.016	-595
3882.61	-559
3885.202	-566
3887.792	-583
3890.38	-615
3892.966	-643
3895.55	-642
3898.132	-647
3900.713	-665
3903.291	-662
3905.868	-660
3908.442	-663
3911.015	-659
3913.586	-663
3916.155	-657
3918.722	-660
3921.287	-657
3923.85	-660
3926.411	-662
3928.971	-661
3931.528	-664
3934.084	-659
3936.638	-666
3939.19	-668
3941.74	-677
3944.288	-674
3946.834	-673
3949.378	-671
3951.921	-665
3954.462	-667
3957	-666
3959.537	-660
3962.072	-663
3964.606	-658
3967.137	-668
3969.667	-663
3972.194	-658
3974.72	-665
3977.244	-653
3979.766	-653
3982.286	-655
3984.805	-647
3987.321	-648
3989.836	-645
3992.349	-647
3994.86	-646
3997.369	-663
3999.877	-650
4002.382	-643
4004.886	-654
4007.388	-654
4009.888	-648
4012.386	-651
4014.883	-654
4017.377	-653
4019.87	-649
4022.361	-654
4024.85	-658
4027.338	-654
4029.823	-656
4032.307	-657
4034.789	-659
4037.269	-663
4039.747	-659
4042.224	-651
4044.699	-652
4047.172	-655
4049.643	-649
4052.112	-657
4054.58	-648
4057.046	-657
4059.51	-660
4061.972	-652
4064.432	-652
4066.891	-651
4069.348	-655
4071.803	-659
4074.256	-650
4076.708	-652
4079.158	-653
4081.606	-649
4084.052	-652
4086.497	-658
4088.939	-652
4091.38	-650
4093.819	-652
4096.257	-685
4098.693	-691
4101.127	-688
4103.559	-688
4105.989	-410
4108.418	-383
4110.845	-366
4113.27	-337
4115.694	-293
4118.115	-250
4120.535	-651
4122.954	-659
4125.37	-652
4127.785	-653
4130.198	-653
4132.609	-647
4135.019	-694
4137.427	-692
4139.833	-689
4142.237	-689
