Data from 2018-2-7_conc=4_RamanShift_24.txt Node
Date: Tue Feb 13 13:46:13 IST 2018
User: aro
Spectrometer: QEPB0276
Trigger mode: 0
Integration Time (sec): 3.000000E1
Scans to average: 1
Electric dark correction enabled: true
Nonlinearity correction enabled: false
Boxcar width: 0
XAxis mode: Raman Shifts
Number of Pixels in Spectrum: 1044
>>>>>Begin Spectral Data<<<<<
160.701	-161.9
166.742	22.1
172.777	584.1
178.805	2269.1
184.826	6165.1
190.841	12653.1
196.849	20059.1
202.85	25099.1
208.845	26634.1
214.833	26278.1
220.815	25849.1
226.789	25552.1
232.758	25433.1
238.719	25224.1
244.674	24809.1
250.623	24357.1
256.565	23826.1
262.5	23325.1
268.429	22857.1
274.351	22446.1
280.267	22137.1
286.176	21919.1
292.079	21650.1
297.975	21469.1
303.865	21280.1
309.748	21136.1
315.625	20969.1
321.495	20820.1
327.359	20766.1
333.217	20765.1
339.068	20616.1
344.912	20699.1
350.751	20605.1
356.583	20629.1
362.408	20608.1
368.227	20659.1
374.04	20625.1
379.847	20702.1
385.647	20783.1
391.44	20774.1
397.228	20875.1
403.009	21003.1
408.784	21063.1
414.553	21117.1
420.315	21168.1
426.071	21216.1
431.821	21131.1
437.565	21189.1
443.302	21158.1
449.033	21107.1
454.758	21054.1
460.477	20999.1
466.189	20986.1
471.896	20893.1
477.596	20849.1
483.29	20820.1
488.978	20811.1
494.66	20689.1
500.335	20520.1
506.005	20349.1
511.668	20015.1
517.325	19837.1
522.977	19614.1
528.622	19424.1
534.261	19346.1
539.894	19258.1
545.521	19135.1
551.141	19095.1
556.756	19027.1
562.365	18904.1
567.968	18882.1
573.565	18790.1
579.155	18727.1
584.74	18611.1
590.319	18523.1
595.892	18441.1
601.459	18455.1
607.02	18304.1
612.575	18215.1
618.124	18070.1
623.667	18067.1
629.204	17919.1
634.735	17850.1
640.261	17817.1
645.781	17679.1
651.294	17645.1
656.802	17684.1
662.304	17602.1
667.8	17566.1
673.29	17558.1
678.775	17474.1
684.254	17416.1
689.726	17417.1
695.193	17361.1
700.655	17267.1
706.11	17208.1
711.56	17099.1
717.004	16967.1
722.442	16924.1
727.874	16864.1
733.301	16799.1
738.722	16744.1
744.137	16734.1
749.547	16729.1
754.951	16761.1
760.349	16744.1
765.741	16757.1
771.128	16778.1
776.509	16746.1
781.885	16763.1
787.254	16733.1
792.618	16666.1
797.977	16549.1
803.33	16502.1
808.677	16349.1
814.019	16268.1
819.355	16206.1
824.686	16075.1
830.011	16069.1
835.33	16080.1
840.644	16018.1
845.952	16091.1
851.255	16101.1
856.552	16132.1
861.844	16084.1
867.13	16067.1
872.41	15944.1
877.686	15908.1
882.955	15800.1
888.219	15665.1
893.478	15461.1
898.731	15240.1
903.979	15155.1
909.221	15055.1
914.458	14954.1
919.69	14938.1
924.916	15003.1
930.136	15089.1
935.351	15031.1
940.561	15078.1
945.766	14987.1
950.965	15023.1
956.158	14871.1
961.347	14710.1
966.529	14482.1
971.707	14329.1
976.879	14109.1
982.046	14027.1
987.208	14099.1
992.364	13992.1
997.515	14091.1
1002.66	14227.1
1007.801	14381.1
1012.936	14501.1
1018.066	14506.1
1023.19	14482.1
1028.309	14495.1
1033.423	14408.1
1038.532	14356.1
1043.636	14218.1
1048.734	14075.1
1053.827	13874.1
1058.915	13736.1
1063.998	13627.1
1069.075	13596.1
1074.147	13640.1
1079.214	13704.1
1084.276	13751.1
1089.333	13801.1
1094.385	13968.1
1099.431	13993.1
1104.472	13951.1
1109.509	13846.1
1114.54	13704.1
1119.565	13522.1
1124.586	13376.1
1129.602	13241.1
1134.613	13193.1
1139.618	13065.1
1144.619	13019.1
1149.614	13054.1
1154.604	13087.1
1159.589	13128.1
1164.57	13068.1
1169.545	13139.1
1174.515	13187.1
1179.48	13030.1
1184.44	12975.1
1189.395	12895.1
1194.345	12840.1
1199.29	12713.1
1204.23	12737.1
1209.165	12802.1
1214.095	12849.1
1219.021	12916.1
1223.941	13009.1
1228.856	13070.1
1233.766	13092.1
1238.672	13138.1
1243.572	13129.1
1248.467	13014.1
1253.358	12867.1
1258.244	12693.1
1263.124	12490.1
1268	12324.1
1272.871	12192.1
1277.737	12057.1
1282.599	12017.1
1287.455	12013.1
1292.306	12019.1
1297.153	12076.1
1301.995	12104.1
1306.832	12171.1
1311.664	12155.1
1316.491	12150.1
1321.314	12005.1
1326.132	11827.1
1330.945	11564.1
1335.753	11257.1
1340.556	11002.1
1345.354	10759.1
1350.148	10582.1
1354.937	10513.1
1359.722	10495.1
1364.501	10582.1
1369.276	10679.1
1374.046	10809.1
1378.811	11015.1
1383.572	11091.1
1388.327	11114.1
1393.079	11054.1
1397.825	10904.1
1402.567	10774.1
1407.304	10684.1
1412.036	10541.1
1416.764	10469.1
1421.487	10405.1
1426.205	10369.1
1430.919	10317.1
1435.628	10287.1
1440.333	10372.1
1445.032	10338.1
1449.727	10429.1
1454.418	10392.1
1459.104	10244.1
1463.785	10042.1
1468.462	9831.1
1473.134	9589.1
1477.802	9364.1
1482.465	9239.1
1487.123	9105.1
1491.777	9093.1
1496.426	9099.1
1501.071	9207.1
1505.711	9397.1
1510.347	9544.1
1514.978	9686.1
1519.604	9864.1
1524.226	9938.1
1528.844	9983.1
1533.457	9945.1
1538.065	9914.1
1542.669	9856.1
1547.269	9784.1
1551.864	9727.1
1556.454	9713.1
1561.041	9684.1
1565.622	9705.1
1570.199	9735.1
1574.772	9818.1
1579.34	9841.1
1583.904	9893.1
1588.464	9941.1
1593.019	9958.1
1597.569	9922.1
1602.115	9838.1
1606.657	9836.1
1611.195	9755.1
1615.728	9732.1
1620.256	9665.1
1624.78	9629.1
1629.3	9637.1
1633.816	9668.1
1638.327	9734.1
1642.834	9778.1
1647.336	9765.1
1651.834	9804.1
1656.328	9838.1
1660.817	9729.1
1665.302	9606.1
1669.783	9440.1
1674.259	9209.1
1678.732	8936.1
1683.199	8598.1
1687.663	8289.1
1692.122	7976.1
1696.577	7885.1
1701.028	7901.1
1705.474	7944.1
1709.917	8042.1
1714.355	8036.1
1718.788	7966.1
1723.218	7869.1
1727.643	7741.1
1732.064	7570.1
1736.481	7415.1
1740.893	7238.1
1745.301	7025.1
1749.705	6883.1
1754.105	6658.1
1758.501	6436.1
1762.893	6262.1
1767.28	6129.1
1771.663	5987.1
1776.042	5894.1
1780.417	5801.1
1784.787	5768.1
1789.154	5822.1
1793.516	5907.1
1797.874	6045.1
1802.228	6155.1
1806.578	6216.1
1810.924	6235.1
1815.266	6175.1
1819.603	6122.1
1823.937	5968.1
1828.266	5908.1
1832.591	5854.1
1836.913	5722.1
1841.23	5720.1
1845.543	5655.1
1849.852	5642.1
1854.156	5581.1
1858.457	5552.1
1862.754	5608.1
1867.047	5579.1
1871.335	5563.1
1875.62	5545.1
1879.9	5536.1
1884.177	5475.1
1888.449	5462.1
1892.718	5375.1
1896.982	5338.1
1901.243	5247.1
1905.499	5214.1
1909.752	5186.1
1914	5157.1
1918.245	5205.1
1922.485	5229.1
1926.722	5283.1
1930.954	5364.1
1935.183	5404.1
1939.408	5494.1
1943.628	5511.1
1947.845	5524.1
1952.058	5539.1
1956.267	5481.1
1960.472	5401.1
1964.673	5329.1
1968.87	5252.1
1973.063	5173.1
1977.252	5126.1
1981.438	5070.1
1985.619	5026.1
1989.797	4963.1
1993.971	4965.1
1998.14	4923.1
2002.306	4916.1
2006.469	4884.1
2010.627	4863.1
2014.781	4835.1
2018.932	4817.1
2023.078	4756.1
2027.221	4687.1
2031.36	4617.1
2035.495	4550.1
2039.627	4465.1
2043.754	4406.1
2047.878	4377.1
2051.998	4372.1
2056.114	4301.1
2060.226	4304.1
2064.334	4307.1
2068.439	4323.1
2072.54	4342.1
2076.637	4378.1
2080.73	4416.1
2084.82	4456.1
2088.906	4431.1
2092.988	4425.1
2097.066	4420.1
2101.14	4411.1
2105.211	4368.1
2109.278	4376.1
2113.342	4332.1
2117.401	4310.1
2121.457	4266.1
2125.509	4263.1
2129.558	4233.1
2133.602	4219.1
2137.643	4186.1
2141.681	4170.1
2145.714	4157.1
2149.744	4134.1
2153.77	4147.1
2157.793	4058.1
2161.812	4045.1
2165.827	3948.1
2169.838	3933.1
2173.846	3825.1
2177.851	3783.1
2181.851	3726.1
2185.848	3691.1
2189.841	3638.1
2193.831	3610.1
2197.817	3595.1
2201.799	3579.1
2205.778	3554.1
2209.753	3547.1
2213.725	3532.1
2217.693	3489.1
2221.657	3515.1
2225.618	3499.1
2229.575	3459.1
2233.529	3419.1
2237.479	3409.1
2241.425	3379.1
2245.368	3340.1
2249.307	3270.1
2253.243	3237.1
2257.175	3194.1
2261.104	3134.1
2265.029	3104.1
2268.95	3078.1
2272.868	3050.1
2276.783	3041.1
2280.694	2975.1
2284.601	2949.1
2288.505	2923.1
2292.405	2895.1
2296.302	2896.1
2300.195	2844.1
2304.085	2807.1
2307.971	2793.1
2311.854	2736.1
2315.734	2707.1
2319.609	2674.1
2323.482	2635.1
2327.351	2597.1
2331.216	2593.1
2335.078	2578.1
2338.937	2569.1
2342.792	2564.1
2346.643	2528.1
2350.492	2544.1
2354.336	2564.1
2358.178	2544.1
2362.015	2558.1
2365.85	2578.1
2369.681	2551.1
2373.508	2569.1
2377.333	2576.1
2381.153	2575.1
2384.971	2545.1
2388.785	2534.1
2392.595	2522.1
2396.402	2476.1
2400.206	2439.1
2404.007	2436.1
2407.804	2433.1
2411.597	2403.1
2415.388	2396.1
2419.174	2367.1
2422.958	2369.1
2426.738	2353.1
2430.515	2342.1
2434.289	2328.1
2438.059	2268.1
2441.825	2298.1
2445.589	2233.1
2449.349	2207.1
2453.106	2186.1
2456.859	2162.1
2460.61	2131.1
2464.356	2093.1
2468.1	2072.1
2471.84	2058.1
2475.577	2042.1
2479.311	2039.1
2483.041	2025.1
2486.768	2015.1
2490.492	2012.1
2494.213	1973.1
2497.93	1973.1
2501.644	1966.1
2505.355	1968.1
2509.062	1933.1
2512.766	1936.1
2516.467	1948.1
2520.165	1937.1
2523.859	1914.1
2527.551	1885.1
2531.239	1859.1
2534.923	1860.1
2538.605	1835.1
2542.283	1826.1
2545.958	1848.1
2549.63	1841.1
2553.299	1845.1
2556.964	1851.1
2560.626	1839.1
2564.285	1816.1
2567.941	1805.1
2571.594	1795.1
2575.243	1803.1
2578.89	1780.1
2582.533	1769.1
2586.173	1765.1
2589.809	1729.1
2593.443	1708.1
2597.073	1678.1
2600.701	1703.1
2604.325	1703.1
2607.946	1669.1
2611.564	1661.1
2615.178	1646.1
2618.79	1650.1
2622.398	1624.1
2626.004	1599.1
2629.606	1591.1
2633.205	1567.1
2636.801	1538.1
2640.394	1537.1
2643.983	1517.1
2647.57	1486.1
2651.153	1462.1
2654.734	1439.1
2658.311	1425.1
2661.885	1386.1
2665.456	1385.1
2669.025	1372.1
2672.589	1348.1
2676.151	1328.1
2679.71	1298.1
2683.266	1270.1
2686.819	1263.1
2690.368	1239.1
2693.915	1223.1
2697.458	1172.1
2700.999	1168.1
2704.536	1128.1
2708.071	1106.1
2711.602	1074.1
2715.13	1046.1
2718.656	1043.1
2722.178	1015.1
2725.697	1007.1
2729.214	995.1
2732.727	979.1
2736.237	953.1
2739.744	981.1
2743.249	982.1
2746.75	971.1
2750.248	976.1
2753.743	988.1
2757.236	992.1
2760.725	1024.1
2764.211	1016.1
2767.695	1021.1
2771.175	1020.1
2774.652	1017.1
2778.127	1002.1
2781.598	997.1
2785.067	998.1
2788.532	988.1
2791.995	988.1
2795.455	1022.1
2798.911	1000.1
2802.365	993.1
2805.816	1009.1
2809.264	1008.1
2812.709	1000.1
2816.151	988.1
2819.59	996.1
2823.026	1000.1
2826.46	1012.1
2829.89	1006.1
2833.318	1020.1
2836.742	1015.1
2840.164	1019.1
2843.583	1030.1
2846.999	1033.1
2850.412	1054.1
2853.822	1050.1
2857.229	1070.1
2860.634	1111.1
2864.035	1114.1
2867.434	1141.1
2870.83	1155.1
2874.223	1185.1
2877.613	1184.1
2881	1223.1
2884.385	1225.1
2887.766	1211.1
2891.145	1229.1
2894.521	1208.1
2897.894	1219.1
2901.264	1204.1
2904.631	1211.1
2907.996	1216.1
2911.358	1239.1
2914.717	1230.1
2918.073	1243.1
2921.426	1277.1
2924.777	1301.1
2928.124	1296.1
2931.469	1326.1
2934.811	1346.1
2938.15	1366.1
2941.487	1369.1
2944.821	1382.1
2948.152	1381.1
2951.48	1364.1
2954.805	1340.1
2958.128	1333.1
2961.447	1316.1
2964.765	1315.1
2968.079	1321.1
2971.39	1323.1
2974.699	1363.1
2978.005	1370.1
2981.308	1389.1
2984.609	1416.1
2987.907	1453.1
2991.202	1469.1
2994.494	1508.1
2997.784	1525.1
3001.07	1556.1
3004.355	1581.1
3007.636	1611.1
3010.915	1631.1
3014.191	1654.1
3017.464	1646.1
3020.734	1653.1
3024.002	1684.1
3027.267	1672.1
3030.53	1695.1
3033.789	1716.1
3037.046	1743.1
3040.301	1765.1
3043.552	1798.1
3046.801	1843.1
3050.048	1879.1
3053.291	1943.1
3056.532	1999.1
3059.771	2051.1
3063.006	2093.1
3066.239	2155.1
3069.469	2216.1
3072.697	2296.1
3075.922	2331.1
3079.144	2422.1
3082.364	2451.1
3085.581	2482.1
3088.795	2559.1
3092.007	2615.1
3095.216	2676.1
3098.423	2737.1
3101.627	2769.1
3104.828	2832.1
3108.026	2919.1
3111.222	2990.1
3114.416	3047.1
3117.607	3138.1
3120.795	3165.1
3123.98	3265.1
3127.163	3338.1
3130.344	3410.1
3133.521	3492.1
3136.696	3567.1
3139.869	3629.1
3143.039	3667.1
3146.206	3745.1
3149.371	3814.1
3152.533	3849.1
3155.693	3848.1
3158.85	3887.1
3162.005	3925.1
3165.157	3925.1
3168.306	3904.1
3171.453	3929.1
3174.597	3951.1
3177.739	3954.1
3180.878	3973.1
3184.014	3963.1
3187.149	3959.1
3190.28	3971.1
3193.409	3959.1
3196.536	4003.1
3199.659	4005.1
3202.781	3990.1
3205.9	4010.1
3209.016	3971.1
3212.13	3962.1
3215.241	3911.1
3218.35	3894.1
3221.456	3878.1
3224.56	3827.1
3227.661	3782.1
3230.76	3725.1
3233.856	3682.1
3236.95	3673.1
3240.041	3622.1
3243.13	3587.1
3246.216	3584.1
3249.3	3552.1
3252.382	3531.1
3255.46	3506.1
3258.537	3525.1
3261.611	3508.1
3264.682	3511.1
3267.751	3509.1
3270.818	3462.1
3273.882	3484.1
3276.943	3468.1
3280.002	3416.1
3283.059	3419.1
3286.113	3349.1
3289.165	3335.1
3292.214	3282.1
3295.261	3212.1
3298.306	3175.1
3301.348	3152.1
3304.387	3076.1
3307.425	3036.1
3310.459	2998.1
3313.492	2950.1
3316.521	2923.1
3319.549	2878.1
3322.574	2839.1
3325.597	2828.1
3328.617	2810.1
3331.635	2814.1
3334.65	2792.1
3337.663	2753.1
3340.674	2727.1
3343.682	2761.1
3346.688	2754.1
3349.691	2722.1
3352.692	2714.1
3355.691	2692.1
3358.687	2645.1
3361.681	2633.1
3364.673	2579.1
3367.662	2552.1
3370.649	2540.1
3373.633	2500.1
3376.615	2456.1
3379.595	2401.1
3382.572	2388.1
3385.547	2340.1
3388.52	2301.1
3391.49	2275.1
3394.458	2217.1
3397.424	2193.1
3400.387	2196.1
3403.348	2158.1
3406.307	2148.1
3409.263	2089.1
3412.217	2081.1
3415.168	2070.1
3418.118	2011.1
3421.065	2004.1
3424.009	1989.1
3426.951	1946.1
3429.891	1916.1
3432.829	1837.1
3435.764	1809.1
3438.697	1785.1
3441.628	1722.1
3444.557	1663.1
3447.483	1614.1
3450.407	1579.1
3453.328	1504.1
3456.247	1457.1
3459.164	1407.1
3462.079	1364.1
3464.991	1303.1
3467.902	1242.1
3470.809	1221.1
3473.715	1160.1
3476.618	1125.1
3479.519	1087.1
3482.418	1047.1
3485.315	997.1
3488.209	973.1
3491.101	930.1
3493.99	899.1
3496.878	853.1
3499.763	821.1
3502.646	801.1
3505.527	750.1
3508.405	732.1
3511.281	666.1
3514.155	632.1
3517.027	581.1
3519.897	553.1
3522.764	516.1
3525.629	469.1
3528.492	426.1
3531.352	373.1
3534.211	348.1
3537.067	319.1
3539.921	301.1
3542.773	256.1
3545.622	215.1
3548.469	181.1
3551.315	167.1
3554.157	138.1
3556.998	110.1
3559.837	88.1
3562.673	54.1
3565.507	31.1
3568.339	31.1
3571.169	-3.9
3573.996	-14.9
3576.822	-34.9
3579.645	-54.9
3582.466	-89.9
3585.285	-96.9
3588.101	-111.9
3590.916	-140.9
3593.728	-157.9
3596.538	-176.9
3599.346	-192.9
3602.152	-198.9
3604.956	-224.9
3607.757	-234.9
3610.556	-240.9
3613.354	-266.9
3616.149	-273.9
3618.942	-290.9
3621.732	-308.9
3624.521	-309.9
3627.307	-325.9
3630.092	-331.9
3632.874	-342.9
3635.654	-352.9
3638.432	-361.9
3641.208	-375.9
3643.982	-383.9
3646.753	-389.9
3649.523	-404.9
3652.29	-406.9
3655.055	-401.9
3657.818	-420.9
3660.579	-438.9
3663.338	-443.9
3666.095	-450.9
3668.849	-477.9
3671.602	-474.9
3674.352	-478.9
3677.101	-482.9
3679.847	-496.9
3682.591	-496.9
3685.333	-504.9
3688.073	-505.9
3690.811	-510.9
3693.547	-512.9
3696.281	-524.9
3699.013	-529.9
3701.742	-545.9
3704.47	-538.9
3707.195	-552.9
3709.919	-546.9
3712.64	-546.9
3715.359	-556.9
3718.076	-554.9
3720.792	-567.9
3723.505	-569.9
3726.216	-572.9
3728.925	-574.9
3731.632	-579.9
3734.336	-574.9
3737.039	-584.9
3739.74	-584.9
3742.439	-587.9
3745.136	-582.9
3747.83	-596.9
3750.523	-583.9
3753.213	-595.9
3755.902	-591.9
3758.589	-600.9
3761.273	-598.9
3763.956	-605.9
3766.636	-597.9
3769.315	-609.9
3771.991	-609.9
3774.665	-609.9
3777.338	-608.9
3780.008	-610.9
3782.677	-612.9
3785.343	-621.9
3788.007	-607.9
3790.67	-618.9
3793.33	-623.9
3795.989	-624.9
3798.645	-623.9
3801.299	-625.9
3803.952	-626.9
3806.602	-625.9
3809.251	-631.9
3811.897	-625.9
3814.542	-621.9
3817.184	-629.9
3819.825	-624.9
3822.463	-621.9
3825.1	-631.9
3827.735	-636.9
3830.367	-630.9
3832.998	-641.9
3835.627	-636.9
3838.253	-637.9
3840.878	-633.9
3843.501	-634.9
3846.122	-633.9
3848.741	-640.9
3851.358	-644.9
3853.973	-640.9
3856.586	-640.9
3859.197	-642.9
3861.806	-640.9
3864.414	-636.9
3867.019	-635.9
3869.622	-642.9
3872.224	-635.9
3874.823	-620.9
3877.421	-598.9
3880.016	-580.9
3882.61	-539.9
3885.202	-543.9
3887.792	-568.9
3890.38	-595.9
3892.966	-625.9
3895.55	-628.9
3898.132	-637.9
3900.713	-646.9
3903.291	-652.9
3905.868	-651.9
3908.442	-650.9
3911.015	-648.9
3913.586	-655.9
3916.155	-649.9
3918.722	-646.9
3921.287	-652.9
3923.85	-655.9
3926.411	-656.9
3928.971	-652.9
3931.528	-655.9
3934.084	-651.9
3936.638	-655.9
3939.19	-655.9
3941.74	-658.9
3944.288	-658.9
3946.834	-662.9
3949.378	-655.9
3951.921	-650.9
3954.462	-654.9
3957	-650.9
3959.537	-645.9
3962.072	-651.9
3964.606	-649.9
3967.137	-656.9
3969.667	-648.9
3972.194	-644.9
3974.72	-653.9
3977.244	-649.9
3979.766	-644.9
3982.286	-641.9
3984.805	-637.9
3987.321	-641.9
3989.836	-642.9
3992.349	-642.9
3994.86	-635.9
3997.369	-649.9
3999.877	-640.9
4002.382	-642.9
4004.886	-641.9
4007.388	-643.9
4009.888	-634.9
4012.386	-639.9
4014.883	-638.9
4017.377	-637.9
4019.87	-641.9
4022.361	-643.9
4024.85	-647.9
4027.338	-640.9
4029.823	-639.9
4032.307	-645.9
4034.789	-645.9
4037.269	-646.9
4039.747	-646.9
4042.224	-640.9
4044.699	-646.9
4047.172	-643.9
4049.643	-645.9
4052.112	-643.9
4054.58	-639.9
4057.046	-647.9
4059.51	-641.9
4061.972	-651.9
4064.432	-640.9
4066.891	-642.9
4069.348	-649.9
4071.803	-649.9
4074.256	-641.9
4076.708	-642.9
4079.158	-644.9
4081.606	-638.9
4084.052	-638.9
4086.497	-644.9
4088.939	-636.9
4091.38	-637.9
4093.819	-639.9
4096.257	-674.9
4098.693	-676.9
4101.127	-677.9
4103.559	-678.9
4105.989	-398.9
4108.418	-384.9
4110.845	-368.9
4113.27	-338.9
4115.694	-296.9
4118.115	-249.9
4120.535	-640.9
4122.954	-643.9
4125.37	-636.9
4127.785	-640.9
4130.198	-648.9
4132.609	-642.9
4135.019	-682.9
4137.427	-677.9
4139.833	-676.9
4142.237	-675.9
