Data from 2018-2-7_conc=4_RamanShift_06.txt Node
Date: Tue Feb 13 13:31:43 IST 2018
User: aro
Spectrometer: QEPB0276
Trigger mode: 0
Integration Time (sec): 3.000000E1
Scans to average: 1
Electric dark correction enabled: true
Nonlinearity correction enabled: false
Boxcar width: 0
XAxis mode: Raman Shifts
Number of Pixels in Spectrum: 1044
>>>>>Begin Spectral Data<<<<<
160.701	-161.2
166.742	20.8
172.777	587.8
178.805	2210.8
184.826	6063.8
190.841	12451.8
196.849	19583.8
202.85	24357.8
208.845	25765.8
214.833	25407.8
220.815	24863.8
226.789	24676.8
232.758	24486.8
238.719	24186.8
244.674	23849.8
250.623	23340.8
256.565	22769.8
262.5	22294.8
268.429	21822.8
274.351	21393.8
280.267	21053.8
286.176	20846.8
292.079	20615.8
297.975	20385.8
303.865	20165.8
309.748	19983.8
315.625	19851.8
321.495	19694.8
327.359	19597.8
333.217	19582.8
339.068	19509.8
344.912	19400.8
350.751	19425.8
356.583	19455.8
362.408	19458.8
368.227	19472.8
374.04	19510.8
379.847	19502.8
385.647	19658.8
391.44	19682.8
397.228	19724.8
403.009	19822.8
408.784	19879.8
414.553	19914.8
420.315	20016.8
426.071	20007.8
431.821	19972.8
437.565	19927.8
443.302	19933.8
449.033	19887.8
454.758	19888.8
460.477	19866.8
466.189	19750.8
471.896	19676.8
477.596	19659.8
483.29	19614.8
488.978	19570.8
494.66	19524.8
500.335	19295.8
506.005	19161.8
511.668	18884.8
517.325	18632.8
522.977	18495.8
528.622	18350.8
534.261	18230.8
539.894	18156.8
545.521	18079.8
551.141	18002.8
556.756	17925.8
562.365	17922.8
567.968	17729.8
573.565	17736.8
579.155	17671.8
584.74	17555.8
590.319	17502.8
595.892	17395.8
601.459	17381.8
607.02	17304.8
612.575	17159.8
618.124	17091.8
623.667	16928.8
629.204	16878.8
634.735	16810.8
640.261	16649.8
645.781	16614.8
651.294	16619.8
656.802	16587.8
662.304	16570.8
667.8	16517.8
673.29	16511.8
678.775	16488.8
684.254	16412.8
689.726	16357.8
695.193	16291.8
700.655	16221.8
706.11	16136.8
711.56	16051.8
717.004	15975.8
722.442	15923.8
727.874	15846.8
733.301	15720.8
738.722	15754.8
744.137	15689.8
749.547	15686.8
754.951	15692.8
760.349	15712.8
765.741	15729.8
771.128	15705.8
776.509	15668.8
781.885	15674.8
787.254	15615.8
792.618	15524.8
797.977	15502.8
803.33	15339.8
808.677	15316.8
814.019	15212.8
819.355	15129.8
824.686	15050.8
830.011	14996.8
835.33	15010.8
840.644	15028.8
845.952	15092.8
851.255	15066.8
856.552	15064.8
861.844	15038.8
867.13	15027.8
872.41	14947.8
877.686	14852.8
882.955	14745.8
888.219	14636.8
893.478	14412.8
898.731	14238.8
903.979	14063.8
909.221	14021.8
914.458	13930.8
919.69	13954.8
924.916	14004.8
930.136	14014.8
935.351	14014.8
940.561	14026.8
945.766	13958.8
950.965	13912.8
956.158	13782.8
961.347	13660.8
966.529	13483.8
971.707	13329.8
976.879	13149.8
982.046	13039.8
987.208	12992.8
992.364	12998.8
997.515	13086.8
1002.66	13228.8
1007.801	13339.8
1012.936	13475.8
1018.066	13449.8
1023.19	13424.8
1028.309	13440.8
1033.423	13404.8
1038.532	13333.8
1043.636	13177.8
1048.734	13050.8
1053.827	12851.8
1058.915	12728.8
1063.998	12625.8
1069.075	12619.8
1074.147	12607.8
1079.214	12672.8
1084.276	12721.8
1089.333	12813.8
1094.385	12859.8
1099.431	12910.8
1104.472	12903.8
1109.509	12830.8
1114.54	12676.8
1119.565	12501.8
1124.586	12366.8
1129.602	12240.8
1134.613	12139.8
1139.618	12058.8
1144.619	12035.8
1149.614	12060.8
1154.604	12085.8
1159.589	12081.8
1164.57	12121.8
1169.545	12150.8
1174.515	12122.8
1179.48	12055.8
1184.44	11995.8
1189.395	11921.8
1194.345	11799.8
1199.29	11772.8
1204.23	11748.8
1209.165	11803.8
1214.095	11836.8
1219.021	11871.8
1223.941	11998.8
1228.856	12088.8
1233.766	12067.8
1238.672	12124.8
1243.572	12121.8
1248.467	11980.8
1253.358	11841.8
1258.244	11721.8
1263.124	11524.8
1268	11356.8
1272.871	11180.8
1277.737	11168.8
1282.599	11087.8
1287.455	11064.8
1292.306	11064.8
1297.153	11056.8
1301.995	11168.8
1306.832	11160.8
1311.664	11188.8
1316.491	11172.8
1321.314	11051.8
1326.132	10882.8
1330.945	10669.8
1335.753	10408.8
1340.556	10173.8
1345.354	9986.8
1350.148	9760.8
1354.937	9761.8
1359.722	9672.8
1364.501	9724.8
1369.276	9756.8
1374.046	9859.8
1378.811	10021.8
1383.572	10111.8
1388.327	10142.8
1393.079	10113.8
1397.825	9994.8
1402.567	9892.8
1407.304	9796.8
1412.036	9650.8
1416.764	9649.8
1421.487	9565.8
1426.205	9513.8
1430.919	9468.8
1435.628	9489.8
1440.333	9508.8
1445.032	9494.8
1449.727	9592.8
1454.418	9530.8
1459.104	9454.8
1463.785	9251.8
1468.462	9040.8
1473.134	8834.8
1477.802	8656.8
1482.465	8483.8
1487.123	8363.8
1491.777	8373.8
1496.426	8370.8
1501.071	8444.8
1505.711	8598.8
1510.347	8703.8
1514.978	8847.8
1519.604	8939.8
1524.226	9040.8
1528.844	9065.8
1533.457	9037.8
1538.065	9023.8
1542.669	8953.8
1547.269	8907.8
1551.864	8827.8
1556.454	8857.8
1561.041	8851.8
1565.622	8835.8
1570.199	8868.8
1574.772	8902.8
1579.34	9037.8
1583.904	9100.8
1588.464	9144.8
1593.019	9160.8
1597.569	9110.8
1602.115	9061.8
1606.657	9024.8
1611.195	8966.8
1615.728	8926.8
1620.256	8907.8
1624.78	8915.8
1629.3	8932.8
1633.816	8937.8
1638.327	9003.8
1642.834	8958.8
1647.336	9093.8
1651.834	9082.8
1656.328	9058.8
1660.817	8978.8
1665.302	8860.8
1669.783	8660.8
1674.259	8475.8
1678.732	8189.8
1683.199	7912.8
1687.663	7638.8
1692.122	7398.8
1696.577	7240.8
1701.028	7185.8
1705.474	7176.8
1709.917	7200.8
1714.355	7262.8
1718.788	7205.8
1723.218	7098.8
1727.643	7008.8
1732.064	6859.8
1736.481	6712.8
1740.893	6504.8
1745.301	6344.8
1749.705	6138.8
1754.105	5985.8
1758.501	5780.8
1762.893	5630.8
1767.28	5486.8
1771.663	5362.8
1776.042	5252.8
1780.417	5199.8
1784.787	5230.8
1789.154	5245.8
1793.516	5281.8
1797.874	5359.8
1802.228	5476.8
1806.578	5549.8
1810.924	5533.8
1815.266	5505.8
1819.603	5408.8
1823.937	5349.8
1828.266	5254.8
1832.591	5205.8
1836.913	5125.8
1841.23	5075.8
1845.543	5055.8
1849.852	5018.8
1854.156	4998.8
1858.457	4974.8
1862.754	5008.8
1867.047	4996.8
1871.335	4988.8
1875.62	4943.8
1879.9	4900.8
1884.177	4876.8
1888.449	4828.8
1892.718	4759.8
1896.982	4708.8
1901.243	4653.8
1905.499	4608.8
1909.752	4626.8
1914	4586.8
1918.245	4604.8
1922.485	4625.8
1926.722	4668.8
1930.954	4755.8
1935.183	4776.8
1939.408	4841.8
1943.628	4858.8
1947.845	4873.8
1952.058	4860.8
1956.267	4825.8
1960.472	4775.8
1964.673	4674.8
1968.87	4616.8
1973.063	4572.8
1977.252	4505.8
1981.438	4506.8
1985.619	4423.8
1989.797	4401.8
1993.971	4372.8
1998.14	4350.8
2002.306	4342.8
2006.469	4324.8
2010.627	4305.8
2014.781	4276.8
2018.932	4228.8
2023.078	4224.8
2027.221	4136.8
2031.36	4059.8
2035.495	4049.8
2039.627	3928.8
2043.754	3920.8
2047.878	3872.8
2051.998	3826.8
2056.114	3815.8
2060.226	3823.8
2064.334	3835.8
2068.439	3818.8
2072.54	3857.8
2076.637	3867.8
2080.73	3885.8
2084.82	3918.8
2088.906	3942.8
2092.988	3942.8
2097.066	3933.8
2101.14	3892.8
2105.211	3886.8
2109.278	3842.8
2113.342	3835.8
2117.401	3771.8
2121.457	3793.8
2125.509	3753.8
2129.558	3767.8
2133.602	3710.8
2137.643	3706.8
2141.681	3694.8
2145.714	3680.8
2149.744	3667.8
2153.77	3635.8
2157.793	3576.8
2161.812	3569.8
2165.827	3502.8
2169.838	3426.8
2173.846	3375.8
2177.851	3325.8
2181.851	3281.8
2185.848	3224.8
2189.841	3201.8
2193.831	3171.8
2197.817	3149.8
2201.799	3142.8
2205.778	3127.8
2209.753	3106.8
2213.725	3065.8
2217.693	3063.8
2221.657	3077.8
2225.618	3067.8
2229.575	3054.8
2233.529	3023.8
2237.479	2978.8
2241.425	2956.8
2245.368	2932.8
2249.307	2847.8
2253.243	2800.8
2257.175	2802.8
2261.104	2762.8
2265.029	2727.8
2268.95	2680.8
2272.868	2663.8
2276.783	2625.8
2280.694	2587.8
2284.601	2577.8
2288.505	2573.8
2292.405	2501.8
2296.302	2518.8
2300.195	2468.8
2304.085	2439.8
2307.971	2402.8
2311.854	2369.8
2315.734	2338.8
2319.609	2320.8
2323.482	2259.8
2327.351	2264.8
2331.216	2263.8
2335.078	2253.8
2338.937	2216.8
2342.792	2212.8
2346.643	2192.8
2350.492	2204.8
2354.336	2189.8
2358.178	2204.8
2362.015	2238.8
2365.85	2205.8
2369.681	2242.8
2373.508	2235.8
2377.333	2194.8
2381.153	2224.8
2384.971	2200.8
2388.785	2208.8
2392.595	2170.8
2396.402	2147.8
2400.206	2112.8
2404.007	2110.8
2407.804	2110.8
2411.597	2100.8
2415.388	2054.8
2419.174	2080.8
2422.958	2041.8
2426.738	2040.8
2430.515	2024.8
2434.289	2000.8
2438.059	1963.8
2441.825	1984.8
2445.589	1937.8
2449.349	1924.8
2453.106	1894.8
2456.859	1856.8
2460.61	1853.8
2464.356	1835.8
2468.1	1794.8
2471.84	1777.8
2475.577	1769.8
2479.311	1767.8
2483.041	1729.8
2486.768	1753.8
2490.492	1714.8
2494.213	1721.8
2497.93	1714.8
2501.644	1708.8
2505.355	1675.8
2509.062	1690.8
2512.766	1660.8
2516.467	1651.8
2520.165	1660.8
2523.859	1639.8
2527.551	1628.8
2531.239	1605.8
2534.923	1582.8
2538.605	1579.8
2542.283	1583.8
2545.958	1576.8
2549.63	1555.8
2553.299	1563.8
2556.964	1552.8
2560.626	1547.8
2564.285	1538.8
2567.941	1539.8
2571.594	1521.8
2575.243	1516.8
2578.89	1511.8
2582.533	1498.8
2586.173	1480.8
2589.809	1483.8
2593.443	1457.8
2597.073	1443.8
2600.701	1443.8
2604.325	1407.8
2607.946	1407.8
2611.564	1395.8
2615.178	1411.8
2618.79	1385.8
2622.398	1365.8
2626.004	1354.8
2629.606	1345.8
2633.205	1316.8
2636.801	1294.8
2640.394	1298.8
2643.983	1248.8
2647.57	1255.8
2651.153	1221.8
2654.734	1194.8
2658.311	1190.8
2661.885	1147.8
2665.456	1132.8
2669.025	1141.8
2672.589	1135.8
2676.151	1113.8
2679.71	1097.8
2683.266	1068.8
2686.819	1052.8
2690.368	1043.8
2693.915	1019.8
2697.458	991.8
2700.999	962.8
2704.536	934.8
2708.071	941.8
2711.602	898.8
2715.13	882.8
2718.656	846.8
2722.178	831.8
2725.697	824.8
2729.214	799.8
2732.727	799.8
2736.237	792.8
2739.744	802.8
2743.249	783.8
2746.75	797.8
2750.248	792.8
2753.743	811.8
2757.236	816.8
2760.725	828.8
2764.211	833.8
2767.695	851.8
2771.175	842.8
2774.652	836.8
2778.127	842.8
2781.598	829.8
2785.067	803.8
2788.532	812.8
2791.995	806.8
2795.455	817.8
2798.911	822.8
2802.365	831.8
2805.816	813.8
2809.264	819.8
2812.709	822.8
2816.151	808.8
2819.59	819.8
2823.026	835.8
2826.46	817.8
2829.89	832.8
2833.318	838.8
2836.742	846.8
2840.164	867.8
2843.583	863.8
2846.999	877.8
2850.412	890.8
2853.822	888.8
2857.229	925.8
2860.634	916.8
2864.035	959.8
2867.434	960.8
2870.83	1002.8
2874.223	1018.8
2877.613	1043.8
2881	1061.8
2884.385	1071.8
2887.766	1060.8
2891.145	1088.8
2894.521	1073.8
2897.894	1073.8
2901.264	1069.8
2904.631	1076.8
2907.996	1077.8
2911.358	1100.8
2914.717	1095.8
2918.073	1102.8
2921.426	1125.8
2924.777	1144.8
2928.124	1163.8
2931.469	1188.8
2934.811	1230.8
2938.15	1234.8
2941.487	1244.8
2944.821	1259.8
2948.152	1252.8
2951.48	1251.8
2954.805	1224.8
2958.128	1227.8
2961.447	1220.8
2964.765	1203.8
2968.079	1230.8
2971.39	1228.8
2974.699	1246.8
2978.005	1280.8
2981.308	1294.8
2984.609	1306.8
2987.907	1340.8
2991.202	1375.8
2994.494	1402.8
2997.784	1435.8
3001.07	1431.8
3004.355	1493.8
3007.636	1525.8
3010.915	1520.8
3014.191	1553.8
3017.464	1565.8
3020.734	1562.8
3024.002	1580.8
3027.267	1586.8
3030.53	1617.8
3033.789	1632.8
3037.046	1662.8
3040.301	1693.8
3043.552	1705.8
3046.801	1767.8
3050.048	1827.8
3053.291	1865.8
3056.532	1920.8
3059.771	1969.8
3063.006	2033.8
3066.239	2113.8
3069.469	2164.8
3072.697	2229.8
3075.922	2279.8
3079.144	2339.8
3082.364	2383.8
3085.581	2454.8
3088.795	2502.8
3092.007	2540.8
3095.216	2585.8
3098.423	2686.8
3101.627	2737.8
3104.828	2776.8
3108.026	2867.8
3111.222	2925.8
3114.416	2974.8
3117.607	3087.8
3120.795	3145.8
3123.98	3209.8
3127.163	3287.8
3130.344	3389.8
3133.521	3475.8
3136.696	3525.8
3139.869	3606.8
3143.039	3667.8
3146.206	3732.8
3149.371	3790.8
3152.533	3798.8
3155.693	3835.8
3158.85	3850.8
3162.005	3874.8
3165.157	3900.8
3168.306	3923.8
3171.453	3901.8
3174.597	3910.8
3177.739	3947.8
3180.878	3930.8
3184.014	3933.8
3187.149	3940.8
3190.28	3951.8
3193.409	3960.8
3196.536	3952.8
3199.659	3954.8
3202.781	3954.8
3205.9	3950.8
3209.016	3966.8
3212.13	3916.8
3215.241	3899.8
3218.35	3873.8
3221.456	3825.8
3224.56	3797.8
3227.661	3774.8
3230.76	3688.8
3233.856	3677.8
3236.95	3630.8
3240.041	3604.8
3243.13	3578.8
3246.216	3575.8
3249.3	3546.8
3252.382	3527.8
3255.46	3513.8
3258.537	3503.8
3261.611	3517.8
3264.682	3504.8
3267.751	3527.8
3270.818	3506.8
3273.882	3467.8
3276.943	3459.8
3280.002	3435.8
3283.059	3404.8
3286.113	3386.8
3289.165	3304.8
3292.214	3266.8
3295.261	3232.8
3298.306	3154.8
3301.348	3139.8
3304.387	3054.8
3307.425	3008.8
3310.459	3002.8
3313.492	2915.8
3316.521	2900.8
3319.549	2884.8
3322.574	2840.8
3325.597	2805.8
3328.617	2802.8
3331.635	2783.8
3334.65	2753.8
3337.663	2738.8
3340.674	2712.8
3343.682	2727.8
3346.688	2717.8
3349.691	2694.8
3352.692	2699.8
3355.691	2656.8
3358.687	2634.8
3361.681	2595.8
3364.673	2583.8
3367.662	2528.8
3370.649	2488.8
3373.633	2470.8
3376.615	2441.8
3379.595	2386.8
3382.572	2353.8
3385.547	2327.8
3388.52	2291.8
3391.49	2252.8
3394.458	2226.8
3397.424	2177.8
3400.387	2158.8
3403.348	2122.8
3406.307	2111.8
3409.263	2107.8
3412.217	2074.8
3415.168	2036.8
3418.118	2011.8
3421.065	1976.8
3424.009	1969.8
3426.951	1920.8
3429.891	1881.8
3432.829	1847.8
3435.764	1798.8
3438.697	1753.8
3441.628	1706.8
3444.557	1632.8
3447.483	1598.8
3450.407	1555.8
3453.328	1507.8
3456.247	1453.8
3459.164	1390.8
3462.079	1335.8
3464.991	1301.8
3467.902	1246.8
3470.809	1208.8
3473.715	1137.8
3476.618	1113.8
3479.519	1081.8
3482.418	1038.8
3485.315	1015.8
3488.209	966.8
3491.101	929.8
3493.99	902.8
3496.878	869.8
3499.763	839.8
3502.646	788.8
3505.527	746.8
3508.405	713.8
3511.281	667.8
3514.155	632.8
3517.027	587.8
3519.897	545.8
3522.764	528.8
3525.629	489.8
3528.492	436.8
3531.352	394.8
3534.211	375.8
3537.067	309.8
3539.921	289.8
3542.773	270.8
3545.622	222.8
3548.469	197.8
3551.315	162.8
3554.157	143.8
3556.998	110.8
3559.837	95.8
3562.673	72.8
3565.507	40.8
3568.339	29.8
3571.169	3.8
3573.996	-25.2
3576.822	-41.2
3579.645	-55.2
3582.466	-79.2
3585.285	-96.2
3588.101	-111.2
3590.916	-134.2
3593.728	-148.2
3596.538	-168.2
3599.346	-185.2
3602.152	-200.2
3604.956	-214.2
3607.757	-230.2
3610.556	-230.2
3613.354	-255.2
3616.149	-272.2
3618.942	-289.2
3621.732	-292.2
3624.521	-302.2
3627.307	-315.2
3630.092	-330.2
3632.874	-343.2
3635.654	-340.2
3638.432	-352.2
3641.208	-353.2
3643.982	-369.2
3646.753	-377.2
3649.523	-392.2
3652.29	-393.2
3655.055	-407.2
3657.818	-417.2
3660.579	-421.2
3663.338	-421.2
3666.095	-438.2
3668.849	-457.2
3671.602	-463.2
3674.352	-464.2
3677.101	-480.2
3679.847	-490.2
3682.591	-491.2
3685.333	-492.2
3688.073	-499.2
3690.811	-500.2
3693.547	-506.2
3696.281	-522.2
3699.013	-522.2
3701.742	-526.2
3704.47	-527.2
3707.195	-539.2
3709.919	-535.2
3712.64	-541.2
3715.359	-546.2
3718.076	-543.2
3720.792	-552.2
3723.505	-554.2
3726.216	-560.2
3728.925	-558.2
3731.632	-579.2
3734.336	-568.2
3737.039	-581.2
3739.74	-582.2
3742.439	-578.2
3745.136	-577.2
3747.83	-574.2
3750.523	-577.2
3753.213	-586.2
3755.902	-585.2
3758.589	-584.2
3761.273	-584.2
3763.956	-595.2
3766.636	-592.2
3769.315	-598.2
3771.991	-595.2
3774.665	-594.2
3777.338	-604.2
3780.008	-594.2
3782.677	-598.2
3785.343	-607.2
3788.007	-598.2
3790.67	-605.2
3793.33	-612.2
3795.989	-603.2
3798.645	-614.2
3801.299	-616.2
3803.952	-612.2
3806.602	-608.2
3809.251	-615.2
3811.897	-613.2
3814.542	-603.2
3817.184	-616.2
3819.825	-612.2
3822.463	-613.2
3825.1	-618.2
3827.735	-622.2
3830.367	-624.2
3832.998	-626.2
3835.627	-623.2
3838.253	-626.2
3840.878	-621.2
3843.501	-623.2
3846.122	-626.2
3848.741	-627.2
3851.358	-624.2
3853.973	-624.2
3856.586	-627.2
3859.197	-625.2
3861.806	-627.2
3864.414	-620.2
3867.019	-625.2
3869.622	-624.2
3872.224	-617.2
3874.823	-608.2
3877.421	-592.2
3880.016	-576.2
3882.61	-547.2
3885.202	-542.2
3887.792	-571.2
3890.38	-593.2
3892.966	-611.2
3895.55	-614.2
3898.132	-630.2
3900.713	-637.2
3903.291	-639.2
3905.868	-632.2
3908.442	-587.2
3911.015	-632.2
3913.586	-632.2
3916.155	-631.2
3918.722	-634.2
3921.287	-637.2
3923.85	-634.2
3926.411	-641.2
3928.971	-638.2
3931.528	-646.2
3934.084	-633.2
3936.638	-638.2
3939.19	-642.2
3941.74	-645.2
3944.288	-637.2
3946.834	-642.2
3949.378	-643.2
3951.921	-636.2
3954.462	-640.2
3957	-635.2
3959.537	-634.2
3962.072	-636.2
3964.606	-634.2
3967.137	-642.2
3969.667	-635.2
3972.194	-637.2
3974.72	-639.2
3977.244	-629.2
3979.766	-631.2
3982.286	-630.2
3984.805	-626.2
3987.321	-630.2
3989.836	-624.2
3992.349	-625.2
3994.86	-624.2
3997.369	-634.2
3999.877	-618.2
4002.382	-624.2
4004.886	-629.2
4007.388	-625.2
4009.888	-624.2
4012.386	-623.2
4014.883	-626.2
4017.377	-627.2
4019.87	-630.2
4022.361	-631.2
4024.85	-633.2
4027.338	-630.2
4029.823	-623.2
4032.307	-635.2
4034.789	-629.2
4037.269	-637.2
4039.747	-631.2
4042.224	-624.2
4044.699	-631.2
4047.172	-633.2
4049.643	-632.2
4052.112	-634.2
4054.58	-626.2
4057.046	-632.2
4059.51	-631.2
4061.972	-635.2
4064.432	-632.2
4066.891	-634.2
4069.348	-634.2
4071.803	-637.2
4074.256	-633.2
4076.708	-630.2
4079.158	-627.2
4081.606	-630.2
4084.052	-625.2
4086.497	-628.2
4088.939	-627.2
4091.38	-620.2
4093.819	-626.2
4096.257	-660.2
4098.693	-663.2
4101.127	-663.2
4103.559	-665.2
4105.989	-403.2
4108.418	-379.2
4110.845	-361.2
4113.27	-340.2
4115.694	-286.2
4118.115	-247.2
4120.535	-631.2
4122.954	-633.2
4125.37	-629.2
4127.785	-630.2
4130.198	-635.2
4132.609	-631.2
4135.019	-667.2
4137.427	-666.2
4139.833	-664.2
4142.237	-660.2
