Data from 2018-2-7_conc=2_RamanShift_34.txt Node
Date: Tue Feb 13 12:09:14 IST 2018
User: aro
Spectrometer: QEPB0276
Trigger mode: 0
Integration Time (sec): 3.000000E1
Scans to average: 1
Electric dark correction enabled: true
Nonlinearity correction enabled: false
Boxcar width: 0
XAxis mode: Raman Shifts
Number of Pixels in Spectrum: 1044
>>>>>Begin Spectral Data<<<<<
160.701	-162.4
166.742	27.6
172.777	575.6
178.805	2230.6
184.826	6078.6
190.841	12542.6
196.849	19799.6
202.85	24843.6
208.845	26349.6
214.833	26000.6
220.815	25441.6
226.789	25286.6
232.758	25062.6
238.719	24915.6
244.674	24449.6
250.623	23898.6
256.565	23412.6
262.5	22878.6
268.429	22394.6
274.351	22014.6
280.267	21684.6
286.176	21384.6
292.079	21145.6
297.975	20939.6
303.865	20758.6
309.748	20524.6
315.625	20399.6
321.495	20290.6
327.359	20205.6
333.217	20108.6
339.068	20104.6
344.912	20043.6
350.751	20050.6
356.583	20024.6
362.408	20005.6
368.227	19981.6
374.04	20012.6
379.847	20071.6
385.647	20152.6
391.44	20179.6
397.228	20310.6
403.009	20418.6
408.784	20491.6
414.553	20535.6
420.315	20556.6
426.071	20579.6
431.821	20560.6
437.565	20507.6
443.302	20514.6
449.033	20534.6
454.758	20423.6
460.477	20354.6
466.189	20370.6
471.896	20250.6
477.596	20213.6
483.29	20149.6
488.978	20114.6
494.66	20104.6
500.335	19957.6
506.005	19649.6
511.668	19423.6
517.325	19246.6
522.977	19030.6
528.622	18924.6
534.261	18707.6
539.894	18640.6
545.521	18593.6
551.141	18569.6
556.756	18442.6
562.365	18416.6
567.968	18368.6
573.565	18286.6
579.155	18173.6
584.74	18079.6
590.319	18058.6
595.892	17942.6
601.459	17893.6
607.02	17806.6
612.575	17716.6
618.124	17593.6
623.667	17491.6
629.204	17389.6
634.735	17276.6
640.261	17201.6
645.781	17161.6
651.294	17143.6
656.802	17082.6
662.304	17097.6
667.8	17020.6
673.29	17032.6
678.775	16962.6
684.254	16881.6
689.726	16856.6
695.193	16848.6
700.655	16727.6
706.11	16640.6
711.56	16542.6
717.004	16522.6
722.442	16447.6
727.874	16388.6
733.301	16330.6
738.722	16195.6
744.137	16211.6
749.547	16215.6
754.951	16249.6
760.349	16243.6
765.741	16228.6
771.128	16227.6
776.509	16280.6
781.885	16209.6
787.254	16223.6
792.618	16142.6
797.977	15979.6
803.33	15934.6
808.677	15808.6
814.019	15759.6
819.355	15670.6
824.686	15612.6
830.011	15492.6
835.33	15493.6
840.644	15605.6
845.952	15598.6
851.255	15624.6
856.552	15632.6
861.844	15609.6
867.13	15557.6
872.41	15480.6
877.686	15410.6
882.955	15275.6
888.219	15193.6
893.478	14956.6
898.731	14760.6
903.979	14688.6
909.221	14519.6
914.458	14429.6
919.69	14483.6
924.916	14523.6
930.136	14560.6
935.351	14627.6
940.561	14568.6
945.766	14556.6
950.965	14468.6
956.158	14346.6
961.347	14175.6
966.529	14036.6
971.707	13850.6
976.879	13710.6
982.046	13589.6
987.208	13569.6
992.364	13508.6
997.515	13621.6
1002.66	13779.6
1007.801	13913.6
1012.936	13952.6
1018.066	14005.6
1023.19	14014.6
1028.309	13972.6
1033.423	13981.6
1038.532	13889.6
1043.636	13694.6
1048.734	13600.6
1053.827	13395.6
1058.915	13297.6
1063.998	13193.6
1069.075	13103.6
1074.147	13134.6
1079.214	13227.6
1084.276	13301.6
1089.333	13318.6
1094.385	13449.6
1099.431	13490.6
1104.472	13473.6
1109.509	13390.6
1114.54	13207.6
1119.565	13011.6
1124.586	12889.6
1129.602	12781.6
1134.613	12728.6
1139.618	12663.6
1144.619	12579.6
1149.614	12566.6
1154.604	12646.6
1159.589	12629.6
1164.57	12677.6
1169.545	12707.6
1174.515	12684.6
1179.48	12622.6
1184.44	12570.6
1189.395	12405.6
1194.345	12360.6
1199.29	12293.6
1204.23	12285.6
1209.165	12326.6
1214.095	12394.6
1219.021	12437.6
1223.941	12564.6
1228.856	12585.6
1233.766	12645.6
1238.672	12606.6
1243.572	12614.6
1248.467	12588.6
1253.358	12402.6
1258.244	12221.6
1263.124	12059.6
1268	11898.6
1272.871	11716.6
1277.737	11614.6
1282.599	11588.6
1287.455	11621.6
1292.306	11599.6
1297.153	11644.6
1301.995	11697.6
1306.832	11731.6
1311.664	11747.6
1316.491	11692.6
1321.314	11567.6
1326.132	11425.6
1330.945	11151.6
1335.753	10854.6
1340.556	10609.6
1345.354	10404.6
1350.148	10276.6
1354.937	10203.6
1359.722	10220.6
1364.501	10250.6
1369.276	10378.6
1374.046	10494.6
1378.811	10604.6
1383.572	10715.6
1388.327	10680.6
1393.079	10675.6
1397.825	10545.6
1402.567	10408.6
1407.304	10320.6
1412.036	10202.6
1416.764	10161.6
1421.487	10076.6
1426.205	10014.6
1430.919	9940.6
1435.628	9972.6
1440.333	10010.6
1445.032	9998.6
1449.727	10039.6
1454.418	10019.6
1459.104	9908.6
1463.785	9753.6
1468.462	9563.6
1473.134	9344.6
1477.802	9126.6
1482.465	8991.6
1487.123	8913.6
1491.777	8881.6
1496.426	8902.6
1501.071	9030.6
1505.711	9149.6
1510.347	9340.6
1514.978	9454.6
1519.604	9605.6
1524.226	9678.6
1528.844	9696.6
1533.457	9655.6
1538.065	9612.6
1542.669	9557.6
1547.269	9505.6
1551.864	9413.6
1556.454	9436.6
1561.041	9380.6
1565.622	9378.6
1570.199	9439.6
1574.772	9513.6
1579.34	9571.6
1583.904	9660.6
1588.464	9686.6
1593.019	9647.6
1597.569	9634.6
1602.115	9622.6
1606.657	9532.6
1611.195	9515.6
1615.728	9461.6
1620.256	9398.6
1624.78	9411.6
1629.3	9468.6
1633.816	9495.6
1638.327	9557.6
1642.834	9578.6
1647.336	9655.6
1651.834	9621.6
1656.328	9584.6
1660.817	9526.6
1665.302	9392.6
1669.783	9280.6
1674.259	9058.6
1678.732	8759.6
1683.199	8512.6
1687.663	8184.6
1692.122	7949.6
1696.577	7864.6
1701.028	7832.6
1705.474	7887.6
1709.917	7921.6
1714.355	7925.6
1718.788	7831.6
1723.218	7702.6
1727.643	7517.6
1732.064	7410.6
1736.481	7241.6
1740.893	7067.6
1745.301	6844.6
1749.705	6678.6
1754.105	6481.6
1758.501	6296.6
1762.893	6109.6
1767.28	6029.6
1771.663	5813.6
1776.042	5763.6
1780.417	5752.6
1784.787	5732.6
1789.154	5803.6
1793.516	5895.6
1797.874	5992.6
1802.228	6114.6
1806.578	6162.6
1810.924	6141.6
1815.266	6033.6
1819.603	5969.6
1823.937	5911.6
1828.266	5800.6
1832.591	5712.6
1836.913	5647.6
1841.23	5594.6
1845.543	5562.6
1849.852	5514.6
1854.156	5494.6
1858.457	5479.6
1862.754	5479.6
1867.047	5455.6
1871.335	5470.6
1875.62	5442.6
1879.9	5468.6
1884.177	5417.6
1888.449	5370.6
1892.718	5293.6
1896.982	5263.6
1901.243	5209.6
1905.499	5169.6
1909.752	5174.6
1914	5155.6
1918.245	5205.6
1922.485	5220.6
1926.722	5251.6
1930.954	5336.6
1935.183	5371.6
1939.408	5432.6
1943.628	5474.6
1947.845	5467.6
1952.058	5461.6
1956.267	5396.6
1960.472	5346.6
1964.673	5249.6
1968.87	5200.6
1973.063	5105.6
1977.252	5051.6
1981.438	4999.6
1985.619	4954.6
1989.797	4899.6
1993.971	4882.6
1998.14	4856.6
2002.306	4871.6
2006.469	4861.6
2010.627	4779.6
2014.781	4787.6
2018.932	4721.6
2023.078	4728.6
2027.221	4632.6
2031.36	4506.6
2035.495	4516.6
2039.627	4439.6
2043.754	4367.6
2047.878	4358.6
2051.998	4272.6
2056.114	4308.6
2060.226	4292.6
2064.334	4321.6
2068.439	4311.6
2072.54	4351.6
2076.637	4367.6
2080.73	4411.6
2084.82	4425.6
2088.906	4463.6
2092.988	4447.6
2097.066	4430.6
2101.14	4404.6
2105.211	4372.6
2109.278	4338.6
2113.342	4329.6
2117.401	4300.6
2121.457	4275.6
2125.509	4228.6
2129.558	4241.6
2133.602	4239.6
2137.643	4183.6
2141.681	4184.6
2145.714	4138.6
2149.744	4100.6
2153.77	4096.6
2157.793	4046.6
2161.812	3999.6
2165.827	3940.6
2169.838	3889.6
2173.846	3802.6
2177.851	3750.6
2181.851	3695.6
2185.848	3643.6
2189.841	3614.6
2193.831	3576.6
2197.817	3530.6
2201.799	3540.6
2205.778	3530.6
2209.753	3491.6
2213.725	3469.6
2217.693	3475.6
2221.657	3477.6
2225.618	3452.6
2229.575	3431.6
2233.529	3431.6
2237.479	3355.6
2241.425	3331.6
2245.368	3275.6
2249.307	3255.6
2253.243	3211.6
2257.175	3188.6
2261.104	3095.6
2265.029	3065.6
2268.95	3048.6
2272.868	3016.6
2276.783	2991.6
2280.694	2981.6
2284.601	2917.6
2288.505	2908.6
2292.405	2870.6
2296.302	2834.6
2300.195	2802.6
2304.085	2802.6
2307.971	2738.6
2311.854	2684.6
2315.734	2649.6
2319.609	2608.6
2323.482	2582.6
2327.351	2549.6
2331.216	2534.6
2335.078	2532.6
2338.937	2496.6
2342.792	2504.6
2346.643	2495.6
2350.492	2488.6
2354.336	2494.6
2358.178	2470.6
2362.015	2489.6
2365.85	2515.6
2369.681	2508.6
2373.508	2501.6
2377.333	2510.6
2381.153	2491.6
2384.971	2481.6
2388.785	2448.6
2392.595	2430.6
2396.402	2405.6
2400.206	2397.6
2404.007	2384.6
2407.804	2344.6
2411.597	2340.6
2415.388	2323.6
2419.174	2318.6
2422.958	2295.6
2426.738	2276.6
2430.515	2255.6
2434.289	2234.6
2438.059	2224.6
2441.825	2199.6
2445.589	2187.6
2449.349	2164.6
2453.106	2123.6
2456.859	2082.6
2460.61	2071.6
2464.356	2017.6
2468.1	2019.6
2471.84	1993.6
2475.577	1998.6
2479.311	1979.6
2483.041	1966.6
2486.768	1943.6
2490.492	1961.6
2494.213	1927.6
2497.93	1924.6
2501.644	1935.6
2505.355	1912.6
2509.062	1918.6
2512.766	1891.6
2516.467	1897.6
2520.165	1879.6
2523.859	1861.6
2527.551	1854.6
2531.239	1850.6
2534.923	1820.6
2538.605	1804.6
2542.283	1811.6
2545.958	1835.6
2549.63	1811.6
2553.299	1820.6
2556.964	1791.6
2560.626	1781.6
2564.285	1794.6
2567.941	1774.6
2571.594	1762.6
2575.243	1773.6
2578.89	1730.6
2582.533	1730.6
2586.173	1711.6
2589.809	1706.6
2593.443	1679.6
2597.073	1671.6
2600.701	1638.6
2604.325	1635.6
2607.946	1653.6
2611.564	1622.6
2615.178	1607.6
2618.79	1600.6
2622.398	1593.6
2626.004	1575.6
2629.606	1554.6
2633.205	1514.6
2636.801	1500.6
2640.394	1484.6
2643.983	1453.6
2647.57	1433.6
2651.153	1407.6
2654.734	1402.6
2658.311	1374.6
2661.885	1336.6
2665.456	1340.6
2669.025	1329.6
2672.589	1317.6
2676.151	1294.6
2679.71	1310.6
2683.266	1234.6
2686.819	1220.6
2690.368	1205.6
2693.915	1189.6
2697.458	1153.6
2700.999	1136.6
2704.536	1116.6
2708.071	1090.6
2711.602	1077.6
2715.13	1038.6
2718.656	1030.6
2722.178	990.6
2725.697	990.6
2729.214	979.6
2732.727	975.6
2736.237	968.6
2739.744	962.6
2743.249	972.6
2746.75	984.6
2750.248	995.6
2753.743	1004.6
2757.236	1029.6
2760.725	1024.6
2764.211	1030.6
2767.695	1027.6
2771.175	1032.6
2774.652	1000.6
2778.127	1035.6
2781.598	995.6
2785.067	1004.6
2788.532	992.6
2791.995	998.6
2795.455	994.6
2798.911	999.6
2802.365	991.6
2805.816	1009.6
2809.264	1012.6
2812.709	1010.6
2816.151	988.6
2819.59	1006.6
2823.026	1006.6
2826.46	985.6
2829.89	985.6
2833.318	1005.6
2836.742	1005.6
2840.164	1021.6
2843.583	1024.6
2846.999	1036.6
2850.412	1045.6
2853.822	1054.6
2857.229	1075.6
2860.634	1100.6
2864.035	1114.6
2867.434	1124.6
2870.83	1153.6
2874.223	1191.6
2877.613	1200.6
2881	1212.6
2884.385	1232.6
2887.766	1227.6
2891.145	1217.6
2894.521	1217.6
2897.894	1221.6
2901.264	1274.6
2904.631	1251.6
2907.996	1221.6
2911.358	1252.6
2914.717	1257.6
2918.073	1257.6
2921.426	1273.6
2924.777	1285.6
2928.124	1314.6
2931.469	1341.6
2934.811	1378.6
2938.15	1371.6
2941.487	1406.6
2944.821	1392.6
2948.152	1397.6
2951.48	1399.6
2954.805	1391.6
2958.128	1374.6
2961.447	1342.6
2964.765	1372.6
2968.079	1352.6
2971.39	1360.6
2974.699	1385.6
2978.005	1385.6
2981.308	1429.6
2984.609	1462.6
2987.907	1464.6
2991.202	1512.6
2994.494	1547.6
2997.784	1569.6
3001.07	1582.6
3004.355	1622.6
3007.636	1657.6
3010.915	1663.6
3014.191	1698.6
3017.464	1701.6
3020.734	1719.6
3024.002	1710.6
3027.267	1722.6
3030.53	1756.6
3033.789	1785.6
3037.046	1781.6
3040.301	1798.6
3043.552	1849.6
3046.801	1877.6
3050.048	1938.6
3053.291	1992.6
3056.532	2051.6
3059.771	2101.6
3063.006	2170.6
3066.239	2239.6
3069.469	2287.6
3072.697	2352.6
3075.922	2406.6
3079.144	2482.6
3082.364	2545.6
3085.581	2589.6
3088.795	2608.6
3092.007	2686.6
3095.216	2751.6
3098.423	2813.6
3101.627	2879.6
3104.828	2916.6
3108.026	3001.6
3111.222	3059.6
3114.416	3134.6
3117.607	3182.6
3120.795	3281.6
3123.98	3351.6
3127.163	3416.6
3130.344	3514.6
3133.521	3592.6
3136.696	3693.6
3139.869	3759.6
3143.039	3830.6
3146.206	3872.6
3149.371	3927.6
3152.533	3974.6
3155.693	3967.6
3158.85	4004.6
3162.005	4034.6
3165.157	4029.6
3168.306	4054.6
3171.453	4062.6
3174.597	4071.6
3177.739	4060.6
3180.878	4067.6
3184.014	4104.6
3187.149	4106.6
3190.28	4086.6
3193.409	4088.6
3196.536	4121.6
3199.659	4118.6
3202.781	4116.6
3205.9	4111.6
3209.016	4141.6
3212.13	4101.6
3215.241	4063.6
3218.35	4027.6
3221.456	3975.6
3224.56	3947.6
3227.661	3919.6
3230.76	3882.6
3233.856	3793.6
3236.95	3803.6
3240.041	3771.6
3243.13	3754.6
3246.216	3673.6
3249.3	3665.6
3252.382	3656.6
3255.46	3647.6
3258.537	3653.6
3261.611	3642.6
3264.682	3641.6
3267.751	3622.6
3270.818	3632.6
3273.882	3619.6
3276.943	3585.6
3280.002	3584.6
3283.059	3554.6
3286.113	3497.6
3289.165	3446.6
3292.214	3373.6
3295.261	3342.6
3298.306	3296.6
3301.348	3217.6
3304.387	3188.6
3307.425	3147.6
3310.459	3100.6
3313.492	3056.6
3316.521	3009.6
3319.549	2993.6
3322.574	2977.6
3325.597	2915.6
3328.617	2913.6
3331.635	2895.6
3334.65	2892.6
3337.663	2828.6
3340.674	2839.6
3343.682	2819.6
3346.688	2859.6
3349.691	2802.6
3352.692	2796.6
3355.691	2775.6
3358.687	2741.6
3361.681	2697.6
3364.673	2700.6
3367.662	2635.6
3370.649	2611.6
3373.633	2594.6
3376.615	2521.6
3379.595	2503.6
3382.572	2481.6
3385.547	2438.6
3388.52	2381.6
3391.49	2353.6
3394.458	2298.6
3397.424	2278.6
3400.387	2266.6
3403.348	2226.6
3406.307	2229.6
3409.263	2177.6
3412.217	2153.6
3415.168	2144.6
3418.118	2111.6
3421.065	2093.6
3424.009	2055.6
3426.951	2004.6
3429.891	1994.6
3432.829	1930.6
3435.764	1892.6
3438.697	1859.6
3441.628	1795.6
3444.557	1736.6
3447.483	1671.6
3450.407	1615.6
3453.328	1578.6
3456.247	1520.6
3459.164	1473.6
3462.079	1431.6
3464.991	1355.6
3467.902	1315.6
3470.809	1286.6
3473.715	1218.6
3476.618	1189.6
3479.519	1136.6
3482.418	1095.6
3485.315	1043.6
3488.209	1005.6
3491.101	988.6
3493.99	958.6
3496.878	906.6
3499.763	864.6
3502.646	843.6
3505.527	813.6
3508.405	766.6
3511.281	719.6
3514.155	693.6
3517.027	642.6
3519.897	607.6
3522.764	576.6
3525.629	508.6
3528.492	477.6
3531.352	426.6
3534.211	399.6
3537.067	354.6
3539.921	330.6
3542.773	286.6
3545.622	256.6
3548.469	215.6
3551.315	182.6
3554.157	164.6
3556.998	135.6
3559.837	122.6
3562.673	94.6
3565.507	67.6
3568.339	52.6
3571.169	24.6
3573.996	-8.4
3576.822	-19.4
3579.645	-41.4
3582.466	-53.4
3585.285	-83.4
3588.101	-91.4
3590.916	-104.4
3593.728	-134.4
3596.538	-159.4
3599.346	-181.4
3602.152	-186.4
3604.956	-202.4
3607.757	-220.4
3610.556	-231.4
3613.354	-244.4
3616.149	-260.4
3618.942	-270.4
3621.732	-281.4
3624.521	-293.4
3627.307	-301.4
3630.092	-315.4
3632.874	-328.4
3635.654	-338.4
3638.432	-356.4
3641.208	-353.4
3643.982	-365.4
3646.753	-370.4
3649.523	-385.4
3652.29	-390.4
3655.055	-395.4
3657.818	-412.4
3660.579	-428.4
3663.338	-426.4
3666.095	-435.4
3668.849	-451.4
3671.602	-448.4
3674.352	-460.4
3677.101	-468.4
3679.847	-484.4
3682.591	-481.4
3685.333	-490.4
3688.073	-496.4
3690.811	-501.4
3693.547	-504.4
3696.281	-518.4
3699.013	-521.4
3701.742	-529.4
3704.47	-527.4
3707.195	-537.4
3709.919	-532.4
3712.64	-540.4
3715.359	-544.4
3718.076	-543.4
3720.792	-551.4
3723.505	-550.4
3726.216	-554.4
3728.925	-559.4
3731.632	-566.4
3734.336	-568.4
3737.039	-578.4
3739.74	-577.4
3742.439	-571.4
3745.136	-578.4
3747.83	-583.4
3750.523	-577.4
3753.213	-586.4
3755.902	-585.4
3758.589	-588.4
3761.273	-584.4
3763.956	-597.4
3766.636	-588.4
3769.315	-595.4
3771.991	-594.4
3774.665	-595.4
3777.338	-598.4
3780.008	-598.4
3782.677	-601.4
3785.343	-602.4
3788.007	-597.4
3790.67	-607.4
3793.33	-604.4
3795.989	-608.4
3798.645	-615.4
3801.299	-613.4
3803.952	-619.4
3806.602	-616.4
3809.251	-621.4
3811.897	-612.4
3814.542	-608.4
3817.184	-618.4
3819.825	-613.4
3822.463	-610.4
3825.1	-614.4
3827.735	-621.4
3830.367	-628.4
3832.998	-622.4
3835.627	-627.4
3838.253	-627.4
3840.878	-621.4
3843.501	-626.4
3846.122	-623.4
3848.741	-627.4
3851.358	-627.4
3853.973	-633.4
3856.586	-627.4
3859.197	-633.4
3861.806	-628.4
3864.414	-625.4
3867.019	-622.4
3869.622	-629.4
3872.224	-623.4
3874.823	-613.4
3877.421	-593.4
3880.016	-579.4
3882.61	-540.4
3885.202	-542.4
3887.792	-565.4
3890.38	-592.4
3892.966	-609.4
3895.55	-621.4
3898.132	-631.4
3900.713	-634.4
3903.291	-634.4
3905.868	-641.4
3908.442	-640.4
3911.015	-638.4
3913.586	-643.4
3916.155	-642.4
3918.722	-639.4
3921.287	-641.4
3923.85	-636.4
3926.411	-639.4
3928.971	-638.4
3931.528	-642.4
3934.084	-634.4
3936.638	-641.4
3939.19	-651.4
3941.74	-646.4
3944.288	-647.4
3946.834	-647.4
3949.378	-644.4
3951.921	-648.4
3954.462	-649.4
3957	-643.4
3959.537	-636.4
3962.072	-634.4
3964.606	-636.4
3967.137	-640.4
3969.667	-640.4
3972.194	-634.4
3974.72	-637.4
3977.244	-635.4
3979.766	-629.4
3982.286	-632.4
3984.805	-623.4
3987.321	-630.4
3989.836	-627.4
3992.349	-629.4
3994.86	-624.4
3997.369	-637.4
3999.877	-627.4
4002.382	-630.4
4004.886	-636.4
4007.388	-635.4
4009.888	-628.4
4012.386	-632.4
4014.883	-625.4
4017.377	-630.4
4019.87	-628.4
4022.361	-632.4
4024.85	-633.4
4027.338	-632.4
4029.823	-627.4
4032.307	-629.4
4034.789	-640.4
4037.269	-639.4
4039.747	-638.4
4042.224	-629.4
4044.699	-627.4
4047.172	-637.4
4049.643	-635.4
4052.112	-637.4
4054.58	-628.4
4057.046	-634.4
4059.51	-635.4
4061.972	-634.4
4064.432	-631.4
4066.891	-631.4
4069.348	-636.4
4071.803	-638.4
4074.256	-633.4
4076.708	-632.4
4079.158	-632.4
4081.606	-629.4
4084.052	-631.4
4086.497	-635.4
4088.939	-625.4
4091.38	-626.4
4093.819	-628.4
4096.257	-661.4
4098.693	-662.4
4101.127	-667.4
4103.559	-667.4
4105.989	-389.4
4108.418	-367.4
4110.845	-356.4
4113.27	-326.4
4115.694	-280.4
4118.115	-249.4
4120.535	-631.4
4122.954	-635.4
4125.37	-634.4
4127.785	-634.4
4130.198	-638.4
4132.609	-629.4
4135.019	-672.4
4137.427	-668.4
4139.833	-667.4
4142.237	-663.4
