Data from 2018-2-7_conc=5_RamanShift_22.txt Node
Date: Tue Feb 13 14:12:43 IST 2018
User: aro
Spectrometer: QEPB0276
Trigger mode: 0
Integration Time (sec): 3.000000E1
Scans to average: 1
Electric dark correction enabled: true
Nonlinearity correction enabled: false
Boxcar width: 0
XAxis mode: Raman Shifts
Number of Pixels in Spectrum: 1044
>>>>>Begin Spectral Data<<<<<
160.701	-161.4
166.742	28.6
172.777	569.6
178.805	2166.6
184.826	5929.6
190.841	12221.6
196.849	19431.6
202.85	24320.6
208.845	25918.6
214.833	25683.6
220.815	25243.6
226.789	25030.6
232.758	24989.6
238.719	24859.6
244.674	24512.6
250.623	24110.6
256.565	23597.6
262.5	23227.6
268.429	22769.6
274.351	22447.6
280.267	22166.6
286.176	21969.6
292.079	21796.6
297.975	21548.6
303.865	21409.6
309.748	21245.6
315.625	21097.6
321.495	21010.6
327.359	20927.6
333.217	20932.6
339.068	20924.6
344.912	20903.6
350.751	20823.6
356.583	20820.6
362.408	20820.6
368.227	20811.6
374.04	20863.6
379.847	20866.6
385.647	21030.6
391.44	21039.6
397.228	21106.6
403.009	21199.6
408.784	21302.6
414.553	21388.6
420.315	21379.6
426.071	21387.6
431.821	21409.6
437.565	21376.6
443.302	21333.6
449.033	21283.6
454.758	21273.6
460.477	21178.6
466.189	21178.6
471.896	21136.6
477.596	21066.6
483.29	21086.6
488.978	21024.6
494.66	20901.6
500.335	20812.6
506.005	20581.6
511.668	20354.6
517.325	20152.6
522.977	20033.6
528.622	19902.6
534.261	19767.6
539.894	19654.6
545.521	19501.6
551.141	19541.6
556.756	19422.6
562.365	19334.6
567.968	19343.6
573.565	19270.6
579.155	19223.6
584.74	19109.6
590.319	19105.6
595.892	18981.6
601.459	18914.6
607.02	18840.6
612.575	18725.6
618.124	18565.6
623.667	18459.6
629.204	18417.6
634.735	18317.6
640.261	18246.6
645.781	18256.6
651.294	18231.6
656.802	18147.6
662.304	18103.6
667.8	18107.6
673.29	18048.6
678.775	17993.6
684.254	17943.6
689.726	17897.6
695.193	17852.6
700.655	17793.6
706.11	17703.6
711.56	17655.6
717.004	17492.6
722.442	17447.6
727.874	17434.6
733.301	17310.6
738.722	17271.6
744.137	17255.6
749.547	17197.6
754.951	17232.6
760.349	17266.6
765.741	17277.6
771.128	17292.6
776.509	17318.6
781.885	17375.6
787.254	17270.6
792.618	17145.6
797.977	16998.6
803.33	16910.6
808.677	16829.6
814.019	16750.6
819.355	16687.6
824.686	16579.6
830.011	16509.6
835.33	16544.6
840.644	16570.6
845.952	16591.6
851.255	16667.6
856.552	16654.6
861.844	16654.6
867.13	16662.6
872.41	16505.6
877.686	16416.6
882.955	16334.6
888.219	16160.6
893.478	16005.6
898.731	15796.6
903.979	15657.6
909.221	15522.6
914.458	15503.6
919.69	15503.6
924.916	15563.6
930.136	15605.6
935.351	15635.6
940.561	15643.6
945.766	15586.6
950.965	15461.6
956.158	15372.6
961.347	15274.6
966.529	15085.6
971.707	14853.6
976.879	14751.6
982.046	14551.6
987.208	14568.6
992.364	14539.6
997.515	14628.6
1002.66	14786.6
1007.801	14887.6
1012.936	15007.6
1018.066	15043.6
1023.19	15035.6
1028.309	15073.6
1033.423	15014.6
1038.532	14925.6
1043.636	14795.6
1048.734	14601.6
1053.827	14403.6
1058.915	14284.6
1063.998	14180.6
1069.075	14105.6
1074.147	14112.6
1079.214	14233.6
1084.276	14311.6
1089.333	14367.6
1094.385	14436.6
1099.431	14475.6
1104.472	14483.6
1109.509	14312.6
1114.54	14245.6
1119.565	13984.6
1124.586	13823.6
1129.602	13737.6
1134.613	13667.6
1139.618	13570.6
1144.619	13509.6
1149.614	13539.6
1154.604	13574.6
1159.589	13619.6
1164.57	13642.6
1169.545	13622.6
1174.515	13628.6
1179.48	13545.6
1184.44	13481.6
1189.395	13394.6
1194.345	13295.6
1199.29	13239.6
1204.23	13227.6
1209.165	13340.6
1214.095	13353.6
1219.021	13360.6
1223.941	13454.6
1228.856	13505.6
1233.766	13594.6
1238.672	13620.6
1243.572	13653.6
1248.467	13494.6
1253.358	13359.6
1258.244	13113.6
1263.124	12957.6
1268	12762.6
1272.871	12639.6
1277.737	12510.6
1282.599	12474.6
1287.455	12468.6
1292.306	12457.6
1297.153	12534.6
1301.995	12586.6
1306.832	12609.6
1311.664	12623.6
1316.491	12537.6
1321.314	12436.6
1326.132	12265.6
1330.945	11977.6
1335.753	11691.6
1340.556	11382.6
1345.354	11141.6
1350.148	10967.6
1354.937	10904.6
1359.722	10864.6
1364.501	10986.6
1369.276	11070.6
1374.046	11216.6
1378.811	11417.6
1383.572	11569.6
1388.327	11550.6
1393.079	11476.6
1397.825	11402.6
1402.567	11162.6
1407.304	11039.6
1412.036	10966.6
1416.764	10851.6
1421.487	10787.6
1426.205	10707.6
1430.919	10721.6
1435.628	10730.6
1440.333	10735.6
1445.032	10721.6
1449.727	10762.6
1454.418	10706.6
1459.104	10593.6
1463.785	10421.6
1468.462	10195.6
1473.134	9941.6
1477.802	9762.6
1482.465	9596.6
1487.123	9422.6
1491.777	9462.6
1496.426	9484.6
1501.071	9648.6
1505.711	9785.6
1510.347	9922.6
1514.978	10093.6
1519.604	10282.6
1524.226	10382.6
1528.844	10381.6
1533.457	10325.6
1538.065	10301.6
1542.669	10242.6
1547.269	10199.6
1551.864	10117.6
1556.454	10051.6
1561.041	10082.6
1565.622	10037.6
1570.199	10038.6
1574.772	10134.6
1579.34	10200.6
1583.904	10251.6
1588.464	10247.6
1593.019	10269.6
1597.569	10227.6
1602.115	10115.6
1606.657	10091.6
1611.195	10013.6
1615.728	9910.6
1620.256	9859.6
1624.78	9843.6
1629.3	9893.6
1633.816	9893.6
1638.327	9946.6
1642.834	9970.6
1647.336	10020.6
1651.834	10017.6
1656.328	10002.6
1660.817	9945.6
1665.302	9845.6
1669.783	9669.6
1674.259	9467.6
1678.732	9155.6
1683.199	8830.6
1687.663	8516.6
1692.122	8305.6
1696.577	8150.6
1701.028	8177.6
1705.474	8275.6
1709.917	8377.6
1714.355	8425.6
1718.788	8339.6
1723.218	8257.6
1727.643	8099.6
1732.064	7923.6
1736.481	7768.6
1740.893	7602.6
1745.301	7352.6
1749.705	7137.6
1754.105	6979.6
1758.501	6788.6
1762.893	6588.6
1767.28	6399.6
1771.663	6292.6
1776.042	6163.6
1780.417	6104.6
1784.787	6085.6
1789.154	6183.6
1793.516	6287.6
1797.874	6376.6
1802.228	6507.6
1806.578	6555.6
1810.924	6613.6
1815.266	6541.6
1819.603	6453.6
1823.937	6361.6
1828.266	6228.6
1832.591	6130.6
1836.913	6042.6
1841.23	5980.6
1845.543	5968.6
1849.852	5911.6
1854.156	5904.6
1858.457	5923.6
1862.754	5905.6
1867.047	5880.6
1871.335	5862.6
1875.62	5874.6
1879.9	5863.6
1884.177	5783.6
1888.449	5743.6
1892.718	5666.6
1896.982	5623.6
1901.243	5564.6
1905.499	5499.6
1909.752	5497.6
1914	5484.6
1918.245	5515.6
1922.485	5532.6
1926.722	5578.6
1930.954	5648.6
1935.183	5711.6
1939.408	5786.6
1943.628	5810.6
1947.845	5844.6
1952.058	5832.6
1956.267	5770.6
1960.472	5708.6
1964.673	5626.6
1968.87	5526.6
1973.063	5430.6
1977.252	5396.6
1981.438	5348.6
1985.619	5288.6
1989.797	5241.6
1993.971	5207.6
1998.14	5189.6
2002.306	5156.6
2006.469	5124.6
2010.627	5098.6
2014.781	5089.6
2018.932	5032.6
2023.078	4985.6
2027.221	4949.6
2031.36	4849.6
2035.495	4729.6
2039.627	4688.6
2043.754	4653.6
2047.878	4559.6
2051.998	4524.6
2056.114	4514.6
2060.226	4527.6
2064.334	4534.6
2068.439	4567.6
2072.54	4539.6
2076.637	4563.6
2080.73	4611.6
2084.82	4647.6
2088.906	4647.6
2092.988	4662.6
2097.066	4658.6
2101.14	4660.6
2105.211	4586.6
2109.278	4577.6
2113.342	4521.6
2117.401	4528.6
2121.457	4494.6
2125.509	4489.6
2129.558	4466.6
2133.602	4420.6
2137.643	4404.6
2141.681	4389.6
2145.714	4325.6
2149.744	4325.6
2153.77	4278.6
2157.793	4269.6
2161.812	4195.6
2165.827	4117.6
2169.838	4104.6
2173.846	4022.6
2177.851	3957.6
2181.851	3876.6
2185.848	3826.6
2189.841	3812.6
2193.831	3777.6
2197.817	3736.6
2201.799	3718.6
2205.778	3733.6
2209.753	3701.6
2213.725	3679.6
2217.693	3648.6
2221.657	3651.6
2225.618	3646.6
2229.575	3622.6
2233.529	3615.6
2237.479	3576.6
2241.425	3541.6
2245.368	3492.6
2249.307	3436.6
2253.243	3406.6
2257.175	3349.6
2261.104	3298.6
2265.029	3285.6
2268.95	3250.6
2272.868	3202.6
2276.783	3161.6
2280.694	3105.6
2284.601	3122.6
2288.505	3093.6
2292.405	3033.6
2296.302	3028.6
2300.195	2997.6
2304.085	2950.6
2307.971	2911.6
2311.854	2853.6
2315.734	2837.6
2319.609	2790.6
2323.482	2758.6
2327.351	2740.6
2331.216	2703.6
2335.078	2710.6
2338.937	2693.6
2342.792	2664.6
2346.643	2655.6
2350.492	2679.6
2354.336	2671.6
2358.178	2665.6
2362.015	2684.6
2365.85	2679.6
2369.681	2700.6
2373.508	2693.6
2377.333	2707.6
2381.153	2686.6
2384.971	2679.6
2388.785	2662.6
2392.595	2628.6
2396.402	2615.6
2400.206	2585.6
2404.007	2552.6
2407.804	2557.6
2411.597	2519.6
2415.388	2514.6
2419.174	2506.6
2422.958	2482.6
2426.738	2475.6
2430.515	2430.6
2434.289	2436.6
2438.059	2417.6
2441.825	2404.6
2445.589	2350.6
2449.349	2344.6
2453.106	2286.6
2456.859	2267.6
2460.61	2241.6
2464.356	2229.6
2468.1	2183.6
2471.84	2177.6
2475.577	2154.6
2479.311	2147.6
2483.041	2111.6
2486.768	2118.6
2490.492	2102.6
2494.213	2108.6
2497.93	2083.6
2501.644	2083.6
2505.355	2090.6
2509.062	2068.6
2512.766	2057.6
2516.467	2026.6
2520.165	2027.6
2523.859	1998.6
2527.551	2001.6
2531.239	1990.6
2534.923	1948.6
2538.605	1949.6
2542.283	1968.6
2545.958	1931.6
2549.63	1974.6
2553.299	1941.6
2556.964	1948.6
2560.626	1944.6
2564.285	1935.6
2567.941	1903.6
2571.594	1916.6
2575.243	1893.6
2578.89	1888.6
2582.533	1872.6
2586.173	1872.6
2589.809	1843.6
2593.443	1829.6
2597.073	1810.6
2600.701	1805.6
2604.325	1772.6
2607.946	1776.6
2611.564	1776.6
2615.178	1759.6
2618.79	1725.6
2622.398	1701.6
2626.004	1700.6
2629.606	1669.6
2633.205	1645.6
2636.801	1626.6
2640.394	1594.6
2643.983	1595.6
2647.57	1572.6
2651.153	1534.6
2654.734	1544.6
2658.311	1497.6
2661.885	1469.6
2665.456	1449.6
2669.025	1427.6
2672.589	1430.6
2676.151	1423.6
2679.71	1399.6
2683.266	1373.6
2686.819	1346.6
2690.368	1311.6
2693.915	1293.6
2697.458	1249.6
2700.999	1221.6
2704.536	1204.6
2708.071	1173.6
2711.602	1133.6
2715.13	1125.6
2718.656	1103.6
2722.178	1073.6
2725.697	1050.6
2729.214	1028.6
2732.727	1038.6
2736.237	1028.6
2739.744	1036.6
2743.249	1049.6
2746.75	1032.6
2750.248	1027.6
2753.743	1053.6
2757.236	1076.6
2760.725	1060.6
2764.211	1077.6
2767.695	1075.6
2771.175	1090.6
2774.652	1073.6
2778.127	1067.6
2781.598	1062.6
2785.067	1049.6
2788.532	1062.6
2791.995	1036.6
2795.455	1036.6
2798.911	1054.6
2802.365	1053.6
2805.816	1038.6
2809.264	1051.6
2812.709	1043.6
2816.151	1031.6
2819.59	1036.6
2823.026	1038.6
2826.46	1041.6
2829.89	1030.6
2833.318	1046.6
2836.742	1064.6
2840.164	1073.6
2843.583	1060.6
2846.999	1074.6
2850.412	1076.6
2853.822	1107.6
2857.229	1098.6
2860.634	1135.6
2864.035	1125.6
2867.434	1149.6
2870.83	1166.6
2874.223	1200.6
2877.613	1212.6
2881	1218.6
2884.385	1227.6
2887.766	1230.6
2891.145	1225.6
2894.521	1221.6
2897.894	1193.6
2901.264	1203.6
2904.631	1211.6
2907.996	1220.6
2911.358	1232.6
2914.717	1227.6
2918.073	1228.6
2921.426	1241.6
2924.777	1258.6
2928.124	1281.6
2931.469	1296.6
2934.811	1323.6
2938.15	1340.6
2941.487	1340.6
2944.821	1349.6
2948.152	1331.6
2951.48	1319.6
2954.805	1311.6
2958.128	1300.6
2961.447	1281.6
2964.765	1298.6
2968.079	1307.6
2971.39	1269.6
2974.699	1317.6
2978.005	1324.6
2981.308	1334.6
2984.609	1353.6
2987.907	1397.6
2991.202	1426.6
2994.494	1435.6
2997.784	1469.6
3001.07	1494.6
3004.355	1510.6
3007.636	1533.6
3010.915	1547.6
3014.191	1549.6
3017.464	1577.6
3020.734	1572.6
3024.002	1606.6
3027.267	1602.6
3030.53	1609.6
3033.789	1631.6
3037.046	1659.6
3040.301	1671.6
3043.552	1705.6
3046.801	1730.6
3050.048	1774.6
3053.291	1842.6
3056.532	1850.6
3059.771	1909.6
3063.006	1985.6
3066.239	2037.6
3069.469	2092.6
3072.697	2144.6
3075.922	2183.6
3079.144	2240.6
3082.364	2298.6
3085.581	2339.6
3088.795	2384.6
3092.007	2408.6
3095.216	2498.6
3098.423	2511.6
3101.627	2595.6
3104.828	2667.6
3108.026	2704.6
3111.222	2755.6
3114.416	2839.6
3117.607	2902.6
3120.795	2954.6
3123.98	3025.6
3127.163	3123.6
3130.344	3191.6
3133.521	3216.6
3136.696	3311.6
3139.869	3397.6
3143.039	3438.6
3146.206	3498.6
3149.371	3535.6
3152.533	3551.6
3155.693	3595.6
3158.85	3601.6
3162.005	3620.6
3165.157	3655.6
3168.306	3628.6
3171.453	3652.6
3174.597	3638.6
3177.739	3666.6
3180.878	3649.6
3184.014	3676.6
3187.149	3672.6
3190.28	3680.6
3193.409	3694.6
3196.536	3689.6
3199.659	3685.6
3202.781	3696.6
3205.9	3706.6
3209.016	3696.6
3212.13	3687.6
3215.241	3655.6
3218.35	3596.6
3221.456	3551.6
3224.56	3523.6
3227.661	3453.6
3230.76	3463.6
3233.856	3410.6
3236.95	3375.6
3240.041	3358.6
3243.13	3332.6
3246.216	3288.6
3249.3	3282.6
3252.382	3271.6
3255.46	3234.6
3258.537	3269.6
3261.611	3231.6
3264.682	3282.6
3267.751	3223.6
3270.818	3241.6
3273.882	3217.6
3276.943	3196.6
3280.002	3163.6
3283.059	3145.6
3286.113	3122.6
3289.165	3070.6
3292.214	3025.6
3295.261	2990.6
3298.306	2919.6
3301.348	2890.6
3304.387	2839.6
3307.425	2810.6
3310.459	2748.6
3313.492	2699.6
3316.521	2670.6
3319.549	2661.6
3322.574	2624.6
3325.597	2612.6
3328.617	2597.6
3331.635	2571.6
3334.65	2566.6
3337.663	2549.6
3340.674	2523.6
3343.682	2511.6
3346.688	2524.6
3349.691	2493.6
3352.692	2473.6
3355.691	2465.6
3358.687	2416.6
3361.681	2395.6
3364.673	2379.6
3367.662	2341.6
3370.649	2301.6
3373.633	2280.6
3376.615	2262.6
3379.595	2208.6
3382.572	2167.6
3385.547	2147.6
3388.52	2113.6
3391.49	2079.6
3394.458	2021.6
3397.424	2014.6
3400.387	1984.6
3403.348	1952.6
3406.307	1943.6
3409.263	1927.6
3412.217	1888.6
3415.168	1879.6
3418.118	1850.6
3421.065	1823.6
3424.009	1792.6
3426.951	1757.6
3429.891	1737.6
3432.829	1692.6
3435.764	1641.6
3438.697	1647.6
3441.628	1569.6
3444.557	1513.6
3447.483	1476.6
3450.407	1425.6
3453.328	1380.6
3456.247	1311.6
3459.164	1272.6
3462.079	1226.6
3464.991	1181.6
3467.902	1127.6
3470.809	1099.6
3473.715	1058.6
3476.618	1022.6
3479.519	971.6
3482.418	938.6
3485.315	913.6
3488.209	859.6
3491.101	845.6
3493.99	815.6
3496.878	775.6
3499.763	753.6
3502.646	714.6
3505.527	676.6
3508.405	660.6
3511.281	595.6
3514.155	565.6
3517.027	527.6
3519.897	482.6
3522.764	450.6
3525.629	414.6
3528.492	368.6
3531.352	345.6
3534.211	296.6
3537.067	267.6
3539.921	241.6
3542.773	201.6
3545.622	175.6
3548.469	147.6
3551.315	113.6
3554.157	94.6
3556.998	72.6
3559.837	57.6
3562.673	34.6
3565.507	16.6
3568.339	-9.4
3571.169	-22.4
3573.996	-42.4
3576.822	-65.4
3579.645	-81.4
3582.466	-102.4
3585.285	-120.4
3588.101	-133.4
3590.916	-152.4
3593.728	-174.4
3596.538	-184.4
3599.346	-206.4
3602.152	-222.4
3604.956	-237.4
3607.757	-245.4
3610.556	-258.4
3613.354	-280.4
3616.149	-289.4
3618.942	-292.4
3621.732	-303.4
3624.521	-316.4
3627.307	-324.4
3630.092	-338.4
3632.874	-346.4
3635.654	-351.4
3638.432	-358.4
3641.208	-367.4
3643.982	-382.4
3646.753	-389.4
3649.523	-390.4
3652.29	-407.4
3655.055	-406.4
3657.818	-419.4
3660.579	-422.4
3663.338	-433.4
3666.095	-442.4
3668.849	-463.4
3671.602	-461.4
3674.352	-464.4
3677.101	-476.4
3679.847	-487.4
3682.591	-478.4
3685.333	-494.4
3688.073	-492.4
3690.811	-497.4
3693.547	-503.4
3696.281	-509.4
3699.013	-512.4
3701.742	-524.4
3704.47	-523.4
3707.195	-531.4
3709.919	-528.4
3712.64	-533.4
3715.359	-531.4
3718.076	-532.4
3720.792	-546.4
3723.505	-550.4
3726.216	-547.4
3728.925	-549.4
3731.632	-555.4
3734.336	-561.4
3737.039	-562.4
3739.74	-562.4
3742.439	-564.4
3745.136	-570.4
3747.83	-572.4
3750.523	-570.4
3753.213	-580.4
3755.902	-576.4
3758.589	-575.4
3761.273	-575.4
3763.956	-580.4
3766.636	-586.4
3769.315	-577.4
3771.991	-585.4
3774.665	-590.4
3777.338	-582.4
3780.008	-582.4
3782.677	-589.4
3785.343	-593.4
3788.007	-588.4
3790.67	-594.4
3793.33	-595.4
3795.989	-598.4
3798.645	-601.4
3801.299	-602.4
3803.952	-609.4
3806.602	-606.4
3809.251	-605.4
3811.897	-598.4
3814.542	-599.4
3817.184	-605.4
3819.825	-600.4
3822.463	-605.4
3825.1	-613.4
3827.735	-610.4
3830.367	-606.4
3832.998	-612.4
3835.627	-613.4
3838.253	-613.4
3840.878	-612.4
3843.501	-610.4
3846.122	-608.4
3848.741	-605.4
3851.358	-616.4
3853.973	-610.4
3856.586	-613.4
3859.197	-614.4
3861.806	-617.4
3864.414	-609.4
3867.019	-607.4
3869.622	-615.4
3872.224	-613.4
3874.823	-599.4
3877.421	-580.4
3880.016	-569.4
3882.61	-532.4
3885.202	-535.4
3887.792	-562.4
3890.38	-588.4
3892.966	-605.4
3895.55	-610.4
3898.132	-616.4
3900.713	-626.4
3903.291	-625.4
3905.868	-625.4
3908.442	-628.4
3911.015	-624.4
3913.586	-625.4
3916.155	-619.4
3918.722	-625.4
3921.287	-626.4
3923.85	-626.4
3926.411	-628.4
3928.971	-624.4
3931.528	-628.4
3934.084	-622.4
3936.638	-630.4
3939.19	-634.4
3941.74	-636.4
3944.288	-633.4
3946.834	-633.4
3949.378	-632.4
3951.921	-631.4
3954.462	-635.4
3957	-625.4
3959.537	-620.4
3962.072	-628.4
3964.606	-621.4
3967.137	-628.4
3969.667	-628.4
3972.194	-622.4
3974.72	-621.4
3977.244	-616.4
3979.766	-614.4
3982.286	-615.4
3984.805	-611.4
3987.321	-612.4
3989.836	-618.4
3992.349	-619.4
3994.86	-611.4
3997.369	-624.4
3999.877	-615.4
4002.382	-614.4
4004.886	-622.4
4007.388	-617.4
4009.888	-615.4
4012.386	-621.4
4014.883	-612.4
4017.377	-616.4
4019.87	-619.4
4022.361	-620.4
4024.85	-622.4
4027.338	-621.4
4029.823	-615.4
4032.307	-619.4
4034.789	-622.4
4037.269	-623.4
4039.747	-620.4
4042.224	-612.4
4044.699	-619.4
4047.172	-620.4
4049.643	-616.4
4052.112	-619.4
4054.58	-614.4
4057.046	-620.4
4059.51	-618.4
4061.972	-620.4
4064.432	-614.4
4066.891	-615.4
4069.348	-621.4
4071.803	-623.4
4074.256	-617.4
4076.708	-618.4
4079.158	-619.4
4081.606	-614.4
4084.052	-619.4
4086.497	-621.4
4088.939	-612.4
4091.38	-613.4
4093.819	-611.4
4096.257	-653.4
4098.693	-651.4
4101.127	-648.4
4103.559	-656.4
4105.989	-392.4
4108.418	-379.4
4110.845	-348.4
4113.27	-329.4
4115.694	-290.4
4118.115	-243.4
4120.535	-615.4
4122.954	-620.4
4125.37	-616.4
4127.785	-616.4
4130.198	-619.4
4132.609	-615.4
4135.019	-652.4
4137.427	-654.4
4139.833	-646.4
4142.237	-650.4
