Data from 2018-2-7_conc=4_RamanShift_22.txt Node
Date: Tue Feb 13 13:44:43 IST 2018
User: aro
Spectrometer: QEPB0276
Trigger mode: 0
Integration Time (sec): 3.000000E1
Scans to average: 1
Electric dark correction enabled: true
Nonlinearity correction enabled: false
Boxcar width: 0
XAxis mode: Raman Shifts
Number of Pixels in Spectrum: 1044
>>>>>Begin Spectral Data<<<<<
160.701	-154.8
166.742	26.2
172.777	590.2
178.805	2225.2
184.826	6115.2
190.841	12575.2
196.849	19957.2
202.85	24968.2
208.845	26479.2
214.833	26207.2
220.815	25708.2
226.789	25555.2
232.758	25398.2
238.719	25239.2
244.674	24873.2
250.623	24464.2
256.565	23970.2
262.5	23375.2
268.429	22959.2
274.351	22598.2
280.267	22296.2
286.176	22051.2
292.079	21809.2
297.975	21662.2
303.865	21434.2
309.748	21297.2
315.625	21176.2
321.495	21033.2
327.359	20916.2
333.217	20896.2
339.068	20932.2
344.912	20896.2
350.751	20751.2
356.583	20782.2
362.408	20784.2
368.227	20792.2
374.04	20816.2
379.847	20883.2
385.647	20963.2
391.44	21047.2
397.228	21078.2
403.009	21141.2
408.784	21198.2
414.553	21343.2
420.315	21416.2
426.071	21408.2
431.821	21367.2
437.565	21364.2
443.302	21341.2
449.033	21334.2
454.758	21203.2
460.477	21164.2
466.189	21112.2
471.896	21074.2
477.596	21019.2
483.29	21027.2
488.978	21007.2
494.66	20963.2
500.335	20800.2
506.005	20556.2
511.668	20268.2
517.325	20095.2
522.977	19931.2
528.622	19757.2
534.261	19658.2
539.894	19603.2
545.521	19507.2
551.141	19499.2
556.756	19420.2
562.365	19326.2
567.968	19273.2
573.565	19155.2
579.155	19090.2
584.74	19060.2
590.319	18944.2
595.892	18883.2
601.459	18789.2
607.02	18680.2
612.575	18640.2
618.124	18475.2
623.667	18386.2
629.204	18338.2
634.735	18215.2
640.261	18165.2
645.781	18025.2
651.294	18063.2
656.802	18030.2
662.304	17957.2
667.8	17904.2
673.29	17960.2
678.775	17876.2
684.254	17843.2
689.726	17759.2
695.193	17707.2
700.655	17623.2
706.11	17553.2
711.56	17458.2
717.004	17352.2
722.442	17286.2
727.874	17216.2
733.301	17147.2
738.722	17108.2
744.137	17131.2
749.547	17087.2
754.951	17045.2
760.349	17080.2
765.741	17096.2
771.128	17062.2
776.509	17114.2
781.885	17080.2
787.254	17089.2
792.618	17025.2
797.977	16874.2
803.33	16779.2
808.677	16674.2
814.019	16578.2
819.355	16466.2
824.686	16435.2
830.011	16425.2
835.33	16429.2
840.644	16412.2
845.952	16502.2
851.255	16469.2
856.552	16526.2
861.844	16447.2
867.13	16487.2
872.41	16364.2
877.686	16322.2
882.955	16119.2
888.219	16009.2
893.478	15869.2
898.731	15597.2
903.979	15477.2
909.221	15387.2
914.458	15327.2
919.69	15347.2
924.916	15377.2
930.136	15432.2
935.351	15406.2
940.561	15399.2
945.766	15398.2
950.965	15371.2
956.158	15252.2
961.347	15041.2
966.529	14847.2
971.707	14665.2
976.879	14485.2
982.046	14408.2
987.208	14350.2
992.364	14323.2
997.515	14431.2
1002.66	14579.2
1007.801	14681.2
1012.936	14818.2
1018.066	14838.2
1023.19	14817.2
1028.309	14859.2
1033.423	14774.2
1038.532	14711.2
1043.636	14527.2
1048.734	14437.2
1053.827	14217.2
1058.915	14037.2
1063.998	13966.2
1069.075	13950.2
1074.147	13922.2
1079.214	13950.2
1084.276	14059.2
1089.333	14188.2
1094.385	14306.2
1099.431	14275.2
1104.472	14270.2
1109.509	14199.2
1114.54	14008.2
1119.565	13838.2
1124.586	13678.2
1129.602	13528.2
1134.613	13449.2
1139.618	13330.2
1144.619	13359.2
1149.614	13316.2
1154.604	13348.2
1159.589	13355.2
1164.57	13428.2
1169.545	13399.2
1174.515	13460.2
1179.48	13352.2
1184.44	13328.2
1189.395	13183.2
1194.345	13086.2
1199.29	13004.2
1204.23	13074.2
1209.165	13066.2
1214.095	13135.2
1219.021	13183.2
1223.941	13306.2
1228.856	13357.2
1233.766	13369.2
1238.672	13402.2
1243.572	13369.2
1248.467	13261.2
1253.358	13147.2
1258.244	12948.2
1263.124	12721.2
1268	12537.2
1272.871	12443.2
1277.737	12321.2
1282.599	12267.2
1287.455	12246.2
1292.306	12265.2
1297.153	12322.2
1301.995	12410.2
1306.832	12427.2
1311.664	12401.2
1316.491	12397.2
1321.314	12240.2
1326.132	12018.2
1330.945	11738.2
1335.753	11466.2
1340.556	11239.2
1345.354	10956.2
1350.148	10776.2
1354.937	10701.2
1359.722	10732.2
1364.501	10800.2
1369.276	10883.2
1374.046	11028.2
1378.811	11185.2
1383.572	11341.2
1388.327	11331.2
1393.079	11299.2
1397.825	11127.2
1402.567	10970.2
1407.304	10856.2
1412.036	10730.2
1416.764	10691.2
1421.487	10635.2
1426.205	10522.2
1430.919	10486.2
1435.628	10559.2
1440.333	10545.2
1445.032	10551.2
1449.727	10583.2
1454.418	10511.2
1459.104	10391.2
1463.785	10193.2
1468.462	9999.2
1473.134	9769.2
1477.802	9607.2
1482.465	9402.2
1487.123	9312.2
1491.777	9260.2
1496.426	9296.2
1501.071	9447.2
1505.711	9551.2
1510.347	9744.2
1514.978	9899.2
1519.604	10044.2
1524.226	10127.2
1528.844	10169.2
1533.457	10125.2
1538.065	10083.2
1542.669	10092.2
1547.269	9899.2
1551.864	9876.2
1556.454	9848.2
1561.041	9861.2
1565.622	9857.2
1570.199	9878.2
1574.772	9947.2
1579.34	10026.2
1583.904	10061.2
1588.464	10129.2
1593.019	10082.2
1597.569	10058.2
1602.115	10000.2
1606.657	9964.2
1611.195	9902.2
1615.728	9845.2
1620.256	9764.2
1624.78	9733.2
1629.3	9798.2
1633.816	9783.2
1638.327	9873.2
1642.834	9862.2
1647.336	9934.2
1651.834	9931.2
1656.328	9928.2
1660.817	9854.2
1665.302	9733.2
1669.783	9537.2
1674.259	9316.2
1678.732	9061.2
1683.199	8744.2
1687.663	8409.2
1692.122	8178.2
1696.577	8015.2
1701.028	8008.2
1705.474	8088.2
1709.917	8152.2
1714.355	8192.2
1718.788	8152.2
1723.218	8031.2
1727.643	7868.2
1732.064	7735.2
1736.481	7570.2
1740.893	7404.2
1745.301	7228.2
1749.705	6981.2
1754.105	6786.2
1758.501	6555.2
1762.893	6374.2
1767.28	6234.2
1771.663	6077.2
1776.042	5998.2
1780.417	5924.2
1784.787	5890.2
1789.154	5972.2
1793.516	6056.2
1797.874	6164.2
1802.228	6291.2
1806.578	6366.2
1810.924	6408.2
1815.266	6348.2
1819.603	6248.2
1823.937	6117.2
1828.266	6013.2
1832.591	5946.2
1836.913	5905.2
1841.23	5857.2
1845.543	5794.2
1849.852	5760.2
1854.156	5727.2
1858.457	5734.2
1862.754	5720.2
1867.047	5710.2
1871.335	5710.2
1875.62	5677.2
1879.9	5702.2
1884.177	5608.2
1888.449	5561.2
1892.718	5498.2
1896.982	5436.2
1901.243	5343.2
1905.499	5346.2
1909.752	5278.2
1914	5301.2
1918.245	5322.2
1922.485	5334.2
1926.722	5389.2
1930.954	5463.2
1935.183	5545.2
1939.408	5578.2
1943.628	5642.2
1947.845	5621.2
1952.058	5636.2
1956.267	5566.2
1960.472	5540.2
1964.673	5411.2
1968.87	5346.2
1973.063	5270.2
1977.252	5217.2
1981.438	5143.2
1985.619	5107.2
1989.797	5056.2
1993.971	5064.2
1998.14	5014.2
2002.306	5008.2
2006.469	4994.2
2010.627	4942.2
2014.781	4937.2
2018.932	4878.2
2023.078	4850.2
2027.221	4780.2
2031.36	4678.2
2035.495	4610.2
2039.627	4555.2
2043.754	4500.2
2047.878	4449.2
2051.998	4411.2
2056.114	4368.2
2060.226	4383.2
2064.334	4353.2
2068.439	4389.2
2072.54	4403.2
2076.637	4435.2
2080.73	4468.2
2084.82	4472.2
2088.906	4513.2
2092.988	4491.2
2097.066	4504.2
2101.14	4470.2
2105.211	4460.2
2109.278	4422.2
2113.342	4369.2
2117.401	4368.2
2121.457	4356.2
2125.509	4327.2
2129.558	4306.2
2133.602	4281.2
2137.643	4278.2
2141.681	4250.2
2145.714	4247.2
2149.744	4212.2
2153.77	4185.2
2157.793	4137.2
2161.812	4087.2
2165.827	4014.2
2169.838	3962.2
2173.846	3927.2
2177.851	3821.2
2181.851	3800.2
2185.848	3725.2
2189.841	3709.2
2193.831	3679.2
2197.817	3627.2
2201.799	3621.2
2205.778	3590.2
2209.753	3586.2
2213.725	3573.2
2217.693	3580.2
2221.657	3545.2
2225.618	3533.2
2229.575	3525.2
2233.529	3480.2
2237.479	3451.2
2241.425	3400.2
2245.368	3370.2
2249.307	3311.2
2253.243	3258.2
2257.175	3258.2
2261.104	3183.2
2265.029	3174.2
2268.95	3101.2
2272.868	3083.2
2276.783	3059.2
2280.694	3002.2
2284.601	2998.2
2288.505	2926.2
2292.405	2936.2
2296.302	2911.2
2300.195	2874.2
2304.085	2839.2
2307.971	2808.2
2311.854	2776.2
2315.734	2729.2
2319.609	2697.2
2323.482	2648.2
2327.351	2629.2
2331.216	2605.2
2335.078	2598.2
2338.937	2614.2
2342.792	2578.2
2346.643	2572.2
2350.492	2567.2
2354.336	2573.2
2358.178	2583.2
2362.015	2585.2
2365.85	2574.2
2369.681	2594.2
2373.508	2612.2
2377.333	2594.2
2381.153	2602.2
2384.971	2574.2
2388.785	2558.2
2392.595	2532.2
2396.402	2501.2
2400.206	2495.2
2404.007	2448.2
2407.804	2448.2
2411.597	2441.2
2415.388	2430.2
2419.174	2434.2
2422.958	2374.2
2426.738	2369.2
2430.515	2365.2
2434.289	2322.2
2438.059	2332.2
2441.825	2304.2
2445.589	2272.2
2449.349	2262.2
2453.106	2219.2
2456.859	2184.2
2460.61	2166.2
2464.356	2136.2
2468.1	2123.2
2471.84	2101.2
2475.577	2080.2
2479.311	2059.2
2483.041	2038.2
2486.768	2026.2
2490.492	2044.2
2494.213	2030.2
2497.93	2014.2
2501.644	1995.2
2505.355	2001.2
2509.062	1975.2
2512.766	1979.2
2516.467	1944.2
2520.165	1934.2
2523.859	1942.2
2527.551	1923.2
2531.239	1895.2
2534.923	1898.2
2538.605	1881.2
2542.283	1868.2
2545.958	1871.2
2549.63	1875.2
2553.299	1855.2
2556.964	1852.2
2560.626	1840.2
2564.285	1834.2
2567.941	1821.2
2571.594	1798.2
2575.243	1812.2
2578.89	1806.2
2582.533	1790.2
2586.173	1774.2
2589.809	1771.2
2593.443	1726.2
2597.073	1727.2
2600.701	1717.2
2604.325	1695.2
2607.946	1696.2
2611.564	1700.2
2615.178	1665.2
2618.79	1668.2
2622.398	1661.2
2626.004	1634.2
2629.606	1610.2
2633.205	1581.2
2636.801	1562.2
2640.394	1544.2
2643.983	1522.2
2647.57	1482.2
2651.153	1448.2
2654.734	1441.2
2658.311	1429.2
2661.885	1387.2
2665.456	1385.2
2669.025	1384.2
2672.589	1355.2
2676.151	1340.2
2679.71	1325.2
2683.266	1282.2
2686.819	1284.2
2690.368	1253.2
2693.915	1224.2
2697.458	1201.2
2700.999	1177.2
2704.536	1137.2
2708.071	1115.2
2711.602	1079.2
2715.13	1069.2
2718.656	1042.2
2722.178	1008.2
2725.697	990.2
2729.214	976.2
2732.727	995.2
2736.237	964.2
2739.744	976.2
2743.249	987.2
2746.75	969.2
2750.248	1006.2
2753.743	1013.2
2757.236	1015.2
2760.725	1031.2
2764.211	1041.2
2767.695	1022.2
2771.175	1032.2
2774.652	1018.2
2778.127	1023.2
2781.598	999.2
2785.067	991.2
2788.532	1016.2
2791.995	1008.2
2795.455	1001.2
2798.911	1011.2
2802.365	1020.2
2805.816	1001.2
2809.264	1001.2
2812.709	1011.2
2816.151	989.2
2819.59	1010.2
2823.026	988.2
2826.46	999.2
2829.89	999.2
2833.318	1009.2
2836.742	1022.2
2840.164	1045.2
2843.583	1036.2
2846.999	1037.2
2850.412	1044.2
2853.822	1068.2
2857.229	1071.2
2860.634	1080.2
2864.035	1113.2
2867.434	1124.2
2870.83	1157.2
2874.223	1175.2
2877.613	1202.2
2881	1212.2
2884.385	1225.2
2887.766	1197.2
2891.145	1198.2
2894.521	1209.2
2897.894	1199.2
2901.264	1201.2
2904.631	1189.2
2907.996	1192.2
2911.358	1209.2
2914.717	1215.2
2918.073	1230.2
2921.426	1255.2
2924.777	1240.2
2928.124	1285.2
2931.469	1305.2
2934.811	1334.2
2938.15	1332.2
2941.487	1353.2
2944.821	1367.2
2948.152	1355.2
2951.48	1337.2
2954.805	1332.2
2958.128	1308.2
2961.447	1315.2
2964.765	1299.2
2968.079	1297.2
2971.39	1311.2
2974.699	1321.2
2978.005	1358.2
2981.308	1352.2
2984.609	1404.2
2987.907	1399.2
2991.202	1440.2
2994.494	1469.2
2997.784	1489.2
3001.07	1512.2
3004.355	1542.2
3007.636	1553.2
3010.915	1598.2
3014.191	1612.2
3017.464	1618.2
3020.734	1628.2
3024.002	1623.2
3027.267	1636.2
3030.53	1668.2
3033.789	1669.2
3037.046	1708.2
3040.301	1716.2
3043.552	1773.2
3046.801	1793.2
3050.048	1848.2
3053.291	1912.2
3056.532	1944.2
3059.771	1993.2
3063.006	2054.2
3066.239	2119.2
3069.469	2183.2
3072.697	2233.2
3075.922	2307.2
3079.144	2352.2
3082.364	2397.2
3085.581	2426.2
3088.795	2485.2
3092.007	2566.2
3095.216	2604.2
3098.423	2650.2
3101.627	2696.2
3104.828	2760.2
3108.026	2857.2
3111.222	2915.2
3114.416	2963.2
3117.607	3042.2
3120.795	3122.2
3123.98	3185.2
3127.163	3264.2
3130.344	3330.2
3133.521	3424.2
3136.696	3506.2
3139.869	3567.2
3143.039	3612.2
3146.206	3664.2
3149.371	3735.2
3152.533	3745.2
3155.693	3797.2
3158.85	3798.2
3162.005	3808.2
3165.157	3838.2
3168.306	3841.2
3171.453	3857.2
3174.597	3856.2
3177.739	3831.2
3180.878	3839.2
3184.014	3874.2
3187.149	3869.2
3190.28	3880.2
3193.409	3886.2
3196.536	3874.2
3199.659	3882.2
3202.781	3915.2
3205.9	3902.2
3209.016	3893.2
3212.13	3851.2
3215.241	3810.2
3218.35	3803.2
3221.456	3767.2
3224.56	3727.2
3227.661	3653.2
3230.76	3639.2
3233.856	3592.2
3236.95	3574.2
3240.041	3526.2
3243.13	3507.2
3246.216	3466.2
3249.3	3462.2
3252.382	3430.2
3255.46	3402.2
3258.537	3432.2
3261.611	3432.2
3264.682	3430.2
3267.751	3409.2
3270.818	3390.2
3273.882	3395.2
3276.943	3362.2
3280.002	3352.2
3283.059	3320.2
3286.113	3277.2
3289.165	3257.2
3292.214	3186.2
3295.261	3148.2
3298.306	3072.2
3301.348	3051.2
3304.387	2991.2
3307.425	2963.2
3310.459	2917.2
3313.492	2850.2
3316.521	2818.2
3319.549	2802.2
3322.574	2775.2
3325.597	2749.2
3328.617	2725.2
3331.635	2726.2
3334.65	2691.2
3337.663	2683.2
3340.674	2678.2
3343.682	2679.2
3346.688	2644.2
3349.691	2627.2
3352.692	2615.2
3355.691	2594.2
3358.687	2574.2
3361.681	2544.2
3364.673	2504.2
3367.662	2476.2
3370.649	2446.2
3373.633	2409.2
3376.615	2395.2
3379.595	2335.2
3382.572	2316.2
3385.547	2269.2
3388.52	2242.2
3391.49	2186.2
3394.458	2180.2
3397.424	2136.2
3400.387	2119.2
3403.348	2092.2
3406.307	2058.2
3409.263	2044.2
3412.217	2005.2
3415.168	2006.2
3418.118	1968.2
3421.065	1949.2
3424.009	1912.2
3426.951	1872.2
3429.891	1814.2
3432.829	1798.2
3435.764	1756.2
3438.697	1714.2
3441.628	1663.2
3444.557	1617.2
3447.483	1572.2
3450.407	1514.2
3453.328	1449.2
3456.247	1407.2
3459.164	1361.2
3462.079	1325.2
3464.991	1244.2
3467.902	1210.2
3470.809	1176.2
3473.715	1113.2
3476.618	1078.2
3479.519	1048.2
3482.418	1011.2
3485.315	960.2
3488.209	931.2
3491.101	884.2
3493.99	858.2
3496.878	816.2
3499.763	783.2
3502.646	762.2
3505.527	718.2
3508.405	668.2
3511.281	649.2
3514.155	615.2
3517.027	564.2
3519.897	535.2
3522.764	490.2
3525.629	448.2
3528.492	426.2
3531.352	386.2
3534.211	341.2
3537.067	300.2
3539.921	259.2
3542.773	236.2
3545.622	195.2
3548.469	165.2
3551.315	143.2
3554.157	115.2
3556.998	99.2
3559.837	65.2
3562.673	40.2
3565.507	27.2
3568.339	9.2
3571.169	-20.8
3573.996	-31.8
3576.822	-61.8
3579.645	-72.8
3582.466	-95.8
3585.285	-107.8
3588.101	-126.8
3590.916	-150.8
3593.728	-172.8
3596.538	-184.8
3599.346	-193.8
3602.152	-220.8
3604.956	-232.8
3607.757	-247.8
3610.556	-254.8
3613.354	-270.8
3616.149	-291.8
3618.942	-292.8
3621.732	-308.8
3624.521	-311.8
3627.307	-325.8
3630.092	-337.8
3632.874	-342.8
3635.654	-365.8
3638.432	-366.8
3641.208	-372.8
3643.982	-377.8
3646.753	-394.8
3649.523	-394.8
3652.29	-412.8
3655.055	-420.8
3657.818	-422.8
3660.579	-435.8
3663.338	-441.8
3666.095	-456.8
3668.849	-464.8
3671.602	-469.8
3674.352	-478.8
3677.101	-479.8
3679.847	-495.8
3682.591	-488.8
3685.333	-503.8
3688.073	-500.8
3690.811	-508.8
3693.547	-517.8
3696.281	-522.8
3699.013	-520.8
3701.742	-533.8
3704.47	-540.8
3707.195	-551.8
3709.919	-548.8
3712.64	-540.8
3715.359	-552.8
3718.076	-554.8
3720.792	-565.8
3723.505	-560.8
3726.216	-569.8
3728.925	-569.8
3731.632	-571.8
3734.336	-575.8
3737.039	-579.8
3739.74	-573.8
3742.439	-570.8
3745.136	-583.8
3747.83	-583.8
3750.523	-586.8
3753.213	-591.8
3755.902	-595.8
3758.589	-586.8
3761.273	-592.8
3763.956	-597.8
3766.636	-600.8
3769.315	-600.8
3771.991	-604.8
3774.665	-600.8
3777.338	-605.8
3780.008	-605.8
3782.677	-609.8
3785.343	-613.8
3788.007	-610.8
3790.67	-604.8
3793.33	-614.8
3795.989	-612.8
3798.645	-617.8
3801.299	-619.8
3803.952	-621.8
3806.602	-617.8
3809.251	-624.8
3811.897	-617.8
3814.542	-614.8
3817.184	-623.8
3819.825	-615.8
3822.463	-622.8
3825.1	-621.8
3827.735	-627.8
3830.367	-625.8
3832.998	-629.8
3835.627	-630.8
3838.253	-630.8
3840.878	-633.8
3843.501	-627.8
3846.122	-629.8
3848.741	-634.8
3851.358	-637.8
3853.973	-633.8
3856.586	-636.8
3859.197	-635.8
3861.806	-630.8
3864.414	-629.8
3867.019	-629.8
3869.622	-632.8
3872.224	-625.8
3874.823	-616.8
3877.421	-597.8
3880.016	-580.8
3882.61	-545.8
3885.202	-541.8
3887.792	-571.8
3890.38	-595.8
3892.966	-619.8
3895.55	-627.8
3898.132	-634.8
3900.713	-643.8
3903.291	-649.8
3905.868	-645.8
3908.442	-642.8
3911.015	-645.8
3913.586	-641.8
3916.155	-642.8
3918.722	-643.8
3921.287	-648.8
3923.85	-647.8
3926.411	-650.8
3928.971	-646.8
3931.528	-648.8
3934.084	-643.8
3936.638	-650.8
3939.19	-650.8
3941.74	-650.8
3944.288	-648.8
3946.834	-645.8
3949.378	-647.8
3951.921	-646.8
3954.462	-647.8
3957	-647.8
3959.537	-636.8
3962.072	-644.8
3964.606	-637.8
3967.137	-649.8
3969.667	-640.8
3972.194	-638.8
3974.72	-637.8
3977.244	-639.8
3979.766	-635.8
3982.286	-632.8
3984.805	-629.8
3987.321	-628.8
3989.836	-635.8
3992.349	-636.8
3994.86	-632.8
3997.369	-646.8
3999.877	-630.8
4002.382	-630.8
4004.886	-638.8
4007.388	-633.8
4009.888	-634.8
4012.386	-635.8
4014.883	-635.8
4017.377	-633.8
4019.87	-630.8
4022.361	-630.8
4024.85	-635.8
4027.338	-630.8
4029.823	-633.8
4032.307	-634.8
4034.789	-637.8
4037.269	-641.8
4039.747	-639.8
4042.224	-629.8
4044.699	-634.8
4047.172	-636.8
4049.643	-637.8
4052.112	-634.8
4054.58	-631.8
4057.046	-642.8
4059.51	-639.8
4061.972	-640.8
4064.432	-637.8
4066.891	-637.8
4069.348	-644.8
4071.803	-639.8
4074.256	-640.8
4076.708	-637.8
4079.158	-630.8
4081.606	-624.8
4084.052	-632.8
4086.497	-639.8
4088.939	-628.8
4091.38	-626.8
4093.819	-629.8
4096.257	-668.8
4098.693	-671.8
4101.127	-670.8
4103.559	-673.8
4105.989	-403.8
4108.418	-377.8
4110.845	-358.8
4113.27	-337.8
4115.694	-282.8
4118.115	-239.8
4120.535	-635.8
4122.954	-643.8
4125.37	-629.8
4127.785	-639.8
4130.198	-641.8
4132.609	-638.8
4135.019	-673.8
4137.427	-673.8
4139.833	-670.8
4142.237	-668.8
