Data from 2018-2-7_conc=6_RamanShift_23.txt Node
Date: Tue Feb 13 14:42:13 IST 2018
User: aro
Spectrometer: QEPB0276
Trigger mode: 0
Integration Time (sec): 3.000000E1
Scans to average: 1
Electric dark correction enabled: true
Nonlinearity correction enabled: false
Boxcar width: 0
XAxis mode: Raman Shifts
Number of Pixels in Spectrum: 1044
>>>>>Begin Spectral Data<<<<<
160.701	-161.6
166.742	31.4
172.777	556.4
178.805	2143.4
184.826	5876.4
190.841	12145.4
196.849	19225.4
202.85	24100.4
208.845	25619.4
214.833	25302.4
220.815	24836.4
226.789	24516.4
232.758	24511.4
238.719	24377.4
244.674	23919.4
250.623	23464.4
256.565	23036.4
262.5	22485.4
268.429	22068.4
274.351	21699.4
280.267	21374.4
286.176	21151.4
292.079	20972.4
297.975	20749.4
303.865	20542.4
309.748	20433.4
315.625	20316.4
321.495	20128.4
327.359	20061.4
333.217	20078.4
339.068	20033.4
344.912	19997.4
350.751	19946.4
356.583	19970.4
362.408	19916.4
368.227	19930.4
374.04	19946.4
379.847	20005.4
385.647	20036.4
391.44	20128.4
397.228	20207.4
403.009	20328.4
408.784	20415.4
414.553	20411.4
420.315	20446.4
426.071	20511.4
431.821	20451.4
437.565	20466.4
443.302	20437.4
449.033	20366.4
454.758	20339.4
460.477	20274.4
466.189	20213.4
471.896	20161.4
477.596	20157.4
483.29	20084.4
488.978	20079.4
494.66	20024.4
500.335	19889.4
506.005	19657.4
511.668	19415.4
517.325	19230.4
522.977	19068.4
528.622	18932.4
534.261	18771.4
539.894	18724.4
545.521	18648.4
551.141	18600.4
556.756	18452.4
562.365	18409.4
567.968	18320.4
573.565	18251.4
579.155	18200.4
584.74	18119.4
590.319	18036.4
595.892	18036.4
601.459	17917.4
607.02	17841.4
612.575	17735.4
618.124	17656.4
623.667	17571.4
629.204	17443.4
634.735	17420.4
640.261	17309.4
645.781	17256.4
651.294	17247.4
656.802	17174.4
662.304	17171.4
667.8	17117.4
673.29	17126.4
678.775	17079.4
684.254	16987.4
689.726	17011.4
695.193	16916.4
700.655	16828.4
706.11	16765.4
711.56	16692.4
717.004	16587.4
722.442	16451.4
727.874	16468.4
733.301	16388.4
738.722	16367.4
744.137	16322.4
749.547	16367.4
754.951	16322.4
760.349	16291.4
765.741	16264.4
771.128	16322.4
776.509	16329.4
781.885	16340.4
787.254	16291.4
792.618	16240.4
797.977	16057.4
803.33	15957.4
808.677	15930.4
814.019	15848.4
819.355	15715.4
824.686	15687.4
830.011	15630.4
835.33	15618.4
840.644	15679.4
845.952	15682.4
851.255	15750.4
856.552	15709.4
861.844	15716.4
867.13	15701.4
872.41	15597.4
877.686	15510.4
882.955	15380.4
888.219	15268.4
893.478	15073.4
898.731	14931.4
903.979	14804.4
909.221	14646.4
914.458	14594.4
919.69	14616.4
924.916	14612.4
930.136	14708.4
935.351	14697.4
940.561	14687.4
945.766	14637.4
950.965	14598.4
956.158	14527.4
961.347	14343.4
966.529	14124.4
971.707	14042.4
976.879	13891.4
982.046	13741.4
987.208	13695.4
992.364	13624.4
997.515	13762.4
1002.66	13872.4
1007.801	14044.4
1012.936	14188.4
1018.066	14173.4
1023.19	14137.4
1028.309	14132.4
1033.423	14081.4
1038.532	14018.4
1043.636	13912.4
1048.734	13719.4
1053.827	13544.4
1058.915	13436.4
1063.998	13294.4
1069.075	13326.4
1074.147	13336.4
1079.214	13357.4
1084.276	13478.4
1089.333	13512.4
1094.385	13582.4
1099.431	13623.4
1104.472	13588.4
1109.509	13544.4
1114.54	13403.4
1119.565	13222.4
1124.586	13126.4
1129.602	12910.4
1134.613	12824.4
1139.618	12768.4
1144.619	12761.4
1149.614	12744.4
1154.604	12797.4
1159.589	12807.4
1164.57	12818.4
1169.545	12849.4
1174.515	12854.4
1179.48	12748.4
1184.44	12665.4
1189.395	12572.4
1194.345	12512.4
1199.29	12405.4
1204.23	12431.4
1209.165	12492.4
1214.095	12567.4
1219.021	12585.4
1223.941	12692.4
1228.856	12789.4
1233.766	12773.4
1238.672	12793.4
1243.572	12785.4
1248.467	12735.4
1253.358	12556.4
1258.244	12380.4
1263.124	12206.4
1268	11985.4
1272.871	11892.4
1277.737	11807.4
1282.599	11722.4
1287.455	11758.4
1292.306	11735.4
1297.153	11776.4
1301.995	11817.4
1306.832	11874.4
1311.664	11826.4
1316.491	11852.4
1321.314	11661.4
1326.132	11591.4
1330.945	11313.4
1335.753	11022.4
1340.556	10745.4
1345.354	10502.4
1350.148	10353.4
1354.937	10276.4
1359.722	10266.4
1364.501	10307.4
1369.276	10396.4
1374.046	10596.4
1378.811	10702.4
1383.572	10838.4
1388.327	10788.4
1393.079	10821.4
1397.825	10684.4
1402.567	10532.4
1407.304	10408.4
1412.036	10283.4
1416.764	10229.4
1421.487	10194.4
1426.205	10128.4
1430.919	10086.4
1435.628	10062.4
1440.333	10076.4
1445.032	10128.4
1449.727	10130.4
1454.418	10144.4
1459.104	9995.4
1463.785	9778.4
1468.462	9593.4
1473.134	9443.4
1477.802	9200.4
1482.465	9049.4
1487.123	8909.4
1491.777	8935.4
1496.426	8964.4
1501.071	9028.4
1505.711	9199.4
1510.347	9360.4
1514.978	9496.4
1519.604	9619.4
1524.226	9738.4
1528.844	9776.4
1533.457	9756.4
1538.065	9693.4
1542.669	9612.4
1547.269	9568.4
1551.864	9475.4
1556.454	9460.4
1561.041	9514.4
1565.622	9496.4
1570.199	9518.4
1574.772	9544.4
1579.34	9629.4
1583.904	9698.4
1588.464	9724.4
1593.019	9697.4
1597.569	9660.4
1602.115	9640.4
1606.657	9559.4
1611.195	9500.4
1615.728	9432.4
1620.256	9412.4
1624.78	9383.4
1629.3	9461.4
1633.816	9494.4
1638.327	9477.4
1642.834	9543.4
1647.336	9616.4
1651.834	9602.4
1656.328	9565.4
1660.817	9521.4
1665.302	9360.4
1669.783	9247.4
1674.259	9043.4
1678.732	8735.4
1683.199	8465.4
1687.663	8163.4
1692.122	7893.4
1696.577	7762.4
1701.028	7707.4
1705.474	7788.4
1709.917	7866.4
1714.355	7923.4
1718.788	7833.4
1723.218	7694.4
1727.643	7592.4
1732.064	7464.4
1736.481	7311.4
1740.893	7101.4
1745.301	6881.4
1749.705	6762.4
1754.105	6537.4
1758.501	6384.4
1762.893	6166.4
1767.28	5961.4
1771.663	5840.4
1776.042	5745.4
1780.417	5696.4
1784.787	5685.4
1789.154	5736.4
1793.516	5832.4
1797.874	5951.4
1802.228	6062.4
1806.578	6098.4
1810.924	6106.4
1815.266	6094.4
1819.603	5975.4
1823.937	5908.4
1828.266	5791.4
1832.591	5745.4
1836.913	5655.4
1841.23	5603.4
1845.543	5567.4
1849.852	5519.4
1854.156	5550.4
1858.457	5499.4
1862.754	5520.4
1867.047	5474.4
1871.335	5481.4
1875.62	5493.4
1879.9	5452.4
1884.177	5391.4
1888.449	5343.4
1892.718	5270.4
1896.982	5266.4
1901.243	5173.4
1905.499	5140.4
1909.752	5130.4
1914	5101.4
1918.245	5110.4
1922.485	5141.4
1926.722	5195.4
1930.954	5255.4
1935.183	5341.4
1939.408	5388.4
1943.628	5423.4
1947.845	5431.4
1952.058	5413.4
1956.267	5380.4
1960.472	5344.4
1964.673	5237.4
1968.87	5165.4
1973.063	5070.4
1977.252	5002.4
1981.438	4945.4
1985.619	4915.4
1989.797	4896.4
1993.971	4846.4
1998.14	4834.4
2002.306	4825.4
2006.469	4809.4
2010.627	4769.4
2014.781	4733.4
2018.932	4705.4
2023.078	4678.4
2027.221	4586.4
2031.36	4509.4
2035.495	4468.4
2039.627	4404.4
2043.754	4342.4
2047.878	4286.4
2051.998	4256.4
2056.114	4228.4
2060.226	4251.4
2064.334	4252.4
2068.439	4262.4
2072.54	4243.4
2076.637	4269.4
2080.73	4320.4
2084.82	4353.4
2088.906	4345.4
2092.988	4365.4
2097.066	4362.4
2101.14	4329.4
2105.211	4278.4
2109.278	4282.4
2113.342	4255.4
2117.401	4214.4
2121.457	4215.4
2125.509	4181.4
2129.558	4158.4
2133.602	4142.4
2137.643	4114.4
2141.681	4113.4
2145.714	4096.4
2149.744	4088.4
2153.77	4006.4
2157.793	3963.4
2161.812	3944.4
2165.827	3866.4
2169.838	3806.4
2173.846	3784.4
2177.851	3684.4
2181.851	3636.4
2185.848	3601.4
2189.841	3564.4
2193.831	3533.4
2197.817	3505.4
2201.799	3516.4
2205.778	3496.4
2209.753	3458.4
2213.725	3454.4
2217.693	3435.4
2221.657	3414.4
2225.618	3416.4
2229.575	3413.4
2233.529	3369.4
2237.479	3362.4
2241.425	3296.4
2245.368	3267.4
2249.307	3225.4
2253.243	3159.4
2257.175	3131.4
2261.104	3058.4
2265.029	3051.4
2268.95	3007.4
2272.868	2959.4
2276.783	2952.4
2280.694	2926.4
2284.601	2886.4
2288.505	2873.4
2292.405	2841.4
2296.302	2810.4
2300.195	2784.4
2304.085	2745.4
2307.971	2703.4
2311.854	2687.4
2315.734	2645.4
2319.609	2607.4
2323.482	2545.4
2327.351	2533.4
2331.216	2531.4
2335.078	2522.4
2338.937	2503.4
2342.792	2513.4
2346.643	2489.4
2350.492	2512.4
2354.336	2502.4
2358.178	2481.4
2362.015	2518.4
2365.85	2509.4
2369.681	2523.4
2373.508	2520.4
2377.333	2537.4
2381.153	2518.4
2384.971	2484.4
2388.785	2480.4
2392.595	2469.4
2396.402	2423.4
2400.206	2414.4
2404.007	2402.4
2407.804	2414.4
2411.597	2350.4
2415.388	2350.4
2419.174	2327.4
2422.958	2330.4
2426.738	2291.4
2430.515	2274.4
2434.289	2255.4
2438.059	2246.4
2441.825	2216.4
2445.589	2208.4
2449.349	2195.4
2453.106	2150.4
2456.859	2137.4
2460.61	2093.4
2464.356	2072.4
2468.1	2049.4
2471.84	2025.4
2475.577	2008.4
2479.311	2021.4
2483.041	1992.4
2486.768	1986.4
2490.492	1992.4
2494.213	1971.4
2497.93	1952.4
2501.644	1948.4
2505.355	1947.4
2509.062	1926.4
2512.766	1916.4
2516.467	1900.4
2520.165	1900.4
2523.859	1886.4
2527.551	1836.4
2531.239	1847.4
2534.923	1824.4
2538.605	1806.4
2542.283	1830.4
2545.958	1804.4
2549.63	1791.4
2553.299	1808.4
2556.964	1784.4
2560.626	1796.4
2564.285	1770.4
2567.941	1776.4
2571.594	1781.4
2575.243	1772.4
2578.89	1745.4
2582.533	1715.4
2586.173	1725.4
2589.809	1712.4
2593.443	1682.4
2597.073	1673.4
2600.701	1676.4
2604.325	1651.4
2607.946	1640.4
2611.564	1637.4
2615.178	1630.4
2618.79	1599.4
2622.398	1605.4
2626.004	1577.4
2629.606	1545.4
2633.205	1526.4
2636.801	1514.4
2640.394	1488.4
2643.983	1496.4
2647.57	1460.4
2651.153	1429.4
2654.734	1405.4
2658.311	1386.4
2661.885	1375.4
2665.456	1324.4
2669.025	1333.4
2672.589	1327.4
2676.151	1315.4
2679.71	1303.4
2683.266	1241.4
2686.819	1249.4
2690.368	1231.4
2693.915	1203.4
2697.458	1170.4
2700.999	1142.4
2704.536	1121.4
2708.071	1082.4
2711.602	1064.4
2715.13	1048.4
2718.656	1010.4
2722.178	986.4
2725.697	990.4
2729.214	956.4
2732.727	955.4
2736.237	946.4
2739.744	954.4
2743.249	937.4
2746.75	966.4
2750.248	968.4
2753.743	983.4
2757.236	990.4
2760.725	986.4
2764.211	1003.4
2767.695	1008.4
2771.175	997.4
2774.652	989.4
2778.127	996.4
2781.598	989.4
2785.067	986.4
2788.532	988.4
2791.995	975.4
2795.455	982.4
2798.911	989.4
2802.365	987.4
2805.816	966.4
2809.264	983.4
2812.709	972.4
2816.151	976.4
2819.59	980.4
2823.026	987.4
2826.46	974.4
2829.89	972.4
2833.318	984.4
2836.742	989.4
2840.164	1010.4
2843.583	1003.4
2846.999	1027.4
2850.412	1031.4
2853.822	1041.4
2857.229	1057.4
2860.634	1082.4
2864.035	1103.4
2867.434	1106.4
2870.83	1124.4
2874.223	1159.4
2877.613	1181.4
2881	1197.4
2884.385	1196.4
2887.766	1184.4
2891.145	1186.4
2894.521	1176.4
2897.894	1181.4
2901.264	1180.4
2904.631	1173.4
2907.996	1170.4
2911.358	1194.4
2914.717	1202.4
2918.073	1202.4
2921.426	1244.4
2924.777	1234.4
2928.124	1257.4
2931.469	1284.4
2934.811	1310.4
2938.15	1329.4
2941.487	1319.4
2944.821	1332.4
2948.152	1319.4
2951.48	1336.4
2954.805	1305.4
2958.128	1292.4
2961.447	1302.4
2964.765	1261.4
2968.079	1307.4
2971.39	1281.4
2974.699	1317.4
2978.005	1327.4
2981.308	1350.4
2984.609	1368.4
2987.907	1388.4
2991.202	1417.4
2994.494	1436.4
2997.784	1466.4
3001.07	1515.4
3004.355	1523.4
3007.636	1559.4
3010.915	1581.4
3014.191	1572.4
3017.464	1596.4
3020.734	1589.4
3024.002	1600.4
3027.267	1628.4
3030.53	1644.4
3033.789	1650.4
3037.046	1671.4
3040.301	1703.4
3043.552	1729.4
3046.801	1785.4
3050.048	1839.4
3053.291	1853.4
3056.532	1934.4
3059.771	1957.4
3063.006	2024.4
3066.239	2093.4
3069.469	2160.4
3072.697	2206.4
3075.922	2257.4
3079.144	2315.4
3082.364	2357.4
3085.581	2433.4
3088.795	2434.4
3092.007	2528.4
3095.216	2589.4
3098.423	2620.4
3101.627	2695.4
3104.828	2744.4
3108.026	2817.4
3111.222	2880.4
3114.416	2939.4
3117.607	2998.4
3120.795	3056.4
3123.98	3162.4
3127.163	3224.4
3130.344	3330.4
3133.521	3388.4
3136.696	3448.4
3139.869	3516.4
3143.039	3564.4
3146.206	3633.4
3149.371	3663.4
3152.533	3726.4
3155.693	3730.4
3158.85	3746.4
3162.005	3790.4
3165.157	3769.4
3168.306	3808.4
3171.453	3815.4
3174.597	3810.4
3177.739	3820.4
3180.878	3807.4
3184.014	3838.4
3187.149	3838.4
3190.28	3833.4
3193.409	3851.4
3196.536	3847.4
3199.659	3860.4
3202.781	3866.4
3205.9	3851.4
3209.016	3887.4
3212.13	3834.4
3215.241	3777.4
3218.35	3776.4
3221.456	3729.4
3224.56	3701.4
3227.661	3624.4
3230.76	3611.4
3233.856	3583.4
3236.95	3546.4
3240.041	3509.4
3243.13	3452.4
3246.216	3458.4
3249.3	3443.4
3252.382	3401.4
3255.46	3386.4
3258.537	3380.4
3261.611	3390.4
3264.682	3384.4
3267.751	3401.4
3270.818	3394.4
3273.882	3362.4
3276.943	3358.4
3280.002	3324.4
3283.059	3303.4
3286.113	3258.4
3289.165	3221.4
3292.214	3166.4
3295.261	3116.4
3298.306	3080.4
3301.348	3002.4
3304.387	2954.4
3307.425	2925.4
3310.459	2894.4
3313.492	2853.4
3316.521	2813.4
3319.549	2793.4
3322.574	2741.4
3325.597	2715.4
3328.617	2706.4
3331.635	2674.4
3334.65	2667.4
3337.663	2657.4
3340.674	2666.4
3343.682	2638.4
3346.688	2624.4
3349.691	2609.4
3352.692	2626.4
3355.691	2594.4
3358.687	2581.4
3361.681	2523.4
3364.673	2493.4
3367.662	2445.4
3370.649	2443.4
3373.633	2391.4
3376.615	2360.4
3379.595	2347.4
3382.572	2286.4
3385.547	2260.4
3388.52	2249.4
3391.49	2193.4
3394.458	2138.4
3397.424	2106.4
3400.387	2102.4
3403.348	2053.4
3406.307	2037.4
3409.263	2029.4
3412.217	1989.4
3415.168	1994.4
3418.118	1971.4
3421.065	1907.4
3424.009	1895.4
3426.951	1872.4
3429.891	1840.4
3432.829	1797.4
3435.764	1754.4
3438.697	1723.4
3441.628	1658.4
3444.557	1608.4
3447.483	1572.4
3450.407	1493.4
3453.328	1456.4
3456.247	1411.4
3459.164	1363.4
3462.079	1297.4
3464.991	1254.4
3467.902	1209.4
3470.809	1158.4
3473.715	1127.4
3476.618	1080.4
3479.519	1050.4
3482.418	1025.4
3485.315	987.4
3488.209	933.4
3491.101	902.4
3493.99	877.4
3496.878	834.4
3499.763	807.4
3502.646	757.4
3505.527	756.4
3508.405	701.4
3511.281	663.4
3514.155	623.4
3517.027	580.4
3519.897	544.4
3522.764	521.4
3525.629	471.4
3528.492	420.4
3531.352	375.4
3534.211	351.4
3537.067	320.4
3539.921	286.4
3542.773	252.4
3545.622	209.4
3548.469	190.4
3551.315	158.4
3554.157	145.4
3556.998	109.4
3559.837	96.4
3562.673	68.4
3565.507	44.4
3568.339	17.4
3571.169	10.4
3573.996	-9.6
3576.822	-37.6
3579.645	-45.6
3582.466	-72.6
3585.285	-92.6
3588.101	-94.6
3590.916	-123.6
3593.728	-147.6
3596.538	-158.6
3599.346	-175.6
3602.152	-186.6
3604.956	-209.6
3607.757	-228.6
3610.556	-236.6
3613.354	-255.6
3616.149	-262.6
3618.942	-273.6
3621.732	-291.6
3624.521	-296.6
3627.307	-305.6
3630.092	-318.6
3632.874	-327.6
3635.654	-339.6
3638.432	-326.6
3641.208	-342.6
3643.982	-349.6
3646.753	-360.6
3649.523	-366.6
3652.29	-388.6
3655.055	-380.6
3657.818	-396.6
3660.579	-404.6
3663.338	-410.6
3666.095	-432.6
3668.849	-435.6
3671.602	-441.6
3674.352	-445.6
3677.101	-459.6
3679.847	-473.6
3682.591	-467.6
3685.333	-481.6
3688.073	-477.6
3690.811	-485.6
3693.547	-489.6
3696.281	-498.6
3699.013	-498.6
3701.742	-508.6
3704.47	-506.6
3707.195	-522.6
3709.919	-518.6
3712.64	-524.6
3715.359	-520.6
3718.076	-525.6
3720.792	-534.6
3723.505	-529.6
3726.216	-537.6
3728.925	-543.6
3731.632	-552.6
3734.336	-552.6
3737.039	-549.6
3739.74	-552.6
3742.439	-555.6
3745.136	-558.6
3747.83	-562.6
3750.523	-561.6
3753.213	-572.6
3755.902	-568.6
3758.589	-569.6
3761.273	-564.6
3763.956	-574.6
3766.636	-570.6
3769.315	-571.6
3771.991	-576.6
3774.665	-569.6
3777.338	-580.6
3780.008	-575.6
3782.677	-578.6
3785.343	-582.6
3788.007	-575.6
3790.67	-584.6
3793.33	-585.6
3795.989	-585.6
3798.645	-588.6
3801.299	-595.6
3803.952	-596.6
3806.602	-596.6
3809.251	-598.6
3811.897	-588.6
3814.542	-592.6
3817.184	-596.6
3819.825	-596.6
3822.463	-594.6
3825.1	-601.6
3827.735	-601.6
3830.367	-602.6
3832.998	-602.6
3835.627	-601.6
3838.253	-601.6
3840.878	-602.6
3843.501	-603.6
3846.122	-600.6
3848.741	-597.6
3851.358	-609.6
3853.973	-599.6
3856.586	-603.6
3859.197	-606.6
3861.806	-600.6
3864.414	-597.6
3867.019	-599.6
3869.622	-606.6
3872.224	-599.6
3874.823	-587.6
3877.421	-564.6
3880.016	-560.6
3882.61	-519.6
3885.202	-523.6
3887.792	-551.6
3890.38	-575.6
3892.966	-592.6
3895.55	-598.6
3898.132	-609.6
3900.713	-618.6
3903.291	-616.6
3905.868	-622.6
3908.442	-620.6
3911.015	-614.6
3913.586	-619.6
3916.155	-618.6
3918.722	-611.6
3921.287	-619.6
3923.85	-618.6
3926.411	-615.6
3928.971	-617.6
3931.528	-617.6
3934.084	-613.6
3936.638	-621.6
3939.19	-621.6
3941.74	-621.6
3944.288	-623.6
3946.834	-624.6
3949.378	-622.6
3951.921	-622.6
3954.462	-623.6
3957	-613.6
3959.537	-614.6
3962.072	-614.6
3964.606	-618.6
3967.137	-623.6
3969.667	-620.6
3972.194	-619.6
3974.72	-612.6
3977.244	-611.6
3979.766	-609.6
3982.286	-610.6
3984.805	-603.6
3987.321	-604.6
3989.836	-605.6
3992.349	-601.6
3994.86	-603.6
3997.369	-611.6
3999.877	-605.6
4002.382	-601.6
4004.886	-607.6
4007.388	-608.6
4009.888	-608.6
4012.386	-609.6
4014.883	-605.6
4017.377	-609.6
4019.87	-608.6
4022.361	-610.6
4024.85	-611.6
4027.338	-615.6
4029.823	-608.6
4032.307	-610.6
4034.789	-617.6
4037.269	-614.6
4039.747	-615.6
4042.224	-607.6
4044.699	-605.6
4047.172	-611.6
4049.643	-607.6
4052.112	-611.6
4054.58	-605.6
4057.046	-614.6
4059.51	-607.6
4061.972	-611.6
4064.432	-610.6
4066.891	-605.6
4069.348	-608.6
4071.803	-614.6
4074.256	-610.6
4076.708	-612.6
4079.158	-608.6
4081.606	-602.6
4084.052	-605.6
4086.497	-615.6
4088.939	-605.6
4091.38	-602.6
4093.819	-607.6
4096.257	-641.6
4098.693	-642.6
4101.127	-639.6
4103.559	-640.6
4105.989	-377.6
4108.418	-360.6
4110.845	-345.6
4113.27	-316.6
4115.694	-269.6
4118.115	-235.6
4120.535	-611.6
4122.954	-613.6
4125.37	-613.6
4127.785	-609.6
4130.198	-617.6
4132.609	-604.6
4135.019	-646.6
4137.427	-641.6
4139.833	-641.6
4142.237	-639.6
