Data from 2018-2-7_conc=5_RamanShift_12.txt Node
Date: Tue Feb 13 14:04:43 IST 2018
User: aro
Spectrometer: QEPB0276
Trigger mode: 0
Integration Time (sec): 3.000000E1
Scans to average: 1
Electric dark correction enabled: true
Nonlinearity correction enabled: false
Boxcar width: 0
XAxis mode: Raman Shifts
Number of Pixels in Spectrum: 1044
>>>>>Begin Spectral Data<<<<<
160.701	-152.1
166.742	22.9
172.777	560.9
178.805	2152.9
184.826	5837.9
190.841	12113.9
196.849	19141.9
202.85	24025.9
208.845	25470.9
214.833	25126.9
220.815	24688.9
226.789	24395.9
232.758	24262.9
238.719	24116.9
244.674	23753.9
250.623	23245.9
256.565	22784.9
262.5	22285.9
268.429	21872.9
274.351	21431.9
280.267	21147.9
286.176	20884.9
292.079	20702.9
297.975	20431.9
303.865	20258.9
309.748	20105.9
315.625	20006.9
321.495	19834.9
327.359	19780.9
333.217	19673.9
339.068	19698.9
344.912	19667.9
350.751	19608.9
356.583	19604.9
362.408	19630.9
368.227	19614.9
374.04	19614.9
379.847	19638.9
385.647	19768.9
391.44	19809.9
397.228	19871.9
403.009	19954.9
408.784	20054.9
414.553	20129.9
420.315	20168.9
426.071	20212.9
431.821	20127.9
437.565	20139.9
443.302	20162.9
449.033	20075.9
454.758	20033.9
460.477	19960.9
466.189	19906.9
471.896	19839.9
477.596	19831.9
483.29	19783.9
488.978	19744.9
494.66	19685.9
500.335	19534.9
506.005	19322.9
511.668	19046.9
517.325	18905.9
522.977	18765.9
528.622	18582.9
534.261	18470.9
539.894	18436.9
545.521	18267.9
551.141	18293.9
556.756	18129.9
562.365	18132.9
567.968	18006.9
573.565	17994.9
579.155	17900.9
584.74	17789.9
590.319	17728.9
595.892	17681.9
601.459	17666.9
607.02	17472.9
612.575	17454.9
618.124	17309.9
623.667	17228.9
629.204	17171.9
634.735	17069.9
640.261	16986.9
645.781	16951.9
651.294	16947.9
656.802	16857.9
662.304	16846.9
667.8	16850.9
673.29	16808.9
678.775	16723.9
684.254	16719.9
689.726	16628.9
695.193	16571.9
700.655	16505.9
706.11	16492.9
711.56	16347.9
717.004	16252.9
722.442	16196.9
727.874	16101.9
733.301	16037.9
738.722	15992.9
744.137	16008.9
749.547	16036.9
754.951	15942.9
760.349	15987.9
765.741	16017.9
771.128	15999.9
776.509	16004.9
781.885	15958.9
787.254	15915.9
792.618	15839.9
797.977	15775.9
803.33	15720.9
808.677	15611.9
814.019	15505.9
819.355	15454.9
824.686	15360.9
830.011	15341.9
835.33	15292.9
840.644	15331.9
845.952	15383.9
851.255	15389.9
856.552	15446.9
861.844	15412.9
867.13	15394.9
872.41	15278.9
877.686	15195.9
882.955	15079.9
888.219	14950.9
893.478	14767.9
898.731	14623.9
903.979	14448.9
909.221	14351.9
914.458	14307.9
919.69	14277.9
924.916	14339.9
930.136	14429.9
935.351	14381.9
940.561	14403.9
945.766	14393.9
950.965	14299.9
956.158	14173.9
961.347	14041.9
966.529	13849.9
971.707	13665.9
976.879	13519.9
982.046	13438.9
987.208	13385.9
992.364	13408.9
997.515	13473.9
1002.66	13599.9
1007.801	13744.9
1012.936	13818.9
1018.066	13882.9
1023.19	13831.9
1028.309	13816.9
1033.423	13740.9
1038.532	13736.9
1043.636	13624.9
1048.734	13459.9
1053.827	13255.9
1058.915	13108.9
1063.998	13017.9
1069.075	13013.9
1074.147	13002.9
1079.214	13039.9
1084.276	13111.9
1089.333	13252.9
1094.385	13238.9
1099.431	13257.9
1104.472	13324.9
1109.509	13228.9
1114.54	13121.9
1119.565	12896.9
1124.586	12761.9
1129.602	12656.9
1134.613	12547.9
1139.618	12497.9
1144.619	12403.9
1149.614	12396.9
1154.604	12486.9
1159.589	12487.9
1164.57	12508.9
1169.545	12526.9
1174.515	12478.9
1179.48	12489.9
1184.44	12376.9
1189.395	12291.9
1194.345	12179.9
1199.29	12125.9
1204.23	12162.9
1209.165	12196.9
1214.095	12247.9
1219.021	12308.9
1223.941	12414.9
1228.856	12500.9
1233.766	12480.9
1238.672	12519.9
1243.572	12472.9
1248.467	12414.9
1253.358	12283.9
1258.244	12073.9
1263.124	11877.9
1268	11696.9
1272.871	11567.9
1277.737	11499.9
1282.599	11423.9
1287.455	11456.9
1292.306	11460.9
1297.153	11479.9
1301.995	11552.9
1306.832	11550.9
1311.664	11579.9
1316.491	11539.9
1321.314	11422.9
1326.132	11286.9
1330.945	11023.9
1335.753	10763.9
1340.556	10483.9
1345.354	10266.9
1350.148	10123.9
1354.937	10006.9
1359.722	10065.9
1364.501	10074.9
1369.276	10168.9
1374.046	10285.9
1378.811	10414.9
1383.572	10514.9
1388.327	10574.9
1393.079	10521.9
1397.825	10386.9
1402.567	10234.9
1407.304	10136.9
1412.036	10043.9
1416.764	9964.9
1421.487	9928.9
1426.205	9891.9
1430.919	9844.9
1435.628	9829.9
1440.333	9804.9
1445.032	9845.9
1449.727	9872.9
1454.418	9870.9
1459.104	9742.9
1463.785	9587.9
1468.462	9363.9
1473.134	9186.9
1477.802	8936.9
1482.465	8817.9
1487.123	8701.9
1491.777	8705.9
1496.426	8727.9
1501.071	8812.9
1505.711	8961.9
1510.347	9124.9
1514.978	9228.9
1519.604	9412.9
1524.226	9472.9
1528.844	9461.9
1533.457	9472.9
1538.065	9420.9
1542.669	9396.9
1547.269	9282.9
1551.864	9277.9
1556.454	9221.9
1561.041	9248.9
1565.622	9223.9
1570.199	9228.9
1574.772	9292.9
1579.34	9342.9
1583.904	9405.9
1588.464	9482.9
1593.019	9432.9
1597.569	9441.9
1602.115	9392.9
1606.657	9323.9
1611.195	9284.9
1615.728	9217.9
1620.256	9174.9
1624.78	9170.9
1629.3	9189.9
1633.816	9235.9
1638.327	9226.9
1642.834	9335.9
1647.336	9369.9
1651.834	9368.9
1656.328	9320.9
1660.817	9296.9
1665.302	9208.9
1669.783	8997.9
1674.259	8790.9
1678.732	8510.9
1683.199	8194.9
1687.663	7927.9
1692.122	7707.9
1696.577	7608.9
1701.028	7568.9
1705.474	7632.9
1709.917	7684.9
1714.355	7657.9
1718.788	7624.9
1723.218	7552.9
1727.643	7410.9
1732.064	7264.9
1736.481	7057.9
1740.893	6890.9
1745.301	6725.9
1749.705	6562.9
1754.105	6333.9
1758.501	6177.9
1762.893	5969.9
1767.28	5813.9
1771.663	5709.9
1776.042	5633.9
1780.417	5548.9
1784.787	5584.9
1789.154	5601.9
1793.516	5714.9
1797.874	5851.9
1802.228	5931.9
1806.578	5958.9
1810.924	5967.9
1815.266	5926.9
1819.603	5821.9
1823.937	5746.9
1828.266	5650.9
1832.591	5577.9
1836.913	5497.9
1841.23	5438.9
1845.543	5433.9
1849.852	5375.9
1854.156	5374.9
1858.457	5365.9
1862.754	5345.9
1867.047	5329.9
1871.335	5338.9
1875.62	5302.9
1879.9	5279.9
1884.177	5245.9
1888.449	5211.9
1892.718	5135.9
1896.982	5094.9
1901.243	5028.9
1905.499	5036.9
1909.752	4976.9
1914	4975.9
1918.245	4989.9
1922.485	5032.9
1926.722	5092.9
1930.954	5149.9
1935.183	5211.9
1939.408	5272.9
1943.628	5306.9
1947.845	5280.9
1952.058	5286.9
1956.267	5252.9
1960.472	5169.9
1964.673	5117.9
1968.87	4991.9
1973.063	4947.9
1977.252	4877.9
1981.438	4852.9
1985.619	4794.9
1989.797	4708.9
1993.971	4702.9
1998.14	4687.9
2002.306	4649.9
2006.469	4656.9
2010.627	4646.9
2014.781	4607.9
2018.932	4579.9
2023.078	4519.9
2027.221	4466.9
2031.36	4400.9
2035.495	4315.9
2039.627	4278.9
2043.754	4212.9
2047.878	4170.9
2051.998	4159.9
2056.114	4120.9
2060.226	4143.9
2064.334	4141.9
2068.439	4166.9
2072.54	4180.9
2076.637	4194.9
2080.73	4218.9
2084.82	4255.9
2088.906	4279.9
2092.988	4247.9
2097.066	4279.9
2101.14	4213.9
2105.211	4191.9
2109.278	4173.9
2113.342	4167.9
2117.401	4149.9
2121.457	4114.9
2125.509	4081.9
2129.558	4055.9
2133.602	4025.9
2137.643	4017.9
2141.681	4015.9
2145.714	3965.9
2149.744	3985.9
2153.77	3918.9
2157.793	3880.9
2161.812	3851.9
2165.827	3767.9
2169.838	3748.9
2173.846	3648.9
2177.851	3623.9
2181.851	3546.9
2185.848	3525.9
2189.841	3475.9
2193.831	3428.9
2197.817	3419.9
2201.799	3397.9
2205.778	3379.9
2209.753	3360.9
2213.725	3358.9
2217.693	3315.9
2221.657	3333.9
2225.618	3324.9
2229.575	3309.9
2233.529	3274.9
2237.479	3243.9
2241.425	3199.9
2245.368	3145.9
2249.307	3127.9
2253.243	3087.9
2257.175	3030.9
2261.104	3004.9
2265.029	2978.9
2268.95	2936.9
2272.868	2887.9
2276.783	2839.9
2280.694	2855.9
2284.601	2816.9
2288.505	2789.9
2292.405	2779.9
2296.302	2735.9
2300.195	2703.9
2304.085	2695.9
2307.971	2624.9
2311.854	2596.9
2315.734	2558.9
2319.609	2535.9
2323.482	2500.9
2327.351	2465.9
2331.216	2453.9
2335.078	2425.9
2338.937	2435.9
2342.792	2438.9
2346.643	2420.9
2350.492	2410.9
2354.336	2409.9
2358.178	2417.9
2362.015	2444.9
2365.85	2434.9
2369.681	2429.9
2373.508	2435.9
2377.333	2444.9
2381.153	2439.9
2384.971	2419.9
2388.785	2390.9
2392.595	2366.9
2396.402	2338.9
2400.206	2317.9
2404.007	2314.9
2407.804	2294.9
2411.597	2285.9
2415.388	2262.9
2419.174	2253.9
2422.958	2235.9
2426.738	2238.9
2430.515	2193.9
2434.289	2208.9
2438.059	2148.9
2441.825	2149.9
2445.589	2143.9
2449.349	2116.9
2453.106	2089.9
2456.859	2041.9
2460.61	2008.9
2464.356	1993.9
2468.1	1978.9
2471.84	1955.9
2475.577	1923.9
2479.311	1952.9
2483.041	1930.9
2486.768	1894.9
2490.492	1895.9
2494.213	1904.9
2497.93	1890.9
2501.644	1870.9
2505.355	1871.9
2509.062	1853.9
2512.766	1864.9
2516.467	1833.9
2520.165	1839.9
2523.859	1809.9
2527.551	1774.9
2531.239	1794.9
2534.923	1772.9
2538.605	1746.9
2542.283	1746.9
2545.958	1757.9
2549.63	1772.9
2553.299	1750.9
2556.964	1737.9
2560.626	1756.9
2564.285	1716.9
2567.941	1732.9
2571.594	1711.9
2575.243	1712.9
2578.89	1675.9
2582.533	1673.9
2586.173	1655.9
2589.809	1638.9
2593.443	1635.9
2597.073	1612.9
2600.701	1602.9
2604.325	1592.9
2607.946	1583.9
2611.564	1583.9
2615.178	1569.9
2618.79	1556.9
2622.398	1526.9
2626.004	1506.9
2629.606	1488.9
2633.205	1466.9
2636.801	1465.9
2640.394	1460.9
2643.983	1405.9
2647.57	1384.9
2651.153	1378.9
2654.734	1355.9
2658.311	1337.9
2661.885	1322.9
2665.456	1280.9
2669.025	1299.9
2672.589	1334.9
2676.151	1444.9
2679.71	1332.9
2683.266	1209.9
2686.819	1186.9
2690.368	1158.9
2693.915	1138.9
2697.458	1123.9
2700.999	1092.9
2704.536	1074.9
2708.071	1025.9
2711.602	1030.9
2715.13	992.9
2718.656	965.9
2722.178	957.9
2725.697	939.9
2729.214	972.9
2732.727	1060.9
2736.237	977.9
2739.744	923.9
2743.249	924.9
2746.75	930.9
2750.248	929.9
2753.743	947.9
2757.236	966.9
2760.725	961.9
2764.211	987.9
2767.695	950.9
2771.175	989.9
2774.652	975.9
2778.127	977.9
2781.598	939.9
2785.067	951.9
2788.532	957.9
2791.995	940.9
2795.455	944.9
2798.911	957.9
2802.365	944.9
2805.816	943.9
2809.264	942.9
2812.709	944.9
2816.151	938.9
2819.59	957.9
2823.026	952.9
2826.46	944.9
2829.89	953.9
2833.318	951.9
2836.742	955.9
2840.164	978.9
2843.583	968.9
2846.999	971.9
2850.412	998.9
2853.822	1012.9
2857.229	1032.9
2860.634	1034.9
2864.035	1067.9
2867.434	1082.9
2870.83	1096.9
2874.223	1110.9
2877.613	1122.9
2881	1130.9
2884.385	1157.9
2887.766	1140.9
2891.145	1164.9
2894.521	1157.9
2897.894	1148.9
2901.264	1128.9
2904.631	1140.9
2907.996	1155.9
2911.358	1164.9
2914.717	1170.9
2918.073	1190.9
2921.426	1198.9
2924.777	1198.9
2928.124	1232.9
2931.469	1243.9
2934.811	1273.9
2938.15	1288.9
2941.487	1303.9
2944.821	1290.9
2948.152	1298.9
2951.48	1292.9
2954.805	1283.9
2958.128	1271.9
2961.447	1259.9
2964.765	1237.9
2968.079	1253.9
2971.39	1274.9
2974.699	1268.9
2978.005	1314.9
2981.308	1320.9
2984.609	1350.9
2987.907	1370.9
2991.202	1379.9
2994.494	1436.9
2997.784	1455.9
3001.07	1486.9
3004.355	1510.9
3007.636	1530.9
3010.915	1543.9
3014.191	1582.9
3017.464	1579.9
3020.734	1583.9
3024.002	1595.9
3027.267	1612.9
3030.53	1619.9
3033.789	1636.9
3037.046	1657.9
3040.301	1686.9
3043.552	1726.9
3046.801	1766.9
3050.048	1794.9
3053.291	1826.9
3056.532	1898.9
3059.771	1948.9
3063.006	2008.9
3066.239	2068.9
3069.469	2114.9
3072.697	2192.9
3075.922	2234.9
3079.144	2290.9
3082.364	2338.9
3085.581	2386.9
3088.795	2458.9
3092.007	2491.9
3095.216	2545.9
3098.423	2607.9
3101.627	2654.9
3104.828	2736.9
3108.026	2776.9
3111.222	2855.9
3114.416	2893.9
3117.607	2985.9
3120.795	3045.9
3123.98	3114.9
3127.163	3180.9
3130.344	3262.9
3133.521	3351.9
3136.696	3426.9
3139.869	3491.9
3143.039	3559.9
3146.206	3602.9
3149.371	3636.9
3152.533	3691.9
3155.693	3692.9
3158.85	3717.9
3162.005	3748.9
3165.157	3742.9
3168.306	3747.9
3171.453	3781.9
3174.597	3771.9
3177.739	3784.9
3180.878	3833.9
3184.014	3803.9
3187.149	3788.9
3190.28	3815.9
3193.409	3836.9
3196.536	3841.9
3199.659	3786.9
3202.781	3830.9
3205.9	3822.9
3209.016	3824.9
3212.13	3793.9
3215.241	3769.9
3218.35	3737.9
3221.456	3700.9
3224.56	3646.9
3227.661	3619.9
3230.76	3568.9
3233.856	3541.9
3236.95	3517.9
3240.041	3460.9
3243.13	3443.9
3246.216	3422.9
3249.3	3400.9
3252.382	3370.9
3255.46	3394.9
3258.537	3368.9
3261.611	3341.9
3264.682	3335.9
3267.751	3366.9
3270.818	3360.9
3273.882	3340.9
3276.943	3356.9
3280.002	3301.9
3283.059	3279.9
3286.113	3258.9
3289.165	3188.9
3292.214	3158.9
3295.261	3103.9
3298.306	3038.9
3301.348	2990.9
3304.387	2957.9
3307.425	2893.9
3310.459	2853.9
3313.492	2825.9
3316.521	2787.9
3319.549	2740.9
3322.574	2749.9
3325.597	2694.9
3328.617	2666.9
3331.635	2674.9
3334.65	2660.9
3337.663	2643.9
3340.674	2612.9
3343.682	2628.9
3346.688	2608.9
3349.691	2611.9
3352.692	2567.9
3355.691	2591.9
3358.687	2522.9
3361.681	2515.9
3364.673	2463.9
3367.662	2450.9
3370.649	2407.9
3373.633	2368.9
3376.615	2349.9
3379.595	2300.9
3382.572	2265.9
3385.547	2207.9
3388.52	2202.9
3391.49	2142.9
3394.458	2118.9
3397.424	2080.9
3400.387	2069.9
3403.348	2037.9
3406.307	2025.9
3409.263	2023.9
3412.217	1981.9
3415.168	1977.9
3418.118	1944.9
3421.065	1899.9
3424.009	1892.9
3426.951	1838.9
3429.891	1792.9
3432.829	1762.9
3435.764	1739.9
3438.697	1687.9
3441.628	1636.9
3444.557	1596.9
3447.483	1547.9
3450.407	1470.9
3453.328	1424.9
3456.247	1373.9
3459.164	1324.9
3462.079	1269.9
3464.991	1229.9
3467.902	1188.9
3470.809	1135.9
3473.715	1101.9
3476.618	1079.9
3479.519	1045.9
3482.418	984.9
3485.315	969.9
3488.209	905.9
3491.101	910.9
3493.99	860.9
3496.878	807.9
3499.763	789.9
3502.646	747.9
3505.527	721.9
3508.405	681.9
3511.281	652.9
3514.155	611.9
3517.027	581.9
3519.897	511.9
3522.764	483.9
3525.629	440.9
3528.492	399.9
3531.352	353.9
3534.211	329.9
3537.067	308.9
3539.921	263.9
3542.773	226.9
3545.622	200.9
3548.469	175.9
3551.315	157.9
3554.157	115.9
3556.998	91.9
3559.837	74.9
3562.673	53.9
3565.507	31.9
3568.339	11.9
3571.169	-9.1
3573.996	-12.1
3576.822	-35.1
3579.645	-64.1
3582.466	-75.1
3585.285	-94.1
3588.101	-113.1
3590.916	-134.1
3593.728	-150.1
3596.538	-170.1
3599.346	-188.1
3602.152	-206.1
3604.956	-219.1
3607.757	-229.1
3610.556	-239.1
3613.354	-253.1
3616.149	-273.1
3618.942	-285.1
3621.732	-293.1
3624.521	-301.1
3627.307	-305.1
3630.092	-322.1
3632.874	-330.1
3635.654	-336.1
3638.432	-350.1
3641.208	-359.1
3643.982	-356.1
3646.753	-376.1
3649.523	-384.1
3652.29	-393.1
3655.055	-394.1
3657.818	-404.1
3660.579	-409.1
3663.338	-418.1
3666.095	-429.1
3668.849	-449.1
3671.602	-459.1
3674.352	-454.1
3677.101	-467.1
3679.847	-479.1
3682.591	-479.1
3685.333	-485.1
3688.073	-490.1
3690.811	-491.1
3693.547	-497.1
3696.281	-505.1
3699.013	-495.1
3701.742	-514.1
3704.47	-516.1
3707.195	-525.1
3709.919	-525.1
3712.64	-521.1
3715.359	-527.1
3718.076	-529.1
3720.792	-540.1
3723.505	-539.1
3726.216	-546.1
3728.925	-548.1
3731.632	-557.1
3734.336	-557.1
3737.039	-561.1
3739.74	-559.1
3742.439	-560.1
3745.136	-566.1
3747.83	-565.1
3750.523	-562.1
3753.213	-569.1
3755.902	-570.1
3758.589	-570.1
3761.273	-574.1
3763.956	-578.1
3766.636	-573.1
3769.315	-582.1
3771.991	-579.1
3774.665	-584.1
3777.338	-586.1
3780.008	-578.1
3782.677	-588.1
3785.343	-587.1
3788.007	-578.1
3790.67	-582.1
3793.33	-584.1
3795.989	-590.1
3798.645	-593.1
3801.299	-595.1
3803.952	-600.1
3806.602	-598.1
3809.251	-606.1
3811.897	-599.1
3814.542	-595.1
3817.184	-602.1
3819.825	-600.1
3822.463	-597.1
3825.1	-598.1
3827.735	-607.1
3830.367	-607.1
3832.998	-609.1
3835.627	-608.1
3838.253	-605.1
3840.878	-604.1
3843.501	-607.1
3846.122	-608.1
3848.741	-603.1
3851.358	-611.1
3853.973	-605.1
3856.586	-605.1
3859.197	-609.1
3861.806	-608.1
3864.414	-603.1
3867.019	-605.1
3869.622	-609.1
3872.224	-604.1
3874.823	-587.1
3877.421	-572.1
3880.016	-562.1
3882.61	-530.1
3885.202	-524.1
3887.792	-549.1
3890.38	-576.1
3892.966	-598.1
3895.55	-607.1
3898.132	-612.1
3900.713	-619.1
3903.291	-621.1
3905.868	-623.1
3908.442	-621.1
3911.015	-622.1
3913.586	-622.1
3916.155	-620.1
3918.722	-616.1
3921.287	-621.1
3923.85	-622.1
3926.411	-620.1
3928.971	-621.1
3931.528	-626.1
3934.084	-620.1
3936.638	-626.1
3939.19	-625.1
3941.74	-626.1
3944.288	-633.1
3946.834	-628.1
3949.378	-629.1
3951.921	-625.1
3954.462	-626.1
3957	-622.1
3959.537	-617.1
3962.072	-624.1
3964.606	-616.1
3967.137	-627.1
3969.667	-620.1
3972.194	-616.1
3974.72	-611.1
3977.244	-614.1
3979.766	-612.1
3982.286	-611.1
3984.805	-606.1
3987.321	-608.1
3989.836	-614.1
3992.349	-612.1
3994.86	-606.1
3997.369	-616.1
3999.877	-611.1
4002.382	-608.1
4004.886	-610.1
4007.388	-611.1
4009.888	-609.1
4012.386	-615.1
4014.883	-618.1
4017.377	-610.1
4019.87	-610.1
4022.361	-617.1
4024.85	-618.1
4027.338	-614.1
4029.823	-612.1
4032.307	-617.1
4034.789	-621.1
4037.269	-619.1
4039.747	-623.1
4042.224	-609.1
4044.699	-618.1
4047.172	-616.1
4049.643	-614.1
4052.112	-615.1
4054.58	-609.1
4057.046	-616.1
4059.51	-614.1
4061.972	-620.1
4064.432	-613.1
4066.891	-616.1
4069.348	-614.1
4071.803	-620.1
4074.256	-612.1
4076.708	-613.1
4079.158	-616.1
4081.606	-610.1
4084.052	-611.1
4086.497	-617.1
4088.939	-610.1
4091.38	-606.1
4093.819	-616.1
4096.257	-645.1
4098.693	-645.1
4101.127	-644.1
4103.559	-649.1
4105.989	-389.1
4108.418	-368.1
4110.845	-348.1
4113.27	-326.1
4115.694	-284.1
4118.115	-242.1
4120.535	-609.1
4122.954	-618.1
4125.37	-617.1
4127.785	-616.1
4130.198	-618.1
4132.609	-611.1
4135.019	-647.1
4137.427	-646.1
4139.833	-645.1
4142.237	-646.1
