Data from 2018-2-7_conc=4_RamanShift_16.txt Node
Date: Tue Feb 13 13:40:13 IST 2018
User: aro
Spectrometer: QEPB0276
Trigger mode: 0
Integration Time (sec): 3.000000E1
Scans to average: 1
Electric dark correction enabled: true
Nonlinearity correction enabled: false
Boxcar width: 0
XAxis mode: Raman Shifts
Number of Pixels in Spectrum: 1044
>>>>>Begin Spectral Data<<<<<
160.701	-162.4
166.742	30.6
172.777	573.6
178.805	2196.6
184.826	6019.6
190.841	12386.6
196.849	19568.6
202.85	24504.6
208.845	25998.6
214.833	25688.6
220.815	25192.6
226.789	24966.6
232.758	24844.6
238.719	24674.6
244.674	24256.6
250.623	23849.6
256.565	23355.6
262.5	22833.6
268.429	22368.6
274.351	22068.6
280.267	21702.6
286.176	21452.6
292.079	21300.6
297.975	21030.6
303.865	20821.6
309.748	20649.6
315.625	20488.6
321.495	20391.6
327.359	20332.6
333.217	20336.6
339.068	20268.6
344.912	20257.6
350.751	20246.6
356.583	20227.6
362.408	20129.6
368.227	20149.6
374.04	20173.6
379.847	20275.6
385.647	20365.6
391.44	20391.6
397.228	20540.6
403.009	20604.6
408.784	20611.6
414.553	20708.6
420.315	20732.6
426.071	20733.6
431.821	20740.6
437.565	20711.6
443.302	20687.6
449.033	20669.6
454.758	20612.6
460.477	20590.6
466.189	20564.6
471.896	20447.6
477.596	20440.6
483.29	20392.6
488.978	20300.6
494.66	20255.6
500.335	20158.6
506.005	19935.6
511.668	19740.6
517.325	19459.6
522.977	19312.6
528.622	19218.6
534.261	19050.6
539.894	18992.6
545.521	18871.6
551.141	18772.6
556.756	18710.6
562.365	18668.6
567.968	18601.6
573.565	18585.6
579.155	18499.6
584.74	18411.6
590.319	18361.6
595.892	18199.6
601.459	18197.6
607.02	18091.6
612.575	17981.6
618.124	17908.6
623.667	17757.6
629.204	17690.6
634.735	17621.6
640.261	17537.6
645.781	17436.6
651.294	17445.6
656.802	17450.6
662.304	17416.6
667.8	17300.6
673.29	17415.6
678.775	17300.6
684.254	17280.6
689.726	17190.6
695.193	17114.6
700.655	17074.6
706.11	16986.6
711.56	16916.6
717.004	16844.6
722.442	16672.6
727.874	16657.6
733.301	16606.6
738.722	16620.6
744.137	16553.6
749.547	16505.6
754.951	16541.6
760.349	16515.6
765.741	16601.6
771.128	16568.6
776.509	16619.6
781.885	16540.6
787.254	16516.6
792.618	16474.6
797.977	16295.6
803.33	16271.6
808.677	16142.6
814.019	16084.6
819.355	15939.6
824.686	15899.6
830.011	15866.6
835.33	15904.6
840.644	15833.6
845.952	15905.6
851.255	15992.6
856.552	16013.6
861.844	15918.6
867.13	15909.6
872.41	15898.6
877.686	15763.6
882.955	15649.6
888.219	15531.6
893.478	15299.6
898.731	15164.6
903.979	15055.6
909.221	14917.6
914.458	14787.6
919.69	14844.6
924.916	14826.6
930.136	14929.6
935.351	14963.6
940.561	14971.6
945.766	14942.6
950.965	14860.6
956.158	14731.6
961.347	14560.6
966.529	14432.6
971.707	14195.6
976.879	14049.6
982.046	13973.6
987.208	13924.6
992.364	13879.6
997.515	14058.6
1002.66	14128.6
1007.801	14273.6
1012.936	14375.6
1018.066	14369.6
1023.19	14378.6
1028.309	14391.6
1033.423	14410.6
1038.532	14284.6
1043.636	14174.6
1048.734	13974.6
1053.827	13827.6
1058.915	13676.6
1063.998	13575.6
1069.075	13517.6
1074.147	13554.6
1079.214	13644.6
1084.276	13691.6
1089.333	13778.6
1094.385	13872.6
1099.431	13915.6
1104.472	13923.6
1109.509	13818.6
1114.54	13634.6
1119.565	13447.6
1124.586	13306.6
1129.602	13175.6
1134.613	13070.6
1139.618	13025.6
1144.619	12950.6
1149.614	12977.6
1154.604	13008.6
1159.589	13043.6
1164.57	13092.6
1169.545	13131.6
1174.515	13119.6
1179.48	13050.6
1184.44	12964.6
1189.395	12833.6
1194.345	12819.6
1199.29	12734.6
1204.23	12672.6
1209.165	12746.6
1214.095	12814.6
1219.021	12878.6
1223.941	12961.6
1228.856	13022.6
1233.766	13056.6
1238.672	13068.6
1243.572	13059.6
1248.467	12952.6
1253.358	12879.6
1258.244	12666.6
1263.124	12496.6
1268	12315.6
1272.871	12127.6
1277.737	12057.6
1282.599	11950.6
1287.455	12008.6
1292.306	12037.6
1297.153	12023.6
1301.995	12147.6
1306.832	12129.6
1311.664	12156.6
1316.491	12140.6
1321.314	12013.6
1326.132	11801.6
1330.945	11548.6
1335.753	11258.6
1340.556	10990.6
1345.354	10821.6
1350.148	10661.6
1354.937	10594.6
1359.722	10564.6
1364.501	10552.6
1369.276	10670.6
1374.046	10845.6
1378.811	10992.6
1383.572	11095.6
1388.327	11133.6
1393.079	11069.6
1397.825	10939.6
1402.567	10812.6
1407.304	10654.6
1412.036	10566.6
1416.764	10488.6
1421.487	10450.6
1426.205	10367.6
1430.919	10378.6
1435.628	10334.6
1440.333	10353.6
1445.032	10411.6
1449.727	10432.6
1454.418	10411.6
1459.104	10311.6
1463.785	10085.6
1468.462	9876.6
1473.134	9624.6
1477.802	9506.6
1482.465	9285.6
1487.123	9244.6
1491.777	9209.6
1496.426	9225.6
1501.071	9334.6
1505.711	9458.6
1510.347	9661.6
1514.978	9809.6
1519.604	9937.6
1524.226	10037.6
1528.844	10075.6
1533.457	10044.6
1538.065	9976.6
1542.669	9944.6
1547.269	9858.6
1551.864	9798.6
1556.454	9731.6
1561.041	9799.6
1565.622	9754.6
1570.199	9772.6
1574.772	9838.6
1579.34	9896.6
1583.904	9937.6
1588.464	9995.6
1593.019	9984.6
1597.569	9955.6
1602.115	9916.6
1606.657	9832.6
1611.195	9784.6
1615.728	9763.6
1620.256	9695.6
1624.78	9651.6
1629.3	9725.6
1633.816	9747.6
1638.327	9761.6
1642.834	9804.6
1647.336	9842.6
1651.834	9857.6
1656.328	9841.6
1660.817	9834.6
1665.302	9704.6
1669.783	9516.6
1674.259	9320.6
1678.732	9000.6
1683.199	8729.6
1687.663	8405.6
1692.122	8165.6
1696.577	7990.6
1701.028	7945.6
1705.474	8059.6
1709.917	8154.6
1714.355	8140.6
1718.788	8119.6
1723.218	8021.6
1727.643	7874.6
1732.064	7739.6
1736.481	7550.6
1740.893	7360.6
1745.301	7142.6
1749.705	6967.6
1754.105	6738.6
1758.501	6580.6
1762.893	6447.6
1767.28	6207.6
1771.663	6091.6
1776.042	5988.6
1780.417	5900.6
1784.787	5912.6
1789.154	5965.6
1793.516	6073.6
1797.874	6196.6
1802.228	6308.6
1806.578	6350.6
1810.924	6382.6
1815.266	6291.6
1819.603	6213.6
1823.937	6150.6
1828.266	6066.6
1832.591	5936.6
1836.913	5880.6
1841.23	5802.6
1845.543	5793.6
1849.852	5763.6
1854.156	5735.6
1858.457	5744.6
1862.754	5712.6
1867.047	5691.6
1871.335	5736.6
1875.62	5689.6
1879.9	5676.6
1884.177	5661.6
1888.449	5560.6
1892.718	5523.6
1896.982	5435.6
1901.243	5382.6
1905.499	5343.6
1909.752	5314.6
1914	5316.6
1918.245	5368.6
1922.485	5351.6
1926.722	5452.6
1930.954	5484.6
1935.183	5545.6
1939.408	5628.6
1943.628	5655.6
1947.845	5667.6
1952.058	5665.6
1956.267	5619.6
1960.472	5519.6
1964.673	5466.6
1968.87	5385.6
1973.063	5290.6
1977.252	5248.6
1981.438	5168.6
1985.619	5116.6
1989.797	5076.6
1993.971	5052.6
1998.14	5056.6
2002.306	5027.6
2006.469	5001.6
2010.627	4977.6
2014.781	4951.6
2018.932	4878.6
2023.078	4837.6
2027.221	4797.6
2031.36	4711.6
2035.495	4632.6
2039.627	4569.6
2043.754	4517.6
2047.878	4460.6
2051.998	4456.6
2056.114	4442.6
2060.226	4417.6
2064.334	4439.6
2068.439	4424.6
2072.54	4467.6
2076.637	4480.6
2080.73	4496.6
2084.82	4542.6
2088.906	4558.6
2092.988	4548.6
2097.066	4539.6
2101.14	4531.6
2105.211	4468.6
2109.278	4464.6
2113.342	4437.6
2117.401	4416.6
2121.457	4406.6
2125.509	4367.6
2129.558	4336.6
2133.602	4324.6
2137.643	4278.6
2141.681	4297.6
2145.714	4275.6
2149.744	4241.6
2153.77	4195.6
2157.793	4175.6
2161.812	4114.6
2165.827	4049.6
2169.838	3988.6
2173.846	3927.6
2177.851	3852.6
2181.851	3809.6
2185.848	3769.6
2189.841	3726.6
2193.831	3726.6
2197.817	3660.6
2201.799	3640.6
2205.778	3631.6
2209.753	3593.6
2213.725	3579.6
2217.693	3593.6
2221.657	3590.6
2225.618	3562.6
2229.575	3564.6
2233.529	3500.6
2237.479	3485.6
2241.425	3449.6
2245.368	3376.6
2249.307	3357.6
2253.243	3313.6
2257.175	3275.6
2261.104	3211.6
2265.029	3194.6
2268.95	3187.6
2272.868	3093.6
2276.783	3073.6
2280.694	3035.6
2284.601	3011.6
2288.505	3017.6
2292.405	2994.6
2296.302	2950.6
2300.195	2928.6
2304.085	2884.6
2307.971	2839.6
2311.854	2795.6
2315.734	2762.6
2319.609	2726.6
2323.482	2674.6
2327.351	2678.6
2331.216	2671.6
2335.078	2636.6
2338.937	2638.6
2342.792	2616.6
2346.643	2614.6
2350.492	2619.6
2354.336	2603.6
2358.178	2600.6
2362.015	2639.6
2365.85	2655.6
2369.681	2631.6
2373.508	2643.6
2377.333	2654.6
2381.153	2618.6
2384.971	2622.6
2388.785	2642.6
2392.595	2593.6
2396.402	2565.6
2400.206	2548.6
2404.007	2510.6
2407.804	2503.6
2411.597	2493.6
2415.388	2490.6
2419.174	2462.6
2422.958	2422.6
2426.738	2429.6
2430.515	2401.6
2434.289	2389.6
2438.059	2371.6
2441.825	2341.6
2445.589	2327.6
2449.349	2299.6
2453.106	2276.6
2456.859	2253.6
2460.61	2216.6
2464.356	2194.6
2468.1	2181.6
2471.84	2132.6
2475.577	2133.6
2479.311	2122.6
2483.041	2081.6
2486.768	2111.6
2490.492	2070.6
2494.213	2057.6
2497.93	2069.6
2501.644	2052.6
2505.355	2048.6
2509.062	2015.6
2512.766	2013.6
2516.467	2008.6
2520.165	2000.6
2523.859	1971.6
2527.551	1959.6
2531.239	1962.6
2534.923	1944.6
2538.605	1917.6
2542.283	1932.6
2545.958	1928.6
2549.63	1905.6
2553.299	1893.6
2556.964	1907.6
2560.626	1889.6
2564.285	1890.6
2567.941	1882.6
2571.594	1867.6
2575.243	1847.6
2578.89	1864.6
2582.533	1849.6
2586.173	1821.6
2589.809	1819.6
2593.443	1786.6
2597.073	1768.6
2600.701	1762.6
2604.325	1732.6
2607.946	1745.6
2611.564	1737.6
2615.178	1712.6
2618.79	1710.6
2622.398	1686.6
2626.004	1679.6
2629.606	1649.6
2633.205	1615.6
2636.801	1616.6
2640.394	1585.6
2643.983	1558.6
2647.57	1542.6
2651.153	1525.6
2654.734	1511.6
2658.311	1486.6
2661.885	1454.6
2665.456	1439.6
2669.025	1414.6
2672.589	1422.6
2676.151	1393.6
2679.71	1379.6
2683.266	1337.6
2686.819	1322.6
2690.368	1289.6
2693.915	1263.6
2697.458	1256.6
2700.999	1218.6
2704.536	1199.6
2708.071	1168.6
2711.602	1137.6
2715.13	1092.6
2718.656	1087.6
2722.178	1051.6
2725.697	1049.6
2729.214	1044.6
2732.727	1032.6
2736.237	1021.6
2739.744	1018.6
2743.249	1019.6
2746.75	1006.6
2750.248	1041.6
2753.743	1021.6
2757.236	1054.6
2760.725	1062.6
2764.211	1073.6
2767.695	1066.6
2771.175	1078.6
2774.652	1076.6
2778.127	1072.6
2781.598	1047.6
2785.067	1046.6
2788.532	1052.6
2791.995	1037.6
2795.455	1036.6
2798.911	1048.6
2802.365	1045.6
2805.816	1052.6
2809.264	1044.6
2812.709	1034.6
2816.151	1044.6
2819.59	1044.6
2823.026	1050.6
2826.46	1044.6
2829.89	1043.6
2833.318	1052.6
2836.742	1062.6
2840.164	1065.6
2843.583	1064.6
2846.999	1084.6
2850.412	1103.6
2853.822	1102.6
2857.229	1115.6
2860.634	1117.6
2864.035	1140.6
2867.434	1178.6
2870.83	1196.6
2874.223	1221.6
2877.613	1229.6
2881	1247.6
2884.385	1241.6
2887.766	1238.6
2891.145	1258.6
2894.521	1259.6
2897.894	1255.6
2901.264	1227.6
2904.631	1248.6
2907.996	1253.6
2911.358	1270.6
2914.717	1245.6
2918.073	1269.6
2921.426	1286.6
2924.777	1301.6
2928.124	1319.6
2931.469	1335.6
2934.811	1356.6
2938.15	1389.6
2941.487	1388.6
2944.821	1382.6
2948.152	1372.6
2951.48	1381.6
2954.805	1358.6
2958.128	1330.6
2961.447	1323.6
2964.765	1328.6
2968.079	1327.6
2971.39	1346.6
2974.699	1348.6
2978.005	1373.6
2981.308	1402.6
2984.609	1425.6
2987.907	1443.6
2991.202	1477.6
2994.494	1502.6
2997.784	1532.6
3001.07	1550.6
3004.355	1580.6
3007.636	1604.6
3010.915	1595.6
3014.191	1642.6
3017.464	1645.6
3020.734	1654.6
3024.002	1655.6
3027.267	1664.6
3030.53	1698.6
3033.789	1708.6
3037.046	1711.6
3040.301	1748.6
3043.552	1804.6
3046.801	1834.6
3050.048	1863.6
3053.291	1907.6
3056.532	1955.6
3059.771	2025.6
3063.006	2058.6
3066.239	2160.6
3069.469	2211.6
3072.697	2252.6
3075.922	2313.6
3079.144	2383.6
3082.364	2414.6
3085.581	2458.6
3088.795	2528.6
3092.007	2572.6
3095.216	2620.6
3098.423	2688.6
3101.627	2766.6
3104.828	2803.6
3108.026	2850.6
3111.222	2925.6
3114.416	2965.6
3117.607	3062.6
3120.795	3136.6
3123.98	3221.6
3127.163	3299.6
3130.344	3349.6
3133.521	3448.6
3136.696	3502.6
3139.869	3592.6
3143.039	3631.6
3146.206	3683.6
3149.371	3734.6
3152.533	3771.6
3155.693	3778.6
3158.85	3817.6
3162.005	3839.6
3165.157	3826.6
3168.306	3842.6
3171.453	3882.6
3174.597	3875.6
3177.739	3865.6
3180.878	3868.6
3184.014	3867.6
3187.149	3904.6
3190.28	3892.6
3193.409	3896.6
3196.536	3919.6
3199.659	3897.6
3202.781	3907.6
3205.9	3925.6
3209.016	3896.6
3212.13	3878.6
3215.241	3875.6
3218.35	3804.6
3221.456	3791.6
3224.56	3735.6
3227.661	3716.6
3230.76	3660.6
3233.856	3613.6
3236.95	3597.6
3240.041	3533.6
3243.13	3525.6
3246.216	3487.6
3249.3	3482.6
3252.382	3477.6
3255.46	3471.6
3258.537	3433.6
3261.611	3449.6
3264.682	3470.6
3267.751	3434.6
3270.818	3427.6
3273.882	3417.6
3276.943	3399.6
3280.002	3368.6
3283.059	3359.6
3286.113	3307.6
3289.165	3267.6
3292.214	3209.6
3295.261	3164.6
3298.306	3113.6
3301.348	3082.6
3304.387	3038.6
3307.425	2960.6
3310.459	2932.6
3313.492	2860.6
3316.521	2840.6
3319.549	2821.6
3322.574	2778.6
3325.597	2767.6
3328.617	2761.6
3331.635	2729.6
3334.65	2730.6
3337.663	2680.6
3340.674	2688.6
3343.682	2680.6
3346.688	2661.6
3349.691	2669.6
3352.692	2613.6
3355.691	2632.6
3358.687	2602.6
3361.681	2558.6
3364.673	2532.6
3367.662	2484.6
3370.649	2451.6
3373.633	2436.6
3376.615	2377.6
3379.595	2360.6
3382.572	2330.6
3385.547	2291.6
3388.52	2256.6
3391.49	2211.6
3394.458	2176.6
3397.424	2151.6
3400.387	2129.6
3403.348	2096.6
3406.307	2063.6
3409.263	2062.6
3412.217	2021.6
3415.168	2003.6
3418.118	1981.6
3421.065	1947.6
3424.009	1921.6
3426.951	1881.6
3429.891	1841.6
3432.829	1806.6
3435.764	1760.6
3438.697	1730.6
3441.628	1666.6
3444.557	1625.6
3447.483	1569.6
3450.407	1516.6
3453.328	1478.6
3456.247	1412.6
3459.164	1354.6
3462.079	1316.6
3464.991	1280.6
3467.902	1211.6
3470.809	1170.6
3473.715	1125.6
3476.618	1089.6
3479.519	1046.6
3482.418	1033.6
3485.315	986.6
3488.209	950.6
3491.101	904.6
3493.99	884.6
3496.878	823.6
3499.763	812.6
3502.646	770.6
3505.527	750.6
3508.405	691.6
3511.281	665.6
3514.155	622.6
3517.027	586.6
3519.897	532.6
3522.764	507.6
3525.629	450.6
3528.492	429.6
3531.352	364.6
3534.211	335.6
3537.067	298.6
3539.921	276.6
3542.773	254.6
3545.622	214.6
3548.469	194.6
3551.315	151.6
3554.157	131.6
3556.998	98.6
3559.837	85.6
3562.673	66.6
3565.507	38.6
3568.339	35.6
3571.169	-17.4
3573.996	-14.4
3576.822	-43.4
3579.645	-61.4
3582.466	-80.4
3585.285	-88.4
3588.101	-117.4
3590.916	-140.4
3593.728	-157.4
3596.538	-177.4
3599.346	-203.4
3602.152	-208.4
3604.956	-224.4
3607.757	-227.4
3610.556	-248.4
3613.354	-262.4
3616.149	-271.4
3618.942	-285.4
3621.732	-299.4
3624.521	-306.4
3627.307	-320.4
3630.092	-332.4
3632.874	-336.4
3635.654	-341.4
3638.432	-353.4
3641.208	-361.4
3643.982	-368.4
3646.753	-372.4
3649.523	-396.4
3652.29	-395.4
3655.055	-403.4
3657.818	-413.4
3660.579	-429.4
3663.338	-427.4
3666.095	-444.4
3668.849	-459.4
3671.602	-464.4
3674.352	-458.4
3677.101	-470.4
3679.847	-481.4
3682.591	-481.4
3685.333	-490.4
3688.073	-498.4
3690.811	-495.4
3693.547	-497.4
3696.281	-512.4
3699.013	-514.4
3701.742	-524.4
3704.47	-526.4
3707.195	-527.4
3709.919	-533.4
3712.64	-530.4
3715.359	-544.4
3718.076	-539.4
3720.792	-546.4
3723.505	-552.4
3726.216	-558.4
3728.925	-556.4
3731.632	-567.4
3734.336	-564.4
3737.039	-570.4
3739.74	-565.4
3742.439	-574.4
3745.136	-568.4
3747.83	-575.4
3750.523	-571.4
3753.213	-571.4
3755.902	-587.4
3758.589	-583.4
3761.273	-577.4
3763.956	-590.4
3766.636	-587.4
3769.315	-590.4
3771.991	-592.4
3774.665	-588.4
3777.338	-587.4
3780.008	-590.4
3782.677	-592.4
3785.343	-600.4
3788.007	-592.4
3790.67	-594.4
3793.33	-599.4
3795.989	-609.4
3798.645	-604.4
3801.299	-607.4
3803.952	-609.4
3806.602	-607.4
3809.251	-611.4
3811.897	-608.4
3814.542	-604.4
3817.184	-616.4
3819.825	-613.4
3822.463	-608.4
3825.1	-616.4
3827.735	-617.4
3830.367	-616.4
3832.998	-618.4
3835.627	-618.4
3838.253	-619.4
3840.878	-616.4
3843.501	-621.4
3846.122	-620.4
3848.741	-616.4
3851.358	-622.4
3853.973	-617.4
3856.586	-617.4
3859.197	-622.4
3861.806	-620.4
3864.414	-619.4
3867.019	-621.4
3869.622	-624.4
3872.224	-624.4
3874.823	-602.4
3877.421	-581.4
3880.016	-566.4
3882.61	-526.4
3885.202	-537.4
3887.792	-562.4
3890.38	-594.4
3892.966	-609.4
3895.55	-621.4
3898.132	-628.4
3900.713	-628.4
3903.291	-632.4
3905.868	-630.4
3908.442	-629.4
3911.015	-633.4
3913.586	-631.4
3916.155	-633.4
3918.722	-630.4
3921.287	-631.4
3923.85	-634.4
3926.411	-634.4
3928.971	-633.4
3931.528	-636.4
3934.084	-628.4
3936.638	-635.4
3939.19	-639.4
3941.74	-641.4
3944.288	-643.4
3946.834	-640.4
3949.378	-645.4
3951.921	-639.4
3954.462	-641.4
3957	-635.4
3959.537	-634.4
3962.072	-633.4
3964.606	-631.4
3967.137	-640.4
3969.667	-634.4
3972.194	-629.4
3974.72	-628.4
3977.244	-627.4
3979.766	-625.4
3982.286	-622.4
3984.805	-618.4
3987.321	-619.4
3989.836	-624.4
3992.349	-620.4
3994.86	-616.4
3997.369	-628.4
3999.877	-624.4
4002.382	-620.4
4004.886	-622.4
4007.388	-623.4
4009.888	-620.4
4012.386	-623.4
4014.883	-622.4
4017.377	-626.4
4019.87	-620.4
4022.361	-628.4
4024.85	-625.4
4027.338	-627.4
4029.823	-625.4
4032.307	-624.4
4034.789	-630.4
4037.269	-632.4
4039.747	-632.4
4042.224	-631.4
4044.699	-628.4
4047.172	-625.4
4049.643	-626.4
4052.112	-626.4
4054.58	-619.4
4057.046	-630.4
4059.51	-622.4
4061.972	-628.4
4064.432	-622.4
4066.891	-625.4
4069.348	-627.4
4071.803	-626.4
4074.256	-627.4
4076.708	-629.4
4079.158	-628.4
4081.606	-629.4
4084.052	-622.4
4086.497	-631.4
4088.939	-623.4
4091.38	-625.4
4093.819	-621.4
4096.257	-656.4
4098.693	-658.4
4101.127	-661.4
4103.559	-658.4
4105.989	-395.4
4108.418	-372.4
4110.845	-356.4
4113.27	-323.4
4115.694	-276.4
4118.115	-236.4
4120.535	-624.4
4122.954	-626.4
4125.37	-631.4
4127.785	-627.4
4130.198	-631.4
4132.609	-620.4
4135.019	-665.4
4137.427	-660.4
4139.833	-657.4
4142.237	-655.4
