Data from 2018-2-7_conc=4_RamanShift_08.txt Node
Date: Tue Feb 13 13:33:13 IST 2018
User: aro
Spectrometer: QEPB0276
Trigger mode: 0
Integration Time (sec): 3.000000E1
Scans to average: 1
Electric dark correction enabled: true
Nonlinearity correction enabled: false
Boxcar width: 0
XAxis mode: Raman Shifts
Number of Pixels in Spectrum: 1044
>>>>>Begin Spectral Data<<<<<
160.701	-167.4
166.742	19.6
172.777	560.6
178.805	2205.6
184.826	5951.6
190.841	12295.6
196.849	19377.6
202.85	24167.6
208.845	25639.6
214.833	25343.6
220.815	24858.6
226.789	24676.6
232.758	24561.6
238.719	24361.6
244.674	24024.6
250.623	23523.6
256.565	23035.6
262.5	22555.6
268.429	22073.6
274.351	21728.6
280.267	21400.6
286.176	21225.6
292.079	21018.6
297.975	20828.6
303.865	20530.6
309.748	20454.6
315.625	20340.6
321.495	20235.6
327.359	20122.6
333.217	20073.6
339.068	20102.6
344.912	20108.6
350.751	19975.6
356.583	19992.6
362.408	19937.6
368.227	19901.6
374.04	19954.6
379.847	20027.6
385.647	20128.6
391.44	20175.6
397.228	20260.6
403.009	20380.6
408.784	20421.6
414.553	20467.6
420.315	20484.6
426.071	20506.6
431.821	20475.6
437.565	20490.6
443.302	20464.6
449.033	20405.6
454.758	20390.6
460.477	20340.6
466.189	20310.6
471.896	20262.6
477.596	20210.6
483.29	20166.6
488.978	20163.6
494.66	20003.6
500.335	19878.6
506.005	19710.6
511.668	19500.6
517.325	19232.6
522.977	19070.6
528.622	18932.6
534.261	18795.6
539.894	18724.6
545.521	18693.6
551.141	18626.6
556.756	18588.6
562.365	18429.6
567.968	18392.6
573.565	18315.6
579.155	18260.6
584.74	18202.6
590.319	18113.6
595.892	18058.6
601.459	18007.6
607.02	17920.6
612.575	17838.6
618.124	17700.6
623.667	17554.6
629.204	17515.6
634.735	17419.6
640.261	17337.6
645.781	17242.6
651.294	17257.6
656.802	17204.6
662.304	17218.6
667.8	17101.6
673.29	17188.6
678.775	17069.6
684.254	17055.6
689.726	16954.6
695.193	16888.6
700.655	16853.6
706.11	16767.6
711.56	16673.6
717.004	16579.6
722.442	16562.6
727.874	16460.6
733.301	16419.6
738.722	16398.6
744.137	16341.6
749.547	16308.6
754.951	16291.6
760.349	16294.6
765.741	16327.6
771.128	16382.6
776.509	16358.6
781.885	16366.6
787.254	16293.6
792.618	16267.6
797.977	16158.6
803.33	16050.6
808.677	15934.6
814.019	15847.6
819.355	15712.6
824.686	15682.6
830.011	15647.6
835.33	15678.6
840.644	15624.6
845.952	15707.6
851.255	15691.6
856.552	15741.6
861.844	15622.6
867.13	15684.6
872.41	15600.6
877.686	15522.6
882.955	15381.6
888.219	15289.6
893.478	15102.6
898.731	14872.6
903.979	14751.6
909.221	14601.6
914.458	14593.6
919.69	14631.6
924.916	14627.6
930.136	14714.6
935.351	14715.6
940.561	14675.6
945.766	14639.6
950.965	14573.6
956.158	14449.6
961.347	14338.6
966.529	14154.6
971.707	13941.6
976.879	13795.6
982.046	13703.6
987.208	13702.6
992.364	13653.6
997.515	13757.6
1002.66	13864.6
1007.801	13999.6
1012.936	14057.6
1018.066	14130.6
1023.19	14101.6
1028.309	14098.6
1033.423	14081.6
1038.532	14005.6
1043.636	13894.6
1048.734	13689.6
1053.827	13546.6
1058.915	13418.6
1063.998	13289.6
1069.075	13256.6
1074.147	13242.6
1079.214	13346.6
1084.276	13398.6
1089.333	13441.6
1094.385	13531.6
1099.431	13620.6
1104.472	13571.6
1109.509	13476.6
1114.54	13313.6
1119.565	13187.6
1124.586	13000.6
1129.602	12884.6
1134.613	12773.6
1139.618	12670.6
1144.619	12681.6
1149.614	12697.6
1154.604	12710.6
1159.589	12757.6
1164.57	12775.6
1169.545	12833.6
1174.515	12753.6
1179.48	12693.6
1184.44	12628.6
1189.395	12535.6
1194.345	12415.6
1199.29	12339.6
1204.23	12380.6
1209.165	12345.6
1214.095	12516.6
1219.021	12555.6
1223.941	12633.6
1228.856	12670.6
1233.766	12722.6
1238.672	12729.6
1243.572	12711.6
1248.467	12608.6
1253.358	12503.6
1258.244	12285.6
1263.124	12132.6
1268	11988.6
1272.871	11825.6
1277.737	11694.6
1282.599	11676.6
1287.455	11657.6
1292.306	11652.6
1297.153	11716.6
1301.995	11757.6
1306.832	11788.6
1311.664	11767.6
1316.491	11755.6
1321.314	11667.6
1326.132	11512.6
1330.945	11251.6
1335.753	10938.6
1340.556	10697.6
1345.354	10467.6
1350.148	10322.6
1354.937	10187.6
1359.722	10210.6
1364.501	10212.6
1369.276	10300.6
1374.046	10471.6
1378.811	10595.6
1383.572	10673.6
1388.327	10765.6
1393.079	10675.6
1397.825	10591.6
1402.567	10440.6
1407.304	10311.6
1412.036	10170.6
1416.764	10138.6
1421.487	10107.6
1426.205	10003.6
1430.919	10022.6
1435.628	9980.6
1440.333	10020.6
1445.032	10051.6
1449.727	10077.6
1454.418	10065.6
1459.104	9925.6
1463.785	9710.6
1468.462	9514.6
1473.134	9340.6
1477.802	9126.6
1482.465	8949.6
1487.123	8800.6
1491.777	8796.6
1496.426	8834.6
1501.071	8893.6
1505.711	9040.6
1510.347	9182.6
1514.978	9317.6
1519.604	9489.6
1524.226	9576.6
1528.844	9619.6
1533.457	9594.6
1538.065	9526.6
1542.669	9486.6
1547.269	9391.6
1551.864	9386.6
1556.454	9356.6
1561.041	9326.6
1565.622	9335.6
1570.199	9377.6
1574.772	9440.6
1579.34	9493.6
1583.904	9541.6
1588.464	9589.6
1593.019	9615.6
1597.569	9549.6
1602.115	9468.6
1606.657	9478.6
1611.195	9391.6
1615.728	9374.6
1620.256	9318.6
1624.78	9280.6
1629.3	9331.6
1633.816	9329.6
1638.327	9395.6
1642.834	9383.6
1647.336	9448.6
1651.834	9444.6
1656.328	9431.6
1660.817	9372.6
1665.302	9268.6
1669.783	9075.6
1674.259	8840.6
1678.732	8554.6
1683.199	8294.6
1687.663	7995.6
1692.122	7730.6
1696.577	7592.6
1701.028	7552.6
1705.474	7596.6
1709.917	7675.6
1714.355	7690.6
1718.788	7677.6
1723.218	7556.6
1727.643	7448.6
1732.064	7275.6
1736.481	7116.6
1740.893	6964.6
1745.301	6739.6
1749.705	6581.6
1754.105	6402.6
1758.501	6210.6
1762.893	6041.6
1767.28	5866.6
1771.663	5720.6
1776.042	5603.6
1780.417	5564.6
1784.787	5545.6
1789.154	5575.6
1793.516	5641.6
1797.874	5759.6
1802.228	5856.6
1806.578	5925.6
1810.924	5972.6
1815.266	5898.6
1819.603	5853.6
1823.937	5756.6
1828.266	5632.6
1832.591	5592.6
1836.913	5519.6
1841.23	5458.6
1845.543	5419.6
1849.852	5387.6
1854.156	5371.6
1858.457	5338.6
1862.754	5352.6
1867.047	5329.6
1871.335	5324.6
1875.62	5303.6
1879.9	5286.6
1884.177	5243.6
1888.449	5165.6
1892.718	5149.6
1896.982	5053.6
1901.243	4986.6
1905.499	4960.6
1909.752	4948.6
1914	4954.6
1918.245	4962.6
1922.485	4972.6
1926.722	5066.6
1930.954	5094.6
1935.183	5149.6
1939.408	5185.6
1943.628	5246.6
1947.845	5259.6
1952.058	5259.6
1956.267	5195.6
1960.472	5143.6
1964.673	5060.6
1968.87	5012.6
1973.063	4925.6
1977.252	4861.6
1981.438	4780.6
1985.619	4787.6
1989.797	4711.6
1993.971	4696.6
1998.14	4671.6
2002.306	4648.6
2006.469	4643.6
2010.627	4646.6
2014.781	4589.6
2018.932	4558.6
2023.078	4522.6
2027.221	4426.6
2031.36	4372.6
2035.495	4296.6
2039.627	4243.6
2043.754	4198.6
2047.878	4148.6
2051.998	4133.6
2056.114	4078.6
2060.226	4092.6
2064.334	4100.6
2068.439	4102.6
2072.54	4124.6
2076.637	4171.6
2080.73	4166.6
2084.82	4198.6
2088.906	4213.6
2092.988	4207.6
2097.066	4208.6
2101.14	4167.6
2105.211	4160.6
2109.278	4125.6
2113.342	4090.6
2117.401	4076.6
2121.457	4048.6
2125.509	4045.6
2129.558	4015.6
2133.602	3979.6
2137.643	4008.6
2141.681	3976.6
2145.714	3962.6
2149.744	3901.6
2153.77	3896.6
2157.793	3879.6
2161.812	3821.6
2165.827	3742.6
2169.838	3708.6
2173.846	3652.6
2177.851	3587.6
2181.851	3509.6
2185.848	3480.6
2189.841	3452.6
2193.831	3402.6
2197.817	3388.6
2201.799	3368.6
2205.778	3345.6
2209.753	3323.6
2213.725	3322.6
2217.693	3321.6
2221.657	3309.6
2225.618	3301.6
2229.575	3286.6
2233.529	3275.6
2237.479	3227.6
2241.425	3187.6
2245.368	3158.6
2249.307	3097.6
2253.243	3078.6
2257.175	3008.6
2261.104	2935.6
2265.029	2949.6
2268.95	2880.6
2272.868	2873.6
2276.783	2849.6
2280.694	2820.6
2284.601	2760.6
2288.505	2763.6
2292.405	2733.6
2296.302	2717.6
2300.195	2666.6
2304.085	2666.6
2307.971	2625.6
2311.854	2578.6
2315.734	2535.6
2319.609	2496.6
2323.482	2477.6
2327.351	2455.6
2331.216	2467.6
2335.078	2425.6
2338.937	2401.6
2342.792	2402.6
2346.643	2411.6
2350.492	2406.6
2354.336	2410.6
2358.178	2415.6
2362.015	2444.6
2365.85	2427.6
2369.681	2421.6
2373.508	2415.6
2377.333	2425.6
2381.153	2430.6
2384.971	2405.6
2388.785	2387.6
2392.595	2376.6
2396.402	2354.6
2400.206	2325.6
2404.007	2288.6
2407.804	2309.6
2411.597	2317.6
2415.388	2293.6
2419.174	2253.6
2422.958	2246.6
2426.738	2221.6
2430.515	2216.6
2434.289	2196.6
2438.059	2163.6
2441.825	2172.6
2445.589	2132.6
2449.349	2117.6
2453.106	2065.6
2456.859	2047.6
2460.61	2011.6
2464.356	1978.6
2468.1	1970.6
2471.84	1963.6
2475.577	1937.6
2479.311	1923.6
2483.041	1906.6
2486.768	1908.6
2490.492	1896.6
2494.213	1889.6
2497.93	1868.6
2501.644	1881.6
2505.355	1846.6
2509.062	1850.6
2512.766	1826.6
2516.467	1836.6
2520.165	1815.6
2523.859	1794.6
2527.551	1791.6
2531.239	1757.6
2534.923	1750.6
2538.605	1738.6
2542.283	1737.6
2545.958	1743.6
2549.63	1741.6
2553.299	1714.6
2556.964	1715.6
2560.626	1697.6
2564.285	1715.6
2567.941	1697.6
2571.594	1683.6
2575.243	1669.6
2578.89	1674.6
2582.533	1666.6
2586.173	1640.6
2589.809	1637.6
2593.443	1609.6
2597.073	1588.6
2600.701	1565.6
2604.325	1561.6
2607.946	1574.6
2611.564	1556.6
2615.178	1558.6
2618.79	1533.6
2622.398	1534.6
2626.004	1499.6
2629.606	1482.6
2633.205	1462.6
2636.801	1439.6
2640.394	1421.6
2643.983	1402.6
2647.57	1380.6
2651.153	1370.6
2654.734	1333.6
2658.311	1328.6
2661.885	1288.6
2665.456	1290.6
2669.025	1273.6
2672.589	1266.6
2676.151	1210.6
2679.71	1215.6
2683.266	1196.6
2686.819	1159.6
2690.368	1164.6
2693.915	1149.6
2697.458	1111.6
2700.999	1076.6
2704.536	1048.6
2708.071	1017.6
2711.602	1012.6
2715.13	978.6
2718.656	957.6
2722.178	920.6
2725.697	928.6
2729.214	910.6
2732.727	906.6
2736.237	890.6
2739.744	900.6
2743.249	894.6
2746.75	905.6
2750.248	899.6
2753.743	907.6
2757.236	913.6
2760.725	915.6
2764.211	937.6
2767.695	932.6
2771.175	922.6
2774.652	940.6
2778.127	928.6
2781.598	917.6
2785.067	927.6
2788.532	911.6
2791.995	906.6
2795.455	929.6
2798.911	901.6
2802.365	937.6
2805.816	915.6
2809.264	916.6
2812.709	916.6
2816.151	907.6
2819.59	918.6
2823.026	921.6
2826.46	917.6
2829.89	910.6
2833.318	914.6
2836.742	914.6
2840.164	935.6
2843.583	946.6
2846.999	960.6
2850.412	960.6
2853.822	975.6
2857.229	1000.6
2860.634	996.6
2864.035	1034.6
2867.434	1044.6
2870.83	1061.6
2874.223	1095.6
2877.613	1111.6
2881	1136.6
2884.385	1140.6
2887.766	1126.6
2891.145	1132.6
2894.521	1116.6
2897.894	1115.6
2901.264	1114.6
2904.631	1103.6
2907.996	1129.6
2911.358	1133.6
2914.717	1129.6
2918.073	1141.6
2921.426	1156.6
2924.777	1181.6
2928.124	1206.6
2931.469	1236.6
2934.811	1252.6
2938.15	1255.6
2941.487	1263.6
2944.821	1288.6
2948.152	1264.6
2951.48	1275.6
2954.805	1254.6
2958.128	1250.6
2961.447	1229.6
2964.765	1239.6
2968.079	1220.6
2971.39	1235.6
2974.699	1256.6
2978.005	1282.6
2981.308	1295.6
2984.609	1318.6
2987.907	1332.6
2991.202	1372.6
2994.494	1390.6
2997.784	1412.6
3001.07	1449.6
3004.355	1486.6
3007.636	1517.6
3010.915	1531.6
3014.191	1544.6
3017.464	1529.6
3020.734	1557.6
3024.002	1570.6
3027.267	1591.6
3030.53	1594.6
3033.789	1616.6
3037.046	1646.6
3040.301	1652.6
3043.552	1707.6
3046.801	1741.6
3050.048	1753.6
3053.291	1823.6
3056.532	1908.6
3059.771	1930.6
3063.006	1991.6
3066.239	2063.6
3069.469	2097.6
3072.697	2164.6
3075.922	2224.6
3079.144	2279.6
3082.364	2324.6
3085.581	2387.6
3088.795	2431.6
3092.007	2492.6
3095.216	2532.6
3098.423	2596.6
3101.627	2657.6
3104.828	2692.6
3108.026	2769.6
3111.222	2815.6
3114.416	2897.6
3117.607	2977.6
3120.795	3037.6
3123.98	3102.6
3127.163	3184.6
3130.344	3263.6
3133.521	3324.6
3136.696	3401.6
3139.869	3441.6
3143.039	3520.6
3146.206	3568.6
3149.371	3601.6
3152.533	3639.6
3155.693	3669.6
3158.85	3679.6
3162.005	3723.6
3165.157	3732.6
3168.306	3729.6
3171.453	3764.6
3174.597	3791.6
3177.739	3756.6
3180.878	3755.6
3184.014	3757.6
3187.149	3761.6
3190.28	3753.6
3193.409	3778.6
3196.536	3800.6
3199.659	3789.6
3202.781	3801.6
3205.9	3780.6
3209.016	3799.6
3212.13	3752.6
3215.241	3743.6
3218.35	3706.6
3221.456	3654.6
3224.56	3621.6
3227.661	3589.6
3230.76	3534.6
3233.856	3519.6
3236.95	3477.6
3240.041	3451.6
3243.13	3425.6
3246.216	3398.6
3249.3	3391.6
3252.382	3385.6
3255.46	3350.6
3258.537	3344.6
3261.611	3348.6
3264.682	3349.6
3267.751	3337.6
3270.818	3322.6
3273.882	3306.6
3276.943	3295.6
3280.002	3289.6
3283.059	3247.6
3286.113	3210.6
3289.165	3156.6
3292.214	3099.6
3295.261	3084.6
3298.306	3016.6
3301.348	2962.6
3304.387	2911.6
3307.425	2906.6
3310.459	2822.6
3313.492	2795.6
3316.521	2750.6
3319.549	2733.6
3322.574	2689.6
3325.597	2685.6
3328.617	2659.6
3331.635	2646.6
3334.65	2624.6
3337.663	2604.6
3340.674	2611.6
3343.682	2586.6
3346.688	2585.6
3349.691	2565.6
3352.692	2569.6
3355.691	2520.6
3358.687	2497.6
3361.681	2473.6
3364.673	2457.6
3367.662	2431.6
3370.649	2378.6
3373.633	2348.6
3376.615	2317.6
3379.595	2270.6
3382.572	2242.6
3385.547	2236.6
3388.52	2188.6
3391.49	2119.6
3394.458	2093.6
3397.424	2066.6
3400.387	2061.6
3403.348	2025.6
3406.307	2007.6
3409.263	1991.6
3412.217	1966.6
3415.168	1946.6
3418.118	1910.6
3421.065	1876.6
3424.009	1866.6
3426.951	1816.6
3429.891	1792.6
3432.829	1730.6
3435.764	1712.6
3438.697	1666.6
3441.628	1617.6
3444.557	1564.6
3447.483	1517.6
3450.407	1485.6
3453.328	1419.6
3456.247	1391.6
3459.164	1333.6
3462.079	1277.6
3464.991	1233.6
3467.902	1178.6
3470.809	1129.6
3473.715	1078.6
3476.618	1057.6
3479.519	1006.6
3482.418	979.6
3485.315	939.6
3488.209	905.6
3491.101	873.6
3493.99	840.6
3496.878	793.6
3499.763	775.6
3502.646	730.6
3505.527	694.6
3508.405	669.6
3511.281	627.6
3514.155	602.6
3517.027	552.6
3519.897	513.6
3522.764	488.6
3525.629	444.6
3528.492	394.6
3531.352	356.6
3534.211	335.6
3537.067	288.6
3539.921	260.6
3542.773	225.6
3545.622	196.6
3548.469	167.6
3551.315	144.6
3554.157	117.6
3556.998	87.6
3559.837	77.6
3562.673	48.6
3565.507	30.6
3568.339	17.6
3571.169	-8.4
3573.996	-35.4
3576.822	-39.4
3579.645	-63.4
3582.466	-94.4
3585.285	-105.4
3588.101	-121.4
3590.916	-146.4
3593.728	-166.4
3596.538	-169.4
3599.346	-201.4
3602.152	-210.4
3604.956	-226.4
3607.757	-239.4
3610.556	-247.4
3613.354	-270.4
3616.149	-279.4
3618.942	-290.4
3621.732	-297.4
3624.521	-313.4
3627.307	-318.4
3630.092	-327.4
3632.874	-350.4
3635.654	-353.4
3638.432	-344.4
3641.208	-360.4
3643.982	-373.4
3646.753	-368.4
3649.523	-393.4
3652.29	-398.4
3655.055	-409.4
3657.818	-407.4
3660.579	-422.4
3663.338	-427.4
3666.095	-444.4
3668.849	-453.4
3671.602	-462.4
3674.352	-466.4
3677.101	-467.4
3679.847	-481.4
3682.591	-483.4
3685.333	-492.4
3688.073	-503.4
3690.811	-498.4
3693.547	-503.4
3696.281	-514.4
3699.013	-519.4
3701.742	-523.4
3704.47	-527.4
3707.195	-529.4
3709.919	-537.4
3712.64	-536.4
3715.359	-537.4
3718.076	-538.4
3720.792	-537.4
3723.505	-544.4
3726.216	-554.4
3728.925	-552.4
3731.632	-561.4
3734.336	-565.4
3737.039	-571.4
3739.74	-569.4
3742.439	-569.4
3745.136	-577.4
3747.83	-575.4
3750.523	-571.4
3753.213	-581.4
3755.902	-580.4
3758.589	-574.4
3761.273	-579.4
3763.956	-586.4
3766.636	-580.4
3769.315	-589.4
3771.991	-585.4
3774.665	-591.4
3777.338	-593.4
3780.008	-590.4
3782.677	-593.4
3785.343	-594.4
3788.007	-589.4
3790.67	-595.4
3793.33	-601.4
3795.989	-602.4
3798.645	-606.4
3801.299	-607.4
3803.952	-609.4
3806.602	-605.4
3809.251	-609.4
3811.897	-603.4
3814.542	-601.4
3817.184	-609.4
3819.825	-607.4
3822.463	-604.4
3825.1	-607.4
3827.735	-615.4
3830.367	-613.4
3832.998	-616.4
3835.627	-616.4
3838.253	-616.4
3840.878	-616.4
3843.501	-616.4
3846.122	-615.4
3848.741	-615.4
3851.358	-622.4
3853.973	-613.4
3856.586	-618.4
3859.197	-619.4
3861.806	-621.4
3864.414	-613.4
3867.019	-610.4
3869.622	-620.4
3872.224	-612.4
3874.823	-601.4
3877.421	-581.4
3880.016	-569.4
3882.61	-534.4
3885.202	-535.4
3887.792	-559.4
3890.38	-587.4
3892.966	-604.4
3895.55	-614.4
3898.132	-622.4
3900.713	-630.4
3903.291	-628.4
3905.868	-629.4
3908.442	-625.4
3911.015	-625.4
3913.586	-623.4
3916.155	-624.4
3918.722	-624.4
3921.287	-627.4
3923.85	-627.4
3926.411	-631.4
3928.971	-630.4
3931.528	-632.4
3934.084	-624.4
3936.638	-632.4
3939.19	-634.4
3941.74	-637.4
3944.288	-639.4
3946.834	-633.4
3949.378	-637.4
3951.921	-633.4
3954.462	-632.4
3957	-628.4
3959.537	-619.4
3962.072	-628.4
3964.606	-626.4
3967.137	-637.4
3969.667	-628.4
3972.194	-625.4
3974.72	-629.4
3977.244	-616.4
3979.766	-624.4
3982.286	-626.4
3984.805	-619.4
3987.321	-620.4
3989.836	-618.4
3992.349	-621.4
3994.86	-615.4
3997.369	-627.4
3999.877	-614.4
4002.382	-611.4
4004.886	-625.4
4007.388	-616.4
4009.888	-613.4
4012.386	-619.4
4014.883	-619.4
4017.377	-618.4
4019.87	-619.4
4022.361	-620.4
4024.85	-619.4
4027.338	-624.4
4029.823	-620.4
4032.307	-626.4
4034.789	-626.4
4037.269	-626.4
4039.747	-625.4
4042.224	-614.4
4044.699	-621.4
4047.172	-619.4
4049.643	-619.4
4052.112	-620.4
4054.58	-616.4
4057.046	-623.4
4059.51	-623.4
4061.972	-626.4
4064.432	-623.4
4066.891	-628.4
4069.348	-626.4
4071.803	-633.4
4074.256	-627.4
4076.708	-625.4
4079.158	-623.4
4081.606	-618.4
4084.052	-618.4
4086.497	-623.4
4088.939	-616.4
4091.38	-617.4
4093.819	-615.4
4096.257	-654.4
4098.693	-653.4
4101.127	-657.4
4103.559	-653.4
4105.989	-392.4
4108.418	-371.4
4110.845	-352.4
4113.27	-328.4
4115.694	-288.4
4118.115	-237.4
4120.535	-615.4
4122.954	-624.4
4125.37	-618.4
4127.785	-619.4
4130.198	-625.4
4132.609	-619.4
4135.019	-657.4
4137.427	-655.4
4139.833	-653.4
4142.237	-652.4
