Data from 2018-2-7_conc=2_RamanShift_30.txt Node
Date: Tue Feb 13 12:05:44 IST 2018
User: aro
Spectrometer: QEPB0276
Trigger mode: 0
Integration Time (sec): 3.000000E1
Scans to average: 1
Electric dark correction enabled: true
Nonlinearity correction enabled: false
Boxcar width: 0
XAxis mode: Raman Shifts
Number of Pixels in Spectrum: 1044
>>>>>Begin Spectral Data<<<<<
160.701	-148.1
166.742	26.9
172.777	557.9
178.805	2140.9
184.826	5821.9
190.841	11979.9
196.849	18929.9
202.85	23765.9
208.845	25195.9
214.833	24960.9
220.815	24570.9
226.789	24340.9
232.758	24210.9
238.719	24021.9
244.674	23746.9
250.623	23238.9
256.565	22841.9
262.5	22281.9
268.429	21906.9
274.351	21633.9
280.267	21262.9
286.176	21050.9
292.079	20831.9
297.975	20623.9
303.865	20488.9
309.748	20351.9
315.625	20188.9
321.495	20065.9
327.359	19984.9
333.217	19942.9
339.068	19920.9
344.912	19903.9
350.751	19896.9
356.583	19856.9
362.408	19882.9
368.227	19874.9
374.04	19843.9
379.847	19917.9
385.647	20023.9
391.44	20106.9
397.228	20196.9
403.009	20285.9
408.784	20306.9
414.553	20380.9
420.315	20404.9
426.071	20448.9
431.821	20400.9
437.565	20424.9
443.302	20368.9
449.033	20322.9
454.758	20275.9
460.477	20230.9
466.189	20168.9
471.896	20164.9
477.596	20107.9
483.29	20020.9
488.978	20047.9
494.66	19938.9
500.335	19801.9
506.005	19620.9
511.668	19324.9
517.325	19172.9
522.977	19070.9
528.622	18862.9
534.261	18768.9
539.894	18669.9
545.521	18549.9
551.141	18538.9
556.756	18462.9
562.365	18351.9
567.968	18338.9
573.565	18279.9
579.155	18174.9
584.74	18085.9
590.319	18055.9
595.892	17953.9
601.459	17868.9
607.02	17842.9
612.575	17709.9
618.124	17626.9
623.667	17467.9
629.204	17451.9
634.735	17375.9
640.261	17297.9
645.781	17244.9
651.294	17197.9
656.802	17177.9
662.304	17163.9
667.8	17077.9
673.29	17077.9
678.775	17048.9
684.254	17005.9
689.726	16916.9
695.193	16899.9
700.655	16768.9
706.11	16717.9
711.56	16662.9
717.004	16559.9
722.442	16442.9
727.874	16475.9
733.301	16423.9
738.722	16264.9
744.137	16314.9
749.547	16290.9
754.951	16297.9
760.349	16277.9
765.741	16298.9
771.128	16329.9
776.509	16335.9
781.885	16318.9
787.254	16299.9
792.618	16234.9
797.977	16078.9
803.33	15986.9
808.677	15902.9
814.019	15857.9
819.355	15697.9
824.686	15685.9
830.011	15656.9
835.33	15651.9
840.644	15666.9
845.952	15668.9
851.255	15699.9
856.552	15701.9
861.844	15703.9
867.13	15685.9
872.41	15609.9
877.686	15549.9
882.955	15389.9
888.219	15271.9
893.478	15064.9
898.731	14865.9
903.979	14722.9
909.221	14687.9
914.458	14615.9
919.69	14602.9
924.916	14573.9
930.136	14712.9
935.351	14751.9
940.561	14702.9
945.766	14669.9
950.965	14567.9
956.158	14499.9
961.347	14360.9
966.529	14191.9
971.707	13962.9
976.879	13815.9
982.046	13747.9
987.208	13688.9
992.364	13676.9
997.515	13768.9
1002.66	13896.9
1007.801	14041.9
1012.936	14135.9
1018.066	14147.9
1023.19	14102.9
1028.309	14150.9
1033.423	14048.9
1038.532	13983.9
1043.636	13869.9
1048.734	13726.9
1053.827	13554.9
1058.915	13391.9
1063.998	13317.9
1069.075	13277.9
1074.147	13295.9
1079.214	13341.9
1084.276	13421.9
1089.333	13553.9
1094.385	13567.9
1099.431	13596.9
1104.472	13594.9
1109.509	13542.9
1114.54	13395.9
1119.565	13192.9
1124.586	13064.9
1129.602	12913.9
1134.613	12828.9
1139.618	12761.9
1144.619	12705.9
1149.614	12722.9
1154.604	12727.9
1159.589	12807.9
1164.57	12841.9
1169.545	12778.9
1174.515	12823.9
1179.48	12769.9
1184.44	12657.9
1189.395	12574.9
1194.345	12504.9
1199.29	12393.9
1204.23	12426.9
1209.165	12482.9
1214.095	12516.9
1219.021	12567.9
1223.941	12659.9
1228.856	12746.9
1233.766	12804.9
1238.672	12789.9
1243.572	12763.9
1248.467	12680.9
1253.358	12531.9
1258.244	12314.9
1263.124	12165.9
1268	12021.9
1272.871	11823.9
1277.737	11753.9
1282.599	11690.9
1287.455	11735.9
1292.306	11756.9
1297.153	11770.9
1301.995	11806.9
1306.832	11786.9
1311.664	11828.9
1316.491	11794.9
1321.314	11670.9
1326.132	11551.9
1330.945	11254.9
1335.753	10913.9
1340.556	10710.9
1345.354	10545.9
1350.148	10363.9
1354.937	10279.9
1359.722	10263.9
1364.501	10311.9
1369.276	10374.9
1374.046	10482.9
1378.811	10618.9
1383.572	10707.9
1388.327	10760.9
1393.079	10748.9
1397.825	10610.9
1402.567	10461.9
1407.304	10320.9
1412.036	10259.9
1416.764	10198.9
1421.487	10148.9
1426.205	10039.9
1430.919	10025.9
1435.628	10044.9
1440.333	10032.9
1445.032	10086.9
1449.727	10143.9
1454.418	10097.9
1459.104	9977.9
1463.785	9792.9
1468.462	9564.9
1473.134	9388.9
1477.802	9209.9
1482.465	9035.9
1487.123	8907.9
1491.777	8879.9
1496.426	8887.9
1501.071	9032.9
1505.711	9146.9
1510.347	9271.9
1514.978	9399.9
1519.604	9599.9
1524.226	9599.9
1528.844	9641.9
1533.457	9601.9
1538.065	9587.9
1542.669	9486.9
1547.269	9413.9
1551.864	9446.9
1556.454	9454.9
1561.041	9400.9
1565.622	9355.9
1570.199	9382.9
1574.772	9462.9
1579.34	9524.9
1583.904	9564.9
1588.464	9618.9
1593.019	9617.9
1597.569	9582.9
1602.115	9555.9
1606.657	9457.9
1611.195	9426.9
1615.728	9373.9
1620.256	9316.9
1624.78	9311.9
1629.3	9331.9
1633.816	9368.9
1638.327	9388.9
1642.834	9407.9
1647.336	9448.9
1651.834	9433.9
1656.328	9466.9
1660.817	9373.9
1665.302	9268.9
1669.783	9092.9
1674.259	8879.9
1678.732	8589.9
1683.199	8314.9
1687.663	8025.9
1692.122	7759.9
1696.577	7677.9
1701.028	7637.9
1705.474	7670.9
1709.917	7736.9
1714.355	7744.9
1718.788	7708.9
1723.218	7571.9
1727.643	7473.9
1732.064	7334.9
1736.481	7183.9
1740.893	7038.9
1745.301	6799.9
1749.705	6635.9
1754.105	6423.9
1758.501	6242.9
1762.893	6062.9
1767.28	5924.9
1771.663	5809.9
1776.042	5690.9
1780.417	5634.9
1784.787	5659.9
1789.154	5694.9
1793.516	5778.9
1797.874	5877.9
1802.228	5961.9
1806.578	6004.9
1810.924	6009.9
1815.266	5992.9
1819.603	5886.9
1823.937	5812.9
1828.266	5694.9
1832.591	5610.9
1836.913	5587.9
1841.23	5564.9
1845.543	5501.9
1849.852	5464.9
1854.156	5422.9
1858.457	5430.9
1862.754	5446.9
1867.047	5425.9
1871.335	5430.9
1875.62	5397.9
1879.9	5375.9
1884.177	5293.9
1888.449	5299.9
1892.718	5194.9
1896.982	5132.9
1901.243	5105.9
1905.499	5068.9
1909.752	5039.9
1914	5049.9
1918.245	5028.9
1922.485	5074.9
1926.722	5113.9
1930.954	5205.9
1935.183	5239.9
1939.408	5279.9
1943.628	5353.9
1947.845	5319.9
1952.058	5324.9
1956.267	5280.9
1960.472	5211.9
1964.673	5132.9
1968.87	5054.9
1973.063	4993.9
1977.252	4911.9
1981.438	4892.9
1985.619	4811.9
1989.797	4779.9
1993.971	4757.9
1998.14	4768.9
2002.306	4732.9
2006.469	4728.9
2010.627	4674.9
2014.781	4660.9
2018.932	4594.9
2023.078	4564.9
2027.221	4505.9
2031.36	4421.9
2035.495	4359.9
2039.627	4268.9
2043.754	4238.9
2047.878	4216.9
2051.998	4169.9
2056.114	4152.9
2060.226	4172.9
2064.334	4140.9
2068.439	4172.9
2072.54	4220.9
2076.637	4194.9
2080.73	4236.9
2084.82	4248.9
2088.906	4277.9
2092.988	4280.9
2097.066	4236.9
2101.14	4216.9
2105.211	4216.9
2109.278	4159.9
2113.342	4137.9
2117.401	4130.9
2121.457	4130.9
2125.509	4077.9
2129.558	4083.9
2133.602	4052.9
2137.643	4035.9
2141.681	4028.9
2145.714	4020.9
2149.744	3978.9
2153.77	3952.9
2157.793	3899.9
2161.812	3824.9
2165.827	3806.9
2169.838	3734.9
2173.846	3692.9
2177.851	3622.9
2181.851	3553.9
2185.848	3500.9
2189.841	3483.9
2193.831	3452.9
2197.817	3437.9
2201.799	3421.9
2205.778	3399.9
2209.753	3384.9
2213.725	3357.9
2217.693	3333.9
2221.657	3333.9
2225.618	3361.9
2229.575	3307.9
2233.529	3289.9
2237.479	3265.9
2241.425	3240.9
2245.368	3154.9
2249.307	3121.9
2253.243	3095.9
2257.175	3050.9
2261.104	3001.9
2265.029	2962.9
2268.95	2948.9
2272.868	2892.9
2276.783	2846.9
2280.694	2859.9
2284.601	2832.9
2288.505	2814.9
2292.405	2757.9
2296.302	2761.9
2300.195	2746.9
2304.085	2672.9
2307.971	2633.9
2311.854	2623.9
2315.734	2587.9
2319.609	2542.9
2323.482	2503.9
2327.351	2472.9
2331.216	2498.9
2335.078	2474.9
2338.937	2438.9
2342.792	2440.9
2346.643	2416.9
2350.492	2425.9
2354.336	2414.9
2358.178	2424.9
2362.015	2434.9
2365.85	2453.9
2369.681	2478.9
2373.508	2452.9
2377.333	2447.9
2381.153	2459.9
2384.971	2436.9
2388.785	2423.9
2392.595	2436.9
2396.402	2393.9
2400.206	2368.9
2404.007	2340.9
2407.804	2335.9
2411.597	2316.9
2415.388	2309.9
2419.174	2284.9
2422.958	2248.9
2426.738	2254.9
2430.515	2254.9
2434.289	2207.9
2438.059	2186.9
2441.825	2164.9
2445.589	2158.9
2449.349	2122.9
2453.106	2104.9
2456.859	2103.9
2460.61	2038.9
2464.356	2036.9
2468.1	2007.9
2471.84	1987.9
2475.577	1960.9
2479.311	1964.9
2483.041	1946.9
2486.768	1940.9
2490.492	1944.9
2494.213	1904.9
2497.93	1887.9
2501.644	1881.9
2505.355	1884.9
2509.062	1855.9
2512.766	1866.9
2516.467	1855.9
2520.165	1843.9
2523.859	1831.9
2527.551	1787.9
2531.239	1800.9
2534.923	1795.9
2538.605	1767.9
2542.283	1763.9
2545.958	1756.9
2549.63	1759.9
2553.299	1762.9
2556.964	1751.9
2560.626	1725.9
2564.285	1731.9
2567.941	1732.9
2571.594	1718.9
2575.243	1725.9
2578.89	1693.9
2582.533	1694.9
2586.173	1675.9
2589.809	1662.9
2593.443	1659.9
2597.073	1624.9
2600.701	1608.9
2604.325	1608.9
2607.946	1590.9
2611.564	1572.9
2615.178	1573.9
2618.79	1553.9
2622.398	1546.9
2626.004	1522.9
2629.606	1504.9
2633.205	1492.9
2636.801	1474.9
2640.394	1461.9
2643.983	1437.9
2647.57	1412.9
2651.153	1389.9
2654.734	1362.9
2658.311	1351.9
2661.885	1323.9
2665.456	1290.9
2669.025	1302.9
2672.589	1270.9
2676.151	1270.9
2679.71	1256.9
2683.266	1212.9
2686.819	1204.9
2690.368	1175.9
2693.915	1151.9
2697.458	1122.9
2700.999	1103.9
2704.536	1076.9
2708.071	1060.9
2711.602	1035.9
2715.13	1003.9
2718.656	980.9
2722.178	948.9
2725.697	957.9
2729.214	915.9
2732.727	937.9
2736.237	929.9
2739.744	923.9
2743.249	941.9
2746.75	921.9
2750.248	928.9
2753.743	939.9
2757.236	948.9
2760.725	954.9
2764.211	948.9
2767.695	955.9
2771.175	953.9
2774.652	939.9
2778.127	958.9
2781.598	955.9
2785.067	947.9
2788.532	939.9
2791.995	929.9
2795.455	939.9
2798.911	934.9
2802.365	934.9
2805.816	948.9
2809.264	953.9
2812.709	941.9
2816.151	930.9
2819.59	942.9
2823.026	931.9
2826.46	943.9
2829.89	941.9
2833.318	946.9
2836.742	962.9
2840.164	961.9
2843.583	964.9
2846.999	977.9
2850.412	1011.9
2853.822	997.9
2857.229	1009.9
2860.634	1017.9
2864.035	1036.9
2867.434	1068.9
2870.83	1085.9
2874.223	1100.9
2877.613	1114.9
2881	1136.9
2884.385	1146.9
2887.766	1132.9
2891.145	1141.9
2894.521	1125.9
2897.894	1119.9
2901.264	1136.9
2904.631	1117.9
2907.996	1120.9
2911.358	1121.9
2914.717	1139.9
2918.073	1142.9
2921.426	1177.9
2924.777	1175.9
2928.124	1220.9
2931.469	1220.9
2934.811	1258.9
2938.15	1252.9
2941.487	1258.9
2944.821	1259.9
2948.152	1257.9
2951.48	1247.9
2954.805	1253.9
2958.128	1246.9
2961.447	1235.9
2964.765	1210.9
2968.079	1202.9
2971.39	1220.9
2974.699	1262.9
2978.005	1262.9
2981.308	1280.9
2984.609	1308.9
2987.907	1320.9
2991.202	1364.9
2994.494	1384.9
2997.784	1414.9
3001.07	1436.9
3004.355	1464.9
3007.636	1480.9
3010.915	1496.9
3014.191	1502.9
3017.464	1529.9
3020.734	1520.9
3024.002	1552.9
3027.267	1564.9
3030.53	1581.9
3033.789	1590.9
3037.046	1612.9
3040.301	1636.9
3043.552	1672.9
3046.801	1697.9
3050.048	1739.9
3053.291	1788.9
3056.532	1835.9
3059.771	1879.9
3063.006	1939.9
3066.239	2007.9
3069.469	2062.9
3072.697	2124.9
3075.922	2161.9
3079.144	2222.9
3082.364	2243.9
3085.581	2287.9
3088.795	2371.9
3092.007	2409.9
3095.216	2449.9
3098.423	2515.9
3101.627	2554.9
3104.828	2618.9
3108.026	2689.9
3111.222	2750.9
3114.416	2803.9
3117.607	2879.9
3120.795	2948.9
3123.98	3008.9
3127.163	3083.9
3130.344	3149.9
3133.521	3238.9
3136.696	3294.9
3139.869	3386.9
3143.039	3420.9
3146.206	3469.9
3149.371	3499.9
3152.533	3511.9
3155.693	3554.9
3158.85	3593.9
3162.005	3605.9
3165.157	3603.9
3168.306	3641.9
3171.453	3641.9
3174.597	3648.9
3177.739	3645.9
3180.878	3620.9
3184.014	3675.9
3187.149	3646.9
3190.28	3636.9
3193.409	3666.9
3196.536	3685.9
3199.659	3664.9
3202.781	3701.9
3205.9	3697.9
3209.016	3690.9
3212.13	3675.9
3215.241	3638.9
3218.35	3616.9
3221.456	3538.9
3224.56	3524.9
3227.661	3489.9
3230.76	3435.9
3233.856	3373.9
3236.95	3382.9
3240.041	3341.9
3243.13	3302.9
3246.216	3284.9
3249.3	3267.9
3252.382	3245.9
3255.46	3256.9
3258.537	3254.9
3261.611	3230.9
3264.682	3244.9
3267.751	3238.9
3270.818	3231.9
3273.882	3189.9
3276.943	3221.9
3280.002	3172.9
3283.059	3142.9
3286.113	3122.9
3289.165	3061.9
3292.214	3038.9
3295.261	2981.9
3298.306	2911.9
3301.348	2875.9
3304.387	2842.9
3307.425	2780.9
3310.459	2740.9
3313.492	2712.9
3316.521	2660.9
3319.549	2641.9
3322.574	2582.9
3325.597	2585.9
3328.617	2565.9
3331.635	2570.9
3334.65	2548.9
3337.663	2525.9
3340.674	2516.9
3343.682	2512.9
3346.688	2493.9
3349.691	2475.9
3352.692	2451.9
3355.691	2463.9
3358.687	2421.9
3361.681	2395.9
3364.673	2366.9
3367.662	2342.9
3370.649	2289.9
3373.633	2274.9
3376.615	2227.9
3379.595	2215.9
3382.572	2150.9
3385.547	2132.9
3388.52	2117.9
3391.49	2075.9
3394.458	2052.9
3397.424	2014.9
3400.387	1988.9
3403.348	1937.9
3406.307	1928.9
3409.263	1899.9
3412.217	1878.9
3415.168	1864.9
3418.118	1840.9
3421.065	1812.9
3424.009	1786.9
3426.951	1756.9
3429.891	1730.9
3432.829	1687.9
3435.764	1643.9
3438.697	1609.9
3441.628	1570.9
3444.557	1521.9
3447.483	1459.9
3450.407	1436.9
3453.328	1369.9
3456.247	1315.9
3459.164	1275.9
3462.079	1224.9
3464.991	1176.9
3467.902	1124.9
3470.809	1090.9
3473.715	1047.9
3476.618	1018.9
3479.519	981.9
3482.418	959.9
3485.315	920.9
3488.209	877.9
3491.101	836.9
3493.99	816.9
3496.878	757.9
3499.763	741.9
3502.646	708.9
3505.527	685.9
3508.405	653.9
3511.281	598.9
3514.155	552.9
3517.027	527.9
3519.897	500.9
3522.764	458.9
3525.629	422.9
3528.492	377.9
3531.352	335.9
3534.211	310.9
3537.067	287.9
3539.921	235.9
3542.773	224.9
3545.622	182.9
3548.469	156.9
3551.315	132.9
3554.157	111.9
3556.998	80.9
3559.837	61.9
3562.673	39.9
3565.507	10.9
3568.339	4.9
3571.169	-14.1
3573.996	-29.1
3576.822	-55.1
3579.645	-74.1
3582.466	-100.1
3585.285	-111.1
3588.101	-129.1
3590.916	-139.1
3593.728	-169.1
3596.538	-180.1
3599.346	-198.1
3602.152	-211.1
3604.956	-231.1
3607.757	-242.1
3610.556	-255.1
3613.354	-269.1
3616.149	-280.1
3618.942	-283.1
3621.732	-301.1
3624.521	-313.1
3627.307	-316.1
3630.092	-324.1
3632.874	-335.1
3635.654	-357.1
3638.432	-351.1
3641.208	-365.1
3643.982	-367.1
3646.753	-370.1
3649.523	-380.1
3652.29	-391.1
3655.055	-393.1
3657.818	-406.1
3660.579	-417.1
3663.338	-431.1
3666.095	-436.1
3668.849	-453.1
3671.602	-465.1
3674.352	-459.1
3677.101	-462.1
3679.847	-473.1
3682.591	-478.1
3685.333	-488.1
3688.073	-484.1
3690.811	-492.1
3693.547	-497.1
3696.281	-501.1
3699.013	-501.1
3701.742	-512.1
3704.47	-516.1
3707.195	-529.1
3709.919	-522.1
3712.64	-534.1
3715.359	-533.1
3718.076	-529.1
3720.792	-541.1
3723.505	-540.1
3726.216	-546.1
3728.925	-545.1
3731.632	-550.1
3734.336	-559.1
3737.039	-560.1
3739.74	-556.1
3742.439	-559.1
3745.136	-566.1
3747.83	-564.1
3750.523	-563.1
3753.213	-567.1
3755.902	-569.1
3758.589	-567.1
3761.273	-571.1
3763.956	-580.1
3766.636	-575.1
3769.315	-578.1
3771.991	-576.1
3774.665	-583.1
3777.338	-583.1
3780.008	-578.1
3782.677	-578.1
3785.343	-586.1
3788.007	-580.1
3790.67	-587.1
3793.33	-589.1
3795.989	-588.1
3798.645	-593.1
3801.299	-593.1
3803.952	-593.1
3806.602	-592.1
3809.251	-593.1
3811.897	-593.1
3814.542	-592.1
3817.184	-594.1
3819.825	-598.1
3822.463	-592.1
3825.1	-598.1
3827.735	-605.1
3830.367	-606.1
3832.998	-607.1
3835.627	-606.1
3838.253	-609.1
3840.878	-604.1
3843.501	-607.1
3846.122	-607.1
3848.741	-603.1
3851.358	-611.1
3853.973	-602.1
3856.586	-600.1
3859.197	-607.1
3861.806	-607.1
3864.414	-598.1
3867.019	-605.1
3869.622	-607.1
3872.224	-606.1
3874.823	-599.1
3877.421	-578.1
3880.016	-569.1
3882.61	-534.1
3885.202	-534.1
3887.792	-564.1
3890.38	-578.1
3892.966	-603.1
3895.55	-608.1
3898.132	-610.1
3900.713	-617.1
3903.291	-619.1
3905.868	-618.1
3908.442	-617.1
3911.015	-615.1
3913.586	-615.1
3916.155	-618.1
3918.722	-616.1
3921.287	-619.1
3923.85	-619.1
3926.411	-627.1
3928.971	-619.1
3931.528	-623.1
3934.084	-614.1
3936.638	-624.1
3939.19	-627.1
3941.74	-629.1
3944.288	-628.1
3946.834	-621.1
3949.378	-624.1
3951.921	-621.1
3954.462	-621.1
3957	-619.1
3959.537	-612.1
3962.072	-615.1
3964.606	-620.1
3967.137	-622.1
3969.667	-622.1
3972.194	-618.1
3974.72	-617.1
3977.244	-609.1
3979.766	-613.1
3982.286	-612.1
3984.805	-608.1
3987.321	-611.1
3989.836	-611.1
3992.349	-610.1
3994.86	-604.1
3997.369	-616.1
3999.877	-606.1
4002.382	-607.1
4004.886	-614.1
4007.388	-613.1
4009.888	-602.1
4012.386	-615.1
4014.883	-610.1
4017.377	-612.1
4019.87	-609.1
4022.361	-608.1
4024.85	-611.1
4027.338	-609.1
4029.823	-611.1
4032.307	-612.1
4034.789	-612.1
4037.269	-618.1
4039.747	-616.1
4042.224	-604.1
4044.699	-610.1
4047.172	-615.1
4049.643	-612.1
4052.112	-610.1
4054.58	-609.1
4057.046	-615.1
4059.51	-609.1
4061.972	-614.1
4064.432	-608.1
4066.891	-611.1
4069.348	-614.1
4071.803	-617.1
4074.256	-611.1
4076.708	-608.1
4079.158	-612.1
4081.606	-610.1
4084.052	-605.1
4086.497	-611.1
4088.939	-605.1
4091.38	-604.1
4093.819	-606.1
4096.257	-643.1
4098.693	-644.1
4101.127	-643.1
4103.559	-646.1
4105.989	-384.1
4108.418	-372.1
4110.845	-340.1
4113.27	-327.1
4115.694	-280.1
4118.115	-237.1
4120.535	-608.1
4122.954	-612.1
4125.37	-610.1
4127.785	-613.1
4130.198	-618.1
4132.609	-612.1
4135.019	-646.1
4137.427	-645.1
4139.833	-643.1
4142.237	-643.1
