Data from 2018-2-7_conc=3_RamanShift_17.txt Node
Date: Tue Feb 13 12:32:14 IST 2018
User: aro
Spectrometer: QEPB0276
Trigger mode: 0
Integration Time (sec): 3.000000E1
Scans to average: 1
Electric dark correction enabled: true
Nonlinearity correction enabled: false
Boxcar width: 0
XAxis mode: Raman Shifts
Number of Pixels in Spectrum: 1044
>>>>>Begin Spectral Data<<<<<
160.701	-150.8
166.742	19.2
172.777	566.2
178.805	2186.2
184.826	5974.2
190.841	12349.2
196.849	19417.2
202.85	24373.2
208.845	25882.2
214.833	25535.2
220.815	25092.2
226.789	24843.2
232.758	24760.2
238.719	24424.2
244.674	24134.2
250.623	23621.2
256.565	23011.2
262.5	22579.2
268.429	22148.2
274.351	21735.2
280.267	21417.2
286.176	21157.2
292.079	20944.2
297.975	20683.2
303.865	20523.2
309.748	20336.2
315.625	20109.2
321.495	20082.2
327.359	19932.2
333.217	19905.2
339.068	19874.2
344.912	19833.2
350.751	19762.2
356.583	19800.2
362.408	19788.2
368.227	19808.2
374.04	19774.2
379.847	19878.2
385.647	19962.2
391.44	19983.2
397.228	20079.2
403.009	20195.2
408.784	20265.2
414.553	20295.2
420.315	20367.2
426.071	20325.2
431.821	20379.2
437.565	20374.2
443.302	20349.2
449.033	20243.2
454.758	20176.2
460.477	20138.2
466.189	20070.2
471.896	20043.2
477.596	20015.2
483.29	19950.2
488.978	19924.2
494.66	19834.2
500.335	19702.2
506.005	19515.2
511.668	19274.2
517.325	19024.2
522.977	18937.2
528.622	18701.2
534.261	18606.2
539.894	18516.2
545.521	18457.2
551.141	18411.2
556.756	18276.2
562.365	18285.2
567.968	18223.2
573.565	18103.2
579.155	18011.2
584.74	17994.2
590.319	17862.2
595.892	17774.2
601.459	17712.2
607.02	17632.2
612.575	17533.2
618.124	17423.2
623.667	17332.2
629.204	17201.2
634.735	17125.2
640.261	17068.2
645.781	17048.2
651.294	16981.2
656.802	16980.2
662.304	16923.2
667.8	16864.2
673.29	16901.2
678.775	16917.2
684.254	16811.2
689.726	16750.2
695.193	16688.2
700.655	16578.2
706.11	16545.2
711.56	16473.2
717.004	16381.2
722.442	16260.2
727.874	16256.2
733.301	16183.2
738.722	16097.2
744.137	16096.2
749.547	16095.2
754.951	16020.2
760.349	16085.2
765.741	16079.2
771.128	16058.2
776.509	16116.2
781.885	16113.2
787.254	16100.2
792.618	15995.2
797.977	15897.2
803.33	15845.2
808.677	15665.2
814.019	15610.2
819.355	15558.2
824.686	15437.2
830.011	15406.2
835.33	15444.2
840.644	15449.2
845.952	15432.2
851.255	15479.2
856.552	15566.2
861.844	15508.2
867.13	15438.2
872.41	15376.2
877.686	15320.2
882.955	15192.2
888.219	15037.2
893.478	14874.2
898.731	14713.2
903.979	14515.2
909.221	14424.2
914.458	14375.2
919.69	14404.2
924.916	14423.2
930.136	14435.2
935.351	14499.2
940.561	14454.2
945.766	14445.2
950.965	14403.2
956.158	14270.2
961.347	14103.2
966.529	13933.2
971.707	13820.2
976.879	13586.2
982.046	13529.2
987.208	13504.2
992.364	13457.2
997.515	13520.2
1002.66	13710.2
1007.801	13805.2
1012.936	13959.2
1018.066	13911.2
1023.19	13940.2
1028.309	13909.2
1033.423	13868.2
1038.532	13747.2
1043.636	13606.2
1048.734	13479.2
1053.827	13315.2
1058.915	13209.2
1063.998	13141.2
1069.075	13066.2
1074.147	13107.2
1079.214	13182.2
1084.276	13213.2
1089.333	13307.2
1094.385	13345.2
1099.431	13367.2
1104.472	13369.2
1109.509	13300.2
1114.54	13131.2
1119.565	13018.2
1124.586	12821.2
1129.602	12701.2
1134.613	12656.2
1139.618	12562.2
1144.619	12534.2
1149.614	12506.2
1154.604	12520.2
1159.589	12588.2
1164.57	12611.2
1169.545	12626.2
1174.515	12588.2
1179.48	12587.2
1184.44	12479.2
1189.395	12346.2
1194.345	12276.2
1199.29	12200.2
1204.23	12207.2
1209.165	12273.2
1214.095	12293.2
1219.021	12425.2
1223.941	12471.2
1228.856	12524.2
1233.766	12560.2
1238.672	12577.2
1243.572	12590.2
1248.467	12451.2
1253.358	12307.2
1258.244	12162.2
1263.124	11975.2
1268	11831.2
1272.871	11677.2
1277.737	11596.2
1282.599	11527.2
1287.455	11547.2
1292.306	11510.2
1297.153	11532.2
1301.995	11607.2
1306.832	11646.2
1311.664	11667.2
1316.491	11616.2
1321.314	11521.2
1326.132	11338.2
1330.945	11105.2
1335.753	10834.2
1340.556	10556.2
1345.354	10326.2
1350.148	10232.2
1354.937	10165.2
1359.722	10143.2
1364.501	10164.2
1369.276	10269.2
1374.046	10415.2
1378.811	10565.2
1383.572	10609.2
1388.327	10691.2
1393.079	10640.2
1397.825	10541.2
1402.567	10379.2
1407.304	10234.2
1412.036	10117.2
1416.764	10070.2
1421.487	9986.2
1426.205	9968.2
1430.919	9877.2
1435.628	9901.2
1440.333	9958.2
1445.032	9971.2
1449.727	9979.2
1454.418	9975.2
1459.104	9877.2
1463.785	9704.2
1468.462	9463.2
1473.134	9260.2
1477.802	9053.2
1482.465	8924.2
1487.123	8852.2
1491.777	8830.2
1496.426	8853.2
1501.071	8963.2
1505.711	9087.2
1510.347	9252.2
1514.978	9360.2
1519.604	9488.2
1524.226	9609.2
1528.844	9638.2
1533.457	9591.2
1538.065	9611.2
1542.669	9469.2
1547.269	9392.2
1551.864	9403.2
1556.454	9367.2
1561.041	9337.2
1565.622	9325.2
1570.199	9363.2
1574.772	9395.2
1579.34	9521.2
1583.904	9561.2
1588.464	9576.2
1593.019	9616.2
1597.569	9593.2
1602.115	9563.2
1606.657	9470.2
1611.195	9388.2
1615.728	9363.2
1620.256	9298.2
1624.78	9340.2
1629.3	9356.2
1633.816	9376.2
1638.327	9415.2
1642.834	9475.2
1647.336	9523.2
1651.834	9516.2
1656.328	9544.2
1660.817	9442.2
1665.302	9361.2
1669.783	9178.2
1674.259	8960.2
1678.732	8710.2
1683.199	8384.2
1687.663	8126.2
1692.122	7833.2
1696.577	7728.2
1701.028	7733.2
1705.474	7781.2
1709.917	7820.2
1714.355	7836.2
1718.788	7751.2
1723.218	7645.2
1727.643	7547.2
1732.064	7372.2
1736.481	7173.2
1740.893	7004.2
1745.301	6864.2
1749.705	6612.2
1754.105	6441.2
1758.501	6279.2
1762.893	6089.2
1767.28	5939.2
1771.663	5853.2
1776.042	5752.2
1780.417	5690.2
1784.787	5709.2
1789.154	5750.2
1793.516	5828.2
1797.874	5962.2
1802.228	6033.2
1806.578	6069.2
1810.924	6075.2
1815.266	6027.2
1819.603	5939.2
1823.937	5845.2
1828.266	5742.2
1832.591	5690.2
1836.913	5576.2
1841.23	5545.2
1845.543	5517.2
1849.852	5467.2
1854.156	5487.2
1858.457	5445.2
1862.754	5471.2
1867.047	5428.2
1871.335	5466.2
1875.62	5417.2
1879.9	5406.2
1884.177	5378.2
1888.449	5326.2
1892.718	5281.2
1896.982	5214.2
1901.243	5181.2
1905.499	5121.2
1909.752	5057.2
1914	5113.2
1918.245	5116.2
1922.485	5157.2
1926.722	5201.2
1930.954	5251.2
1935.183	5328.2
1939.408	5333.2
1943.628	5385.2
1947.845	5409.2
1952.058	5384.2
1956.267	5346.2
1960.472	5325.2
1964.673	5218.2
1968.87	5130.2
1973.063	5073.2
1977.252	5024.2
1981.438	4963.2
1985.619	4900.2
1989.797	4863.2
1993.971	4815.2
1998.14	4794.2
2002.306	4803.2
2006.469	4793.2
2010.627	4759.2
2014.781	4710.2
2018.932	4685.2
2023.078	4628.2
2027.221	4573.2
2031.36	4512.2
2035.495	4423.2
2039.627	4358.2
2043.754	4310.2
2047.878	4295.2
2051.998	4277.2
2056.114	4245.2
2060.226	4246.2
2064.334	4267.2
2068.439	4242.2
2072.54	4307.2
2076.637	4306.2
2080.73	4334.2
2084.82	4346.2
2088.906	4381.2
2092.988	4377.2
2097.066	4389.2
2101.14	4370.2
2105.211	4297.2
2109.278	4285.2
2113.342	4268.2
2117.401	4244.2
2121.457	4234.2
2125.509	4210.2
2129.558	4173.2
2133.602	4136.2
2137.643	4130.2
2141.681	4077.2
2145.714	4089.2
2149.744	4075.2
2153.77	4015.2
2157.793	3984.2
2161.812	3944.2
2165.827	3884.2
2169.838	3805.2
2173.846	3750.2
2177.851	3690.2
2181.851	3646.2
2185.848	3589.2
2189.841	3563.2
2193.831	3520.2
2197.817	3518.2
2201.799	3491.2
2205.778	3475.2
2209.753	3431.2
2213.725	3454.2
2217.693	3427.2
2221.657	3417.2
2225.618	3387.2
2229.575	3388.2
2233.529	3373.2
2237.479	3331.2
2241.425	3290.2
2245.368	3242.2
2249.307	3184.2
2253.243	3166.2
2257.175	3150.2
2261.104	3087.2
2265.029	3034.2
2268.95	2998.2
2272.868	2979.2
2276.783	2928.2
2280.694	2919.2
2284.601	2899.2
2288.505	2881.2
2292.405	2829.2
2296.302	2814.2
2300.195	2781.2
2304.085	2768.2
2307.971	2711.2
2311.854	2664.2
2315.734	2610.2
2319.609	2597.2
2323.482	2527.2
2327.351	2508.2
2331.216	2514.2
2335.078	2482.2
2338.937	2465.2
2342.792	2487.2
2346.643	2439.2
2350.492	2444.2
2354.336	2468.2
2358.178	2475.2
2362.015	2470.2
2365.85	2495.2
2369.681	2497.2
2373.508	2475.2
2377.333	2510.2
2381.153	2471.2
2384.971	2472.2
2388.785	2437.2
2392.595	2405.2
2396.402	2409.2
2400.206	2376.2
2404.007	2372.2
2407.804	2318.2
2411.597	2336.2
2415.388	2330.2
2419.174	2321.2
2422.958	2302.2
2426.738	2285.2
2430.515	2229.2
2434.289	2227.2
2438.059	2200.2
2441.825	2196.2
2445.589	2178.2
2449.349	2162.2
2453.106	2093.2
2456.859	2100.2
2460.61	2056.2
2464.356	2046.2
2468.1	2010.2
2471.84	1993.2
2475.577	1983.2
2479.311	1971.2
2483.041	1947.2
2486.768	1963.2
2490.492	1931.2
2494.213	1936.2
2497.93	1941.2
2501.644	1906.2
2505.355	1905.2
2509.062	1896.2
2512.766	1859.2
2516.467	1897.2
2520.165	1876.2
2523.859	1859.2
2527.551	1830.2
2531.239	1832.2
2534.923	1811.2
2538.605	1817.2
2542.283	1786.2
2545.958	1793.2
2549.63	1794.2
2553.299	1800.2
2556.964	1798.2
2560.626	1804.2
2564.285	1745.2
2567.941	1767.2
2571.594	1759.2
2575.243	1751.2
2578.89	1716.2
2582.533	1727.2
2586.173	1698.2
2589.809	1703.2
2593.443	1671.2
2597.073	1655.2
2600.701	1652.2
2604.325	1650.2
2607.946	1615.2
2611.564	1605.2
2615.178	1605.2
2618.79	1597.2
2622.398	1576.2
2626.004	1553.2
2629.606	1521.2
2633.205	1524.2
2636.801	1493.2
2640.394	1495.2
2643.983	1469.2
2647.57	1431.2
2651.153	1430.2
2654.734	1387.2
2658.311	1372.2
2661.885	1366.2
2665.456	1342.2
2669.025	1318.2
2672.589	1314.2
2676.151	1281.2
2679.71	1283.2
2683.266	1249.2
2686.819	1236.2
2690.368	1193.2
2693.915	1182.2
2697.458	1154.2
2700.999	1140.2
2704.536	1096.2
2708.071	1089.2
2711.602	1050.2
2715.13	1039.2
2718.656	1022.2
2722.178	999.2
2725.697	975.2
2729.214	968.2
2732.727	959.2
2736.237	957.2
2739.744	963.2
2743.249	956.2
2746.75	952.2
2750.248	965.2
2753.743	977.2
2757.236	989.2
2760.725	984.2
2764.211	1003.2
2767.695	995.2
2771.175	996.2
2774.652	1001.2
2778.127	1001.2
2781.598	972.2
2785.067	998.2
2788.532	989.2
2791.995	985.2
2795.455	978.2
2798.911	988.2
2802.365	993.2
2805.816	985.2
2809.264	986.2
2812.709	985.2
2816.151	982.2
2819.59	970.2
2823.026	1006.2
2826.46	989.2
2829.89	998.2
2833.318	1001.2
2836.742	984.2
2840.164	1002.2
2843.583	1026.2
2846.999	1023.2
2850.412	1035.2
2853.822	1031.2
2857.229	1059.2
2860.634	1086.2
2864.035	1097.2
2867.434	1118.2
2870.83	1139.2
2874.223	1154.2
2877.613	1165.2
2881	1207.2
2884.385	1203.2
2887.766	1194.2
2891.145	1199.2
2894.521	1211.2
2897.894	1214.2
2901.264	1196.2
2904.631	1204.2
2907.996	1216.2
2911.358	1200.2
2914.717	1232.2
2918.073	1238.2
2921.426	1245.2
2924.777	1253.2
2928.124	1279.2
2931.469	1318.2
2934.811	1343.2
2938.15	1361.2
2941.487	1355.2
2944.821	1374.2
2948.152	1376.2
2951.48	1353.2
2954.805	1351.2
2958.128	1323.2
2961.447	1315.2
2964.765	1322.2
2968.079	1338.2
2971.39	1337.2
2974.699	1342.2
2978.005	1386.2
2981.308	1386.2
2984.609	1410.2
2987.907	1426.2
2991.202	1484.2
2994.494	1498.2
2997.784	1530.2
3001.07	1554.2
3004.355	1599.2
3007.636	1618.2
3010.915	1628.2
3014.191	1662.2
3017.464	1637.2
3020.734	1660.2
3024.002	1685.2
3027.267	1694.2
3030.53	1720.2
3033.789	1726.2
3037.046	1751.2
3040.301	1761.2
3043.552	1801.2
3046.801	1870.2
3050.048	1882.2
3053.291	1944.2
3056.532	2001.2
3059.771	2051.2
3063.006	2105.2
3066.239	2158.2
3069.469	2229.2
3072.697	2287.2
3075.922	2348.2
3079.144	2388.2
3082.364	2465.2
3085.581	2512.2
3088.795	2569.2
3092.007	2614.2
3095.216	2691.2
3098.423	2726.2
3101.627	2806.2
3104.828	2878.2
3108.026	2924.2
3111.222	2986.2
3114.416	3062.2
3117.607	3148.2
3120.795	3196.2
3123.98	3267.2
3127.163	3375.2
3130.344	3420.2
3133.521	3521.2
3136.696	3619.2
3139.869	3640.2
3143.039	3692.2
3146.206	3787.2
3149.371	3824.2
3152.533	3867.2
3155.693	3865.2
3158.85	3916.2
3162.005	3926.2
3165.157	3927.2
3168.306	3926.2
3171.453	3958.2
3174.597	3978.2
3177.739	3987.2
3180.878	3948.2
3184.014	3978.2
3187.149	3990.2
3190.28	4012.2
3193.409	3995.2
3196.536	4018.2
3199.659	4022.2
3202.781	4010.2
3205.9	4042.2
3209.016	3990.2
3212.13	3986.2
3215.241	3940.2
3218.35	3908.2
3221.456	3879.2
3224.56	3831.2
3227.661	3804.2
3230.76	3772.2
3233.856	3745.2
3236.95	3694.2
3240.041	3685.2
3243.13	3645.2
3246.216	3639.2
3249.3	3605.2
3252.382	3584.2
3255.46	3578.2
3258.537	3558.2
3261.611	3545.2
3264.682	3558.2
3267.751	3553.2
3270.818	3509.2
3273.882	3538.2
3276.943	3485.2
3280.002	3465.2
3283.059	3418.2
3286.113	3403.2
3289.165	3341.2
3292.214	3320.2
3295.261	3233.2
3298.306	3200.2
3301.348	3134.2
3304.387	3110.2
3307.425	3039.2
3310.459	3007.2
3313.492	2961.2
3316.521	2914.2
3319.549	2876.2
3322.574	2854.2
3325.597	2837.2
3328.617	2824.2
3331.635	2799.2
3334.65	2772.2
3337.663	2762.2
3340.674	2749.2
3343.682	2743.2
3346.688	2718.2
3349.691	2707.2
3352.692	2697.2
3355.691	2665.2
3358.687	2631.2
3361.681	2618.2
3364.673	2583.2
3367.662	2550.2
3370.649	2513.2
3373.633	2509.2
3376.615	2429.2
3379.595	2423.2
3382.572	2360.2
3385.547	2340.2
3388.52	2310.2
3391.49	2282.2
3394.458	2236.2
3397.424	2202.2
3400.387	2178.2
3403.348	2143.2
3406.307	2120.2
3409.263	2117.2
3412.217	2068.2
3415.168	2060.2
3418.118	2042.2
3421.065	1992.2
3424.009	1976.2
3426.951	1931.2
3429.891	1908.2
3432.829	1860.2
3435.764	1799.2
3438.697	1771.2
3441.628	1729.2
3444.557	1683.2
3447.483	1628.2
3450.407	1564.2
3453.328	1541.2
3456.247	1454.2
3459.164	1412.2
3462.079	1369.2
3464.991	1323.2
3467.902	1259.2
3470.809	1218.2
3473.715	1187.2
3476.618	1126.2
3479.519	1094.2
3482.418	1063.2
3485.315	1033.2
3488.209	982.2
3491.101	955.2
3493.99	910.2
3496.878	866.2
3499.763	835.2
3502.646	803.2
3505.527	771.2
3508.405	726.2
3511.281	710.2
3514.155	659.2
3517.027	599.2
3519.897	579.2
3522.764	543.2
3525.629	490.2
3528.492	453.2
3531.352	416.2
3534.211	369.2
3537.067	334.2
3539.921	293.2
3542.773	279.2
3545.622	225.2
3548.469	199.2
3551.315	178.2
3554.157	155.2
3556.998	124.2
3559.837	103.2
3562.673	70.2
3565.507	57.2
3568.339	43.2
3571.169	29.2
3573.996	-7.8
3576.822	-11.8
3579.645	-26.8
3582.466	-53.8
3585.285	-81.8
3588.101	-95.8
3590.916	-109.8
3593.728	-140.8
3596.538	-147.8
3599.346	-181.8
3602.152	-192.8
3604.956	-199.8
3607.757	-224.8
3610.556	-234.8
3613.354	-247.8
3616.149	-257.8
3618.942	-269.8
3621.732	-276.8
3624.521	-289.8
3627.307	-304.8
3630.092	-319.8
3632.874	-324.8
3635.654	-335.8
3638.432	-354.8
3641.208	-359.8
3643.982	-363.8
3646.753	-373.8
3649.523	-380.8
3652.29	-391.8
3655.055	-398.8
3657.818	-408.8
3660.579	-411.8
3663.338	-417.8
3666.095	-435.8
3668.849	-452.8
3671.602	-453.8
3674.352	-458.8
3677.101	-466.8
3679.847	-474.8
3682.591	-476.8
3685.333	-487.8
3688.073	-494.8
3690.811	-493.8
3693.547	-500.8
3696.281	-507.8
3699.013	-511.8
3701.742	-520.8
3704.47	-515.8
3707.195	-531.8
3709.919	-521.8
3712.64	-525.8
3715.359	-537.8
3718.076	-531.8
3720.792	-543.8
3723.505	-547.8
3726.216	-547.8
3728.925	-550.8
3731.632	-557.8
3734.336	-557.8
3737.039	-571.8
3739.74	-567.8
3742.439	-568.8
3745.136	-569.8
3747.83	-567.8
3750.523	-567.8
3753.213	-576.8
3755.902	-577.8
3758.589	-572.8
3761.273	-571.8
3763.956	-581.8
3766.636	-581.8
3769.315	-587.8
3771.991	-581.8
3774.665	-585.8
3777.338	-595.8
3780.008	-585.8
3782.677	-586.8
3785.343	-593.8
3788.007	-582.8
3790.67	-596.8
3793.33	-600.8
3795.989	-597.8
3798.645	-607.8
3801.299	-602.8
3803.952	-607.8
3806.602	-600.8
3809.251	-608.8
3811.897	-598.8
3814.542	-602.8
3817.184	-603.8
3819.825	-602.8
3822.463	-599.8
3825.1	-604.8
3827.735	-614.8
3830.367	-613.8
3832.998	-610.8
3835.627	-615.8
3838.253	-617.8
3840.878	-618.8
3843.501	-616.8
3846.122	-612.8
3848.741	-615.8
3851.358	-612.8
3853.973	-615.8
3856.586	-609.8
3859.197	-614.8
3861.806	-610.8
3864.414	-609.8
3867.019	-609.8
3869.622	-617.8
3872.224	-615.8
3874.823	-603.8
3877.421	-580.8
3880.016	-569.8
3882.61	-528.8
3885.202	-537.8
3887.792	-565.8
3890.38	-586.8
3892.966	-606.8
3895.55	-612.8
3898.132	-616.8
3900.713	-627.8
3903.291	-622.8
3905.868	-625.8
3908.442	-623.8
3911.015	-621.8
3913.586	-629.8
3916.155	-623.8
3918.722	-625.8
3921.287	-631.8
3923.85	-629.8
3926.411	-628.8
3928.971	-628.8
3931.528	-637.8
3934.084	-628.8
3936.638	-632.8
3939.19	-635.8
3941.74	-638.8
3944.288	-635.8
3946.834	-635.8
3949.378	-637.8
3951.921	-636.8
3954.462	-632.8
3957	-624.8
3959.537	-619.8
3962.072	-620.8
3964.606	-628.8
3967.137	-629.8
3969.667	-627.8
3972.194	-627.8
3974.72	-619.8
3977.244	-621.8
3979.766	-621.8
3982.286	-623.8
3984.805	-613.8
3987.321	-615.8
3989.836	-621.8
3992.349	-619.8
3994.86	-613.8
3997.369	-632.8
3999.877	-618.8
4002.382	-616.8
4004.886	-626.8
4007.388	-622.8
4009.888	-612.8
4012.386	-613.8
4014.883	-615.8
4017.377	-616.8
4019.87	-612.8
4022.361	-620.8
4024.85	-614.8
4027.338	-625.8
4029.823	-619.8
4032.307	-622.8
4034.789	-623.8
4037.269	-626.8
4039.747	-628.8
4042.224	-619.8
4044.699	-623.8
4047.172	-626.8
4049.643	-620.8
4052.112	-615.8
4054.58	-618.8
4057.046	-618.8
4059.51	-623.8
4061.972	-624.8
4064.432	-620.8
4066.891	-620.8
4069.348	-625.8
4071.803	-624.8
4074.256	-620.8
4076.708	-619.8
4079.158	-623.8
4081.606	-621.8
4084.052	-617.8
4086.497	-624.8
4088.939	-617.8
4091.38	-616.8
4093.819	-619.8
4096.257	-650.8
4098.693	-650.8
4101.127	-654.8
4103.559	-656.8
4105.989	-384.8
4108.418	-372.8
4110.845	-353.8
4113.27	-325.8
4115.694	-286.8
4118.115	-233.8
4120.535	-618.8
4122.954	-625.8
4125.37	-617.8
4127.785	-621.8
4130.198	-624.8
4132.609	-614.8
4135.019	-657.8
4137.427	-653.8
4139.833	-655.8
4142.237	-653.8
