Data from 2018-2-7_conc=5_RamanShift_03.txt Node
Date: Tue Feb 13 13:57:13 IST 2018
User: aro
Spectrometer: QEPB0276
Trigger mode: 0
Integration Time (sec): 3.000000E1
Scans to average: 1
Electric dark correction enabled: true
Nonlinearity correction enabled: false
Boxcar width: 0
XAxis mode: Raman Shifts
Number of Pixels in Spectrum: 1044
>>>>>Begin Spectral Data<<<<<
160.701	-166.9
166.742	29.1
172.777	598.1
178.805	2260.1
184.826	6149.1
190.841	12731.1
196.849	20129.1
202.85	25300.1
208.845	26920.1
214.833	26661.1
220.815	26263.1
226.789	26051.1
232.758	25941.1
238.719	25879.1
244.674	25502.1
250.623	25037.1
256.565	24500.1
262.5	24080.1
268.429	23709.1
274.351	23349.1
280.267	23076.1
286.176	22789.1
292.079	22601.1
297.975	22338.1
303.865	22210.1
309.748	22069.1
315.625	21866.1
321.495	21829.1
327.359	21768.1
333.217	21711.1
339.068	21709.1
344.912	21684.1
350.751	21635.1
356.583	21590.1
362.408	21637.1
368.227	21570.1
374.04	21588.1
379.847	21763.1
385.647	21797.1
391.44	21853.1
397.228	21973.1
403.009	21944.1
408.784	22063.1
414.553	22091.1
420.315	22180.1
426.071	22218.1
431.821	22190.1
437.565	22218.1
443.302	22239.1
449.033	22208.1
454.758	22099.1
460.477	22072.1
466.189	22025.1
471.896	21955.1
477.596	21937.1
483.29	21897.1
488.978	21889.1
494.66	21804.1
500.335	21650.1
506.005	21431.1
511.668	21163.1
517.325	20959.1
522.977	20767.1
528.622	20704.1
534.261	20567.1
539.894	20427.1
545.521	20387.1
551.141	20320.1
556.756	20241.1
562.365	20154.1
567.968	20137.1
573.565	20023.1
579.155	19921.1
584.74	19912.1
590.319	19805.1
595.892	19756.1
601.459	19695.1
607.02	19563.1
612.575	19518.1
618.124	19385.1
623.667	19273.1
629.204	19144.1
634.735	19063.1
640.261	19068.1
645.781	18924.1
651.294	18925.1
656.802	18928.1
662.304	18863.1
667.8	18865.1
673.29	18872.1
678.775	18820.1
684.254	18667.1
689.726	18633.1
695.193	18575.1
700.655	18589.1
706.11	18435.1
711.56	18375.1
717.004	18222.1
722.442	18183.1
727.874	18099.1
733.301	18099.1
738.722	18017.1
744.137	17961.1
749.547	17969.1
754.951	17941.1
760.349	17923.1
765.741	17959.1
771.128	17982.1
776.509	18003.1
781.885	18035.1
787.254	17999.1
792.618	17890.1
797.977	17823.1
803.33	17685.1
808.677	17522.1
814.019	17431.1
819.355	17319.1
824.686	17298.1
830.011	17297.1
835.33	17274.1
840.644	17300.1
845.952	17301.1
851.255	17352.1
856.552	17381.1
861.844	17323.1
867.13	17327.1
872.41	17255.1
877.686	17187.1
882.955	17086.1
888.219	16947.1
893.478	16740.1
898.731	16532.1
903.979	16358.1
909.221	16231.1
914.458	16224.1
919.69	16212.1
924.916	16228.1
930.136	16327.1
935.351	16330.1
940.561	16302.1
945.766	16310.1
950.965	16225.1
956.158	16097.1
961.347	15977.1
966.529	15764.1
971.707	15545.1
976.879	15407.1
982.046	15229.1
987.208	15219.1
992.364	15228.1
997.515	15321.1
1002.66	15417.1
1007.801	15651.1
1012.936	15733.1
1018.066	15751.1
1023.19	15745.1
1028.309	15734.1
1033.423	15769.1
1038.532	15593.1
1043.636	15510.1
1048.734	15227.1
1053.827	15050.1
1058.915	14952.1
1063.998	14821.1
1069.075	14782.1
1074.147	14810.1
1079.214	14911.1
1084.276	15006.1
1089.333	15101.1
1094.385	15171.1
1099.431	15179.1
1104.472	15130.1
1109.509	15089.1
1114.54	14886.1
1119.565	14709.1
1124.586	14551.1
1129.602	14384.1
1134.613	14325.1
1139.618	14212.1
1144.619	14137.1
1149.614	14176.1
1154.604	14212.1
1159.589	14258.1
1164.57	14325.1
1169.545	14315.1
1174.515	14370.1
1179.48	14250.1
1184.44	14096.1
1189.395	14016.1
1194.345	13971.1
1199.29	13857.1
1204.23	13887.1
1209.165	13950.1
1214.095	13975.1
1219.021	14052.1
1223.941	14184.1
1228.856	14228.1
1233.766	14237.1
1238.672	14296.1
1243.572	14267.1
1248.467	14183.1
1253.358	14002.1
1258.244	13832.1
1263.124	13606.1
1268	13426.1
1272.871	13264.1
1277.737	13173.1
1282.599	13104.1
1287.455	13104.1
1292.306	13152.1
1297.153	13171.1
1301.995	13259.1
1306.832	13209.1
1311.664	13291.1
1316.491	13230.1
1321.314	13115.1
1326.132	12923.1
1330.945	12630.1
1335.753	12283.1
1340.556	11998.1
1345.354	11725.1
1350.148	11514.1
1354.937	11408.1
1359.722	11395.1
1364.501	11448.1
1369.276	11525.1
1374.046	11718.1
1378.811	11903.1
1383.572	12062.1
1388.327	12141.1
1393.079	12094.1
1397.825	11944.1
1402.567	11804.1
1407.304	11631.1
1412.036	11526.1
1416.764	11452.1
1421.487	11364.1
1426.205	11320.1
1430.919	11258.1
1435.628	11273.1
1440.333	11293.1
1445.032	11322.1
1449.727	11335.1
1454.418	11336.1
1459.104	11184.1
1463.785	10919.1
1468.462	10700.1
1473.134	10466.1
1477.802	10277.1
1482.465	10048.1
1487.123	9944.1
1491.777	9921.1
1496.426	9921.1
1501.071	10042.1
1505.711	10149.1
1510.347	10304.1
1514.978	10501.1
1519.604	10698.1
1524.226	10795.1
1528.844	10849.1
1533.457	10783.1
1538.065	10793.1
1542.669	10725.1
1547.269	10646.1
1551.864	10599.1
1556.454	10576.1
1561.041	10560.1
1565.622	10576.1
1570.199	10542.1
1574.772	10572.1
1579.34	10674.1
1583.904	10749.1
1588.464	10786.1
1593.019	10783.1
1597.569	10714.1
1602.115	10672.1
1606.657	10594.1
1611.195	10493.1
1615.728	10455.1
1620.256	10399.1
1624.78	10339.1
1629.3	10381.1
1633.816	10401.1
1638.327	10414.1
1642.834	10476.1
1647.336	10517.1
1651.834	10498.1
1656.328	10508.1
1660.817	10423.1
1665.302	10316.1
1669.783	10110.1
1674.259	9846.1
1678.732	9584.1
1683.199	9255.1
1687.663	8905.1
1692.122	8616.1
1696.577	8432.1
1701.028	8445.1
1705.474	8532.1
1709.917	8627.1
1714.355	8741.1
1718.788	8703.1
1723.218	8573.1
1727.643	8405.1
1732.064	8294.1
1736.481	8131.1
1740.893	7881.1
1745.301	7693.1
1749.705	7542.1
1754.105	7254.1
1758.501	7064.1
1762.893	6889.1
1767.28	6735.1
1771.663	6559.1
1776.042	6385.1
1780.417	6326.1
1784.787	6284.1
1789.154	6367.1
1793.516	6429.1
1797.874	6593.1
1802.228	6717.1
1806.578	6767.1
1810.924	6839.1
1815.266	6791.1
1819.603	6727.1
1823.937	6601.1
1828.266	6489.1
1832.591	6383.1
1836.913	6349.1
1841.23	6279.1
1845.543	6246.1
1849.852	6193.1
1854.156	6169.1
1858.457	6165.1
1862.754	6139.1
1867.047	6141.1
1871.335	6121.1
1875.62	6112.1
1879.9	6044.1
1884.177	6051.1
1888.449	5932.1
1892.718	5872.1
1896.982	5794.1
1901.243	5772.1
1905.499	5674.1
1909.752	5627.1
1914	5637.1
1918.245	5644.1
1922.485	5655.1
1926.722	5738.1
1930.954	5821.1
1935.183	5854.1
1939.408	5925.1
1943.628	6043.1
1947.845	6016.1
1952.058	5973.1
1956.267	5933.1
1960.472	5911.1
1964.673	5802.1
1968.87	5708.1
1973.063	5649.1
1977.252	5560.1
1981.438	5521.1
1985.619	5457.1
1989.797	5441.1
1993.971	5384.1
1998.14	5380.1
2002.306	5369.1
2006.469	5345.1
2010.627	5317.1
2014.781	5279.1
2018.932	5193.1
2023.078	5165.1
2027.221	5103.1
2031.36	4992.1
2035.495	4930.1
2039.627	4870.1
2043.754	4822.1
2047.878	4727.1
2051.998	4735.1
2056.114	4699.1
2060.226	4675.1
2064.334	4684.1
2068.439	4652.1
2072.54	4715.1
2076.637	4731.1
2080.73	4747.1
2084.82	4761.1
2088.906	4795.1
2092.988	4810.1
2097.066	4801.1
2101.14	4771.1
2105.211	4754.1
2109.278	4730.1
2113.342	4675.1
2117.401	4652.1
2121.457	4637.1
2125.509	4621.1
2129.558	4576.1
2133.602	4570.1
2137.643	4547.1
2141.681	4562.1
2145.714	4483.1
2149.744	4501.1
2153.77	4486.1
2157.793	4413.1
2161.812	4388.1
2165.827	4296.1
2169.838	4247.1
2173.846	4188.1
2177.851	4094.1
2181.851	4063.1
2185.848	3998.1
2189.841	4019.1
2193.831	3934.1
2197.817	3884.1
2201.799	3853.1
2205.778	3854.1
2209.753	3849.1
2213.725	3835.1
2217.693	3823.1
2221.657	3814.1
2225.618	3818.1
2229.575	3783.1
2233.529	3745.1
2237.479	3688.1
2241.425	3670.1
2245.368	3629.1
2249.307	3564.1
2253.243	3521.1
2257.175	3490.1
2261.104	3427.1
2265.029	3410.1
2268.95	3391.1
2272.868	3361.1
2276.783	3280.1
2280.694	3269.1
2284.601	3246.1
2288.505	3214.1
2292.405	3188.1
2296.302	3149.1
2300.195	3116.1
2304.085	3094.1
2307.971	3046.1
2311.854	3019.1
2315.734	2941.1
2319.609	2929.1
2323.482	2895.1
2327.351	2878.1
2331.216	2860.1
2335.078	2847.1
2338.937	2835.1
2342.792	2830.1
2346.643	2817.1
2350.492	2805.1
2354.336	2824.1
2358.178	2841.1
2362.015	2818.1
2365.85	2861.1
2369.681	2859.1
2373.508	2877.1
2377.333	2835.1
2381.153	2836.1
2384.971	2834.1
2388.785	2813.1
2392.595	2795.1
2396.402	2763.1
2400.206	2743.1
2404.007	2723.1
2407.804	2687.1
2411.597	2681.1
2415.388	2652.1
2419.174	2663.1
2422.958	2657.1
2426.738	2631.1
2430.515	2588.1
2434.289	2589.1
2438.059	2553.1
2441.825	2568.1
2445.589	2530.1
2449.349	2476.1
2453.106	2459.1
2456.859	2443.1
2460.61	2416.1
2464.356	2347.1
2468.1	2321.1
2471.84	2300.1
2475.577	2297.1
2479.311	2278.1
2483.041	2270.1
2486.768	2257.1
2490.492	2266.1
2494.213	2241.1
2497.93	2217.1
2501.644	2229.1
2505.355	2204.1
2509.062	2211.1
2512.766	2184.1
2516.467	2160.1
2520.165	2163.1
2523.859	2130.1
2527.551	2109.1
2531.239	2087.1
2534.923	2059.1
2538.605	2038.1
2542.283	2040.1
2545.958	2039.1
2549.63	2062.1
2553.299	2045.1
2556.964	2043.1
2560.626	2034.1
2564.285	2029.1
2567.941	2029.1
2571.594	1990.1
2575.243	1983.1
2578.89	1965.1
2582.533	1949.1
2586.173	1949.1
2589.809	1961.1
2593.443	1910.1
2597.073	1923.1
2600.701	1894.1
2604.325	1880.1
2607.946	1870.1
2611.564	1845.1
2615.178	1863.1
2618.79	1840.1
2622.398	1827.1
2626.004	1796.1
2629.606	1784.1
2633.205	1754.1
2636.801	1728.1
2640.394	1718.1
2643.983	1681.1
2647.57	1658.1
2651.153	1643.1
2654.734	1615.1
2658.311	1576.1
2661.885	1548.1
2665.456	1554.1
2669.025	1530.1
2672.589	1510.1
2676.151	1502.1
2679.71	1499.1
2683.266	1438.1
2686.819	1422.1
2690.368	1378.1
2693.915	1386.1
2697.458	1331.1
2700.999	1302.1
2704.536	1257.1
2708.071	1252.1
2711.602	1217.1
2715.13	1193.1
2718.656	1165.1
2722.178	1119.1
2725.697	1128.1
2729.214	1110.1
2732.727	1091.1
2736.237	1093.1
2739.744	1077.1
2743.249	1078.1
2746.75	1065.1
2750.248	1073.1
2753.743	1084.1
2757.236	1113.1
2760.725	1120.1
2764.211	1126.1
2767.695	1110.1
2771.175	1135.1
2774.652	1116.1
2778.127	1124.1
2781.598	1103.1
2785.067	1112.1
2788.532	1093.1
2791.995	1113.1
2795.455	1097.1
2798.911	1101.1
2802.365	1107.1
2805.816	1105.1
2809.264	1102.1
2812.709	1116.1
2816.151	1088.1
2819.59	1098.1
2823.026	1082.1
2826.46	1105.1
2829.89	1098.1
2833.318	1091.1
2836.742	1105.1
2840.164	1112.1
2843.583	1109.1
2846.999	1156.1
2850.412	1126.1
2853.822	1144.1
2857.229	1173.1
2860.634	1188.1
2864.035	1206.1
2867.434	1225.1
2870.83	1252.1
2874.223	1251.1
2877.613	1266.1
2881	1290.1
2884.385	1306.1
2887.766	1289.1
2891.145	1292.1
2894.521	1281.1
2897.894	1292.1
2901.264	1285.1
2904.631	1273.1
2907.996	1289.1
2911.358	1300.1
2914.717	1304.1
2918.073	1306.1
2921.426	1335.1
2924.777	1355.1
2928.124	1357.1
2931.469	1369.1
2934.811	1394.1
2938.15	1413.1
2941.487	1416.1
2944.821	1423.1
2948.152	1415.1
2951.48	1403.1
2954.805	1382.1
2958.128	1360.1
2961.447	1358.1
2964.765	1346.1
2968.079	1354.1
2971.39	1353.1
2974.699	1377.1
2978.005	1382.1
2981.308	1406.1
2984.609	1432.1
2987.907	1437.1
2991.202	1507.1
2994.494	1518.1
2997.784	1531.1
3001.07	1580.1
3004.355	1610.1
3007.636	1612.1
3010.915	1654.1
3014.191	1663.1
3017.464	1655.1
3020.734	1684.1
3024.002	1685.1
3027.267	1697.1
3030.53	1706.1
3033.789	1726.1
3037.046	1756.1
3040.301	1778.1
3043.552	1805.1
3046.801	1842.1
3050.048	1884.1
3053.291	1952.1
3056.532	1975.1
3059.771	2016.1
3063.006	2092.1
3066.239	2150.1
3069.469	2202.1
3072.697	2240.1
3075.922	2280.1
3079.144	2373.1
3082.364	2411.1
3085.581	2472.1
3088.795	2516.1
3092.007	2547.1
3095.216	2621.1
3098.423	2680.1
3101.627	2736.1
3104.828	2798.1
3108.026	2868.1
3111.222	2912.1
3114.416	2998.1
3117.607	3048.1
3120.795	3109.1
3123.98	3169.1
3127.163	3274.1
3130.344	3332.1
3133.521	3417.1
3136.696	3487.1
3139.869	3563.1
3143.039	3647.1
3146.206	3660.1
3149.371	3720.1
3152.533	3747.1
3155.693	3774.1
3158.85	3783.1
3162.005	3814.1
3165.157	3818.1
3168.306	3800.1
3171.453	3831.1
3174.597	3848.1
3177.739	3835.1
3180.878	3867.1
3184.014	3887.1
3187.149	3846.1
3190.28	3883.1
3193.409	3857.1
3196.536	3881.1
3199.659	3923.1
3202.781	3881.1
3205.9	3872.1
3209.016	3882.1
3212.13	3873.1
3215.241	3837.1
3218.35	3779.1
3221.456	3734.1
3224.56	3727.1
3227.661	3670.1
3230.76	3646.1
3233.856	3607.1
3236.95	3547.1
3240.041	3514.1
3243.13	3468.1
3246.216	3460.1
3249.3	3443.1
3252.382	3440.1
3255.46	3413.1
3258.537	3413.1
3261.611	3396.1
3264.682	3407.1
3267.751	3409.1
3270.818	3409.1
3273.882	3381.1
3276.943	3358.1
3280.002	3329.1
3283.059	3310.1
3286.113	3271.1
3289.165	3215.1
3292.214	3190.1
3295.261	3131.1
3298.306	3062.1
3301.348	3022.1
3304.387	2975.1
3307.425	2931.1
3310.459	2888.1
3313.492	2829.1
3316.521	2791.1
3319.549	2786.1
3322.574	2743.1
3325.597	2737.1
3328.617	2707.1
3331.635	2691.1
3334.65	2688.1
3337.663	2644.1
3340.674	2629.1
3343.682	2644.1
3346.688	2639.1
3349.691	2630.1
3352.692	2598.1
3355.691	2558.1
3358.687	2551.1
3361.681	2526.1
3364.673	2499.1
3367.662	2458.1
3370.649	2414.1
3373.633	2391.1
3376.615	2362.1
3379.595	2319.1
3382.572	2323.1
3385.547	2253.1
3388.52	2217.1
3391.49	2159.1
3394.458	2136.1
3397.424	2107.1
3400.387	2081.1
3403.348	2034.1
3406.307	2032.1
3409.263	2021.1
3412.217	1984.1
3415.168	1970.1
3418.118	1944.1
3421.065	1911.1
3424.009	1883.1
3426.951	1845.1
3429.891	1813.1
3432.829	1783.1
3435.764	1726.1
3438.697	1708.1
3441.628	1650.1
3444.557	1601.1
3447.483	1537.1
3450.407	1496.1
3453.328	1438.1
3456.247	1384.1
3459.164	1333.1
3462.079	1310.1
3464.991	1248.1
3467.902	1190.1
3470.809	1159.1
3473.715	1101.1
3476.618	1075.1
3479.519	1021.1
3482.418	975.1
3485.315	955.1
3488.209	915.1
3491.101	884.1
3493.99	844.1
3496.878	799.1
3499.763	786.1
3502.646	754.1
3505.527	709.1
3508.405	677.1
3511.281	640.1
3514.155	572.1
3517.027	552.1
3519.897	516.1
3522.764	471.1
3525.629	433.1
3528.492	410.1
3531.352	365.1
3534.211	331.1
3537.067	287.1
3539.921	260.1
3542.773	218.1
3545.622	187.1
3548.469	160.1
3551.315	129.1
3554.157	112.1
3556.998	78.1
3559.837	60.1
3562.673	46.1
3565.507	31.1
3568.339	-0.9
3571.169	-14.9
3573.996	-35.9
3576.822	-64.9
3579.645	-81.9
3582.466	-92.9
3585.285	-116.9
3588.101	-128.9
3590.916	-144.9
3593.728	-179.9
3596.538	-190.9
3599.346	-205.9
3602.152	-213.9
3604.956	-242.9
3607.757	-251.9
3610.556	-260.9
3613.354	-280.9
3616.149	-295.9
3618.942	-314.9
3621.732	-320.9
3624.521	-319.9
3627.307	-337.9
3630.092	-351.9
3632.874	-351.9
3635.654	-362.9
3638.432	-369.9
3641.208	-380.9
3643.982	-388.9
3646.753	-394.9
3649.523	-410.9
3652.29	-417.9
3655.055	-419.9
3657.818	-430.9
3660.579	-438.9
3663.338	-442.9
3666.095	-460.9
3668.849	-476.9
3671.602	-479.9
3674.352	-473.9
3677.101	-494.9
3679.847	-497.9
3682.591	-500.9
3685.333	-510.9
3688.073	-517.9
3690.811	-518.9
3693.547	-520.9
3696.281	-536.9
3699.013	-531.9
3701.742	-543.9
3704.47	-539.9
3707.195	-552.9
3709.919	-551.9
3712.64	-548.9
3715.359	-559.9
3718.076	-555.9
3720.792	-563.9
3723.505	-562.9
3726.216	-571.9
3728.925	-569.9
3731.632	-589.9
3734.336	-587.9
3737.039	-588.9
3739.74	-583.9
3742.439	-580.9
3745.136	-584.9
3747.83	-593.9
3750.523	-588.9
3753.213	-604.9
3755.902	-596.9
3758.589	-599.9
3761.273	-602.9
3763.956	-605.9
3766.636	-604.9
3769.315	-606.9
3771.991	-611.9
3774.665	-610.9
3777.338	-621.9
3780.008	-613.9
3782.677	-606.9
3785.343	-621.9
3788.007	-612.9
3790.67	-620.9
3793.33	-621.9
3795.989	-618.9
3798.645	-622.9
3801.299	-627.9
3803.952	-625.9
3806.602	-625.9
3809.251	-627.9
3811.897	-624.9
3814.542	-621.9
3817.184	-628.9
3819.825	-628.9
3822.463	-630.9
3825.1	-632.9
3827.735	-633.9
3830.367	-638.9
3832.998	-640.9
3835.627	-638.9
3838.253	-642.9
3840.878	-641.9
3843.501	-643.9
3846.122	-637.9
3848.741	-639.9
3851.358	-645.9
3853.973	-637.9
3856.586	-637.9
3859.197	-639.9
3861.806	-637.9
3864.414	-638.9
3867.019	-633.9
3869.622	-641.9
3872.224	-633.9
3874.823	-621.9
3877.421	-605.9
3880.016	-584.9
3882.61	-550.9
3885.202	-552.9
3887.792	-575.9
3890.38	-604.9
3892.966	-622.9
3895.55	-634.9
3898.132	-637.9
3900.713	-649.9
3903.291	-646.9
3905.868	-653.9
3908.442	-652.9
3911.015	-652.9
3913.586	-649.9
3916.155	-653.9
3918.722	-649.9
3921.287	-653.9
3923.85	-651.9
3926.411	-652.9
3928.971	-654.9
3931.528	-662.9
3934.084	-648.9
3936.638	-657.9
3939.19	-661.9
3941.74	-659.9
3944.288	-659.9
3946.834	-658.9
3949.378	-657.9
3951.921	-651.9
3954.462	-655.9
3957	-654.9
3959.537	-646.9
3962.072	-647.9
3964.606	-648.9
3967.137	-660.9
3969.667	-654.9
3972.194	-650.9
3974.72	-649.9
3977.244	-651.9
3979.766	-645.9
3982.286	-649.9
3984.805	-636.9
3987.321	-645.9
3989.836	-648.9
3992.349	-645.9
3994.86	-640.9
3997.369	-648.9
3999.877	-642.9
4002.382	-639.9
4004.886	-642.9
4007.388	-645.9
4009.888	-644.9
4012.386	-643.9
4014.883	-638.9
4017.377	-643.9
4019.87	-637.9
4022.361	-639.9
4024.85	-640.9
4027.338	-642.9
4029.823	-639.9
4032.307	-647.9
4034.789	-647.9
4037.269	-650.9
4039.747	-648.9
4042.224	-642.9
4044.699	-640.9
4047.172	-646.9
4049.643	-648.9
4052.112	-644.9
4054.58	-638.9
4057.046	-644.9
4059.51	-645.9
4061.972	-650.9
4064.432	-648.9
4066.891	-643.9
4069.348	-650.9
4071.803	-652.9
4074.256	-645.9
4076.708	-645.9
4079.158	-645.9
4081.606	-643.9
4084.052	-640.9
4086.497	-646.9
4088.939	-635.9
4091.38	-637.9
4093.819	-635.9
4096.257	-677.9
4098.693	-678.9
4101.127	-680.9
4103.559	-680.9
4105.989	-404.9
4108.418	-385.9
4110.845	-366.9
4113.27	-347.9
4115.694	-289.9
4118.115	-245.9
4120.535	-639.9
4122.954	-649.9
4125.37	-639.9
4127.785	-642.9
4130.198	-648.9
4132.609	-642.9
4135.019	-683.9
4137.427	-677.9
4139.833	-679.9
4142.237	-678.9
