Data from 2018-2-7_conc=3_RamanShift_05.txt Node
Date: Tue Feb 13 12:22:14 IST 2018
User: aro
Spectrometer: QEPB0276
Trigger mode: 0
Integration Time (sec): 3.000000E1
Scans to average: 1
Electric dark correction enabled: true
Nonlinearity correction enabled: false
Boxcar width: 0
XAxis mode: Raman Shifts
Number of Pixels in Spectrum: 1044
>>>>>Begin Spectral Data<<<<<
160.701	-153.6
166.742	38.4
172.777	587.4
178.805	2260.4
184.826	6194.4
190.841	12804.4
196.849	20268.4
202.85	25442.4
208.845	27072.4
214.833	26862.4
220.815	26367.4
226.789	26282.4
232.758	26106.4
238.719	25977.4
244.674	25632.4
250.623	25209.4
256.565	24745.4
262.5	24200.4
268.429	23838.4
274.351	23545.4
280.267	23262.4
286.176	22960.4
292.079	22783.4
297.975	22568.4
303.865	22429.4
309.748	22269.4
315.625	22063.4
321.495	22070.4
327.359	21947.4
333.217	21949.4
339.068	21824.4
344.912	21871.4
350.751	21744.4
356.583	21757.4
362.408	21779.4
368.227	21787.4
374.04	21788.4
379.847	21890.4
385.647	21960.4
391.44	22031.4
397.228	22149.4
403.009	22208.4
408.784	22283.4
414.553	22428.4
420.315	22381.4
426.071	22486.4
431.821	22394.4
437.565	22411.4
443.302	22421.4
449.033	22348.4
454.758	22281.4
460.477	22273.4
466.189	22181.4
471.896	22131.4
477.596	22150.4
483.29	22124.4
488.978	22086.4
494.66	21999.4
500.335	21856.4
506.005	21654.4
511.668	21380.4
517.325	21128.4
522.977	21007.4
528.622	20870.4
534.261	20786.4
539.894	20686.4
545.521	20582.4
551.141	20556.4
556.756	20499.4
562.365	20450.4
567.968	20351.4
573.565	20271.4
579.155	20167.4
584.74	20100.4
590.319	20025.4
595.892	19993.4
601.459	19860.4
607.02	19853.4
612.575	19708.4
618.124	19587.4
623.667	19502.4
629.204	19369.4
634.735	19313.4
640.261	19210.4
645.781	19192.4
651.294	19166.4
656.802	19175.4
662.304	19138.4
667.8	19059.4
673.29	19031.4
678.775	19030.4
684.254	18957.4
689.726	18895.4
695.193	18853.4
700.655	18792.4
706.11	18681.4
711.56	18580.4
717.004	18528.4
722.442	18464.4
727.874	18340.4
733.301	18306.4
738.722	18265.4
744.137	18228.4
749.547	18185.4
754.951	18248.4
760.349	18272.4
765.741	18276.4
771.128	18259.4
776.509	18273.4
781.885	18277.4
787.254	18181.4
792.618	18206.4
797.977	18018.4
803.33	17884.4
808.677	17840.4
814.019	17742.4
819.355	17688.4
824.686	17579.4
830.011	17515.4
835.33	17538.4
840.644	17579.4
845.952	17576.4
851.255	17647.4
856.552	17678.4
861.844	17666.4
867.13	17593.4
872.41	17620.4
877.686	17442.4
882.955	17324.4
888.219	17204.4
893.478	17064.4
898.731	16786.4
903.979	16625.4
909.221	16496.4
914.458	16449.4
919.69	16397.4
924.916	16529.4
930.136	16593.4
935.351	16622.4
940.561	16558.4
945.766	16579.4
950.965	16443.4
956.158	16408.4
961.347	16203.4
966.529	15982.4
971.707	15822.4
976.879	15662.4
982.046	15462.4
987.208	15502.4
992.364	15498.4
997.515	15581.4
1002.66	15728.4
1007.801	15860.4
1012.936	16050.4
1018.066	16029.4
1023.19	16017.4
1028.309	16007.4
1033.423	15972.4
1038.532	15951.4
1043.636	15764.4
1048.734	15544.4
1053.827	15373.4
1058.915	15205.4
1063.998	15066.4
1069.075	15039.4
1074.147	15131.4
1079.214	15169.4
1084.276	15245.4
1089.333	15305.4
1094.385	15419.4
1099.431	15413.4
1104.472	15405.4
1109.509	15333.4
1114.54	15223.4
1119.565	14956.4
1124.586	14772.4
1129.602	14620.4
1134.613	14557.4
1139.618	14466.4
1144.619	14400.4
1149.614	14441.4
1154.604	14430.4
1159.589	14559.4
1164.57	14538.4
1169.545	14563.4
1174.515	14610.4
1179.48	14487.4
1184.44	14395.4
1189.395	14306.4
1194.345	14210.4
1199.29	14150.4
1204.23	14162.4
1209.165	14255.4
1214.095	14233.4
1219.021	14352.4
1223.941	14374.4
1228.856	14492.4
1233.766	14551.4
1238.672	14505.4
1243.572	14545.4
1248.467	14420.4
1253.358	14255.4
1258.244	14089.4
1263.124	13843.4
1268	13676.4
1272.871	13479.4
1277.737	13388.4
1282.599	13361.4
1287.455	13390.4
1292.306	13395.4
1297.153	13462.4
1301.995	13486.4
1306.832	13522.4
1311.664	13505.4
1316.491	13470.4
1321.314	13347.4
1326.132	13175.4
1330.945	12844.4
1335.753	12576.4
1340.556	12266.4
1345.354	12024.4
1350.148	11841.4
1354.937	11724.4
1359.722	11662.4
1364.501	11721.4
1369.276	11828.4
1374.046	12008.4
1378.811	12186.4
1383.572	12352.4
1388.327	12438.4
1393.079	12356.4
1397.825	12216.4
1402.567	11979.4
1407.304	11862.4
1412.036	11805.4
1416.764	11682.4
1421.487	11634.4
1426.205	11561.4
1430.919	11559.4
1435.628	11551.4
1440.333	11532.4
1445.032	11549.4
1449.727	11611.4
1454.418	11553.4
1459.104	11418.4
1463.785	11197.4
1468.462	10960.4
1473.134	10726.4
1477.802	10499.4
1482.465	10342.4
1487.123	10193.4
1491.777	10168.4
1496.426	10225.4
1501.071	10342.4
1505.711	10493.4
1510.347	10671.4
1514.978	10860.4
1519.604	10996.4
1524.226	11104.4
1528.844	11097.4
1533.457	11083.4
1538.065	11031.4
1542.669	11006.4
1547.269	10888.4
1551.864	10852.4
1556.454	10808.4
1561.041	10804.4
1565.622	10812.4
1570.199	10828.4
1574.772	10874.4
1579.34	10932.4
1583.904	11008.4
1588.464	11051.4
1593.019	11011.4
1597.569	10970.4
1602.115	10870.4
1606.657	10785.4
1611.195	10767.4
1615.728	10710.4
1620.256	10607.4
1624.78	10586.4
1629.3	10609.4
1633.816	10628.4
1638.327	10660.4
1642.834	10717.4
1647.336	10752.4
1651.834	10755.4
1656.328	10726.4
1660.817	10631.4
1665.302	10570.4
1669.783	10337.4
1674.259	10124.4
1678.732	9855.4
1683.199	9532.4
1687.663	9163.4
1692.122	8895.4
1696.577	8751.4
1701.028	8739.4
1705.474	8793.4
1709.917	8927.4
1714.355	8992.4
1718.788	8948.4
1723.218	8855.4
1727.643	8697.4
1732.064	8559.4
1736.481	8392.4
1740.893	8146.4
1745.301	7932.4
1749.705	7729.4
1754.105	7543.4
1758.501	7286.4
1762.893	7125.4
1767.28	6915.4
1771.663	6767.4
1776.042	6640.4
1780.417	6583.4
1784.787	6567.4
1789.154	6618.4
1793.516	6751.4
1797.874	6883.4
1802.228	7003.4
1806.578	7030.4
1810.924	7064.4
1815.266	7058.4
1819.603	6963.4
1823.937	6813.4
1828.266	6695.4
1832.591	6647.4
1836.913	6573.4
1841.23	6540.4
1845.543	6458.4
1849.852	6415.4
1854.156	6390.4
1858.457	6371.4
1862.754	6410.4
1867.047	6354.4
1871.335	6368.4
1875.62	6321.4
1879.9	6302.4
1884.177	6254.4
1888.449	6205.4
1892.718	6139.4
1896.982	6053.4
1901.243	6004.4
1905.499	5972.4
1909.752	5922.4
1914	5899.4
1918.245	5901.4
1922.485	5964.4
1926.722	6026.4
1930.954	6083.4
1935.183	6154.4
1939.408	6205.4
1943.628	6246.4
1947.845	6297.4
1952.058	6244.4
1956.267	6229.4
1960.472	6126.4
1964.673	6041.4
1968.87	5951.4
1973.063	5884.4
1977.252	5778.4
1981.438	5748.4
1985.619	5663.4
1989.797	5651.4
1993.971	5612.4
1998.14	5613.4
2002.306	5567.4
2006.469	5572.4
2010.627	5523.4
2014.781	5489.4
2018.932	5407.4
2023.078	5380.4
2027.221	5279.4
2031.36	5220.4
2035.495	5120.4
2039.627	5071.4
2043.754	4989.4
2047.878	4947.4
2051.998	4900.4
2056.114	4886.4
2060.226	4882.4
2064.334	4880.4
2068.439	4876.4
2072.54	4906.4
2076.637	4959.4
2080.73	4951.4
2084.82	4993.4
2088.906	5005.4
2092.988	5032.4
2097.066	4986.4
2101.14	4976.4
2105.211	4938.4
2109.278	4918.4
2113.342	4911.4
2117.401	4869.4
2121.457	4821.4
2125.509	4828.4
2129.558	4794.4
2133.602	4757.4
2137.643	4755.4
2141.681	4738.4
2145.714	4692.4
2149.744	4684.4
2153.77	4652.4
2157.793	4613.4
2161.812	4557.4
2165.827	4485.4
2169.838	4418.4
2173.846	4360.4
2177.851	4281.4
2181.851	4188.4
2185.848	4147.4
2189.841	4150.4
2193.831	4120.4
2197.817	4048.4
2201.799	4027.4
2205.778	4023.4
2209.753	4006.4
2213.725	3972.4
2217.693	3989.4
2221.657	3942.4
2225.618	3948.4
2229.575	3937.4
2233.529	3905.4
2237.479	3856.4
2241.425	3830.4
2245.368	3752.4
2249.307	3708.4
2253.243	3674.4
2257.175	3637.4
2261.104	3572.4
2265.029	3546.4
2268.95	3505.4
2272.868	3466.4
2276.783	3422.4
2280.694	3402.4
2284.601	3345.4
2288.505	3361.4
2292.405	3329.4
2296.302	3283.4
2300.195	3233.4
2304.085	3215.4
2307.971	3186.4
2311.854	3116.4
2315.734	3092.4
2319.609	3045.4
2323.482	2991.4
2327.351	2960.4
2331.216	2963.4
2335.078	2948.4
2338.937	2947.4
2342.792	2912.4
2346.643	2905.4
2350.492	2929.4
2354.336	2963.4
2358.178	2936.4
2362.015	2931.4
2365.85	2932.4
2369.681	2958.4
2373.508	2932.4
2377.333	2962.4
2381.153	2945.4
2384.971	2941.4
2388.785	2902.4
2392.595	2912.4
2396.402	2853.4
2400.206	2825.4
2404.007	2836.4
2407.804	2804.4
2411.597	2778.4
2415.388	2769.4
2419.174	2732.4
2422.958	2743.4
2426.738	2713.4
2430.515	2687.4
2434.289	2693.4
2438.059	2654.4
2441.825	2641.4
2445.589	2619.4
2449.349	2584.4
2453.106	2520.4
2456.859	2500.4
2460.61	2493.4
2464.356	2461.4
2468.1	2414.4
2471.84	2413.4
2475.577	2387.4
2479.311	2370.4
2483.041	2347.4
2486.768	2341.4
2490.492	2328.4
2494.213	2318.4
2497.93	2305.4
2501.644	2299.4
2505.355	2280.4
2509.062	2274.4
2512.766	2274.4
2516.467	2248.4
2520.165	2257.4
2523.859	2232.4
2527.551	2207.4
2531.239	2193.4
2534.923	2157.4
2538.605	2175.4
2542.283	2157.4
2545.958	2153.4
2549.63	2138.4
2553.299	2137.4
2556.964	2136.4
2560.626	2125.4
2564.285	2121.4
2567.941	2108.4
2571.594	2083.4
2575.243	2093.4
2578.89	2078.4
2582.533	2062.4
2586.173	2051.4
2589.809	2024.4
2593.443	2018.4
2597.073	1992.4
2600.701	1969.4
2604.325	1944.4
2607.946	1945.4
2611.564	1904.4
2615.178	1923.4
2618.79	1911.4
2622.398	1885.4
2626.004	1875.4
2629.606	1853.4
2633.205	1816.4
2636.801	1810.4
2640.394	1810.4
2643.983	1743.4
2647.57	1731.4
2651.153	1707.4
2654.734	1677.4
2658.311	1651.4
2661.885	1622.4
2665.456	1621.4
2669.025	1586.4
2672.589	1571.4
2676.151	1546.4
2679.71	1551.4
2683.266	1482.4
2686.819	1491.4
2690.368	1447.4
2693.915	1413.4
2697.458	1391.4
2700.999	1360.4
2704.536	1337.4
2708.071	1299.4
2711.602	1269.4
2715.13	1248.4
2718.656	1210.4
2722.178	1198.4
2725.697	1183.4
2729.214	1174.4
2732.727	1144.4
2736.237	1139.4
2739.744	1147.4
2743.249	1161.4
2746.75	1158.4
2750.248	1137.4
2753.743	1150.4
2757.236	1171.4
2760.725	1175.4
2764.211	1178.4
2767.695	1184.4
2771.175	1185.4
2774.652	1180.4
2778.127	1194.4
2781.598	1163.4
2785.067	1166.4
2788.532	1161.4
2791.995	1160.4
2795.455	1162.4
2798.911	1166.4
2802.365	1169.4
2805.816	1157.4
2809.264	1146.4
2812.709	1146.4
2816.151	1141.4
2819.59	1150.4
2823.026	1146.4
2826.46	1152.4
2829.89	1148.4
2833.318	1148.4
2836.742	1161.4
2840.164	1168.4
2843.583	1164.4
2846.999	1189.4
2850.412	1195.4
2853.822	1199.4
2857.229	1209.4
2860.634	1232.4
2864.035	1225.4
2867.434	1272.4
2870.83	1260.4
2874.223	1296.4
2877.613	1316.4
2881	1336.4
2884.385	1321.4
2887.766	1328.4
2891.145	1334.4
2894.521	1327.4
2897.894	1307.4
2901.264	1316.4
2904.631	1309.4
2907.996	1313.4
2911.358	1311.4
2914.717	1332.4
2918.073	1333.4
2921.426	1346.4
2924.777	1363.4
2928.124	1393.4
2931.469	1379.4
2934.811	1415.4
2938.15	1445.4
2941.487	1427.4
2944.821	1436.4
2948.152	1444.4
2951.48	1411.4
2954.805	1404.4
2958.128	1379.4
2961.447	1371.4
2964.765	1370.4
2968.079	1365.4
2971.39	1390.4
2974.699	1393.4
2978.005	1422.4
2981.308	1435.4
2984.609	1438.4
2987.907	1473.4
2991.202	1487.4
2994.494	1536.4
2997.784	1571.4
3001.07	1598.4
3004.355	1604.4
3007.636	1628.4
3010.915	1663.4
3014.191	1666.4
3017.464	1690.4
3020.734	1703.4
3024.002	1689.4
3027.267	1712.4
3030.53	1721.4
3033.789	1748.4
3037.046	1762.4
3040.301	1787.4
3043.552	1812.4
3046.801	1849.4
3050.048	1909.4
3053.291	1950.4
3056.532	1982.4
3059.771	2048.4
3063.006	2127.4
3066.239	2166.4
3069.469	2221.4
3072.697	2274.4
3075.922	2339.4
3079.144	2384.4
3082.364	2429.4
3085.581	2468.4
3088.795	2555.4
3092.007	2615.4
3095.216	2617.4
3098.423	2703.4
3101.627	2747.4
3104.828	2826.4
3108.026	2854.4
3111.222	2925.4
3114.416	2975.4
3117.607	3068.4
3120.795	3142.4
3123.98	3196.4
3127.163	3282.4
3130.344	3373.4
3133.521	3435.4
3136.696	3512.4
3139.869	3565.4
3143.039	3631.4
3146.206	3676.4
3149.371	3701.4
3152.533	3747.4
3155.693	3756.4
3158.85	3811.4
3162.005	3794.4
3165.157	3801.4
3168.306	3821.4
3171.453	3809.4
3174.597	3841.4
3177.739	3821.4
3180.878	3828.4
3184.014	3844.4
3187.149	3851.4
3190.28	3826.4
3193.409	3869.4
3196.536	3855.4
3199.659	3860.4
3202.781	3847.4
3205.9	3857.4
3209.016	3853.4
3212.13	3837.4
3215.241	3804.4
3218.35	3759.4
3221.456	3711.4
3224.56	3676.4
3227.661	3634.4
3230.76	3615.4
3233.856	3576.4
3236.95	3514.4
3240.041	3481.4
3243.13	3458.4
3246.216	3448.4
3249.3	3423.4
3252.382	3396.4
3255.46	3375.4
3258.537	3385.4
3261.611	3383.4
3264.682	3375.4
3267.751	3369.4
3270.818	3365.4
3273.882	3327.4
3276.943	3333.4
3280.002	3284.4
3283.059	3258.4
3286.113	3229.4
3289.165	3189.4
3292.214	3135.4
3295.261	3108.4
3298.306	3015.4
3301.348	2989.4
3304.387	2921.4
3307.425	2896.4
3310.459	2848.4
3313.492	2817.4
3316.521	2768.4
3319.549	2760.4
3322.574	2712.4
3325.597	2679.4
3328.617	2671.4
3331.635	2649.4
3334.65	2660.4
3337.663	2615.4
3340.674	2615.4
3343.682	2596.4
3346.688	2597.4
3349.691	2569.4
3352.692	2566.4
3355.691	2555.4
3358.687	2515.4
3361.681	2480.4
3364.673	2464.4
3367.662	2436.4
3370.649	2383.4
3373.633	2355.4
3376.615	2312.4
3379.595	2261.4
3382.572	2241.4
3385.547	2209.4
3388.52	2183.4
3391.49	2125.4
3394.458	2102.4
3397.424	2075.4
3400.387	2057.4
3403.348	2012.4
3406.307	1998.4
3409.263	1974.4
3412.217	1959.4
3415.168	1924.4
3418.118	1905.4
3421.065	1881.4
3424.009	1838.4
3426.951	1801.4
3429.891	1776.4
3432.829	1737.4
3435.764	1709.4
3438.697	1657.4
3441.628	1613.4
3444.557	1550.4
3447.483	1515.4
3450.407	1450.4
3453.328	1402.4
3456.247	1370.4
3459.164	1292.4
3462.079	1246.4
3464.991	1196.4
3467.902	1144.4
3470.809	1116.4
3473.715	1059.4
3476.618	1025.4
3479.519	996.4
3482.418	956.4
3485.315	926.4
3488.209	884.4
3491.101	859.4
3493.99	818.4
3496.878	783.4
3499.763	739.4
3502.646	716.4
3505.527	672.4
3508.405	650.4
3511.281	606.4
3514.155	567.4
3517.027	513.4
3519.897	494.4
3522.764	453.4
3525.629	414.4
3528.492	378.4
3531.352	343.4
3534.211	311.4
3537.067	260.4
3539.921	232.4
3542.773	199.4
3545.622	184.4
3548.469	146.4
3551.315	129.4
3554.157	103.4
3556.998	71.4
3559.837	48.4
3562.673	33.4
3565.507	5.4
3568.339	-14.6
3571.169	-31.6
3573.996	-59.6
3576.822	-83.6
3579.645	-80.6
3582.466	-121.6
3585.285	-136.6
3588.101	-128.6
3590.916	-170.6
3593.728	-190.6
3596.538	-197.6
3599.346	-218.6
3602.152	-228.6
3604.956	-243.6
3607.757	-260.6
3610.556	-283.6
3613.354	-287.6
3616.149	-299.6
3618.942	-314.6
3621.732	-318.6
3624.521	-329.6
3627.307	-347.6
3630.092	-358.6
3632.874	-367.6
3635.654	-369.6
3638.432	-373.6
3641.208	-380.6
3643.982	-385.6
3646.753	-391.6
3649.523	-410.6
3652.29	-416.6
3655.055	-416.6
3657.818	-433.6
3660.579	-441.6
3663.338	-454.6
3666.095	-468.6
3668.849	-475.6
3671.602	-477.6
3674.352	-481.6
3677.101	-497.6
3679.847	-502.6
3682.591	-507.6
3685.333	-511.6
3688.073	-515.6
3690.811	-519.6
3693.547	-513.6
3696.281	-527.6
3699.013	-533.6
3701.742	-533.6
3704.47	-543.6
3707.195	-552.6
3709.919	-549.6
3712.64	-548.6
3715.359	-556.6
3718.076	-560.6
3720.792	-564.6
3723.505	-566.6
3726.216	-576.6
3728.925	-575.6
3731.632	-589.6
3734.336	-584.6
3737.039	-594.6
3739.74	-586.6
3742.439	-588.6
3745.136	-601.6
3747.83	-595.6
3750.523	-591.6
3753.213	-597.6
3755.902	-596.6
3758.589	-599.6
3761.273	-593.6
3763.956	-604.6
3766.636	-603.6
3769.315	-608.6
3771.991	-598.6
3774.665	-609.6
3777.338	-609.6
3780.008	-603.6
3782.677	-612.6
3785.343	-617.6
3788.007	-610.6
3790.67	-615.6
3793.33	-615.6
3795.989	-617.6
3798.645	-618.6
3801.299	-624.6
3803.952	-627.6
3806.602	-624.6
3809.251	-634.6
3811.897	-619.6
3814.542	-620.6
3817.184	-628.6
3819.825	-632.6
3822.463	-631.6
3825.1	-632.6
3827.735	-636.6
3830.367	-639.6
3832.998	-637.6
3835.627	-646.6
3838.253	-640.6
3840.878	-639.6
3843.501	-636.6
3846.122	-634.6
3848.741	-641.6
3851.358	-639.6
3853.973	-632.6
3856.586	-637.6
3859.197	-642.6
3861.806	-640.6
3864.414	-631.6
3867.019	-635.6
3869.622	-637.6
3872.224	-632.6
3874.823	-621.6
3877.421	-599.6
3880.016	-588.6
3882.61	-562.6
3885.202	-563.6
3887.792	-585.6
3890.38	-610.6
3892.966	-630.6
3895.55	-637.6
3898.132	-645.6
3900.713	-655.6
3903.291	-652.6
3905.868	-651.6
3908.442	-650.6
3911.015	-646.6
3913.586	-651.6
3916.155	-653.6
3918.722	-653.6
3921.287	-657.6
3923.85	-649.6
3926.411	-653.6
3928.971	-652.6
3931.528	-658.6
3934.084	-656.6
3936.638	-654.6
3939.19	-660.6
3941.74	-655.6
3944.288	-658.6
3946.834	-656.6
3949.378	-656.6
3951.921	-654.6
3954.462	-655.6
3957	-649.6
3959.537	-644.6
3962.072	-652.6
3964.606	-654.6
3967.137	-657.6
3969.667	-654.6
3972.194	-653.6
3974.72	-651.6
3977.244	-646.6
3979.766	-642.6
3982.286	-646.6
3984.805	-638.6
3987.321	-643.6
3989.836	-640.6
3992.349	-640.6
3994.86	-639.6
3997.369	-648.6
3999.877	-641.6
4002.382	-641.6
4004.886	-640.6
4007.388	-641.6
4009.888	-644.6
4012.386	-635.6
4014.883	-642.6
4017.377	-641.6
4019.87	-638.6
4022.361	-645.6
4024.85	-646.6
4027.338	-645.6
4029.823	-640.6
4032.307	-647.6
4034.789	-648.6
4037.269	-650.6
4039.747	-648.6
4042.224	-649.6
4044.699	-640.6
4047.172	-650.6
4049.643	-643.6
4052.112	-642.6
4054.58	-641.6
4057.046	-646.6
4059.51	-647.6
4061.972	-649.6
4064.432	-647.6
4066.891	-647.6
4069.348	-651.6
4071.803	-648.6
4074.256	-642.6
4076.708	-641.6
4079.158	-644.6
4081.606	-641.6
4084.052	-636.6
4086.497	-643.6
4088.939	-640.6
4091.38	-636.6
4093.819	-640.6
4096.257	-679.6
4098.693	-682.6
4101.127	-681.6
4103.559	-681.6
4105.989	-408.6
4108.418	-394.6
4110.845	-362.6
4113.27	-345.6
4115.694	-296.6
4118.115	-256.6
4120.535	-641.6
4122.954	-646.6
4125.37	-642.6
4127.785	-646.6
4130.198	-652.6
4132.609	-646.6
4135.019	-688.6
4137.427	-682.6
4139.833	-681.6
4142.237	-679.6
