Data from 2018-2-7_ethanol_RamanShift_01.txt Node
Date: Tue Feb 13 11:06:44 IST 2018
User: aro
Spectrometer: QEPB0276
Trigger mode: 0
Integration Time (sec): 3.000000E1
Scans to average: 1
Electric dark correction enabled: true
Nonlinearity correction enabled: false
Boxcar width: 0
XAxis mode: Raman Shifts
Number of Pixels in Spectrum: 1044
>>>>>Begin Spectral Data<<<<<
160.701	-50.1
166.742	24.9
172.777	280.9
178.805	1001.9
184.826	2592.9
190.841	5196.9
196.849	8068.9
202.85	9903.9
208.845	10364.9
214.833	10247.9
220.815	9991.9
226.789	9969.9
232.758	9963.9
238.719	9902.9
244.674	9829.9
250.623	9777.9
256.565	9773.9
262.5	9766.9
268.429	9776.9
274.351	9784.9
280.267	9633.9
286.176	9490.9
292.079	9315.9
297.975	9020.9
303.865	8783.9
309.748	8516.9
315.625	8335.9
321.495	8183.9
327.359	8044.9
333.217	7980.9
339.068	7921.9
344.912	7879.9
350.751	7895.9
356.583	7907.9
362.408	7981.9
368.227	8005.9
374.04	8150.9
379.847	8277.9
385.647	8561.9
391.44	8868.9
397.228	9257.9
403.009	9788.9
408.784	10655.9
414.553	12014.9
420.315	14261.9
426.071	17449.9
431.821	21024.9
437.565	23305.9
443.302	22967.9
449.033	20589.9
454.758	17498.9
460.477	14720.9
466.189	12609.9
471.896	11068.9
477.596	10056.9
483.29	9333.9
488.978	8848.9
494.66	8495.9
500.335	8136.9
506.005	7785.9
511.668	7445.9
517.325	7145.9
522.977	6977.9
528.622	6775.9
534.261	6683.9
539.894	6578.9
545.521	6524.9
551.141	6446.9
556.756	6431.9
562.365	6399.9
567.968	6352.9
573.565	6363.9
579.155	6332.9
584.74	6354.9
590.319	6349.9
595.892	6336.9
601.459	6350.9
607.02	6314.9
612.575	6325.9
618.124	6294.9
623.667	6251.9
629.204	6170.9
634.735	6173.9
640.261	6187.9
645.781	6181.9
651.294	6183.9
656.802	6167.9
662.304	6104.9
667.8	6184.9
673.29	6147.9
678.775	6135.9
684.254	6113.9
689.726	6138.9
695.193	6110.9
700.655	6083.9
706.11	6039.9
711.56	6044.9
717.004	6052.9
722.442	6074.9
727.874	6045.9
733.301	6039.9
738.722	6061.9
744.137	6084.9
749.547	6144.9
754.951	6192.9
760.349	6271.9
765.741	6368.9
771.128	6467.9
776.509	6609.9
781.885	6782.9
787.254	6938.9
792.618	7122.9
797.977	7375.9
803.33	7685.9
808.677	7987.9
814.019	8266.9
819.355	8370.9
824.686	8487.9
830.011	8710.9
835.33	9113.9
840.644	9724.9
845.952	10561.9
851.255	11903.9
856.552	13963.9
861.844	17553.9
867.13	24611.9
872.41	39716.9
877.686	62780.9
882.955	62781.9
888.219	62779.9
893.478	62771.9
898.731	62775.9
903.979	44979.9
909.221	23063.9
914.458	16484.9
919.69	13277.9
924.916	11377.9
930.136	10192.9
935.351	9379.9
940.561	8792.9
945.766	8386.9
950.965	8056.9
956.158	7809.9
961.347	7597.9
966.529	7503.9
971.707	7427.9
976.879	7432.9
982.046	7528.9
987.208	7708.9
992.364	8002.9
997.515	8550.9
1002.66	9166.9
1007.801	10075.9
1012.936	11361.9
1018.066	13099.9
1023.19	15543.9
1028.309	18885.9
1033.423	23150.9
1038.532	28541.9
1043.636	35109.9
1048.734	42636.9
1053.827	48341.9
1058.915	48829.9
1063.998	42995.9
1069.075	35453.9
1074.147	31074.9
1079.214	30887.9
1084.276	34053.9
1089.333	39911.9
1094.385	46716.9
1099.431	50977.9
1104.472	48398.9
1109.509	40150.9
1114.54	31476.9
1119.565	25861.9
1124.586	22711.9
1129.602	20134.9
1134.613	17421.9
1139.618	14891.9
1144.619	12934.9
1149.614	11532.9
1154.604	10632.9
1159.589	9960.9
1164.57	9314.9
1169.545	8782.9
1174.515	8250.9
1179.48	7828.9
1184.44	7488.9
1189.395	7237.9
1194.345	7057.9
1199.29	6983.9
1204.23	6986.9
1209.165	7015.9
1214.095	7137.9
1219.021	7326.9
1223.941	7591.9
1228.856	7948.9
1233.766	8321.9
1238.672	8796.9
1243.572	9342.9
1248.467	9934.9
1253.358	10646.9
1258.244	11694.9
1263.124	13300.9
1268	15969.9
1272.871	19707.9
1277.737	23501.9
1282.599	24798.9
1287.455	22605.9
1292.306	18580.9
1297.153	15211.9
1301.995	13133.9
1306.832	11788.9
1311.664	10999.9
1316.491	10508.9
1321.314	10094.9
1326.132	9763.9
1330.945	9503.9
1335.753	9195.9
1340.556	9004.9
1345.354	8962.9
1350.148	8956.9
1354.937	9088.9
1359.722	9300.9
1364.501	9728.9
1369.276	10334.9
1374.046	11060.9
1378.811	12070.9
1383.572	13121.9
1388.327	13956.9
1393.079	14468.9
1397.825	14721.9
1402.567	15082.9
1407.304	15726.9
1412.036	16696.9
1416.764	17860.9
1421.487	19361.9
1426.205	20993.9
1430.919	23132.9
1435.628	26058.9
1440.333	30291.9
1445.032	36548.9
1449.727	45016.9
1454.418	53523.9
1459.104	57743.9
1463.785	54410.9
1468.462	45383.9
1473.134	36473.9
1477.802	31033.9
1482.465	28589.9
1487.123	27296.9
1491.777	25127.9
1496.426	22009.9
1501.071	18838.9
1505.711	16278.9
1510.347	14450.9
1514.978	13197.9
1519.604	12209.9
1524.226	11354.9
1528.844	10588.9
1533.457	9846.9
1538.065	9262.9
1542.669	8643.9
1547.269	8155.9
1551.864	7669.9
1556.454	7284.9
1561.041	6970.9
1565.622	6616.9
1570.199	6346.9
1574.772	6087.9
1579.34	5920.9
1583.904	5665.9
1588.464	5476.9
1593.019	5296.9
1597.569	5158.9
1602.115	5034.9
1606.657	4905.9
1611.195	4840.9
1615.728	4811.9
1620.256	4754.9
1624.78	4657.9
1629.3	4522.9
1633.816	4371.9
1638.327	4211.9
1642.834	4110.9
1647.336	4020.9
1651.834	3936.9
1656.328	3892.9
1660.817	3839.9
1665.302	3813.9
1669.783	3737.9
1674.259	3674.9
1678.732	3653.9
1683.199	3543.9
1687.663	3503.9
1692.122	3453.9
1696.577	3469.9
1701.028	3478.9
1705.474	3528.9
1709.917	3606.9
1714.355	3619.9
1718.788	3620.9
1723.218	3535.9
1727.643	3481.9
1732.064	3371.9
1736.481	3270.9
1740.893	3185.9
1745.301	3087.9
1749.705	2948.9
1754.105	2847.9
1758.501	2752.9
1762.893	2682.9
1767.28	2554.9
1771.663	2499.9
1776.042	2461.9
1780.417	2416.9
1784.787	2387.9
1789.154	2407.9
1793.516	2431.9
1797.874	2472.9
1802.228	2514.9
1806.578	2541.9
1810.924	2529.9
1815.266	2512.9
1819.603	2455.9
1823.937	2423.9
1828.266	2391.9
1832.591	2335.9
1836.913	2308.9
1841.23	2296.9
1845.543	2271.9
1849.852	2263.9
1854.156	2257.9
1858.457	2266.9
1862.754	2266.9
1867.047	2264.9
1871.335	2288.9
1875.62	2274.9
1879.9	2278.9
1884.177	2277.9
1888.449	2247.9
1892.718	2251.9
1896.982	2217.9
1901.243	2179.9
1905.499	2174.9
1909.752	2160.9
1914	2154.9
1918.245	2180.9
1922.485	2197.9
1926.722	2202.9
1930.954	2250.9
1935.183	2263.9
1939.408	2283.9
1943.628	2289.9
1947.845	2272.9
1952.058	2297.9
1956.267	2266.9
1960.472	2247.9
1964.673	2237.9
1968.87	2185.9
1973.063	2174.9
1977.252	2127.9
1981.438	2099.9
1985.619	2077.9
1989.797	2027.9
1993.971	2004.9
1998.14	1992.9
2002.306	1976.9
2006.469	1966.9
2010.627	1963.9
2014.781	1924.9
2018.932	1923.9
2023.078	1867.9
2027.221	1857.9
2031.36	1836.9
2035.495	1792.9
2039.627	1765.9
2043.754	1764.9
2047.878	1734.9
2051.998	1730.9
2056.114	1729.9
2060.226	1766.9
2064.334	1736.9
2068.439	1774.9
2072.54	1819.9
2076.637	1863.9
2080.73	1885.9
2084.82	1952.9
2088.906	1989.9
2092.988	2018.9
2097.066	2009.9
2101.14	2014.9
2105.211	1971.9
2109.278	1947.9
2113.342	1931.9
2117.401	1875.9
2121.457	1863.9
2125.509	1866.9
2129.558	1865.9
2133.602	1845.9
2137.643	1843.9
2141.681	1868.9
2145.714	1833.9
2149.744	1842.9
2153.77	1820.9
2157.793	1804.9
2161.812	1812.9
2165.827	1776.9
2169.838	1785.9
2173.846	1791.9
2177.851	1760.9
2181.851	1745.9
2185.848	1752.9
2189.841	1733.9
2193.831	1717.9
2197.817	1701.9
2201.799	1702.9
2205.778	1723.9
2209.753	1697.9
2213.725	1698.9
2217.693	1709.9
2221.657	1749.9
2225.618	1751.9
2229.575	1757.9
2233.529	1772.9
2237.479	1812.9
2241.425	1820.9
2245.368	1836.9
2249.307	1856.9
2253.243	1871.9
2257.175	1876.9
2261.104	1884.9
2265.029	1858.9
2268.95	1828.9
2272.868	1842.9
2276.783	1840.9
2280.694	1865.9
2284.601	1875.9
2288.505	1854.9
2292.405	1854.9
2296.302	1809.9
2300.195	1799.9
2304.085	1733.9
2307.971	1673.9
2311.854	1653.9
2315.734	1622.9
2319.609	1593.9
2323.482	1569.9
2327.351	1575.9
2331.216	1592.9
2335.078	1578.9
2338.937	1546.9
2342.792	1545.9
2346.643	1535.9
2350.492	1512.9
2354.336	1534.9
2358.178	1505.9
2362.015	1506.9
2365.85	1531.9
2369.681	1536.9
2373.508	1513.9
2377.333	1490.9
2381.153	1502.9
2384.971	1489.9
2388.785	1508.9
2392.595	1487.9
2396.402	1479.9
2400.206	1500.9
2404.007	1498.9
2407.804	1499.9
2411.597	1512.9
2415.388	1509.9
2419.174	1529.9
2422.958	1510.9
2426.738	1535.9
2430.515	1541.9
2434.289	1571.9
2438.059	1560.9
2441.825	1572.9
2445.589	1574.9
2449.349	1565.9
2453.106	1581.9
2456.859	1552.9
2460.61	1578.9
2464.356	1594.9
2468.1	1599.9
2471.84	1623.9
2475.577	1599.9
2479.311	1612.9
2483.041	1596.9
2486.768	1586.9
2490.492	1592.9
2494.213	1603.9
2497.93	1583.9
2501.644	1597.9
2505.355	1631.9
2509.062	1662.9
2512.766	1668.9
2516.467	1698.9
2520.165	1722.9
2523.859	1748.9
2527.551	1807.9
2531.239	1870.9
2534.923	1966.9
2538.605	2048.9
2542.283	2143.9
2545.958	2220.9
2549.63	2267.9
2553.299	2299.9
2556.964	2266.9
2560.626	2241.9
2564.285	2188.9
2567.941	2186.9
2571.594	2144.9
2575.243	2138.9
2578.89	2117.9
2582.533	2116.9
2586.173	2115.9
2589.809	2146.9
2593.443	2135.9
2597.073	2158.9
2600.701	2136.9
2604.325	2138.9
2607.946	2148.9
2611.564	2149.9
2615.178	2143.9
2618.79	2148.9
2622.398	2115.9
2626.004	2131.9
2629.606	2108.9
2633.205	2110.9
2636.801	2133.9
2640.394	2125.9
2643.983	2170.9
2647.57	2212.9
2651.153	2235.9
2654.734	2269.9
2658.311	2315.9
2661.885	2333.9
2665.456	2386.9
2669.025	2464.9
2672.589	2542.9
2676.151	2640.9
2679.71	2767.9
2683.266	2891.9
2686.819	3072.9
2690.368	3283.9
2693.915	3557.9
2697.458	3866.9
2700.999	4266.9
2704.536	4695.9
2708.071	5197.9
2711.602	5650.9
2715.13	5986.9
2718.656	6186.9
2722.178	6273.9
2725.697	6264.9
2729.214	6111.9
2732.727	5904.9
2736.237	5704.9
2739.744	5585.9
2743.249	5536.9
2746.75	5620.9
2750.248	5713.9
2753.743	5806.9
2757.236	5768.9
2760.725	5681.9
2764.211	5475.9
2767.695	5319.9
2771.175	5184.9
2774.652	5071.9
2778.127	5032.9
2781.598	5067.9
2785.067	5173.9
2788.532	5325.9
2791.995	5489.9
2795.455	5768.9
2798.911	6040.9
2802.365	6429.9
2805.816	6845.9
2809.264	7309.9
2812.709	7922.9
2816.151	8596.9
2819.59	9344.9
2823.026	10270.9
2826.46	11289.9
2829.89	12462.9
2833.318	13663.9
2836.742	14763.9
2840.164	15685.9
2843.583	16423.9
2846.999	17265.9
2850.412	18205.9
2853.822	19388.9
2857.229	20919.9
2860.634	22792.9
2864.035	25172.9
2867.434	28263.9
2870.83	31945.9
2874.223	35946.9
2877.613	39510.9
2881	41967.9
2884.385	42755.9
2887.766	42296.9
2891.145	41201.9
2894.521	39782.9
2897.894	38164.9
2901.264	36686.9
2904.631	35397.9
2907.996	34515.9
2911.358	34403.9
2914.717	35034.9
2918.073	36597.9
2921.426	39373.9
2924.777	43432.9
2928.124	48149.9
2931.469	51440.9
2934.811	51784.9
2938.15	48662.9
2941.487	43800.9
2944.821	38539.9
2948.152	33921.9
2951.48	30022.9
2954.805	26827.9
2958.128	24626.9
2961.447	23291.9
2964.765	22794.9
2968.079	22864.9
2971.39	23329.9
2974.699	23680.9
2978.005	23483.9
2981.308	22347.9
2984.609	20561.9
2987.907	18259.9
2991.202	16025.9
2994.494	14021.9
2997.784	12272.9
3001.07	10863.9
3004.355	9703.9
3007.636	8712.9
3010.915	7836.9
3014.191	7164.9
3017.464	6510.9
3020.734	5893.9
3024.002	5431.9
3027.267	5013.9
3030.53	4629.9
3033.789	4293.9
3037.046	4004.9
3040.301	3732.9
3043.552	3495.9
3046.801	3280.9
3050.048	3120.9
3053.291	2963.9
3056.532	2803.9
3059.771	2674.9
3063.006	2560.9
3066.239	2438.9
3069.469	2322.9
3072.697	2233.9
3075.922	2129.9
3079.144	2037.9
3082.364	1948.9
3085.581	1858.9
3088.795	1789.9
3092.007	1730.9
3095.216	1659.9
3098.423	1606.9
3101.627	1552.9
3104.828	1503.9
3108.026	1451.9
3111.222	1434.9
3114.416	1390.9
3117.607	1353.9
3120.795	1319.9
3123.98	1287.9
3127.163	1273.9
3130.344	1242.9
3133.521	1243.9
3136.696	1231.9
3139.869	1217.9
3143.039	1198.9
3146.206	1183.9
3149.371	1194.9
3152.533	1161.9
3155.693	1164.9
3158.85	1141.9
3162.005	1130.9
3165.157	1124.9
3168.306	1128.9
3171.453	1105.9
3174.597	1085.9
3177.739	1089.9
3180.878	1099.9
3184.014	1080.9
3187.149	1080.9
3190.28	1068.9
3193.409	1098.9
3196.536	1091.9
3199.659	1078.9
3202.781	1094.9
3205.9	1084.9
3209.016	1093.9
3212.13	1067.9
3215.241	1083.9
3218.35	1076.9
3221.456	1082.9
3224.56	1067.9
3227.661	1056.9
3230.76	1069.9
3233.856	1049.9
3236.95	1052.9
3240.041	1031.9
3243.13	1030.9
3246.216	1017.9
3249.3	1015.9
3252.382	1011.9
3255.46	1023.9
3258.537	1010.9
3261.611	1013.9
3264.682	1012.9
3267.751	1014.9
3270.818	1016.9
3273.882	1008.9
3276.943	1016.9
3280.002	984.9
3283.059	989.9
3286.113	965.9
3289.165	960.9
3292.214	932.9
3295.261	939.9
3298.306	916.9
3301.348	892.9
3304.387	887.9
3307.425	871.9
3310.459	850.9
3313.492	833.9
3316.521	816.9
3319.549	814.9
3322.574	794.9
3325.597	781.9
3328.617	787.9
3331.635	778.9
3334.65	773.9
3337.663	758.9
3340.674	769.9
3343.682	759.9
3346.688	753.9
3349.691	749.9
3352.692	719.9
3355.691	719.9
3358.687	705.9
3361.681	686.9
3364.673	685.9
3367.662	683.9
3370.649	670.9
3373.633	640.9
3376.615	623.9
3379.595	605.9
3382.572	591.9
3385.547	590.9
3388.52	569.9
3391.49	554.9
3394.458	537.9
3397.424	517.9
3400.387	515.9
3403.348	505.9
3406.307	495.9
3409.263	471.9
3412.217	461.9
3415.168	448.9
3418.118	454.9
3421.065	424.9
3424.009	421.9
3426.951	395.9
3429.891	383.9
3432.829	378.9
3435.764	360.9
3438.697	345.9
3441.628	328.9
3444.557	310.9
3447.483	297.9
3450.407	268.9
3453.328	261.9
3456.247	234.9
3459.164	220.9
3462.079	214.9
3464.991	191.9
3467.902	168.9
3470.809	155.9
3473.715	142.9
3476.618	134.9
3479.519	117.9
3482.418	116.9
3485.315	108.9
3488.209	93.9
3491.101	77.9
3493.99	69.9
3496.878	48.9
3499.763	41.9
3502.646	38.9
3505.527	24.9
3508.405	12.9
3511.281	0.9
3514.155	0.9
3517.027	-15.1
3519.897	-28.1
3522.764	-23.1
3525.629	-37.1
3528.492	-49.1
3531.352	-72.1
3534.211	-71.1
3537.067	-81.1
3539.921	-84.1
3542.773	-97.1
3545.622	-113.1
3548.469	-108.1
3551.315	-120.1
3554.157	-130.1
3556.998	-129.1
3559.837	-135.1
3562.673	-146.1
3565.507	-150.1
3568.339	-151.1
3571.169	-159.1
3573.996	-165.1
3576.822	-171.1
3579.645	-168.1
3582.466	-182.1
3585.285	-181.1
3588.101	-174.1
3590.916	-183.1
3593.728	-193.1
3596.538	-194.1
3599.346	-198.1
3602.152	-198.1
3604.956	-203.1
3607.757	-209.1
3610.556	-213.1
3613.354	-212.1
3616.149	-210.1
3618.942	-219.1
3621.732	-222.1
3624.521	-225.1
3627.307	-227.1
3630.092	-226.1
3632.874	-230.1
3635.654	-231.1
3638.432	-228.1
3641.208	-240.1
3643.982	-236.1
3646.753	-239.1
3649.523	-247.1
3652.29	-246.1
3655.055	-240.1
3657.818	-243.1
3660.579	-249.1
3663.338	-243.1
3666.095	-248.1
3668.849	-249.1
3671.602	-258.1
3674.352	-251.1
3677.101	-249.1
3679.847	-256.1
3682.591	-260.1
3685.333	-259.1
3688.073	-259.1
3690.811	-257.1
3693.547	-250.1
3696.281	-268.1
3699.013	-255.1
3701.742	-260.1
3704.47	-257.1
3707.195	-270.1
3709.919	-260.1
3712.64	-259.1
3715.359	-263.1
3718.076	-257.1
3720.792	-264.1
3723.505	-265.1
3726.216	-269.1
3728.925	-266.1
3731.632	-268.1
3734.336	-269.1
3737.039	-279.1
3739.74	-273.1
3742.439	-264.1
3745.136	-272.1
3747.83	-271.1
3750.523	-270.1
3753.213	-264.1
3755.902	-270.1
3758.589	-272.1
3761.273	-269.1
3763.956	-278.1
3766.636	-271.1
3769.315	-272.1
3771.991	-275.1
3774.665	-269.1
3777.338	-275.1
3780.008	-276.1
3782.677	-280.1
3785.343	-277.1
3788.007	-268.1
3790.67	-276.1
3793.33	-280.1
3795.989	-283.1
3798.645	-281.1
3801.299	-284.1
3803.952	-287.1
3806.602	-278.1
3809.251	-283.1
3811.897	-272.1
3814.542	-274.1
3817.184	-280.1
3819.825	-280.1
3822.463	-283.1
3825.1	-286.1
3827.735	-285.1
3830.367	-282.1
3832.998	-291.1
3835.627	-284.1
3838.253	-289.1
3840.878	-281.1
3843.501	-285.1
3846.122	-282.1
3848.741	-283.1
3851.358	-286.1
3853.973	-278.1
3856.586	-281.1
3859.197	-286.1
3861.806	-282.1
3864.414	-284.1
3867.019	-284.1
3869.622	-284.1
3872.224	-275.1
3874.823	-261.1
3877.421	-238.1
3880.016	-229.1
3882.61	-182.1
3885.202	-188.1
3887.792	-215.1
3890.38	-239.1
3892.966	-267.1
3895.55	-276.1
3898.132	-286.1
3900.713	-289.1
3903.291	-286.1
3905.868	-289.1
3908.442	-294.1
3911.015	-290.1
3913.586	-293.1
3916.155	-290.1
3918.722	-290.1
3921.287	-289.1
3923.85	-292.1
3926.411	-294.1
3928.971	-293.1
3931.528	-297.1
3934.084	-282.1
3936.638	-294.1
3939.19	-293.1
3941.74	-295.1
3944.288	-290.1
3946.834	-292.1
3949.378	-289.1
3951.921	-291.1
3954.462	-296.1
3957	-289.1
3959.537	-285.1
3962.072	-291.1
3964.606	-281.1
3967.137	-289.1
3969.667	-289.1
3972.194	-285.1
3974.72	-284.1
3977.244	-285.1
3979.766	-283.1
3982.286	-292.1
3984.805	-283.1
3987.321	-284.1
3989.836	-286.1
3992.349	-288.1
3994.86	-285.1
3997.369	-293.1
3999.877	-290.1
4002.382	-282.1
4004.886	-288.1
4007.388	-283.1
4009.888	-286.1
4012.386	-288.1
4014.883	-285.1
4017.377	-281.1
4019.87	-286.1
4022.361	-291.1
4024.85	-290.1
4027.338	-290.1
4029.823	-283.1
4032.307	-289.1
4034.789	-288.1
4037.269	-291.1
4039.747	-290.1
4042.224	-287.1
4044.699	-285.1
4047.172	-288.1
4049.643	-288.1
4052.112	-289.1
4054.58	-285.1
4057.046	-291.1
4059.51	-290.1
4061.972	-292.1
4064.432	-285.1
4066.891	-284.1
4069.348	-289.1
4071.803	-289.1
4074.256	-283.1
4076.708	-283.1
4079.158	-290.1
4081.606	-284.1
4084.052	-283.1
4086.497	-286.1
4088.939	-278.1
4091.38	-275.1
4093.819	-278.1
4096.257	-313.1
4098.693	-316.1
4101.127	-315.1
4103.559	-314.1
4105.989	-147.1
4108.418	-140.1
4110.845	-133.1
4113.27	-124.1
4115.694	-109.1
4118.115	-89.1
4120.535	-278.1
4122.954	-282.1
4125.37	-278.1
4127.785	-280.1
4130.198	-285.1
4132.609	-277.1
4135.019	-316.1
4137.427	-314.1
4139.833	-314.1
4142.237	-313.1
