Data from 2018-2-7_conc=02_RamanShift_05.txt Node
Date: Tue Feb 13 11:27:44 IST 2018
User: aro
Spectrometer: QEPB0276
Trigger mode: 0
Integration Time (sec): 3.000000E1
Scans to average: 1
Electric dark correction enabled: true
Nonlinearity correction enabled: false
Boxcar width: 0
XAxis mode: Raman Shifts
Number of Pixels in Spectrum: 1044
>>>>>Begin Spectral Data<<<<<
160.701	-165.6
166.742	18.4
172.777	588.4
178.805	2278.4
184.826	6203.4
190.841	12709.4
196.849	19969.4
202.85	25061.4
208.845	26643.4
214.833	26314.4
220.815	25984.4
226.789	25820.4
232.758	25766.4
238.719	25689.4
244.674	25340.4
250.623	24919.4
256.565	24412.4
262.5	23944.4
268.429	23506.4
274.351	23248.4
280.267	22960.4
286.176	22780.4
292.079	22579.4
297.975	22388.4
303.865	22197.4
309.748	22028.4
315.625	21929.4
321.495	21876.4
327.359	21722.4
333.217	21698.4
339.068	21683.4
344.912	21687.4
350.751	21634.4
356.583	21699.4
362.408	21621.4
368.227	21537.4
374.04	21602.4
379.847	21677.4
385.647	21797.4
391.44	21864.4
397.228	21960.4
403.009	22044.4
408.784	22089.4
414.553	22116.4
420.315	22157.4
426.071	22187.4
431.821	22158.4
437.565	22163.4
443.302	22140.4
449.033	22107.4
454.758	22051.4
460.477	22052.4
466.189	21956.4
471.896	21933.4
477.596	21845.4
483.29	21851.4
488.978	21847.4
494.66	21794.4
500.335	21621.4
506.005	21471.4
511.668	21186.4
517.325	20964.4
522.977	20807.4
528.622	20713.4
534.261	20563.4
539.894	20494.4
545.521	20348.4
551.141	20316.4
556.756	20257.4
562.365	20235.4
567.968	20130.4
573.565	20064.4
579.155	20008.4
584.74	19927.4
590.319	19814.4
595.892	19790.4
601.459	19682.4
607.02	19573.4
612.575	19556.4
618.124	19381.4
623.667	19282.4
629.204	19223.4
634.735	19136.4
640.261	19049.4
645.781	18970.4
651.294	18948.4
656.802	18908.4
662.304	18928.4
667.8	18841.4
673.29	18815.4
678.775	18803.4
684.254	18681.4
689.726	18700.4
695.193	18619.4
700.655	18538.4
706.11	18394.4
711.56	18366.4
717.004	18264.4
722.442	18201.4
727.874	18143.4
733.301	18081.4
738.722	18072.4
744.137	18038.4
749.547	17986.4
754.951	18008.4
760.349	17985.4
765.741	17949.4
771.128	18010.4
776.509	18027.4
781.885	18031.4
787.254	18040.4
792.618	17897.4
797.977	17760.4
803.33	17660.4
808.677	17619.4
814.019	17504.4
819.355	17392.4
824.686	17323.4
830.011	17294.4
835.33	17313.4
840.644	17293.4
845.952	17313.4
851.255	17412.4
856.552	17382.4
861.844	17387.4
867.13	17328.4
872.41	17283.4
877.686	17250.4
882.955	17038.4
888.219	16945.4
893.478	16734.4
898.731	16465.4
903.979	16390.4
909.221	16286.4
914.458	16205.4
919.69	16240.4
924.916	16281.4
930.136	16326.4
935.351	16326.4
940.561	16332.4
945.766	16355.4
950.965	16212.4
956.158	16114.4
961.347	16003.4
966.529	15750.4
971.707	15531.4
976.879	15353.4
982.046	15254.4
987.208	15203.4
992.364	15242.4
997.515	15324.4
1002.66	15519.4
1007.801	15650.4
1012.936	15795.4
1018.066	15759.4
1023.19	15796.4
1028.309	15765.4
1033.423	15708.4
1038.532	15635.4
1043.636	15489.4
1048.734	15331.4
1053.827	15105.4
1058.915	14932.4
1063.998	14883.4
1069.075	14810.4
1074.147	14824.4
1079.214	14922.4
1084.276	14979.4
1089.333	15094.4
1094.385	15132.4
1099.431	15190.4
1104.472	15138.4
1109.509	15104.4
1114.54	14965.4
1119.565	14756.4
1124.586	14589.4
1129.602	14388.4
1134.613	14361.4
1139.618	14228.4
1144.619	14122.4
1149.614	14191.4
1154.604	14245.4
1159.589	14296.4
1164.57	14261.4
1169.545	14337.4
1174.515	14317.4
1179.48	14257.4
1184.44	14125.4
1189.395	14044.4
1194.345	13912.4
1199.29	13891.4
1204.23	13873.4
1209.165	13934.4
1214.095	14048.4
1219.021	14103.4
1223.941	14119.4
1228.856	14256.4
1233.766	14254.4
1238.672	14252.4
1243.572	14223.4
1248.467	14172.4
1253.358	14013.4
1258.244	13810.4
1263.124	13541.4
1268	13337.4
1272.871	13262.4
1277.737	13127.4
1282.599	13081.4
1287.455	13082.4
1292.306	13145.4
1297.153	13128.4
1301.995	13200.4
1306.832	13238.4
1311.664	13242.4
1316.491	13211.4
1321.314	13023.4
1326.132	12863.4
1330.945	12625.4
1335.753	12283.4
1340.556	11988.4
1345.354	11738.4
1350.148	11544.4
1354.937	11447.4
1359.722	11431.4
1364.501	11456.4
1369.276	11554.4
1374.046	11718.4
1378.811	11889.4
1383.572	11981.4
1388.327	12074.4
1393.079	12061.4
1397.825	11888.4
1402.567	11749.4
1407.304	11682.4
1412.036	11471.4
1416.764	11423.4
1421.487	11365.4
1426.205	11286.4
1430.919	11270.4
1435.628	11259.4
1440.333	11274.4
1445.032	11286.4
1449.727	11317.4
1454.418	11275.4
1459.104	11162.4
1463.785	10973.4
1468.462	10692.4
1473.134	10480.4
1477.802	10236.4
1482.465	10062.4
1487.123	9938.4
1491.777	9879.4
1496.426	9881.4
1501.071	10013.4
1505.711	10166.4
1510.347	10296.4
1514.978	10496.4
1519.604	10645.4
1524.226	10736.4
1528.844	10750.4
1533.457	10763.4
1538.065	10682.4
1542.669	10662.4
1547.269	10619.4
1551.864	10496.4
1556.454	10471.4
1561.041	10467.4
1565.622	10490.4
1570.199	10502.4
1574.772	10546.4
1579.34	10592.4
1583.904	10680.4
1588.464	10716.4
1593.019	10674.4
1597.569	10656.4
1602.115	10579.4
1606.657	10520.4
1611.195	10394.4
1615.728	10336.4
1620.256	10272.4
1624.78	10295.4
1629.3	10287.4
1633.816	10348.4
1638.327	10308.4
1642.834	10368.4
1647.336	10457.4
1651.834	10412.4
1656.328	10379.4
1660.817	10324.4
1665.302	10225.4
1669.783	10009.4
1674.259	9754.4
1678.732	9507.4
1683.199	9165.4
1687.663	8854.4
1692.122	8596.4
1696.577	8426.4
1701.028	8395.4
1705.474	8470.4
1709.917	8559.4
1714.355	8632.4
1718.788	8596.4
1723.218	8455.4
1727.643	8339.4
1732.064	8247.4
1736.481	8037.4
1740.893	7848.4
1745.301	7652.4
1749.705	7434.4
1754.105	7220.4
1758.501	7034.4
1762.893	6847.4
1767.28	6666.4
1771.663	6539.4
1776.042	6417.4
1780.417	6326.4
1784.787	6306.4
1789.154	6334.4
1793.516	6399.4
1797.874	6550.4
1802.228	6663.4
1806.578	6755.4
1810.924	6754.4
1815.266	6736.4
1819.603	6640.4
1823.937	6531.4
1828.266	6410.4
1832.591	6346.4
1836.913	6250.4
1841.23	6239.4
1845.543	6194.4
1849.852	6119.4
1854.156	6131.4
1858.457	6118.4
1862.754	6102.4
1867.047	6117.4
1871.335	6053.4
1875.62	6067.4
1879.9	6059.4
1884.177	5997.4
1888.449	5941.4
1892.718	5826.4
1896.982	5804.4
1901.243	5700.4
1905.499	5672.4
1909.752	5611.4
1914	5611.4
1918.245	5618.4
1922.485	5631.4
1926.722	5739.4
1930.954	5778.4
1935.183	5824.4
1939.408	5885.4
1943.628	5946.4
1947.845	5964.4
1952.058	5946.4
1956.267	5942.4
1960.472	5816.4
1964.673	5766.4
1968.87	5670.4
1973.063	5593.4
1977.252	5483.4
1981.438	5474.4
1985.619	5438.4
1989.797	5350.4
1993.971	5342.4
1998.14	5298.4
2002.306	5303.4
2006.469	5281.4
2010.627	5273.4
2014.781	5204.4
2018.932	5154.4
2023.078	5125.4
2027.221	5042.4
2031.36	4971.4
2035.495	4861.4
2039.627	4790.4
2043.754	4729.4
2047.878	4703.4
2051.998	4685.4
2056.114	4625.4
2060.226	4619.4
2064.334	4613.4
2068.439	4648.4
2072.54	4642.4
2076.637	4661.4
2080.73	4698.4
2084.82	4718.4
2088.906	4730.4
2092.988	4738.4
2097.066	4737.4
2101.14	4711.4
2105.211	4670.4
2109.278	4640.4
2113.342	4619.4
2117.401	4629.4
2121.457	4579.4
2125.509	4557.4
2129.558	4529.4
2133.602	4503.4
2137.643	4488.4
2141.681	4457.4
2145.714	4444.4
2149.744	4409.4
2153.77	4377.4
2157.793	4333.4
2161.812	4291.4
2165.827	4228.4
2169.838	4182.4
2173.846	4130.4
2177.851	4058.4
2181.851	4004.4
2185.848	3954.4
2189.841	3907.4
2193.831	3859.4
2197.817	3877.4
2201.799	3823.4
2205.778	3819.4
2209.753	3789.4
2213.725	3781.4
2217.693	3763.4
2221.657	3763.4
2225.618	3735.4
2229.575	3721.4
2233.529	3712.4
2237.479	3640.4
2241.425	3618.4
2245.368	3586.4
2249.307	3528.4
2253.243	3465.4
2257.175	3426.4
2261.104	3393.4
2265.029	3345.4
2268.95	3315.4
2272.868	3273.4
2276.783	3249.4
2280.694	3183.4
2284.601	3207.4
2288.505	3156.4
2292.405	3136.4
2296.302	3090.4
2300.195	3062.4
2304.085	3071.4
2307.971	2983.4
2311.854	2955.4
2315.734	2901.4
2319.609	2885.4
2323.482	2857.4
2327.351	2866.4
2331.216	2824.4
2335.078	2812.4
2338.937	2784.4
2342.792	2773.4
2346.643	2769.4
2350.492	2765.4
2354.336	2784.4
2358.178	2789.4
2362.015	2784.4
2365.85	2814.4
2369.681	2813.4
2373.508	2815.4
2377.333	2804.4
2381.153	2817.4
2384.971	2791.4
2388.785	2797.4
2392.595	2753.4
2396.402	2749.4
2400.206	2690.4
2404.007	2682.4
2407.804	2691.4
2411.597	2654.4
2415.388	2648.4
2419.174	2604.4
2422.958	2593.4
2426.738	2559.4
2430.515	2592.4
2434.289	2547.4
2438.059	2511.4
2441.825	2512.4
2445.589	2500.4
2449.349	2456.4
2453.106	2434.4
2456.859	2375.4
2460.61	2353.4
2464.356	2329.4
2468.1	2306.4
2471.84	2272.4
2475.577	2272.4
2479.311	2254.4
2483.041	2234.4
2486.768	2224.4
2490.492	2206.4
2494.213	2217.4
2497.93	2195.4
2501.644	2167.4
2505.355	2155.4
2509.062	2123.4
2512.766	2139.4
2516.467	2120.4
2520.165	2112.4
2523.859	2085.4
2527.551	2082.4
2531.239	2041.4
2534.923	2036.4
2538.605	2021.4
2542.283	2041.4
2545.958	2014.4
2549.63	2007.4
2553.299	1997.4
2556.964	2009.4
2560.626	1985.4
2564.285	1986.4
2567.941	1975.4
2571.594	1989.4
2575.243	1976.4
2578.89	1943.4
2582.533	1947.4
2586.173	1914.4
2589.809	1901.4
2593.443	1902.4
2597.073	1861.4
2600.701	1855.4
2604.325	1855.4
2607.946	1818.4
2611.564	1808.4
2615.178	1819.4
2618.79	1794.4
2622.398	1767.4
2626.004	1766.4
2629.606	1745.4
2633.205	1726.4
2636.801	1703.4
2640.394	1675.4
2643.983	1655.4
2647.57	1620.4
2651.153	1598.4
2654.734	1585.4
2658.311	1565.4
2661.885	1534.4
2665.456	1508.4
2669.025	1510.4
2672.589	1482.4
2676.151	1458.4
2679.71	1466.4
2683.266	1416.4
2686.819	1387.4
2690.368	1377.4
2693.915	1350.4
2697.458	1320.4
2700.999	1280.4
2704.536	1250.4
2708.071	1216.4
2711.602	1199.4
2715.13	1175.4
2718.656	1121.4
2722.178	1108.4
2725.697	1098.4
2729.214	1081.4
2732.727	1057.4
2736.237	1056.4
2739.744	1067.4
2743.249	1060.4
2746.75	1047.4
2750.248	1050.4
2753.743	1058.4
2757.236	1072.4
2760.725	1086.4
2764.211	1101.4
2767.695	1097.4
2771.175	1087.4
2774.652	1095.4
2778.127	1088.4
2781.598	1066.4
2785.067	1063.4
2788.532	1051.4
2791.995	1072.4
2795.455	1067.4
2798.911	1071.4
2802.365	1073.4
2805.816	1062.4
2809.264	1071.4
2812.709	1084.4
2816.151	1059.4
2819.59	1073.4
2823.026	1066.4
2826.46	1049.4
2829.89	1079.4
2833.318	1062.4
2836.742	1069.4
2840.164	1065.4
2843.583	1075.4
2846.999	1098.4
2850.412	1101.4
2853.822	1113.4
2857.229	1127.4
2860.634	1131.4
2864.035	1172.4
2867.434	1182.4
2870.83	1198.4
2874.223	1222.4
2877.613	1244.4
2881	1245.4
2884.385	1253.4
2887.766	1245.4
2891.145	1237.4
2894.521	1229.4
2897.894	1234.4
2901.264	1240.4
2904.631	1222.4
2907.996	1233.4
2911.358	1235.4
2914.717	1245.4
2918.073	1238.4
2921.426	1275.4
2924.777	1283.4
2928.124	1305.4
2931.469	1317.4
2934.811	1343.4
2938.15	1343.4
2941.487	1349.4
2944.821	1359.4
2948.152	1340.4
2951.48	1333.4
2954.805	1308.4
2958.128	1306.4
2961.447	1292.4
2964.765	1280.4
2968.079	1281.4
2971.39	1300.4
2974.699	1305.4
2978.005	1342.4
2981.308	1334.4
2984.609	1358.4
2987.907	1393.4
2991.202	1419.4
2994.494	1454.4
2997.784	1477.4
3001.07	1509.4
3004.355	1525.4
3007.636	1542.4
3010.915	1564.4
3014.191	1576.4
3017.464	1602.4
3020.734	1609.4
3024.002	1597.4
3027.267	1601.4
3030.53	1628.4
3033.789	1639.4
3037.046	1656.4
3040.301	1688.4
3043.552	1725.4
3046.801	1744.4
3050.048	1817.4
3053.291	1844.4
3056.532	1897.4
3059.771	1946.4
3063.006	1965.4
3066.239	2052.4
3069.469	2102.4
3072.697	2157.4
3075.922	2219.4
3079.144	2281.4
3082.364	2337.4
3085.581	2353.4
3088.795	2399.4
3092.007	2450.4
3095.216	2502.4
3098.423	2565.4
3101.627	2593.4
3104.828	2659.4
3108.026	2735.4
3111.222	2767.4
3114.416	2849.4
3117.607	2911.4
3120.795	2995.4
3123.98	3049.4
3127.163	3123.4
3130.344	3182.4
3133.521	3233.4
3136.696	3323.4
3139.869	3398.4
3143.039	3464.4
3146.206	3505.4
3149.371	3545.4
3152.533	3589.4
3155.693	3593.4
3158.85	3638.4
3162.005	3629.4
3165.157	3651.4
3168.306	3658.4
3171.453	3642.4
3174.597	3674.4
3177.739	3675.4
3180.878	3655.4
3184.014	3680.4
3187.149	3668.4
3190.28	3685.4
3193.409	3676.4
3196.536	3685.4
3199.659	3699.4
3202.781	3694.4
3205.9	3693.4
3209.016	3690.4
3212.13	3658.4
3215.241	3626.4
3218.35	3583.4
3221.456	3542.4
3224.56	3524.4
3227.661	3476.4
3230.76	3448.4
3233.856	3411.4
3236.95	3370.4
3240.041	3342.4
3243.13	3316.4
3246.216	3266.4
3249.3	3262.4
3252.382	3261.4
3255.46	3258.4
3258.537	3238.4
3261.611	3244.4
3264.682	3233.4
3267.751	3235.4
3270.818	3240.4
3273.882	3197.4
3276.943	3198.4
3280.002	3146.4
3283.059	3145.4
3286.113	3092.4
3289.165	3062.4
3292.214	3033.4
3295.261	2961.4
3298.306	2909.4
3301.348	2844.4
3304.387	2828.4
3307.425	2789.4
3310.459	2751.4
3313.492	2706.4
3316.521	2648.4
3319.549	2645.4
3322.574	2623.4
3325.597	2598.4
3328.617	2554.4
3331.635	2519.4
3334.65	2517.4
3337.663	2494.4
3340.674	2499.4
3343.682	2484.4
3346.688	2477.4
3349.691	2507.4
3352.692	2455.4
3355.691	2458.4
3358.687	2405.4
3361.681	2389.4
3364.673	2361.4
3367.662	2326.4
3370.649	2303.4
3373.633	2256.4
3376.615	2226.4
3379.595	2191.4
3382.572	2133.4
3385.547	2129.4
3388.52	2100.4
3391.49	2055.4
3394.458	1998.4
3397.424	1997.4
3400.387	1970.4
3403.348	1944.4
3406.307	1908.4
3409.263	1906.4
3412.217	1880.4
3415.168	1849.4
3418.118	1834.4
3421.065	1808.4
3424.009	1772.4
3426.951	1737.4
3429.891	1694.4
3432.829	1664.4
3435.764	1644.4
3438.697	1596.4
3441.628	1529.4
3444.557	1500.4
3447.483	1432.4
3450.407	1409.4
3453.328	1363.4
3456.247	1288.4
3459.164	1256.4
3462.079	1205.4
3464.991	1159.4
3467.902	1091.4
3470.809	1066.4
3473.715	1013.4
3476.618	988.4
3479.519	953.4
3482.418	905.4
3485.315	881.4
3488.209	850.4
3491.101	824.4
3493.99	783.4
3496.878	741.4
3499.763	717.4
3502.646	676.4
3505.527	643.4
3508.405	610.4
3511.281	566.4
3514.155	533.4
3517.027	500.4
3519.897	477.4
3522.764	427.4
3525.629	393.4
3528.492	353.4
3531.352	302.4
3534.211	277.4
3537.067	242.4
3539.921	220.4
3542.773	193.4
3545.622	157.4
3548.469	128.4
3551.315	78.4
3554.157	78.4
3556.998	44.4
3559.837	30.4
3562.673	7.4
3565.507	-4.6
3568.339	-29.6
3571.169	-50.6
3573.996	-70.6
3576.822	-89.6
3579.645	-106.6
3582.466	-119.6
3585.285	-142.6
3588.101	-169.6
3590.916	-183.6
3593.728	-200.6
3596.538	-220.6
3599.346	-230.6
3602.152	-240.6
3604.956	-259.6
3607.757	-277.6
3610.556	-285.6
3613.354	-292.6
3616.149	-303.6
3618.942	-314.6
3621.732	-327.6
3624.521	-332.6
3627.307	-351.6
3630.092	-356.6
3632.874	-366.6
3635.654	-384.6
3638.432	-380.6
3641.208	-391.6
3643.982	-405.6
3646.753	-408.6
3649.523	-417.6
3652.29	-423.6
3655.055	-428.6
3657.818	-438.6
3660.579	-458.6
3663.338	-452.6
3666.095	-462.6
3668.849	-474.6
3671.602	-480.6
3674.352	-492.6
3677.101	-506.6
3679.847	-510.6
3682.591	-510.6
3685.333	-516.6
3688.073	-514.6
3690.811	-527.6
3693.547	-527.6
3696.281	-535.6
3699.013	-534.6
3701.742	-557.6
3704.47	-540.6
3707.195	-561.6
3709.919	-559.6
3712.64	-559.6
3715.359	-562.6
3718.076	-560.6
3720.792	-569.6
3723.505	-571.6
3726.216	-577.6
3728.925	-585.6
3731.632	-584.6
3734.336	-588.6
3737.039	-592.6
3739.74	-590.6
3742.439	-590.6
3745.136	-595.6
3747.83	-593.6
3750.523	-595.6
3753.213	-602.6
3755.902	-601.6
3758.589	-594.6
3761.273	-600.6
3763.956	-610.6
3766.636	-612.6
3769.315	-610.6
3771.991	-613.6
3774.665	-611.6
3777.338	-613.6
3780.008	-613.6
3782.677	-619.6
3785.343	-619.6
3788.007	-610.6
3790.67	-619.6
3793.33	-620.6
3795.989	-623.6
3798.645	-623.6
3801.299	-627.6
3803.952	-629.6
3806.602	-630.6
3809.251	-635.6
3811.897	-628.6
3814.542	-624.6
3817.184	-629.6
3819.825	-634.6
3822.463	-633.6
3825.1	-638.6
3827.735	-635.6
3830.367	-635.6
3832.998	-636.6
3835.627	-639.6
3838.253	-633.6
3840.878	-635.6
3843.501	-640.6
3846.122	-634.6
3848.741	-633.6
3851.358	-645.6
3853.973	-641.6
3856.586	-640.6
3859.197	-644.6
3861.806	-640.6
3864.414	-644.6
3867.019	-636.6
3869.622	-637.6
3872.224	-637.6
3874.823	-626.6
3877.421	-614.6
3880.016	-602.6
3882.61	-576.6
3885.202	-582.6
3887.792	-603.6
3890.38	-617.6
3892.966	-637.6
3895.55	-642.6
3898.132	-650.6
3900.713	-651.6
3903.291	-659.6
3905.868	-655.6
3908.442	-651.6
3911.015	-647.6
3913.586	-649.6
3916.155	-657.6
3918.722	-655.6
3921.287	-650.6
3923.85	-650.6
3926.411	-651.6
3928.971	-652.6
3931.528	-661.6
3934.084	-652.6
3936.638	-658.6
3939.19	-663.6
3941.74	-669.6
3944.288	-661.6
3946.834	-657.6
3949.378	-659.6
3951.921	-657.6
3954.462	-656.6
3957	-653.6
3959.537	-651.6
3962.072	-654.6
3964.606	-650.6
3967.137	-657.6
3969.667	-658.6
3972.194	-652.6
3974.72	-654.6
3977.244	-652.6
3979.766	-645.6
3982.286	-650.6
3984.805	-635.6
3987.321	-638.6
3989.836	-644.6
3992.349	-642.6
3994.86	-640.6
3997.369	-648.6
3999.877	-644.6
4002.382	-645.6
4004.886	-643.6
4007.388	-646.6
4009.888	-642.6
4012.386	-642.6
4014.883	-647.6
4017.377	-648.6
4019.87	-638.6
4022.361	-646.6
4024.85	-646.6
4027.338	-644.6
4029.823	-641.6
4032.307	-646.6
4034.789	-646.6
4037.269	-651.6
4039.747	-647.6
4042.224	-643.6
4044.699	-644.6
4047.172	-647.6
4049.643	-651.6
4052.112	-646.6
4054.58	-643.6
4057.046	-652.6
4059.51	-644.6
4061.972	-653.6
4064.432	-651.6
4066.891	-643.6
4069.348	-647.6
4071.803	-647.6
4074.256	-645.6
4076.708	-645.6
4079.158	-647.6
4081.606	-640.6
4084.052	-644.6
4086.497	-644.6
4088.939	-638.6
4091.38	-641.6
4093.819	-642.6
4096.257	-681.6
4098.693	-681.6
4101.127	-680.6
4103.559	-682.6
4105.989	-410.6
4108.418	-393.6
4110.845	-366.6
4113.27	-339.6
4115.694	-296.6
4118.115	-254.6
4120.535	-644.6
4122.954	-647.6
4125.37	-646.6
4127.785	-643.6
4130.198	-644.6
4132.609	-643.6
4135.019	-681.6
4137.427	-678.6
4139.833	-679.6
4142.237	-679.6
