Data from 2018-2-7_conc=4_RamanShift_13.txt Node
Date: Tue Feb 13 13:38:13 IST 2018
User: aro
Spectrometer: QEPB0276
Trigger mode: 0
Integration Time (sec): 3.000000E1
Scans to average: 1
Electric dark correction enabled: true
Nonlinearity correction enabled: false
Boxcar width: 0
XAxis mode: Raman Shifts
Number of Pixels in Spectrum: 1044
>>>>>Begin Spectral Data<<<<<
160.701	-146.8
166.742	26.2
172.777	589.2
178.805	2267.2
184.826	6195.2
190.841	12819.2
196.849	20230.2
202.85	25315.2
208.845	26921.2
214.833	26518.2
220.815	26027.2
226.789	25804.2
232.758	25689.2
238.719	25496.2
244.674	25079.2
250.623	24599.2
256.565	24035.2
262.5	23539.2
268.429	23101.2
274.351	22755.2
280.267	22450.2
286.176	22182.2
292.079	21857.2
297.975	21645.2
303.865	21441.2
309.748	21287.2
315.625	21142.2
321.495	21031.2
327.359	20960.2
333.217	20897.2
339.068	20854.2
344.912	20888.2
350.751	20822.2
356.583	20843.2
362.408	20802.2
368.227	20778.2
374.04	20872.2
379.847	20883.2
385.647	20912.2
391.44	20990.2
397.228	21076.2
403.009	21164.2
408.784	21256.2
414.553	21259.2
420.315	21380.2
426.071	21338.2
431.821	21364.2
437.565	21307.2
443.302	21332.2
449.033	21261.2
454.758	21208.2
460.477	21201.2
466.189	21115.2
471.896	21069.2
477.596	20990.2
483.29	21033.2
488.978	20950.2
494.66	20867.2
500.335	20759.2
506.005	20530.2
511.668	20220.2
517.325	20060.2
522.977	19916.2
528.622	19781.2
534.261	19637.2
539.894	19510.2
545.521	19449.2
551.141	19409.2
556.756	19292.2
562.365	19245.2
567.968	19192.2
573.565	19048.2
579.155	19051.2
584.74	18948.2
590.319	18841.2
595.892	18781.2
601.459	18743.2
607.02	18653.2
612.575	18548.2
618.124	18431.2
623.667	18325.2
629.204	18244.2
634.735	18125.2
640.261	18019.2
645.781	17995.2
651.294	17932.2
656.802	17917.2
662.304	17970.2
667.8	17917.2
673.29	17862.2
678.775	17834.2
684.254	17717.2
689.726	17707.2
695.193	17659.2
700.655	17535.2
706.11	17474.2
711.56	17333.2
717.004	17342.2
722.442	17238.2
727.874	17136.2
733.301	17052.2
738.722	17062.2
744.137	17033.2
749.547	17044.2
754.951	17016.2
760.349	17033.2
765.741	17061.2
771.128	17048.2
776.509	17092.2
781.885	17037.2
787.254	16971.2
792.618	16928.2
797.977	16854.2
803.33	16681.2
808.677	16594.2
814.019	16515.2
819.355	16405.2
824.686	16346.2
830.011	16347.2
835.33	16361.2
840.644	16344.2
845.952	16375.2
851.255	16424.2
856.552	16428.2
861.844	16414.2
867.13	16370.2
872.41	16316.2
877.686	16205.2
882.955	16090.2
888.219	15987.2
893.478	15756.2
898.731	15575.2
903.979	15471.2
909.221	15327.2
914.458	15252.2
919.69	15279.2
924.916	15312.2
930.136	15330.2
935.351	15385.2
940.561	15381.2
945.766	15386.2
950.965	15300.2
956.158	15192.2
961.347	14981.2
966.529	14810.2
971.707	14614.2
976.879	14442.2
982.046	14347.2
987.208	14323.2
992.364	14307.2
997.515	14418.2
1002.66	14504.2
1007.801	14674.2
1012.936	14776.2
1018.066	14823.2
1023.19	14755.2
1028.309	14804.2
1033.423	14736.2
1038.532	14698.2
1043.636	14576.2
1048.734	14356.2
1053.827	14143.2
1058.915	13999.2
1063.998	13920.2
1069.075	13899.2
1074.147	13925.2
1079.214	14008.2
1084.276	14078.2
1089.333	14112.2
1094.385	14227.2
1099.431	14269.2
1104.472	14280.2
1109.509	14163.2
1114.54	14002.2
1119.565	13792.2
1124.586	13689.2
1129.602	13543.2
1134.613	13446.2
1139.618	13308.2
1144.619	13311.2
1149.614	13345.2
1154.604	13395.2
1159.589	13447.2
1164.57	13399.2
1169.545	13423.2
1174.515	13420.2
1179.48	13283.2
1184.44	13282.2
1189.395	13224.2
1194.345	13108.2
1199.29	13036.2
1204.23	13055.2
1209.165	13065.2
1214.095	13116.2
1219.021	13203.2
1223.941	13302.2
1228.856	13364.2
1233.766	13462.2
1238.672	13402.2
1243.572	13384.2
1248.467	13296.2
1253.358	13218.2
1258.244	12967.2
1263.124	12806.2
1268	12591.2
1272.871	12454.2
1277.737	12358.2
1282.599	12314.2
1287.455	12295.2
1292.306	12356.2
1297.153	12364.2
1301.995	12439.2
1306.832	12457.2
1311.664	12481.2
1316.491	12415.2
1321.314	12282.2
1326.132	12119.2
1330.945	11877.2
1335.753	11564.2
1340.556	11265.2
1345.354	11099.2
1350.148	10922.2
1354.937	10878.2
1359.722	10812.2
1364.501	10871.2
1369.276	10957.2
1374.046	11096.2
1378.811	11270.2
1383.572	11367.2
1388.327	11429.2
1393.079	11372.2
1397.825	11246.2
1402.567	11092.2
1407.304	10946.2
1412.036	10835.2
1416.764	10750.2
1421.487	10687.2
1426.205	10630.2
1430.919	10612.2
1435.628	10604.2
1440.333	10617.2
1445.032	10657.2
1449.727	10666.2
1454.418	10622.2
1459.104	10515.2
1463.785	10343.2
1468.462	10154.2
1473.134	9898.2
1477.802	9742.2
1482.465	9589.2
1487.123	9418.2
1491.777	9468.2
1496.426	9496.2
1501.071	9585.2
1505.711	9760.2
1510.347	9853.2
1514.978	10075.2
1519.604	10149.2
1524.226	10283.2
1528.844	10319.2
1533.457	10246.2
1538.065	10302.2
1542.669	10195.2
1547.269	10076.2
1551.864	10020.2
1556.454	10038.2
1561.041	10025.2
1565.622	10032.2
1570.199	10023.2
1574.772	10082.2
1579.34	10114.2
1583.904	10242.2
1588.464	10261.2
1593.019	10267.2
1597.569	10185.2
1602.115	10154.2
1606.657	10052.2
1611.195	10059.2
1615.728	9970.2
1620.256	9972.2
1624.78	9952.2
1629.3	10021.2
1633.816	10008.2
1638.327	10059.2
1642.834	10075.2
1647.336	10149.2
1651.834	10133.2
1656.328	10152.2
1660.817	10094.2
1665.302	9989.2
1669.783	9780.2
1674.259	9540.2
1678.732	9275.2
1683.199	8939.2
1687.663	8655.2
1692.122	8406.2
1696.577	8283.2
1701.028	8227.2
1705.474	8274.2
1709.917	8361.2
1714.355	8403.2
1718.788	8342.2
1723.218	8232.2
1727.643	8062.2
1732.064	7880.2
1736.481	7698.2
1740.893	7544.2
1745.301	7344.2
1749.705	7145.2
1754.105	6934.2
1758.501	6748.2
1762.893	6558.2
1767.28	6402.2
1771.663	6256.2
1776.042	6160.2
1780.417	6140.2
1784.787	6098.2
1789.154	6169.2
1793.516	6259.2
1797.874	6358.2
1802.228	6491.2
1806.578	6534.2
1810.924	6551.2
1815.266	6478.2
1819.603	6379.2
1823.937	6296.2
1828.266	6203.2
1832.591	6114.2
1836.913	6016.2
1841.23	5983.2
1845.543	5964.2
1849.852	5852.2
1854.156	5900.2
1858.457	5867.2
1862.754	5846.2
1867.047	5858.2
1871.335	5870.2
1875.62	5848.2
1879.9	5847.2
1884.177	5771.2
1888.449	5701.2
1892.718	5687.2
1896.982	5593.2
1901.243	5554.2
1905.499	5490.2
1909.752	5529.2
1914	5461.2
1918.245	5565.2
1922.485	5575.2
1926.722	5600.2
1930.954	5646.2
1935.183	5720.2
1939.408	5767.2
1943.628	5802.2
1947.845	5808.2
1952.058	5800.2
1956.267	5768.2
1960.472	5688.2
1964.673	5622.2
1968.87	5503.2
1973.063	5441.2
1977.252	5369.2
1981.438	5329.2
1985.619	5258.2
1989.797	5217.2
1993.971	5199.2
1998.14	5156.2
2002.306	5176.2
2006.469	5154.2
2010.627	5085.2
2014.781	5102.2
2018.932	5067.2
2023.078	5013.2
2027.221	4924.2
2031.36	4863.2
2035.495	4796.2
2039.627	4729.2
2043.754	4658.2
2047.878	4611.2
2051.998	4567.2
2056.114	4564.2
2060.226	4573.2
2064.334	4572.2
2068.439	4560.2
2072.54	4611.2
2076.637	4641.2
2080.73	4683.2
2084.82	4666.2
2088.906	4708.2
2092.988	4690.2
2097.066	4673.2
2101.14	4666.2
2105.211	4626.2
2109.278	4606.2
2113.342	4581.2
2117.401	4532.2
2121.457	4515.2
2125.509	4508.2
2129.558	4466.2
2133.602	4445.2
2137.643	4451.2
2141.681	4397.2
2145.714	4429.2
2149.744	4352.2
2153.77	4294.2
2157.793	4289.2
2161.812	4233.2
2165.827	4155.2
2169.838	4118.2
2173.846	4037.2
2177.851	3996.2
2181.851	3909.2
2185.848	3865.2
2189.841	3845.2
2193.831	3798.2
2197.817	3792.2
2201.799	3755.2
2205.778	3729.2
2209.753	3708.2
2213.725	3695.2
2217.693	3713.2
2221.657	3689.2
2225.618	3678.2
2229.575	3642.2
2233.529	3616.2
2237.479	3588.2
2241.425	3539.2
2245.368	3510.2
2249.307	3471.2
2253.243	3378.2
2257.175	3385.2
2261.104	3323.2
2265.029	3270.2
2268.95	3209.2
2272.868	3215.2
2276.783	3171.2
2280.694	3132.2
2284.601	3113.2
2288.505	3074.2
2292.405	3062.2
2296.302	3051.2
2300.195	3002.2
2304.085	2941.2
2307.971	2906.2
2311.854	2851.2
2315.734	2807.2
2319.609	2809.2
2323.482	2763.2
2327.351	2743.2
2331.216	2714.2
2335.078	2735.2
2338.937	2676.2
2342.792	2674.2
2346.643	2681.2
2350.492	2663.2
2354.336	2647.2
2358.178	2667.2
2362.015	2690.2
2365.85	2662.2
2369.681	2668.2
2373.508	2689.2
2377.333	2682.2
2381.153	2673.2
2384.971	2672.2
2388.785	2648.2
2392.595	2625.2
2396.402	2602.2
2400.206	2581.2
2404.007	2565.2
2407.804	2544.2
2411.597	2524.2
2415.388	2503.2
2419.174	2500.2
2422.958	2471.2
2426.738	2451.2
2430.515	2446.2
2434.289	2423.2
2438.059	2399.2
2441.825	2391.2
2445.589	2357.2
2449.349	2312.2
2453.106	2286.2
2456.859	2270.2
2460.61	2217.2
2464.356	2220.2
2468.1	2177.2
2471.84	2150.2
2475.577	2143.2
2479.311	2135.2
2483.041	2121.2
2486.768	2125.2
2490.492	2116.2
2494.213	2114.2
2497.93	2093.2
2501.644	2093.2
2505.355	2071.2
2509.062	2077.2
2512.766	2045.2
2516.467	2020.2
2520.165	2020.2
2523.859	2018.2
2527.551	1978.2
2531.239	1976.2
2534.923	1992.2
2538.605	1956.2
2542.283	1947.2
2545.958	1946.2
2549.63	1939.2
2553.299	1940.2
2556.964	1927.2
2560.626	1943.2
2564.285	1921.2
2567.941	1915.2
2571.594	1892.2
2575.243	1883.2
2578.89	1883.2
2582.533	1866.2
2586.173	1858.2
2589.809	1836.2
2593.443	1818.2
2597.073	1795.2
2600.701	1779.2
2604.325	1774.2
2607.946	1774.2
2611.564	1758.2
2615.178	1757.2
2618.79	1728.2
2622.398	1713.2
2626.004	1678.2
2629.606	1657.2
2633.205	1675.2
2636.801	1627.2
2640.394	1611.2
2643.983	1587.2
2647.57	1572.2
2651.153	1531.2
2654.734	1515.2
2658.311	1486.2
2661.885	1460.2
2665.456	1448.2
2669.025	1425.2
2672.589	1419.2
2676.151	1411.2
2679.71	1388.2
2683.266	1361.2
2686.819	1338.2
2690.368	1325.2
2693.915	1300.2
2697.458	1258.2
2700.999	1231.2
2704.536	1201.2
2708.071	1172.2
2711.602	1151.2
2715.13	1131.2
2718.656	1104.2
2722.178	1084.2
2725.697	1067.2
2729.214	1052.2
2732.727	1041.2
2736.237	1031.2
2739.744	1048.2
2743.249	1030.2
2746.75	1051.2
2750.248	1055.2
2753.743	1060.2
2757.236	1090.2
2760.725	1091.2
2764.211	1100.2
2767.695	1099.2
2771.175	1108.2
2774.652	1091.2
2778.127	1111.2
2781.598	1073.2
2785.067	1069.2
2788.532	1066.2
2791.995	1059.2
2795.455	1067.2
2798.911	1081.2
2802.365	1061.2
2805.816	1073.2
2809.264	1077.2
2812.709	1050.2
2816.151	1069.2
2819.59	1059.2
2823.026	1045.2
2826.46	1065.2
2829.89	1078.2
2833.318	1057.2
2836.742	1057.2
2840.164	1082.2
2843.583	1101.2
2846.999	1100.2
2850.412	1130.2
2853.822	1120.2
2857.229	1148.2
2860.634	1169.2
2864.035	1181.2
2867.434	1186.2
2870.83	1219.2
2874.223	1241.2
2877.613	1258.2
2881	1261.2
2884.385	1293.2
2887.766	1288.2
2891.145	1287.2
2894.521	1268.2
2897.894	1275.2
2901.264	1282.2
2904.631	1256.2
2907.996	1289.2
2911.358	1292.2
2914.717	1295.2
2918.073	1315.2
2921.426	1339.2
2924.777	1352.2
2928.124	1368.2
2931.469	1370.2
2934.811	1408.2
2938.15	1412.2
2941.487	1410.2
2944.821	1434.2
2948.152	1428.2
2951.48	1431.2
2954.805	1418.2
2958.128	1390.2
2961.447	1377.2
2964.765	1364.2
2968.079	1371.2
2971.39	1383.2
2974.699	1417.2
2978.005	1413.2
2981.308	1461.2
2984.609	1515.2
2987.907	1526.2
2991.202	1531.2
2994.494	1579.2
2997.784	1586.2
3001.07	1629.2
3004.355	1647.2
3007.636	1688.2
3010.915	1682.2
3014.191	1702.2
3017.464	1713.2
3020.734	1717.2
3024.002	1725.2
3027.267	1755.2
3030.53	1750.2
3033.789	1796.2
3037.046	1805.2
3040.301	1830.2
3043.552	1872.2
3046.801	1909.2
3050.048	1945.2
3053.291	1995.2
3056.532	2082.2
3059.771	2119.2
3063.006	2177.2
3066.239	2233.2
3069.469	2281.2
3072.697	2371.2
3075.922	2424.2
3079.144	2488.2
3082.364	2531.2
3085.581	2579.2
3088.795	2646.2
3092.007	2723.2
3095.216	2782.2
3098.423	2808.2
3101.627	2876.2
3104.828	2949.2
3108.026	2985.2
3111.222	3099.2
3114.416	3161.2
3117.607	3175.2
3120.795	3277.2
3123.98	3376.2
3127.163	3450.2
3130.344	3499.2
3133.521	3588.2
3136.696	3672.2
3139.869	3780.2
3143.039	3801.2
3146.206	3862.2
3149.371	3945.2
3152.533	3953.2
3155.693	4001.2
3158.85	4004.2
3162.005	4023.2
3165.157	4066.2
3168.306	4051.2
3171.453	4060.2
3174.597	4056.2
3177.739	4058.2
3180.878	4083.2
3184.014	4098.2
3187.149	4079.2
3190.28	4115.2
3193.409	4112.2
3196.536	4093.2
3199.659	4123.2
3202.781	4123.2
3205.9	4124.2
3209.016	4113.2
3212.13	4059.2
3215.241	4059.2
3218.35	4008.2
3221.456	4002.2
3224.56	3912.2
3227.661	3899.2
3230.76	3816.2
3233.856	3816.2
3236.95	3796.2
3240.041	3746.2
3243.13	3701.2
3246.216	3696.2
3249.3	3686.2
3252.382	3663.2
3255.46	3643.2
3258.537	3645.2
3261.611	3619.2
3264.682	3624.2
3267.751	3628.2
3270.818	3635.2
3273.882	3590.2
3276.943	3567.2
3280.002	3552.2
3283.059	3501.2
3286.113	3498.2
3289.165	3432.2
3292.214	3376.2
3295.261	3361.2
3298.306	3269.2
3301.348	3235.2
3304.387	3187.2
3307.425	3132.2
3310.459	3074.2
3313.492	3065.2
3316.521	3002.2
3319.549	2973.2
3322.574	2944.2
3325.597	2897.2
3328.617	2886.2
3331.635	2866.2
3334.65	2866.2
3337.663	2820.2
3340.674	2841.2
3343.682	2805.2
3346.688	2809.2
3349.691	2791.2
3352.692	2771.2
3355.691	2758.2
3358.687	2700.2
3361.681	2698.2
3364.673	2659.2
3367.662	2619.2
3370.649	2592.2
3373.633	2556.2
3376.615	2507.2
3379.595	2474.2
3382.572	2447.2
3385.547	2399.2
3388.52	2345.2
3391.49	2326.2
3394.458	2292.2
3397.424	2266.2
3400.387	2236.2
3403.348	2210.2
3406.307	2187.2
3409.263	2155.2
3412.217	2133.2
3415.168	2128.2
3418.118	2084.2
3421.065	2052.2
3424.009	2026.2
3426.951	1971.2
3429.891	1960.2
3432.829	1921.2
3435.764	1854.2
3438.697	1835.2
3441.628	1772.2
3444.557	1711.2
3447.483	1673.2
3450.407	1621.2
3453.328	1546.2
3456.247	1507.2
3459.164	1458.2
3462.079	1390.2
3464.991	1349.2
3467.902	1302.2
3470.809	1250.2
3473.715	1192.2
3476.618	1168.2
3479.519	1124.2
3482.418	1074.2
3485.315	1043.2
3488.209	1002.2
3491.101	985.2
3493.99	927.2
3496.878	885.2
3499.763	871.2
3502.646	839.2
3505.527	791.2
3508.405	741.2
3511.281	714.2
3514.155	661.2
3517.027	615.2
3519.897	572.2
3522.764	541.2
3525.629	495.2
3528.492	458.2
3531.352	410.2
3534.211	386.2
3537.067	346.2
3539.921	307.2
3542.773	271.2
3545.622	237.2
3548.469	214.2
3551.315	175.2
3554.157	149.2
3556.998	126.2
3559.837	95.2
3562.673	77.2
3565.507	63.2
3568.339	42.2
3571.169	19.2
3573.996	-7.8
3576.822	-30.8
3579.645	-38.8
3582.466	-75.8
3585.285	-82.8
3588.101	-106.8
3590.916	-130.8
3593.728	-158.8
3596.538	-171.8
3599.346	-188.8
3602.152	-211.8
3604.956	-221.8
3607.757	-242.8
3610.556	-243.8
3613.354	-264.8
3616.149	-277.8
3618.942	-290.8
3621.732	-308.8
3624.521	-311.8
3627.307	-323.8
3630.092	-339.8
3632.874	-342.8
3635.654	-349.8
3638.432	-356.8
3641.208	-365.8
3643.982	-366.8
3646.753	-385.8
3649.523	-384.8
3652.29	-405.8
3655.055	-405.8
3657.818	-415.8
3660.579	-436.8
3663.338	-437.8
3666.095	-453.8
3668.849	-468.8
3671.602	-474.8
3674.352	-478.8
3677.101	-490.8
3679.847	-503.8
3682.591	-503.8
3685.333	-503.8
3688.073	-517.8
3690.811	-523.8
3693.547	-520.8
3696.281	-527.8
3699.013	-530.8
3701.742	-535.8
3704.47	-545.8
3707.195	-553.8
3709.919	-548.8
3712.64	-551.8
3715.359	-558.8
3718.076	-558.8
3720.792	-566.8
3723.505	-567.8
3726.216	-573.8
3728.925	-578.8
3731.632	-586.8
3734.336	-585.8
3737.039	-589.8
3739.74	-591.8
3742.439	-592.8
3745.136	-601.8
3747.83	-597.8
3750.523	-597.8
3753.213	-597.8
3755.902	-597.8
3758.589	-600.8
3761.273	-605.8
3763.956	-612.8
3766.636	-605.8
3769.315	-612.8
3771.991	-611.8
3774.665	-610.8
3777.338	-620.8
3780.008	-610.8
3782.677	-610.8
3785.343	-615.8
3788.007	-610.8
3790.67	-619.8
3793.33	-625.8
3795.989	-626.8
3798.645	-629.8
3801.299	-627.8
3803.952	-631.8
3806.602	-630.8
3809.251	-634.8
3811.897	-633.8
3814.542	-625.8
3817.184	-632.8
3819.825	-634.8
3822.463	-635.8
3825.1	-637.8
3827.735	-637.8
3830.367	-641.8
3832.998	-643.8
3835.627	-644.8
3838.253	-641.8
3840.878	-643.8
3843.501	-641.8
3846.122	-643.8
3848.741	-640.8
3851.358	-645.8
3853.973	-644.8
3856.586	-642.8
3859.197	-644.8
3861.806	-641.8
3864.414	-637.8
3867.019	-643.8
3869.622	-644.8
3872.224	-642.8
3874.823	-625.8
3877.421	-604.8
3880.016	-596.8
3882.61	-559.8
3885.202	-558.8
3887.792	-585.8
3890.38	-610.8
3892.966	-628.8
3895.55	-642.8
3898.132	-649.8
3900.713	-655.8
3903.291	-652.8
3905.868	-655.8
3908.442	-650.8
3911.015	-653.8
3913.586	-650.8
3916.155	-657.8
3918.722	-653.8
3921.287	-654.8
3923.85	-657.8
3926.411	-658.8
3928.971	-657.8
3931.528	-661.8
3934.084	-652.8
3936.638	-662.8
3939.19	-662.8
3941.74	-667.8
3944.288	-669.8
3946.834	-661.8
3949.378	-665.8
3951.921	-663.8
3954.462	-665.8
3957	-654.8
3959.537	-651.8
3962.072	-660.8
3964.606	-648.8
3967.137	-661.8
3969.667	-652.8
3972.194	-653.8
3974.72	-656.8
3977.244	-645.8
3979.766	-648.8
3982.286	-648.8
3984.805	-638.8
3987.321	-645.8
3989.836	-647.8
3992.349	-643.8
3994.86	-642.8
3997.369	-652.8
3999.877	-643.8
4002.382	-642.8
4004.886	-649.8
4007.388	-648.8
4009.888	-645.8
4012.386	-646.8
4014.883	-644.8
4017.377	-644.8
4019.87	-643.8
4022.361	-646.8
4024.85	-645.8
4027.338	-644.8
4029.823	-643.8
4032.307	-651.8
4034.789	-652.8
4037.269	-654.8
4039.747	-654.8
4042.224	-643.8
4044.699	-649.8
4047.172	-646.8
4049.643	-647.8
4052.112	-648.8
4054.58	-644.8
4057.046	-657.8
4059.51	-650.8
4061.972	-658.8
4064.432	-647.8
4066.891	-648.8
4069.348	-655.8
4071.803	-653.8
4074.256	-646.8
4076.708	-650.8
4079.158	-643.8
4081.606	-646.8
4084.052	-646.8
4086.497	-646.8
4088.939	-643.8
4091.38	-641.8
4093.819	-642.8
4096.257	-681.8
4098.693	-685.8
4101.127	-684.8
4103.559	-685.8
4105.989	-411.8
4108.418	-387.8
4110.845	-367.8
4113.27	-338.8
4115.694	-292.8
4118.115	-244.8
4120.535	-644.8
4122.954	-655.8
4125.37	-649.8
4127.785	-645.8
4130.198	-652.8
4132.609	-647.8
4135.019	-686.8
4137.427	-684.8
4139.833	-680.8
4142.237	-683.8
