Data from 2018-2-7_conc=2_RamanShift_02.txt Node
Date: Tue Feb 13 11:39:14 IST 2018
User: aro
Spectrometer: QEPB0276
Trigger mode: 0
Integration Time (sec): 3.000000E1
Scans to average: 1
Electric dark correction enabled: true
Nonlinearity correction enabled: false
Boxcar width: 0
XAxis mode: Raman Shifts
Number of Pixels in Spectrum: 1044
>>>>>Begin Spectral Data<<<<<
160.701	-160.6
166.742	27.4
172.777	564.4
178.805	2169.4
184.826	5891.4
190.841	12097.4
196.849	19056.4
202.85	23778.4
208.845	25264.4
214.833	24952.4
220.815	24588.4
226.789	24397.4
232.758	24212.4
238.719	24082.4
244.674	23667.4
250.623	23288.4
256.565	22769.4
262.5	22263.4
268.429	21984.4
274.351	21600.4
280.267	21310.4
286.176	21042.4
292.079	20891.4
297.975	20609.4
303.865	20491.4
309.748	20376.4
315.625	20267.4
321.495	20104.4
327.359	20033.4
333.217	19966.4
339.068	19995.4
344.912	19917.4
350.751	19884.4
356.583	19881.4
362.408	19837.4
368.227	19872.4
374.04	19847.4
379.847	19975.4
385.647	19977.4
391.44	20086.4
397.228	20160.4
403.009	20276.4
408.784	20331.4
414.553	20362.4
420.315	20398.4
426.071	20421.4
431.821	20382.4
437.565	20390.4
443.302	20348.4
449.033	20293.4
454.758	20311.4
460.477	20238.4
466.189	20182.4
471.896	20147.4
477.596	20062.4
483.29	20084.4
488.978	19972.4
494.66	19949.4
500.335	19819.4
506.005	19620.4
511.668	19421.4
517.325	19208.4
522.977	19045.4
528.622	18951.4
534.261	18796.4
539.894	18686.4
545.521	18678.4
551.141	18581.4
556.756	18494.4
562.365	18506.4
567.968	18367.4
573.565	18351.4
579.155	18244.4
584.74	18199.4
590.319	18175.4
595.892	18027.4
601.459	18037.4
607.02	17913.4
612.575	17809.4
618.124	17702.4
623.667	17598.4
629.204	17558.4
634.735	17463.4
640.261	17320.4
645.781	17356.4
651.294	17332.4
656.802	17235.4
662.304	17255.4
667.8	17182.4
673.29	17124.4
678.775	17126.4
684.254	17112.4
689.726	17087.4
695.193	16948.4
700.655	16878.4
706.11	16784.4
711.56	16715.4
717.004	16621.4
722.442	16582.4
727.874	16506.4
733.301	16456.4
738.722	16468.4
744.137	16371.4
749.547	16373.4
754.951	16352.4
760.349	16375.4
765.741	16404.4
771.128	16400.4
776.509	16443.4
781.885	16395.4
787.254	16335.4
792.618	16311.4
797.977	16171.4
803.33	16136.4
808.677	16015.4
814.019	15961.4
819.355	15876.4
824.686	15802.4
830.011	15743.4
835.33	15741.4
840.644	15751.4
845.952	15805.4
851.255	15859.4
856.552	15899.4
861.844	15882.4
867.13	15777.4
872.41	15729.4
877.686	15668.4
882.955	15540.4
888.219	15399.4
893.478	15267.4
898.731	15060.4
903.979	14904.4
909.221	14761.4
914.458	14728.4
919.69	14768.4
924.916	14833.4
930.136	14879.4
935.351	14870.4
940.561	14841.4
945.766	14827.4
950.965	14774.4
956.158	14701.4
961.347	14523.4
966.529	14310.4
971.707	14156.4
976.879	13951.4
982.046	13866.4
987.208	13881.4
992.364	13868.4
997.515	13889.4
1002.66	14079.4
1007.801	14209.4
1012.936	14295.4
1018.066	14305.4
1023.19	14364.4
1028.309	14269.4
1033.423	14271.4
1038.532	14197.4
1043.636	14098.4
1048.734	13916.4
1053.827	13703.4
1058.915	13624.4
1063.998	13524.4
1069.075	13501.4
1074.147	13502.4
1079.214	13514.4
1084.276	13566.4
1089.333	13705.4
1094.385	13789.4
1099.431	13791.4
1104.472	13779.4
1109.509	13747.4
1114.54	13551.4
1119.565	13380.4
1124.586	13245.4
1129.602	13110.4
1134.613	13039.4
1139.618	12934.4
1144.619	12925.4
1149.614	12885.4
1154.604	12964.4
1159.589	12988.4
1164.57	13015.4
1169.545	13092.4
1174.515	13049.4
1179.48	12965.4
1184.44	12853.4
1189.395	12751.4
1194.345	12669.4
1199.29	12685.4
1204.23	12641.4
1209.165	12676.4
1214.095	12729.4
1219.021	12812.4
1223.941	12881.4
1228.856	12932.4
1233.766	12971.4
1238.672	13003.4
1243.572	13000.4
1248.467	12914.4
1253.358	12762.4
1258.244	12622.4
1263.124	12390.4
1268	12228.4
1272.871	12060.4
1277.737	11959.4
1282.599	11906.4
1287.455	11911.4
1292.306	11909.4
1297.153	11979.4
1301.995	11996.4
1306.832	12049.4
1311.664	12044.4
1316.491	12029.4
1321.314	11903.4
1326.132	11737.4
1330.945	11524.4
1335.753	11161.4
1340.556	10945.4
1345.354	10711.4
1350.148	10558.4
1354.937	10552.4
1359.722	10513.4
1364.501	10563.4
1369.276	10712.4
1374.046	10821.4
1378.811	10963.4
1383.572	11094.4
1388.327	11133.4
1393.079	11051.4
1397.825	10917.4
1402.567	10783.4
1407.304	10593.4
1412.036	10508.4
1416.764	10437.4
1421.487	10380.4
1426.205	10317.4
1430.919	10327.4
1435.628	10297.4
1440.333	10299.4
1445.032	10313.4
1449.727	10373.4
1454.418	10305.4
1459.104	10206.4
1463.785	10059.4
1468.462	9819.4
1473.134	9638.4
1477.802	9436.4
1482.465	9273.4
1487.123	9192.4
1491.777	9137.4
1496.426	9209.4
1501.071	9328.4
1505.711	9514.4
1510.347	9649.4
1514.978	9814.4
1519.604	9936.4
1524.226	10007.4
1528.844	10029.4
1533.457	10010.4
1538.065	9964.4
1542.669	9889.4
1547.269	9789.4
1551.864	9752.4
1556.454	9779.4
1561.041	9732.4
1565.622	9676.4
1570.199	9691.4
1574.772	9762.4
1579.34	9840.4
1583.904	9884.4
1588.464	9914.4
1593.019	9836.4
1597.569	9852.4
1602.115	9819.4
1606.657	9729.4
1611.195	9700.4
1615.728	9651.4
1620.256	9601.4
1624.78	9582.4
1629.3	9620.4
1633.816	9635.4
1638.327	9679.4
1642.834	9735.4
1647.336	9754.4
1651.834	9780.4
1656.328	9755.4
1660.817	9676.4
1665.302	9619.4
1669.783	9450.4
1674.259	9202.4
1678.732	8940.4
1683.199	8667.4
1687.663	8376.4
1692.122	8139.4
1696.577	8056.4
1701.028	8012.4
1705.474	8108.4
1709.917	8166.4
1714.355	8227.4
1718.788	8125.4
1723.218	8049.4
1727.643	7867.4
1732.064	7666.4
1736.481	7515.4
1740.893	7376.4
1745.301	7163.4
1749.705	7004.4
1754.105	6769.4
1758.501	6571.4
1762.893	6417.4
1767.28	6257.4
1771.663	6130.4
1776.042	6014.4
1780.417	5999.4
1784.787	5980.4
1789.154	6034.4
1793.516	6159.4
1797.874	6264.4
1802.228	6391.4
1806.578	6453.4
1810.924	6435.4
1815.266	6389.4
1819.603	6278.4
1823.937	6166.4
1828.266	6055.4
1832.591	5977.4
1836.913	5906.4
1841.23	5855.4
1845.543	5824.4
1849.852	5771.4
1854.156	5745.4
1858.457	5780.4
1862.754	5772.4
1867.047	5760.4
1871.335	5752.4
1875.62	5728.4
1879.9	5719.4
1884.177	5675.4
1888.449	5618.4
1892.718	5540.4
1896.982	5483.4
1901.243	5437.4
1905.499	5430.4
1909.752	5400.4
1914	5397.4
1918.245	5428.4
1922.485	5447.4
1926.722	5533.4
1930.954	5573.4
1935.183	5655.4
1939.408	5686.4
1943.628	5733.4
1947.845	5751.4
1952.058	5726.4
1956.267	5680.4
1960.472	5603.4
1964.673	5529.4
1968.87	5454.4
1973.063	5368.4
1977.252	5277.4
1981.438	5235.4
1985.619	5172.4
1989.797	5139.4
1993.971	5073.4
1998.14	5068.4
2002.306	5008.4
2006.469	5051.4
2010.627	4989.4
2014.781	4976.4
2018.932	4956.4
2023.078	4883.4
2027.221	4823.4
2031.36	4728.4
2035.495	4676.4
2039.627	4590.4
2043.754	4538.4
2047.878	4514.4
2051.998	4469.4
2056.114	4462.4
2060.226	4471.4
2064.334	4482.4
2068.439	4455.4
2072.54	4511.4
2076.637	4506.4
2080.73	4568.4
2084.82	4621.4
2088.906	4593.4
2092.988	4582.4
2097.066	4606.4
2101.14	4559.4
2105.211	4551.4
2109.278	4502.4
2113.342	4523.4
2117.401	4458.4
2121.457	4449.4
2125.509	4387.4
2129.558	4394.4
2133.602	4346.4
2137.643	4314.4
2141.681	4338.4
2145.714	4290.4
2149.744	4268.4
2153.77	4273.4
2157.793	4199.4
2161.812	4154.4
2165.827	4105.4
2169.838	4018.4
2173.846	3951.4
2177.851	3889.4
2181.851	3825.4
2185.848	3766.4
2189.841	3759.4
2193.831	3704.4
2197.817	3681.4
2201.799	3653.4
2205.778	3658.4
2209.753	3631.4
2213.725	3630.4
2217.693	3613.4
2221.657	3618.4
2225.618	3595.4
2229.575	3558.4
2233.529	3539.4
2237.479	3503.4
2241.425	3462.4
2245.368	3426.4
2249.307	3377.4
2253.243	3310.4
2257.175	3268.4
2261.104	3249.4
2265.029	3194.4
2268.95	3184.4
2272.868	3127.4
2276.783	3108.4
2280.694	3076.4
2284.601	3031.4
2288.505	3010.4
2292.405	2995.4
2296.302	2959.4
2300.195	2917.4
2304.085	2895.4
2307.971	2876.4
2311.854	2816.4
2315.734	2781.4
2319.609	2764.4
2323.482	2740.4
2327.351	2663.4
2331.216	2677.4
2335.078	2659.4
2338.937	2626.4
2342.792	2619.4
2346.643	2607.4
2350.492	2594.4
2354.336	2623.4
2358.178	2615.4
2362.015	2650.4
2365.85	2651.4
2369.681	2634.4
2373.508	2620.4
2377.333	2636.4
2381.153	2631.4
2384.971	2624.4
2388.785	2600.4
2392.595	2592.4
2396.402	2549.4
2400.206	2537.4
2404.007	2510.4
2407.804	2472.4
2411.597	2471.4
2415.388	2459.4
2419.174	2427.4
2422.958	2427.4
2426.738	2417.4
2430.515	2411.4
2434.289	2373.4
2438.059	2342.4
2441.825	2327.4
2445.589	2344.4
2449.349	2280.4
2453.106	2257.4
2456.859	2245.4
2460.61	2217.4
2464.356	2173.4
2468.1	2171.4
2471.84	2148.4
2475.577	2117.4
2479.311	2111.4
2483.041	2083.4
2486.768	2083.4
2490.492	2072.4
2494.213	2061.4
2497.93	2060.4
2501.644	2028.4
2505.355	2021.4
2509.062	2042.4
2512.766	2012.4
2516.467	2003.4
2520.165	2014.4
2523.859	1999.4
2527.551	1983.4
2531.239	1958.4
2534.923	1947.4
2538.605	1928.4
2542.283	1932.4
2545.958	1932.4
2549.63	1923.4
2553.299	1910.4
2556.964	1930.4
2560.626	1907.4
2564.285	1882.4
2567.941	1901.4
2571.594	1875.4
2575.243	1875.4
2578.89	1865.4
2582.533	1844.4
2586.173	1829.4
2589.809	1821.4
2593.443	1802.4
2597.073	1783.4
2600.701	1759.4
2604.325	1760.4
2607.946	1731.4
2611.564	1724.4
2615.178	1733.4
2618.79	1703.4
2622.398	1688.4
2626.004	1675.4
2629.606	1660.4
2633.205	1631.4
2636.801	1604.4
2640.394	1592.4
2643.983	1571.4
2647.57	1562.4
2651.153	1526.4
2654.734	1500.4
2658.311	1492.4
2661.885	1451.4
2665.456	1436.4
2669.025	1410.4
2672.589	1397.4
2676.151	1385.4
2679.71	1371.4
2683.266	1348.4
2686.819	1315.4
2690.368	1280.4
2693.915	1268.4
2697.458	1246.4
2700.999	1204.4
2704.536	1185.4
2708.071	1172.4
2711.602	1146.4
2715.13	1126.4
2718.656	1077.4
2722.178	1069.4
2725.697	1061.4
2729.214	1049.4
2732.727	1031.4
2736.237	1035.4
2739.744	1038.4
2743.249	1021.4
2746.75	1046.4
2750.248	1041.4
2753.743	1055.4
2757.236	1056.4
2760.725	1080.4
2764.211	1092.4
2767.695	1079.4
2771.175	1083.4
2774.652	1095.4
2778.127	1077.4
2781.598	1062.4
2785.067	1075.4
2788.532	1060.4
2791.995	1051.4
2795.455	1075.4
2798.911	1058.4
2802.365	1047.4
2805.816	1054.4
2809.264	1048.4
2812.709	1046.4
2816.151	1052.4
2819.59	1061.4
2823.026	1029.4
2826.46	1049.4
2829.89	1042.4
2833.318	1046.4
2836.742	1057.4
2840.164	1070.4
2843.583	1055.4
2846.999	1093.4
2850.412	1071.4
2853.822	1094.4
2857.229	1106.4
2860.634	1134.4
2864.035	1133.4
2867.434	1154.4
2870.83	1183.4
2874.223	1198.4
2877.613	1211.4
2881	1250.4
2884.385	1254.4
2887.766	1216.4
2891.145	1223.4
2894.521	1217.4
2897.894	1212.4
2901.264	1211.4
2904.631	1202.4
2907.996	1223.4
2911.358	1220.4
2914.717	1231.4
2918.073	1231.4
2921.426	1252.4
2924.777	1271.4
2928.124	1269.4
2931.469	1305.4
2934.811	1322.4
2938.15	1335.4
2941.487	1342.4
2944.821	1348.4
2948.152	1351.4
2951.48	1338.4
2954.805	1313.4
2958.128	1287.4
2961.447	1309.4
2964.765	1292.4
2968.079	1312.4
2971.39	1302.4
2974.699	1329.4
2978.005	1336.4
2981.308	1352.4
2984.609	1412.4
2987.907	1422.4
2991.202	1436.4
2994.494	1447.4
2997.784	1489.4
3001.07	1517.4
3004.355	1529.4
3007.636	1546.4
3010.915	1574.4
3014.191	1577.4
3017.464	1585.4
3020.734	1612.4
3024.002	1611.4
3027.267	1637.4
3030.53	1623.4
3033.789	1658.4
3037.046	1673.4
3040.301	1710.4
3043.552	1722.4
3046.801	1786.4
3050.048	1805.4
3053.291	1854.4
3056.532	1876.4
3059.771	1966.4
3063.006	1997.4
3066.239	2056.4
3069.469	2125.4
3072.697	2171.4
3075.922	2216.4
3079.144	2293.4
3082.364	2320.4
3085.581	2371.4
3088.795	2414.4
3092.007	2463.4
3095.216	2521.4
3098.423	2584.4
3101.627	2614.4
3104.828	2689.4
3108.026	2715.4
3111.222	2824.4
3114.416	2860.4
3117.607	2927.4
3120.795	3005.4
3123.98	3057.4
3127.163	3159.4
3130.344	3213.4
3133.521	3281.4
3136.696	3379.4
3139.869	3439.4
3143.039	3465.4
3146.206	3541.4
3149.371	3577.4
3152.533	3607.4
3155.693	3613.4
3158.85	3632.4
3162.005	3691.4
3165.157	3661.4
3168.306	3692.4
3171.453	3687.4
3174.597	3715.4
3177.739	3713.4
3180.878	3699.4
3184.014	3700.4
3187.149	3701.4
3190.28	3732.4
3193.409	3733.4
3196.536	3744.4
3199.659	3724.4
3202.781	3735.4
3205.9	3744.4
3209.016	3728.4
3212.13	3701.4
3215.241	3714.4
3218.35	3633.4
3221.456	3602.4
3224.56	3572.4
3227.661	3524.4
3230.76	3489.4
3233.856	3455.4
3236.95	3414.4
3240.041	3377.4
3243.13	3387.4
3246.216	3337.4
3249.3	3330.4
3252.382	3325.4
3255.46	3298.4
3258.537	3284.4
3261.611	3313.4
3264.682	3285.4
3267.751	3298.4
3270.818	3286.4
3273.882	3268.4
3276.943	3262.4
3280.002	3225.4
3283.059	3197.4
3286.113	3158.4
3289.165	3112.4
3292.214	3070.4
3295.261	3025.4
3298.306	2980.4
3301.348	2908.4
3304.387	2875.4
3307.425	2827.4
3310.459	2804.4
3313.492	2749.4
3316.521	2702.4
3319.549	2698.4
3322.574	2663.4
3325.597	2619.4
3328.617	2622.4
3331.635	2574.4
3334.65	2585.4
3337.663	2561.4
3340.674	2537.4
3343.682	2536.4
3346.688	2526.4
3349.691	2525.4
3352.692	2510.4
3355.691	2485.4
3358.687	2443.4
3361.681	2418.4
3364.673	2427.4
3367.662	2364.4
3370.649	2333.4
3373.633	2309.4
3376.615	2250.4
3379.595	2242.4
3382.572	2197.4
3385.547	2206.4
3388.52	2142.4
3391.49	2070.4
3394.458	2061.4
3397.424	2057.4
3400.387	2015.4
3403.348	1994.4
3406.307	1973.4
3409.263	1928.4
3412.217	1933.4
3415.168	1906.4
3418.118	1880.4
3421.065	1851.4
3424.009	1821.4
3426.951	1773.4
3429.891	1756.4
3432.829	1716.4
3435.764	1672.4
3438.697	1653.4
3441.628	1593.4
3444.557	1555.4
3447.483	1515.4
3450.407	1453.4
3453.328	1405.4
3456.247	1332.4
3459.164	1310.4
3462.079	1256.4
3464.991	1212.4
3467.902	1156.4
3470.809	1119.4
3473.715	1068.4
3476.618	1034.4
3479.519	1000.4
3482.418	967.4
3485.315	938.4
3488.209	897.4
3491.101	866.4
3493.99	827.4
3496.878	804.4
3499.763	749.4
3502.646	731.4
3505.527	690.4
3508.405	669.4
3511.281	629.4
3514.155	593.4
3517.027	535.4
3519.897	521.4
3522.764	473.4
3525.629	432.4
3528.492	394.4
3531.352	353.4
3534.211	329.4
3537.067	289.4
3539.921	257.4
3542.773	235.4
3545.622	198.4
3548.469	168.4
3551.315	130.4
3554.157	107.4
3556.998	85.4
3559.837	66.4
3562.673	41.4
3565.507	25.4
3568.339	10.4
3571.169	-18.6
3573.996	-41.6
3576.822	-59.6
3579.645	-73.6
3582.466	-94.6
3585.285	-105.6
3588.101	-122.6
3590.916	-140.6
3593.728	-163.6
3596.538	-178.6
3599.346	-192.6
3602.152	-206.6
3604.956	-216.6
3607.757	-229.6
3610.556	-234.6
3613.354	-261.6
3616.149	-266.6
3618.942	-285.6
3621.732	-298.6
3624.521	-307.6
3627.307	-309.6
3630.092	-324.6
3632.874	-339.6
3635.654	-348.6
3638.432	-352.6
3641.208	-364.6
3643.982	-374.6
3646.753	-375.6
3649.523	-380.6
3652.29	-391.6
3655.055	-396.6
3657.818	-409.6
3660.579	-416.6
3663.338	-427.6
3666.095	-426.6
3668.849	-445.6
3671.602	-455.6
3674.352	-460.6
3677.101	-465.6
3679.847	-476.6
3682.591	-478.6
3685.333	-490.6
3688.073	-489.6
3690.811	-496.6
3693.547	-493.6
3696.281	-506.6
3699.013	-502.6
3701.742	-508.6
3704.47	-512.6
3707.195	-520.6
3709.919	-521.6
3712.64	-525.6
3715.359	-528.6
3718.076	-529.6
3720.792	-535.6
3723.505	-537.6
3726.216	-549.6
3728.925	-543.6
3731.632	-553.6
3734.336	-555.6
3737.039	-558.6
3739.74	-560.6
3742.439	-557.6
3745.136	-567.6
3747.83	-564.6
3750.523	-562.6
3753.213	-575.6
3755.902	-568.6
3758.589	-568.6
3761.273	-563.6
3763.956	-575.6
3766.636	-578.6
3769.315	-578.6
3771.991	-580.6
3774.665	-578.6
3777.338	-579.6
3780.008	-586.6
3782.677	-581.6
3785.343	-589.6
3788.007	-576.6
3790.67	-589.6
3793.33	-588.6
3795.989	-588.6
3798.645	-595.6
3801.299	-596.6
3803.952	-596.6
3806.602	-596.6
3809.251	-599.6
3811.897	-592.6
3814.542	-594.6
3817.184	-595.6
3819.825	-597.6
3822.463	-593.6
3825.1	-602.6
3827.735	-606.6
3830.367	-604.6
3832.998	-610.6
3835.627	-607.6
3838.253	-608.6
3840.878	-598.6
3843.501	-604.6
3846.122	-600.6
3848.741	-605.6
3851.358	-608.6
3853.973	-603.6
3856.586	-607.6
3859.197	-611.6
3861.806	-612.6
3864.414	-601.6
3867.019	-606.6
3869.622	-615.6
3872.224	-604.6
3874.823	-603.6
3877.421	-584.6
3880.016	-579.6
3882.61	-549.6
3885.202	-551.6
3887.792	-569.6
3890.38	-584.6
3892.966	-599.6
3895.55	-611.6
3898.132	-612.6
3900.713	-618.6
3903.291	-616.6
3905.868	-624.6
3908.442	-614.6
3911.015	-618.6
3913.586	-624.6
3916.155	-620.6
3918.722	-618.6
3921.287	-620.6
3923.85	-622.6
3926.411	-623.6
3928.971	-624.6
3931.528	-620.6
3934.084	-613.6
3936.638	-622.6
3939.19	-620.6
3941.74	-628.6
3944.288	-625.6
3946.834	-626.6
3949.378	-624.6
3951.921	-627.6
3954.462	-624.6
3957	-623.6
3959.537	-619.6
3962.072	-622.6
3964.606	-616.6
3967.137	-626.6
3969.667	-623.6
3972.194	-617.6
3974.72	-622.6
3977.244	-613.6
3979.766	-616.6
3982.286	-618.6
3984.805	-604.6
3987.321	-608.6
3989.836	-612.6
3992.349	-607.6
3994.86	-609.6
3997.369	-623.6
3999.877	-605.6
4002.382	-614.6
4004.886	-610.6
4007.388	-610.6
4009.888	-608.6
4012.386	-610.6
4014.883	-609.6
4017.377	-610.6
4019.87	-602.6
4022.361	-612.6
4024.85	-613.6
4027.338	-610.6
4029.823	-606.6
4032.307	-615.6
4034.789	-620.6
4037.269	-622.6
4039.747	-624.6
4042.224	-616.6
4044.699	-623.6
4047.172	-616.6
4049.643	-618.6
4052.112	-612.6
4054.58	-612.6
4057.046	-616.6
4059.51	-612.6
4061.972	-616.6
4064.432	-617.6
4066.891	-616.6
4069.348	-616.6
4071.803	-620.6
4074.256	-612.6
4076.708	-613.6
4079.158	-617.6
4081.606	-612.6
4084.052	-611.6
4086.497	-617.6
4088.939	-607.6
4091.38	-606.6
4093.819	-612.6
4096.257	-648.6
4098.693	-649.6
4101.127	-648.6
4103.559	-649.6
4105.989	-388.6
4108.418	-374.6
4110.845	-353.6
4113.27	-328.6
4115.694	-274.6
4118.115	-234.6
4120.535	-609.6
4122.954	-614.6
4125.37	-608.6
4127.785	-612.6
4130.198	-621.6
4132.609	-606.6
4135.019	-651.6
4137.427	-648.6
4139.833	-650.6
4142.237	-649.6
