Data from 2018-2-7_conc=2_RamanShift_32.txt Node
Date: Tue Feb 13 12:07:14 IST 2018
User: aro
Spectrometer: QEPB0276
Trigger mode: 0
Integration Time (sec): 3.000000E1
Scans to average: 1
Electric dark correction enabled: true
Nonlinearity correction enabled: false
Boxcar width: 0
XAxis mode: Raman Shifts
Number of Pixels in Spectrum: 1044
>>>>>Begin Spectral Data<<<<<
160.701	-139.2
166.742	27.8
172.777	537.8
178.805	2037.8
184.826	5598.8
190.841	11547.8
196.849	18284.8
202.85	22970.8
208.845	24337.8
214.833	24126.8
220.815	23652.8
226.789	23480.8
232.758	23312.8
238.719	23126.8
244.674	22804.8
250.623	22418.8
256.565	21900.8
262.5	21437.8
268.429	20935.8
274.351	20572.8
280.267	20310.8
286.176	20053.8
292.079	19793.8
297.975	19560.8
303.865	19452.8
309.748	19300.8
315.625	19087.8
321.495	19037.8
327.359	18984.8
333.217	18924.8
339.068	18887.8
344.912	18876.8
350.751	18815.8
356.583	18843.8
362.408	18857.8
368.227	18805.8
374.04	18840.8
379.847	18860.8
385.647	18972.8
391.44	19046.8
397.228	19114.8
403.009	19166.8
408.784	19271.8
414.553	19291.8
420.315	19290.8
426.071	19368.8
431.821	19263.8
437.565	19372.8
443.302	19284.8
449.033	19231.8
454.758	19236.8
460.477	19149.8
466.189	19127.8
471.896	19067.8
477.596	19012.8
483.29	18962.8
488.978	18967.8
494.66	18949.8
500.335	18764.8
506.005	18601.8
511.668	18308.8
517.325	18146.8
522.977	18026.8
528.622	17820.8
534.261	17764.8
539.894	17620.8
545.521	17538.8
551.141	17521.8
556.756	17486.8
562.365	17365.8
567.968	17307.8
573.565	17298.8
579.155	17174.8
584.74	17090.8
590.319	17046.8
595.892	16988.8
601.459	16944.8
607.02	16820.8
612.575	16728.8
618.124	16658.8
623.667	16539.8
629.204	16520.8
634.735	16405.8
640.261	16373.8
645.781	16267.8
651.294	16256.8
656.802	16173.8
662.304	16158.8
667.8	16114.8
673.29	16104.8
678.775	16065.8
684.254	16029.8
689.726	16006.8
695.193	15930.8
700.655	15841.8
706.11	15766.8
711.56	15676.8
717.004	15602.8
722.442	15585.8
727.874	15521.8
733.301	15383.8
738.722	15357.8
744.137	15363.8
749.547	15367.8
754.951	15393.8
760.349	15386.8
765.741	15387.8
771.128	15400.8
776.509	15422.8
781.885	15407.8
787.254	15348.8
792.618	15267.8
797.977	15169.8
803.33	15074.8
808.677	15019.8
814.019	14893.8
819.355	14853.8
824.686	14751.8
830.011	14730.8
835.33	14752.8
840.644	14743.8
845.952	14757.8
851.255	14798.8
856.552	14876.8
861.844	14779.8
867.13	14841.8
872.41	14698.8
877.686	14591.8
882.955	14498.8
888.219	14341.8
893.478	14217.8
898.731	14043.8
903.979	13880.8
909.221	13765.8
914.458	13774.8
919.69	13715.8
924.916	13778.8
930.136	13783.8
935.351	13814.8
940.561	13833.8
945.766	13861.8
950.965	13742.8
956.158	13670.8
961.347	13562.8
966.529	13290.8
971.707	13194.8
976.879	13002.8
982.046	12921.8
987.208	12877.8
992.364	12873.8
997.515	12936.8
1002.66	13089.8
1007.801	13234.8
1012.936	13343.8
1018.066	13303.8
1023.19	13317.8
1028.309	13328.8
1033.423	13296.8
1038.532	13169.8
1043.636	13086.8
1048.734	12920.8
1053.827	12762.8
1058.915	12630.8
1063.998	12539.8
1069.075	12536.8
1074.147	12510.8
1079.214	12551.8
1084.276	12604.8
1089.333	12704.8
1094.385	12747.8
1099.431	12796.8
1104.472	12807.8
1109.509	12708.8
1114.54	12579.8
1119.565	12449.8
1124.586	12276.8
1129.602	12172.8
1134.613	12085.8
1139.618	12006.8
1144.619	11969.8
1149.614	11981.8
1154.604	11990.8
1159.589	12025.8
1164.57	12076.8
1169.545	12032.8
1174.515	12078.8
1179.48	11939.8
1184.44	11893.8
1189.395	11820.8
1194.345	11718.8
1199.29	11688.8
1204.23	11688.8
1209.165	11742.8
1214.095	11798.8
1219.021	11814.8
1223.941	11900.8
1228.856	12011.8
1233.766	11987.8
1238.672	12004.8
1243.572	11967.8
1248.467	11905.8
1253.358	11789.8
1258.244	11631.8
1263.124	11440.8
1268	11300.8
1272.871	11186.8
1277.737	11057.8
1282.599	11012.8
1287.455	11048.8
1292.306	10998.8
1297.153	11061.8
1301.995	11099.8
1306.832	11166.8
1311.664	11133.8
1316.491	11121.8
1321.314	11035.8
1326.132	10854.8
1330.945	10688.8
1335.753	10367.8
1340.556	10129.8
1345.354	9956.8
1350.148	9739.8
1354.937	9637.8
1359.722	9641.8
1364.501	9650.8
1369.276	9729.8
1374.046	9885.8
1378.811	9977.8
1383.572	10108.8
1388.327	10095.8
1393.079	10089.8
1397.825	9977.8
1402.567	9831.8
1407.304	9755.8
1412.036	9704.8
1416.764	9550.8
1421.487	9597.8
1426.205	9509.8
1430.919	9420.8
1435.628	9446.8
1440.333	9482.8
1445.032	9536.8
1449.727	9537.8
1454.418	9567.8
1459.104	9427.8
1463.785	9253.8
1468.462	9082.8
1473.134	8857.8
1477.802	8605.8
1482.465	8491.8
1487.123	8410.8
1491.777	8384.8
1496.426	8386.8
1501.071	8462.8
1505.711	8618.8
1510.347	8707.8
1514.978	8844.8
1519.604	8993.8
1524.226	9054.8
1528.844	9083.8
1533.457	9046.8
1538.065	9073.8
1542.669	9001.8
1547.269	8932.8
1551.864	8871.8
1556.454	8843.8
1561.041	8859.8
1565.622	8887.8
1570.199	8902.8
1574.772	8953.8
1579.34	9036.8
1583.904	9053.8
1588.464	9117.8
1593.019	9117.8
1597.569	9058.8
1602.115	8999.8
1606.657	8956.8
1611.195	8930.8
1615.728	8867.8
1620.256	8819.8
1624.78	8864.8
1629.3	8853.8
1633.816	8910.8
1638.327	8894.8
1642.834	8999.8
1647.336	9042.8
1651.834	9019.8
1656.328	8999.8
1660.817	8929.8
1665.302	8813.8
1669.783	8667.8
1674.259	8478.8
1678.732	8199.8
1683.199	7893.8
1687.663	7645.8
1692.122	7452.8
1696.577	7245.8
1701.028	7204.8
1705.474	7247.8
1709.917	7306.8
1714.355	7342.8
1718.788	7270.8
1723.218	7230.8
1727.643	7082.8
1732.064	6956.8
1736.481	6753.8
1740.893	6616.8
1745.301	6439.8
1749.705	6250.8
1754.105	6093.8
1758.501	5909.8
1762.893	5768.8
1767.28	5625.8
1771.663	5495.8
1776.042	5386.8
1780.417	5335.8
1784.787	5301.8
1789.154	5345.8
1793.516	5419.8
1797.874	5540.8
1802.228	5616.8
1806.578	5653.8
1810.924	5701.8
1815.266	5636.8
1819.603	5587.8
1823.937	5502.8
1828.266	5435.8
1832.591	5335.8
1836.913	5303.8
1841.23	5240.8
1845.543	5189.8
1849.852	5146.8
1854.156	5158.8
1858.457	5135.8
1862.754	5133.8
1867.047	5112.8
1871.335	5114.8
1875.62	5102.8
1879.9	5083.8
1884.177	5025.8
1888.449	5007.8
1892.718	4944.8
1896.982	4859.8
1901.243	4813.8
1905.499	4795.8
1909.752	4760.8
1914	4762.8
1918.245	4784.8
1922.485	4778.8
1926.722	4831.8
1930.954	4906.8
1935.183	4944.8
1939.408	5031.8
1943.628	5018.8
1947.845	5059.8
1952.058	5027.8
1956.267	4981.8
1960.472	4941.8
1964.673	4858.8
1968.87	4804.8
1973.063	4711.8
1977.252	4684.8
1981.438	4644.8
1985.619	4557.8
1989.797	4541.8
1993.971	4532.8
1998.14	4505.8
2002.306	4526.8
2006.469	4472.8
2010.627	4461.8
2014.781	4422.8
2018.932	4394.8
2023.078	4342.8
2027.221	4272.8
2031.36	4213.8
2035.495	4192.8
2039.627	4099.8
2043.754	4047.8
2047.878	4007.8
2051.998	3987.8
2056.114	4005.8
2060.226	3964.8
2064.334	3955.8
2068.439	3991.8
2072.54	4000.8
2076.637	4011.8
2080.73	4042.8
2084.82	4070.8
2088.906	4092.8
2092.988	4103.8
2097.066	4074.8
2101.14	4043.8
2105.211	4022.8
2109.278	3981.8
2113.342	3966.8
2117.401	3977.8
2121.457	3942.8
2125.509	3921.8
2129.558	3899.8
2133.602	3864.8
2137.643	3835.8
2141.681	3844.8
2145.714	3816.8
2149.744	3807.8
2153.77	3763.8
2157.793	3736.8
2161.812	3681.8
2165.827	3632.8
2169.838	3544.8
2173.846	3539.8
2177.851	3479.8
2181.851	3422.8
2185.848	3387.8
2189.841	3352.8
2193.831	3311.8
2197.817	3278.8
2201.799	3282.8
2205.778	3273.8
2209.753	3246.8
2213.725	3237.8
2217.693	3225.8
2221.657	3232.8
2225.618	3198.8
2229.575	3192.8
2233.529	3142.8
2237.479	3124.8
2241.425	3107.8
2245.368	3061.8
2249.307	2968.8
2253.243	2974.8
2257.175	2910.8
2261.104	2905.8
2265.029	2834.8
2268.95	2809.8
2272.868	2799.8
2276.783	2768.8
2280.694	2742.8
2284.601	2711.8
2288.505	2701.8
2292.405	2689.8
2296.302	2637.8
2300.195	2596.8
2304.085	2549.8
2307.971	2530.8
2311.854	2488.8
2315.734	2463.8
2319.609	2413.8
2323.482	2399.8
2327.351	2369.8
2331.216	2365.8
2335.078	2365.8
2338.937	2361.8
2342.792	2338.8
2346.643	2333.8
2350.492	2326.8
2354.336	2319.8
2358.178	2309.8
2362.015	2332.8
2365.85	2359.8
2369.681	2349.8
2373.508	2347.8
2377.333	2349.8
2381.153	2343.8
2384.971	2322.8
2388.785	2321.8
2392.595	2310.8
2396.402	2261.8
2400.206	2237.8
2404.007	2240.8
2407.804	2220.8
2411.597	2197.8
2415.388	2189.8
2419.174	2170.8
2422.958	2167.8
2426.738	2152.8
2430.515	2145.8
2434.289	2130.8
2438.059	2110.8
2441.825	2093.8
2445.589	2055.8
2449.349	2021.8
2453.106	2010.8
2456.859	1973.8
2460.61	1949.8
2464.356	1939.8
2468.1	1917.8
2471.84	1896.8
2475.577	1877.8
2479.311	1870.8
2483.041	1839.8
2486.768	1845.8
2490.492	1831.8
2494.213	1835.8
2497.93	1824.8
2501.644	1808.8
2505.355	1802.8
2509.062	1806.8
2512.766	1768.8
2516.467	1801.8
2520.165	1766.8
2523.859	1767.8
2527.551	1719.8
2531.239	1723.8
2534.923	1720.8
2538.605	1680.8
2542.283	1690.8
2545.958	1695.8
2549.63	1680.8
2553.299	1648.8
2556.964	1698.8
2560.626	1686.8
2564.285	1665.8
2567.941	1660.8
2571.594	1642.8
2575.243	1653.8
2578.89	1635.8
2582.533	1625.8
2586.173	1610.8
2589.809	1590.8
2593.443	1570.8
2597.073	1578.8
2600.701	1542.8
2604.325	1514.8
2607.946	1542.8
2611.564	1510.8
2615.178	1512.8
2618.79	1500.8
2622.398	1478.8
2626.004	1465.8
2629.606	1449.8
2633.205	1428.8
2636.801	1400.8
2640.394	1394.8
2643.983	1376.8
2647.57	1367.8
2651.153	1355.8
2654.734	1310.8
2658.311	1288.8
2661.885	1268.8
2665.456	1250.8
2669.025	1243.8
2672.589	1247.8
2676.151	1212.8
2679.71	1206.8
2683.266	1180.8
2686.819	1156.8
2690.368	1129.8
2693.915	1123.8
2697.458	1094.8
2700.999	1060.8
2704.536	1052.8
2708.071	1030.8
2711.602	1000.8
2715.13	977.8
2718.656	956.8
2722.178	931.8
2725.697	942.8
2729.214	915.8
2732.727	893.8
2736.237	922.8
2739.744	899.8
2743.249	882.8
2746.75	878.8
2750.248	922.8
2753.743	910.8
2757.236	913.8
2760.725	927.8
2764.211	935.8
2767.695	940.8
2771.175	948.8
2774.652	941.8
2778.127	933.8
2781.598	925.8
2785.067	925.8
2788.532	918.8
2791.995	913.8
2795.455	912.8
2798.911	913.8
2802.365	928.8
2805.816	932.8
2809.264	914.8
2812.709	910.8
2816.151	922.8
2819.59	900.8
2823.026	913.8
2826.46	910.8
2829.89	933.8
2833.318	925.8
2836.742	939.8
2840.164	933.8
2843.583	937.8
2846.999	961.8
2850.412	964.8
2853.822	974.8
2857.229	987.8
2860.634	993.8
2864.035	1014.8
2867.434	1030.8
2870.83	1068.8
2874.223	1070.8
2877.613	1119.8
2881	1116.8
2884.385	1135.8
2887.766	1121.8
2891.145	1104.8
2894.521	1111.8
2897.894	1115.8
2901.264	1117.8
2904.631	1101.8
2907.996	1104.8
2911.358	1130.8
2914.717	1135.8
2918.073	1144.8
2921.426	1174.8
2924.777	1174.8
2928.124	1204.8
2931.469	1195.8
2934.811	1245.8
2938.15	1250.8
2941.487	1275.8
2944.821	1276.8
2948.152	1258.8
2951.48	1266.8
2954.805	1236.8
2958.128	1230.8
2961.447	1225.8
2964.765	1214.8
2968.079	1221.8
2971.39	1228.8
2974.699	1246.8
2978.005	1257.8
2981.308	1283.8
2984.609	1298.8
2987.907	1330.8
2991.202	1336.8
2994.494	1381.8
2997.784	1391.8
3001.07	1449.8
3004.355	1444.8
3007.636	1472.8
3010.915	1504.8
3014.191	1521.8
3017.464	1529.8
3020.734	1526.8
3024.002	1528.8
3027.267	1545.8
3030.53	1570.8
3033.789	1582.8
3037.046	1605.8
3040.301	1628.8
3043.552	1661.8
3046.801	1714.8
3050.048	1728.8
3053.291	1767.8
3056.532	1825.8
3059.771	1862.8
3063.006	1947.8
3066.239	2003.8
3069.469	2060.8
3072.697	2101.8
3075.922	2173.8
3079.144	2210.8
3082.364	2227.8
3085.581	2299.8
3088.795	2377.8
3092.007	2414.8
3095.216	2438.8
3098.423	2519.8
3101.627	2555.8
3104.828	2606.8
3108.026	2699.8
3111.222	2721.8
3114.416	2799.8
3117.607	2857.8
3120.795	2901.8
3123.98	2981.8
3127.163	3068.8
3130.344	3144.8
3133.521	3213.8
3136.696	3290.8
3139.869	3321.8
3143.039	3390.8
3146.206	3441.8
3149.371	3506.8
3152.533	3520.8
3155.693	3553.8
3158.85	3559.8
3162.005	3567.8
3165.157	3589.8
3168.306	3618.8
3171.453	3637.8
3174.597	3627.8
3177.739	3632.8
3180.878	3634.8
3184.014	3654.8
3187.149	3645.8
3190.28	3635.8
3193.409	3640.8
3196.536	3650.8
3199.659	3667.8
3202.781	3680.8
3205.9	3666.8
3209.016	3648.8
3212.13	3648.8
3215.241	3619.8
3218.35	3596.8
3221.456	3528.8
3224.56	3520.8
3227.661	3491.8
3230.76	3443.8
3233.856	3437.8
3236.95	3371.8
3240.041	3341.8
3243.13	3325.8
3246.216	3296.8
3249.3	3293.8
3252.382	3248.8
3255.46	3254.8
3258.537	3239.8
3261.611	3225.8
3264.682	3227.8
3267.751	3218.8
3270.818	3235.8
3273.882	3174.8
3276.943	3177.8
3280.002	3180.8
3283.059	3124.8
3286.113	3118.8
3289.165	3068.8
3292.214	3018.8
3295.261	2998.8
3298.306	2926.8
3301.348	2892.8
3304.387	2817.8
3307.425	2790.8
3310.459	2758.8
3313.492	2731.8
3316.521	2695.8
3319.549	2652.8
3322.574	2612.8
3325.597	2596.8
3328.617	2559.8
3331.635	2577.8
3334.65	2557.8
3337.663	2517.8
3340.674	2532.8
3343.682	2526.8
3346.688	2500.8
3349.691	2512.8
3352.692	2469.8
3355.691	2473.8
3358.687	2433.8
3361.681	2388.8
3364.673	2374.8
3367.662	2342.8
3370.649	2291.8
3373.633	2269.8
3376.615	2264.8
3379.595	2198.8
3382.572	2180.8
3385.547	2134.8
3388.52	2096.8
3391.49	2088.8
3394.458	2056.8
3397.424	2014.8
3400.387	1996.8
3403.348	1964.8
3406.307	1944.8
3409.263	1931.8
3412.217	1915.8
3415.168	1884.8
3418.118	1857.8
3421.065	1827.8
3424.009	1829.8
3426.951	1775.8
3429.891	1747.8
3432.829	1699.8
3435.764	1661.8
3438.697	1605.8
3441.628	1574.8
3444.557	1519.8
3447.483	1473.8
3450.407	1423.8
3453.328	1373.8
3456.247	1327.8
3459.164	1283.8
3462.079	1246.8
3464.991	1206.8
3467.902	1154.8
3470.809	1105.8
3473.715	1064.8
3476.618	1033.8
3479.519	993.8
3482.418	946.8
3485.315	923.8
3488.209	882.8
3491.101	863.8
3493.99	840.8
3496.878	785.8
3499.763	765.8
3502.646	737.8
3505.527	704.8
3508.405	654.8
3511.281	630.8
3514.155	570.8
3517.027	540.8
3519.897	505.8
3522.764	474.8
3525.629	437.8
3528.492	394.8
3531.352	354.8
3534.211	331.8
3537.067	297.8
3539.921	261.8
3542.773	239.8
3545.622	210.8
3548.469	177.8
3551.315	150.8
3554.157	125.8
3556.998	103.8
3559.837	77.8
3562.673	58.8
3565.507	42.8
3568.339	27.8
3571.169	5.8
3573.996	-19.2
3576.822	-36.2
3579.645	-57.2
3582.466	-76.2
3585.285	-84.2
3588.101	-94.2
3590.916	-117.2
3593.728	-146.2
3596.538	-152.2
3599.346	-178.2
3602.152	-188.2
3604.956	-193.2
3607.757	-219.2
3610.556	-228.2
3613.354	-242.2
3616.149	-246.2
3618.942	-265.2
3621.732	-286.2
3624.521	-287.2
3627.307	-294.2
3630.092	-305.2
3632.874	-315.2
3635.654	-324.2
3638.432	-322.2
3641.208	-334.2
3643.982	-342.2
3646.753	-346.2
3649.523	-362.2
3652.29	-372.2
3655.055	-372.2
3657.818	-388.2
3660.579	-396.2
3663.338	-403.2
3666.095	-410.2
3668.849	-422.2
3671.602	-426.2
3674.352	-430.2
3677.101	-444.2
3679.847	-453.2
3682.591	-459.2
3685.333	-463.2
3688.073	-459.2
3690.811	-466.2
3693.547	-472.2
3696.281	-485.2
3699.013	-480.2
3701.742	-488.2
3704.47	-487.2
3707.195	-496.2
3709.919	-498.2
3712.64	-504.2
3715.359	-507.2
3718.076	-499.2
3720.792	-512.2
3723.505	-513.2
3726.216	-521.2
3728.925	-522.2
3731.632	-532.2
3734.336	-533.2
3737.039	-537.2
3739.74	-532.2
3742.439	-532.2
3745.136	-538.2
3747.83	-536.2
3750.523	-533.2
3753.213	-549.2
3755.902	-543.2
3758.589	-544.2
3761.273	-546.2
3763.956	-552.2
3766.636	-548.2
3769.315	-553.2
3771.991	-553.2
3774.665	-557.2
3777.338	-551.2
3780.008	-551.2
3782.677	-556.2
3785.343	-561.2
3788.007	-555.2
3790.67	-561.2
3793.33	-559.2
3795.989	-560.2
3798.645	-568.2
3801.299	-569.2
3803.952	-565.2
3806.602	-570.2
3809.251	-576.2
3811.897	-572.2
3814.542	-560.2
3817.184	-572.2
3819.825	-571.2
3822.463	-573.2
3825.1	-578.2
3827.735	-582.2
3830.367	-576.2
3832.998	-580.2
3835.627	-581.2
3838.253	-582.2
3840.878	-578.2
3843.501	-582.2
3846.122	-572.2
3848.741	-579.2
3851.358	-577.2
3853.973	-575.2
3856.586	-586.2
3859.197	-581.2
3861.806	-578.2
3864.414	-574.2
3867.019	-580.2
3869.622	-582.2
3872.224	-584.2
3874.823	-572.2
3877.421	-559.2
3880.016	-541.2
3882.61	-508.2
3885.202	-515.2
3887.792	-530.2
3890.38	-549.2
3892.966	-571.2
3895.55	-578.2
3898.132	-583.2
3900.713	-589.2
3903.291	-592.2
3905.868	-594.2
3908.442	-592.2
3911.015	-592.2
3913.586	-592.2
3916.155	-589.2
3918.722	-591.2
3921.287	-591.2
3923.85	-592.2
3926.411	-596.2
3928.971	-599.2
3931.528	-591.2
3934.084	-591.2
3936.638	-593.2
3939.19	-603.2
3941.74	-600.2
3944.288	-600.2
3946.834	-603.2
3949.378	-602.2
3951.921	-596.2
3954.462	-601.2
3957	-594.2
3959.537	-595.2
3962.072	-596.2
3964.606	-592.2
3967.137	-600.2
3969.667	-589.2
3972.194	-593.2
3974.72	-588.2
3977.244	-589.2
3979.766	-585.2
3982.286	-587.2
3984.805	-579.2
3987.321	-578.2
3989.836	-580.2
3992.349	-584.2
3994.86	-581.2
3997.369	-591.2
3999.877	-588.2
4002.382	-581.2
4004.886	-587.2
4007.388	-584.2
4009.888	-578.2
4012.386	-585.2
4014.883	-579.2
4017.377	-583.2
4019.87	-580.2
4022.361	-583.2
4024.85	-581.2
4027.338	-591.2
4029.823	-581.2
4032.307	-585.2
4034.789	-590.2
4037.269	-593.2
4039.747	-590.2
4042.224	-583.2
4044.699	-589.2
4047.172	-592.2
4049.643	-588.2
4052.112	-589.2
4054.58	-577.2
4057.046	-591.2
4059.51	-586.2
4061.972	-593.2
4064.432	-588.2
4066.891	-579.2
4069.348	-587.2
4071.803	-588.2
4074.256	-587.2
4076.708	-587.2
4079.158	-587.2
4081.606	-588.2
4084.052	-581.2
4086.497	-595.2
4088.939	-581.2
4091.38	-583.2
4093.819	-584.2
4096.257	-613.2
4098.693	-617.2
4101.127	-621.2
4103.559	-621.2
4105.989	-361.2
4108.418	-359.2
4110.845	-331.2
4113.27	-314.2
4115.694	-265.2
4118.115	-219.2
4120.535	-585.2
4122.954	-585.2
4125.37	-592.2
4127.785	-586.2
4130.198	-594.2
4132.609	-583.2
4135.019	-616.2
4137.427	-616.2
4139.833	-615.2
4142.237	-616.2
