Data from 2018-2-7_conc=5_RamanShift_04.txt Node
Date: Tue Feb 13 13:57:43 IST 2018
User: aro
Spectrometer: QEPB0276
Trigger mode: 0
Integration Time (sec): 3.000000E1
Scans to average: 1
Electric dark correction enabled: true
Nonlinearity correction enabled: false
Boxcar width: 0
XAxis mode: Raman Shifts
Number of Pixels in Spectrum: 1044
>>>>>Begin Spectral Data<<<<<
160.701	-151.9
166.742	21.1
172.777	572.1
178.805	2187.1
184.826	5983.1
190.841	12361.1
196.849	19500.1
202.85	24536.1
208.845	26127.1
214.833	25781.1
220.815	25301.1
226.789	25188.1
232.758	25045.1
238.719	24791.1
244.674	24511.1
250.623	24082.1
256.565	23540.1
262.5	22976.1
268.429	22676.1
274.351	22278.1
280.267	21991.1
286.176	21744.1
292.079	21493.1
297.975	21269.1
303.865	21099.1
309.748	20927.1
315.625	20827.1
321.495	20728.1
327.359	20673.1
333.217	20513.1
339.068	20546.1
344.912	20478.1
350.751	20478.1
356.583	20456.1
362.408	20495.1
368.227	20484.1
374.04	20453.1
379.847	20509.1
385.647	20659.1
391.44	20665.1
397.228	20776.1
403.009	20880.1
408.784	20921.1
414.553	21008.1
420.315	21039.1
426.071	21042.1
431.821	21017.1
437.565	21033.1
443.302	20950.1
449.033	20987.1
454.758	20902.1
460.477	20905.1
466.189	20826.1
471.896	20780.1
477.596	20711.1
483.29	20728.1
488.978	20684.1
494.66	20533.1
500.335	20430.1
506.005	20223.1
511.668	20000.1
517.325	19804.1
522.977	19623.1
528.622	19459.1
534.261	19345.1
539.894	19278.1
545.521	19201.1
551.141	19109.1
556.756	19067.1
562.365	18928.1
567.968	18928.1
573.565	18851.1
579.155	18810.1
584.74	18704.1
590.319	18678.1
595.892	18537.1
601.459	18518.1
607.02	18456.1
612.575	18295.1
618.124	18163.1
623.667	18071.1
629.204	18044.1
634.735	17986.1
640.261	17883.1
645.781	17852.1
651.294	17803.1
656.802	17787.1
662.304	17723.1
667.8	17691.1
673.29	17685.1
678.775	17622.1
684.254	17612.1
689.726	17518.1
695.193	17449.1
700.655	17361.1
706.11	17308.1
711.56	17225.1
717.004	17132.1
722.442	17135.1
727.874	17009.1
733.301	16919.1
738.722	16905.1
744.137	16878.1
749.547	16952.1
754.951	16876.1
760.349	16946.1
765.741	16910.1
771.128	16882.1
776.509	16875.1
781.885	16905.1
787.254	16850.1
792.618	16769.1
797.977	16716.1
803.33	16605.1
808.677	16506.1
814.019	16412.1
819.355	16333.1
824.686	16239.1
830.011	16203.1
835.33	16223.1
840.644	16261.1
845.952	16279.1
851.255	16348.1
856.552	16339.1
861.844	16276.1
867.13	16278.1
872.41	16216.1
877.686	16113.1
882.955	15991.1
888.219	15835.1
893.478	15713.1
898.731	15463.1
903.979	15324.1
909.221	15234.1
914.458	15167.1
919.69	15162.1
924.916	15249.1
930.136	15315.1
935.351	15367.1
940.561	15308.1
945.766	15245.1
950.965	15244.1
956.158	15110.1
961.347	14952.1
966.529	14705.1
971.707	14584.1
976.879	14435.1
982.046	14267.1
987.208	14270.1
992.364	14250.1
997.515	14380.1
1002.66	14491.1
1007.801	14626.1
1012.936	14736.1
1018.066	14779.1
1023.19	14774.1
1028.309	14755.1
1033.423	14746.1
1038.532	14624.1
1043.636	14495.1
1048.734	14287.1
1053.827	14174.1
1058.915	13990.1
1063.998	13963.1
1069.075	13865.1
1074.147	13904.1
1079.214	13957.1
1084.276	14023.1
1089.333	14090.1
1094.385	14191.1
1099.431	14237.1
1104.472	14200.1
1109.509	14130.1
1114.54	14012.1
1119.565	13778.1
1124.586	13662.1
1129.602	13523.1
1134.613	13425.1
1139.618	13356.1
1144.619	13252.1
1149.614	13295.1
1154.604	13325.1
1159.589	13323.1
1164.57	13424.1
1169.545	13440.1
1174.515	13416.1
1179.48	13320.1
1184.44	13288.1
1189.395	13119.1
1194.345	13063.1
1199.29	13029.1
1204.23	13002.1
1209.165	13085.1
1214.095	13143.1
1219.021	13203.1
1223.941	13328.1
1228.856	13370.1
1233.766	13380.1
1238.672	13466.1
1243.572	13413.1
1248.467	13285.1
1253.358	13148.1
1258.244	12991.1
1263.124	12791.1
1268	12587.1
1272.871	12478.1
1277.737	12346.1
1282.599	12329.1
1287.455	12333.1
1292.306	12358.1
1297.153	12377.1
1301.995	12434.1
1306.832	12468.1
1311.664	12456.1
1316.491	12496.1
1321.314	12353.1
1326.132	12177.1
1330.945	11879.1
1335.753	11554.1
1340.556	11306.1
1345.354	11038.1
1350.148	10850.1
1354.937	10720.1
1359.722	10698.1
1364.501	10747.1
1369.276	10868.1
1374.046	11023.1
1378.811	11207.1
1383.572	11342.1
1388.327	11430.1
1393.079	11371.1
1397.825	11249.1
1402.567	11055.1
1407.304	10948.1
1412.036	10860.1
1416.764	10768.1
1421.487	10657.1
1426.205	10663.1
1430.919	10603.1
1435.628	10637.1
1440.333	10650.1
1445.032	10621.1
1449.727	10716.1
1454.418	10688.1
1459.104	10534.1
1463.785	10314.1
1468.462	10080.1
1473.134	9872.1
1477.802	9669.1
1482.465	9415.1
1487.123	9326.1
1491.777	9270.1
1496.426	9308.1
1501.071	9398.1
1505.711	9535.1
1510.347	9709.1
1514.978	9906.1
1519.604	10022.1
1524.226	10140.1
1528.844	10181.1
1533.457	10185.1
1538.065	10164.1
1542.669	10090.1
1547.269	10039.1
1551.864	9964.1
1556.454	9970.1
1561.041	9959.1
1565.622	9898.1
1570.199	9986.1
1574.772	10024.1
1579.34	10092.1
1583.904	10162.1
1588.464	10164.1
1593.019	10202.1
1597.569	10160.1
1602.115	10060.1
1606.657	10016.1
1611.195	9953.1
1615.728	9926.1
1620.256	9843.1
1624.78	9859.1
1629.3	9837.1
1633.816	9866.1
1638.327	9923.1
1642.834	9953.1
1647.336	10044.1
1651.834	10011.1
1656.328	10007.1
1660.817	9929.1
1665.302	9798.1
1669.783	9643.1
1674.259	9370.1
1678.732	9072.1
1683.199	8758.1
1687.663	8411.1
1692.122	8148.1
1696.577	8011.1
1701.028	7916.1
1705.474	8059.1
1709.917	8152.1
1714.355	8216.1
1718.788	8153.1
1723.218	8039.1
1727.643	7934.1
1732.064	7795.1
1736.481	7591.1
1740.893	7423.1
1745.301	7208.1
1749.705	7042.1
1754.105	6835.1
1758.501	6665.1
1762.893	6464.1
1767.28	6284.1
1771.663	6119.1
1776.042	6020.1
1780.417	5953.1
1784.787	5921.1
1789.154	5958.1
1793.516	6086.1
1797.874	6158.1
1802.228	6312.1
1806.578	6381.1
1810.924	6426.1
1815.266	6311.1
1819.603	6288.1
1823.937	6212.1
1828.266	6106.1
1832.591	6009.1
1836.913	5937.1
1841.23	5861.1
1845.543	5841.1
1849.852	5827.1
1854.156	5781.1
1858.457	5777.1
1862.754	5741.1
1867.047	5735.1
1871.335	5741.1
1875.62	5741.1
1879.9	5703.1
1884.177	5623.1
1888.449	5621.1
1892.718	5489.1
1896.982	5459.1
1901.243	5374.1
1905.499	5336.1
1909.752	5287.1
1914	5321.1
1918.245	5319.1
1922.485	5312.1
1926.722	5370.1
1930.954	5458.1
1935.183	5506.1
1939.408	5591.1
1943.628	5624.1
1947.845	5643.1
1952.058	5654.1
1956.267	5615.1
1960.472	5531.1
1964.673	5442.1
1968.87	5374.1
1973.063	5337.1
1977.252	5243.1
1981.438	5178.1
1985.619	5143.1
1989.797	5106.1
1993.971	5097.1
1998.14	5061.1
2002.306	5043.1
2006.469	5048.1
2010.627	4978.1
2014.781	4980.1
2018.932	4923.1
2023.078	4877.1
2027.221	4823.1
2031.36	4721.1
2035.495	4647.1
2039.627	4583.1
2043.754	4514.1
2047.878	4489.1
2051.998	4437.1
2056.114	4411.1
2060.226	4408.1
2064.334	4415.1
2068.439	4397.1
2072.54	4431.1
2076.637	4465.1
2080.73	4503.1
2084.82	4510.1
2088.906	4527.1
2092.988	4525.1
2097.066	4517.1
2101.14	4538.1
2105.211	4467.1
2109.278	4452.1
2113.342	4465.1
2117.401	4425.1
2121.457	4383.1
2125.509	4369.1
2129.558	4368.1
2133.602	4329.1
2137.643	4343.1
2141.681	4318.1
2145.714	4287.1
2149.744	4240.1
2153.77	4249.1
2157.793	4191.1
2161.812	4142.1
2165.827	4078.1
2169.838	4029.1
2173.846	3959.1
2177.851	3883.1
2181.851	3839.1
2185.848	3801.1
2189.841	3764.1
2193.831	3702.1
2197.817	3701.1
2201.799	3664.1
2205.778	3646.1
2209.753	3650.1
2213.725	3642.1
2217.693	3633.1
2221.657	3621.1
2225.618	3578.1
2229.575	3587.1
2233.529	3572.1
2237.479	3525.1
2241.425	3482.1
2245.368	3461.1
2249.307	3366.1
2253.243	3338.1
2257.175	3322.1
2261.104	3272.1
2265.029	3204.1
2268.95	3207.1
2272.868	3172.1
2276.783	3140.1
2280.694	3094.1
2284.601	3069.1
2288.505	3035.1
2292.405	3014.1
2296.302	3002.1
2300.195	2956.1
2304.085	2934.1
2307.971	2895.1
2311.854	2852.1
2315.734	2843.1
2319.609	2795.1
2323.482	2727.1
2327.351	2725.1
2331.216	2689.1
2335.078	2702.1
2338.937	2688.1
2342.792	2676.1
2346.643	2677.1
2350.492	2690.1
2354.336	2684.1
2358.178	2697.1
2362.015	2700.1
2365.85	2705.1
2369.681	2692.1
2373.508	2702.1
2377.333	2731.1
2381.153	2691.1
2384.971	2699.1
2388.785	2687.1
2392.595	2656.1
2396.402	2634.1
2400.206	2621.1
2404.007	2579.1
2407.804	2590.1
2411.597	2555.1
2415.388	2552.1
2419.174	2520.1
2422.958	2519.1
2426.738	2480.1
2430.515	2464.1
2434.289	2430.1
2438.059	2442.1
2441.825	2420.1
2445.589	2415.1
2449.349	2371.1
2453.106	2326.1
2456.859	2297.1
2460.61	2275.1
2464.356	2277.1
2468.1	2235.1
2471.84	2212.1
2475.577	2176.1
2479.311	2173.1
2483.041	2162.1
2486.768	2152.1
2490.492	2139.1
2494.213	2112.1
2497.93	2130.1
2501.644	2096.1
2505.355	2099.1
2509.062	2061.1
2512.766	2077.1
2516.467	2050.1
2520.165	2048.1
2523.859	2029.1
2527.551	2003.1
2531.239	1996.1
2534.923	1978.1
2538.605	1969.1
2542.283	1932.1
2545.958	1949.1
2549.63	1983.1
2553.299	1948.1
2556.964	1952.1
2560.626	1933.1
2564.285	1917.1
2567.941	1902.1
2571.594	1909.1
2575.243	1892.1
2578.89	1887.1
2582.533	1880.1
2586.173	1856.1
2589.809	1840.1
2593.443	1834.1
2597.073	1817.1
2600.701	1790.1
2604.325	1769.1
2607.946	1772.1
2611.564	1765.1
2615.178	1791.1
2618.79	1739.1
2622.398	1720.1
2626.004	1715.1
2629.606	1688.1
2633.205	1665.1
2636.801	1644.1
2640.394	1658.1
2643.983	1609.1
2647.57	1603.1
2651.153	1577.1
2654.734	1549.1
2658.311	1525.1
2661.885	1491.1
2665.456	1476.1
2669.025	1451.1
2672.589	1456.1
2676.151	1439.1
2679.71	1422.1
2683.266	1399.1
2686.819	1375.1
2690.368	1321.1
2693.915	1311.1
2697.458	1265.1
2700.999	1272.1
2704.536	1236.1
2708.071	1200.1
2711.602	1178.1
2715.13	1144.1
2718.656	1101.1
2722.178	1102.1
2725.697	1077.1
2729.214	1067.1
2732.727	1040.1
2736.237	1035.1
2739.744	1024.1
2743.249	1037.1
2746.75	1030.1
2750.248	1039.1
2753.743	1042.1
2757.236	1068.1
2760.725	1066.1
2764.211	1082.1
2767.695	1060.1
2771.175	1090.1
2774.652	1086.1
2778.127	1071.1
2781.598	1083.1
2785.067	1073.1
2788.532	1085.1
2791.995	1075.1
2795.455	1074.1
2798.911	1070.1
2802.365	1057.1
2805.816	1072.1
2809.264	1076.1
2812.709	1063.1
2816.151	1055.1
2819.59	1046.1
2823.026	1073.1
2826.46	1060.1
2829.89	1049.1
2833.318	1064.1
2836.742	1058.1
2840.164	1092.1
2843.583	1081.1
2846.999	1093.1
2850.412	1094.1
2853.822	1108.1
2857.229	1136.1
2860.634	1150.1
2864.035	1171.1
2867.434	1184.1
2870.83	1211.1
2874.223	1224.1
2877.613	1245.1
2881	1241.1
2884.385	1258.1
2887.766	1257.1
2891.145	1268.1
2894.521	1252.1
2897.894	1264.1
2901.264	1279.1
2904.631	1269.1
2907.996	1253.1
2911.358	1273.1
2914.717	1269.1
2918.073	1292.1
2921.426	1291.1
2924.777	1301.1
2928.124	1307.1
2931.469	1349.1
2934.811	1357.1
2938.15	1415.1
2941.487	1380.1
2944.821	1404.1
2948.152	1399.1
2951.48	1383.1
2954.805	1375.1
2958.128	1359.1
2961.447	1349.1
2964.765	1354.1
2968.079	1342.1
2971.39	1325.1
2974.699	1361.1
2978.005	1388.1
2981.308	1372.1
2984.609	1430.1
2987.907	1457.1
2991.202	1500.1
2994.494	1514.1
2997.784	1533.1
3001.07	1558.1
3004.355	1586.1
3007.636	1591.1
3010.915	1623.1
3014.191	1651.1
3017.464	1657.1
3020.734	1663.1
3024.002	1657.1
3027.267	1695.1
3030.53	1690.1
3033.789	1736.1
3037.046	1748.1
3040.301	1756.1
3043.552	1775.1
3046.801	1842.1
3050.048	1866.1
3053.291	1932.1
3056.532	1972.1
3059.771	2019.1
3063.006	2083.1
3066.239	2148.1
3069.469	2222.1
3072.697	2264.1
3075.922	2315.1
3079.144	2376.1
3082.364	2419.1
3085.581	2469.1
3088.795	2505.1
3092.007	2578.1
3095.216	2621.1
3098.423	2664.1
3101.627	2740.1
3104.828	2803.1
3108.026	2827.1
3111.222	2938.1
3114.416	2988.1
3117.607	3048.1
3120.795	3101.1
3123.98	3183.1
3127.163	3275.1
3130.344	3336.1
3133.521	3410.1
3136.696	3502.1
3139.869	3566.1
3143.039	3620.1
3146.206	3669.1
3149.371	3709.1
3152.533	3752.1
3155.693	3766.1
3158.85	3801.1
3162.005	3811.1
3165.157	3848.1
3168.306	3818.1
3171.453	3843.1
3174.597	3864.1
3177.739	3849.1
3180.878	3845.1
3184.014	3868.1
3187.149	3875.1
3190.28	3869.1
3193.409	3884.1
3196.536	3907.1
3199.659	3891.1
3202.781	3892.1
3205.9	3877.1
3209.016	3859.1
3212.13	3838.1
3215.241	3852.1
3218.35	3788.1
3221.456	3745.1
3224.56	3723.1
3227.661	3692.1
3230.76	3626.1
3233.856	3614.1
3236.95	3547.1
3240.041	3531.1
3243.13	3483.1
3246.216	3475.1
3249.3	3466.1
3252.382	3447.1
3255.46	3422.1
3258.537	3435.1
3261.611	3433.1
3264.682	3401.1
3267.751	3382.1
3270.818	3418.1
3273.882	3376.1
3276.943	3374.1
3280.002	3354.1
3283.059	3302.1
3286.113	3299.1
3289.165	3243.1
3292.214	3180.1
3295.261	3146.1
3298.306	3070.1
3301.348	3036.1
3304.387	2992.1
3307.425	2956.1
3310.459	2925.1
3313.492	2860.1
3316.521	2849.1
3319.549	2799.1
3322.574	2753.1
3325.597	2715.1
3328.617	2735.1
3331.635	2689.1
3334.65	2696.1
3337.663	2682.1
3340.674	2657.1
3343.682	2674.1
3346.688	2652.1
3349.691	2621.1
3352.692	2607.1
3355.691	2611.1
3358.687	2564.1
3361.681	2555.1
3364.673	2513.1
3367.662	2494.1
3370.649	2412.1
3373.633	2412.1
3376.615	2373.1
3379.595	2347.1
3382.572	2298.1
3385.547	2261.1
3388.52	2260.1
3391.49	2182.1
3394.458	2166.1
3397.424	2150.1
3400.387	2093.1
3403.348	2077.1
3406.307	2047.1
3409.263	2043.1
3412.217	1984.1
3415.168	1979.1
3418.118	1950.1
3421.065	1912.1
3424.009	1922.1
3426.951	1878.1
3429.891	1809.1
3432.829	1795.1
3435.764	1730.1
3438.697	1701.1
3441.628	1674.1
3444.557	1622.1
3447.483	1563.1
3450.407	1503.1
3453.328	1449.1
3456.247	1407.1
3459.164	1359.1
3462.079	1307.1
3464.991	1264.1
3467.902	1211.1
3470.809	1160.1
3473.715	1120.1
3476.618	1071.1
3479.519	1041.1
3482.418	1001.1
3485.315	969.1
3488.209	915.1
3491.101	895.1
3493.99	878.1
3496.878	841.1
3499.763	793.1
3502.646	772.1
3505.527	724.1
3508.405	685.1
3511.281	650.1
3514.155	610.1
3517.027	563.1
3519.897	535.1
3522.764	497.1
3525.629	460.1
3528.492	426.1
3531.352	383.1
3534.211	345.1
3537.067	303.1
3539.921	259.1
3542.773	242.1
3545.622	218.1
3548.469	186.1
3551.315	169.1
3554.157	119.1
3556.998	95.1
3559.837	92.1
3562.673	46.1
3565.507	39.1
3568.339	18.1
3571.169	2.1
3573.996	-27.9
3576.822	-48.9
3579.645	-64.9
3582.466	-86.9
3585.285	-97.9
3588.101	-112.9
3590.916	-136.9
3593.728	-153.9
3596.538	-175.9
3599.346	-190.9
3602.152	-205.9
3604.956	-221.9
3607.757	-232.9
3610.556	-240.9
3613.354	-261.9
3616.149	-272.9
3618.942	-284.9
3621.732	-302.9
3624.521	-306.9
3627.307	-320.9
3630.092	-331.9
3632.874	-329.9
3635.654	-349.9
3638.432	-346.9
3641.208	-360.9
3643.982	-370.9
3646.753	-382.9
3649.523	-397.9
3652.29	-401.9
3655.055	-405.9
3657.818	-409.9
3660.579	-421.9
3663.338	-432.9
3666.095	-437.9
3668.849	-454.9
3671.602	-459.9
3674.352	-461.9
3677.101	-474.9
3679.847	-482.9
3682.591	-483.9
3685.333	-482.9
3688.073	-487.9
3690.811	-496.9
3693.547	-507.9
3696.281	-517.9
3699.013	-515.9
3701.742	-525.9
3704.47	-528.9
3707.195	-534.9
3709.919	-536.9
3712.64	-539.9
3715.359	-534.9
3718.076	-539.9
3720.792	-555.9
3723.505	-548.9
3726.216	-551.9
3728.925	-561.9
3731.632	-562.9
3734.336	-561.9
3737.039	-567.9
3739.74	-570.9
3742.439	-568.9
3745.136	-569.9
3747.83	-572.9
3750.523	-570.9
3753.213	-583.9
3755.902	-578.9
3758.589	-574.9
3761.273	-573.9
3763.956	-589.9
3766.636	-583.9
3769.315	-586.9
3771.991	-589.9
3774.665	-591.9
3777.338	-591.9
3780.008	-592.9
3782.677	-593.9
3785.343	-593.9
3788.007	-586.9
3790.67	-600.9
3793.33	-602.9
3795.989	-601.9
3798.645	-613.9
3801.299	-608.9
3803.952	-609.9
3806.602	-604.9
3809.251	-614.9
3811.897	-607.9
3814.542	-600.9
3817.184	-607.9
3819.825	-608.9
3822.463	-608.9
3825.1	-614.9
3827.735	-610.9
3830.367	-610.9
3832.998	-614.9
3835.627	-619.9
3838.253	-618.9
3840.878	-619.9
3843.501	-614.9
3846.122	-615.9
3848.741	-618.9
3851.358	-621.9
3853.973	-619.9
3856.586	-617.9
3859.197	-620.9
3861.806	-620.9
3864.414	-620.9
3867.019	-615.9
3869.622	-624.9
3872.224	-615.9
3874.823	-605.9
3877.421	-581.9
3880.016	-571.9
3882.61	-536.9
3885.202	-532.9
3887.792	-569.9
3890.38	-584.9
3892.966	-605.9
3895.55	-611.9
3898.132	-621.9
3900.713	-631.9
3903.291	-634.9
3905.868	-634.9
3908.442	-632.9
3911.015	-627.9
3913.586	-630.9
3916.155	-638.9
3918.722	-631.9
3921.287	-636.9
3923.85	-636.9
3926.411	-633.9
3928.971	-636.9
3931.528	-636.9
3934.084	-627.9
3936.638	-640.9
3939.19	-635.9
3941.74	-641.9
3944.288	-640.9
3946.834	-639.9
3949.378	-638.9
3951.921	-641.9
3954.462	-637.9
3957	-632.9
3959.537	-631.9
3962.072	-631.9
3964.606	-629.9
3967.137	-636.9
3969.667	-628.9
3972.194	-629.9
3974.72	-627.9
3977.244	-624.9
3979.766	-627.9
3982.286	-626.9
3984.805	-619.9
3987.321	-620.9
3989.836	-623.9
3992.349	-620.9
3994.86	-618.9
3997.369	-634.9
3999.877	-622.9
4002.382	-621.9
4004.886	-623.9
4007.388	-627.9
4009.888	-621.9
4012.386	-625.9
4014.883	-621.9
4017.377	-623.9
4019.87	-622.9
4022.361	-622.9
4024.85	-624.9
4027.338	-627.9
4029.823	-620.9
4032.307	-626.9
4034.789	-626.9
4037.269	-628.9
4039.747	-624.9
4042.224	-622.9
4044.699	-621.9
4047.172	-626.9
4049.643	-623.9
4052.112	-625.9
4054.58	-618.9
4057.046	-633.9
4059.51	-629.9
4061.972	-629.9
4064.432	-625.9
4066.891	-632.9
4069.348	-628.9
4071.803	-631.9
4074.256	-626.9
4076.708	-630.9
4079.158	-627.9
4081.606	-621.9
4084.052	-627.9
4086.497	-629.9
4088.939	-623.9
4091.38	-617.9
4093.819	-621.9
4096.257	-653.9
4098.693	-658.9
4101.127	-661.9
4103.559	-659.9
4105.989	-396.9
4108.418	-374.9
4110.845	-353.9
4113.27	-330.9
4115.694	-292.9
4118.115	-244.9
4120.535	-623.9
4122.954	-629.9
4125.37	-626.9
4127.785	-627.9
4130.198	-629.9
4132.609	-619.9
4135.019	-660.9
4137.427	-657.9
4139.833	-653.9
4142.237	-655.9
