Data from 2018-2-7_conc=5_RamanShift_17.txt Node
Date: Tue Feb 13 14:08:13 IST 2018
User: aro
Spectrometer: QEPB0276
Trigger mode: 0
Integration Time (sec): 3.000000E1
Scans to average: 1
Electric dark correction enabled: true
Nonlinearity correction enabled: false
Boxcar width: 0
XAxis mode: Raman Shifts
Number of Pixels in Spectrum: 1044
>>>>>Begin Spectral Data<<<<<
160.701	-167.8
166.742	28.2
172.777	603.2
178.805	2298.2
184.826	6283.2
190.841	13044.2
196.849	20582.2
202.85	25846.2
208.845	27519.2
214.833	27154.2
220.815	26640.2
226.789	26337.2
232.758	26243.2
238.719	25948.2
244.674	25604.2
250.623	25055.2
256.565	24586.2
262.5	23933.2
268.429	23477.2
274.351	23098.2
280.267	22778.2
286.176	22454.2
292.079	22270.2
297.975	21995.2
303.865	21813.2
309.748	21637.2
315.625	21466.2
321.495	21436.2
327.359	21197.2
333.217	21244.2
339.068	21175.2
344.912	21167.2
350.751	21124.2
356.583	21140.2
362.408	21108.2
368.227	21078.2
374.04	21107.2
379.847	21129.2
385.647	21274.2
391.44	21330.2
397.228	21373.2
403.009	21543.2
408.784	21587.2
414.553	21686.2
420.315	21711.2
426.071	21695.2
431.821	21641.2
437.565	21679.2
443.302	21616.2
449.033	21579.2
454.758	21496.2
460.477	21473.2
466.189	21415.2
471.896	21346.2
477.596	21333.2
483.29	21240.2
488.978	21218.2
494.66	21148.2
500.335	21065.2
506.005	20741.2
511.668	20523.2
517.325	20304.2
522.977	20087.2
528.622	19909.2
534.261	19874.2
539.894	19758.2
545.521	19650.2
551.141	19502.2
556.756	19429.2
562.365	19444.2
567.968	19333.2
573.565	19265.2
579.155	19179.2
584.74	19116.2
590.319	19019.2
595.892	18932.2
601.459	18861.2
607.02	18774.2
612.575	18640.2
618.124	18560.2
623.667	18433.2
629.204	18315.2
634.735	18299.2
640.261	18147.2
645.781	18154.2
651.294	18078.2
656.802	18077.2
662.304	18047.2
667.8	18032.2
673.29	17989.2
678.775	17953.2
684.254	17903.2
689.726	17809.2
695.193	17799.2
700.655	17613.2
706.11	17579.2
711.56	17468.2
717.004	17398.2
722.442	17357.2
727.874	17266.2
733.301	17132.2
738.722	17147.2
744.137	17103.2
749.547	17084.2
754.951	17141.2
760.349	17095.2
765.741	17114.2
771.128	17081.2
776.509	17175.2
781.885	17163.2
787.254	17078.2
792.618	17032.2
797.977	16932.2
803.33	16830.2
808.677	16719.2
814.019	16651.2
819.355	16543.2
824.686	16499.2
830.011	16451.2
835.33	16443.2
840.644	16408.2
845.952	16479.2
851.255	16464.2
856.552	16527.2
861.844	16453.2
867.13	16425.2
872.41	16363.2
877.686	16284.2
882.955	16142.2
888.219	15972.2
893.478	15847.2
898.731	15594.2
903.979	15438.2
909.221	15351.2
914.458	15293.2
919.69	15274.2
924.916	15308.2
930.136	15318.2
935.351	15380.2
940.561	15434.2
945.766	15328.2
950.965	15293.2
956.158	15197.2
961.347	14973.2
966.529	14814.2
971.707	14647.2
976.879	14498.2
982.046	14331.2
987.208	14322.2
992.364	14323.2
997.515	14414.2
1002.66	14564.2
1007.801	14751.2
1012.936	14775.2
1018.066	14859.2
1023.19	14814.2
1028.309	14779.2
1033.423	14724.2
1038.532	14673.2
1043.636	14565.2
1048.734	14354.2
1053.827	14198.2
1058.915	14010.2
1063.998	13956.2
1069.075	13927.2
1074.147	13929.2
1079.214	13946.2
1084.276	14051.2
1089.333	14140.2
1094.385	14209.2
1099.431	14270.2
1104.472	14253.2
1109.509	14134.2
1114.54	14074.2
1119.565	13841.2
1124.586	13673.2
1129.602	13536.2
1134.613	13413.2
1139.618	13371.2
1144.619	13292.2
1149.614	13304.2
1154.604	13379.2
1159.589	13413.2
1164.57	13413.2
1169.545	13471.2
1174.515	13424.2
1179.48	13355.2
1184.44	13324.2
1189.395	13228.2
1194.345	13121.2
1199.29	13034.2
1204.23	13032.2
1209.165	13093.2
1214.095	13219.2
1219.021	13294.2
1223.941	13327.2
1228.856	13411.2
1233.766	13410.2
1238.672	13427.2
1243.572	13426.2
1248.467	13315.2
1253.358	13199.2
1258.244	13010.2
1263.124	12762.2
1268	12599.2
1272.871	12449.2
1277.737	12310.2
1282.599	12295.2
1287.455	12257.2
1292.306	12287.2
1297.153	12349.2
1301.995	12407.2
1306.832	12442.2
1311.664	12473.2
1316.491	12440.2
1321.314	12270.2
1326.132	12094.2
1330.945	11804.2
1335.753	11554.2
1340.556	11234.2
1345.354	11050.2
1350.148	10853.2
1354.937	10760.2
1359.722	10733.2
1364.501	10769.2
1369.276	10916.2
1374.046	11093.2
1378.811	11213.2
1383.572	11294.2
1388.327	11364.2
1393.079	11320.2
1397.825	11151.2
1402.567	10998.2
1407.304	10919.2
1412.036	10795.2
1416.764	10709.2
1421.487	10610.2
1426.205	10582.2
1430.919	10550.2
1435.628	10592.2
1440.333	10547.2
1445.032	10604.2
1449.727	10644.2
1454.418	10592.2
1459.104	10484.2
1463.785	10263.2
1468.462	10033.2
1473.134	9798.2
1477.802	9609.2
1482.465	9419.2
1487.123	9346.2
1491.777	9309.2
1496.426	9356.2
1501.071	9474.2
1505.711	9606.2
1510.347	9776.2
1514.978	9944.2
1519.604	10084.2
1524.226	10180.2
1528.844	10206.2
1533.457	10170.2
1538.065	10136.2
1542.669	10073.2
1547.269	9996.2
1551.864	9909.2
1556.454	9979.2
1561.041	9896.2
1565.622	9917.2
1570.199	9938.2
1574.772	9982.2
1579.34	10101.2
1583.904	10123.2
1588.464	10190.2
1593.019	10189.2
1597.569	10148.2
1602.115	10138.2
1606.657	10055.2
1611.195	10035.2
1615.728	9982.2
1620.256	9947.2
1624.78	9916.2
1629.3	10005.2
1633.816	9982.2
1638.327	10048.2
1642.834	10069.2
1647.336	10144.2
1651.834	10148.2
1656.328	10120.2
1660.817	10076.2
1665.302	9987.2
1669.783	9755.2
1674.259	9528.2
1678.732	9228.2
1683.199	8907.2
1687.663	8581.2
1692.122	8334.2
1696.577	8162.2
1701.028	8130.2
1705.474	8159.2
1709.917	8253.2
1714.355	8318.2
1718.788	8229.2
1723.218	8097.2
1727.643	7953.2
1732.064	7795.2
1736.481	7627.2
1740.893	7419.2
1745.301	7247.2
1749.705	7032.2
1754.105	6841.2
1758.501	6631.2
1762.893	6421.2
1767.28	6242.2
1771.663	6153.2
1776.042	6004.2
1780.417	5964.2
1784.787	5964.2
1789.154	6018.2
1793.516	6108.2
1797.874	6225.2
1802.228	6353.2
1806.578	6380.2
1810.924	6398.2
1815.266	6336.2
1819.603	6283.2
1823.937	6113.2
1828.266	6086.2
1832.591	5930.2
1836.913	5894.2
1841.23	5834.2
1845.543	5823.2
1849.852	5764.2
1854.156	5761.2
1858.457	5713.2
1862.754	5735.2
1867.047	5715.2
1871.335	5723.2
1875.62	5688.2
1879.9	5688.2
1884.177	5626.2
1888.449	5561.2
1892.718	5521.2
1896.982	5452.2
1901.243	5445.2
1905.499	5369.2
1909.752	5345.2
1914	5337.2
1918.245	5336.2
1922.485	5426.2
1926.722	5447.2
1930.954	5530.2
1935.183	5565.2
1939.408	5616.2
1943.628	5678.2
1947.845	5683.2
1952.058	5678.2
1956.267	5642.2
1960.472	5563.2
1964.673	5491.2
1968.87	5391.2
1973.063	5329.2
1977.252	5259.2
1981.438	5239.2
1985.619	5169.2
1989.797	5114.2
1993.971	5087.2
1998.14	5075.2
2002.306	5069.2
2006.469	5008.2
2010.627	5001.2
2014.781	4947.2
2018.932	4934.2
2023.078	4873.2
2027.221	4797.2
2031.36	4724.2
2035.495	4675.2
2039.627	4590.2
2043.754	4548.2
2047.878	4504.2
2051.998	4468.2
2056.114	4443.2
2060.226	4444.2
2064.334	4477.2
2068.439	4471.2
2072.54	4458.2
2076.637	4513.2
2080.73	4536.2
2084.82	4582.2
2088.906	4596.2
2092.988	4568.2
2097.066	4595.2
2101.14	4563.2
2105.211	4491.2
2109.278	4486.2
2113.342	4454.2
2117.401	4453.2
2121.457	4436.2
2125.509	4409.2
2129.558	4381.2
2133.602	4340.2
2137.643	4309.2
2141.681	4291.2
2145.714	4274.2
2149.744	4263.2
2153.77	4236.2
2157.793	4176.2
2161.812	4159.2
2165.827	4081.2
2169.838	4012.2
2173.846	3971.2
2177.851	3886.2
2181.851	3831.2
2185.848	3770.2
2189.841	3747.2
2193.831	3695.2
2197.817	3677.2
2201.799	3669.2
2205.778	3674.2
2209.753	3610.2
2213.725	3610.2
2217.693	3595.2
2221.657	3571.2
2225.618	3590.2
2229.575	3553.2
2233.529	3524.2
2237.479	3536.2
2241.425	3438.2
2245.368	3417.2
2249.307	3361.2
2253.243	3319.2
2257.175	3278.2
2261.104	3227.2
2265.029	3182.2
2268.95	3147.2
2272.868	3117.2
2276.783	3062.2
2280.694	3064.2
2284.601	3038.2
2288.505	3000.2
2292.405	2969.2
2296.302	2926.2
2300.195	2912.2
2304.085	2861.2
2307.971	2864.2
2311.854	2789.2
2315.734	2764.2
2319.609	2714.2
2323.482	2696.2
2327.351	2658.2
2331.216	2632.2
2335.078	2637.2
2338.937	2614.2
2342.792	2602.2
2346.643	2591.2
2350.492	2578.2
2354.336	2620.2
2358.178	2589.2
2362.015	2591.2
2365.85	2603.2
2369.681	2610.2
2373.508	2615.2
2377.333	2613.2
2381.153	2588.2
2384.971	2576.2
2388.785	2550.2
2392.595	2538.2
2396.402	2502.2
2400.206	2501.2
2404.007	2462.2
2407.804	2459.2
2411.597	2447.2
2415.388	2431.2
2419.174	2446.2
2422.958	2412.2
2426.738	2385.2
2430.515	2363.2
2434.289	2337.2
2438.059	2333.2
2441.825	2299.2
2445.589	2279.2
2449.349	2245.2
2453.106	2221.2
2456.859	2213.2
2460.61	2167.2
2464.356	2114.2
2468.1	2107.2
2471.84	2095.2
2475.577	2052.2
2479.311	2044.2
2483.041	2069.2
2486.768	2026.2
2490.492	2034.2
2494.213	2023.2
2497.93	2043.2
2501.644	2010.2
2505.355	2004.2
2509.062	1989.2
2512.766	1989.2
2516.467	1955.2
2520.165	1948.2
2523.859	1946.2
2527.551	1941.2
2531.239	1898.2
2534.923	1888.2
2538.605	1885.2
2542.283	1884.2
2545.958	1874.2
2549.63	1869.2
2553.299	1861.2
2556.964	1859.2
2560.626	1862.2
2564.285	1832.2
2567.941	1843.2
2571.594	1821.2
2575.243	1842.2
2578.89	1804.2
2582.533	1796.2
2586.173	1773.2
2589.809	1767.2
2593.443	1754.2
2597.073	1716.2
2600.701	1724.2
2604.325	1693.2
2607.946	1709.2
2611.564	1697.2
2615.178	1674.2
2618.79	1666.2
2622.398	1661.2
2626.004	1643.2
2629.606	1619.2
2633.205	1582.2
2636.801	1594.2
2640.394	1527.2
2643.983	1537.2
2647.57	1505.2
2651.153	1481.2
2654.734	1444.2
2658.311	1431.2
2661.885	1423.2
2665.456	1400.2
2669.025	1385.2
2672.589	1354.2
2676.151	1339.2
2679.71	1325.2
2683.266	1310.2
2686.819	1274.2
2690.368	1254.2
2693.915	1237.2
2697.458	1212.2
2700.999	1176.2
2704.536	1149.2
2708.071	1136.2
2711.602	1103.2
2715.13	1092.2
2718.656	1052.2
2722.178	1025.2
2725.697	1019.2
2729.214	1003.2
2732.727	1009.2
2736.237	1001.2
2739.744	974.2
2743.249	1003.2
2746.75	987.2
2750.248	1015.2
2753.743	1017.2
2757.236	1033.2
2760.725	1038.2
2764.211	1051.2
2767.695	1049.2
2771.175	1053.2
2774.652	1058.2
2778.127	1042.2
2781.598	1009.2
2785.067	1021.2
2788.532	1022.2
2791.995	1025.2
2795.455	1021.2
2798.911	1009.2
2802.365	1004.2
2805.816	1027.2
2809.264	1018.2
2812.709	1016.2
2816.151	1031.2
2819.59	1005.2
2823.026	1018.2
2826.46	1036.2
2829.89	1035.2
2833.318	1039.2
2836.742	1036.2
2840.164	1040.2
2843.583	1049.2
2846.999	1061.2
2850.412	1093.2
2853.822	1089.2
2857.229	1115.2
2860.634	1129.2
2864.035	1149.2
2867.434	1165.2
2870.83	1195.2
2874.223	1212.2
2877.613	1220.2
2881	1256.2
2884.385	1283.2
2887.766	1253.2
2891.145	1252.2
2894.521	1267.2
2897.894	1256.2
2901.264	1257.2
2904.631	1260.2
2907.996	1267.2
2911.358	1266.2
2914.717	1298.2
2918.073	1282.2
2921.426	1302.2
2924.777	1319.2
2928.124	1348.2
2931.469	1362.2
2934.811	1376.2
2938.15	1406.2
2941.487	1433.2
2944.821	1440.2
2948.152	1406.2
2951.48	1428.2
2954.805	1401.2
2958.128	1381.2
2961.447	1372.2
2964.765	1385.2
2968.079	1387.2
2971.39	1397.2
2974.699	1424.2
2978.005	1425.2
2981.308	1473.2
2984.609	1489.2
2987.907	1519.2
2991.202	1542.2
2994.494	1588.2
2997.784	1598.2
3001.07	1631.2
3004.355	1663.2
3007.636	1677.2
3010.915	1706.2
3014.191	1719.2
3017.464	1755.2
3020.734	1761.2
3024.002	1770.2
3027.267	1764.2
3030.53	1809.2
3033.789	1812.2
3037.046	1808.2
3040.301	1839.2
3043.552	1899.2
3046.801	1948.2
3050.048	1991.2
3053.291	2037.2
3056.532	2091.2
3059.771	2145.2
3063.006	2182.2
3066.239	2283.2
3069.469	2356.2
3072.697	2433.2
3075.922	2481.2
3079.144	2543.2
3082.364	2578.2
3085.581	2646.2
3088.795	2684.2
3092.007	2776.2
3095.216	2839.2
3098.423	2878.2
3101.627	2925.2
3104.828	3013.2
3108.026	3086.2
3111.222	3140.2
3114.416	3201.2
3117.607	3317.2
3120.795	3351.2
3123.98	3441.2
3127.163	3561.2
3130.344	3610.2
3133.521	3686.2
3136.696	3811.2
3139.869	3876.2
3143.039	3939.2
3146.206	3974.2
3149.371	4033.2
3152.533	4096.2
3155.693	4076.2
3158.85	4105.2
3162.005	4144.2
3165.157	4156.2
3168.306	4196.2
3171.453	4161.2
3174.597	4216.2
3177.739	4221.2
3180.878	4174.2
3184.014	4221.2
3187.149	4241.2
3190.28	4227.2
3193.409	4238.2
3196.536	4242.2
3199.659	4237.2
3202.781	4243.2
3205.9	4237.2
3209.016	4208.2
3212.13	4248.2
3215.241	4183.2
3218.35	4144.2
3221.456	4110.2
3224.56	4065.2
3227.661	4037.2
3230.76	3965.2
3233.856	3974.2
3236.95	3909.2
3240.041	3877.2
3243.13	3840.2
3246.216	3846.2
3249.3	3818.2
3252.382	3806.2
3255.46	3775.2
3258.537	3744.2
3261.611	3755.2
3264.682	3750.2
3267.751	3749.2
3270.818	3740.2
3273.882	3702.2
3276.943	3694.2
3280.002	3632.2
3283.059	3630.2
3286.113	3601.2
3289.165	3551.2
3292.214	3486.2
3295.261	3443.2
3298.306	3418.2
3301.348	3344.2
3304.387	3290.2
3307.425	3243.2
3310.459	3181.2
3313.492	3139.2
3316.521	3118.2
3319.549	3088.2
3322.574	3016.2
3325.597	3005.2
3328.617	2991.2
3331.635	2969.2
3334.65	2950.2
3337.663	2892.2
3340.674	2929.2
3343.682	2914.2
3346.688	2906.2
3349.691	2905.2
3352.692	2868.2
3355.691	2831.2
3358.687	2820.2
3361.681	2803.2
3364.673	2753.2
3367.662	2718.2
3370.649	2678.2
3373.633	2649.2
3376.615	2613.2
3379.595	2588.2
3382.572	2516.2
3385.547	2466.2
3388.52	2462.2
3391.49	2415.2
3394.458	2380.2
3397.424	2345.2
3400.387	2326.2
3403.348	2295.2
3406.307	2250.2
3409.263	2238.2
3412.217	2223.2
3415.168	2193.2
3418.118	2160.2
3421.065	2125.2
3424.009	2087.2
3426.951	2057.2
3429.891	2025.2
3432.829	1987.2
3435.764	1943.2
3438.697	1907.2
3441.628	1835.2
3444.557	1777.2
3447.483	1712.2
3450.407	1655.2
3453.328	1631.2
3456.247	1562.2
3459.164	1507.2
3462.079	1459.2
3464.991	1405.2
3467.902	1344.2
3470.809	1299.2
3473.715	1253.2
3476.618	1211.2
3479.519	1149.2
3482.418	1121.2
3485.315	1098.2
3488.209	1044.2
3491.101	1025.2
3493.99	997.2
3496.878	938.2
3499.763	899.2
3502.646	873.2
3505.527	818.2
3508.405	775.2
3511.281	719.2
3514.155	688.2
3517.027	643.2
3519.897	615.2
3522.764	576.2
3525.629	514.2
3528.492	477.2
3531.352	438.2
3534.211	403.2
3537.067	366.2
3539.921	326.2
3542.773	299.2
3545.622	258.2
3548.469	220.2
3551.315	188.2
3554.157	164.2
3556.998	128.2
3559.837	112.2
3562.673	84.2
3565.507	67.2
3568.339	58.2
3571.169	17.2
3573.996	-8.8
3576.822	-24.8
3579.645	-38.8
3582.466	-71.8
3585.285	-88.8
3588.101	-105.8
3590.916	-117.8
3593.728	-150.8
3596.538	-168.8
3599.346	-185.8
3602.152	-195.8
3604.956	-218.8
3607.757	-237.8
3610.556	-247.8
3613.354	-270.8
3616.149	-280.8
3618.942	-286.8
3621.732	-314.8
3624.521	-318.8
3627.307	-326.8
3630.092	-329.8
3632.874	-348.8
3635.654	-352.8
3638.432	-358.8
3641.208	-370.8
3643.982	-381.8
3646.753	-383.8
3649.523	-409.8
3652.29	-411.8
3655.055	-416.8
3657.818	-421.8
3660.579	-440.8
3663.338	-445.8
3666.095	-463.8
3668.849	-479.8
3671.602	-483.8
3674.352	-489.8
3677.101	-491.8
3679.847	-503.8
3682.591	-505.8
3685.333	-516.8
3688.073	-524.8
3690.811	-529.8
3693.547	-526.8
3696.281	-543.8
3699.013	-542.8
3701.742	-548.8
3704.47	-551.8
3707.195	-563.8
3709.919	-556.8
3712.64	-563.8
3715.359	-570.8
3718.076	-562.8
3720.792	-575.8
3723.505	-577.8
3726.216	-584.8
3728.925	-582.8
3731.632	-589.8
3734.336	-591.8
3737.039	-596.8
3739.74	-597.8
3742.439	-598.8
3745.136	-602.8
3747.83	-604.8
3750.523	-600.8
3753.213	-613.8
3755.902	-614.8
3758.589	-607.8
3761.273	-613.8
3763.956	-628.8
3766.636	-620.8
3769.315	-621.8
3771.991	-626.8
3774.665	-621.8
3777.338	-625.8
3780.008	-622.8
3782.677	-623.8
3785.343	-626.8
3788.007	-625.8
3790.67	-632.8
3793.33	-636.8
3795.989	-631.8
3798.645	-638.8
3801.299	-641.8
3803.952	-636.8
3806.602	-640.8
3809.251	-643.8
3811.897	-637.8
3814.542	-634.8
3817.184	-645.8
3819.825	-644.8
3822.463	-642.8
3825.1	-649.8
3827.735	-651.8
3830.367	-655.8
3832.998	-649.8
3835.627	-656.8
3838.253	-657.8
3840.878	-648.8
3843.501	-654.8
3846.122	-652.8
3848.741	-654.8
3851.358	-656.8
3853.973	-652.8
3856.586	-646.8
3859.197	-653.8
3861.806	-653.8
3864.414	-648.8
3867.019	-649.8
3869.622	-654.8
3872.224	-647.8
3874.823	-634.8
3877.421	-601.8
3880.016	-596.8
3882.61	-564.8
3885.202	-563.8
3887.792	-590.8
3890.38	-616.8
3892.966	-638.8
3895.55	-654.8
3898.132	-655.8
3900.713	-668.8
3903.291	-666.8
3905.868	-665.8
3908.442	-668.8
3911.015	-665.8
3913.586	-666.8
3916.155	-666.8
3918.722	-663.8
3921.287	-668.8
3923.85	-665.8
3926.411	-669.8
3928.971	-665.8
3931.528	-665.8
3934.084	-665.8
3936.638	-666.8
3939.19	-672.8
3941.74	-675.8
3944.288	-677.8
3946.834	-674.8
3949.378	-677.8
3951.921	-674.8
3954.462	-671.8
3957	-667.8
3959.537	-660.8
3962.072	-670.8
3964.606	-667.8
3967.137	-673.8
3969.667	-662.8
3972.194	-658.8
3974.72	-663.8
3977.244	-661.8
3979.766	-658.8
3982.286	-660.8
3984.805	-648.8
3987.321	-652.8
3989.836	-659.8
3992.349	-653.8
3994.86	-651.8
3997.369	-666.8
3999.877	-658.8
4002.382	-651.8
4004.886	-658.8
4007.388	-655.8
4009.888	-658.8
4012.386	-655.8
4014.883	-654.8
4017.377	-657.8
4019.87	-654.8
4022.361	-657.8
4024.85	-657.8
4027.338	-661.8
4029.823	-651.8
4032.307	-655.8
4034.789	-659.8
4037.269	-661.8
4039.747	-667.8
4042.224	-647.8
4044.699	-664.8
4047.172	-662.8
4049.643	-661.8
4052.112	-662.8
4054.58	-652.8
4057.046	-660.8
4059.51	-660.8
4061.972	-661.8
4064.432	-661.8
4066.891	-659.8
4069.348	-665.8
4071.803	-662.8
4074.256	-657.8
4076.708	-659.8
4079.158	-661.8
4081.606	-656.8
4084.052	-653.8
4086.497	-667.8
4088.939	-652.8
4091.38	-650.8
4093.819	-652.8
4096.257	-691.8
4098.693	-693.8
4101.127	-693.8
4103.559	-696.8
4105.989	-413.8
4108.418	-401.8
4110.845	-383.8
4113.27	-351.8
4115.694	-297.8
4118.115	-259.8
4120.535	-654.8
4122.954	-661.8
4125.37	-660.8
4127.785	-658.8
4130.198	-659.8
4132.609	-653.8
4135.019	-695.8
4137.427	-689.8
4139.833	-686.8
4142.237	-689.8
