Data from 2018-2-7_conc=3_RamanShift_02.txt Node
Date: Tue Feb 13 12:19:14 IST 2018
User: aro
Spectrometer: QEPB0276
Trigger mode: 0
Integration Time (sec): 3.000000E1
Scans to average: 1
Electric dark correction enabled: true
Nonlinearity correction enabled: false
Boxcar width: 0
XAxis mode: Raman Shifts
Number of Pixels in Spectrum: 1044
>>>>>Begin Spectral Data<<<<<
160.701	-163.6
166.742	33.4
172.777	598.4
178.805	2305.4
184.826	6295.4
190.841	12962.4
196.849	20495.4
202.85	25654.4
208.845	27174.4
214.833	26869.4
220.815	26408.4
226.789	26180.4
232.758	25956.4
238.719	25626.4
244.674	25229.4
250.623	24708.4
256.565	24203.4
262.5	23619.4
268.429	23115.4
274.351	22749.4
280.267	22373.4
286.176	22114.4
292.079	21806.4
297.975	21593.4
303.865	21363.4
309.748	21177.4
315.625	21017.4
321.495	20939.4
327.359	20821.4
333.217	20801.4
339.068	20742.4
344.912	20693.4
350.751	20658.4
356.583	20705.4
362.408	20563.4
368.227	20648.4
374.04	20635.4
379.847	20721.4
385.647	20790.4
391.44	20893.4
397.228	20943.4
403.009	21063.4
408.784	21101.4
414.553	21213.4
420.315	21224.4
426.071	21280.4
431.821	21270.4
437.565	21214.4
443.302	21177.4
449.033	21158.4
454.758	21101.4
460.477	21044.4
466.189	21016.4
471.896	20936.4
477.596	20826.4
483.29	20792.4
488.978	20835.4
494.66	20764.4
500.335	20544.4
506.005	20366.4
511.668	20078.4
517.325	19831.4
522.977	19633.4
528.622	19518.4
534.261	19387.4
539.894	19234.4
545.521	19216.4
551.141	19102.4
556.756	18994.4
562.365	18932.4
567.968	18906.4
573.565	18850.4
579.155	18666.4
584.74	18649.4
590.319	18571.4
595.892	18505.4
601.459	18476.4
607.02	18319.4
612.575	18177.4
618.124	18185.4
623.667	17985.4
629.204	17968.4
634.735	17740.4
640.261	17783.4
645.781	17710.4
651.294	17637.4
656.802	17694.4
662.304	17583.4
667.8	17560.4
673.29	17547.4
678.775	17483.4
684.254	17431.4
689.726	17397.4
695.193	17297.4
700.655	17187.4
706.11	17138.4
711.56	17103.4
717.004	16975.4
722.442	16892.4
727.874	16804.4
733.301	16789.4
738.722	16743.4
744.137	16714.4
749.547	16695.4
754.951	16673.4
760.349	16708.4
765.741	16730.4
771.128	16674.4
776.509	16724.4
781.885	16677.4
787.254	16669.4
792.618	16599.4
797.977	16459.4
803.33	16410.4
808.677	16267.4
814.019	16206.4
819.355	16122.4
824.686	16052.4
830.011	15975.4
835.33	16024.4
840.644	16024.4
845.952	16033.4
851.255	16104.4
856.552	16122.4
861.844	15995.4
867.13	16027.4
872.41	15943.4
877.686	15847.4
882.955	15729.4
888.219	15550.4
893.478	15432.4
898.731	15242.4
903.979	15086.4
909.221	14880.4
914.458	14847.4
919.69	14893.4
924.916	14903.4
930.136	14971.4
935.351	14969.4
940.561	15008.4
945.766	14953.4
950.965	14854.4
956.158	14733.4
961.347	14550.4
966.529	14329.4
971.707	14296.4
976.879	14018.4
982.046	13971.4
987.208	13868.4
992.364	13926.4
997.515	14020.4
1002.66	14131.4
1007.801	14325.4
1012.936	14361.4
1018.066	14421.4
1023.19	14376.4
1028.309	14387.4
1033.423	14320.4
1038.532	14293.4
1043.636	14109.4
1048.734	13928.4
1053.827	13767.4
1058.915	13586.4
1063.998	13533.4
1069.075	13508.4
1074.147	13544.4
1079.214	13600.4
1084.276	13617.4
1089.333	13754.4
1094.385	13772.4
1099.431	13840.4
1104.472	13809.4
1109.509	13727.4
1114.54	13566.4
1119.565	13435.4
1124.586	13245.4
1129.602	13148.4
1134.613	13050.4
1139.618	12976.4
1144.619	12913.4
1149.614	12960.4
1154.604	12937.4
1159.589	12976.4
1164.57	12988.4
1169.545	13057.4
1174.515	13031.4
1179.48	12996.4
1184.44	12870.4
1189.395	12743.4
1194.345	12709.4
1199.29	12641.4
1204.23	12604.4
1209.165	12664.4
1214.095	12729.4
1219.021	12786.4
1223.941	12886.4
1228.856	12940.4
1233.766	12971.4
1238.672	13029.4
1243.572	12961.4
1248.467	12909.4
1253.358	12724.4
1258.244	12581.4
1263.124	12365.4
1268	12208.4
1272.871	12051.4
1277.737	11934.4
1282.599	11889.4
1287.455	11918.4
1292.306	11867.4
1297.153	11907.4
1301.995	11999.4
1306.832	12028.4
1311.664	12054.4
1316.491	12026.4
1321.314	11866.4
1326.132	11680.4
1330.945	11474.4
1335.753	11126.4
1340.556	10912.4
1345.354	10672.4
1350.148	10511.4
1354.937	10466.4
1359.722	10444.4
1364.501	10526.4
1369.276	10644.4
1374.046	10736.4
1378.811	10899.4
1383.572	11034.4
1388.327	11045.4
1393.079	10981.4
1397.825	10869.4
1402.567	10695.4
1407.304	10551.4
1412.036	10445.4
1416.764	10400.4
1421.487	10342.4
1426.205	10259.4
1430.919	10244.4
1435.628	10226.4
1440.333	10276.4
1445.032	10266.4
1449.727	10339.4
1454.418	10261.4
1459.104	10160.4
1463.785	9983.4
1468.462	9764.4
1473.134	9551.4
1477.802	9360.4
1482.465	9196.4
1487.123	9072.4
1491.777	9110.4
1496.426	9100.4
1501.071	9207.4
1505.711	9394.4
1510.347	9517.4
1514.978	9680.4
1519.604	9779.4
1524.226	9920.4
1528.844	9917.4
1533.457	9885.4
1538.065	9889.4
1542.669	9764.4
1547.269	9694.4
1551.864	9694.4
1556.454	9672.4
1561.041	9651.4
1565.622	9648.4
1570.199	9657.4
1574.772	9717.4
1579.34	9815.4
1583.904	9863.4
1588.464	9888.4
1593.019	9887.4
1597.569	9881.4
1602.115	9860.4
1606.657	9783.4
1611.195	9767.4
1615.728	9676.4
1620.256	9693.4
1624.78	9673.4
1629.3	9694.4
1633.816	9704.4
1638.327	9688.4
1642.834	9820.4
1647.336	9874.4
1651.834	9860.4
1656.328	9809.4
1660.817	9773.4
1665.302	9655.4
1669.783	9468.4
1674.259	9285.4
1678.732	8991.4
1683.199	8644.4
1687.663	8374.4
1692.122	8100.4
1696.577	7993.4
1701.028	7952.4
1705.474	7999.4
1709.917	8065.4
1714.355	8045.4
1718.788	8005.4
1723.218	7862.4
1727.643	7732.4
1732.064	7526.4
1736.481	7385.4
1740.893	7168.4
1745.301	6993.4
1749.705	6798.4
1754.105	6630.4
1758.501	6439.4
1762.893	6269.4
1767.28	6102.4
1771.663	5961.4
1776.042	5854.4
1780.417	5833.4
1784.787	5828.4
1789.154	5880.4
1793.516	5963.4
1797.874	6068.4
1802.228	6181.4
1806.578	6239.4
1810.924	6221.4
1815.266	6163.4
1819.603	6108.4
1823.937	5992.4
1828.266	5844.4
1832.591	5795.4
1836.913	5754.4
1841.23	5665.4
1845.543	5643.4
1849.852	5594.4
1854.156	5596.4
1858.457	5598.4
1862.754	5584.4
1867.047	5587.4
1871.335	5579.4
1875.62	5539.4
1879.9	5500.4
1884.177	5500.4
1888.449	5431.4
1892.718	5391.4
1896.982	5348.4
1901.243	5296.4
1905.499	5254.4
1909.752	5239.4
1914	5219.4
1918.245	5247.4
1922.485	5280.4
1926.722	5344.4
1930.954	5415.4
1935.183	5458.4
1939.408	5529.4
1943.628	5513.4
1947.845	5535.4
1952.058	5512.4
1956.267	5467.4
1960.472	5395.4
1964.673	5313.4
1968.87	5255.4
1973.063	5158.4
1977.252	5100.4
1981.438	5057.4
1985.619	5003.4
1989.797	4966.4
1993.971	4908.4
1998.14	4951.4
2002.306	4889.4
2006.469	4892.4
2010.627	4863.4
2014.781	4845.4
2018.932	4781.4
2023.078	4771.4
2027.221	4701.4
2031.36	4623.4
2035.495	4554.4
2039.627	4490.4
2043.754	4447.4
2047.878	4379.4
2051.998	4375.4
2056.114	4330.4
2060.226	4353.4
2064.334	4337.4
2068.439	4372.4
2072.54	4362.4
2076.637	4420.4
2080.73	4434.4
2084.82	4453.4
2088.906	4468.4
2092.988	4463.4
2097.066	4460.4
2101.14	4434.4
2105.211	4437.4
2109.278	4396.4
2113.342	4357.4
2117.401	4329.4
2121.457	4296.4
2125.509	4278.4
2129.558	4252.4
2133.602	4217.4
2137.643	4204.4
2141.681	4211.4
2145.714	4166.4
2149.744	4154.4
2153.77	4122.4
2157.793	4059.4
2161.812	4041.4
2165.827	3980.4
2169.838	3913.4
2173.846	3878.4
2177.851	3758.4
2181.851	3729.4
2185.848	3675.4
2189.841	3640.4
2193.831	3608.4
2197.817	3577.4
2201.799	3557.4
2205.778	3548.4
2209.753	3517.4
2213.725	3522.4
2217.693	3515.4
2221.657	3494.4
2225.618	3467.4
2229.575	3481.4
2233.529	3435.4
2237.479	3434.4
2241.425	3355.4
2245.368	3339.4
2249.307	3268.4
2253.243	3236.4
2257.175	3158.4
2261.104	3128.4
2265.029	3098.4
2268.95	3060.4
2272.868	3008.4
2276.783	2991.4
2280.694	2963.4
2284.601	2948.4
2288.505	2946.4
2292.405	2887.4
2296.302	2863.4
2300.195	2828.4
2304.085	2788.4
2307.971	2756.4
2311.854	2712.4
2315.734	2645.4
2319.609	2638.4
2323.482	2604.4
2327.351	2578.4
2331.216	2571.4
2335.078	2549.4
2338.937	2528.4
2342.792	2510.4
2346.643	2503.4
2350.492	2508.4
2354.336	2524.4
2358.178	2512.4
2362.015	2538.4
2365.85	2526.4
2369.681	2541.4
2373.508	2522.4
2377.333	2519.4
2381.153	2523.4
2384.971	2493.4
2388.785	2505.4
2392.595	2476.4
2396.402	2451.4
2400.206	2410.4
2404.007	2386.4
2407.804	2377.4
2411.597	2363.4
2415.388	2360.4
2419.174	2287.4
2422.958	2306.4
2426.738	2296.4
2430.515	2280.4
2434.289	2259.4
2438.059	2217.4
2441.825	2237.4
2445.589	2192.4
2449.349	2173.4
2453.106	2171.4
2456.859	2119.4
2460.61	2074.4
2464.356	2054.4
2468.1	2042.4
2471.84	2032.4
2475.577	2010.4
2479.311	1996.4
2483.041	1971.4
2486.768	1959.4
2490.492	1959.4
2494.213	1970.4
2497.93	1945.4
2501.644	1932.4
2505.355	1920.4
2509.062	1916.4
2512.766	1909.4
2516.467	1904.4
2520.165	1895.4
2523.859	1877.4
2527.551	1846.4
2531.239	1832.4
2534.923	1818.4
2538.605	1825.4
2542.283	1817.4
2545.958	1817.4
2549.63	1798.4
2553.299	1783.4
2556.964	1805.4
2560.626	1804.4
2564.285	1788.4
2567.941	1780.4
2571.594	1774.4
2575.243	1779.4
2578.89	1740.4
2582.533	1738.4
2586.173	1724.4
2589.809	1717.4
2593.443	1689.4
2597.073	1658.4
2600.701	1670.4
2604.325	1629.4
2607.946	1626.4
2611.564	1615.4
2615.178	1624.4
2618.79	1605.4
2622.398	1585.4
2626.004	1566.4
2629.606	1549.4
2633.205	1527.4
2636.801	1519.4
2640.394	1506.4
2643.983	1466.4
2647.57	1439.4
2651.153	1436.4
2654.734	1397.4
2658.311	1392.4
2661.885	1356.4
2665.456	1342.4
2669.025	1350.4
2672.589	1315.4
2676.151	1303.4
2679.71	1292.4
2683.266	1241.4
2686.819	1222.4
2690.368	1233.4
2693.915	1179.4
2697.458	1158.4
2700.999	1142.4
2704.536	1128.4
2708.071	1077.4
2711.602	1074.4
2715.13	1050.4
2718.656	1005.4
2722.178	1016.4
2725.697	976.4
2729.214	969.4
2732.727	963.4
2736.237	969.4
2739.744	957.4
2743.249	957.4
2746.75	987.4
2750.248	967.4
2753.743	985.4
2757.236	1000.4
2760.725	1008.4
2764.211	1019.4
2767.695	992.4
2771.175	1029.4
2774.652	998.4
2778.127	1013.4
2781.598	990.4
2785.067	966.4
2788.532	979.4
2791.995	988.4
2795.455	966.4
2798.911	994.4
2802.365	998.4
2805.816	999.4
2809.264	990.4
2812.709	978.4
2816.151	985.4
2819.59	995.4
2823.026	978.4
2826.46	989.4
2829.89	998.4
2833.318	1006.4
2836.742	995.4
2840.164	1021.4
2843.583	1009.4
2846.999	1046.4
2850.412	1066.4
2853.822	1064.4
2857.229	1072.4
2860.634	1085.4
2864.035	1123.4
2867.434	1140.4
2870.83	1166.4
2874.223	1178.4
2877.613	1205.4
2881	1232.4
2884.385	1247.4
2887.766	1221.4
2891.145	1232.4
2894.521	1218.4
2897.894	1217.4
2901.264	1227.4
2904.631	1247.4
2907.996	1239.4
2911.358	1261.4
2914.717	1252.4
2918.073	1259.4
2921.426	1288.4
2924.777	1291.4
2928.124	1330.4
2931.469	1354.4
2934.811	1382.4
2938.15	1389.4
2941.487	1403.4
2944.821	1429.4
2948.152	1411.4
2951.48	1399.4
2954.805	1395.4
2958.128	1382.4
2961.447	1375.4
2964.765	1369.4
2968.079	1380.4
2971.39	1383.4
2974.699	1406.4
2978.005	1418.4
2981.308	1448.4
2984.609	1475.4
2987.907	1497.4
2991.202	1541.4
2994.494	1572.4
2997.784	1581.4
3001.07	1637.4
3004.355	1659.4
3007.636	1668.4
3010.915	1705.4
3014.191	1720.4
3017.464	1747.4
3020.734	1747.4
3024.002	1751.4
3027.267	1767.4
3030.53	1787.4
3033.789	1810.4
3037.046	1812.4
3040.301	1860.4
3043.552	1902.4
3046.801	1958.4
3050.048	1992.4
3053.291	2046.4
3056.532	2093.4
3059.771	2168.4
3063.006	2242.4
3066.239	2299.4
3069.469	2374.4
3072.697	2457.4
3075.922	2485.4
3079.144	2547.4
3082.364	2574.4
3085.581	2654.4
3088.795	2739.4
3092.007	2746.4
3095.216	2847.4
3098.423	2895.4
3101.627	2973.4
3104.828	3053.4
3108.026	3109.4
3111.222	3185.4
3114.416	3208.4
3117.607	3323.4
3120.795	3386.4
3123.98	3464.4
3127.163	3563.4
3130.344	3634.4
3133.521	3747.4
3136.696	3830.4
3139.869	3890.4
3143.039	3951.4
3146.206	3999.4
3149.371	4081.4
3152.533	4116.4
3155.693	4122.4
3158.85	4143.4
3162.005	4173.4
3165.157	4177.4
3168.306	4207.4
3171.453	4225.4
3174.597	4219.4
3177.739	4218.4
3180.878	4207.4
3184.014	4245.4
3187.149	4248.4
3190.28	4233.4
3193.409	4257.4
3196.536	4271.4
3199.659	4251.4
3202.781	4250.4
3205.9	4275.4
3209.016	4255.4
3212.13	4202.4
3215.241	4227.4
3218.35	4167.4
3221.456	4118.4
3224.56	4068.4
3227.661	4061.4
3230.76	4008.4
3233.856	3933.4
3236.95	3941.4
3240.041	3886.4
3243.13	3830.4
3246.216	3816.4
3249.3	3821.4
3252.382	3798.4
3255.46	3790.4
3258.537	3779.4
3261.611	3764.4
3264.682	3783.4
3267.751	3741.4
3270.818	3759.4
3273.882	3739.4
3276.943	3715.4
3280.002	3681.4
3283.059	3647.4
3286.113	3617.4
3289.165	3568.4
3292.214	3487.4
3295.261	3454.4
3298.306	3378.4
3301.348	3352.4
3304.387	3267.4
3307.425	3230.4
3310.459	3176.4
3313.492	3133.4
3316.521	3082.4
3319.549	3078.4
3322.574	3066.4
3325.597	3005.4
3328.617	2997.4
3331.635	2968.4
3334.65	2947.4
3337.663	2958.4
3340.674	2926.4
3343.682	2888.4
3346.688	2908.4
3349.691	2855.4
3352.692	2873.4
3355.691	2841.4
3358.687	2826.4
3361.681	2785.4
3364.673	2769.4
3367.662	2723.4
3370.649	2676.4
3373.633	2658.4
3376.615	2617.4
3379.595	2560.4
3382.572	2547.4
3385.547	2492.4
3388.52	2468.4
3391.49	2430.4
3394.458	2366.4
3397.424	2328.4
3400.387	2304.4
3403.348	2295.4
3406.307	2238.4
3409.263	2221.4
3412.217	2209.4
3415.168	2170.4
3418.118	2133.4
3421.065	2108.4
3424.009	2090.4
3426.951	2048.4
3429.891	2048.4
3432.829	1993.4
3435.764	1939.4
3438.697	1888.4
3441.628	1822.4
3444.557	1790.4
3447.483	1742.4
3450.407	1664.4
3453.328	1594.4
3456.247	1533.4
3459.164	1486.4
3462.079	1456.4
3464.991	1409.4
3467.902	1322.4
3470.809	1303.4
3473.715	1239.4
3476.618	1200.4
3479.519	1159.4
3482.418	1114.4
3485.315	1075.4
3488.209	1044.4
3491.101	990.4
3493.99	983.4
3496.878	921.4
3499.763	893.4
3502.646	856.4
3505.527	810.4
3508.405	783.4
3511.281	724.4
3514.155	686.4
3517.027	633.4
3519.897	622.4
3522.764	570.4
3525.629	525.4
3528.492	475.4
3531.352	440.4
3534.211	401.4
3537.067	358.4
3539.921	324.4
3542.773	303.4
3545.622	251.4
3548.469	223.4
3551.315	200.4
3554.157	177.4
3556.998	137.4
3559.837	108.4
3562.673	82.4
3565.507	72.4
3568.339	47.4
3571.169	21.4
3573.996	2.4
3576.822	-23.6
3579.645	-40.6
3582.466	-52.6
3585.285	-87.6
3588.101	-114.6
3590.916	-124.6
3593.728	-150.6
3596.538	-162.6
3599.346	-188.6
3602.152	-192.6
3604.956	-209.6
3607.757	-230.6
3610.556	-239.6
3613.354	-259.6
3616.149	-267.6
3618.942	-276.6
3621.732	-297.6
3624.521	-302.6
3627.307	-323.6
3630.092	-336.6
3632.874	-338.6
3635.654	-353.6
3638.432	-354.6
3641.208	-365.6
3643.982	-375.6
3646.753	-382.6
3649.523	-399.6
3652.29	-408.6
3655.055	-407.6
3657.818	-433.6
3660.579	-438.6
3663.338	-444.6
3666.095	-453.6
3668.849	-467.6
3671.602	-474.6
3674.352	-473.6
3677.101	-491.6
3679.847	-507.6
3682.591	-502.6
3685.333	-509.6
3688.073	-514.6
3690.811	-525.6
3693.547	-534.6
3696.281	-541.6
3699.013	-538.6
3701.742	-547.6
3704.47	-547.6
3707.195	-557.6
3709.919	-555.6
3712.64	-565.6
3715.359	-568.6
3718.076	-559.6
3720.792	-575.6
3723.505	-574.6
3726.216	-581.6
3728.925	-587.6
3731.632	-599.6
3734.336	-601.6
3737.039	-601.6
3739.74	-599.6
3742.439	-597.6
3745.136	-601.6
3747.83	-601.6
3750.523	-606.6
3753.213	-611.6
3755.902	-610.6
3758.589	-610.6
3761.273	-610.6
3763.956	-611.6
3766.636	-619.6
3769.315	-617.6
3771.991	-620.6
3774.665	-629.6
3777.338	-623.6
3780.008	-621.6
3782.677	-624.6
3785.343	-629.6
3788.007	-618.6
3790.67	-631.6
3793.33	-630.6
3795.989	-635.6
3798.645	-635.6
3801.299	-632.6
3803.952	-634.6
3806.602	-638.6
3809.251	-641.6
3811.897	-640.6
3814.542	-636.6
3817.184	-644.6
3819.825	-644.6
3822.463	-636.6
3825.1	-642.6
3827.735	-650.6
3830.367	-652.6
3832.998	-657.6
3835.627	-652.6
3838.253	-660.6
3840.878	-652.6
3843.501	-652.6
3846.122	-651.6
3848.741	-646.6
3851.358	-654.6
3853.973	-652.6
3856.586	-647.6
3859.197	-651.6
3861.806	-653.6
3864.414	-646.6
3867.019	-645.6
3869.622	-656.6
3872.224	-647.6
3874.823	-634.6
3877.421	-620.6
3880.016	-608.6
3882.61	-569.6
3885.202	-575.6
3887.792	-599.6
3890.38	-629.6
3892.966	-638.6
3895.55	-651.6
3898.132	-657.6
3900.713	-658.6
3903.291	-663.6
3905.868	-663.6
3908.442	-662.6
3911.015	-664.6
3913.586	-668.6
3916.155	-664.6
3918.722	-663.6
3921.287	-666.6
3923.85	-664.6
3926.411	-667.6
3928.971	-664.6
3931.528	-668.6
3934.084	-661.6
3936.638	-672.6
3939.19	-667.6
3941.74	-672.6
3944.288	-673.6
3946.834	-673.6
3949.378	-671.6
3951.921	-670.6
3954.462	-669.6
3957	-665.6
3959.537	-660.6
3962.072	-664.6
3964.606	-662.6
3967.137	-672.6
3969.667	-666.6
3972.194	-669.6
3974.72	-661.6
3977.244	-662.6
3979.766	-663.6
3982.286	-663.6
3984.805	-648.6
3987.321	-657.6
3989.836	-658.6
3992.349	-656.6
3994.86	-653.6
3997.369	-661.6
3999.877	-654.6
4002.382	-651.6
4004.886	-656.6
4007.388	-656.6
4009.888	-654.6
4012.386	-653.6
4014.883	-649.6
4017.377	-653.6
4019.87	-652.6
4022.361	-660.6
4024.85	-655.6
4027.338	-661.6
4029.823	-657.6
4032.307	-659.6
4034.789	-660.6
4037.269	-667.6
4039.747	-662.6
4042.224	-652.6
4044.699	-658.6
4047.172	-658.6
4049.643	-660.6
4052.112	-657.6
4054.58	-658.6
4057.046	-661.6
4059.51	-663.6
4061.972	-665.6
4064.432	-664.6
4066.891	-660.6
4069.348	-664.6
4071.803	-661.6
4074.256	-658.6
4076.708	-659.6
4079.158	-662.6
4081.606	-650.6
4084.052	-654.6
4086.497	-656.6
4088.939	-647.6
4091.38	-650.6
4093.819	-653.6
4096.257	-689.6
4098.693	-693.6
4101.127	-692.6
4103.559	-694.6
4105.989	-409.6
4108.418	-396.6
4110.845	-382.6
4113.27	-355.6
4115.694	-314.6
4118.115	-271.6
4120.535	-654.6
4122.954	-659.6
4125.37	-659.6
4127.785	-659.6
4130.198	-668.6
4132.609	-655.6
4135.019	-696.6
4137.427	-694.6
4139.833	-691.6
4142.237	-690.6
