Data from 2018-2-7_conc=2_RamanShift_07.txt Node
Date: Tue Feb 13 11:47:44 IST 2018
User: aro
Spectrometer: QEPB0276
Trigger mode: 0
Integration Time (sec): 3.000000E1
Scans to average: 1
Electric dark correction enabled: true
Nonlinearity correction enabled: false
Boxcar width: 0
XAxis mode: Raman Shifts
Number of Pixels in Spectrum: 1044
>>>>>Begin Spectral Data<<<<<
160.701	-160.4
166.742	27.6
172.777	586.6
178.805	2245.6
184.826	6167.6
190.841	12650.6
196.849	20042.6
202.85	25043.6
208.845	26625.6
214.833	26295.6
220.815	25778.6
226.789	25608.6
232.758	25444.6
238.719	25306.6
244.674	24879.6
250.623	24434.6
256.565	23854.6
262.5	23411.6
268.429	22881.6
274.351	22532.6
280.267	22249.6
286.176	22000.6
292.079	21690.6
297.975	21422.6
303.865	21297.6
309.748	21133.6
315.625	20995.6
321.495	20851.6
327.359	20747.6
333.217	20698.6
339.068	20724.6
344.912	20716.6
350.751	20574.6
356.583	20655.6
362.408	20605.6
368.227	20613.6
374.04	20595.6
379.847	20713.6
385.647	20790.6
391.44	20882.6
397.228	20964.6
403.009	20987.6
408.784	21005.6
414.553	21178.6
420.315	21218.6
426.071	21304.6
431.821	21227.6
437.565	21230.6
443.302	21189.6
449.033	21049.6
454.758	21077.6
460.477	20934.6
466.189	20961.6
471.896	20920.6
477.596	20881.6
483.29	20838.6
488.978	20758.6
494.66	20693.6
500.335	20553.6
506.005	20347.6
511.668	20090.6
517.325	19807.6
522.977	19661.6
528.622	19549.6
534.261	19405.6
539.894	19321.6
545.521	19178.6
551.141	19166.6
556.756	19075.6
562.365	18996.6
567.968	18852.6
573.565	18847.6
579.155	18750.6
584.74	18705.6
590.319	18703.6
595.892	18567.6
601.459	18433.6
607.02	18345.6
612.575	18297.6
618.124	18124.6
623.667	18053.6
629.204	17994.6
634.735	17929.6
640.261	17859.6
645.781	17757.6
651.294	17765.6
656.802	17707.6
662.304	17693.6
667.8	17609.6
673.29	17666.6
678.775	17607.6
684.254	17498.6
689.726	17408.6
695.193	17389.6
700.655	17331.6
706.11	17235.6
711.56	17160.6
717.004	17016.6
722.442	16990.6
727.874	16898.6
733.301	16874.6
738.722	16811.6
744.137	16753.6
749.547	16782.6
754.951	16796.6
760.349	16775.6
765.741	16774.6
771.128	16794.6
776.509	16848.6
781.885	16861.6
787.254	16721.6
792.618	16686.6
797.977	16584.6
803.33	16461.6
808.677	16364.6
814.019	16303.6
819.355	16175.6
824.686	16090.6
830.011	16081.6
835.33	16079.6
840.644	16112.6
845.952	16105.6
851.255	16153.6
856.552	16222.6
861.844	16220.6
867.13	16104.6
872.41	16056.6
877.686	15939.6
882.955	15859.6
888.219	15660.6
893.478	15461.6
898.731	15312.6
903.979	15131.6
909.221	15026.6
914.458	14972.6
919.69	14992.6
924.916	15049.6
930.136	15066.6
935.351	15102.6
940.561	15096.6
945.766	15028.6
950.965	14980.6
956.158	14907.6
961.347	14698.6
966.529	14571.6
971.707	14324.6
976.879	14180.6
982.046	14084.6
987.208	14061.6
992.364	14066.6
997.515	14092.6
1002.66	14247.6
1007.801	14457.6
1012.936	14527.6
1018.066	14516.6
1023.19	14533.6
1028.309	14474.6
1033.423	14452.6
1038.532	14412.6
1043.636	14254.6
1048.734	14109.6
1053.827	13915.6
1058.915	13762.6
1063.998	13658.6
1069.075	13633.6
1074.147	13645.6
1079.214	13695.6
1084.276	13760.6
1089.333	13836.6
1094.385	13924.6
1099.431	13989.6
1104.472	13977.6
1109.509	13860.6
1114.54	13739.6
1119.565	13527.6
1124.586	13362.6
1129.602	13256.6
1134.613	13126.6
1139.618	13057.6
1144.619	12993.6
1149.614	13008.6
1154.604	13080.6
1159.589	13124.6
1164.57	13139.6
1169.545	13140.6
1174.515	13136.6
1179.48	13086.6
1184.44	12986.6
1189.395	12844.6
1194.345	12794.6
1199.29	12744.6
1204.23	12731.6
1209.165	12796.6
1214.095	12820.6
1219.021	12892.6
1223.941	12967.6
1228.856	13082.6
1233.766	13047.6
1238.672	13095.6
1243.572	13058.6
1248.467	12937.6
1253.358	12844.6
1258.244	12670.6
1263.124	12475.6
1268	12303.6
1272.871	12091.6
1277.737	12033.6
1282.599	11959.6
1287.455	11966.6
1292.306	11988.6
1297.153	12010.6
1301.995	12059.6
1306.832	12141.6
1311.664	12151.6
1316.491	12074.6
1321.314	11966.6
1326.132	11734.6
1330.945	11534.6
1335.753	11232.6
1340.556	10926.6
1345.354	10744.6
1350.148	10625.6
1354.937	10535.6
1359.722	10574.6
1364.501	10604.6
1369.276	10744.6
1374.046	10840.6
1378.811	11023.6
1383.572	11091.6
1388.327	11103.6
1393.079	11048.6
1397.825	10902.6
1402.567	10756.6
1407.304	10653.6
1412.036	10546.6
1416.764	10450.6
1421.487	10405.6
1426.205	10353.6
1430.919	10307.6
1435.628	10260.6
1440.333	10287.6
1445.032	10331.6
1449.727	10361.6
1454.418	10357.6
1459.104	10296.6
1463.785	10060.6
1468.462	9842.6
1473.134	9642.6
1477.802	9421.6
1482.465	9275.6
1487.123	9192.6
1491.777	9165.6
1496.426	9228.6
1501.071	9308.6
1505.711	9479.6
1510.347	9643.6
1514.978	9790.6
1519.604	9879.6
1524.226	9970.6
1528.844	9949.6
1533.457	9976.6
1538.065	9915.6
1542.669	9858.6
1547.269	9767.6
1551.864	9752.6
1556.454	9702.6
1561.041	9668.6
1565.622	9698.6
1570.199	9732.6
1574.772	9780.6
1579.34	9830.6
1583.904	9912.6
1588.464	9928.6
1593.019	9940.6
1597.569	9911.6
1602.115	9842.6
1606.657	9780.6
1611.195	9714.6
1615.728	9674.6
1620.256	9650.6
1624.78	9629.6
1629.3	9615.6
1633.816	9659.6
1638.327	9721.6
1642.834	9799.6
1647.336	9832.6
1651.834	9840.6
1656.328	9803.6
1660.817	9748.6
1665.302	9661.6
1669.783	9495.6
1674.259	9233.6
1678.732	8974.6
1683.199	8651.6
1687.663	8393.6
1692.122	8149.6
1696.577	8041.6
1701.028	8061.6
1705.474	8121.6
1709.917	8152.6
1714.355	8170.6
1718.788	8045.6
1723.218	7923.6
1727.643	7774.6
1732.064	7589.6
1736.481	7448.6
1740.893	7251.6
1745.301	7113.6
1749.705	6889.6
1754.105	6686.6
1758.501	6468.6
1762.893	6323.6
1767.28	6194.6
1771.663	6048.6
1776.042	5948.6
1780.417	5911.6
1784.787	5910.6
1789.154	5994.6
1793.516	6113.6
1797.874	6220.6
1802.228	6304.6
1806.578	6338.6
1810.924	6344.6
1815.266	6278.6
1819.603	6185.6
1823.937	6084.6
1828.266	5978.6
1832.591	5890.6
1836.913	5820.6
1841.23	5798.6
1845.543	5728.6
1849.852	5676.6
1854.156	5691.6
1858.457	5673.6
1862.754	5667.6
1867.047	5664.6
1871.335	5633.6
1875.62	5602.6
1879.9	5616.6
1884.177	5569.6
1888.449	5532.6
1892.718	5415.6
1896.982	5400.6
1901.243	5355.6
1905.499	5330.6
1909.752	5295.6
1914	5343.6
1918.245	5372.6
1922.485	5374.6
1926.722	5459.6
1930.954	5459.6
1935.183	5567.6
1939.408	5571.6
1943.628	5656.6
1947.845	5638.6
1952.058	5658.6
1956.267	5581.6
1960.472	5525.6
1964.673	5404.6
1968.87	5328.6
1973.063	5272.6
1977.252	5178.6
1981.438	5111.6
1985.619	5098.6
1989.797	5064.6
1993.971	5013.6
1998.14	4991.6
2002.306	4975.6
2006.469	4982.6
2010.627	4929.6
2014.781	4916.6
2018.932	4822.6
2023.078	4807.6
2027.221	4775.6
2031.36	4684.6
2035.495	4617.6
2039.627	4544.6
2043.754	4463.6
2047.878	4467.6
2051.998	4428.6
2056.114	4421.6
2060.226	4403.6
2064.334	4415.6
2068.439	4409.6
2072.54	4479.6
2076.637	4468.6
2080.73	4542.6
2084.82	4535.6
2088.906	4508.6
2092.988	4596.6
2097.066	4548.6
2101.14	4516.6
2105.211	4451.6
2109.278	4441.6
2113.342	4469.6
2117.401	4375.6
2121.457	4357.6
2125.509	4367.6
2129.558	4323.6
2133.602	4293.6
2137.643	4270.6
2141.681	4267.6
2145.714	4249.6
2149.744	4202.6
2153.77	4190.6
2157.793	4142.6
2161.812	4100.6
2165.827	4038.6
2169.838	3984.6
2173.846	3891.6
2177.851	3847.6
2181.851	3758.6
2185.848	3732.6
2189.841	3683.6
2193.831	3656.6
2197.817	3637.6
2201.799	3606.6
2205.778	3604.6
2209.753	3577.6
2213.725	3544.6
2217.693	3551.6
2221.657	3559.6
2225.618	3529.6
2229.575	3513.6
2233.529	3467.6
2237.479	3420.6
2241.425	3408.6
2245.368	3359.6
2249.307	3303.6
2253.243	3284.6
2257.175	3215.6
2261.104	3178.6
2265.029	3126.6
2268.95	3131.6
2272.868	3077.6
2276.783	3050.6
2280.694	3018.6
2284.601	2980.6
2288.505	2967.6
2292.405	2944.6
2296.302	2887.6
2300.195	2868.6
2304.085	2845.6
2307.971	2783.6
2311.854	2762.6
2315.734	2706.6
2319.609	2655.6
2323.482	2635.6
2327.351	2612.6
2331.216	2601.6
2335.078	2578.6
2338.937	2587.6
2342.792	2536.6
2346.643	2543.6
2350.492	2541.6
2354.336	2521.6
2358.178	2552.6
2362.015	2575.6
2365.85	2543.6
2369.681	2543.6
2373.508	2546.6
2377.333	2567.6
2381.153	2578.6
2384.971	2520.6
2388.785	2501.6
2392.595	2487.6
2396.402	2432.6
2400.206	2426.6
2404.007	2397.6
2407.804	2394.6
2411.597	2392.6
2415.388	2365.6
2419.174	2363.6
2422.958	2353.6
2426.738	2330.6
2430.515	2303.6
2434.289	2292.6
2438.059	2269.6
2441.825	2246.6
2445.589	2200.6
2449.349	2196.6
2453.106	2149.6
2456.859	2140.6
2460.61	2099.6
2464.356	2084.6
2468.1	2059.6
2471.84	2033.6
2475.577	2015.6
2479.311	2018.6
2483.041	2002.6
2486.768	1986.6
2490.492	1994.6
2494.213	1969.6
2497.93	1968.6
2501.644	1957.6
2505.355	1943.6
2509.062	1925.6
2512.766	1939.6
2516.467	1927.6
2520.165	1935.6
2523.859	1896.6
2527.551	1871.6
2531.239	1877.6
2534.923	1846.6
2538.605	1853.6
2542.283	1826.6
2545.958	1864.6
2549.63	1833.6
2553.299	1820.6
2556.964	1837.6
2560.626	1833.6
2564.285	1821.6
2567.941	1822.6
2571.594	1785.6
2575.243	1770.6
2578.89	1758.6
2582.533	1766.6
2586.173	1758.6
2589.809	1723.6
2593.443	1702.6
2597.073	1687.6
2600.701	1677.6
2604.325	1657.6
2607.946	1631.6
2611.564	1654.6
2615.178	1639.6
2618.79	1613.6
2622.398	1596.6
2626.004	1596.6
2629.606	1570.6
2633.205	1544.6
2636.801	1523.6
2640.394	1506.6
2643.983	1505.6
2647.57	1466.6
2651.153	1452.6
2654.734	1408.6
2658.311	1401.6
2661.885	1361.6
2665.456	1361.6
2669.025	1338.6
2672.589	1317.6
2676.151	1303.6
2679.71	1305.6
2683.266	1280.6
2686.819	1255.6
2690.368	1219.6
2693.915	1198.6
2697.458	1182.6
2700.999	1143.6
2704.536	1118.6
2708.071	1091.6
2711.602	1065.6
2715.13	1043.6
2718.656	1022.6
2722.178	996.6
2725.697	993.6
2729.214	971.6
2732.727	965.6
2736.237	971.6
2739.744	975.6
2743.249	996.6
2746.75	982.6
2750.248	999.6
2753.743	996.6
2757.236	1013.6
2760.725	1041.6
2764.211	1025.6
2767.695	1030.6
2771.175	1039.6
2774.652	1021.6
2778.127	1016.6
2781.598	995.6
2785.067	1003.6
2788.532	997.6
2791.995	996.6
2795.455	995.6
2798.911	1004.6
2802.365	1008.6
2805.816	1000.6
2809.264	1012.6
2812.709	1001.6
2816.151	975.6
2819.59	998.6
2823.026	976.6
2826.46	998.6
2829.89	987.6
2833.318	989.6
2836.742	997.6
2840.164	1040.6
2843.583	1032.6
2846.999	1036.6
2850.412	1041.6
2853.822	1028.6
2857.229	1063.6
2860.634	1070.6
2864.035	1109.6
2867.434	1133.6
2870.83	1156.6
2874.223	1149.6
2877.613	1198.6
2881	1200.6
2884.385	1221.6
2887.766	1210.6
2891.145	1208.6
2894.521	1204.6
2897.894	1201.6
2901.264	1197.6
2904.631	1201.6
2907.996	1205.6
2911.358	1208.6
2914.717	1245.6
2918.073	1235.6
2921.426	1245.6
2924.777	1277.6
2928.124	1289.6
2931.469	1323.6
2934.811	1337.6
2938.15	1357.6
2941.487	1361.6
2944.821	1367.6
2948.152	1352.6
2951.48	1369.6
2954.805	1343.6
2958.128	1330.6
2961.447	1356.6
2964.765	1316.6
2968.079	1322.6
2971.39	1359.6
2974.699	1359.6
2978.005	1379.6
2981.308	1394.6
2984.609	1436.6
2987.907	1459.6
2991.202	1496.6
2994.494	1523.6
2997.784	1552.6
3001.07	1561.6
3004.355	1581.6
3007.636	1613.6
3010.915	1629.6
3014.191	1650.6
3017.464	1663.6
3020.734	1686.6
3024.002	1674.6
3027.267	1690.6
3030.53	1717.6
3033.789	1727.6
3037.046	1748.6
3040.301	1768.6
3043.552	1812.6
3046.801	1854.6
3050.048	1870.6
3053.291	1937.6
3056.532	2014.6
3059.771	2050.6
3063.006	2106.6
3066.239	2186.6
3069.469	2249.6
3072.697	2304.6
3075.922	2350.6
3079.144	2433.6
3082.364	2479.6
3085.581	2514.6
3088.795	2583.6
3092.007	2629.6
3095.216	2704.6
3098.423	2745.6
3101.627	2814.6
3104.828	2869.6
3108.026	2942.6
3111.222	2988.6
3114.416	3056.6
3117.607	3138.6
3120.795	3209.6
3123.98	3290.6
3127.163	3355.6
3130.344	3451.6
3133.521	3516.6
3136.696	3586.6
3139.869	3666.6
3143.039	3722.6
3146.206	3769.6
3149.371	3800.6
3152.533	3861.6
3155.693	3892.6
3158.85	3917.6
3162.005	3955.6
3165.157	3966.6
3168.306	3953.6
3171.453	3963.6
3174.597	3951.6
3177.739	3982.6
3180.878	3978.6
3184.014	3993.6
3187.149	4002.6
3190.28	4032.6
3193.409	4020.6
3196.536	4015.6
3199.659	4000.6
3202.781	4015.6
3205.9	4041.6
3209.016	4010.6
3212.13	4000.6
3215.241	3971.6
3218.35	3953.6
3221.456	3909.6
3224.56	3855.6
3227.661	3799.6
3230.76	3778.6
3233.856	3742.6
3236.95	3685.6
3240.041	3662.6
3243.13	3614.6
3246.216	3617.6
3249.3	3574.6
3252.382	3572.6
3255.46	3532.6
3258.537	3547.6
3261.611	3566.6
3264.682	3546.6
3267.751	3547.6
3270.818	3532.6
3273.882	3504.6
3276.943	3489.6
3280.002	3489.6
3283.059	3446.6
3286.113	3396.6
3289.165	3356.6
3292.214	3304.6
3295.261	3261.6
3298.306	3191.6
3301.348	3127.6
3304.387	3094.6
3307.425	3040.6
3310.459	3010.6
3313.492	2969.6
3316.521	2920.6
3319.549	2887.6
3322.574	2884.6
3325.597	2839.6
3328.617	2816.6
3331.635	2781.6
3334.65	2803.6
3337.663	2774.6
3340.674	2725.6
3343.682	2742.6
3346.688	2712.6
3349.691	2750.6
3352.692	2705.6
3355.691	2680.6
3358.687	2660.6
3361.681	2623.6
3364.673	2596.6
3367.662	2571.6
3370.649	2520.6
3373.633	2512.6
3376.615	2445.6
3379.595	2419.6
3382.572	2371.6
3385.547	2356.6
3388.52	2289.6
3391.49	2259.6
3394.458	2231.6
3397.424	2196.6
3400.387	2184.6
3403.348	2153.6
3406.307	2110.6
3409.263	2103.6
3412.217	2077.6
3415.168	2047.6
3418.118	2021.6
3421.065	1989.6
3424.009	1983.6
3426.951	1916.6
3429.891	1878.6
3432.829	1859.6
3435.764	1815.6
3438.697	1759.6
3441.628	1717.6
3444.557	1670.6
3447.483	1647.6
3450.407	1547.6
3453.328	1500.6
3456.247	1457.6
3459.164	1410.6
3462.079	1361.6
3464.991	1282.6
3467.902	1231.6
3470.809	1211.6
3473.715	1156.6
3476.618	1125.6
3479.519	1099.6
3482.418	1033.6
3485.315	1003.6
3488.209	989.6
3491.101	942.6
3493.99	898.6
3496.878	852.6
3499.763	829.6
3502.646	796.6
3505.527	754.6
3508.405	717.6
3511.281	682.6
3514.155	635.6
3517.027	595.6
3519.897	566.6
3522.764	511.6
3525.629	467.6
3528.492	443.6
3531.352	398.6
3534.211	349.6
3537.067	314.6
3539.921	293.6
3542.773	260.6
3545.622	230.6
3548.469	193.6
3551.315	172.6
3554.157	136.6
3556.998	121.6
3559.837	94.6
3562.673	54.6
3565.507	42.6
3568.339	26.6
3571.169	-2.4
3573.996	-22.4
3576.822	-38.4
3579.645	-60.4
3582.466	-88.4
3585.285	-103.4
3588.101	-109.4
3590.916	-138.4
3593.728	-164.4
3596.538	-161.4
3599.346	-189.4
3602.152	-201.4
3604.956	-221.4
3607.757	-234.4
3610.556	-247.4
3613.354	-259.4
3616.149	-277.4
3618.942	-285.4
3621.732	-308.4
3624.521	-313.4
3627.307	-322.4
3630.092	-343.4
3632.874	-333.4
3635.654	-347.4
3638.432	-359.4
3641.208	-371.4
3643.982	-385.4
3646.753	-387.4
3649.523	-391.4
3652.29	-410.4
3655.055	-412.4
3657.818	-431.4
3660.579	-427.4
3663.338	-441.4
3666.095	-447.4
3668.849	-472.4
3671.602	-475.4
3674.352	-482.4
3677.101	-492.4
3679.847	-500.4
3682.591	-491.4
3685.333	-503.4
3688.073	-510.4
3690.811	-514.4
3693.547	-516.4
3696.281	-536.4
3699.013	-526.4
3701.742	-537.4
3704.47	-541.4
3707.195	-548.4
3709.919	-554.4
3712.64	-555.4
3715.359	-558.4
3718.076	-565.4
3720.792	-565.4
3723.505	-568.4
3726.216	-569.4
3728.925	-570.4
3731.632	-580.4
3734.336	-579.4
3737.039	-586.4
3739.74	-586.4
3742.439	-579.4
3745.136	-588.4
3747.83	-589.4
3750.523	-588.4
3753.213	-604.4
3755.902	-600.4
3758.589	-598.4
3761.273	-593.4
3763.956	-609.4
3766.636	-610.4
3769.315	-602.4
3771.991	-615.4
3774.665	-613.4
3777.338	-606.4
3780.008	-610.4
3782.677	-615.4
3785.343	-614.4
3788.007	-607.4
3790.67	-614.4
3793.33	-619.4
3795.989	-622.4
3798.645	-626.4
3801.299	-627.4
3803.952	-631.4
3806.602	-627.4
3809.251	-630.4
3811.897	-623.4
3814.542	-625.4
3817.184	-632.4
3819.825	-632.4
3822.463	-627.4
3825.1	-630.4
3827.735	-632.4
3830.367	-631.4
3832.998	-628.4
3835.627	-639.4
3838.253	-642.4
3840.878	-630.4
3843.501	-635.4
3846.122	-631.4
3848.741	-635.4
3851.358	-646.4
3853.973	-635.4
3856.586	-636.4
3859.197	-639.4
3861.806	-648.4
3864.414	-629.4
3867.019	-634.4
3869.622	-639.4
3872.224	-636.4
3874.823	-625.4
3877.421	-609.4
3880.016	-598.4
3882.61	-565.4
3885.202	-568.4
3887.792	-593.4
3890.38	-612.4
3892.966	-633.4
3895.55	-643.4
3898.132	-649.4
3900.713	-647.4
3903.291	-653.4
3905.868	-652.4
3908.442	-645.4
3911.015	-651.4
3913.586	-650.4
3916.155	-651.4
3918.722	-648.4
3921.287	-651.4
3923.85	-651.4
3926.411	-648.4
3928.971	-654.4
3931.528	-653.4
3934.084	-653.4
3936.638	-647.4
3939.19	-658.4
3941.74	-662.4
3944.288	-661.4
3946.834	-662.4
3949.378	-661.4
3951.921	-660.4
3954.462	-652.4
3957	-649.4
3959.537	-645.4
3962.072	-650.4
3964.606	-647.4
3967.137	-656.4
3969.667	-652.4
3972.194	-649.4
3974.72	-647.4
3977.244	-644.4
3979.766	-646.4
3982.286	-644.4
3984.805	-641.4
3987.321	-644.4
3989.836	-643.4
3992.349	-640.4
3994.86	-638.4
3997.369	-646.4
3999.877	-638.4
4002.382	-638.4
4004.886	-643.4
4007.388	-640.4
4009.888	-634.4
4012.386	-639.4
4014.883	-643.4
4017.377	-643.4
4019.87	-641.4
4022.361	-642.4
4024.85	-646.4
4027.338	-644.4
4029.823	-642.4
4032.307	-646.4
4034.789	-643.4
4037.269	-648.4
4039.747	-649.4
4042.224	-634.4
4044.699	-646.4
4047.172	-640.4
4049.643	-642.4
4052.112	-642.4
4054.58	-643.4
4057.046	-641.4
4059.51	-647.4
4061.972	-652.4
4064.432	-645.4
4066.891	-644.4
4069.348	-646.4
4071.803	-644.4
4074.256	-638.4
4076.708	-641.4
4079.158	-638.4
4081.606	-637.4
4084.052	-642.4
4086.497	-642.4
4088.939	-640.4
4091.38	-634.4
4093.819	-640.4
4096.257	-679.4
4098.693	-679.4
4101.127	-682.4
4103.559	-680.4
4105.989	-411.4
4108.418	-387.4
4110.845	-360.4
4113.27	-343.4
4115.694	-290.4
4118.115	-247.4
4120.535	-647.4
4122.954	-651.4
4125.37	-646.4
4127.785	-641.4
4130.198	-650.4
4132.609	-638.4
4135.019	-677.4
4137.427	-674.4
4139.833	-676.4
4142.237	-671.4
