Data from 2018-2-7_conc=3_RamanShift_20.txt Node
Date: Tue Feb 13 12:35:44 IST 2018
User: aro
Spectrometer: QEPB0276
Trigger mode: 0
Integration Time (sec): 3.000000E1
Scans to average: 1
Electric dark correction enabled: true
Nonlinearity correction enabled: false
Boxcar width: 0
XAxis mode: Raman Shifts
Number of Pixels in Spectrum: 1044
>>>>>Begin Spectral Data<<<<<
160.701	-154.6
166.742	24.4
172.777	583.4
178.805	2254.4
184.826	6175.4
190.841	12812.4
196.849	20323.4
202.85	25387.4
208.845	27075.4
214.833	26685.4
220.815	26199.4
226.789	26021.4
232.758	25913.4
238.719	25701.4
244.674	25305.4
250.623	24928.4
256.565	24341.4
262.5	23812.4
268.429	23371.4
274.351	22921.4
280.267	22671.4
286.176	22432.4
292.079	22184.4
297.975	21978.4
303.865	21779.4
309.748	21590.4
315.625	21435.4
321.495	21334.4
327.359	21239.4
333.217	21220.4
339.068	21157.4
344.912	21181.4
350.751	21172.4
356.583	21058.4
362.408	21081.4
368.227	21068.4
374.04	21073.4
379.847	21164.4
385.647	21212.4
391.44	21304.4
397.228	21373.4
403.009	21500.4
408.784	21534.4
414.553	21594.4
420.315	21695.4
426.071	21660.4
431.821	21712.4
437.565	21640.4
443.302	21594.4
449.033	21607.4
454.758	21521.4
460.477	21483.4
466.189	21412.4
471.896	21397.4
477.596	21296.4
483.29	21231.4
488.978	21266.4
494.66	21237.4
500.335	21057.4
506.005	20848.4
511.668	20621.4
517.325	20332.4
522.977	20215.4
528.622	20047.4
534.261	19888.4
539.894	19846.4
545.521	19730.4
551.141	19734.4
556.756	19609.4
562.365	19520.4
567.968	19471.4
573.565	19416.4
579.155	19350.4
584.74	19251.4
590.319	19251.4
595.892	19145.4
601.459	19069.4
607.02	18997.4
612.575	18856.4
618.124	18697.4
623.667	18640.4
629.204	18599.4
634.735	18458.4
640.261	18361.4
645.781	18327.4
651.294	18286.4
656.802	18235.4
662.304	18245.4
667.8	18155.4
673.29	18150.4
678.775	18189.4
684.254	18045.4
689.726	18000.4
695.193	17999.4
700.655	17842.4
706.11	17750.4
711.56	17782.4
717.004	17630.4
722.442	17569.4
727.874	17442.4
733.301	17372.4
738.722	17369.4
744.137	17316.4
749.547	17327.4
754.951	17309.4
760.349	17354.4
765.741	17363.4
771.128	17341.4
776.509	17386.4
781.885	17383.4
787.254	17316.4
792.618	17250.4
797.977	17079.4
803.33	17001.4
808.677	16907.4
814.019	16814.4
819.355	16755.4
824.686	16667.4
830.011	16613.4
835.33	16670.4
840.644	16619.4
845.952	16726.4
851.255	16681.4
856.552	16744.4
861.844	16735.4
867.13	16722.4
872.41	16592.4
877.686	16519.4
882.955	16409.4
888.219	16231.4
893.478	16068.4
898.731	15866.4
903.979	15724.4
909.221	15562.4
914.458	15537.4
919.69	15536.4
924.916	15554.4
930.136	15594.4
935.351	15655.4
940.561	15620.4
945.766	15578.4
950.965	15523.4
956.158	15443.4
961.347	15233.4
966.529	15036.4
971.707	14885.4
976.879	14689.4
982.046	14510.4
987.208	14551.4
992.364	14514.4
997.515	14670.4
1002.66	14744.4
1007.801	14907.4
1012.936	15004.4
1018.066	14977.4
1023.19	14974.4
1028.309	14996.4
1033.423	14982.4
1038.532	14912.4
1043.636	14743.4
1048.734	14578.4
1053.827	14399.4
1058.915	14170.4
1063.998	14206.4
1069.075	14074.4
1074.147	14166.4
1079.214	14156.4
1084.276	14260.4
1089.333	14342.4
1094.385	14425.4
1099.431	14455.4
1104.472	14474.4
1109.509	14382.4
1114.54	14239.4
1119.565	14031.4
1124.586	13863.4
1129.602	13701.4
1134.613	13618.4
1139.618	13532.4
1144.619	13512.4
1149.614	13528.4
1154.604	13533.4
1159.589	13593.4
1164.57	13590.4
1169.545	13664.4
1174.515	13609.4
1179.48	13574.4
1184.44	13466.4
1189.395	13373.4
1194.345	13297.4
1199.29	13174.4
1204.23	13176.4
1209.165	13225.4
1214.095	13272.4
1219.021	13398.4
1223.941	13432.4
1228.856	13537.4
1233.766	13509.4
1238.672	13587.4
1243.572	13566.4
1248.467	13471.4
1253.358	13309.4
1258.244	13122.4
1263.124	12938.4
1268	12762.4
1272.871	12599.4
1277.737	12520.4
1282.599	12397.4
1287.455	12471.4
1292.306	12445.4
1297.153	12483.4
1301.995	12519.4
1306.832	12567.4
1311.664	12571.4
1316.491	12544.4
1321.314	12421.4
1326.132	12227.4
1330.945	11990.4
1335.753	11671.4
1340.556	11315.4
1345.354	11151.4
1350.148	11043.4
1354.937	10898.4
1359.722	10927.4
1364.501	11009.4
1369.276	11096.4
1374.046	11280.4
1378.811	11418.4
1383.572	11518.4
1388.327	11498.4
1393.079	11484.4
1397.825	11316.4
1402.567	11106.4
1407.304	10967.4
1412.036	10906.4
1416.764	10817.4
1421.487	10812.4
1426.205	10683.4
1430.919	10654.4
1435.628	10692.4
1440.333	10701.4
1445.032	10766.4
1449.727	10731.4
1454.418	10714.4
1459.104	10629.4
1463.785	10397.4
1468.462	10190.4
1473.134	9964.4
1477.802	9783.4
1482.465	9626.4
1487.123	9484.4
1491.777	9512.4
1496.426	9541.4
1501.071	9639.4
1505.711	9811.4
1510.347	9979.4
1514.978	10112.4
1519.604	10316.4
1524.226	10380.4
1528.844	10384.4
1533.457	10323.4
1538.065	10321.4
1542.669	10241.4
1547.269	10169.4
1551.864	10092.4
1556.454	10052.4
1561.041	10078.4
1565.622	10012.4
1570.199	10074.4
1574.772	10115.4
1579.34	10184.4
1583.904	10232.4
1588.464	10276.4
1593.019	10256.4
1597.569	10252.4
1602.115	10191.4
1606.657	10119.4
1611.195	10089.4
1615.728	9988.4
1620.256	9946.4
1624.78	9943.4
1629.3	9964.4
1633.816	10054.4
1638.327	10040.4
1642.834	10084.4
1647.336	10158.4
1651.834	10191.4
1656.328	10137.4
1660.817	10066.4
1665.302	9993.4
1669.783	9755.4
1674.259	9558.4
1678.732	9277.4
1683.199	8977.4
1687.663	8626.4
1692.122	8437.4
1696.577	8252.4
1701.028	8289.4
1705.474	8330.4
1709.917	8428.4
1714.355	8410.4
1718.788	8357.4
1723.218	8213.4
1727.643	8075.4
1732.064	7875.4
1736.481	7743.4
1740.893	7556.4
1745.301	7349.4
1749.705	7170.4
1754.105	6955.4
1758.501	6762.4
1762.893	6545.4
1767.28	6388.4
1771.663	6254.4
1776.042	6151.4
1780.417	6093.4
1784.787	6100.4
1789.154	6180.4
1793.516	6263.4
1797.874	6419.4
1802.228	6509.4
1806.578	6543.4
1810.924	6548.4
1815.266	6539.4
1819.603	6412.4
1823.937	6308.4
1828.266	6239.4
1832.591	6127.4
1836.913	6045.4
1841.23	5993.4
1845.543	5955.4
1849.852	5900.4
1854.156	5923.4
1858.457	5888.4
1862.754	5892.4
1867.047	5838.4
1871.335	5842.4
1875.62	5885.4
1879.9	5803.4
1884.177	5773.4
1888.449	5700.4
1892.718	5670.4
1896.982	5589.4
1901.243	5543.4
1905.499	5515.4
1909.752	5479.4
1914	5510.4
1918.245	5512.4
1922.485	5563.4
1926.722	5604.4
1930.954	5687.4
1935.183	5748.4
1939.408	5812.4
1943.628	5867.4
1947.845	5843.4
1952.058	5812.4
1956.267	5785.4
1960.472	5717.4
1964.673	5632.4
1968.87	5507.4
1973.063	5461.4
1977.252	5337.4
1981.438	5328.4
1985.619	5284.4
1989.797	5241.4
1993.971	5173.4
1998.14	5183.4
2002.306	5176.4
2006.469	5117.4
2010.627	5115.4
2014.781	5100.4
2018.932	5019.4
2023.078	4992.4
2027.221	4877.4
2031.36	4850.4
2035.495	4793.4
2039.627	4701.4
2043.754	4652.4
2047.878	4628.4
2051.998	4580.4
2056.114	4583.4
2060.226	4534.4
2064.334	4550.4
2068.439	4551.4
2072.54	4588.4
2076.637	4647.4
2080.73	4663.4
2084.82	4701.4
2088.906	4705.4
2092.988	4705.4
2097.066	4705.4
2101.14	4697.4
2105.211	4649.4
2109.278	4602.4
2113.342	4562.4
2117.401	4540.4
2121.457	4518.4
2125.509	4481.4
2129.558	4498.4
2133.602	4458.4
2137.643	4433.4
2141.681	4413.4
2145.714	4377.4
2149.744	4328.4
2153.77	4329.4
2157.793	4303.4
2161.812	4229.4
2165.827	4155.4
2169.838	4130.4
2173.846	4080.4
2177.851	3963.4
2181.851	3907.4
2185.848	3861.4
2189.841	3818.4
2193.831	3762.4
2197.817	3747.4
2201.799	3744.4
2205.778	3740.4
2209.753	3709.4
2213.725	3673.4
2217.693	3698.4
2221.657	3645.4
2225.618	3657.4
2229.575	3673.4
2233.529	3618.4
2237.479	3565.4
2241.425	3544.4
2245.368	3487.4
2249.307	3441.4
2253.243	3409.4
2257.175	3348.4
2261.104	3289.4
2265.029	3268.4
2268.95	3217.4
2272.868	3199.4
2276.783	3155.4
2280.694	3116.4
2284.601	3106.4
2288.505	3071.4
2292.405	3032.4
2296.302	3015.4
2300.195	2955.4
2304.085	2960.4
2307.971	2920.4
2311.854	2865.4
2315.734	2797.4
2319.609	2803.4
2323.482	2734.4
2327.351	2721.4
2331.216	2717.4
2335.078	2702.4
2338.937	2659.4
2342.792	2649.4
2346.643	2640.4
2350.492	2632.4
2354.336	2639.4
2358.178	2638.4
2362.015	2660.4
2365.85	2665.4
2369.681	2667.4
2373.508	2641.4
2377.333	2658.4
2381.153	2672.4
2384.971	2650.4
2388.785	2614.4
2392.595	2604.4
2396.402	2577.4
2400.206	2571.4
2404.007	2526.4
2407.804	2516.4
2411.597	2498.4
2415.388	2471.4
2419.174	2477.4
2422.958	2460.4
2426.738	2440.4
2430.515	2423.4
2434.289	2407.4
2438.059	2370.4
2441.825	2365.4
2445.589	2351.4
2449.349	2308.4
2453.106	2266.4
2456.859	2279.4
2460.61	2219.4
2464.356	2206.4
2468.1	2161.4
2471.84	2157.4
2475.577	2125.4
2479.311	2118.4
2483.041	2118.4
2486.768	2125.4
2490.492	2077.4
2494.213	2065.4
2497.93	2062.4
2501.644	2058.4
2505.355	2041.4
2509.062	2041.4
2512.766	2037.4
2516.467	2039.4
2520.165	2013.4
2523.859	1995.4
2527.551	1971.4
2531.239	1986.4
2534.923	1962.4
2538.605	1937.4
2542.283	1951.4
2545.958	1941.4
2549.63	1930.4
2553.299	1923.4
2556.964	1909.4
2560.626	1937.4
2564.285	1916.4
2567.941	1899.4
2571.594	1882.4
2575.243	1872.4
2578.89	1879.4
2582.533	1846.4
2586.173	1825.4
2589.809	1821.4
2593.443	1824.4
2597.073	1780.4
2600.701	1778.4
2604.325	1750.4
2607.946	1746.4
2611.564	1748.4
2615.178	1751.4
2618.79	1704.4
2622.398	1692.4
2626.004	1679.4
2629.606	1650.4
2633.205	1644.4
2636.801	1625.4
2640.394	1582.4
2643.983	1564.4
2647.57	1557.4
2651.153	1525.4
2654.734	1512.4
2658.311	1474.4
2661.885	1450.4
2665.456	1432.4
2669.025	1422.4
2672.589	1411.4
2676.151	1389.4
2679.71	1373.4
2683.266	1336.4
2686.819	1313.4
2690.368	1289.4
2693.915	1287.4
2697.458	1250.4
2700.999	1228.4
2704.536	1185.4
2708.071	1167.4
2711.602	1149.4
2715.13	1112.4
2718.656	1087.4
2722.178	1061.4
2725.697	1030.4
2729.214	1030.4
2732.727	1028.4
2736.237	1013.4
2739.744	1032.4
2743.249	1019.4
2746.75	1064.4
2750.248	1030.4
2753.743	1052.4
2757.236	1093.4
2760.725	1075.4
2764.211	1082.4
2767.695	1093.4
2771.175	1098.4
2774.652	1078.4
2778.127	1074.4
2781.598	1061.4
2785.067	1068.4
2788.532	1072.4
2791.995	1054.4
2795.455	1067.4
2798.911	1069.4
2802.365	1047.4
2805.816	1055.4
2809.264	1069.4
2812.709	1065.4
2816.151	1037.4
2819.59	1063.4
2823.026	1050.4
2826.46	1058.4
2829.89	1049.4
2833.318	1060.4
2836.742	1071.4
2840.164	1080.4
2843.583	1090.4
2846.999	1081.4
2850.412	1112.4
2853.822	1106.4
2857.229	1138.4
2860.634	1134.4
2864.035	1163.4
2867.434	1191.4
2870.83	1218.4
2874.223	1217.4
2877.613	1272.4
2881	1265.4
2884.385	1273.4
2887.766	1274.4
2891.145	1261.4
2894.521	1248.4
2897.894	1257.4
2901.264	1255.4
2904.631	1254.4
2907.996	1261.4
2911.358	1294.4
2914.717	1294.4
2918.073	1274.4
2921.426	1320.4
2924.777	1326.4
2928.124	1326.4
2931.469	1355.4
2934.811	1379.4
2938.15	1404.4
2941.487	1405.4
2944.821	1417.4
2948.152	1421.4
2951.48	1403.4
2954.805	1395.4
2958.128	1366.4
2961.447	1382.4
2964.765	1399.4
2968.079	1391.4
2971.39	1388.4
2974.699	1404.4
2978.005	1425.4
2981.308	1453.4
2984.609	1483.4
2987.907	1487.4
2991.202	1525.4
2994.494	1556.4
2997.784	1594.4
3001.07	1605.4
3004.355	1657.4
3007.636	1657.4
3010.915	1653.4
3014.191	1704.4
3017.464	1704.4
3020.734	1725.4
3024.002	1746.4
3027.267	1756.4
3030.53	1748.4
3033.789	1792.4
3037.046	1822.4
3040.301	1839.4
3043.552	1870.4
3046.801	1900.4
3050.048	1949.4
3053.291	1996.4
3056.532	2061.4
3059.771	2119.4
3063.006	2165.4
3066.239	2236.4
3069.469	2287.4
3072.697	2366.4
3075.922	2415.4
3079.144	2469.4
3082.364	2524.4
3085.581	2573.4
3088.795	2619.4
3092.007	2693.4
3095.216	2782.4
3098.423	2796.4
3101.627	2866.4
3104.828	2927.4
3108.026	3026.4
3111.222	3041.4
3114.416	3151.4
3117.607	3173.4
3120.795	3292.4
3123.98	3382.4
3127.163	3416.4
3130.344	3517.4
3133.521	3621.4
3136.696	3678.4
3139.869	3751.4
3143.039	3813.4
3146.206	3876.4
3149.371	3917.4
3152.533	3936.4
3155.693	3969.4
3158.85	3994.4
3162.005	3992.4
3165.157	4054.4
3168.306	4053.4
3171.453	4052.4
3174.597	4065.4
3177.739	4060.4
3180.878	4098.4
3184.014	4055.4
3187.149	4053.4
3190.28	4075.4
3193.409	4105.4
3196.536	4086.4
3199.659	4099.4
3202.781	4082.4
3205.9	4105.4
3209.016	4099.4
3212.13	4070.4
3215.241	4009.4
3218.35	3991.4
3221.456	3977.4
3224.56	3916.4
3227.661	3872.4
3230.76	3835.4
3233.856	3785.4
3236.95	3753.4
3240.041	3733.4
3243.13	3682.4
3246.216	3704.4
3249.3	3662.4
3252.382	3651.4
3255.46	3645.4
3258.537	3646.4
3261.611	3618.4
3264.682	3609.4
3267.751	3614.4
3270.818	3589.4
3273.882	3584.4
3276.943	3579.4
3280.002	3527.4
3283.059	3510.4
3286.113	3472.4
3289.165	3426.4
3292.214	3357.4
3295.261	3312.4
3298.306	3235.4
3301.348	3203.4
3304.387	3168.4
3307.425	3094.4
3310.459	3059.4
3313.492	3029.4
3316.521	2976.4
3319.549	2958.4
3322.574	2904.4
3325.597	2890.4
3328.617	2853.4
3331.635	2842.4
3334.65	2841.4
3337.663	2814.4
3340.674	2802.4
3343.682	2803.4
3346.688	2802.4
3349.691	2799.4
3352.692	2759.4
3355.691	2716.4
3358.687	2705.4
3361.681	2673.4
3364.673	2649.4
3367.662	2596.4
3370.649	2552.4
3373.633	2544.4
3376.615	2487.4
3379.595	2455.4
3382.572	2432.4
3385.547	2396.4
3388.52	2355.4
3391.49	2307.4
3394.458	2279.4
3397.424	2257.4
3400.387	2204.4
3403.348	2218.4
3406.307	2154.4
3409.263	2145.4
3412.217	2119.4
3415.168	2100.4
3418.118	2065.4
3421.065	2027.4
3424.009	2016.4
3426.951	1974.4
3429.891	1915.4
3432.829	1880.4
3435.764	1833.4
3438.697	1804.4
3441.628	1751.4
3444.557	1716.4
3447.483	1634.4
3450.407	1577.4
3453.328	1530.4
3456.247	1485.4
3459.164	1444.4
3462.079	1384.4
3464.991	1329.4
3467.902	1264.4
3470.809	1231.4
3473.715	1183.4
3476.618	1139.4
3479.519	1092.4
3482.418	1082.4
3485.315	1030.4
3488.209	994.4
3491.101	948.4
3493.99	928.4
3496.878	886.4
3499.763	840.4
3502.646	810.4
3505.527	769.4
3508.405	743.4
3511.281	700.4
3514.155	674.4
3517.027	613.4
3519.897	573.4
3522.764	544.4
3525.629	492.4
3528.492	450.4
3531.352	406.4
3534.211	378.4
3537.067	324.4
3539.921	307.4
3542.773	277.4
3545.622	225.4
3548.469	195.4
3551.315	169.4
3554.157	149.4
3556.998	135.4
3559.837	101.4
3562.673	69.4
3565.507	46.4
3568.339	40.4
3571.169	7.4
3573.996	-2.6
3576.822	-36.6
3579.645	-51.6
3582.466	-77.6
3585.285	-90.6
3588.101	-104.6
3590.916	-127.6
3593.728	-161.6
3596.538	-168.6
3599.346	-180.6
3602.152	-196.6
3604.956	-227.6
3607.757	-226.6
3610.556	-241.6
3613.354	-259.6
3616.149	-262.6
3618.942	-291.6
3621.732	-295.6
3624.521	-307.6
3627.307	-328.6
3630.092	-335.6
3632.874	-343.6
3635.654	-354.6
3638.432	-360.6
3641.208	-369.6
3643.982	-376.6
3646.753	-380.6
3649.523	-398.6
3652.29	-402.6
3655.055	-408.6
3657.818	-419.6
3660.579	-433.6
3663.338	-435.6
3666.095	-448.6
3668.849	-463.6
3671.602	-470.6
3674.352	-477.6
3677.101	-490.6
3679.847	-492.6
3682.591	-494.6
3685.333	-501.6
3688.073	-510.6
3690.811	-509.6
3693.547	-516.6
3696.281	-524.6
3699.013	-527.6
3701.742	-534.6
3704.47	-538.6
3707.195	-544.6
3709.919	-549.6
3712.64	-553.6
3715.359	-552.6
3718.076	-551.6
3720.792	-563.6
3723.505	-565.6
3726.216	-568.6
3728.925	-570.6
3731.632	-584.6
3734.336	-583.6
3737.039	-583.6
3739.74	-587.6
3742.439	-582.6
3745.136	-590.6
3747.83	-588.6
3750.523	-590.6
3753.213	-593.6
3755.902	-596.6
3758.589	-596.6
3761.273	-596.6
3763.956	-603.6
3766.636	-601.6
3769.315	-602.6
3771.991	-609.6
3774.665	-608.6
3777.338	-607.6
3780.008	-613.6
3782.677	-617.6
3785.343	-614.6
3788.007	-609.6
3790.67	-613.6
3793.33	-613.6
3795.989	-623.6
3798.645	-620.6
3801.299	-622.6
3803.952	-624.6
3806.602	-620.6
3809.251	-625.6
3811.897	-622.6
3814.542	-618.6
3817.184	-626.6
3819.825	-623.6
3822.463	-621.6
3825.1	-630.6
3827.735	-633.6
3830.367	-635.6
3832.998	-635.6
3835.627	-638.6
3838.253	-637.6
3840.878	-632.6
3843.501	-640.6
3846.122	-633.6
3848.741	-641.6
3851.358	-641.6
3853.973	-638.6
3856.586	-635.6
3859.197	-634.6
3861.806	-638.6
3864.414	-630.6
3867.019	-631.6
3869.622	-635.6
3872.224	-637.6
3874.823	-620.6
3877.421	-603.6
3880.016	-584.6
3882.61	-553.6
3885.202	-557.6
3887.792	-586.6
3890.38	-611.6
3892.966	-631.6
3895.55	-642.6
3898.132	-645.6
3900.713	-649.6
3903.291	-648.6
3905.868	-650.6
3908.442	-647.6
3911.015	-648.6
3913.586	-649.6
3916.155	-647.6
3918.722	-646.6
3921.287	-655.6
3923.85	-649.6
3926.411	-654.6
3928.971	-656.6
3931.528	-653.6
3934.084	-645.6
3936.638	-651.6
3939.19	-653.6
3941.74	-664.6
3944.288	-661.6
3946.834	-656.6
3949.378	-656.6
3951.921	-657.6
3954.462	-658.6
3957	-654.6
3959.537	-644.6
3962.072	-652.6
3964.606	-649.6
3967.137	-648.6
3969.667	-648.6
3972.194	-649.6
3974.72	-645.6
3977.244	-649.6
3979.766	-645.6
3982.286	-642.6
3984.805	-638.6
3987.321	-638.6
3989.836	-641.6
3992.349	-639.6
3994.86	-640.6
3997.369	-647.6
3999.877	-638.6
4002.382	-638.6
4004.886	-634.6
4007.388	-641.6
4009.888	-636.6
4012.386	-637.6
4014.883	-635.6
4017.377	-641.6
4019.87	-634.6
4022.361	-639.6
4024.85	-642.6
4027.338	-644.6
4029.823	-640.6
4032.307	-642.6
4034.789	-641.6
4037.269	-652.6
4039.747	-647.6
4042.224	-637.6
4044.699	-647.6
4047.172	-644.6
4049.643	-645.6
4052.112	-637.6
4054.58	-637.6
4057.046	-644.6
4059.51	-640.6
4061.972	-646.6
4064.432	-639.6
4066.891	-639.6
4069.348	-649.6
4071.803	-641.6
4074.256	-639.6
4076.708	-639.6
4079.158	-646.6
4081.606	-644.6
4084.052	-642.6
4086.497	-640.6
4088.939	-636.6
4091.38	-634.6
4093.819	-643.6
4096.257	-676.6
4098.693	-678.6
4101.127	-679.6
4103.559	-680.6
4105.989	-410.6
4108.418	-393.6
4110.845	-370.6
4113.27	-343.6
4115.694	-295.6
4118.115	-240.6
4120.535	-640.6
4122.954	-648.6
4125.37	-644.6
4127.785	-639.6
4130.198	-648.6
4132.609	-635.6
4135.019	-679.6
4137.427	-675.6
4139.833	-674.6
4142.237	-677.6
