Data from 2018-2-7_conc=02_RamanShift_11.txt Node
Date: Tue Feb 13 11:32:44 IST 2018
User: aro
Spectrometer: QEPB0276
Trigger mode: 0
Integration Time (sec): 3.000000E1
Scans to average: 1
Electric dark correction enabled: true
Nonlinearity correction enabled: false
Boxcar width: 0
XAxis mode: Raman Shifts
Number of Pixels in Spectrum: 1044
>>>>>Begin Spectral Data<<<<<
160.701	-165.4
166.742	35.6
172.777	583.6
178.805	2226.6
184.826	6115.6
190.841	12586.6
196.849	19851.6
202.85	24868.6
208.845	26390.6
214.833	26145.6
220.815	25686.6
226.789	25513.6
232.758	25334.6
238.719	25177.6
244.674	24814.6
250.623	24382.6
256.565	23913.6
262.5	23356.6
268.429	22941.6
274.351	22609.6
280.267	22364.6
286.176	22024.6
292.079	21846.6
297.975	21618.6
303.865	21454.6
309.748	21346.6
315.625	21153.6
321.495	21055.6
327.359	20939.6
333.217	20929.6
339.068	20876.6
344.912	20863.6
350.751	20842.6
356.583	20754.6
362.408	20837.6
368.227	20794.6
374.04	20832.6
379.847	20892.6
385.647	20898.6
391.44	21032.6
397.228	21091.6
403.009	21174.6
408.784	21199.6
414.553	21317.6
420.315	21334.6
426.071	21321.6
431.821	21318.6
437.565	21331.6
443.302	21327.6
449.033	21286.6
454.758	21220.6
460.477	21167.6
466.189	21088.6
471.896	21057.6
477.596	21030.6
483.29	20975.6
488.978	20937.6
494.66	20898.6
500.335	20792.6
506.005	20492.6
511.668	20286.6
517.325	20095.6
522.977	19898.6
528.622	19672.6
534.261	19634.6
539.894	19527.6
545.521	19471.6
551.141	19368.6
556.756	19288.6
562.365	19274.6
567.968	19252.6
573.565	19173.6
579.155	19091.6
584.74	18968.6
590.319	18858.6
595.892	18818.6
601.459	18779.6
607.02	18667.6
612.575	18527.6
618.124	18397.6
623.667	18334.6
629.204	18252.6
634.735	18157.6
640.261	18133.6
645.781	18008.6
651.294	18031.6
656.802	17944.6
662.304	17932.6
667.8	17862.6
673.29	17899.6
678.775	17877.6
684.254	17756.6
689.726	17689.6
695.193	17678.6
700.655	17569.6
706.11	17556.6
711.56	17414.6
717.004	17300.6
722.442	17283.6
727.874	17208.6
733.301	17120.6
738.722	17069.6
744.137	17061.6
749.547	17001.6
754.951	16990.6
760.349	17071.6
765.741	17028.6
771.128	17136.6
776.509	17032.6
781.885	17060.6
787.254	16992.6
792.618	16955.6
797.977	16766.6
803.33	16736.6
808.677	16622.6
814.019	16544.6
819.355	16445.6
824.686	16374.6
830.011	16355.6
835.33	16395.6
840.644	16401.6
845.952	16390.6
851.255	16453.6
856.552	16393.6
861.844	16402.6
867.13	16314.6
872.41	16288.6
877.686	16286.6
882.955	16114.6
888.219	15908.6
893.478	15767.6
898.731	15608.6
903.979	15419.6
909.221	15333.6
914.458	15243.6
919.69	15232.6
924.916	15255.6
930.136	15318.6
935.351	15397.6
940.561	15359.6
945.766	15330.6
950.965	15253.6
956.158	15136.6
961.347	14980.6
966.529	14800.6
971.707	14593.6
976.879	14414.6
982.046	14323.6
987.208	14274.6
992.364	14247.6
997.515	14382.6
1002.66	14475.6
1007.801	14635.6
1012.936	14771.6
1018.066	14795.6
1023.19	14742.6
1028.309	14778.6
1033.423	14708.6
1038.532	14608.6
1043.636	14467.6
1048.734	14261.6
1053.827	14104.6
1058.915	13990.6
1063.998	13874.6
1069.075	13818.6
1074.147	13891.6
1079.214	13890.6
1084.276	13942.6
1089.333	14009.6
1094.385	14145.6
1099.431	14204.6
1104.472	14178.6
1109.509	14099.6
1114.54	13923.6
1119.565	13802.6
1124.586	13592.6
1129.602	13407.6
1134.613	13423.6
1139.618	13280.6
1144.619	13302.6
1149.614	13237.6
1154.604	13299.6
1159.589	13303.6
1164.57	13346.6
1169.545	13352.6
1174.515	13301.6
1179.48	13201.6
1184.44	13199.6
1189.395	13093.6
1194.345	12975.6
1199.29	12896.6
1204.23	12943.6
1209.165	12956.6
1214.095	13004.6
1219.021	13097.6
1223.941	13219.6
1228.856	13246.6
1233.766	13316.6
1238.672	13251.6
1243.572	13287.6
1248.467	13147.6
1253.358	13017.6
1258.244	12890.6
1263.124	12627.6
1268	12441.6
1272.871	12318.6
1277.737	12198.6
1282.599	12117.6
1287.455	12107.6
1292.306	12196.6
1297.153	12206.6
1301.995	12283.6
1306.832	12330.6
1311.664	12318.6
1316.491	12291.6
1321.314	12156.6
1326.132	11981.6
1330.945	11802.6
1335.753	11487.6
1340.556	11201.6
1345.354	10975.6
1350.148	10801.6
1354.937	10730.6
1359.722	10664.6
1364.501	10690.6
1369.276	10737.6
1374.046	10906.6
1378.811	11052.6
1383.572	11144.6
1388.327	11199.6
1393.079	11184.6
1397.825	11045.6
1402.567	10902.6
1407.304	10782.6
1412.036	10646.6
1416.764	10634.6
1421.487	10504.6
1426.205	10486.6
1430.919	10454.6
1435.628	10443.6
1440.333	10488.6
1445.032	10553.6
1449.727	10575.6
1454.418	10507.6
1459.104	10415.6
1463.785	10193.6
1468.462	9979.6
1473.134	9753.6
1477.802	9615.6
1482.465	9419.6
1487.123	9312.6
1491.777	9287.6
1496.426	9323.6
1501.071	9399.6
1505.711	9537.6
1510.347	9670.6
1514.978	9817.6
1519.604	9924.6
1524.226	10065.6
1528.844	10048.6
1533.457	10037.6
1538.065	9995.6
1542.669	9914.6
1547.269	9856.6
1551.864	9823.6
1556.454	9794.6
1561.041	9772.6
1565.622	9777.6
1570.199	9784.6
1574.772	9847.6
1579.34	9870.6
1583.904	9973.6
1588.464	10029.6
1593.019	10047.6
1597.569	9969.6
1602.115	9956.6
1606.657	9850.6
1611.195	9810.6
1615.728	9770.6
1620.256	9690.6
1624.78	9670.6
1629.3	9698.6
1633.816	9782.6
1638.327	9813.6
1642.834	9821.6
1647.336	9886.6
1651.834	9911.6
1656.328	9862.6
1660.817	9850.6
1665.302	9714.6
1669.783	9551.6
1674.259	9277.6
1678.732	9039.6
1683.199	8750.6
1687.663	8469.6
1692.122	8205.6
1696.577	8012.6
1701.028	7998.6
1705.474	8030.6
1709.917	8094.6
1714.355	8092.6
1718.788	8049.6
1723.218	7907.6
1727.643	7843.6
1732.064	7675.6
1736.481	7477.6
1740.893	7349.6
1745.301	7134.6
1749.705	6916.6
1754.105	6762.6
1758.501	6565.6
1762.893	6337.6
1767.28	6242.6
1771.663	6096.6
1776.042	5978.6
1780.417	5921.6
1784.787	5916.6
1789.154	5946.6
1793.516	6026.6
1797.874	6176.6
1802.228	6235.6
1806.578	6302.6
1810.924	6318.6
1815.266	6239.6
1819.603	6174.6
1823.937	6079.6
1828.266	5992.6
1832.591	5875.6
1836.913	5820.6
1841.23	5815.6
1845.543	5716.6
1849.852	5687.6
1854.156	5694.6
1858.457	5664.6
1862.754	5674.6
1867.047	5659.6
1871.335	5667.6
1875.62	5632.6
1879.9	5604.6
1884.177	5586.6
1888.449	5533.6
1892.718	5495.6
1896.982	5402.6
1901.243	5374.6
1905.499	5320.6
1909.752	5282.6
1914	5301.6
1918.245	5282.6
1922.485	5323.6
1926.722	5383.6
1930.954	5429.6
1935.183	5487.6
1939.408	5560.6
1943.628	5566.6
1947.845	5584.6
1952.058	5590.6
1956.267	5509.6
1960.472	5434.6
1964.673	5386.6
1968.87	5306.6
1973.063	5245.6
1977.252	5149.6
1981.438	5098.6
1985.619	5051.6
1989.797	5003.6
1993.971	5009.6
1998.14	4974.6
2002.306	4919.6
2006.469	4910.6
2010.627	4934.6
2014.781	4883.6
2018.932	4843.6
2023.078	4794.6
2027.221	4706.6
2031.36	4640.6
2035.495	4560.6
2039.627	4519.6
2043.754	4466.6
2047.878	4408.6
2051.998	4400.6
2056.114	4359.6
2060.226	4358.6
2064.334	4377.6
2068.439	4370.6
2072.54	4411.6
2076.637	4427.6
2080.73	4457.6
2084.82	4473.6
2088.906	4459.6
2092.988	4446.6
2097.066	4467.6
2101.14	4449.6
2105.211	4397.6
2109.278	4366.6
2113.342	4346.6
2117.401	4338.6
2121.457	4318.6
2125.509	4296.6
2129.558	4265.6
2133.602	4248.6
2137.643	4222.6
2141.681	4206.6
2145.714	4174.6
2149.744	4157.6
2153.77	4110.6
2157.793	4081.6
2161.812	4053.6
2165.827	3949.6
2169.838	3902.6
2173.846	3857.6
2177.851	3824.6
2181.851	3734.6
2185.848	3668.6
2189.841	3663.6
2193.831	3631.6
2197.817	3611.6
2201.799	3549.6
2205.778	3564.6
2209.753	3520.6
2213.725	3523.6
2217.693	3507.6
2221.657	3513.6
2225.618	3474.6
2229.575	3456.6
2233.529	3424.6
2237.479	3409.6
2241.425	3370.6
2245.368	3293.6
2249.307	3273.6
2253.243	3229.6
2257.175	3172.6
2261.104	3123.6
2265.029	3077.6
2268.95	3068.6
2272.868	3046.6
2276.783	2999.6
2280.694	2969.6
2284.601	2962.6
2288.505	2943.6
2292.405	2888.6
2296.302	2870.6
2300.195	2822.6
2304.085	2800.6
2307.971	2766.6
2311.854	2685.6
2315.734	2653.6
2319.609	2661.6
2323.482	2600.6
2327.351	2573.6
2331.216	2586.6
2335.078	2562.6
2338.937	2558.6
2342.792	2541.6
2346.643	2504.6
2350.492	2503.6
2354.336	2508.6
2358.178	2530.6
2362.015	2540.6
2365.85	2529.6
2369.681	2541.6
2373.508	2536.6
2377.333	2538.6
2381.153	2518.6
2384.971	2529.6
2388.785	2481.6
2392.595	2493.6
2396.402	2476.6
2400.206	2444.6
2404.007	2433.6
2407.804	2403.6
2411.597	2392.6
2415.388	2382.6
2419.174	2364.6
2422.958	2336.6
2426.738	2346.6
2430.515	2304.6
2434.289	2285.6
2438.059	2262.6
2441.825	2255.6
2445.589	2230.6
2449.349	2187.6
2453.106	2159.6
2456.859	2161.6
2460.61	2122.6
2464.356	2101.6
2468.1	2102.6
2471.84	2030.6
2475.577	2039.6
2479.311	2016.6
2483.041	2005.6
2486.768	1971.6
2490.492	1962.6
2494.213	1965.6
2497.93	1958.6
2501.644	1936.6
2505.355	1936.6
2509.062	1937.6
2512.766	1914.6
2516.467	1924.6
2520.165	1915.6
2523.859	1888.6
2527.551	1865.6
2531.239	1864.6
2534.923	1828.6
2538.605	1826.6
2542.283	1833.6
2545.958	1814.6
2549.63	1817.6
2553.299	1803.6
2556.964	1807.6
2560.626	1794.6
2564.285	1799.6
2567.941	1783.6
2571.594	1783.6
2575.243	1760.6
2578.89	1761.6
2582.533	1724.6
2586.173	1728.6
2589.809	1716.6
2593.443	1686.6
2597.073	1663.6
2600.701	1671.6
2604.325	1638.6
2607.946	1645.6
2611.564	1621.6
2615.178	1625.6
2618.79	1603.6
2622.398	1595.6
2626.004	1564.6
2629.606	1570.6
2633.205	1530.6
2636.801	1518.6
2640.394	1503.6
2643.983	1468.6
2647.57	1445.6
2651.153	1447.6
2654.734	1406.6
2658.311	1373.6
2661.885	1370.6
2665.456	1332.6
2669.025	1346.6
2672.589	1310.6
2676.151	1299.6
2679.71	1290.6
2683.266	1259.6
2686.819	1261.6
2690.368	1214.6
2693.915	1201.6
2697.458	1177.6
2700.999	1148.6
2704.536	1121.6
2708.071	1097.6
2711.602	1065.6
2715.13	1036.6
2718.656	1022.6
2722.178	998.6
2725.697	971.6
2729.214	975.6
2732.727	964.6
2736.237	952.6
2739.744	959.6
2743.249	968.6
2746.75	954.6
2750.248	964.6
2753.743	967.6
2757.236	980.6
2760.725	994.6
2764.211	982.6
2767.695	992.6
2771.175	998.6
2774.652	997.6
2778.127	990.6
2781.598	975.6
2785.067	965.6
2788.532	984.6
2791.995	958.6
2795.455	974.6
2798.911	967.6
2802.365	985.6
2805.816	982.6
2809.264	982.6
2812.709	978.6
2816.151	977.6
2819.59	969.6
2823.026	979.6
2826.46	972.6
2829.89	972.6
2833.318	962.6
2836.742	980.6
2840.164	995.6
2843.583	990.6
2846.999	1006.6
2850.412	1025.6
2853.822	1019.6
2857.229	1049.6
2860.634	1066.6
2864.035	1096.6
2867.434	1113.6
2870.83	1119.6
2874.223	1127.6
2877.613	1178.6
2881	1182.6
2884.385	1176.6
2887.766	1176.6
2891.145	1194.6
2894.521	1162.6
2897.894	1161.6
2901.264	1183.6
2904.631	1177.6
2907.996	1175.6
2911.358	1208.6
2914.717	1206.6
2918.073	1203.6
2921.426	1218.6
2924.777	1256.6
2928.124	1253.6
2931.469	1284.6
2934.811	1312.6
2938.15	1334.6
2941.487	1349.6
2944.821	1335.6
2948.152	1348.6
2951.48	1347.6
2954.805	1319.6
2958.128	1298.6
2961.447	1290.6
2964.765	1282.6
2968.079	1275.6
2971.39	1304.6
2974.699	1307.6
2978.005	1329.6
2981.308	1368.6
2984.609	1377.6
2987.907	1406.6
2991.202	1443.6
2994.494	1462.6
2997.784	1499.6
3001.07	1522.6
3004.355	1543.6
3007.636	1563.6
3010.915	1602.6
3014.191	1613.6
3017.464	1629.6
3020.734	1630.6
3024.002	1636.6
3027.267	1645.6
3030.53	1653.6
3033.789	1681.6
3037.046	1718.6
3040.301	1729.6
3043.552	1762.6
3046.801	1790.6
3050.048	1824.6
3053.291	1901.6
3056.532	1932.6
3059.771	1981.6
3063.006	2051.6
3066.239	2105.6
3069.469	2186.6
3072.697	2250.6
3075.922	2310.6
3079.144	2363.6
3082.364	2399.6
3085.581	2437.6
3088.795	2527.6
3092.007	2555.6
3095.216	2617.6
3098.423	2685.6
3101.627	2737.6
3104.828	2802.6
3108.026	2845.6
3111.222	2916.6
3114.416	2986.6
3117.607	3059.6
3120.795	3146.6
3123.98	3184.6
3127.163	3291.6
3130.344	3379.6
3133.521	3428.6
3136.696	3529.6
3139.869	3604.6
3143.039	3635.6
3146.206	3715.6
3149.371	3758.6
3152.533	3768.6
3155.693	3818.6
3158.85	3866.6
3162.005	3869.6
3165.157	3846.6
3168.306	3859.6
3171.453	3858.6
3174.597	3927.6
3177.739	3874.6
3180.878	3886.6
3184.014	3923.6
3187.149	3881.6
3190.28	3916.6
3193.409	3935.6
3196.536	3950.6
3199.659	3940.6
3202.781	3949.6
3205.9	3941.6
3209.016	3921.6
3212.13	3875.6
3215.241	3903.6
3218.35	3856.6
3221.456	3780.6
3224.56	3771.6
3227.661	3740.6
3230.76	3699.6
3233.856	3655.6
3236.95	3654.6
3240.041	3603.6
3243.13	3580.6
3246.216	3539.6
3249.3	3517.6
3252.382	3537.6
3255.46	3498.6
3258.537	3479.6
3261.611	3485.6
3264.682	3469.6
3267.751	3495.6
3270.818	3478.6
3273.882	3459.6
3276.943	3425.6
3280.002	3410.6
3283.059	3382.6
3286.113	3353.6
3289.165	3300.6
3292.214	3275.6
3295.261	3174.6
3298.306	3150.6
3301.348	3091.6
3304.387	3044.6
3307.425	2992.6
3310.459	2960.6
3313.492	2923.6
3316.521	2863.6
3319.549	2850.6
3322.574	2818.6
3325.597	2779.6
3328.617	2756.6
3331.635	2736.6
3334.65	2742.6
3337.663	2726.6
3340.674	2695.6
3343.682	2702.6
3346.688	2674.6
3349.691	2683.6
3352.692	2657.6
3355.691	2621.6
3358.687	2600.6
3361.681	2576.6
3364.673	2542.6
3367.662	2490.6
3370.649	2478.6
3373.633	2433.6
3376.615	2409.6
3379.595	2368.6
3382.572	2335.6
3385.547	2286.6
3388.52	2269.6
3391.49	2206.6
3394.458	2196.6
3397.424	2163.6
3400.387	2136.6
3403.348	2126.6
3406.307	2105.6
3409.263	2068.6
3412.217	2046.6
3415.168	2039.6
3418.118	1990.6
3421.065	1950.6
3424.009	1925.6
3426.951	1908.6
3429.891	1872.6
3432.829	1816.6
3435.764	1762.6
3438.697	1735.6
3441.628	1691.6
3444.557	1645.6
3447.483	1589.6
3450.407	1524.6
3453.328	1492.6
3456.247	1432.6
3459.164	1378.6
3462.079	1323.6
3464.991	1281.6
3467.902	1231.6
3470.809	1210.6
3473.715	1134.6
3476.618	1103.6
3479.519	1067.6
3482.418	1027.6
3485.315	995.6
3488.209	966.6
3491.101	917.6
3493.99	870.6
3496.878	854.6
3499.763	828.6
3502.646	787.6
3505.527	754.6
3508.405	703.6
3511.281	669.6
3514.155	638.6
3517.027	582.6
3519.897	556.6
3522.764	511.6
3525.629	475.6
3528.492	435.6
3531.352	385.6
3534.211	340.6
3537.067	315.6
3539.921	284.6
3542.773	260.6
3545.622	216.6
3548.469	189.6
3551.315	155.6
3554.157	131.6
3556.998	104.6
3559.837	76.6
3562.673	56.6
3565.507	29.6
3568.339	23.6
3571.169	4.6
3573.996	-26.4
3576.822	-37.4
3579.645	-69.4
3582.466	-82.4
3585.285	-106.4
3588.101	-121.4
3590.916	-136.4
3593.728	-152.4
3596.538	-186.4
3599.346	-194.4
3602.152	-202.4
3604.956	-220.4
3607.757	-238.4
3610.556	-248.4
3613.354	-270.4
3616.149	-287.4
3618.942	-290.4
3621.732	-303.4
3624.521	-323.4
3627.307	-322.4
3630.092	-339.4
3632.874	-345.4
3635.654	-360.4
3638.432	-359.4
3641.208	-372.4
3643.982	-392.4
3646.753	-387.4
3649.523	-395.4
3652.29	-398.4
3655.055	-420.4
3657.818	-426.4
3660.579	-438.4
3663.338	-439.4
3666.095	-450.4
3668.849	-469.4
3671.602	-475.4
3674.352	-481.4
3677.101	-489.4
3679.847	-493.4
3682.591	-496.4
3685.333	-506.4
3688.073	-502.4
3690.811	-508.4
3693.547	-508.4
3696.281	-525.4
3699.013	-527.4
3701.742	-530.4
3704.47	-536.4
3707.195	-549.4
3709.919	-546.4
3712.64	-549.4
3715.359	-556.4
3718.076	-560.4
3720.792	-563.4
3723.505	-565.4
3726.216	-568.4
3728.925	-574.4
3731.632	-581.4
3734.336	-583.4
3737.039	-584.4
3739.74	-578.4
3742.439	-584.4
3745.136	-585.4
3747.83	-582.4
3750.523	-585.4
3753.213	-589.4
3755.902	-591.4
3758.589	-590.4
3761.273	-594.4
3763.956	-604.4
3766.636	-598.4
3769.315	-604.4
3771.991	-605.4
3774.665	-602.4
3777.338	-603.4
3780.008	-604.4
3782.677	-606.4
3785.343	-611.4
3788.007	-605.4
3790.67	-612.4
3793.33	-613.4
3795.989	-617.4
3798.645	-619.4
3801.299	-625.4
3803.952	-623.4
3806.602	-623.4
3809.251	-624.4
3811.897	-622.4
3814.542	-616.4
3817.184	-622.4
3819.825	-624.4
3822.463	-627.4
3825.1	-628.4
3827.735	-627.4
3830.367	-631.4
3832.998	-626.4
3835.627	-632.4
3838.253	-636.4
3840.878	-630.4
3843.501	-636.4
3846.122	-631.4
3848.741	-627.4
3851.358	-637.4
3853.973	-630.4
3856.586	-635.4
3859.197	-635.4
3861.806	-634.4
3864.414	-634.4
3867.019	-633.4
3869.622	-635.4
3872.224	-629.4
3874.823	-622.4
3877.421	-605.4
3880.016	-595.4
3882.61	-569.4
3885.202	-569.4
3887.792	-586.4
3890.38	-605.4
3892.966	-622.4
3895.55	-631.4
3898.132	-639.4
3900.713	-644.4
3903.291	-645.4
3905.868	-645.4
3908.442	-649.4
3911.015	-644.4
3913.586	-650.4
3916.155	-648.4
3918.722	-647.4
3921.287	-648.4
3923.85	-649.4
3926.411	-647.4
3928.971	-652.4
3931.528	-648.4
3934.084	-642.4
3936.638	-648.4
3939.19	-651.4
3941.74	-649.4
3944.288	-650.4
3946.834	-653.4
3949.378	-652.4
3951.921	-647.4
3954.462	-653.4
3957	-650.4
3959.537	-645.4
3962.072	-645.4
3964.606	-638.4
3967.137	-648.4
3969.667	-649.4
3972.194	-642.4
3974.72	-642.4
3977.244	-637.4
3979.766	-641.4
3982.286	-637.4
3984.805	-630.4
3987.321	-635.4
3989.836	-641.4
3992.349	-637.4
3994.86	-636.4
3997.369	-640.4
3999.877	-636.4
4002.382	-635.4
4004.886	-640.4
4007.388	-634.4
4009.888	-632.4
4012.386	-633.4
4014.883	-634.4
4017.377	-630.4
4019.87	-631.4
4022.361	-637.4
4024.85	-636.4
4027.338	-641.4
4029.823	-636.4
4032.307	-635.4
4034.789	-641.4
4037.269	-646.4
4039.747	-641.4
4042.224	-640.4
4044.699	-641.4
4047.172	-647.4
4049.643	-641.4
4052.112	-637.4
4054.58	-633.4
4057.046	-641.4
4059.51	-640.4
4061.972	-645.4
4064.432	-640.4
4066.891	-632.4
4069.348	-637.4
4071.803	-639.4
4074.256	-640.4
4076.708	-638.4
4079.158	-639.4
4081.606	-637.4
4084.052	-634.4
4086.497	-642.4
4088.939	-639.4
4091.38	-630.4
4093.819	-637.4
4096.257	-669.4
4098.693	-676.4
4101.127	-673.4
4103.559	-678.4
4105.989	-395.4
4108.418	-393.4
4110.845	-362.4
4113.27	-335.4
4115.694	-288.4
4118.115	-242.4
4120.535	-641.4
4122.954	-640.4
4125.37	-632.4
4127.785	-638.4
4130.198	-642.4
4132.609	-637.4
4135.019	-671.4
4137.427	-671.4
4139.833	-667.4
4142.237	-670.4
