Data from 2018-2-7_conc=6_RamanShift_13.txt Node
Date: Tue Feb 13 14:34:43 IST 2018
User: aro
Spectrometer: QEPB0276
Trigger mode: 0
Integration Time (sec): 3.000000E1
Scans to average: 1
Electric dark correction enabled: true
Nonlinearity correction enabled: false
Boxcar width: 0
XAxis mode: Raman Shifts
Number of Pixels in Spectrum: 1044
>>>>>Begin Spectral Data<<<<<
160.701	-161.2
166.742	30.8
172.777	576.8
178.805	2240.8
184.826	6092.8
190.841	12594.8
196.849	19996.8
202.85	25080.8
208.845	26630.8
214.833	26376.8
220.815	25777.8
226.789	25515.8
232.758	25410.8
238.719	25147.8
244.674	24787.8
250.623	24277.8
256.565	23788.8
262.5	23173.8
268.429	22757.8
274.351	22328.8
280.267	21971.8
286.176	21745.8
292.079	21566.8
297.975	21195.8
303.865	21090.8
309.748	20892.8
315.625	20710.8
321.495	20627.8
327.359	20540.8
333.217	20467.8
339.068	20396.8
344.912	20459.8
350.751	20420.8
356.583	20358.8
362.408	20323.8
368.227	20334.8
374.04	20390.8
379.847	20434.8
385.647	20472.8
391.44	20530.8
397.228	20728.8
403.009	20777.8
408.784	20788.8
414.553	20947.8
420.315	20960.8
426.071	20973.8
431.821	20919.8
437.565	20878.8
443.302	20819.8
449.033	20926.8
454.758	20775.8
460.477	20777.8
466.189	20712.8
471.896	20650.8
477.596	20584.8
483.29	20541.8
488.978	20492.8
494.66	20371.8
500.335	20224.8
506.005	20016.8
511.668	19783.8
517.325	19558.8
522.977	19321.8
528.622	19202.8
534.261	19134.8
539.894	18987.8
545.521	18877.8
551.141	18782.8
556.756	18739.8
562.365	18668.8
567.968	18582.8
573.565	18480.8
579.155	18421.8
584.74	18381.8
590.319	18246.8
595.892	18193.8
601.459	18092.8
607.02	18079.8
612.575	17935.8
618.124	17796.8
623.667	17744.8
629.204	17572.8
634.735	17530.8
640.261	17453.8
645.781	17414.8
651.294	17355.8
656.802	17338.8
662.304	17290.8
667.8	17224.8
673.29	17263.8
678.775	17188.8
684.254	17100.8
689.726	17049.8
695.193	17011.8
700.655	16976.8
706.11	16849.8
711.56	16725.8
717.004	16692.8
722.442	16657.8
727.874	16560.8
733.301	16471.8
738.722	16448.8
744.137	16383.8
749.547	16396.8
754.951	16316.8
760.349	16424.8
765.741	16373.8
771.128	16413.8
776.509	16435.8
781.885	16386.8
787.254	16368.8
792.618	16304.8
797.977	16151.8
803.33	16086.8
808.677	15987.8
814.019	15862.8
819.355	15778.8
824.686	15700.8
830.011	15695.8
835.33	15607.8
840.644	15682.8
845.952	15713.8
851.255	15737.8
856.552	15733.8
861.844	15757.8
867.13	15739.8
872.41	15588.8
877.686	15542.8
882.955	15387.8
888.219	15231.8
893.478	15086.8
898.731	14868.8
903.979	14756.8
909.221	14600.8
914.458	14546.8
919.69	14548.8
924.916	14588.8
930.136	14617.8
935.351	14642.8
940.561	14656.8
945.766	14645.8
950.965	14575.8
956.158	14435.8
961.347	14317.8
966.529	14069.8
971.707	13888.8
976.879	13797.8
982.046	13651.8
987.208	13573.8
992.364	13600.8
997.515	13682.8
1002.66	13788.8
1007.801	13990.8
1012.936	14082.8
1018.066	14093.8
1023.19	14090.8
1028.309	14116.8
1033.423	14044.8
1038.532	13920.8
1043.636	13785.8
1048.734	13653.8
1053.827	13461.8
1058.915	13284.8
1063.998	13239.8
1069.075	13213.8
1074.147	13224.8
1079.214	13233.8
1084.276	13326.8
1089.333	13394.8
1094.385	13458.8
1099.431	13492.8
1104.472	13457.8
1109.509	13405.8
1114.54	13260.8
1119.565	13061.8
1124.586	12912.8
1129.602	12792.8
1134.613	12675.8
1139.618	12607.8
1144.619	12623.8
1149.614	12637.8
1154.604	12601.8
1159.589	12659.8
1164.57	12629.8
1169.545	12661.8
1174.515	12693.8
1179.48	12625.8
1184.44	12527.8
1189.395	12441.8
1194.345	12374.8
1199.29	12303.8
1204.23	12288.8
1209.165	12303.8
1214.095	12401.8
1219.021	12426.8
1223.941	12529.8
1228.856	12562.8
1233.766	12590.8
1238.672	12612.8
1243.572	12631.8
1248.467	12572.8
1253.358	12351.8
1258.244	12236.8
1263.124	12033.8
1268	11845.8
1272.871	11709.8
1277.737	11599.8
1282.599	11529.8
1287.455	11612.8
1292.306	11543.8
1297.153	11605.8
1301.995	11677.8
1306.832	11712.8
1311.664	11679.8
1316.491	11649.8
1321.314	11515.8
1326.132	11344.8
1330.945	11138.8
1335.753	10886.8
1340.556	10629.8
1345.354	10371.8
1350.148	10247.8
1354.937	10154.8
1359.722	10168.8
1364.501	10151.8
1369.276	10257.8
1374.046	10331.8
1378.811	10481.8
1383.572	10634.8
1388.327	10635.8
1393.079	10525.8
1397.825	10479.8
1402.567	10322.8
1407.304	10221.8
1412.036	10108.8
1416.764	10042.8
1421.487	10009.8
1426.205	9937.8
1430.919	9870.8
1435.628	9853.8
1440.333	9908.8
1445.032	9936.8
1449.727	9966.8
1454.418	9939.8
1459.104	9843.8
1463.785	9672.8
1468.462	9451.8
1473.134	9243.8
1477.802	9039.8
1482.465	8854.8
1487.123	8755.8
1491.777	8715.8
1496.426	8745.8
1501.071	8876.8
1505.711	8940.8
1510.347	9135.8
1514.978	9274.8
1519.604	9411.8
1524.226	9496.8
1528.844	9510.8
1533.457	9469.8
1538.065	9454.8
1542.669	9400.8
1547.269	9347.8
1551.864	9242.8
1556.454	9249.8
1561.041	9269.8
1565.622	9285.8
1570.199	9315.8
1574.772	9342.8
1579.34	9428.8
1583.904	9484.8
1588.464	9556.8
1593.019	9530.8
1597.569	9541.8
1602.115	9452.8
1606.657	9414.8
1611.195	9382.8
1615.728	9293.8
1620.256	9253.8
1624.78	9286.8
1629.3	9279.8
1633.816	9308.8
1638.327	9350.8
1642.834	9464.8
1647.336	9451.8
1651.834	9500.8
1656.328	9480.8
1660.817	9375.8
1665.302	9307.8
1669.783	9088.8
1674.259	8871.8
1678.732	8631.8
1683.199	8318.8
1687.663	7999.8
1692.122	7774.8
1696.577	7640.8
1701.028	7589.8
1705.474	7574.8
1709.917	7656.8
1714.355	7629.8
1718.788	7583.8
1723.218	7479.8
1727.643	7391.8
1732.064	7196.8
1736.481	7022.8
1740.893	6844.8
1745.301	6671.8
1749.705	6480.8
1754.105	6297.8
1758.501	6117.8
1762.893	5982.8
1767.28	5790.8
1771.663	5670.8
1776.042	5592.8
1780.417	5518.8
1784.787	5535.8
1789.154	5585.8
1793.516	5672.8
1797.874	5718.8
1802.228	5847.8
1806.578	5873.8
1810.924	5871.8
1815.266	5838.8
1819.603	5779.8
1823.937	5678.8
1828.266	5538.8
1832.591	5496.8
1836.913	5428.8
1841.23	5402.8
1845.543	5361.8
1849.852	5303.8
1854.156	5320.8
1858.457	5288.8
1862.754	5291.8
1867.047	5269.8
1871.335	5298.8
1875.62	5213.8
1879.9	5227.8
1884.177	5193.8
1888.449	5134.8
1892.718	5087.8
1896.982	5029.8
1901.243	4991.8
1905.499	4951.8
1909.752	4934.8
1914	4916.8
1918.245	4928.8
1922.485	4993.8
1926.722	4987.8
1930.954	5079.8
1935.183	5123.8
1939.408	5151.8
1943.628	5213.8
1947.845	5211.8
1952.058	5184.8
1956.267	5149.8
1960.472	5109.8
1964.673	5020.8
1968.87	4940.8
1973.063	4881.8
1977.252	4803.8
1981.438	4758.8
1985.619	4733.8
1989.797	4652.8
1993.971	4659.8
1998.14	4648.8
2002.306	4592.8
2006.469	4604.8
2010.627	4561.8
2014.781	4552.8
2018.932	4502.8
2023.078	4468.8
2027.221	4436.8
2031.36	4320.8
2035.495	4294.8
2039.627	4242.8
2043.754	4170.8
2047.878	4135.8
2051.998	4121.8
2056.114	4078.8
2060.226	4087.8
2064.334	4108.8
2068.439	4118.8
2072.54	4171.8
2076.637	4175.8
2080.73	4189.8
2084.82	4207.8
2088.906	4200.8
2092.988	4209.8
2097.066	4189.8
2101.14	4192.8
2105.211	4123.8
2109.278	4093.8
2113.342	4081.8
2117.401	4080.8
2121.457	4032.8
2125.509	4017.8
2129.558	3965.8
2133.602	3961.8
2137.643	3992.8
2141.681	3935.8
2145.714	3934.8
2149.744	3872.8
2153.77	3871.8
2157.793	3839.8
2161.812	3800.8
2165.827	3729.8
2169.838	3659.8
2173.846	3603.8
2177.851	3540.8
2181.851	3485.8
2185.848	3477.8
2189.841	3425.8
2193.831	3397.8
2197.817	3371.8
2201.799	3353.8
2205.778	3313.8
2209.753	3309.8
2213.725	3317.8
2217.693	3298.8
2221.657	3269.8
2225.618	3290.8
2229.575	3256.8
2233.529	3233.8
2237.479	3221.8
2241.425	3150.8
2245.368	3099.8
2249.307	3078.8
2253.243	3008.8
2257.175	2985.8
2261.104	2915.8
2265.029	2884.8
2268.95	2887.8
2272.868	2819.8
2276.783	2790.8
2280.694	2757.8
2284.601	2766.8
2288.505	2698.8
2292.405	2715.8
2296.302	2675.8
2300.195	2640.8
2304.085	2608.8
2307.971	2568.8
2311.854	2522.8
2315.734	2501.8
2319.609	2471.8
2323.482	2400.8
2327.351	2411.8
2331.216	2418.8
2335.078	2365.8
2338.937	2361.8
2342.792	2344.8
2346.643	2337.8
2350.492	2331.8
2354.336	2352.8
2358.178	2329.8
2362.015	2363.8
2365.85	2352.8
2369.681	2355.8
2373.508	2349.8
2377.333	2351.8
2381.153	2350.8
2384.971	2336.8
2388.785	2335.8
2392.595	2323.8
2396.402	2275.8
2400.206	2263.8
2404.007	2237.8
2407.804	2214.8
2411.597	2211.8
2415.388	2177.8
2419.174	2165.8
2422.958	2183.8
2426.738	2159.8
2430.515	2142.8
2434.289	2098.8
2438.059	2093.8
2441.825	2057.8
2445.589	2054.8
2449.349	2035.8
2453.106	1999.8
2456.859	1988.8
2460.61	1922.8
2464.356	1917.8
2468.1	1897.8
2471.84	1870.8
2475.577	1830.8
2479.311	1858.8
2483.041	1836.8
2486.768	1831.8
2490.492	1818.8
2494.213	1813.8
2497.93	1773.8
2501.644	1800.8
2505.355	1781.8
2509.062	1782.8
2512.766	1781.8
2516.467	1769.8
2520.165	1751.8
2523.859	1739.8
2527.551	1719.8
2531.239	1705.8
2534.923	1697.8
2538.605	1689.8
2542.283	1681.8
2545.958	1683.8
2549.63	1648.8
2553.299	1647.8
2556.964	1652.8
2560.626	1650.8
2564.285	1645.8
2567.941	1635.8
2571.594	1622.8
2575.243	1627.8
2578.89	1621.8
2582.533	1589.8
2586.173	1588.8
2589.809	1550.8
2593.443	1566.8
2597.073	1548.8
2600.701	1529.8
2604.325	1483.8
2607.946	1492.8
2611.564	1507.8
2615.178	1499.8
2618.79	1469.8
2622.398	1469.8
2626.004	1434.8
2629.606	1414.8
2633.205	1400.8
2636.801	1379.8
2640.394	1372.8
2643.983	1334.8
2647.57	1320.8
2651.153	1305.8
2654.734	1280.8
2658.311	1260.8
2661.885	1234.8
2665.456	1226.8
2669.025	1218.8
2672.589	1208.8
2676.151	1190.8
2679.71	1170.8
2683.266	1136.8
2686.819	1127.8
2690.368	1112.8
2693.915	1068.8
2697.458	1049.8
2700.999	1027.8
2704.536	1018.8
2708.071	978.8
2711.602	979.8
2715.13	944.8
2718.656	913.8
2722.178	893.8
2725.697	884.8
2729.214	889.8
2732.727	884.8
2736.237	889.8
2739.744	868.8
2743.249	878.8
2746.75	891.8
2750.248	894.8
2753.743	890.8
2757.236	907.8
2760.725	911.8
2764.211	919.8
2767.695	922.8
2771.175	912.8
2774.652	904.8
2778.127	897.8
2781.598	899.8
2785.067	895.8
2788.532	887.8
2791.995	892.8
2795.455	889.8
2798.911	904.8
2802.365	896.8
2805.816	904.8
2809.264	908.8
2812.709	900.8
2816.151	899.8
2819.59	886.8
2823.026	910.8
2826.46	894.8
2829.89	930.8
2833.318	919.8
2836.742	921.8
2840.164	938.8
2843.583	930.8
2846.999	952.8
2850.412	960.8
2853.822	980.8
2857.229	985.8
2860.634	976.8
2864.035	1030.8
2867.434	1036.8
2870.83	1069.8
2874.223	1082.8
2877.613	1105.8
2881	1112.8
2884.385	1143.8
2887.766	1121.8
2891.145	1126.8
2894.521	1138.8
2897.894	1144.8
2901.264	1131.8
2904.631	1136.8
2907.996	1142.8
2911.358	1133.8
2914.717	1159.8
2918.073	1175.8
2921.426	1201.8
2924.777	1225.8
2928.124	1229.8
2931.469	1249.8
2934.811	1276.8
2938.15	1282.8
2941.487	1313.8
2944.821	1325.8
2948.152	1316.8
2951.48	1316.8
2954.805	1294.8
2958.128	1277.8
2961.447	1284.8
2964.765	1269.8
2968.079	1278.8
2971.39	1302.8
2974.699	1303.8
2978.005	1322.8
2981.308	1369.8
2984.609	1377.8
2987.907	1402.8
2991.202	1433.8
2994.494	1473.8
2997.784	1473.8
3001.07	1512.8
3004.355	1534.8
3007.636	1568.8
3010.915	1594.8
3014.191	1611.8
3017.464	1617.8
3020.734	1621.8
3024.002	1665.8
3027.267	1662.8
3030.53	1682.8
3033.789	1698.8
3037.046	1717.8
3040.301	1727.8
3043.552	1796.8
3046.801	1820.8
3050.048	1854.8
3053.291	1909.8
3056.532	1978.8
3059.771	2006.8
3063.006	2097.8
3066.239	2155.8
3069.469	2243.8
3072.697	2298.8
3075.922	2342.8
3079.144	2407.8
3082.364	2434.8
3085.581	2501.8
3088.795	2564.8
3092.007	2599.8
3095.216	2663.8
3098.423	2726.8
3101.627	2778.8
3104.828	2833.8
3108.026	2924.8
3111.222	2969.8
3114.416	3065.8
3117.607	3125.8
3120.795	3206.8
3123.98	3267.8
3127.163	3363.8
3130.344	3422.8
3133.521	3533.8
3136.696	3597.8
3139.869	3687.8
3143.039	3715.8
3146.206	3808.8
3149.371	3873.8
3152.533	3867.8
3155.693	3932.8
3158.85	3919.8
3162.005	3955.8
3165.157	3968.8
3168.306	3988.8
3171.453	3966.8
3174.597	3992.8
3177.739	4009.8
3180.878	3999.8
3184.014	4008.8
3187.149	4031.8
3190.28	4046.8
3193.409	4042.8
3196.536	4039.8
3199.659	4047.8
3202.781	4064.8
3205.9	4064.8
3209.016	4022.8
3212.13	4004.8
3215.241	4021.8
3218.35	3938.8
3221.456	3908.8
3224.56	3859.8
3227.661	3835.8
3230.76	3811.8
3233.856	3776.8
3236.95	3698.8
3240.041	3689.8
3243.13	3665.8
3246.216	3654.8
3249.3	3608.8
3252.382	3582.8
3255.46	3583.8
3258.537	3564.8
3261.611	3553.8
3264.682	3579.8
3267.751	3577.8
3270.818	3557.8
3273.882	3556.8
3276.943	3544.8
3280.002	3509.8
3283.059	3473.8
3286.113	3432.8
3289.165	3368.8
3292.214	3344.8
3295.261	3279.8
3298.306	3219.8
3301.348	3168.8
3304.387	3141.8
3307.425	3073.8
3310.459	3055.8
3313.492	2979.8
3316.521	2970.8
3319.549	2946.8
3322.574	2901.8
3325.597	2878.8
3328.617	2863.8
3331.635	2840.8
3334.65	2826.8
3337.663	2780.8
3340.674	2808.8
3343.682	2765.8
3346.688	2781.8
3349.691	2768.8
3352.692	2727.8
3355.691	2731.8
3358.687	2700.8
3361.681	2643.8
3364.673	2641.8
3367.662	2616.8
3370.649	2572.8
3373.633	2533.8
3376.615	2482.8
3379.595	2470.8
3382.572	2408.8
3385.547	2385.8
3388.52	2349.8
3391.49	2311.8
3394.458	2271.8
3397.424	2239.8
3400.387	2203.8
3403.348	2180.8
3406.307	2156.8
3409.263	2133.8
3412.217	2111.8
3415.168	2085.8
3418.118	2055.8
3421.065	2025.8
3424.009	1994.8
3426.951	1961.8
3429.891	1936.8
3432.829	1894.8
3435.764	1835.8
3438.697	1818.8
3441.628	1749.8
3444.557	1700.8
3447.483	1646.8
3450.407	1611.8
3453.328	1536.8
3456.247	1482.8
3459.164	1440.8
3462.079	1401.8
3464.991	1327.8
3467.902	1286.8
3470.809	1244.8
3473.715	1195.8
3476.618	1156.8
3479.519	1092.8
3482.418	1059.8
3485.315	1034.8
3488.209	1009.8
3491.101	970.8
3493.99	924.8
3496.878	888.8
3499.763	845.8
3502.646	819.8
3505.527	772.8
3508.405	738.8
3511.281	701.8
3514.155	666.8
3517.027	615.8
3519.897	583.8
3522.764	544.8
3525.629	485.8
3528.492	450.8
3531.352	410.8
3534.211	368.8
3537.067	333.8
3539.921	305.8
3542.773	285.8
3545.622	250.8
3548.469	205.8
3551.315	173.8
3554.157	155.8
3556.998	125.8
3559.837	103.8
3562.673	71.8
3565.507	54.8
3568.339	36.8
3571.169	12.8
3573.996	-17.2
3576.822	-28.2
3579.645	-46.2
3582.466	-61.2
3585.285	-101.2
3588.101	-110.2
3590.916	-116.2
3593.728	-149.2
3596.538	-167.2
3599.346	-184.2
3602.152	-199.2
3604.956	-217.2
3607.757	-231.2
3610.556	-237.2
3613.354	-257.2
3616.149	-265.2
3618.942	-285.2
3621.732	-295.2
3624.521	-307.2
3627.307	-311.2
3630.092	-331.2
3632.874	-332.2
3635.654	-341.2
3638.432	-355.2
3641.208	-359.2
3643.982	-365.2
3646.753	-381.2
3649.523	-398.2
3652.29	-392.2
3655.055	-403.2
3657.818	-422.2
3660.579	-434.2
3663.338	-436.2
3666.095	-439.2
3668.849	-458.2
3671.602	-469.2
3674.352	-479.2
3677.101	-482.2
3679.847	-494.2
3682.591	-492.2
3685.333	-496.2
3688.073	-502.2
3690.811	-512.2
3693.547	-515.2
3696.281	-525.2
3699.013	-521.2
3701.742	-523.2
3704.47	-536.2
3707.195	-538.2
3709.919	-541.2
3712.64	-545.2
3715.359	-551.2
3718.076	-555.2
3720.792	-561.2
3723.505	-558.2
3726.216	-565.2
3728.925	-569.2
3731.632	-585.2
3734.336	-581.2
3737.039	-582.2
3739.74	-584.2
3742.439	-583.2
3745.136	-595.2
3747.83	-593.2
3750.523	-587.2
3753.213	-591.2
3755.902	-594.2
3758.589	-583.2
3761.273	-589.2
3763.956	-597.2
3766.636	-598.2
3769.315	-600.2
3771.991	-604.2
3774.665	-606.2
3777.338	-604.2
3780.008	-612.2
3782.677	-608.2
3785.343	-612.2
3788.007	-609.2
3790.67	-619.2
3793.33	-616.2
3795.989	-616.2
3798.645	-620.2
3801.299	-628.2
3803.952	-625.2
3806.602	-621.2
3809.251	-630.2
3811.897	-622.2
3814.542	-621.2
3817.184	-628.2
3819.825	-625.2
3822.463	-621.2
3825.1	-626.2
3827.735	-630.2
3830.367	-632.2
3832.998	-631.2
3835.627	-630.2
3838.253	-636.2
3840.878	-629.2
3843.501	-635.2
3846.122	-633.2
3848.741	-636.2
3851.358	-637.2
3853.973	-633.2
3856.586	-633.2
3859.197	-634.2
3861.806	-635.2
3864.414	-631.2
3867.019	-632.2
3869.622	-634.2
3872.224	-631.2
3874.823	-618.2
3877.421	-600.2
3880.016	-578.2
3882.61	-539.2
3885.202	-541.2
3887.792	-572.2
3890.38	-594.2
3892.966	-616.2
3895.55	-629.2
3898.132	-636.2
3900.713	-641.2
3903.291	-644.2
3905.868	-645.2
3908.442	-641.2
3911.015	-642.2
3913.586	-646.2
3916.155	-646.2
3918.722	-643.2
3921.287	-642.2
3923.85	-644.2
3926.411	-649.2
3928.971	-648.2
3931.528	-647.2
3934.084	-643.2
3936.638	-645.2
3939.19	-649.2
3941.74	-657.2
3944.288	-653.2
3946.834	-655.2
3949.378	-653.2
3951.921	-653.2
3954.462	-656.2
3957	-647.2
3959.537	-645.2
3962.072	-644.2
3964.606	-644.2
3967.137	-653.2
3969.667	-645.2
3972.194	-645.2
3974.72	-642.2
3977.244	-639.2
3979.766	-640.2
3982.286	-640.2
3984.805	-632.2
3987.321	-633.2
3989.836	-635.2
3992.349	-637.2
3994.86	-634.2
3997.369	-643.2
3999.877	-636.2
4002.382	-634.2
4004.886	-637.2
4007.388	-637.2
4009.888	-633.2
4012.386	-640.2
4014.883	-638.2
4017.377	-635.2
4019.87	-637.2
4022.361	-639.2
4024.85	-634.2
4027.338	-640.2
4029.823	-637.2
4032.307	-642.2
4034.789	-640.2
4037.269	-645.2
4039.747	-640.2
4042.224	-631.2
4044.699	-642.2
4047.172	-641.2
4049.643	-636.2
4052.112	-639.2
4054.58	-636.2
4057.046	-643.2
4059.51	-639.2
4061.972	-645.2
4064.432	-641.2
4066.891	-642.2
4069.348	-641.2
4071.803	-643.2
4074.256	-640.2
4076.708	-640.2
4079.158	-641.2
4081.606	-638.2
4084.052	-634.2
4086.497	-642.2
4088.939	-633.2
4091.38	-630.2
4093.819	-633.2
4096.257	-668.2
4098.693	-667.2
4101.127	-671.2
4103.559	-671.2
4105.989	-399.2
4108.418	-380.2
4110.845	-360.2
4113.27	-335.2
4115.694	-282.2
4118.115	-249.2
4120.535	-633.2
4122.954	-641.2
4125.37	-638.2
4127.785	-634.2
4130.198	-639.2
4132.609	-635.2
4135.019	-671.2
4137.427	-674.2
4139.833	-670.2
4142.237	-671.2
