Data from 2018-2-7_conc=02_RamanShift_03.txt Node
Date: Tue Feb 13 11:25:44 IST 2018
User: aro
Spectrometer: QEPB0276
Trigger mode: 0
Integration Time (sec): 3.000000E1
Scans to average: 1
Electric dark correction enabled: true
Nonlinearity correction enabled: false
Boxcar width: 0
XAxis mode: Raman Shifts
Number of Pixels in Spectrum: 1044
>>>>>Begin Spectral Data<<<<<
160.701	-163.2
166.742	30.8
172.777	571.8
178.805	2219.8
184.826	6050.8
190.841	12490.8
196.849	19662.8
202.85	24620.8
208.845	26133.8
214.833	25742.8
220.815	25258.8
226.789	25030.8
232.758	24903.8
238.719	24625.8
244.674	24243.8
250.623	23766.8
256.565	23201.8
262.5	22627.8
268.429	22218.8
274.351	21833.8
280.267	21529.8
286.176	21183.8
292.079	21012.8
297.975	20761.8
303.865	20549.8
309.748	20345.8
315.625	20149.8
321.495	20048.8
327.359	19951.8
333.217	19956.8
339.068	19902.8
344.912	19933.8
350.751	19834.8
356.583	19821.8
362.408	19811.8
368.227	19810.8
374.04	19801.8
379.847	19889.8
385.647	19964.8
391.44	19988.8
397.228	20087.8
403.009	20190.8
408.784	20280.8
414.553	20308.8
420.315	20398.8
426.071	20389.8
431.821	20409.8
437.565	20342.8
443.302	20291.8
449.033	20270.8
454.758	20197.8
460.477	20227.8
466.189	20112.8
471.896	20101.8
477.596	19992.8
483.29	19957.8
488.978	19966.8
494.66	19873.8
500.335	19751.8
506.005	19513.8
511.668	19282.8
517.325	19075.8
522.977	18877.8
528.622	18758.8
534.261	18706.8
539.894	18542.8
545.521	18480.8
551.141	18368.8
556.756	18306.8
562.365	18251.8
567.968	18181.8
573.565	18162.8
579.155	18061.8
584.74	17949.8
590.319	17887.8
595.892	17807.8
601.459	17759.8
607.02	17654.8
612.575	17539.8
618.124	17475.8
623.667	17365.8
629.204	17283.8
634.735	17182.8
640.261	17107.8
645.781	17098.8
651.294	17027.8
656.802	17045.8
662.304	17011.8
667.8	16977.8
673.29	16853.8
678.775	16901.8
684.254	16810.8
689.726	16735.8
695.193	16730.8
700.655	16658.8
706.11	16529.8
711.56	16496.8
717.004	16406.8
722.442	16308.8
727.874	16208.8
733.301	16173.8
738.722	16135.8
744.137	16089.8
749.547	16120.8
754.951	16144.8
760.349	16122.8
765.741	16058.8
771.128	16138.8
776.509	16109.8
781.885	16170.8
787.254	16097.8
792.618	15961.8
797.977	15886.8
803.33	15796.8
808.677	15687.8
814.019	15624.8
819.355	15524.8
824.686	15500.8
830.011	15460.8
835.33	15434.8
840.644	15402.8
845.952	15482.8
851.255	15525.8
856.552	15535.8
861.844	15481.8
867.13	15465.8
872.41	15380.8
877.686	15302.8
882.955	15157.8
888.219	15059.8
893.478	14857.8
898.731	14668.8
903.979	14495.8
909.221	14424.8
914.458	14358.8
919.69	14374.8
924.916	14410.8
930.136	14451.8
935.351	14472.8
940.561	14495.8
945.766	14454.8
950.965	14340.8
956.158	14253.8
961.347	14070.8
966.529	13887.8
971.707	13740.8
976.879	13597.8
982.046	13449.8
987.208	13404.8
992.364	13454.8
997.515	13498.8
1002.66	13611.8
1007.801	13816.8
1012.936	13896.8
1018.066	13963.8
1023.19	13905.8
1028.309	13881.8
1033.423	13827.8
1038.532	13775.8
1043.636	13670.8
1048.734	13489.8
1053.827	13304.8
1058.915	13160.8
1063.998	13093.8
1069.075	13031.8
1074.147	13071.8
1079.214	13115.8
1084.276	13230.8
1089.333	13296.8
1094.385	13350.8
1099.431	13340.8
1104.472	13400.8
1109.509	13235.8
1114.54	13117.8
1119.565	12936.8
1124.586	12727.8
1129.602	12672.8
1134.613	12608.8
1139.618	12526.8
1144.619	12503.8
1149.614	12437.8
1154.604	12459.8
1159.589	12541.8
1164.57	12535.8
1169.545	12623.8
1174.515	12580.8
1179.48	12489.8
1184.44	12442.8
1189.395	12312.8
1194.345	12224.8
1199.29	12145.8
1204.23	12206.8
1209.165	12234.8
1214.095	12326.8
1219.021	12363.8
1223.941	12455.8
1228.856	12528.8
1233.766	12473.8
1238.672	12518.8
1243.572	12491.8
1248.467	12422.8
1253.358	12322.8
1258.244	12126.8
1263.124	11958.8
1268	11799.8
1272.871	11636.8
1277.737	11472.8
1282.599	11428.8
1287.455	11471.8
1292.306	11490.8
1297.153	11492.8
1301.995	11561.8
1306.832	11596.8
1311.664	11636.8
1316.491	11618.8
1321.314	11504.8
1326.132	11349.8
1330.945	11065.8
1335.753	10789.8
1340.556	10600.8
1345.354	10360.8
1350.148	10213.8
1354.937	10129.8
1359.722	10149.8
1364.501	10157.8
1369.276	10199.8
1374.046	10361.8
1378.811	10509.8
1383.572	10594.8
1388.327	10678.8
1393.079	10568.8
1397.825	10439.8
1402.567	10308.8
1407.304	10206.8
1412.036	10114.8
1416.764	10009.8
1421.487	9969.8
1426.205	9916.8
1430.919	9891.8
1435.628	9886.8
1440.333	9918.8
1445.032	9907.8
1449.727	10015.8
1454.418	9959.8
1459.104	9821.8
1463.785	9673.8
1468.462	9505.8
1473.134	9267.8
1477.802	9100.8
1482.465	8879.8
1487.123	8835.8
1491.777	8778.8
1496.426	8860.8
1501.071	8904.8
1505.711	9049.8
1510.347	9184.8
1514.978	9324.8
1519.604	9453.8
1524.226	9561.8
1528.844	9543.8
1533.457	9566.8
1538.065	9491.8
1542.669	9452.8
1547.269	9380.8
1551.864	9336.8
1556.454	9333.8
1561.041	9347.8
1565.622	9291.8
1570.199	9354.8
1574.772	9374.8
1579.34	9478.8
1583.904	9505.8
1588.464	9593.8
1593.019	9603.8
1597.569	9526.8
1602.115	9499.8
1606.657	9440.8
1611.195	9371.8
1615.728	9333.8
1620.256	9284.8
1624.78	9324.8
1629.3	9335.8
1633.816	9403.8
1638.327	9432.8
1642.834	9449.8
1647.336	9508.8
1651.834	9482.8
1656.328	9508.8
1660.817	9480.8
1665.302	9356.8
1669.783	9178.8
1674.259	8949.8
1678.732	8677.8
1683.199	8379.8
1687.663	8111.8
1692.122	7838.8
1696.577	7708.8
1701.028	7665.8
1705.474	7699.8
1709.917	7740.8
1714.355	7722.8
1718.788	7701.8
1723.218	7589.8
1727.643	7481.8
1732.064	7317.8
1736.481	7126.8
1740.893	6977.8
1745.301	6795.8
1749.705	6600.8
1754.105	6383.8
1758.501	6239.8
1762.893	6014.8
1767.28	5925.8
1771.663	5767.8
1776.042	5661.8
1780.417	5704.8
1784.787	5671.8
1789.154	5659.8
1793.516	5767.8
1797.874	5841.8
1802.228	5961.8
1806.578	6011.8
1810.924	5979.8
1815.266	5963.8
1819.603	5898.8
1823.937	5798.8
1828.266	5681.8
1832.591	5601.8
1836.913	5543.8
1841.23	5459.8
1845.543	5451.8
1849.852	5428.8
1854.156	5416.8
1858.457	5404.8
1862.754	5397.8
1867.047	5361.8
1871.335	5392.8
1875.62	5348.8
1879.9	5336.8
1884.177	5293.8
1888.449	5261.8
1892.718	5212.8
1896.982	5178.8
1901.243	5104.8
1905.499	5071.8
1909.752	5045.8
1914	5059.8
1918.245	5075.8
1922.485	5115.8
1926.722	5144.8
1930.954	5188.8
1935.183	5258.8
1939.408	5314.8
1943.628	5313.8
1947.845	5335.8
1952.058	5297.8
1956.267	5299.8
1960.472	5235.8
1964.673	5129.8
1968.87	5056.8
1973.063	4979.8
1977.252	4932.8
1981.438	4875.8
1985.619	4837.8
1989.797	4792.8
1993.971	4789.8
1998.14	4763.8
2002.306	4762.8
2006.469	4715.8
2010.627	4688.8
2014.781	4658.8
2018.932	4629.8
2023.078	4569.8
2027.221	4542.8
2031.36	4444.8
2035.495	4385.8
2039.627	4304.8
2043.754	4261.8
2047.878	4226.8
2051.998	4237.8
2056.114	4189.8
2060.226	4203.8
2064.334	4194.8
2068.439	4230.8
2072.54	4246.8
2076.637	4279.8
2080.73	4290.8
2084.82	4314.8
2088.906	4349.8
2092.988	4336.8
2097.066	4298.8
2101.14	4290.8
2105.211	4260.8
2109.278	4246.8
2113.342	4189.8
2117.401	4165.8
2121.457	4166.8
2125.509	4129.8
2129.558	4115.8
2133.602	4077.8
2137.643	4077.8
2141.681	4065.8
2145.714	4042.8
2149.744	4021.8
2153.77	3974.8
2157.793	3940.8
2161.812	3911.8
2165.827	3826.8
2169.838	3774.8
2173.846	3709.8
2177.851	3635.8
2181.851	3570.8
2185.848	3558.8
2189.841	3542.8
2193.831	3451.8
2197.817	3460.8
2201.799	3436.8
2205.778	3421.8
2209.753	3391.8
2213.725	3410.8
2217.693	3383.8
2221.657	3377.8
2225.618	3379.8
2229.575	3354.8
2233.529	3337.8
2237.479	3291.8
2241.425	3251.8
2245.368	3217.8
2249.307	3149.8
2253.243	3102.8
2257.175	3079.8
2261.104	3023.8
2265.029	2996.8
2268.95	2959.8
2272.868	2887.8
2276.783	2891.8
2280.694	2873.8
2284.601	2849.8
2288.505	2817.8
2292.405	2802.8
2296.302	2766.8
2300.195	2735.8
2304.085	2694.8
2307.971	2641.8
2311.854	2587.8
2315.734	2584.8
2319.609	2564.8
2323.482	2488.8
2327.351	2488.8
2331.216	2477.8
2335.078	2464.8
2338.937	2468.8
2342.792	2431.8
2346.643	2445.8
2350.492	2418.8
2354.336	2442.8
2358.178	2416.8
2362.015	2447.8
2365.85	2446.8
2369.681	2424.8
2373.508	2451.8
2377.333	2443.8
2381.153	2427.8
2384.971	2434.8
2388.785	2387.8
2392.595	2368.8
2396.402	2362.8
2400.206	2329.8
2404.007	2323.8
2407.804	2300.8
2411.597	2294.8
2415.388	2274.8
2419.174	2273.8
2422.958	2249.8
2426.738	2222.8
2430.515	2194.8
2434.289	2198.8
2438.059	2175.8
2441.825	2141.8
2445.589	2132.8
2449.349	2096.8
2453.106	2068.8
2456.859	2064.8
2460.61	2013.8
2464.356	1993.8
2468.1	1983.8
2471.84	1960.8
2475.577	1929.8
2479.311	1925.8
2483.041	1909.8
2486.768	1911.8
2490.492	1912.8
2494.213	1896.8
2497.93	1890.8
2501.644	1905.8
2505.355	1880.8
2509.062	1857.8
2512.766	1850.8
2516.467	1831.8
2520.165	1839.8
2523.859	1815.8
2527.551	1784.8
2531.239	1767.8
2534.923	1768.8
2538.605	1763.8
2542.283	1759.8
2545.958	1759.8
2549.63	1736.8
2553.299	1735.8
2556.964	1731.8
2560.626	1746.8
2564.285	1725.8
2567.941	1712.8
2571.594	1717.8
2575.243	1699.8
2578.89	1680.8
2582.533	1659.8
2586.173	1676.8
2589.809	1647.8
2593.443	1629.8
2597.073	1605.8
2600.701	1603.8
2604.325	1594.8
2607.946	1564.8
2611.564	1564.8
2615.178	1550.8
2618.79	1549.8
2622.398	1545.8
2626.004	1540.8
2629.606	1479.8
2633.205	1472.8
2636.801	1461.8
2640.394	1434.8
2643.983	1418.8
2647.57	1407.8
2651.153	1380.8
2654.734	1357.8
2658.311	1339.8
2661.885	1314.8
2665.456	1315.8
2669.025	1278.8
2672.589	1269.8
2676.151	1251.8
2679.71	1233.8
2683.266	1205.8
2686.819	1199.8
2690.368	1167.8
2693.915	1157.8
2697.458	1119.8
2700.999	1083.8
2704.536	1064.8
2708.071	1027.8
2711.602	1029.8
2715.13	1009.8
2718.656	986.8
2722.178	967.8
2725.697	972.8
2729.214	945.8
2732.727	941.8
2736.237	936.8
2739.744	928.8
2743.249	940.8
2746.75	914.8
2750.248	954.8
2753.743	950.8
2757.236	954.8
2760.725	968.8
2764.211	973.8
2767.695	963.8
2771.175	959.8
2774.652	975.8
2778.127	946.8
2781.598	960.8
2785.067	969.8
2788.532	958.8
2791.995	944.8
2795.455	961.8
2798.911	961.8
2802.365	947.8
2805.816	937.8
2809.264	961.8
2812.709	932.8
2816.151	950.8
2819.59	948.8
2823.026	966.8
2826.46	951.8
2829.89	977.8
2833.318	958.8
2836.742	957.8
2840.164	981.8
2843.583	977.8
2846.999	996.8
2850.412	1011.8
2853.822	1038.8
2857.229	1040.8
2860.634	1048.8
2864.035	1066.8
2867.434	1101.8
2870.83	1103.8
2874.223	1131.8
2877.613	1148.8
2881	1182.8
2884.385	1197.8
2887.766	1201.8
2891.145	1189.8
2894.521	1179.8
2897.894	1185.8
2901.264	1163.8
2904.631	1168.8
2907.996	1182.8
2911.358	1201.8
2914.717	1211.8
2918.073	1208.8
2921.426	1251.8
2924.777	1274.8
2928.124	1284.8
2931.469	1303.8
2934.811	1332.8
2938.15	1351.8
2941.487	1342.8
2944.821	1369.8
2948.152	1356.8
2951.48	1367.8
2954.805	1362.8
2958.128	1319.8
2961.447	1326.8
2964.765	1319.8
2968.079	1333.8
2971.39	1318.8
2974.699	1343.8
2978.005	1350.8
2981.308	1395.8
2984.609	1421.8
2987.907	1448.8
2991.202	1481.8
2994.494	1500.8
2997.784	1544.8
3001.07	1534.8
3004.355	1596.8
3007.636	1608.8
3010.915	1644.8
3014.191	1624.8
3017.464	1655.8
3020.734	1668.8
3024.002	1671.8
3027.267	1701.8
3030.53	1719.8
3033.789	1745.8
3037.046	1745.8
3040.301	1792.8
3043.552	1826.8
3046.801	1863.8
3050.048	1903.8
3053.291	1959.8
3056.532	2026.8
3059.771	2089.8
3063.006	2132.8
3066.239	2213.8
3069.469	2252.8
3072.697	2324.8
3075.922	2373.8
3079.144	2429.8
3082.364	2493.8
3085.581	2521.8
3088.795	2598.8
3092.007	2662.8
3095.216	2713.8
3098.423	2767.8
3101.627	2828.8
3104.828	2901.8
3108.026	2956.8
3111.222	3020.8
3114.416	3110.8
3117.607	3190.8
3120.795	3225.8
3123.98	3326.8
3127.163	3410.8
3130.344	3498.8
3133.521	3564.8
3136.696	3627.8
3139.869	3691.8
3143.039	3781.8
3146.206	3805.8
3149.371	3886.8
3152.533	3921.8
3155.693	3935.8
3158.85	3948.8
3162.005	3978.8
3165.157	4038.8
3168.306	4015.8
3171.453	4024.8
3174.597	4044.8
3177.739	4044.8
3180.878	4043.8
3184.014	4055.8
3187.149	4064.8
3190.28	4074.8
3193.409	4054.8
3196.536	4091.8
3199.659	4082.8
3202.781	4096.8
3205.9	4086.8
3209.016	4076.8
3212.13	4064.8
3215.241	4034.8
3218.35	4024.8
3221.456	3965.8
3224.56	3928.8
3227.661	3879.8
3230.76	3830.8
3233.856	3805.8
3236.95	3763.8
3240.041	3693.8
3243.13	3711.8
3246.216	3657.8
3249.3	3656.8
3252.382	3621.8
3255.46	3631.8
3258.537	3604.8
3261.611	3624.8
3264.682	3595.8
3267.751	3611.8
3270.818	3623.8
3273.882	3586.8
3276.943	3547.8
3280.002	3573.8
3283.059	3509.8
3286.113	3493.8
3289.165	3415.8
3292.214	3384.8
3295.261	3339.8
3298.306	3275.8
3301.348	3210.8
3304.387	3167.8
3307.425	3132.8
3310.459	3068.8
3313.492	3028.8
3316.521	2979.8
3319.549	2969.8
3322.574	2870.8
3325.597	2884.8
3328.617	2868.8
3331.635	2871.8
3334.65	2820.8
3337.663	2820.8
3340.674	2814.8
3343.682	2797.8
3346.688	2787.8
3349.691	2766.8
3352.692	2758.8
3355.691	2733.8
3358.687	2736.8
3361.681	2663.8
3364.673	2632.8
3367.662	2628.8
3370.649	2560.8
3373.633	2541.8
3376.615	2511.8
3379.595	2475.8
3382.572	2433.8
3385.547	2405.8
3388.52	2368.8
3391.49	2312.8
3394.458	2282.8
3397.424	2244.8
3400.387	2223.8
3403.348	2199.8
3406.307	2183.8
3409.263	2155.8
3412.217	2108.8
3415.168	2071.8
3418.118	2078.8
3421.065	2045.8
3424.009	1994.8
3426.951	1971.8
3429.891	1942.8
3432.829	1898.8
3435.764	1868.8
3438.697	1815.8
3441.628	1751.8
3444.557	1733.8
3447.483	1661.8
3450.407	1593.8
3453.328	1575.8
3456.247	1509.8
3459.164	1451.8
3462.079	1400.8
3464.991	1356.8
3467.902	1276.8
3470.809	1231.8
3473.715	1182.8
3476.618	1170.8
3479.519	1130.8
3482.418	1093.8
3485.315	1049.8
3488.209	989.8
3491.101	975.8
3493.99	951.8
3496.878	908.8
3499.763	856.8
3502.646	832.8
3505.527	795.8
3508.405	771.8
3511.281	708.8
3514.155	675.8
3517.027	633.8
3519.897	577.8
3522.764	539.8
3525.629	511.8
3528.492	467.8
3531.352	415.8
3534.211	380.8
3537.067	343.8
3539.921	305.8
3542.773	282.8
3545.622	256.8
3548.469	210.8
3551.315	185.8
3554.157	171.8
3556.998	136.8
3559.837	105.8
3562.673	86.8
3565.507	69.8
3568.339	44.8
3571.169	24.8
3573.996	-4.2
3576.822	-16.2
3579.645	-33.2
3582.466	-62.2
3585.285	-80.2
3588.101	-89.2
3590.916	-117.2
3593.728	-133.2
3596.538	-157.2
3599.346	-170.2
3602.152	-177.2
3604.956	-206.2
3607.757	-222.2
3610.556	-239.2
3613.354	-251.2
3616.149	-263.2
3618.942	-278.2
3621.732	-289.2
3624.521	-310.2
3627.307	-304.2
3630.092	-314.2
3632.874	-331.2
3635.654	-340.2
3638.432	-344.2
3641.208	-352.2
3643.982	-368.2
3646.753	-372.2
3649.523	-392.2
3652.29	-397.2
3655.055	-402.2
3657.818	-418.2
3660.579	-415.2
3663.338	-438.2
3666.095	-445.2
3668.849	-449.2
3671.602	-467.2
3674.352	-461.2
3677.101	-469.2
3679.847	-479.2
3682.591	-483.2
3685.333	-484.2
3688.073	-496.2
3690.811	-499.2
3693.547	-504.2
3696.281	-520.2
3699.013	-514.2
3701.742	-523.2
3704.47	-527.2
3707.195	-536.2
3709.919	-534.2
3712.64	-545.2
3715.359	-548.2
3718.076	-542.2
3720.792	-554.2
3723.505	-556.2
3726.216	-559.2
3728.925	-560.2
3731.632	-570.2
3734.336	-567.2
3737.039	-571.2
3739.74	-576.2
3742.439	-575.2
3745.136	-577.2
3747.83	-584.2
3750.523	-580.2
3753.213	-594.2
3755.902	-591.2
3758.589	-583.2
3761.273	-586.2
3763.956	-599.2
3766.636	-588.2
3769.315	-594.2
3771.991	-591.2
3774.665	-594.2
3777.338	-598.2
3780.008	-598.2
3782.677	-601.2
3785.343	-607.2
3788.007	-599.2
3790.67	-610.2
3793.33	-607.2
3795.989	-613.2
3798.645	-613.2
3801.299	-616.2
3803.952	-614.2
3806.602	-614.2
3809.251	-616.2
3811.897	-610.2
3814.542	-612.2
3817.184	-612.2
3819.825	-616.2
3822.463	-616.2
3825.1	-627.2
3827.735	-624.2
3830.367	-625.2
3832.998	-627.2
3835.627	-624.2
3838.253	-626.2
3840.878	-619.2
3843.501	-625.2
3846.122	-622.2
3848.741	-619.2
3851.358	-626.2
3853.973	-625.2
3856.586	-625.2
3859.197	-624.2
3861.806	-628.2
3864.414	-625.2
3867.019	-624.2
3869.622	-629.2
3872.224	-620.2
3874.823	-612.2
3877.421	-594.2
3880.016	-584.2
3882.61	-559.2
3885.202	-561.2
3887.792	-579.2
3890.38	-598.2
3892.966	-616.2
3895.55	-624.2
3898.132	-626.2
3900.713	-637.2
3903.291	-641.2
3905.868	-640.2
3908.442	-637.2
3911.015	-644.2
3913.586	-643.2
3916.155	-637.2
3918.722	-633.2
3921.287	-641.2
3923.85	-640.2
3926.411	-645.2
3928.971	-639.2
3931.528	-639.2
3934.084	-638.2
3936.638	-640.2
3939.19	-642.2
3941.74	-649.2
3944.288	-650.2
3946.834	-647.2
3949.378	-649.2
3951.921	-647.2
3954.462	-647.2
3957	-640.2
3959.537	-636.2
3962.072	-639.2
3964.606	-634.2
3967.137	-642.2
3969.667	-637.2
3972.194	-636.2
3974.72	-633.2
3977.244	-630.2
3979.766	-631.2
3982.286	-632.2
3984.805	-620.2
3987.321	-627.2
3989.836	-631.2
3992.349	-633.2
3994.86	-626.2
3997.369	-633.2
3999.877	-631.2
4002.382	-625.2
4004.886	-632.2
4007.388	-629.2
4009.888	-625.2
4012.386	-628.2
4014.883	-622.2
4017.377	-628.2
4019.87	-624.2
4022.361	-629.2
4024.85	-637.2
4027.338	-630.2
4029.823	-632.2
4032.307	-632.2
4034.789	-634.2
4037.269	-639.2
4039.747	-639.2
4042.224	-629.2
4044.699	-633.2
4047.172	-637.2
4049.643	-634.2
4052.112	-628.2
4054.58	-629.2
4057.046	-635.2
4059.51	-633.2
4061.972	-641.2
4064.432	-634.2
4066.891	-636.2
4069.348	-632.2
4071.803	-639.2
4074.256	-632.2
4076.708	-634.2
4079.158	-636.2
4081.606	-626.2
4084.052	-633.2
4086.497	-627.2
4088.939	-629.2
4091.38	-621.2
4093.819	-633.2
4096.257	-667.2
4098.693	-665.2
4101.127	-664.2
4103.559	-668.2
4105.989	-403.2
4108.418	-380.2
4110.845	-357.2
4113.27	-350.2
4115.694	-286.2
4118.115	-246.2
4120.535	-630.2
4122.954	-636.2
4125.37	-636.2
4127.785	-639.2
4130.198	-638.2
4132.609	-634.2
4135.019	-667.2
4137.427	-667.2
4139.833	-664.2
4142.237	-660.2
