Data from 2018-2-7_conc=5_RamanShift_02.txt Node
Date: Tue Feb 13 13:56:13 IST 2018
User: aro
Spectrometer: QEPB0276
Trigger mode: 0
Integration Time (sec): 3.000000E1
Scans to average: 1
Electric dark correction enabled: true
Nonlinearity correction enabled: false
Boxcar width: 0
XAxis mode: Raman Shifts
Number of Pixels in Spectrum: 1044
>>>>>Begin Spectral Data<<<<<
160.701	-154.9
166.742	23.1
172.777	567.1
178.805	2204.1
184.826	6035.1
190.841	12434.1
196.849	19681.1
202.85	24655.1
208.845	26210.1
214.833	25824.1
220.815	25345.1
226.789	25173.1
232.758	25026.1
238.719	24840.1
244.674	24424.1
250.623	23907.1
256.565	23399.1
262.5	22836.1
268.429	22398.1
274.351	21981.1
280.267	21747.1
286.176	21461.1
292.079	21227.1
297.975	20908.1
303.865	20749.1
309.748	20675.1
315.625	20498.1
321.495	20403.1
327.359	20302.1
333.217	20282.1
339.068	20265.1
344.912	20249.1
350.751	20152.1
356.583	20161.1
362.408	20113.1
368.227	20151.1
374.04	20151.1
379.847	20249.1
385.647	20342.1
391.44	20365.1
397.228	20478.1
403.009	20572.1
408.784	20647.1
414.553	20646.1
420.315	20762.1
426.071	20761.1
431.821	20703.1
437.565	20723.1
443.302	20672.1
449.033	20677.1
454.758	20532.1
460.477	20544.1
466.189	20558.1
471.896	20523.1
477.596	20381.1
483.29	20345.1
488.978	20360.1
494.66	20289.1
500.335	20140.1
506.005	19952.1
511.668	19642.1
517.325	19438.1
522.977	19284.1
528.622	19137.1
534.261	18896.1
539.894	18894.1
545.521	18830.1
551.141	18766.1
556.756	18711.1
562.365	18606.1
567.968	18504.1
573.565	18472.1
579.155	18428.1
584.74	18341.1
590.319	18270.1
595.892	18201.1
601.459	18087.1
607.02	18040.1
612.575	17927.1
618.124	17789.1
623.667	17708.1
629.204	17629.1
634.735	17581.1
640.261	17467.1
645.781	17396.1
651.294	17398.1
656.802	17373.1
662.304	17370.1
667.8	17309.1
673.29	17287.1
678.775	17220.1
684.254	17182.1
689.726	17120.1
695.193	17060.1
700.655	17008.1
706.11	16868.1
711.56	16767.1
717.004	16686.1
722.442	16714.1
727.874	16593.1
733.301	16487.1
738.722	16467.1
744.137	16525.1
749.547	16424.1
754.951	16447.1
760.349	16455.1
765.741	16472.1
771.128	16420.1
776.509	16456.1
781.885	16493.1
787.254	16441.1
792.618	16313.1
797.977	16233.1
803.33	16120.1
808.677	16077.1
814.019	15930.1
819.355	15864.1
824.686	15795.1
830.011	15782.1
835.33	15816.1
840.644	15762.1
845.952	15815.1
851.255	15867.1
856.552	15882.1
861.844	15840.1
867.13	15776.1
872.41	15671.1
877.686	15652.1
882.955	15569.1
888.219	15368.1
893.478	15197.1
898.731	15007.1
903.979	14865.1
909.221	14783.1
914.458	14707.1
919.69	14667.1
924.916	14748.1
930.136	14824.1
935.351	14810.1
940.561	14792.1
945.766	14807.1
950.965	14736.1
956.158	14642.1
961.347	14443.1
966.529	14267.1
971.707	14068.1
976.879	13926.1
982.046	13782.1
987.208	13812.1
992.364	13807.1
997.515	13856.1
1002.66	13999.1
1007.801	14127.1
1012.936	14235.1
1018.066	14250.1
1023.19	14233.1
1028.309	14274.1
1033.423	14222.1
1038.532	14072.1
1043.636	14008.1
1048.734	13802.1
1053.827	13634.1
1058.915	13490.1
1063.998	13396.1
1069.075	13387.1
1074.147	13377.1
1079.214	13440.1
1084.276	13589.1
1089.333	13606.1
1094.385	13611.1
1099.431	13668.1
1104.472	13719.1
1109.509	13601.1
1114.54	13495.1
1119.565	13269.1
1124.586	13134.1
1129.602	12983.1
1134.613	12939.1
1139.618	12827.1
1144.619	12867.1
1149.614	12830.1
1154.604	12841.1
1159.589	12902.1
1164.57	12906.1
1169.545	12925.1
1174.515	12946.1
1179.48	12851.1
1184.44	12800.1
1189.395	12652.1
1194.345	12563.1
1199.29	12519.1
1204.23	12512.1
1209.165	12570.1
1214.095	12589.1
1219.021	12703.1
1223.941	12774.1
1228.856	12823.1
1233.766	12872.1
1238.672	12912.1
1243.572	12874.1
1248.467	12743.1
1253.358	12615.1
1258.244	12440.1
1263.124	12278.1
1268	12103.1
1272.871	11976.1
1277.737	11846.1
1282.599	11809.1
1287.455	11801.1
1292.306	11825.1
1297.153	11844.1
1301.995	11906.1
1306.832	11944.1
1311.664	11914.1
1316.491	11924.1
1321.314	11885.1
1326.132	11655.1
1330.945	11416.1
1335.753	11119.1
1340.556	10813.1
1345.354	10609.1
1350.148	10507.1
1354.937	10303.1
1359.722	10314.1
1364.501	10333.1
1369.276	10447.1
1374.046	10585.1
1378.811	10674.1
1383.572	10805.1
1388.327	10861.1
1393.079	10845.1
1397.825	10731.1
1402.567	10591.1
1407.304	10458.1
1412.036	10361.1
1416.764	10322.1
1421.487	10247.1
1426.205	10193.1
1430.919	10144.1
1435.628	10155.1
1440.333	10193.1
1445.032	10202.1
1449.727	10235.1
1454.418	10235.1
1459.104	10101.1
1463.785	9910.1
1468.462	9678.1
1473.134	9457.1
1477.802	9282.1
1482.465	9073.1
1487.123	8940.1
1491.777	8917.1
1496.426	8964.1
1501.071	9033.1
1505.711	9167.1
1510.347	9309.1
1514.978	9466.1
1519.604	9576.1
1524.226	9704.1
1528.844	9687.1
1533.457	9716.1
1538.065	9667.1
1542.669	9631.1
1547.269	9528.1
1551.864	9482.1
1556.454	9478.1
1561.041	9490.1
1565.622	9509.1
1570.199	9537.1
1574.772	9575.1
1579.34	9667.1
1583.904	9713.1
1588.464	9758.1
1593.019	9739.1
1597.569	9737.1
1602.115	9667.1
1606.657	9580.1
1611.195	9562.1
1615.728	9532.1
1620.256	9468.1
1624.78	9471.1
1629.3	9517.1
1633.816	9515.1
1638.327	9563.1
1642.834	9615.1
1647.336	9669.1
1651.834	9643.1
1656.328	9608.1
1660.817	9566.1
1665.302	9466.1
1669.783	9270.1
1674.259	9058.1
1678.732	8805.1
1683.199	8482.1
1687.663	8133.1
1692.122	7887.1
1696.577	7754.1
1701.028	7693.1
1705.474	7731.1
1709.917	7781.1
1714.355	7816.1
1718.788	7825.1
1723.218	7676.1
1727.643	7561.1
1732.064	7399.1
1736.481	7242.1
1740.893	7057.1
1745.301	6886.1
1749.705	6654.1
1754.105	6508.1
1758.501	6334.1
1762.893	6175.1
1767.28	5984.1
1771.663	5865.1
1776.042	5710.1
1780.417	5640.1
1784.787	5656.1
1789.154	5680.1
1793.516	5749.1
1797.874	5833.1
1802.228	5974.1
1806.578	6019.1
1810.924	6069.1
1815.266	6000.1
1819.603	5940.1
1823.937	5847.1
1828.266	5771.1
1832.591	5698.1
1836.913	5593.1
1841.23	5529.1
1845.543	5541.1
1849.852	5487.1
1854.156	5461.1
1858.457	5465.1
1862.754	5474.1
1867.047	5413.1
1871.335	5461.1
1875.62	5413.1
1879.9	5379.1
1884.177	5334.1
1888.449	5307.1
1892.718	5209.1
1896.982	5181.1
1901.243	5131.1
1905.499	5067.1
1909.752	5077.1
1914	5017.1
1918.245	5010.1
1922.485	5069.1
1926.722	5137.1
1930.954	5185.1
1935.183	5206.1
1939.408	5278.1
1943.628	5305.1
1947.845	5298.1
1952.058	5360.1
1956.267	5295.1
1960.472	5280.1
1964.673	5146.1
1968.87	5044.1
1973.063	5008.1
1977.252	4958.1
1981.438	4919.1
1985.619	4852.1
1989.797	4803.1
1993.971	4783.1
1998.14	4775.1
2002.306	4764.1
2006.469	4765.1
2010.627	4720.1
2014.781	4712.1
2018.932	4662.1
2023.078	4610.1
2027.221	4556.1
2031.36	4461.1
2035.495	4375.1
2039.627	4331.1
2043.754	4291.1
2047.878	4258.1
2051.998	4210.1
2056.114	4176.1
2060.226	4218.1
2064.334	4180.1
2068.439	4219.1
2072.54	4208.1
2076.637	4262.1
2080.73	4252.1
2084.82	4262.1
2088.906	4312.1
2092.988	4296.1
2097.066	4266.1
2101.14	4263.1
2105.211	4235.1
2109.278	4194.1
2113.342	4195.1
2117.401	4176.1
2121.457	4173.1
2125.509	4122.1
2129.558	4116.1
2133.602	4078.1
2137.643	4058.1
2141.681	4072.1
2145.714	4042.1
2149.744	4019.1
2153.77	3962.1
2157.793	3930.1
2161.812	3911.1
2165.827	3825.1
2169.838	3789.1
2173.846	3721.1
2177.851	3675.1
2181.851	3596.1
2185.848	3563.1
2189.841	3557.1
2193.831	3499.1
2197.817	3492.1
2201.799	3427.1
2205.778	3445.1
2209.753	3438.1
2213.725	3410.1
2217.693	3389.1
2221.657	3394.1
2225.618	3401.1
2229.575	3355.1
2233.529	3333.1
2237.479	3314.1
2241.425	3300.1
2245.368	3240.1
2249.307	3169.1
2253.243	3135.1
2257.175	3103.1
2261.104	3027.1
2265.029	3024.1
2268.95	2964.1
2272.868	2964.1
2276.783	2905.1
2280.694	2873.1
2284.601	2856.1
2288.505	2835.1
2292.405	2820.1
2296.302	2792.1
2300.195	2757.1
2304.085	2710.1
2307.971	2708.1
2311.854	2670.1
2315.734	2608.1
2319.609	2565.1
2323.482	2538.1
2327.351	2508.1
2331.216	2523.1
2335.078	2487.1
2338.937	2492.1
2342.792	2446.1
2346.643	2453.1
2350.492	2450.1
2354.336	2469.1
2358.178	2462.1
2362.015	2483.1
2365.85	2484.1
2369.681	2499.1
2373.508	2509.1
2377.333	2485.1
2381.153	2488.1
2384.971	2494.1
2388.785	2451.1
2392.595	2457.1
2396.402	2413.1
2400.206	2394.1
2404.007	2385.1
2407.804	2365.1
2411.597	2325.1
2415.388	2355.1
2419.174	2321.1
2422.958	2304.1
2426.738	2313.1
2430.515	2278.1
2434.289	2250.1
2438.059	2232.1
2441.825	2207.1
2445.589	2203.1
2449.349	2182.1
2453.106	2136.1
2456.859	2114.1
2460.61	2082.1
2464.356	2065.1
2468.1	2017.1
2471.84	2009.1
2475.577	1985.1
2479.311	1994.1
2483.041	1981.1
2486.768	1958.1
2490.492	1967.1
2494.213	1944.1
2497.93	1935.1
2501.644	1901.1
2505.355	1917.1
2509.062	1902.1
2512.766	1889.1
2516.467	1863.1
2520.165	1872.1
2523.859	1847.1
2527.551	1817.1
2531.239	1826.1
2534.923	1795.1
2538.605	1794.1
2542.283	1793.1
2545.958	1782.1
2549.63	1765.1
2553.299	1776.1
2556.964	1789.1
2560.626	1763.1
2564.285	1773.1
2567.941	1752.1
2571.594	1722.1
2575.243	1727.1
2578.89	1728.1
2582.533	1698.1
2586.173	1684.1
2589.809	1677.1
2593.443	1635.1
2597.073	1646.1
2600.701	1645.1
2604.325	1602.1
2607.946	1598.1
2611.564	1598.1
2615.178	1595.1
2618.79	1581.1
2622.398	1559.1
2626.004	1552.1
2629.606	1534.1
2633.205	1518.1
2636.801	1494.1
2640.394	1467.1
2643.983	1462.1
2647.57	1434.1
2651.153	1403.1
2654.734	1388.1
2658.311	1376.1
2661.885	1346.1
2665.456	1323.1
2669.025	1303.1
2672.589	1306.1
2676.151	1283.1
2679.71	1273.1
2683.266	1240.1
2686.819	1235.1
2690.368	1214.1
2693.915	1175.1
2697.458	1137.1
2700.999	1132.1
2704.536	1107.1
2708.071	1085.1
2711.602	1053.1
2715.13	1023.1
2718.656	992.1
2722.178	987.1
2725.697	964.1
2729.214	959.1
2732.727	944.1
2736.237	930.1
2739.744	948.1
2743.249	928.1
2746.75	927.1
2750.248	941.1
2753.743	943.1
2757.236	952.1
2760.725	954.1
2764.211	979.1
2767.695	968.1
2771.175	968.1
2774.652	963.1
2778.127	968.1
2781.598	958.1
2785.067	963.1
2788.532	952.1
2791.995	959.1
2795.455	960.1
2798.911	959.1
2802.365	967.1
2805.816	942.1
2809.264	964.1
2812.709	942.1
2816.151	945.1
2819.59	950.1
2823.026	956.1
2826.46	969.1
2829.89	957.1
2833.318	975.1
2836.742	983.1
2840.164	986.1
2843.583	984.1
2846.999	1003.1
2850.412	1005.1
2853.822	1017.1
2857.229	1034.1
2860.634	1032.1
2864.035	1063.1
2867.434	1101.1
2870.83	1121.1
2874.223	1124.1
2877.613	1151.1
2881	1173.1
2884.385	1193.1
2887.766	1174.1
2891.145	1163.1
2894.521	1180.1
2897.894	1169.1
2901.264	1182.1
2904.631	1180.1
2907.996	1179.1
2911.358	1198.1
2914.717	1208.1
2918.073	1204.1
2921.426	1239.1
2924.777	1227.1
2928.124	1269.1
2931.469	1281.1
2934.811	1303.1
2938.15	1309.1
2941.487	1340.1
2944.821	1348.1
2948.152	1335.1
2951.48	1334.1
2954.805	1317.1
2958.128	1315.1
2961.447	1311.1
2964.765	1310.1
2968.079	1287.1
2971.39	1301.1
2974.699	1340.1
2978.005	1349.1
2981.308	1351.1
2984.609	1389.1
2987.907	1399.1
2991.202	1417.1
2994.494	1467.1
2997.784	1477.1
3001.07	1533.1
3004.355	1532.1
3007.636	1575.1
3010.915	1587.1
3014.191	1609.1
3017.464	1624.1
3020.734	1619.1
3024.002	1642.1
3027.267	1676.1
3030.53	1670.1
3033.789	1687.1
3037.046	1716.1
3040.301	1755.1
3043.552	1783.1
3046.801	1840.1
3050.048	1860.1
3053.291	1926.1
3056.532	1955.1
3059.771	2017.1
3063.006	2073.1
3066.239	2143.1
3069.469	2186.1
3072.697	2275.1
3075.922	2337.1
3079.144	2366.1
3082.364	2408.1
3085.581	2477.1
3088.795	2526.1
3092.007	2573.1
3095.216	2630.1
3098.423	2716.1
3101.627	2742.1
3104.828	2808.1
3108.026	2864.1
3111.222	2947.1
3114.416	3036.1
3117.607	3071.1
3120.795	3173.1
3123.98	3247.1
3127.163	3293.1
3130.344	3384.1
3133.521	3443.1
3136.696	3563.1
3139.869	3592.1
3143.039	3669.1
3146.206	3712.1
3149.371	3786.1
3152.533	3821.1
3155.693	3847.1
3158.85	3881.1
3162.005	3902.1
3165.157	3881.1
3168.306	3931.1
3171.453	3937.1
3174.597	3917.1
3177.739	3909.1
3180.878	3926.1
3184.014	3956.1
3187.149	3963.1
3190.28	3965.1
3193.409	3947.1
3196.536	3962.1
3199.659	3961.1
3202.781	3961.1
3205.9	3941.1
3209.016	3937.1
3212.13	3941.1
3215.241	3906.1
3218.35	3890.1
3221.456	3838.1
3224.56	3813.1
3227.661	3776.1
3230.76	3716.1
3233.856	3668.1
3236.95	3653.1
3240.041	3593.1
3243.13	3588.1
3246.216	3536.1
3249.3	3555.1
3252.382	3520.1
3255.46	3500.1
3258.537	3536.1
3261.611	3513.1
3264.682	3513.1
3267.751	3496.1
3270.818	3496.1
3273.882	3475.1
3276.943	3457.1
3280.002	3449.1
3283.059	3409.1
3286.113	3372.1
3289.165	3310.1
3292.214	3243.1
3295.261	3206.1
3298.306	3174.1
3301.348	3098.1
3304.387	3076.1
3307.425	3012.1
3310.459	2966.1
3313.492	2917.1
3316.521	2913.1
3319.549	2875.1
3322.574	2839.1
3325.597	2802.1
3328.617	2783.1
3331.635	2770.1
3334.65	2772.1
3337.663	2743.1
3340.674	2727.1
3343.682	2707.1
3346.688	2689.1
3349.691	2688.1
3352.692	2674.1
3355.691	2687.1
3358.687	2656.1
3361.681	2595.1
3364.673	2566.1
3367.662	2532.1
3370.649	2518.1
3373.633	2468.1
3376.615	2436.1
3379.595	2389.1
3382.572	2341.1
3385.547	2324.1
3388.52	2303.1
3391.49	2237.1
3394.458	2233.1
3397.424	2183.1
3400.387	2155.1
3403.348	2139.1
3406.307	2115.1
3409.263	2095.1
3412.217	2061.1
3415.168	2039.1
3418.118	2007.1
3421.065	1952.1
3424.009	1951.1
3426.951	1923.1
3429.891	1875.1
3432.829	1847.1
3435.764	1808.1
3438.697	1755.1
3441.628	1715.1
3444.557	1663.1
3447.483	1623.1
3450.407	1560.1
3453.328	1501.1
3456.247	1455.1
3459.164	1401.1
3462.079	1343.1
3464.991	1295.1
3467.902	1241.1
3470.809	1212.1
3473.715	1148.1
3476.618	1122.1
3479.519	1074.1
3482.418	1039.1
3485.315	998.1
3488.209	950.1
3491.101	929.1
3493.99	882.1
3496.878	846.1
3499.763	812.1
3502.646	782.1
3505.527	757.1
3508.405	708.1
3511.281	685.1
3514.155	644.1
3517.027	595.1
3519.897	566.1
3522.764	512.1
3525.629	481.1
3528.492	446.1
3531.352	392.1
3534.211	365.1
3537.067	321.1
3539.921	289.1
3542.773	248.1
3545.622	225.1
3548.469	192.1
3551.315	177.1
3554.157	143.1
3556.998	126.1
3559.837	90.1
3562.673	62.1
3565.507	43.1
3568.339	37.1
3571.169	8.1
3573.996	-5.9
3576.822	-42.9
3579.645	-42.9
3582.466	-80.9
3585.285	-94.9
3588.101	-102.9
3590.916	-118.9
3593.728	-141.9
3596.538	-172.9
3599.346	-191.9
3602.152	-196.9
3604.956	-212.9
3607.757	-226.9
3610.556	-240.9
3613.354	-261.9
3616.149	-277.9
3618.942	-291.9
3621.732	-289.9
3624.521	-302.9
3627.307	-316.9
3630.092	-326.9
3632.874	-338.9
3635.654	-353.9
3638.432	-348.9
3641.208	-355.9
3643.982	-363.9
3646.753	-373.9
3649.523	-384.9
3652.29	-395.9
3655.055	-393.9
3657.818	-410.9
3660.579	-427.9
3663.338	-427.9
3666.095	-439.9
3668.849	-449.9
3671.602	-456.9
3674.352	-459.9
3677.101	-472.9
3679.847	-487.9
3682.591	-480.9
3685.333	-498.9
3688.073	-493.9
3690.811	-500.9
3693.547	-500.9
3696.281	-516.9
3699.013	-514.9
3701.742	-521.9
3704.47	-523.9
3707.195	-530.9
3709.919	-528.9
3712.64	-539.9
3715.359	-540.9
3718.076	-542.9
3720.792	-552.9
3723.505	-550.9
3726.216	-550.9
3728.925	-560.9
3731.632	-564.9
3734.336	-565.9
3737.039	-572.9
3739.74	-569.9
3742.439	-566.9
3745.136	-574.9
3747.83	-576.9
3750.523	-574.9
3753.213	-581.9
3755.902	-578.9
3758.589	-575.9
3761.273	-579.9
3763.956	-585.9
3766.636	-589.9
3769.315	-589.9
3771.991	-594.9
3774.665	-592.9
3777.338	-596.9
3780.008	-592.9
3782.677	-596.9
3785.343	-604.9
3788.007	-593.9
3790.67	-602.9
3793.33	-601.9
3795.989	-607.9
3798.645	-605.9
3801.299	-608.9
3803.952	-612.9
3806.602	-605.9
3809.251	-613.9
3811.897	-609.9
3814.542	-603.9
3817.184	-614.9
3819.825	-606.9
3822.463	-609.9
3825.1	-617.9
3827.735	-617.9
3830.367	-621.9
3832.998	-618.9
3835.627	-623.9
3838.253	-625.9
3840.878	-624.9
3843.501	-617.9
3846.122	-618.9
3848.741	-621.9
3851.358	-629.9
3853.973	-618.9
3856.586	-616.9
3859.197	-622.9
3861.806	-623.9
3864.414	-613.9
3867.019	-616.9
3869.622	-622.9
3872.224	-618.9
3874.823	-601.9
3877.421	-584.9
3880.016	-562.9
3882.61	-532.9
3885.202	-537.9
3887.792	-567.9
3890.38	-592.9
3892.966	-605.9
3895.55	-621.9
3898.132	-630.9
3900.713	-631.9
3903.291	-633.9
3905.868	-634.9
3908.442	-635.9
3911.015	-631.9
3913.586	-636.9
3916.155	-630.9
3918.722	-632.9
3921.287	-637.9
3923.85	-633.9
3926.411	-632.9
3928.971	-634.9
3931.528	-633.9
3934.084	-630.9
3936.638	-635.9
3939.19	-642.9
3941.74	-641.9
3944.288	-638.9
3946.834	-642.9
3949.378	-643.9
3951.921	-640.9
3954.462	-637.9
3957	-636.9
3959.537	-633.9
3962.072	-636.9
3964.606	-628.9
3967.137	-641.9
3969.667	-636.9
3972.194	-630.9
3974.72	-636.9
3977.244	-628.9
3979.766	-629.9
3982.286	-628.9
3984.805	-619.9
3987.321	-620.9
3989.836	-625.9
3992.349	-629.9
3994.86	-618.9
3997.369	-631.9
3999.877	-620.9
4002.382	-623.9
4004.886	-623.9
4007.388	-625.9
4009.888	-621.9
4012.386	-620.9
4014.883	-624.9
4017.377	-626.9
4019.87	-622.9
4022.361	-629.9
4024.85	-634.9
4027.338	-626.9
4029.823	-625.9
4032.307	-629.9
4034.789	-631.9
4037.269	-638.9
4039.747	-630.9
4042.224	-622.9
4044.699	-631.9
4047.172	-628.9
4049.643	-623.9
4052.112	-624.9
4054.58	-621.9
4057.046	-628.9
4059.51	-626.9
4061.972	-632.9
4064.432	-628.9
4066.891	-628.9
4069.348	-627.9
4071.803	-630.9
4074.256	-626.9
4076.708	-625.9
4079.158	-631.9
4081.606	-625.9
4084.052	-628.9
4086.497	-634.9
4088.939	-620.9
4091.38	-621.9
4093.819	-625.9
4096.257	-656.9
4098.693	-659.9
4101.127	-660.9
4103.559	-660.9
4105.989	-393.9
4108.418	-377.9
4110.845	-354.9
4113.27	-333.9
4115.694	-286.9
4118.115	-242.9
4120.535	-624.9
4122.954	-631.9
4125.37	-626.9
4127.785	-625.9
4130.198	-633.9
4132.609	-621.9
4135.019	-662.9
4137.427	-660.9
4139.833	-659.9
4142.237	-655.9
