Data from 2018-2-7_conc=02_RamanShift_15.txt Node
Date: Tue Feb 13 11:36:44 IST 2018
User: aro
Spectrometer: QEPB0276
Trigger mode: 0
Integration Time (sec): 3.000000E1
Scans to average: 1
Electric dark correction enabled: true
Nonlinearity correction enabled: false
Boxcar width: 0
XAxis mode: Raman Shifts
Number of Pixels in Spectrum: 1044
>>>>>Begin Spectral Data<<<<<
160.701	-157.4
166.742	33.6
172.777	598.6
178.805	2254.6
184.826	6197.6
190.841	12732.6
196.849	20022.6
202.85	25072.6
208.845	26647.6
214.833	26356.6
220.815	25955.6
226.789	25707.6
232.758	25632.6
238.719	25457.6
244.674	25142.6
250.623	24635.6
256.565	24155.6
262.5	23650.6
268.429	23270.6
274.351	22965.6
280.267	22632.6
286.176	22392.6
292.079	22201.6
297.975	22015.6
303.865	21740.6
309.748	21624.6
315.625	21452.6
321.495	21439.6
327.359	21340.6
333.217	21300.6
339.068	21245.6
344.912	21261.6
350.751	21271.6
356.583	21188.6
362.408	21186.6
368.227	21166.6
374.04	21239.6
379.847	21231.6
385.647	21360.6
391.44	21385.6
397.228	21501.6
403.009	21574.6
408.784	21674.6
414.553	21750.6
420.315	21729.6
426.071	21851.6
431.821	21790.6
437.565	21752.6
443.302	21725.6
449.033	21605.6
454.758	21672.6
460.477	21598.6
466.189	21529.6
471.896	21515.6
477.596	21415.6
483.29	21430.6
488.978	21363.6
494.66	21301.6
500.335	21182.6
506.005	20990.6
511.668	20700.6
517.325	20554.6
522.977	20365.6
528.622	20130.6
534.261	20000.6
539.894	19993.6
545.521	19890.6
551.141	19796.6
556.756	19766.6
562.365	19757.6
567.968	19591.6
573.565	19502.6
579.155	19438.6
584.74	19327.6
590.319	19303.6
595.892	19264.6
601.459	19165.6
607.02	19015.6
612.575	18909.6
618.124	18865.6
623.667	18736.6
629.204	18656.6
634.735	18525.6
640.261	18484.6
645.781	18374.6
651.294	18426.6
656.802	18385.6
662.304	18344.6
667.8	18302.6
673.29	18299.6
678.775	18264.6
684.254	18202.6
689.726	18107.6
695.193	18060.6
700.655	17970.6
706.11	17872.6
711.56	17815.6
717.004	17747.6
722.442	17643.6
727.874	17600.6
733.301	17527.6
738.722	17436.6
744.137	17461.6
749.547	17445.6
754.951	17474.6
760.349	17450.6
765.741	17446.6
771.128	17472.6
776.509	17493.6
781.885	17503.6
787.254	17403.6
792.618	17298.6
797.977	17245.6
803.33	17136.6
808.677	17046.6
814.019	16966.6
819.355	16813.6
824.686	16815.6
830.011	16696.6
835.33	16706.6
840.644	16823.6
845.952	16800.6
851.255	16853.6
856.552	16854.6
861.844	16818.6
867.13	16757.6
872.41	16695.6
877.686	16610.6
882.955	16529.6
888.219	16309.6
893.478	16197.6
898.731	15931.6
903.979	15872.6
909.221	15727.6
914.458	15668.6
919.69	15707.6
924.916	15719.6
930.136	15759.6
935.351	15772.6
940.561	15811.6
945.766	15767.6
950.965	15647.6
956.158	15599.6
961.347	15384.6
966.529	15233.6
971.707	14980.6
976.879	14836.6
982.046	14696.6
987.208	14709.6
992.364	14731.6
997.515	14782.6
1002.66	14910.6
1007.801	15026.6
1012.936	15216.6
1018.066	15163.6
1023.19	15196.6
1028.309	15136.6
1033.423	15159.6
1038.532	15066.6
1043.636	14912.6
1048.734	14761.6
1053.827	14571.6
1058.915	14424.6
1063.998	14322.6
1069.075	14274.6
1074.147	14290.6
1079.214	14371.6
1084.276	14417.6
1089.333	14463.6
1094.385	14568.6
1099.431	14619.6
1104.472	14611.6
1109.509	14529.6
1114.54	14351.6
1119.565	14170.6
1124.586	14004.6
1129.602	13835.6
1134.613	13776.6
1139.618	13720.6
1144.619	13654.6
1149.614	13682.6
1154.604	13720.6
1159.589	13712.6
1164.57	13746.6
1169.545	13775.6
1174.515	13770.6
1179.48	13735.6
1184.44	13571.6
1189.395	13506.6
1194.345	13394.6
1199.29	13392.6
1204.23	13347.6
1209.165	13396.6
1214.095	13488.6
1219.021	13532.6
1223.941	13616.6
1228.856	13703.6
1233.766	13721.6
1238.672	13702.6
1243.572	13724.6
1248.467	13716.6
1253.358	13495.6
1258.244	13279.6
1263.124	13063.6
1268	12854.6
1272.871	12740.6
1277.737	12638.6
1282.599	12562.6
1287.455	12556.6
1292.306	12583.6
1297.153	12615.6
1301.995	12728.6
1306.832	12731.6
1311.664	12741.6
1316.491	12664.6
1321.314	12565.6
1326.132	12319.6
1330.945	12058.6
1335.753	11804.6
1340.556	11531.6
1345.354	11270.6
1350.148	11129.6
1354.937	11084.6
1359.722	11006.6
1364.501	11108.6
1369.276	11231.6
1374.046	11408.6
1378.811	11550.6
1383.572	11630.6
1388.327	11669.6
1393.079	11626.6
1397.825	11487.6
1402.567	11317.6
1407.304	11180.6
1412.036	11065.6
1416.764	10987.6
1421.487	10910.6
1426.205	10867.6
1430.919	10848.6
1435.628	10804.6
1440.333	10867.6
1445.032	10878.6
1449.727	10925.6
1454.418	10881.6
1459.104	10730.6
1463.785	10523.6
1468.462	10308.6
1473.134	10068.6
1477.802	9885.6
1482.465	9688.6
1487.123	9621.6
1491.777	9592.6
1496.426	9638.6
1501.071	9759.6
1505.711	9926.6
1510.347	10104.6
1514.978	10241.6
1519.604	10419.6
1524.226	10535.6
1528.844	10528.6
1533.457	10497.6
1538.065	10474.6
1542.669	10388.6
1547.269	10328.6
1551.864	10216.6
1556.454	10169.6
1561.041	10187.6
1565.622	10194.6
1570.199	10226.6
1574.772	10246.6
1579.34	10339.6
1583.904	10372.6
1588.464	10353.6
1593.019	10439.6
1597.569	10364.6
1602.115	10295.6
1606.657	10178.6
1611.195	10180.6
1615.728	10070.6
1620.256	10025.6
1624.78	10015.6
1629.3	10022.6
1633.816	10084.6
1638.327	10112.6
1642.834	10131.6
1647.336	10185.6
1651.834	10161.6
1656.328	10212.6
1660.817	10109.6
1665.302	10029.6
1669.783	9849.6
1674.259	9607.6
1678.732	9368.6
1683.199	9034.6
1687.663	8723.6
1692.122	8464.6
1696.577	8409.6
1701.028	8354.6
1705.474	8421.6
1709.917	8505.6
1714.355	8550.6
1718.788	8450.6
1723.218	8363.6
1727.643	8203.6
1732.064	8061.6
1736.481	7884.6
1740.893	7711.6
1745.301	7480.6
1749.705	7310.6
1754.105	7082.6
1758.501	6865.6
1762.893	6674.6
1767.28	6488.6
1771.663	6352.6
1776.042	6303.6
1780.417	6206.6
1784.787	6229.6
1789.154	6305.6
1793.516	6407.6
1797.874	6514.6
1802.228	6659.6
1806.578	6697.6
1810.924	6681.6
1815.266	6624.6
1819.603	6534.6
1823.937	6432.6
1828.266	6327.6
1832.591	6259.6
1836.913	6160.6
1841.23	6083.6
1845.543	6064.6
1849.852	6023.6
1854.156	6014.6
1858.457	5992.6
1862.754	5999.6
1867.047	5967.6
1871.335	5975.6
1875.62	5951.6
1879.9	5874.6
1884.177	5899.6
1888.449	5848.6
1892.718	5779.6
1896.982	5731.6
1901.243	5678.6
1905.499	5613.6
1909.752	5608.6
1914	5592.6
1918.245	5637.6
1922.485	5658.6
1926.722	5726.6
1930.954	5782.6
1935.183	5837.6
1939.408	5897.6
1943.628	5944.6
1947.845	5960.6
1952.058	5911.6
1956.267	5913.6
1960.472	5825.6
1964.673	5713.6
1968.87	5653.6
1973.063	5542.6
1977.252	5468.6
1981.438	5394.6
1985.619	5364.6
1989.797	5327.6
1993.971	5277.6
1998.14	5254.6
2002.306	5267.6
2006.469	5243.6
2010.627	5207.6
2014.781	5180.6
2018.932	5109.6
2023.078	5084.6
2027.221	4984.6
2031.36	4908.6
2035.495	4823.6
2039.627	4753.6
2043.754	4714.6
2047.878	4677.6
2051.998	4632.6
2056.114	4595.6
2060.226	4603.6
2064.334	4615.6
2068.439	4631.6
2072.54	4684.6
2076.637	4687.6
2080.73	4694.6
2084.82	4731.6
2088.906	4753.6
2092.988	4780.6
2097.066	4754.6
2101.14	4722.6
2105.211	4698.6
2109.278	4648.6
2113.342	4632.6
2117.401	4618.6
2121.457	4597.6
2125.509	4543.6
2129.558	4544.6
2133.602	4500.6
2137.643	4482.6
2141.681	4448.6
2145.714	4422.6
2149.744	4390.6
2153.77	4357.6
2157.793	4293.6
2161.812	4280.6
2165.827	4188.6
2169.838	4135.6
2173.846	4091.6
2177.851	4006.6
2181.851	3959.6
2185.848	3881.6
2189.841	3887.6
2193.831	3795.6
2197.817	3801.6
2201.799	3790.6
2205.778	3768.6
2209.753	3776.6
2213.725	3752.6
2217.693	3721.6
2221.657	3704.6
2225.618	3729.6
2229.575	3686.6
2233.529	3662.6
2237.479	3636.6
2241.425	3574.6
2245.368	3535.6
2249.307	3476.6
2253.243	3428.6
2257.175	3383.6
2261.104	3333.6
2265.029	3286.6
2268.95	3252.6
2272.868	3236.6
2276.783	3181.6
2280.694	3169.6
2284.601	3147.6
2288.505	3121.6
2292.405	3110.6
2296.302	3044.6
2300.195	3007.6
2304.085	2974.6
2307.971	2924.6
2311.854	2890.6
2315.734	2837.6
2319.609	2826.6
2323.482	2748.6
2327.351	2762.6
2331.216	2749.6
2335.078	2715.6
2338.937	2722.6
2342.792	2692.6
2346.643	2684.6
2350.492	2679.6
2354.336	2697.6
2358.178	2722.6
2362.015	2704.6
2365.85	2713.6
2369.681	2696.6
2373.508	2705.6
2377.333	2724.6
2381.153	2692.6
2384.971	2688.6
2388.785	2664.6
2392.595	2655.6
2396.402	2596.6
2400.206	2597.6
2404.007	2567.6
2407.804	2532.6
2411.597	2534.6
2415.388	2538.6
2419.174	2498.6
2422.958	2492.6
2426.738	2499.6
2430.515	2454.6
2434.289	2447.6
2438.059	2417.6
2441.825	2392.6
2445.589	2362.6
2449.349	2345.6
2453.106	2311.6
2456.859	2270.6
2460.61	2243.6
2464.356	2209.6
2468.1	2199.6
2471.84	2196.6
2475.577	2168.6
2479.311	2134.6
2483.041	2137.6
2486.768	2106.6
2490.492	2112.6
2494.213	2113.6
2497.93	2076.6
2501.644	2089.6
2505.355	2065.6
2509.062	2061.6
2512.766	2029.6
2516.467	2048.6
2520.165	2025.6
2523.859	2024.6
2527.551	1999.6
2531.239	1988.6
2534.923	1956.6
2538.605	1963.6
2542.283	1955.6
2545.958	1972.6
2549.63	1943.6
2553.299	1929.6
2556.964	1933.6
2560.626	1931.6
2564.285	1924.6
2567.941	1912.6
2571.594	1866.6
2575.243	1914.6
2578.89	1886.6
2582.533	1875.6
2586.173	1849.6
2589.809	1830.6
2593.443	1822.6
2597.073	1820.6
2600.701	1821.6
2604.325	1754.6
2607.946	1775.6
2611.564	1758.6
2615.178	1740.6
2618.79	1720.6
2622.398	1700.6
2626.004	1708.6
2629.606	1682.6
2633.205	1637.6
2636.801	1624.6
2640.394	1608.6
2643.983	1564.6
2647.57	1547.6
2651.153	1543.6
2654.734	1511.6
2658.311	1492.6
2661.885	1474.6
2665.456	1451.6
2669.025	1440.6
2672.589	1412.6
2676.151	1392.6
2679.71	1379.6
2683.266	1385.6
2686.819	1339.6
2690.368	1286.6
2693.915	1282.6
2697.458	1252.6
2700.999	1204.6
2704.536	1181.6
2708.071	1175.6
2711.602	1132.6
2715.13	1130.6
2718.656	1100.6
2722.178	1064.6
2725.697	1065.6
2729.214	1047.6
2732.727	1042.6
2736.237	1035.6
2739.744	1029.6
2743.249	1014.6
2746.75	1028.6
2750.248	1045.6
2753.743	1047.6
2757.236	1054.6
2760.725	1065.6
2764.211	1096.6
2767.695	1089.6
2771.175	1078.6
2774.652	1080.6
2778.127	1083.6
2781.598	1069.6
2785.067	1061.6
2788.532	1065.6
2791.995	1052.6
2795.455	1047.6
2798.911	1053.6
2802.365	1066.6
2805.816	1049.6
2809.264	1061.6
2812.709	1061.6
2816.151	1039.6
2819.59	1049.6
2823.026	1052.6
2826.46	1049.6
2829.89	1034.6
2833.318	1034.6
2836.742	1047.6
2840.164	1059.6
2843.583	1087.6
2846.999	1080.6
2850.412	1078.6
2853.822	1109.6
2857.229	1123.6
2860.634	1146.6
2864.035	1171.6
2867.434	1176.6
2870.83	1186.6
2874.223	1209.6
2877.613	1221.6
2881	1227.6
2884.385	1256.6
2887.766	1242.6
2891.145	1234.6
2894.521	1243.6
2897.894	1217.6
2901.264	1236.6
2904.631	1222.6
2907.996	1239.6
2911.358	1248.6
2914.717	1250.6
2918.073	1261.6
2921.426	1275.6
2924.777	1286.6
2928.124	1309.6
2931.469	1320.6
2934.811	1337.6
2938.15	1363.6
2941.487	1358.6
2944.821	1375.6
2948.152	1380.6
2951.48	1371.6
2954.805	1374.6
2958.128	1338.6
2961.447	1336.6
2964.765	1331.6
2968.079	1336.6
2971.39	1319.6
2974.699	1363.6
2978.005	1371.6
2981.308	1398.6
2984.609	1440.6
2987.907	1434.6
2991.202	1476.6
2994.494	1507.6
2997.784	1529.6
3001.07	1554.6
3004.355	1580.6
3007.636	1577.6
3010.915	1637.6
3014.191	1625.6
3017.464	1659.6
3020.734	1657.6
3024.002	1656.6
3027.267	1663.6
3030.53	1683.6
3033.789	1697.6
3037.046	1742.6
3040.301	1738.6
3043.552	1779.6
3046.801	1812.6
3050.048	1835.6
3053.291	1917.6
3056.532	1969.6
3059.771	2022.6
3063.006	2071.6
3066.239	2096.6
3069.469	2197.6
3072.697	2250.6
3075.922	2301.6
3079.144	2366.6
3082.364	2399.6
3085.581	2439.6
3088.795	2491.6
3092.007	2565.6
3095.216	2617.6
3098.423	2676.6
3101.627	2732.6
3104.828	2791.6
3108.026	2840.6
3111.222	2921.6
3114.416	2989.6
3117.607	3061.6
3120.795	3115.6
3123.98	3196.6
3127.163	3264.6
3130.344	3351.6
3133.521	3424.6
3136.696	3500.6
3139.869	3584.6
3143.039	3623.6
3146.206	3667.6
3149.371	3730.6
3152.533	3749.6
3155.693	3785.6
3158.85	3806.6
3162.005	3821.6
3165.157	3839.6
3168.306	3848.6
3171.453	3846.6
3174.597	3856.6
3177.739	3842.6
3180.878	3857.6
3184.014	3881.6
3187.149	3893.6
3190.28	3880.6
3193.409	3897.6
3196.536	3891.6
3199.659	3869.6
3202.781	3888.6
3205.9	3874.6
3209.016	3894.6
3212.13	3878.6
3215.241	3871.6
3218.35	3829.6
3221.456	3771.6
3224.56	3728.6
3227.661	3680.6
3230.76	3672.6
3233.856	3631.6
3236.95	3599.6
3240.041	3523.6
3243.13	3504.6
3246.216	3486.6
3249.3	3500.6
3252.382	3452.6
3255.46	3463.6
3258.537	3451.6
3261.611	3454.6
3264.682	3408.6
3267.751	3447.6
3270.818	3459.6
3273.882	3407.6
3276.943	3403.6
3280.002	3391.6
3283.059	3340.6
3286.113	3289.6
3289.165	3260.6
3292.214	3219.6
3295.261	3170.6
3298.306	3112.6
3301.348	3054.6
3304.387	2970.6
3307.425	2939.6
3310.459	2912.6
3313.492	2867.6
3316.521	2814.6
3319.549	2800.6
3322.574	2775.6
3325.597	2750.6
3328.617	2743.6
3331.635	2685.6
3334.65	2672.6
3337.663	2670.6
3340.674	2646.6
3343.682	2633.6
3346.688	2634.6
3349.691	2640.6
3352.692	2616.6
3355.691	2599.6
3358.687	2573.6
3361.681	2524.6
3364.673	2514.6
3367.662	2469.6
3370.649	2442.6
3373.633	2402.6
3376.615	2375.6
3379.595	2333.6
3382.572	2307.6
3385.547	2261.6
3388.52	2239.6
3391.49	2191.6
3394.458	2161.6
3397.424	2127.6
3400.387	2103.6
3403.348	2079.6
3406.307	2060.6
3409.263	2028.6
3412.217	2009.6
3415.168	1978.6
3418.118	1978.6
3421.065	1914.6
3424.009	1893.6
3426.951	1849.6
3429.891	1820.6
3432.829	1794.6
3435.764	1743.6
3438.697	1699.6
3441.628	1665.6
3444.557	1618.6
3447.483	1557.6
3450.407	1506.6
3453.328	1461.6
3456.247	1385.6
3459.164	1350.6
3462.079	1303.6
3464.991	1253.6
3467.902	1213.6
3470.809	1155.6
3473.715	1104.6
3476.618	1059.6
3479.519	1048.6
3482.418	995.6
3485.315	956.6
3488.209	926.6
3491.101	902.6
3493.99	863.6
3496.878	837.6
3499.763	777.6
3502.646	759.6
3505.527	711.6
3508.405	684.6
3511.281	640.6
3514.155	621.6
3517.027	563.6
3519.897	519.6
3522.764	488.6
3525.629	450.6
3528.492	410.6
3531.352	366.6
3534.211	345.6
3537.067	289.6
3539.921	262.6
3542.773	247.6
3545.622	196.6
3548.469	165.6
3551.315	145.6
3554.157	106.6
3556.998	100.6
3559.837	59.6
3562.673	40.6
3565.507	26.6
3568.339	0.6
3571.169	-23.4
3573.996	-30.4
3576.822	-64.4
3579.645	-78.4
3582.466	-107.4
3585.285	-107.4
3588.101	-135.4
3590.916	-151.4
3593.728	-175.4
3596.538	-188.4
3599.346	-205.4
3602.152	-221.4
3604.956	-241.4
3607.757	-243.4
3610.556	-266.4
3613.354	-273.4
3616.149	-295.4
3618.942	-304.4
3621.732	-319.4
3624.521	-329.4
3627.307	-331.4
3630.092	-342.4
3632.874	-354.4
3635.654	-368.4
3638.432	-369.4
3641.208	-369.4
3643.982	-388.4
3646.753	-398.4
3649.523	-410.4
3652.29	-417.4
3655.055	-427.4
3657.818	-438.4
3660.579	-448.4
3663.338	-451.4
3666.095	-463.4
3668.849	-474.4
3671.602	-482.4
3674.352	-488.4
3677.101	-495.4
3679.847	-509.4
3682.591	-498.4
3685.333	-510.4
3688.073	-516.4
3690.811	-522.4
3693.547	-521.4
3696.281	-535.4
3699.013	-540.4
3701.742	-535.4
3704.47	-543.4
3707.195	-554.4
3709.919	-554.4
3712.64	-561.4
3715.359	-568.4
3718.076	-565.4
3720.792	-571.4
3723.505	-571.4
3726.216	-578.4
3728.925	-577.4
3731.632	-584.4
3734.336	-588.4
3737.039	-592.4
3739.74	-589.4
3742.439	-594.4
3745.136	-591.4
3747.83	-599.4
3750.523	-597.4
3753.213	-609.4
3755.902	-605.4
3758.589	-597.4
3761.273	-604.4
3763.956	-614.4
3766.636	-606.4
3769.315	-613.4
3771.991	-612.4
3774.665	-614.4
3777.338	-612.4
3780.008	-617.4
3782.677	-616.4
3785.343	-619.4
3788.007	-611.4
3790.67	-613.4
3793.33	-629.4
3795.989	-630.4
3798.645	-629.4
3801.299	-628.4
3803.952	-628.4
3806.602	-638.4
3809.251	-637.4
3811.897	-629.4
3814.542	-627.4
3817.184	-629.4
3819.825	-626.4
3822.463	-631.4
3825.1	-631.4
3827.735	-639.4
3830.367	-632.4
3832.998	-642.4
3835.627	-640.4
3838.253	-641.4
3840.878	-639.4
3843.501	-643.4
3846.122	-642.4
3848.741	-639.4
3851.358	-651.4
3853.973	-642.4
3856.586	-644.4
3859.197	-649.4
3861.806	-647.4
3864.414	-641.4
3867.019	-636.4
3869.622	-644.4
3872.224	-636.4
3874.823	-627.4
3877.421	-614.4
3880.016	-601.4
3882.61	-580.4
3885.202	-584.4
3887.792	-602.4
3890.38	-616.4
3892.966	-633.4
3895.55	-639.4
3898.132	-647.4
3900.713	-656.4
3903.291	-656.4
3905.868	-653.4
3908.442	-656.4
3911.015	-652.4
3913.586	-660.4
3916.155	-656.4
3918.722	-653.4
3921.287	-655.4
3923.85	-650.4
3926.411	-657.4
3928.971	-660.4
3931.528	-656.4
3934.084	-650.4
3936.638	-651.4
3939.19	-659.4
3941.74	-667.4
3944.288	-663.4
3946.834	-664.4
3949.378	-661.4
3951.921	-664.4
3954.462	-662.4
3957	-654.4
3959.537	-651.4
3962.072	-657.4
3964.606	-651.4
3967.137	-657.4
3969.667	-658.4
3972.194	-649.4
3974.72	-650.4
3977.244	-651.4
3979.766	-645.4
3982.286	-654.4
3984.805	-643.4
3987.321	-645.4
3989.836	-647.4
3992.349	-645.4
3994.86	-646.4
3997.369	-652.4
3999.877	-648.4
4002.382	-642.4
4004.886	-648.4
4007.388	-644.4
4009.888	-643.4
4012.386	-643.4
4014.883	-639.4
4017.377	-643.4
4019.87	-641.4
4022.361	-643.4
4024.85	-646.4
4027.338	-650.4
4029.823	-641.4
4032.307	-646.4
4034.789	-651.4
4037.269	-662.4
4039.747	-656.4
4042.224	-643.4
4044.699	-651.4
4047.172	-657.4
4049.643	-645.4
4052.112	-647.4
4054.58	-641.4
4057.046	-652.4
4059.51	-648.4
4061.972	-650.4
4064.432	-645.4
4066.891	-647.4
4069.348	-651.4
4071.803	-651.4
4074.256	-646.4
4076.708	-644.4
4079.158	-649.4
4081.606	-648.4
4084.052	-647.4
4086.497	-653.4
4088.939	-639.4
4091.38	-639.4
4093.819	-646.4
4096.257	-681.4
4098.693	-686.4
4101.127	-683.4
4103.559	-687.4
4105.989	-409.4
4108.418	-389.4
4110.845	-358.4
4113.27	-332.4
4115.694	-294.4
4118.115	-252.4
4120.535	-645.4
4122.954	-651.4
4125.37	-644.4
4127.785	-648.4
4130.198	-648.4
4132.609	-644.4
4135.019	-683.4
4137.427	-683.4
4139.833	-680.4
4142.237	-682.4
