Data from 2018-2-7_conc=02_RamanShift_14.txt Node
Date: Tue Feb 13 11:35:14 IST 2018
User: aro
Spectrometer: QEPB0276
Trigger mode: 0
Integration Time (sec): 3.000000E1
Scans to average: 1
Electric dark correction enabled: true
Nonlinearity correction enabled: false
Boxcar width: 0
XAxis mode: Raman Shifts
Number of Pixels in Spectrum: 1044
>>>>>Begin Spectral Data<<<<<
160.701	-155.2
166.742	32.8
172.777	584.8
178.805	2201.8
184.826	5995.8
190.841	12381.8
196.849	19546.8
202.85	24452.8
208.845	26032.8
214.833	25681.8
220.815	25235.8
226.789	25020.8
232.758	24979.8
238.719	24753.8
244.674	24357.8
250.623	23954.8
256.565	23435.8
262.5	22964.8
268.429	22517.8
274.351	22100.8
280.267	21814.8
286.176	21591.8
292.079	21378.8
297.975	21154.8
303.865	20977.8
309.748	20855.8
315.625	20616.8
321.495	20650.8
327.359	20502.8
333.217	20498.8
339.068	20404.8
344.912	20420.8
350.751	20370.8
356.583	20423.8
362.408	20334.8
368.227	20364.8
374.04	20443.8
379.847	20497.8
385.647	20522.8
391.44	20592.8
397.228	20650.8
403.009	20723.8
408.784	20791.8
414.553	20844.8
420.315	20874.8
426.071	20959.8
431.821	20933.8
437.565	20870.8
443.302	20889.8
449.033	20831.8
454.758	20790.8
460.477	20727.8
466.189	20661.8
471.896	20651.8
477.596	20615.8
483.29	20537.8
488.978	20514.8
494.66	20449.8
500.335	20298.8
506.005	20059.8
511.668	19811.8
517.325	19606.8
522.977	19426.8
528.622	19320.8
534.261	19218.8
539.894	19101.8
545.521	19006.8
551.141	18966.8
556.756	18869.8
562.365	18853.8
567.968	18775.8
573.565	18728.8
579.155	18670.8
584.74	18561.8
590.319	18459.8
595.892	18382.8
601.459	18380.8
607.02	18293.8
612.575	18182.8
618.124	18016.8
623.667	17955.8
629.204	17856.8
634.735	17803.8
640.261	17640.8
645.781	17623.8
651.294	17580.8
656.802	17597.8
662.304	17542.8
667.8	17489.8
673.29	17506.8
678.775	17486.8
684.254	17422.8
689.726	17337.8
695.193	17282.8
700.655	17204.8
706.11	17144.8
711.56	17045.8
717.004	17009.8
722.442	16866.8
727.874	16821.8
733.301	16787.8
738.722	16713.8
744.137	16713.8
749.547	16638.8
754.951	16677.8
760.349	16663.8
765.741	16702.8
771.128	16705.8
776.509	16696.8
781.885	16756.8
787.254	16640.8
792.618	16623.8
797.977	16536.8
803.33	16387.8
808.677	16301.8
814.019	16164.8
819.355	16113.8
824.686	16044.8
830.011	16009.8
835.33	16071.8
840.644	16065.8
845.952	16043.8
851.255	16120.8
856.552	16108.8
861.844	16087.8
867.13	16053.8
872.41	16022.8
877.686	15879.8
882.955	15809.8
888.219	15653.8
893.478	15482.8
898.731	15305.8
903.979	15152.8
909.221	15055.8
914.458	14969.8
919.69	14950.8
924.916	15004.8
930.136	15098.8
935.351	15081.8
940.561	15053.8
945.766	15079.8
950.965	15009.8
956.158	14866.8
961.347	14734.8
966.529	14528.8
971.707	14351.8
976.879	14210.8
982.046	14077.8
987.208	14033.8
992.364	14050.8
997.515	14077.8
1002.66	14297.8
1007.801	14432.8
1012.936	14513.8
1018.066	14546.8
1023.19	14545.8
1028.309	14517.8
1033.423	14486.8
1038.532	14415.8
1043.636	14225.8
1048.734	14130.8
1053.827	13979.8
1058.915	13790.8
1063.998	13622.8
1069.075	13633.8
1074.147	13675.8
1079.214	13731.8
1084.276	13854.8
1089.333	13901.8
1094.385	13979.8
1099.431	13955.8
1104.472	14026.8
1109.509	13898.8
1114.54	13792.8
1119.565	13558.8
1124.586	13435.8
1129.602	13263.8
1134.613	13215.8
1139.618	13141.8
1144.619	13045.8
1149.614	13086.8
1154.604	13147.8
1159.589	13171.8
1164.57	13179.8
1169.545	13210.8
1174.515	13213.8
1179.48	13101.8
1184.44	13044.8
1189.395	12947.8
1194.345	12816.8
1199.29	12831.8
1204.23	12776.8
1209.165	12817.8
1214.095	12900.8
1219.021	12975.8
1223.941	13050.8
1228.856	13120.8
1233.766	13175.8
1238.672	13162.8
1243.572	13187.8
1248.467	13094.8
1253.358	12934.8
1258.244	12750.8
1263.124	12582.8
1268	12352.8
1272.871	12209.8
1277.737	12131.8
1282.599	12051.8
1287.455	12075.8
1292.306	12123.8
1297.153	12140.8
1301.995	12245.8
1306.832	12240.8
1311.664	12253.8
1316.491	12228.8
1321.314	12054.8
1326.132	11908.8
1330.945	11647.8
1335.753	11300.8
1340.556	11059.8
1345.354	10883.8
1350.148	10673.8
1354.937	10643.8
1359.722	10580.8
1364.501	10568.8
1369.276	10734.8
1374.046	10869.8
1378.811	11019.8
1383.572	11142.8
1388.327	11219.8
1393.079	11132.8
1397.825	11021.8
1402.567	10800.8
1407.304	10713.8
1412.036	10605.8
1416.764	10562.8
1421.487	10530.8
1426.205	10440.8
1430.919	10417.8
1435.628	10417.8
1440.333	10430.8
1445.032	10421.8
1449.727	10493.8
1454.418	10429.8
1459.104	10337.8
1463.785	10089.8
1468.462	9930.8
1473.134	9701.8
1477.802	9515.8
1482.465	9320.8
1487.123	9248.8
1491.777	9210.8
1496.426	9257.8
1501.071	9314.8
1505.711	9478.8
1510.347	9638.8
1514.978	9779.8
1519.604	9907.8
1524.226	10019.8
1528.844	10015.8
1533.457	10029.8
1538.065	9931.8
1542.669	9890.8
1547.269	9847.8
1551.864	9814.8
1556.454	9817.8
1561.041	9796.8
1565.622	9757.8
1570.199	9801.8
1574.772	9835.8
1579.34	9936.8
1583.904	9954.8
1588.464	9976.8
1593.019	9980.8
1597.569	9984.8
1602.115	9888.8
1606.657	9886.8
1611.195	9804.8
1615.728	9710.8
1620.256	9686.8
1624.78	9666.8
1629.3	9700.8
1633.816	9707.8
1638.327	9768.8
1642.834	9782.8
1647.336	9849.8
1651.834	9885.8
1656.328	9839.8
1660.817	9773.8
1665.302	9626.8
1669.783	9482.8
1674.259	9217.8
1678.732	8992.8
1683.199	8679.8
1687.663	8375.8
1692.122	8167.8
1696.577	8014.8
1701.028	7956.8
1705.474	8007.8
1709.917	8081.8
1714.355	8122.8
1718.788	8077.8
1723.218	7960.8
1727.643	7832.8
1732.064	7689.8
1736.481	7456.8
1740.893	7347.8
1745.301	7137.8
1749.705	6953.8
1754.105	6735.8
1758.501	6541.8
1762.893	6367.8
1767.28	6241.8
1771.663	6090.8
1776.042	5970.8
1780.417	5906.8
1784.787	5932.8
1789.154	6016.8
1793.516	6059.8
1797.874	6205.8
1802.228	6302.8
1806.578	6354.8
1810.924	6342.8
1815.266	6340.8
1819.603	6222.8
1823.937	6110.8
1828.266	6011.8
1832.591	5921.8
1836.913	5848.8
1841.23	5819.8
1845.543	5758.8
1849.852	5779.8
1854.156	5738.8
1858.457	5711.8
1862.754	5731.8
1867.047	5712.8
1871.335	5757.8
1875.62	5652.8
1879.9	5655.8
1884.177	5628.8
1888.449	5546.8
1892.718	5519.8
1896.982	5439.8
1901.243	5378.8
1905.499	5328.8
1909.752	5323.8
1914	5332.8
1918.245	5298.8
1922.485	5346.8
1926.722	5417.8
1930.954	5463.8
1935.183	5541.8
1939.408	5617.8
1943.628	5604.8
1947.845	5638.8
1952.058	5608.8
1956.267	5586.8
1960.472	5530.8
1964.673	5414.8
1968.87	5381.8
1973.063	5286.8
1977.252	5235.8
1981.438	5196.8
1985.619	5077.8
1989.797	5035.8
1993.971	5016.8
1998.14	5018.8
2002.306	4991.8
2006.469	4997.8
2010.627	4954.8
2014.781	4913.8
2018.932	4867.8
2023.078	4846.8
2027.221	4782.8
2031.36	4725.8
2035.495	4612.8
2039.627	4558.8
2043.754	4499.8
2047.878	4450.8
2051.998	4424.8
2056.114	4423.8
2060.226	4406.8
2064.334	4432.8
2068.439	4425.8
2072.54	4461.8
2076.637	4461.8
2080.73	4474.8
2084.82	4541.8
2088.906	4551.8
2092.988	4526.8
2097.066	4554.8
2101.14	4518.8
2105.211	4473.8
2109.278	4455.8
2113.342	4427.8
2117.401	4398.8
2121.457	4340.8
2125.509	4339.8
2129.558	4335.8
2133.602	4285.8
2137.643	4285.8
2141.681	4254.8
2145.714	4249.8
2149.744	4202.8
2153.77	4188.8
2157.793	4155.8
2161.812	4105.8
2165.827	4014.8
2169.838	3989.8
2173.846	3938.8
2177.851	3836.8
2181.851	3775.8
2185.848	3725.8
2189.841	3722.8
2193.831	3661.8
2197.817	3655.8
2201.799	3622.8
2205.778	3612.8
2209.753	3599.8
2213.725	3606.8
2217.693	3576.8
2221.657	3583.8
2225.618	3557.8
2229.575	3531.8
2233.529	3483.8
2237.479	3468.8
2241.425	3428.8
2245.368	3386.8
2249.307	3339.8
2253.243	3294.8
2257.175	3275.8
2261.104	3203.8
2265.029	3169.8
2268.95	3138.8
2272.868	3114.8
2276.783	3057.8
2280.694	3047.8
2284.601	2996.8
2288.505	2971.8
2292.405	2968.8
2296.302	2915.8
2300.195	2920.8
2304.085	2867.8
2307.971	2836.8
2311.854	2774.8
2315.734	2752.8
2319.609	2726.8
2323.482	2675.8
2327.351	2667.8
2331.216	2648.8
2335.078	2641.8
2338.937	2631.8
2342.792	2611.8
2346.643	2618.8
2350.492	2597.8
2354.336	2607.8
2358.178	2594.8
2362.015	2599.8
2365.85	2611.8
2369.681	2609.8
2373.508	2634.8
2377.333	2650.8
2381.153	2607.8
2384.971	2600.8
2388.785	2570.8
2392.595	2551.8
2396.402	2545.8
2400.206	2525.8
2404.007	2488.8
2407.804	2487.8
2411.597	2431.8
2415.388	2444.8
2419.174	2433.8
2422.958	2422.8
2426.738	2386.8
2430.515	2387.8
2434.289	2347.8
2438.059	2346.8
2441.825	2332.8
2445.589	2305.8
2449.349	2274.8
2453.106	2227.8
2456.859	2214.8
2460.61	2197.8
2464.356	2179.8
2468.1	2123.8
2471.84	2134.8
2475.577	2085.8
2479.311	2086.8
2483.041	2073.8
2486.768	2060.8
2490.492	2069.8
2494.213	2035.8
2497.93	2042.8
2501.644	2031.8
2505.355	2008.8
2509.062	1997.8
2512.766	1974.8
2516.467	1981.8
2520.165	1992.8
2523.859	1959.8
2527.551	1928.8
2531.239	1928.8
2534.923	1910.8
2538.605	1886.8
2542.283	1902.8
2545.958	1902.8
2549.63	1887.8
2553.299	1871.8
2556.964	1882.8
2560.626	1866.8
2564.285	1855.8
2567.941	1857.8
2571.594	1837.8
2575.243	1859.8
2578.89	1837.8
2582.533	1806.8
2586.173	1792.8
2589.809	1780.8
2593.443	1754.8
2597.073	1744.8
2600.701	1744.8
2604.325	1728.8
2607.946	1703.8
2611.564	1697.8
2615.178	1676.8
2618.79	1681.8
2622.398	1668.8
2626.004	1655.8
2629.606	1633.8
2633.205	1614.8
2636.801	1572.8
2640.394	1567.8
2643.983	1550.8
2647.57	1532.8
2651.153	1497.8
2654.734	1467.8
2658.311	1451.8
2661.885	1445.8
2665.456	1410.8
2669.025	1410.8
2672.589	1381.8
2676.151	1360.8
2679.71	1342.8
2683.266	1328.8
2686.819	1302.8
2690.368	1280.8
2693.915	1258.8
2697.458	1231.8
2700.999	1191.8
2704.536	1173.8
2708.071	1156.8
2711.602	1125.8
2715.13	1092.8
2718.656	1068.8
2722.178	1043.8
2725.697	1042.8
2729.214	1031.8
2732.727	1002.8
2736.237	1021.8
2739.744	1006.8
2743.249	1008.8
2746.75	1011.8
2750.248	1023.8
2753.743	1013.8
2757.236	1037.8
2760.725	1043.8
2764.211	1062.8
2767.695	1064.8
2771.175	1044.8
2774.652	1057.8
2778.127	1041.8
2781.598	1029.8
2785.067	1019.8
2788.532	1020.8
2791.995	1038.8
2795.455	1023.8
2798.911	1040.8
2802.365	1041.8
2805.816	1032.8
2809.264	1027.8
2812.709	1026.8
2816.151	1030.8
2819.59	1025.8
2823.026	1028.8
2826.46	1031.8
2829.89	1032.8
2833.318	1026.8
2836.742	1028.8
2840.164	1046.8
2843.583	1055.8
2846.999	1060.8
2850.412	1059.8
2853.822	1063.8
2857.229	1089.8
2860.634	1100.8
2864.035	1131.8
2867.434	1165.8
2870.83	1168.8
2874.223	1195.8
2877.613	1204.8
2881	1234.8
2884.385	1230.8
2887.766	1210.8
2891.145	1224.8
2894.521	1213.8
2897.894	1215.8
2901.264	1212.8
2904.631	1203.8
2907.996	1221.8
2911.358	1230.8
2914.717	1232.8
2918.073	1237.8
2921.426	1252.8
2924.777	1272.8
2928.124	1283.8
2931.469	1314.8
2934.811	1365.8
2938.15	1337.8
2941.487	1367.8
2944.821	1363.8
2948.152	1364.8
2951.48	1370.8
2954.805	1332.8
2958.128	1325.8
2961.447	1306.8
2964.765	1292.8
2968.079	1304.8
2971.39	1333.8
2974.699	1347.8
2978.005	1366.8
2981.308	1386.8
2984.609	1401.8
2987.907	1434.8
2991.202	1431.8
2994.494	1456.8
2997.784	1495.8
3001.07	1534.8
3004.355	1561.8
3007.636	1572.8
3010.915	1598.8
3014.191	1605.8
3017.464	1602.8
3020.734	1631.8
3024.002	1639.8
3027.267	1662.8
3030.53	1656.8
3033.789	1674.8
3037.046	1713.8
3040.301	1728.8
3043.552	1754.8
3046.801	1808.8
3050.048	1843.8
3053.291	1900.8
3056.532	1938.8
3059.771	1974.8
3063.006	2043.8
3066.239	2119.8
3069.469	2164.8
3072.697	2220.8
3075.922	2278.8
3079.144	2328.8
3082.364	2389.8
3085.581	2432.8
3088.795	2468.8
3092.007	2529.8
3095.216	2575.8
3098.423	2646.8
3101.627	2701.8
3104.828	2757.8
3108.026	2821.8
3111.222	2876.8
3114.416	2940.8
3117.607	3007.8
3120.795	3068.8
3123.98	3111.8
3127.163	3222.8
3130.344	3295.8
3133.521	3369.8
3136.696	3455.8
3139.869	3516.8
3143.039	3584.8
3146.206	3621.8
3149.371	3678.8
3152.533	3710.8
3155.693	3731.8
3158.85	3756.8
3162.005	3762.8
3165.157	3765.8
3168.306	3773.8
3171.453	3808.8
3174.597	3828.8
3177.739	3792.8
3180.878	3795.8
3184.014	3840.8
3187.149	3820.8
3190.28	3827.8
3193.409	3854.8
3196.536	3837.8
3199.659	3827.8
3202.781	3862.8
3205.9	3853.8
3209.016	3845.8
3212.13	3790.8
3215.241	3773.8
3218.35	3755.8
3221.456	3702.8
3224.56	3684.8
3227.661	3641.8
3230.76	3629.8
3233.856	3575.8
3236.95	3552.8
3240.041	3500.8
3243.13	3482.8
3246.216	3457.8
3249.3	3429.8
3252.382	3412.8
3255.46	3421.8
3258.537	3397.8
3261.611	3417.8
3264.682	3396.8
3267.751	3381.8
3270.818	3389.8
3273.882	3345.8
3276.943	3326.8
3280.002	3310.8
3283.059	3297.8
3286.113	3272.8
3289.165	3196.8
3292.214	3179.8
3295.261	3108.8
3298.306	3086.8
3301.348	3030.8
3304.387	2971.8
3307.425	2953.8
3310.459	2871.8
3313.492	2852.8
3316.521	2798.8
3319.549	2797.8
3322.574	2741.8
3325.597	2716.8
3328.617	2714.8
3331.635	2682.8
3334.65	2667.8
3337.663	2654.8
3340.674	2614.8
3343.682	2636.8
3346.688	2619.8
3349.691	2591.8
3352.692	2586.8
3355.691	2562.8
3358.687	2538.8
3361.681	2511.8
3364.673	2491.8
3367.662	2443.8
3370.649	2406.8
3373.633	2381.8
3376.615	2341.8
3379.595	2306.8
3382.572	2277.8
3385.547	2233.8
3388.52	2216.8
3391.49	2168.8
3394.458	2141.8
3397.424	2109.8
3400.387	2080.8
3403.348	2047.8
3406.307	2038.8
3409.263	2017.8
3412.217	1995.8
3415.168	1969.8
3418.118	1935.8
3421.065	1895.8
3424.009	1872.8
3426.951	1852.8
3429.891	1828.8
3432.829	1789.8
3435.764	1741.8
3438.697	1670.8
3441.628	1645.8
3444.557	1587.8
3447.483	1519.8
3450.407	1496.8
3453.328	1439.8
3456.247	1388.8
3459.164	1336.8
3462.079	1292.8
3464.991	1252.8
3467.902	1194.8
3470.809	1149.8
3473.715	1107.8
3476.618	1052.8
3479.519	1037.8
3482.418	974.8
3485.315	972.8
3488.209	902.8
3491.101	887.8
3493.99	851.8
3496.878	820.8
3499.763	769.8
3502.646	758.8
3505.527	718.8
3508.405	691.8
3511.281	637.8
3514.155	587.8
3517.027	570.8
3519.897	528.8
3522.764	480.8
3525.629	448.8
3528.492	399.8
3531.352	361.8
3534.211	327.8
3537.067	292.8
3539.921	259.8
3542.773	229.8
3545.622	205.8
3548.469	175.8
3551.315	148.8
3554.157	122.8
3556.998	97.8
3559.837	79.8
3562.673	53.8
3565.507	28.8
3568.339	3.8
3571.169	-19.2
3573.996	-28.2
3576.822	-55.2
3579.645	-69.2
3582.466	-86.2
3585.285	-109.2
3588.101	-123.2
3590.916	-146.2
3593.728	-168.2
3596.538	-170.2
3599.346	-201.2
3602.152	-206.2
3604.956	-234.2
3607.757	-241.2
3610.556	-261.2
3613.354	-271.2
3616.149	-278.2
3618.942	-297.2
3621.732	-306.2
3624.521	-318.2
3627.307	-326.2
3630.092	-335.2
3632.874	-342.2
3635.654	-351.2
3638.432	-357.2
3641.208	-375.2
3643.982	-375.2
3646.753	-381.2
3649.523	-393.2
3652.29	-400.2
3655.055	-411.2
3657.818	-420.2
3660.579	-433.2
3663.338	-439.2
3666.095	-456.2
3668.849	-462.2
3671.602	-473.2
3674.352	-477.2
3677.101	-485.2
3679.847	-489.2
3682.591	-495.2
3685.333	-500.2
3688.073	-502.2
3690.811	-504.2
3693.547	-510.2
3696.281	-526.2
3699.013	-521.2
3701.742	-524.2
3704.47	-527.2
3707.195	-542.2
3709.919	-543.2
3712.64	-547.2
3715.359	-551.2
3718.076	-551.2
3720.792	-555.2
3723.505	-566.2
3726.216	-560.2
3728.925	-562.2
3731.632	-573.2
3734.336	-572.2
3737.039	-581.2
3739.74	-577.2
3742.439	-576.2
3745.136	-578.2
3747.83	-581.2
3750.523	-579.2
3753.213	-596.2
3755.902	-590.2
3758.589	-596.2
3761.273	-593.2
3763.956	-599.2
3766.636	-601.2
3769.315	-599.2
3771.991	-597.2
3774.665	-598.2
3777.338	-598.2
3780.008	-601.2
3782.677	-598.2
3785.343	-601.2
3788.007	-602.2
3790.67	-608.2
3793.33	-611.2
3795.989	-611.2
3798.645	-618.2
3801.299	-615.2
3803.952	-619.2
3806.602	-614.2
3809.251	-621.2
3811.897	-614.2
3814.542	-611.2
3817.184	-617.2
3819.825	-619.2
3822.463	-614.2
3825.1	-624.2
3827.735	-625.2
3830.367	-621.2
3832.998	-623.2
3835.627	-627.2
3838.253	-629.2
3840.878	-632.2
3843.501	-629.2
3846.122	-631.2
3848.741	-633.2
3851.358	-632.2
3853.973	-627.2
3856.586	-628.2
3859.197	-628.2
3861.806	-628.2
3864.414	-623.2
3867.019	-627.2
3869.622	-627.2
3872.224	-625.2
3874.823	-615.2
3877.421	-599.2
3880.016	-591.2
3882.61	-563.2
3885.202	-566.2
3887.792	-584.2
3890.38	-606.2
3892.966	-620.2
3895.55	-629.2
3898.132	-633.2
3900.713	-638.2
3903.291	-635.2
3905.868	-638.2
3908.442	-642.2
3911.015	-638.2
3913.586	-646.2
3916.155	-642.2
3918.722	-642.2
3921.287	-646.2
3923.85	-645.2
3926.411	-645.2
3928.971	-644.2
3931.528	-643.2
3934.084	-639.2
3936.638	-646.2
3939.19	-650.2
3941.74	-651.2
3944.288	-650.2
3946.834	-653.2
3949.378	-645.2
3951.921	-648.2
3954.462	-641.2
3957	-636.2
3959.537	-639.2
3962.072	-643.2
3964.606	-642.2
3967.137	-647.2
3969.667	-646.2
3972.194	-638.2
3974.72	-636.2
3977.244	-635.2
3979.766	-639.2
3982.286	-632.2
3984.805	-628.2
3987.321	-630.2
3989.836	-629.2
3992.349	-631.2
3994.86	-635.2
3997.369	-639.2
3999.877	-629.2
4002.382	-627.2
4004.886	-640.2
4007.388	-632.2
4009.888	-631.2
4012.386	-635.2
4014.883	-629.2
4017.377	-630.2
4019.87	-631.2
4022.361	-636.2
4024.85	-631.2
4027.338	-634.2
4029.823	-629.2
4032.307	-633.2
4034.789	-636.2
4037.269	-639.2
4039.747	-644.2
4042.224	-630.2
4044.699	-634.2
4047.172	-638.2
4049.643	-636.2
4052.112	-632.2
4054.58	-630.2
4057.046	-638.2
4059.51	-637.2
4061.972	-642.2
4064.432	-632.2
4066.891	-635.2
4069.348	-638.2
4071.803	-633.2
4074.256	-633.2
4076.708	-633.2
4079.158	-633.2
4081.606	-632.2
4084.052	-634.2
4086.497	-634.2
4088.939	-631.2
4091.38	-626.2
4093.819	-629.2
4096.257	-665.2
4098.693	-670.2
4101.127	-669.2
4103.559	-670.2
4105.989	-400.2
4108.418	-391.2
4110.845	-357.2
4113.27	-332.2
4115.694	-283.2
4118.115	-244.2
4120.535	-636.2
4122.954	-635.2
4125.37	-633.2
4127.785	-628.2
4130.198	-636.2
4132.609	-633.2
4135.019	-667.2
4137.427	-668.2
4139.833	-663.2
4142.237	-665.2
