Data from 2018-2-7_conc=2_RamanShift_10.txt Node
Date: Tue Feb 13 11:50:14 IST 2018
User: aro
Spectrometer: QEPB0276
Trigger mode: 0
Integration Time (sec): 3.000000E1
Scans to average: 1
Electric dark correction enabled: true
Nonlinearity correction enabled: false
Boxcar width: 0
XAxis mode: Raman Shifts
Number of Pixels in Spectrum: 1044
>>>>>Begin Spectral Data<<<<<
160.701	-161.9
166.742	28.1
172.777	593.1
178.805	2259.1
184.826	6160.1
190.841	12706.1
196.849	20110.1
202.85	25300.1
208.845	26801.1
214.833	26456.1
220.815	25913.1
226.789	25715.1
232.758	25492.1
238.719	25335.1
244.674	24855.1
250.623	24411.1
256.565	23834.1
262.5	23291.1
268.429	22809.1
274.351	22468.1
280.267	22094.1
286.176	21884.1
292.079	21581.1
297.975	21325.1
303.865	21097.1
309.748	20935.1
315.625	20761.1
321.495	20711.1
327.359	20545.1
333.217	20452.1
339.068	20470.1
344.912	20505.1
350.751	20483.1
356.583	20448.1
362.408	20445.1
368.227	20386.1
374.04	20425.1
379.847	20489.1
385.647	20633.1
391.44	20664.1
397.228	20722.1
403.009	20816.1
408.784	20877.1
414.553	20971.1
420.315	21014.1
426.071	21050.1
431.821	20956.1
437.565	20970.1
443.302	20980.1
449.033	20888.1
454.758	20832.1
460.477	20814.1
466.189	20754.1
471.896	20711.1
477.596	20663.1
483.29	20651.1
488.978	20519.1
494.66	20467.1
500.335	20334.1
506.005	20096.1
511.668	19837.1
517.325	19652.1
522.977	19463.1
528.622	19322.1
534.261	19208.1
539.894	19099.1
545.521	19022.1
551.141	18944.1
556.756	18829.1
562.365	18800.1
567.968	18750.1
573.565	18659.1
579.155	18561.1
584.74	18471.1
590.319	18438.1
595.892	18343.1
601.459	18237.1
607.02	18269.1
612.575	18091.1
618.124	17976.1
623.667	17880.1
629.204	17843.1
634.735	17751.1
640.261	17676.1
645.781	17627.1
651.294	17537.1
656.802	17534.1
662.304	17515.1
667.8	17451.1
673.29	17401.1
678.775	17381.1
684.254	17314.1
689.726	17257.1
695.193	17249.1
700.655	17134.1
706.11	17051.1
711.56	16975.1
717.004	16885.1
722.442	16823.1
727.874	16729.1
733.301	16687.1
738.722	16645.1
744.137	16589.1
749.547	16628.1
754.951	16563.1
760.349	16589.1
765.741	16565.1
771.128	16630.1
776.509	16611.1
781.885	16677.1
787.254	16634.1
792.618	16531.1
797.977	16378.1
803.33	16306.1
808.677	16198.1
814.019	16145.1
819.355	16023.1
824.686	15996.1
830.011	15916.1
835.33	15960.1
840.644	15927.1
845.952	15924.1
851.255	15994.1
856.552	16047.1
861.844	16001.1
867.13	15915.1
872.41	15819.1
877.686	15766.1
882.955	15726.1
888.219	15546.1
893.478	15358.1
898.731	15189.1
903.979	15003.1
909.221	14920.1
914.458	14819.1
919.69	14822.1
924.916	14883.1
930.136	14956.1
935.351	14943.1
940.561	14935.1
945.766	14922.1
950.965	14830.1
956.158	14725.1
961.347	14569.1
966.529	14391.1
971.707	14233.1
976.879	14057.1
982.046	13937.1
987.208	13897.1
992.364	13914.1
997.515	14005.1
1002.66	14147.1
1007.801	14295.1
1012.936	14370.1
1018.066	14371.1
1023.19	14340.1
1028.309	14363.1
1033.423	14384.1
1038.532	14230.1
1043.636	14111.1
1048.734	13941.1
1053.827	13777.1
1058.915	13645.1
1063.998	13542.1
1069.075	13552.1
1074.147	13524.1
1079.214	13562.1
1084.276	13661.1
1089.333	13749.1
1094.385	13780.1
1099.431	13857.1
1104.472	13816.1
1109.509	13758.1
1114.54	13596.1
1119.565	13451.1
1124.586	13197.1
1129.602	13136.1
1134.613	13048.1
1139.618	12953.1
1144.619	12953.1
1149.614	12921.1
1154.604	12953.1
1159.589	13013.1
1164.57	13034.1
1169.545	13035.1
1174.515	13025.1
1179.48	12965.1
1184.44	12864.1
1189.395	12763.1
1194.345	12721.1
1199.29	12645.1
1204.23	12600.1
1209.165	12660.1
1214.095	12761.1
1219.021	12776.1
1223.941	12881.1
1228.856	12983.1
1233.766	12976.1
1238.672	12978.1
1243.572	12994.1
1248.467	12909.1
1253.358	12793.1
1258.244	12592.1
1263.124	12371.1
1268	12230.1
1272.871	12039.1
1277.737	11965.1
1282.599	11899.1
1287.455	11927.1
1292.306	11910.1
1297.153	11969.1
1301.995	12033.1
1306.832	12099.1
1311.664	12083.1
1316.491	12048.1
1321.314	11914.1
1326.132	11772.1
1330.945	11525.1
1335.753	11219.1
1340.556	10944.1
1345.354	10746.1
1350.148	10538.1
1354.937	10482.1
1359.722	10480.1
1364.501	10504.1
1369.276	10574.1
1374.046	10753.1
1378.811	10921.1
1383.572	11014.1
1388.327	11065.1
1393.079	11034.1
1397.825	10866.1
1402.567	10749.1
1407.304	10601.1
1412.036	10492.1
1416.764	10424.1
1421.487	10362.1
1426.205	10301.1
1430.919	10319.1
1435.628	10270.1
1440.333	10257.1
1445.032	10348.1
1449.727	10376.1
1454.418	10340.1
1459.104	10241.1
1463.785	10057.1
1468.462	9786.1
1473.134	9597.1
1477.802	9371.1
1482.465	9244.1
1487.123	9127.1
1491.777	9088.1
1496.426	9134.1
1501.071	9235.1
1505.711	9359.1
1510.347	9545.1
1514.978	9684.1
1519.604	9812.1
1524.226	9921.1
1528.844	9945.1
1533.457	9901.1
1538.065	9847.1
1542.669	9815.1
1547.269	9739.1
1551.864	9720.1
1556.454	9676.1
1561.041	9689.1
1565.622	9665.1
1570.199	9725.1
1574.772	9741.1
1579.34	9819.1
1583.904	9866.1
1588.464	9967.1
1593.019	9946.1
1597.569	9899.1
1602.115	9815.1
1606.657	9813.1
1611.195	9764.1
1615.728	9688.1
1620.256	9638.1
1624.78	9687.1
1629.3	9713.1
1633.816	9721.1
1638.327	9773.1
1642.834	9844.1
1647.336	9871.1
1651.834	9850.1
1656.328	9854.1
1660.817	9821.1
1665.302	9689.1
1669.783	9534.1
1674.259	9312.1
1678.732	8999.1
1683.199	8691.1
1687.663	8399.1
1692.122	8133.1
1696.577	7965.1
1701.028	7905.1
1705.474	7998.1
1709.917	8069.1
1714.355	8070.1
1718.788	8028.1
1723.218	7883.1
1727.643	7737.1
1732.064	7600.1
1736.481	7417.1
1740.893	7267.1
1745.301	7026.1
1749.705	6888.1
1754.105	6635.1
1758.501	6502.1
1762.893	6314.1
1767.28	6186.1
1771.663	6001.1
1776.042	5934.1
1780.417	5860.1
1784.787	5903.1
1789.154	5924.1
1793.516	5995.1
1797.874	6122.1
1802.228	6216.1
1806.578	6264.1
1810.924	6275.1
1815.266	6236.1
1819.603	6094.1
1823.937	6052.1
1828.266	5968.1
1832.591	5852.1
1836.913	5753.1
1841.23	5729.1
1845.543	5669.1
1849.852	5685.1
1854.156	5656.1
1858.457	5627.1
1862.754	5628.1
1867.047	5634.1
1871.335	5645.1
1875.62	5610.1
1879.9	5578.1
1884.177	5535.1
1888.449	5470.1
1892.718	5414.1
1896.982	5379.1
1901.243	5332.1
1905.499	5278.1
1909.752	5245.1
1914	5258.1
1918.245	5297.1
1922.485	5308.1
1926.722	5359.1
1930.954	5406.1
1935.183	5474.1
1939.408	5521.1
1943.628	5576.1
1947.845	5581.1
1952.058	5557.1
1956.267	5531.1
1960.472	5472.1
1964.673	5366.1
1968.87	5293.1
1973.063	5252.1
1977.252	5157.1
1981.438	5100.1
1985.619	5051.1
1989.797	5010.1
1993.971	4970.1
1998.14	4976.1
2002.306	4961.1
2006.469	4916.1
2010.627	4919.1
2014.781	4908.1
2018.932	4868.1
2023.078	4818.1
2027.221	4741.1
2031.36	4654.1
2035.495	4602.1
2039.627	4527.1
2043.754	4456.1
2047.878	4429.1
2051.998	4425.1
2056.114	4393.1
2060.226	4401.1
2064.334	4394.1
2068.439	4421.1
2072.54	4444.1
2076.637	4479.1
2080.73	4487.1
2084.82	4515.1
2088.906	4509.1
2092.988	4515.1
2097.066	4528.1
2101.14	4483.1
2105.211	4434.1
2109.278	4429.1
2113.342	4399.1
2117.401	4404.1
2121.457	4354.1
2125.509	4324.1
2129.558	4282.1
2133.602	4302.1
2137.643	4276.1
2141.681	4257.1
2145.714	4252.1
2149.744	4177.1
2153.77	4180.1
2157.793	4130.1
2161.812	4107.1
2165.827	4026.1
2169.838	3993.1
2173.846	3888.1
2177.851	3840.1
2181.851	3791.1
2185.848	3737.1
2189.841	3714.1
2193.831	3662.1
2197.817	3639.1
2201.799	3621.1
2205.778	3591.1
2209.753	3564.1
2213.725	3571.1
2217.693	3567.1
2221.657	3559.1
2225.618	3534.1
2229.575	3524.1
2233.529	3490.1
2237.479	3472.1
2241.425	3415.1
2245.368	3384.1
2249.307	3326.1
2253.243	3266.1
2257.175	3244.1
2261.104	3213.1
2265.029	3158.1
2268.95	3108.1
2272.868	3108.1
2276.783	3047.1
2280.694	3015.1
2284.601	3015.1
2288.505	2986.1
2292.405	2963.1
2296.302	2927.1
2300.195	2881.1
2304.085	2878.1
2307.971	2810.1
2311.854	2789.1
2315.734	2732.1
2319.609	2680.1
2323.482	2640.1
2327.351	2627.1
2331.216	2618.1
2335.078	2591.1
2338.937	2596.1
2342.792	2566.1
2346.643	2546.1
2350.492	2578.1
2354.336	2594.1
2358.178	2570.1
2362.015	2593.1
2365.85	2576.1
2369.681	2604.1
2373.508	2563.1
2377.333	2592.1
2381.153	2584.1
2384.971	2575.1
2388.785	2548.1
2392.595	2535.1
2396.402	2495.1
2400.206	2509.1
2404.007	2474.1
2407.804	2454.1
2411.597	2442.1
2415.388	2415.1
2419.174	2398.1
2422.958	2375.1
2426.738	2363.1
2430.515	2337.1
2434.289	2340.1
2438.059	2310.1
2441.825	2288.1
2445.589	2280.1
2449.349	2237.1
2453.106	2213.1
2456.859	2168.1
2460.61	2148.1
2464.356	2124.1
2468.1	2096.1
2471.84	2055.1
2475.577	2076.1
2479.311	2071.1
2483.041	2032.1
2486.768	2039.1
2490.492	2017.1
2494.213	2016.1
2497.93	1989.1
2501.644	1994.1
2505.355	1985.1
2509.062	1962.1
2512.766	1954.1
2516.467	1958.1
2520.165	1954.1
2523.859	1928.1
2527.551	1914.1
2531.239	1898.1
2534.923	1863.1
2538.605	1871.1
2542.283	1888.1
2545.958	1870.1
2549.63	1857.1
2553.299	1851.1
2556.964	1871.1
2560.626	1862.1
2564.285	1837.1
2567.941	1823.1
2571.594	1825.1
2575.243	1794.1
2578.89	1791.1
2582.533	1776.1
2586.173	1756.1
2589.809	1769.1
2593.443	1732.1
2597.073	1721.1
2600.701	1712.1
2604.325	1691.1
2607.946	1689.1
2611.564	1686.1
2615.178	1681.1
2618.79	1669.1
2622.398	1660.1
2626.004	1639.1
2629.606	1599.1
2633.205	1587.1
2636.801	1551.1
2640.394	1538.1
2643.983	1503.1
2647.57	1506.1
2651.153	1468.1
2654.734	1432.1
2658.311	1427.1
2661.885	1403.1
2665.456	1389.1
2669.025	1372.1
2672.589	1359.1
2676.151	1354.1
2679.71	1334.1
2683.266	1324.1
2686.819	1289.1
2690.368	1247.1
2693.915	1236.1
2697.458	1216.1
2700.999	1172.1
2704.536	1150.1
2708.071	1117.1
2711.602	1096.1
2715.13	1066.1
2718.656	1054.1
2722.178	1054.1
2725.697	1002.1
2729.214	1011.1
2732.727	994.1
2736.237	1020.1
2739.744	993.1
2743.249	1005.1
2746.75	1016.1
2750.248	1023.1
2753.743	1024.1
2757.236	1052.1
2760.725	1039.1
2764.211	1050.1
2767.695	1048.1
2771.175	1042.1
2774.652	1055.1
2778.127	1038.1
2781.598	1025.1
2785.067	1032.1
2788.532	1044.1
2791.995	1026.1
2795.455	1027.1
2798.911	1023.1
2802.365	1027.1
2805.816	1020.1
2809.264	1019.1
2812.709	1038.1
2816.151	994.1
2819.59	1024.1
2823.026	1031.1
2826.46	1032.1
2829.89	1045.1
2833.318	1047.1
2836.742	1015.1
2840.164	1053.1
2843.583	1055.1
2846.999	1070.1
2850.412	1076.1
2853.822	1080.1
2857.229	1092.1
2860.634	1112.1
2864.035	1140.1
2867.434	1146.1
2870.83	1190.1
2874.223	1207.1
2877.613	1243.1
2881	1246.1
2884.385	1266.1
2887.766	1249.1
2891.145	1253.1
2894.521	1257.1
2897.894	1255.1
2901.264	1255.1
2904.631	1257.1
2907.996	1262.1
2911.358	1268.1
2914.717	1272.1
2918.073	1285.1
2921.426	1316.1
2924.777	1323.1
2928.124	1350.1
2931.469	1361.1
2934.811	1395.1
2938.15	1411.1
2941.487	1420.1
2944.821	1425.1
2948.152	1442.1
2951.48	1422.1
2954.805	1400.1
2958.128	1394.1
2961.447	1385.1
2964.765	1363.1
2968.079	1400.1
2971.39	1389.1
2974.699	1401.1
2978.005	1453.1
2981.308	1477.1
2984.609	1499.1
2987.907	1520.1
2991.202	1549.1
2994.494	1576.1
2997.784	1624.1
3001.07	1608.1
3004.355	1682.1
3007.636	1684.1
3010.915	1695.1
3014.191	1726.1
3017.464	1759.1
3020.734	1747.1
3024.002	1759.1
3027.267	1776.1
3030.53	1780.1
3033.789	1821.1
3037.046	1838.1
3040.301	1874.1
3043.552	1923.1
3046.801	1964.1
3050.048	2013.1
3053.291	2027.1
3056.532	2081.1
3059.771	2156.1
3063.006	2213.1
3066.239	2277.1
3069.469	2361.1
3072.697	2407.1
3075.922	2460.1
3079.144	2540.1
3082.364	2573.1
3085.581	2619.1
3088.795	2707.1
3092.007	2758.1
3095.216	2800.1
3098.423	2882.1
3101.627	2937.1
3104.828	3022.1
3108.026	3068.1
3111.222	3158.1
3114.416	3211.1
3117.607	3280.1
3120.795	3353.1
3123.98	3456.1
3127.163	3515.1
3130.344	3604.1
3133.521	3694.1
3136.696	3771.1
3139.869	3849.1
3143.039	3938.1
3146.206	3972.1
3149.371	4001.1
3152.533	4055.1
3155.693	4058.1
3158.85	4097.1
3162.005	4097.1
3165.157	4129.1
3168.306	4146.1
3171.453	4140.1
3174.597	4144.1
3177.739	4173.1
3180.878	4159.1
3184.014	4180.1
3187.149	4184.1
3190.28	4204.1
3193.409	4205.1
3196.536	4238.1
3199.659	4230.1
3202.781	4235.1
3205.9	4242.1
3209.016	4197.1
3212.13	4207.1
3215.241	4174.1
3218.35	4140.1
3221.456	4068.1
3224.56	4052.1
3227.661	3996.1
3230.76	3940.1
3233.856	3927.1
3236.95	3883.1
3240.041	3847.1
3243.13	3832.1
3246.216	3813.1
3249.3	3781.1
3252.382	3777.1
3255.46	3751.1
3258.537	3736.1
3261.611	3720.1
3264.682	3723.1
3267.751	3726.1
3270.818	3722.1
3273.882	3670.1
3276.943	3701.1
3280.002	3660.1
3283.059	3630.1
3286.113	3585.1
3289.165	3502.1
3292.214	3484.1
3295.261	3444.1
3298.306	3352.1
3301.348	3320.1
3304.387	3256.1
3307.425	3221.1
3310.459	3177.1
3313.492	3121.1
3316.521	3075.1
3319.549	3065.1
3322.574	3025.1
3325.597	2975.1
3328.617	2978.1
3331.635	2952.1
3334.65	2946.1
3337.663	2903.1
3340.674	2918.1
3343.682	2899.1
3346.688	2877.1
3349.691	2854.1
3352.692	2839.1
3355.691	2850.1
3358.687	2805.1
3361.681	2772.1
3364.673	2713.1
3367.662	2691.1
3370.649	2654.1
3373.633	2626.1
3376.615	2572.1
3379.595	2540.1
3382.572	2507.1
3385.547	2468.1
3388.52	2460.1
3391.49	2389.1
3394.458	2357.1
3397.424	2319.1
3400.387	2300.1
3403.348	2276.1
3406.307	2235.1
3409.263	2237.1
3412.217	2191.1
3415.168	2152.1
3418.118	2149.1
3421.065	2103.1
3424.009	2093.1
3426.951	2042.1
3429.891	1989.1
3432.829	1959.1
3435.764	1928.1
3438.697	1881.1
3441.628	1800.1
3444.557	1779.1
3447.483	1711.1
3450.407	1673.1
3453.328	1608.1
3456.247	1557.1
3459.164	1485.1
3462.079	1441.1
3464.991	1401.1
3467.902	1334.1
3470.809	1290.1
3473.715	1231.1
3476.618	1218.1
3479.519	1166.1
3482.418	1126.1
3485.315	1086.1
3488.209	1043.1
3491.101	1012.1
3493.99	972.1
3496.878	935.1
3499.763	902.1
3502.646	858.1
3505.527	830.1
3508.405	792.1
3511.281	738.1
3514.155	693.1
3517.027	647.1
3519.897	620.1
3522.764	568.1
3525.629	531.1
3528.492	465.1
3531.352	434.1
3534.211	399.1
3537.067	368.1
3539.921	321.1
3542.773	301.1
3545.622	262.1
3548.469	228.1
3551.315	203.1
3554.157	187.1
3556.998	149.1
3559.837	122.1
3562.673	95.1
3565.507	76.1
3568.339	45.1
3571.169	29.1
3573.996	11.1
3576.822	-20.9
3579.645	-31.9
3582.466	-53.9
3585.285	-79.9
3588.101	-90.9
3590.916	-114.9
3593.728	-135.9
3596.538	-144.9
3599.346	-177.9
3602.152	-187.9
3604.956	-205.9
3607.757	-211.9
3610.556	-227.9
3613.354	-250.9
3616.149	-260.9
3618.942	-278.9
3621.732	-282.9
3624.521	-303.9
3627.307	-307.9
3630.092	-323.9
3632.874	-336.9
3635.654	-348.9
3638.432	-348.9
3641.208	-356.9
3643.982	-367.9
3646.753	-381.9
3649.523	-392.9
3652.29	-401.9
3655.055	-395.9
3657.818	-413.9
3660.579	-412.9
3663.338	-423.9
3666.095	-441.9
3668.849	-458.9
3671.602	-460.9
3674.352	-468.9
3677.101	-479.9
3679.847	-491.9
3682.591	-495.9
3685.333	-506.9
3688.073	-509.9
3690.811	-513.9
3693.547	-509.9
3696.281	-528.9
3699.013	-526.9
3701.742	-535.9
3704.47	-536.9
3707.195	-546.9
3709.919	-541.9
3712.64	-549.9
3715.359	-551.9
3718.076	-547.9
3720.792	-561.9
3723.505	-562.9
3726.216	-562.9
3728.925	-571.9
3731.632	-579.9
3734.336	-579.9
3737.039	-587.9
3739.74	-583.9
3742.439	-581.9
3745.136	-583.9
3747.83	-585.9
3750.523	-584.9
3753.213	-599.9
3755.902	-598.9
3758.589	-594.9
3761.273	-599.9
3763.956	-604.9
3766.636	-605.9
3769.315	-606.9
3771.991	-607.9
3774.665	-611.9
3777.338	-607.9
3780.008	-609.9
3782.677	-611.9
3785.343	-619.9
3788.007	-613.9
3790.67	-610.9
3793.33	-617.9
3795.989	-621.9
3798.645	-623.9
3801.299	-624.9
3803.952	-616.9
3806.602	-628.9
3809.251	-631.9
3811.897	-626.9
3814.542	-615.9
3817.184	-628.9
3819.825	-625.9
3822.463	-626.9
3825.1	-636.9
3827.735	-637.9
3830.367	-633.9
3832.998	-640.9
3835.627	-634.9
3838.253	-634.9
3840.878	-639.9
3843.501	-637.9
3846.122	-629.9
3848.741	-633.9
3851.358	-640.9
3853.973	-635.9
3856.586	-636.9
3859.197	-640.9
3861.806	-643.9
3864.414	-636.9
3867.019	-631.9
3869.622	-638.9
3872.224	-633.9
3874.823	-623.9
3877.421	-602.9
3880.016	-586.9
3882.61	-562.9
3885.202	-566.9
3887.792	-586.9
3890.38	-609.9
3892.966	-629.9
3895.55	-641.9
3898.132	-642.9
3900.713	-650.9
3903.291	-652.9
3905.868	-652.9
3908.442	-652.9
3911.015	-647.9
3913.586	-650.9
3916.155	-648.9
3918.722	-651.9
3921.287	-646.9
3923.85	-653.9
3926.411	-649.9
3928.971	-652.9
3931.528	-650.9
3934.084	-647.9
3936.638	-648.9
3939.19	-657.9
3941.74	-665.9
3944.288	-659.9
3946.834	-656.9
3949.378	-662.9
3951.921	-657.9
3954.462	-657.9
3957	-651.9
3959.537	-653.9
3962.072	-651.9
3964.606	-650.9
3967.137	-652.9
3969.667	-650.9
3972.194	-649.9
3974.72	-646.9
3977.244	-645.9
3979.766	-646.9
3982.286	-644.9
3984.805	-636.9
3987.321	-642.9
3989.836	-640.9
3992.349	-644.9
3994.86	-639.9
3997.369	-647.9
3999.877	-642.9
4002.382	-638.9
4004.886	-648.9
4007.388	-641.9
4009.888	-639.9
4012.386	-638.9
4014.883	-639.9
4017.377	-644.9
4019.87	-642.9
4022.361	-642.9
4024.85	-643.9
4027.338	-645.9
4029.823	-646.9
4032.307	-652.9
4034.789	-648.9
4037.269	-654.9
4039.747	-651.9
4042.224	-638.9
4044.699	-647.9
4047.172	-648.9
4049.643	-646.9
4052.112	-640.9
4054.58	-641.9
4057.046	-649.9
4059.51	-642.9
4061.972	-649.9
4064.432	-642.9
4066.891	-644.9
4069.348	-647.9
4071.803	-650.9
4074.256	-650.9
4076.708	-645.9
4079.158	-644.9
4081.606	-640.9
4084.052	-645.9
4086.497	-640.9
4088.939	-635.9
4091.38	-633.9
4093.819	-639.9
4096.257	-674.9
4098.693	-676.9
4101.127	-676.9
4103.559	-680.9
4105.989	-401.9
4108.418	-387.9
4110.845	-363.9
4113.27	-343.9
4115.694	-297.9
4118.115	-246.9
4120.535	-643.9
4122.954	-652.9
4125.37	-646.9
4127.785	-637.9
4130.198	-648.9
4132.609	-639.9
4135.019	-684.9
4137.427	-680.9
4139.833	-676.9
4142.237	-675.9
