Data from 2018-2-7_conc=4_RamanShift_14.txt Node
Date: Tue Feb 13 13:38:43 IST 2018
User: aro
Spectrometer: QEPB0276
Trigger mode: 0
Integration Time (sec): 3.000000E1
Scans to average: 1
Electric dark correction enabled: true
Nonlinearity correction enabled: false
Boxcar width: 0
XAxis mode: Raman Shifts
Number of Pixels in Spectrum: 1044
>>>>>Begin Spectral Data<<<<<
160.701	-162.1
166.742	30.9
172.777	583.9
178.805	2259.9
184.826	6180.9
190.841	12711.9
196.849	20135.9
202.85	25139.9
208.845	26775.9
214.833	26388.9
220.815	25879.9
226.789	25671.9
232.758	25550.9
238.719	25368.9
244.674	24887.9
250.623	24422.9
256.565	23874.9
262.5	23362.9
268.429	22913.9
274.351	22514.9
280.267	22230.9
286.176	21934.9
292.079	21749.9
297.975	21424.9
303.865	21258.9
309.748	21071.9
315.625	20973.9
321.495	20852.9
327.359	20766.9
333.217	20726.9
339.068	20651.9
344.912	20652.9
350.751	20607.9
356.583	20509.9
362.408	20587.9
368.227	20607.9
374.04	20646.9
379.847	20604.9
385.647	20745.9
391.44	20809.9
397.228	20876.9
403.009	20964.9
408.784	20979.9
414.553	21146.9
420.315	21101.9
426.071	21193.9
431.821	21203.9
437.565	21118.9
443.302	21091.9
449.033	21000.9
454.758	20947.9
460.477	20913.9
466.189	20852.9
471.896	20883.9
477.596	20817.9
483.29	20786.9
488.978	20718.9
494.66	20724.9
500.335	20533.9
506.005	20288.9
511.668	20069.9
517.325	19822.9
522.977	19641.9
528.622	19511.9
534.261	19361.9
539.894	19324.9
545.521	19168.9
551.141	19146.9
556.756	19073.9
562.365	19016.9
567.968	18957.9
573.565	18860.9
579.155	18781.9
584.74	18704.9
590.319	18631.9
595.892	18604.9
601.459	18498.9
607.02	18368.9
612.575	18323.9
618.124	18181.9
623.667	18074.9
629.204	18054.9
634.735	17906.9
640.261	17834.9
645.781	17814.9
651.294	17829.9
656.802	17755.9
662.304	17712.9
667.8	17712.9
673.29	17708.9
678.775	17564.9
684.254	17541.9
689.726	17542.9
695.193	17454.9
700.655	17281.9
706.11	17277.9
711.56	17220.9
717.004	17083.9
722.442	17010.9
727.874	16976.9
733.301	16876.9
738.722	16790.9
744.137	16830.9
749.547	16823.9
754.951	16803.9
760.349	16828.9
765.741	16808.9
771.128	16805.9
776.509	16853.9
781.885	16864.9
787.254	16809.9
792.618	16712.9
797.977	16627.9
803.33	16512.9
808.677	16390.9
814.019	16342.9
819.355	16223.9
824.686	16145.9
830.011	16175.9
835.33	16146.9
840.644	16223.9
845.952	16178.9
851.255	16257.9
856.552	16264.9
861.844	16221.9
867.13	16139.9
872.41	16110.9
877.686	16017.9
882.955	15900.9
888.219	15745.9
893.478	15629.9
898.731	15389.9
903.979	15252.9
909.221	15162.9
914.458	15027.9
919.69	15064.9
924.916	15096.9
930.136	15124.9
935.351	15184.9
940.561	15182.9
945.766	15135.9
950.965	15076.9
956.158	14989.9
961.347	14798.9
966.529	14619.9
971.707	14445.9
976.879	14275.9
982.046	14180.9
987.208	14156.9
992.364	14069.9
997.515	14180.9
1002.66	14380.9
1007.801	14511.9
1012.936	14568.9
1018.066	14632.9
1023.19	14622.9
1028.309	14595.9
1033.423	14579.9
1038.532	14461.9
1043.636	14360.9
1048.734	14153.9
1053.827	14014.9
1058.915	13845.9
1063.998	13768.9
1069.075	13714.9
1074.147	13745.9
1079.214	13777.9
1084.276	13888.9
1089.333	13955.9
1094.385	14056.9
1099.431	14100.9
1104.472	14066.9
1109.509	13977.9
1114.54	13815.9
1119.565	13694.9
1124.586	13456.9
1129.602	13324.9
1134.613	13278.9
1139.618	13222.9
1144.619	13130.9
1149.614	13176.9
1154.604	13214.9
1159.589	13258.9
1164.57	13279.9
1169.545	13269.9
1174.515	13291.9
1179.48	13176.9
1184.44	13097.9
1189.395	13024.9
1194.345	12928.9
1199.29	12819.9
1204.23	12905.9
1209.165	12920.9
1214.095	13020.9
1219.021	13025.9
1223.941	13137.9
1228.856	13236.9
1233.766	13253.9
1238.672	13222.9
1243.572	13227.9
1248.467	13134.9
1253.358	13002.9
1258.244	12841.9
1263.124	12626.9
1268	12458.9
1272.871	12335.9
1277.737	12211.9
1282.599	12157.9
1287.455	12186.9
1292.306	12187.9
1297.153	12229.9
1301.995	12222.9
1306.832	12348.9
1311.664	12323.9
1316.491	12315.9
1321.314	12157.9
1326.132	11952.9
1330.945	11747.9
1335.753	11439.9
1340.556	11159.9
1345.354	10909.9
1350.148	10752.9
1354.937	10713.9
1359.722	10725.9
1364.501	10768.9
1369.276	10785.9
1374.046	10984.9
1378.811	11120.9
1383.572	11246.9
1388.327	11306.9
1393.079	11196.9
1397.825	11114.9
1402.567	10903.9
1407.304	10829.9
1412.036	10720.9
1416.764	10645.9
1421.487	10587.9
1426.205	10485.9
1430.919	10451.9
1435.628	10533.9
1440.333	10490.9
1445.032	10536.9
1449.727	10583.9
1454.418	10553.9
1459.104	10418.9
1463.785	10241.9
1468.462	10025.9
1473.134	9815.9
1477.802	9607.9
1482.465	9443.9
1487.123	9330.9
1491.777	9310.9
1496.426	9352.9
1501.071	9453.9
1505.711	9605.9
1510.347	9742.9
1514.978	9931.9
1519.604	10054.9
1524.226	10145.9
1528.844	10192.9
1533.457	10135.9
1538.065	10086.9
1542.669	10085.9
1547.269	9974.9
1551.864	9913.9
1556.454	9880.9
1561.041	9875.9
1565.622	9845.9
1570.199	9906.9
1574.772	9992.9
1579.34	10009.9
1583.904	10081.9
1588.464	10149.9
1593.019	10125.9
1597.569	10091.9
1602.115	10022.9
1606.657	10014.9
1611.195	9911.9
1615.728	9884.9
1620.256	9838.9
1624.78	9846.9
1629.3	9863.9
1633.816	9904.9
1638.327	9974.9
1642.834	9978.9
1647.336	10040.9
1651.834	10075.9
1656.328	10029.9
1660.817	9990.9
1665.302	9830.9
1669.783	9677.9
1674.259	9456.9
1678.732	9166.9
1683.199	8882.9
1687.663	8575.9
1692.122	8302.9
1696.577	8151.9
1701.028	8113.9
1705.474	8173.9
1709.917	8222.9
1714.355	8274.9
1718.788	8205.9
1723.218	8069.9
1727.643	7969.9
1732.064	7793.9
1736.481	7601.9
1740.893	7462.9
1745.301	7237.9
1749.705	7011.9
1754.105	6829.9
1758.501	6640.9
1762.893	6470.9
1767.28	6316.9
1771.663	6157.9
1776.042	6112.9
1780.417	6016.9
1784.787	6009.9
1789.154	6068.9
1793.516	6175.9
1797.874	6257.9
1802.228	6381.9
1806.578	6468.9
1810.924	6444.9
1815.266	6391.9
1819.603	6300.9
1823.937	6230.9
1828.266	6119.9
1832.591	6037.9
1836.913	5945.9
1841.23	5865.9
1845.543	5865.9
1849.852	5842.9
1854.156	5810.9
1858.457	5805.9
1862.754	5751.9
1867.047	5763.9
1871.335	5785.9
1875.62	5699.9
1879.9	5702.9
1884.177	5721.9
1888.449	5628.9
1892.718	5581.9
1896.982	5527.9
1901.243	5490.9
1905.499	5434.9
1909.752	5427.9
1914	5407.9
1918.245	5412.9
1922.485	5446.9
1926.722	5496.9
1930.954	5584.9
1935.183	5632.9
1939.408	5685.9
1943.628	5726.9
1947.845	5722.9
1952.058	5740.9
1956.267	5674.9
1960.472	5621.9
1964.673	5536.9
1968.87	5413.9
1973.063	5372.9
1977.252	5383.9
1981.438	5345.9
1985.619	5183.9
1989.797	5171.9
1993.971	5130.9
1998.14	5126.9
2002.306	5115.9
2006.469	5065.9
2010.627	5068.9
2014.781	5021.9
2018.932	4979.9
2023.078	4946.9
2027.221	4852.9
2031.36	4793.9
2035.495	4708.9
2039.627	4652.9
2043.754	4606.9
2047.878	4543.9
2051.998	4527.9
2056.114	4523.9
2060.226	4518.9
2064.334	4493.9
2068.439	4502.9
2072.54	4546.9
2076.637	4576.9
2080.73	4589.9
2084.82	4644.9
2088.906	4630.9
2092.988	4656.9
2097.066	4633.9
2101.14	4576.9
2105.211	4590.9
2109.278	4545.9
2113.342	4519.9
2117.401	4469.9
2121.457	4429.9
2125.509	4443.9
2129.558	4427.9
2133.602	4411.9
2137.643	4393.9
2141.681	4359.9
2145.714	4307.9
2149.744	4314.9
2153.77	4269.9
2157.793	4249.9
2161.812	4201.9
2165.827	4111.9
2169.838	4053.9
2173.846	4004.9
2177.851	3926.9
2181.851	3856.9
2185.848	3828.9
2189.841	3799.9
2193.831	3769.9
2197.817	3721.9
2201.799	3698.9
2205.778	3694.9
2209.753	3692.9
2213.725	3641.9
2217.693	3681.9
2221.657	3637.9
2225.618	3599.9
2229.575	3610.9
2233.529	3567.9
2237.479	3539.9
2241.425	3513.9
2245.368	3445.9
2249.307	3409.9
2253.243	3359.9
2257.175	3329.9
2261.104	3293.9
2265.029	3243.9
2268.95	3208.9
2272.868	3178.9
2276.783	3107.9
2280.694	3105.9
2284.601	3086.9
2288.505	3066.9
2292.405	3015.9
2296.302	2980.9
2300.195	2946.9
2304.085	2896.9
2307.971	2872.9
2311.854	2872.9
2315.734	2780.9
2319.609	2776.9
2323.482	2729.9
2327.351	2698.9
2331.216	2684.9
2335.078	2684.9
2338.937	2659.9
2342.792	2619.9
2346.643	2631.9
2350.492	2653.9
2354.336	2619.9
2358.178	2622.9
2362.015	2628.9
2365.85	2667.9
2369.681	2661.9
2373.508	2672.9
2377.333	2649.9
2381.153	2640.9
2384.971	2616.9
2388.785	2616.9
2392.595	2577.9
2396.402	2556.9
2400.206	2545.9
2404.007	2512.9
2407.804	2520.9
2411.597	2493.9
2415.388	2491.9
2419.174	2484.9
2422.958	2464.9
2426.738	2426.9
2430.515	2414.9
2434.289	2380.9
2438.059	2360.9
2441.825	2350.9
2445.589	2352.9
2449.349	2287.9
2453.106	2269.9
2456.859	2257.9
2460.61	2212.9
2464.356	2195.9
2468.1	2180.9
2471.84	2143.9
2475.577	2133.9
2479.311	2145.9
2483.041	2105.9
2486.768	2099.9
2490.492	2104.9
2494.213	2082.9
2497.93	2093.9
2501.644	2062.9
2505.355	2060.9
2509.062	2037.9
2512.766	2030.9
2516.467	2015.9
2520.165	2026.9
2523.859	1991.9
2527.551	1955.9
2531.239	1960.9
2534.923	1954.9
2538.605	1932.9
2542.283	1925.9
2545.958	1922.9
2549.63	1923.9
2553.299	1925.9
2556.964	1908.9
2560.626	1904.9
2564.285	1889.9
2567.941	1895.9
2571.594	1864.9
2575.243	1903.9
2578.89	1867.9
2582.533	1855.9
2586.173	1830.9
2589.809	1814.9
2593.443	1797.9
2597.073	1775.9
2600.701	1779.9
2604.325	1735.9
2607.946	1764.9
2611.564	1751.9
2615.178	1750.9
2618.79	1713.9
2622.398	1705.9
2626.004	1678.9
2629.606	1648.9
2633.205	1628.9
2636.801	1613.9
2640.394	1614.9
2643.983	1570.9
2647.57	1561.9
2651.153	1539.9
2654.734	1490.9
2658.311	1476.9
2661.885	1455.9
2665.456	1441.9
2669.025	1428.9
2672.589	1420.9
2676.151	1396.9
2679.71	1381.9
2683.266	1343.9
2686.819	1322.9
2690.368	1296.9
2693.915	1289.9
2697.458	1248.9
2700.999	1217.9
2704.536	1186.9
2708.071	1174.9
2711.602	1147.9
2715.13	1122.9
2718.656	1101.9
2722.178	1087.9
2725.697	1058.9
2729.214	1049.9
2732.727	1028.9
2736.237	1054.9
2739.744	1045.9
2743.249	1043.9
2746.75	1031.9
2750.248	1040.9
2753.743	1049.9
2757.236	1071.9
2760.725	1079.9
2764.211	1084.9
2767.695	1085.9
2771.175	1076.9
2774.652	1085.9
2778.127	1087.9
2781.598	1055.9
2785.067	1053.9
2788.532	1072.9
2791.995	1070.9
2795.455	1069.9
2798.911	1059.9
2802.365	1083.9
2805.816	1065.9
2809.264	1064.9
2812.709	1052.9
2816.151	1068.9
2819.59	1053.9
2823.026	1059.9
2826.46	1069.9
2829.89	1072.9
2833.318	1059.9
2836.742	1058.9
2840.164	1090.9
2843.583	1083.9
2846.999	1091.9
2850.412	1112.9
2853.822	1119.9
2857.229	1132.9
2860.634	1153.9
2864.035	1195.9
2867.434	1203.9
2870.83	1221.9
2874.223	1248.9
2877.613	1260.9
2881	1278.9
2884.385	1286.9
2887.766	1286.9
2891.145	1289.9
2894.521	1273.9
2897.894	1274.9
2901.264	1263.9
2904.631	1298.9
2907.996	1276.9
2911.358	1302.9
2914.717	1277.9
2918.073	1289.9
2921.426	1317.9
2924.777	1329.9
2928.124	1340.9
2931.469	1382.9
2934.811	1381.9
2938.15	1408.9
2941.487	1437.9
2944.821	1429.9
2948.152	1426.9
2951.48	1446.9
2954.805	1415.9
2958.128	1407.9
2961.447	1382.9
2964.765	1383.9
2968.079	1389.9
2971.39	1404.9
2974.699	1408.9
2978.005	1426.9
2981.308	1467.9
2984.609	1475.9
2987.907	1490.9
2991.202	1545.9
2994.494	1576.9
2997.784	1594.9
3001.07	1623.9
3004.355	1654.9
3007.636	1654.9
3010.915	1676.9
3014.191	1686.9
3017.464	1723.9
3020.734	1713.9
3024.002	1749.9
3027.267	1749.9
3030.53	1765.9
3033.789	1801.9
3037.046	1793.9
3040.301	1823.9
3043.552	1870.9
3046.801	1915.9
3050.048	1949.9
3053.291	2013.9
3056.532	2054.9
3059.771	2116.9
3063.006	2177.9
3066.239	2228.9
3069.469	2317.9
3072.697	2349.9
3075.922	2434.9
3079.144	2485.9
3082.364	2542.9
3085.581	2587.9
3088.795	2658.9
3092.007	2693.9
3095.216	2756.9
3098.423	2810.9
3101.627	2871.9
3104.828	2915.9
3108.026	2982.9
3111.222	3069.9
3114.416	3140.9
3117.607	3203.9
3120.795	3277.9
3123.98	3351.9
3127.163	3452.9
3130.344	3523.9
3133.521	3593.9
3136.696	3682.9
3139.869	3739.9
3143.039	3820.9
3146.206	3888.9
3149.371	3935.9
3152.533	3954.9
3155.693	3981.9
3158.85	4041.9
3162.005	4036.9
3165.157	4024.9
3168.306	4046.9
3171.453	4056.9
3174.597	4062.9
3177.739	4074.9
3180.878	4097.9
3184.014	4112.9
3187.149	4079.9
3190.28	4083.9
3193.409	4131.9
3196.536	4107.9
3199.659	4089.9
3202.781	4108.9
3205.9	4115.9
3209.016	4087.9
3212.13	4095.9
3215.241	4058.9
3218.35	4038.9
3221.456	3985.9
3224.56	3942.9
3227.661	3904.9
3230.76	3849.9
3233.856	3817.9
3236.95	3783.9
3240.041	3780.9
3243.13	3701.9
3246.216	3693.9
3249.3	3658.9
3252.382	3676.9
3255.46	3671.9
3258.537	3631.9
3261.611	3620.9
3264.682	3635.9
3267.751	3628.9
3270.818	3632.9
3273.882	3637.9
3276.943	3572.9
3280.002	3546.9
3283.059	3507.9
3286.113	3497.9
3289.165	3435.9
3292.214	3378.9
3295.261	3338.9
3298.306	3280.9
3301.348	3255.9
3304.387	3182.9
3307.425	3132.9
3310.459	3086.9
3313.492	3056.9
3316.521	3005.9
3319.549	2982.9
3322.574	2934.9
3325.597	2913.9
3328.617	2897.9
3331.635	2884.9
3334.65	2874.9
3337.663	2820.9
3340.674	2853.9
3343.682	2809.9
3346.688	2790.9
3349.691	2799.9
3352.692	2779.9
3355.691	2764.9
3358.687	2738.9
3361.681	2681.9
3364.673	2661.9
3367.662	2620.9
3370.649	2583.9
3373.633	2562.9
3376.615	2507.9
3379.595	2488.9
3382.572	2450.9
3385.547	2424.9
3388.52	2374.9
3391.49	2328.9
3394.458	2296.9
3397.424	2268.9
3400.387	2247.9
3403.348	2212.9
3406.307	2184.9
3409.263	2193.9
3412.217	2142.9
3415.168	2130.9
3418.118	2113.9
3421.065	2062.9
3424.009	2041.9
3426.951	1995.9
3429.891	1959.9
3432.829	1916.9
3435.764	1881.9
3438.697	1815.9
3441.628	1769.9
3444.557	1745.9
3447.483	1687.9
3450.407	1629.9
3453.328	1573.9
3456.247	1507.9
3459.164	1457.9
3462.079	1405.9
3464.991	1361.9
3467.902	1305.9
3470.809	1259.9
3473.715	1222.9
3476.618	1178.9
3479.519	1132.9
3482.418	1070.9
3485.315	1046.9
3488.209	994.9
3491.101	974.9
3493.99	935.9
3496.878	879.9
3499.763	876.9
3502.646	847.9
3505.527	803.9
3508.405	760.9
3511.281	716.9
3514.155	684.9
3517.027	641.9
3519.897	597.9
3522.764	553.9
3525.629	516.9
3528.492	471.9
3531.352	420.9
3534.211	391.9
3537.067	360.9
3539.921	313.9
3542.773	288.9
3545.622	249.9
3548.469	201.9
3551.315	183.9
3554.157	162.9
3556.998	132.9
3559.837	108.9
3562.673	75.9
3565.507	65.9
3568.339	44.9
3571.169	18.9
3573.996	1.9
3576.822	-23.1
3579.645	-23.1
3582.466	-61.1
3585.285	-86.1
3588.101	-92.1
3590.916	-129.1
3593.728	-144.1
3596.538	-158.1
3599.346	-174.1
3602.152	-197.1
3604.956	-205.1
3607.757	-224.1
3610.556	-239.1
3613.354	-265.1
3616.149	-268.1
3618.942	-284.1
3621.732	-298.1
3624.521	-309.1
3627.307	-316.1
3630.092	-328.1
3632.874	-333.1
3635.654	-354.1
3638.432	-362.1
3641.208	-365.1
3643.982	-379.1
3646.753	-379.1
3649.523	-393.1
3652.29	-398.1
3655.055	-407.1
3657.818	-412.1
3660.579	-429.1
3663.338	-436.1
3666.095	-449.1
3668.849	-464.1
3671.602	-478.1
3674.352	-471.1
3677.101	-476.1
3679.847	-491.1
3682.591	-496.1
3685.333	-498.1
3688.073	-504.1
3690.811	-515.1
3693.547	-515.1
3696.281	-525.1
3699.013	-516.1
3701.742	-535.1
3704.47	-543.1
3707.195	-543.1
3709.919	-542.1
3712.64	-544.1
3715.359	-542.1
3718.076	-550.1
3720.792	-561.1
3723.505	-560.1
3726.216	-559.1
3728.925	-567.1
3731.632	-573.1
3734.336	-575.1
3737.039	-581.1
3739.74	-585.1
3742.439	-582.1
3745.136	-588.1
3747.83	-587.1
3750.523	-589.1
3753.213	-589.1
3755.902	-594.1
3758.589	-595.1
3761.273	-594.1
3763.956	-607.1
3766.636	-605.1
3769.315	-606.1
3771.991	-606.1
3774.665	-605.1
3777.338	-607.1
3780.008	-611.1
3782.677	-605.1
3785.343	-613.1
3788.007	-602.1
3790.67	-610.1
3793.33	-621.1
3795.989	-619.1
3798.645	-623.1
3801.299	-619.1
3803.952	-622.1
3806.602	-625.1
3809.251	-631.1
3811.897	-624.1
3814.542	-621.1
3817.184	-628.1
3819.825	-626.1
3822.463	-623.1
3825.1	-630.1
3827.735	-634.1
3830.367	-633.1
3832.998	-631.1
3835.627	-641.1
3838.253	-635.1
3840.878	-634.1
3843.501	-634.1
3846.122	-628.1
3848.741	-635.1
3851.358	-639.1
3853.973	-632.1
3856.586	-636.1
3859.197	-636.1
3861.806	-637.1
3864.414	-630.1
3867.019	-633.1
3869.622	-638.1
3872.224	-629.1
3874.823	-619.1
3877.421	-599.1
3880.016	-578.1
3882.61	-550.1
3885.202	-552.1
3887.792	-578.1
3890.38	-599.1
3892.966	-624.1
3895.55	-636.1
3898.132	-642.1
3900.713	-649.1
3903.291	-651.1
3905.868	-652.1
3908.442	-650.1
3911.015	-650.1
3913.586	-650.1
3916.155	-648.1
3918.722	-652.1
3921.287	-645.1
3923.85	-652.1
3926.411	-651.1
3928.971	-655.1
3931.528	-652.1
3934.084	-644.1
3936.638	-647.1
3939.19	-656.1
3941.74	-660.1
3944.288	-658.1
3946.834	-654.1
3949.378	-655.1
3951.921	-653.1
3954.462	-654.1
3957	-648.1
3959.537	-644.1
3962.072	-650.1
3964.606	-650.1
3967.137	-652.1
3969.667	-650.1
3972.194	-648.1
3974.72	-648.1
3977.244	-649.1
3979.766	-647.1
3982.286	-643.1
3984.805	-638.1
3987.321	-634.1
3989.836	-640.1
3992.349	-636.1
3994.86	-636.1
3997.369	-645.1
3999.877	-643.1
4002.382	-635.1
4004.886	-642.1
4007.388	-639.1
4009.888	-639.1
4012.386	-641.1
4014.883	-638.1
4017.377	-640.1
4019.87	-641.1
4022.361	-636.1
4024.85	-643.1
4027.338	-643.1
4029.823	-640.1
4032.307	-646.1
4034.789	-646.1
4037.269	-650.1
4039.747	-650.1
4042.224	-638.1
4044.699	-647.1
4047.172	-645.1
4049.643	-642.1
4052.112	-639.1
4054.58	-632.1
4057.046	-647.1
4059.51	-644.1
4061.972	-645.1
4064.432	-646.1
4066.891	-643.1
4069.348	-647.1
4071.803	-647.1
4074.256	-641.1
4076.708	-642.1
4079.158	-640.1
4081.606	-641.1
4084.052	-640.1
4086.497	-648.1
4088.939	-642.1
4091.38	-636.1
4093.819	-644.1
4096.257	-673.1
4098.693	-675.1
4101.127	-674.1
4103.559	-679.1
4105.989	-414.1
4108.418	-395.1
4110.845	-365.1
4113.27	-342.1
4115.694	-292.1
4118.115	-237.1
4120.535	-643.1
4122.954	-650.1
4125.37	-644.1
4127.785	-645.1
4130.198	-646.1
4132.609	-640.1
4135.019	-680.1
4137.427	-682.1
4139.833	-674.1
4142.237	-676.1
