Data from 2018-2-7_conc=6_RamanShift_07.txt Node
Date: Tue Feb 13 14:30:43 IST 2018
User: aro
Spectrometer: QEPB0276
Trigger mode: 0
Integration Time (sec): 3.000000E1
Scans to average: 1
Electric dark correction enabled: true
Nonlinearity correction enabled: false
Boxcar width: 0
XAxis mode: Raman Shifts
Number of Pixels in Spectrum: 1044
>>>>>Begin Spectral Data<<<<<
160.701	-167.8
166.742	49.2
172.777	598.2
178.805	2326.2
184.826	6374.2
190.841	13205.2
196.849	20909.2
202.85	26250.2
208.845	27988.2
214.833	27611.2
220.815	27164.2
226.789	27004.2
232.758	26923.2
238.719	26714.2
244.674	26378.2
250.623	25895.2
256.565	25482.2
262.5	24889.2
268.429	24447.2
274.351	24120.2
280.267	23746.2
286.176	23540.2
292.079	23282.2
297.975	23106.2
303.865	22880.2
309.748	22741.2
315.625	22591.2
321.495	22473.2
327.359	22412.2
333.217	22359.2
339.068	22332.2
344.912	22317.2
350.751	22280.2
356.583	22309.2
362.408	22215.2
368.227	22299.2
374.04	22359.2
379.847	22313.2
385.647	22438.2
391.44	22516.2
397.228	22595.2
403.009	22686.2
408.784	22723.2
414.553	22753.2
420.315	22871.2
426.071	22897.2
431.821	22850.2
437.565	22829.2
443.302	22736.2
449.033	22709.2
454.758	22724.2
460.477	22652.2
466.189	22629.2
471.896	22499.2
477.596	22486.2
483.29	22429.2
488.978	22491.2
494.66	22390.2
500.335	22178.2
506.005	21982.2
511.668	21792.2
517.325	21485.2
522.977	21364.2
528.622	21222.2
534.261	21047.2
539.894	20970.2
545.521	20900.2
551.141	20860.2
556.756	20777.2
562.365	20674.2
567.968	20540.2
573.565	20534.2
579.155	20408.2
584.74	20348.2
590.319	20279.2
595.892	20209.2
601.459	20135.2
607.02	20092.2
612.575	19936.2
618.124	19767.2
623.667	19646.2
629.204	19589.2
634.735	19497.2
640.261	19440.2
645.781	19382.2
651.294	19349.2
656.802	19283.2
662.304	19279.2
667.8	19225.2
673.29	19227.2
678.775	19159.2
684.254	19083.2
689.726	19064.2
695.193	18931.2
700.655	18866.2
706.11	18829.2
711.56	18760.2
717.004	18636.2
722.442	18593.2
727.874	18454.2
733.301	18422.2
738.722	18325.2
744.137	18310.2
749.547	18287.2
754.951	18336.2
760.349	18278.2
765.741	18314.2
771.128	18258.2
776.509	18326.2
781.885	18273.2
787.254	18269.2
792.618	18165.2
797.977	18026.2
803.33	17908.2
808.677	17807.2
814.019	17768.2
819.355	17603.2
824.686	17583.2
830.011	17508.2
835.33	17508.2
840.644	17548.2
845.952	17647.2
851.255	17598.2
856.552	17594.2
861.844	17573.2
867.13	17527.2
872.41	17466.2
877.686	17396.2
882.955	17267.2
888.219	17095.2
893.478	16905.2
898.731	16692.2
903.979	16542.2
909.221	16446.2
914.458	16353.2
919.69	16360.2
924.916	16436.2
930.136	16470.2
935.351	16485.2
940.561	16436.2
945.766	16431.2
950.965	16321.2
956.158	16243.2
961.347	16066.2
966.529	15874.2
971.707	15571.2
976.879	15442.2
982.046	15369.2
987.208	15277.2
992.364	15337.2
997.515	15351.2
1002.66	15555.2
1007.801	15701.2
1012.936	15758.2
1018.066	15816.2
1023.19	15788.2
1028.309	15800.2
1033.423	15742.2
1038.532	15674.2
1043.636	15490.2
1048.734	15316.2
1053.827	15133.2
1058.915	14979.2
1063.998	14872.2
1069.075	14830.2
1074.147	14834.2
1079.214	14890.2
1084.276	14993.2
1089.333	15064.2
1094.385	15144.2
1099.431	15203.2
1104.472	15167.2
1109.509	15106.2
1114.54	14926.2
1119.565	14670.2
1124.586	14515.2
1129.602	14333.2
1134.613	14262.2
1139.618	14194.2
1144.619	14133.2
1149.614	14125.2
1154.604	14190.2
1159.589	14196.2
1164.57	14238.2
1169.545	14247.2
1174.515	14283.2
1179.48	14200.2
1184.44	14018.2
1189.395	13959.2
1194.345	13894.2
1199.29	13747.2
1204.23	13849.2
1209.165	13877.2
1214.095	13885.2
1219.021	13978.2
1223.941	14028.2
1228.856	14125.2
1233.766	14124.2
1238.672	14234.2
1243.572	14167.2
1248.467	14018.2
1253.358	13889.2
1258.244	13700.2
1263.124	13473.2
1268	13262.2
1272.871	13164.2
1277.737	13001.2
1282.599	12992.2
1287.455	12969.2
1292.306	12989.2
1297.153	12997.2
1301.995	13075.2
1306.832	13090.2
1311.664	13106.2
1316.491	13089.2
1321.314	12950.2
1326.132	12742.2
1330.945	12448.2
1335.753	12178.2
1340.556	11856.2
1345.354	11598.2
1350.148	11500.2
1354.937	11431.2
1359.722	11351.2
1364.501	11423.2
1369.276	11572.2
1374.046	11724.2
1378.811	11901.2
1383.572	12013.2
1388.327	12037.2
1393.079	11946.2
1397.825	11800.2
1402.567	11635.2
1407.304	11510.2
1412.036	11394.2
1416.764	11280.2
1421.487	11215.2
1426.205	11164.2
1430.919	11075.2
1435.628	11115.2
1440.333	11114.2
1445.032	11168.2
1449.727	11202.2
1454.418	11157.2
1459.104	11034.2
1463.785	10855.2
1468.462	10630.2
1473.134	10410.2
1477.802	10179.2
1482.465	10039.2
1487.123	9886.2
1491.777	9914.2
1496.426	9941.2
1501.071	10103.2
1505.711	10219.2
1510.347	10379.2
1514.978	10595.2
1519.604	10737.2
1524.226	10825.2
1528.844	10816.2
1533.457	10807.2
1538.065	10755.2
1542.669	10654.2
1547.269	10574.2
1551.864	10508.2
1556.454	10468.2
1561.041	10451.2
1565.622	10472.2
1570.199	10448.2
1574.772	10544.2
1579.34	10596.2
1583.904	10600.2
1588.464	10667.2
1593.019	10641.2
1597.569	10628.2
1602.115	10551.2
1606.657	10482.2
1611.195	10422.2
1615.728	10358.2
1620.256	10309.2
1624.78	10308.2
1629.3	10335.2
1633.816	10315.2
1638.327	10404.2
1642.834	10416.2
1647.336	10521.2
1651.834	10520.2
1656.328	10472.2
1660.817	10435.2
1665.302	10333.2
1669.783	10147.2
1674.259	9931.2
1678.732	9650.2
1683.199	9295.2
1687.663	9020.2
1692.122	8704.2
1696.577	8607.2
1701.028	8546.2
1705.474	8646.2
1709.917	8714.2
1714.355	8786.2
1718.788	8673.2
1723.218	8575.2
1727.643	8395.2
1732.064	8259.2
1736.481	8037.2
1740.893	7856.2
1745.301	7661.2
1749.705	7464.2
1754.105	7281.2
1758.501	7042.2
1762.893	6860.2
1767.28	6662.2
1771.663	6545.2
1776.042	6439.2
1780.417	6402.2
1784.787	6347.2
1789.154	6460.2
1793.516	6564.2
1797.874	6695.2
1802.228	6809.2
1806.578	6852.2
1810.924	6857.2
1815.266	6760.2
1819.603	6700.2
1823.937	6579.2
1828.266	6458.2
1832.591	6392.2
1836.913	6270.2
1841.23	6232.2
1845.543	6188.2
1849.852	6149.2
1854.156	6106.2
1858.457	6132.2
1862.754	6123.2
1867.047	6096.2
1871.335	6079.2
1875.62	6064.2
1879.9	6064.2
1884.177	5997.2
1888.449	5925.2
1892.718	5913.2
1896.982	5842.2
1901.243	5804.2
1905.499	5765.2
1909.752	5729.2
1914	5753.2
1918.245	5752.2
1922.485	5793.2
1926.722	5817.2
1930.954	5909.2
1935.183	5957.2
1939.408	6016.2
1943.628	6098.2
1947.845	6048.2
1952.058	6058.2
1956.267	5961.2
1960.472	5932.2
1964.673	5813.2
1968.87	5723.2
1973.063	5660.2
1977.252	5558.2
1981.438	5515.2
1985.619	5476.2
1989.797	5429.2
1993.971	5392.2
1998.14	5366.2
2002.306	5323.2
2006.469	5312.2
2010.627	5296.2
2014.781	5289.2
2018.932	5201.2
2023.078	5179.2
2027.221	5088.2
2031.36	5046.2
2035.495	4915.2
2039.627	4838.2
2043.754	4808.2
2047.878	4786.2
2051.998	4710.2
2056.114	4694.2
2060.226	4708.2
2064.334	4742.2
2068.439	4727.2
2072.54	4744.2
2076.637	4798.2
2080.73	4785.2
2084.82	4802.2
2088.906	4855.2
2092.988	4871.2
2097.066	4812.2
2101.14	4795.2
2105.211	4789.2
2109.278	4745.2
2113.342	4729.2
2117.401	4649.2
2121.457	4646.2
2125.509	4638.2
2129.558	4628.2
2133.602	4572.2
2137.643	4539.2
2141.681	4505.2
2145.714	4524.2
2149.744	4470.2
2153.77	4442.2
2157.793	4369.2
2161.812	4355.2
2165.827	4279.2
2169.838	4217.2
2173.846	4141.2
2177.851	4065.2
2181.851	3969.2
2185.848	3963.2
2189.841	3922.2
2193.831	3848.2
2197.817	3855.2
2201.799	3829.2
2205.778	3789.2
2209.753	3775.2
2213.725	3775.2
2217.693	3770.2
2221.657	3770.2
2225.618	3767.2
2229.575	3723.2
2233.529	3690.2
2237.479	3661.2
2241.425	3619.2
2245.368	3579.2
2249.307	3508.2
2253.243	3438.2
2257.175	3411.2
2261.104	3371.2
2265.029	3315.2
2268.95	3315.2
2272.868	3242.2
2276.783	3233.2
2280.694	3199.2
2284.601	3171.2
2288.505	3127.2
2292.405	3081.2
2296.302	3035.2
2300.195	3060.2
2304.085	2979.2
2307.971	2950.2
2311.854	2905.2
2315.734	2852.2
2319.609	2816.2
2323.482	2799.2
2327.351	2742.2
2331.216	2748.2
2335.078	2728.2
2338.937	2706.2
2342.792	2679.2
2346.643	2676.2
2350.492	2666.2
2354.336	2706.2
2358.178	2674.2
2362.015	2682.2
2365.85	2680.2
2369.681	2695.2
2373.508	2685.2
2377.333	2692.2
2381.153	2679.2
2384.971	2651.2
2388.785	2651.2
2392.595	2631.2
2396.402	2611.2
2400.206	2557.2
2404.007	2565.2
2407.804	2542.2
2411.597	2508.2
2415.388	2485.2
2419.174	2479.2
2422.958	2477.2
2426.738	2459.2
2430.515	2445.2
2434.289	2395.2
2438.059	2377.2
2441.825	2364.2
2445.589	2348.2
2449.349	2314.2
2453.106	2270.2
2456.859	2255.2
2460.61	2235.2
2464.356	2212.2
2468.1	2183.2
2471.84	2166.2
2475.577	2145.2
2479.311	2139.2
2483.041	2114.2
2486.768	2083.2
2490.492	2095.2
2494.213	2102.2
2497.93	2085.2
2501.644	2057.2
2505.355	2069.2
2509.062	2051.2
2512.766	2040.2
2516.467	2055.2
2520.165	2032.2
2523.859	1987.2
2527.551	1985.2
2531.239	1962.2
2534.923	1962.2
2538.605	1949.2
2542.283	1940.2
2545.958	1928.2
2549.63	1919.2
2553.299	1919.2
2556.964	1933.2
2560.626	1913.2
2564.285	1909.2
2567.941	1883.2
2571.594	1886.2
2575.243	1872.2
2578.89	1850.2
2582.533	1823.2
2586.173	1818.2
2589.809	1826.2
2593.443	1798.2
2597.073	1759.2
2600.701	1745.2
2604.325	1740.2
2607.946	1745.2
2611.564	1735.2
2615.178	1736.2
2618.79	1696.2
2622.398	1695.2
2626.004	1671.2
2629.606	1624.2
2633.205	1602.2
2636.801	1586.2
2640.394	1572.2
2643.983	1543.2
2647.57	1537.2
2651.153	1494.2
2654.734	1486.2
2658.311	1462.2
2661.885	1442.2
2665.456	1420.2
2669.025	1410.2
2672.589	1393.2
2676.151	1386.2
2679.71	1368.2
2683.266	1328.2
2686.819	1305.2
2690.368	1291.2
2693.915	1248.2
2697.458	1218.2
2700.999	1186.2
2704.536	1164.2
2708.071	1159.2
2711.602	1112.2
2715.13	1107.2
2718.656	1086.2
2722.178	1047.2
2725.697	1036.2
2729.214	1028.2
2732.727	1030.2
2736.237	1015.2
2739.744	1031.2
2743.249	1005.2
2746.75	1037.2
2750.248	1026.2
2753.743	1005.2
2757.236	1037.2
2760.725	1069.2
2764.211	1060.2
2767.695	1074.2
2771.175	1058.2
2774.652	1053.2
2778.127	1047.2
2781.598	1049.2
2785.067	1035.2
2788.532	1032.2
2791.995	1034.2
2795.455	1035.2
2798.911	1055.2
2802.365	1028.2
2805.816	1030.2
2809.264	1036.2
2812.709	1014.2
2816.151	1020.2
2819.59	1027.2
2823.026	1035.2
2826.46	1009.2
2829.89	1033.2
2833.318	1028.2
2836.742	1044.2
2840.164	1060.2
2843.583	1076.2
2846.999	1058.2
2850.412	1076.2
2853.822	1086.2
2857.229	1106.2
2860.634	1118.2
2864.035	1138.2
2867.434	1148.2
2870.83	1167.2
2874.223	1189.2
2877.613	1208.2
2881	1251.2
2884.385	1237.2
2887.766	1258.2
2891.145	1242.2
2894.521	1237.2
2897.894	1232.2
2901.264	1239.2
2904.631	1228.2
2907.996	1235.2
2911.358	1241.2
2914.717	1257.2
2918.073	1245.2
2921.426	1270.2
2924.777	1290.2
2928.124	1300.2
2931.469	1321.2
2934.811	1371.2
2938.15	1386.2
2941.487	1403.2
2944.821	1390.2
2948.152	1384.2
2951.48	1408.2
2954.805	1380.2
2958.128	1353.2
2961.447	1342.2
2964.765	1338.2
2968.079	1351.2
2971.39	1342.2
2974.699	1371.2
2978.005	1407.2
2981.308	1418.2
2984.609	1419.2
2987.907	1473.2
2991.202	1503.2
2994.494	1552.2
2997.784	1542.2
3001.07	1581.2
3004.355	1636.2
3007.636	1618.2
3010.915	1664.2
3014.191	1688.2
3017.464	1687.2
3020.734	1686.2
3024.002	1699.2
3027.267	1722.2
3030.53	1721.2
3033.789	1740.2
3037.046	1773.2
3040.301	1807.2
3043.552	1855.2
3046.801	1856.2
3050.048	1921.2
3053.291	1967.2
3056.532	2007.2
3059.771	2056.2
3063.006	2119.2
3066.239	2180.2
3069.469	2262.2
3072.697	2333.2
3075.922	2388.2
3079.144	2445.2
3082.364	2463.2
3085.581	2532.2
3088.795	2617.2
3092.007	2670.2
3095.216	2704.2
3098.423	2748.2
3101.627	2811.2
3104.828	2903.2
3108.026	2960.2
3111.222	3019.2
3114.416	3112.2
3117.607	3169.2
3120.795	3244.2
3123.98	3305.2
3127.163	3398.2
3130.344	3473.2
3133.521	3554.2
3136.696	3623.2
3139.869	3711.2
3143.039	3794.2
3146.206	3818.2
3149.371	3858.2
3152.533	3905.2
3155.693	3928.2
3158.85	3964.2
3162.005	3978.2
3165.157	4006.2
3168.306	3979.2
3171.453	4018.2
3174.597	4057.2
3177.739	4039.2
3180.878	4040.2
3184.014	4076.2
3187.149	4035.2
3190.28	4073.2
3193.409	4078.2
3196.536	4073.2
3199.659	4056.2
3202.781	4062.2
3205.9	4058.2
3209.016	4036.2
3212.13	4048.2
3215.241	4014.2
3218.35	3988.2
3221.456	3906.2
3224.56	3901.2
3227.661	3881.2
3230.76	3821.2
3233.856	3783.2
3236.95	3750.2
3240.041	3719.2
3243.13	3694.2
3246.216	3644.2
3249.3	3630.2
3252.382	3630.2
3255.46	3602.2
3258.537	3576.2
3261.611	3597.2
3264.682	3587.2
3267.751	3580.2
3270.818	3580.2
3273.882	3561.2
3276.943	3547.2
3280.002	3511.2
3283.059	3498.2
3286.113	3452.2
3289.165	3383.2
3292.214	3352.2
3295.261	3298.2
3298.306	3244.2
3301.348	3188.2
3304.387	3132.2
3307.425	3103.2
3310.459	3057.2
3313.492	2989.2
3316.521	2979.2
3319.549	2951.2
3322.574	2874.2
3325.597	2882.2
3328.617	2852.2
3331.635	2829.2
3334.65	2840.2
3337.663	2828.2
3340.674	2772.2
3343.682	2771.2
3346.688	2811.2
3349.691	2776.2
3352.692	2756.2
3355.691	2724.2
3358.687	2703.2
3361.681	2642.2
3364.673	2630.2
3367.662	2609.2
3370.649	2545.2
3373.633	2513.2
3376.615	2479.2
3379.595	2449.2
3382.572	2393.2
3385.547	2383.2
3388.52	2337.2
3391.49	2297.2
3394.458	2254.2
3397.424	2224.2
3400.387	2211.2
3403.348	2184.2
3406.307	2150.2
3409.263	2129.2
3412.217	2102.2
3415.168	2080.2
3418.118	2065.2
3421.065	1995.2
3424.009	2011.2
3426.951	1977.2
3429.891	1924.2
3432.829	1889.2
3435.764	1853.2
3438.697	1799.2
3441.628	1749.2
3444.557	1686.2
3447.483	1636.2
3450.407	1599.2
3453.328	1553.2
3456.247	1479.2
3459.164	1430.2
3462.079	1372.2
3464.991	1318.2
3467.902	1268.2
3470.809	1232.2
3473.715	1180.2
3476.618	1152.2
3479.519	1091.2
3482.418	1053.2
3485.315	1024.2
3488.209	979.2
3491.101	956.2
3493.99	913.2
3496.878	874.2
3499.763	835.2
3502.646	804.2
3505.527	767.2
3508.405	734.2
3511.281	696.2
3514.155	658.2
3517.027	601.2
3519.897	566.2
3522.764	530.2
3525.629	476.2
3528.492	452.2
3531.352	392.2
3534.211	379.2
3537.067	312.2
3539.921	284.2
3542.773	261.2
3545.622	216.2
3548.469	190.2
3551.315	167.2
3554.157	138.2
3556.998	109.2
3559.837	77.2
3562.673	55.2
3565.507	29.2
3568.339	30.2
3571.169	-8.8
3573.996	-27.8
3576.822	-44.8
3579.645	-66.8
3582.466	-98.8
3585.285	-117.8
3588.101	-117.8
3590.916	-140.8
3593.728	-173.8
3596.538	-183.8
3599.346	-201.8
3602.152	-220.8
3604.956	-232.8
3607.757	-249.8
3610.556	-263.8
3613.354	-284.8
3616.149	-290.8
3618.942	-301.8
3621.732	-306.8
3624.521	-334.8
3627.307	-336.8
3630.092	-342.8
3632.874	-355.8
3635.654	-364.8
3638.432	-367.8
3641.208	-384.8
3643.982	-384.8
3646.753	-395.8
3649.523	-415.8
3652.29	-426.8
3655.055	-431.8
3657.818	-435.8
3660.579	-446.8
3663.338	-461.8
3666.095	-472.8
3668.849	-494.8
3671.602	-491.8
3674.352	-498.8
3677.101	-495.8
3679.847	-519.8
3682.591	-511.8
3685.333	-516.8
3688.073	-527.8
3690.811	-535.8
3693.547	-529.8
3696.281	-544.8
3699.013	-544.8
3701.742	-554.8
3704.47	-555.8
3707.195	-568.8
3709.919	-567.8
3712.64	-567.8
3715.359	-580.8
3718.076	-574.8
3720.792	-591.8
3723.505	-590.8
3726.216	-593.8
3728.925	-593.8
3731.632	-602.8
3734.336	-598.8
3737.039	-612.8
3739.74	-608.8
3742.439	-605.8
3745.136	-614.8
3747.83	-612.8
3750.523	-606.8
3753.213	-616.8
3755.902	-613.8
3758.589	-614.8
3761.273	-619.8
3763.956	-624.8
3766.636	-626.8
3769.315	-625.8
3771.991	-632.8
3774.665	-630.8
3777.338	-634.8
3780.008	-630.8
3782.677	-633.8
3785.343	-640.8
3788.007	-631.8
3790.67	-638.8
3793.33	-641.8
3795.989	-643.8
3798.645	-649.8
3801.299	-650.8
3803.952	-644.8
3806.602	-649.8
3809.251	-647.8
3811.897	-644.8
3814.542	-639.8
3817.184	-646.8
3819.825	-644.8
3822.463	-647.8
3825.1	-650.8
3827.735	-657.8
3830.367	-658.8
3832.998	-656.8
3835.627	-652.8
3838.253	-658.8
3840.878	-655.8
3843.501	-659.8
3846.122	-658.8
3848.741	-657.8
3851.358	-662.8
3853.973	-663.8
3856.586	-660.8
3859.197	-664.8
3861.806	-664.8
3864.414	-652.8
3867.019	-654.8
3869.622	-659.8
3872.224	-657.8
3874.823	-635.8
3877.421	-623.8
3880.016	-597.8
3882.61	-571.8
3885.202	-570.8
3887.792	-592.8
3890.38	-623.8
3892.966	-645.8
3895.55	-658.8
3898.132	-662.8
3900.713	-674.8
3903.291	-673.8
3905.868	-670.8
3908.442	-673.8
3911.015	-671.8
3913.586	-673.8
3916.155	-671.8
3918.722	-673.8
3921.287	-674.8
3923.85	-674.8
3926.411	-673.8
3928.971	-671.8
3931.528	-677.8
3934.084	-668.8
3936.638	-676.8
3939.19	-677.8
3941.74	-681.8
3944.288	-679.8
3946.834	-679.8
3949.378	-675.8
3951.921	-675.8
3954.462	-673.8
3957	-670.8
3959.537	-670.8
3962.072	-669.8
3964.606	-668.8
3967.137	-675.8
3969.667	-677.8
3972.194	-667.8
3974.72	-676.8
3977.244	-665.8
3979.766	-667.8
3982.286	-661.8
3984.805	-658.8
3987.321	-660.8
3989.836	-663.8
3992.349	-661.8
3994.86	-659.8
3997.369	-670.8
3999.877	-658.8
4002.382	-663.8
4004.886	-662.8
4007.388	-658.8
4009.888	-655.8
4012.386	-659.8
4014.883	-655.8
4017.377	-655.8
4019.87	-657.8
4022.361	-659.8
4024.85	-658.8
4027.338	-668.8
4029.823	-660.8
4032.307	-665.8
4034.789	-664.8
4037.269	-676.8
4039.747	-672.8
4042.224	-665.8
4044.699	-664.8
4047.172	-673.8
4049.643	-663.8
4052.112	-665.8
4054.58	-655.8
4057.046	-676.8
4059.51	-665.8
4061.972	-667.8
4064.432	-660.8
4066.891	-662.8
4069.348	-665.8
4071.803	-660.8
4074.256	-662.8
4076.708	-660.8
4079.158	-664.8
4081.606	-657.8
4084.052	-659.8
4086.497	-667.8
4088.939	-660.8
4091.38	-660.8
4093.819	-662.8
4096.257	-699.8
4098.693	-695.8
4101.127	-698.8
4103.559	-695.8
4105.989	-419.8
4108.418	-405.8
4110.845	-379.8
4113.27	-343.8
4115.694	-298.8
4118.115	-255.8
4120.535	-659.8
4122.954	-669.8
4125.37	-660.8
4127.785	-659.8
4130.198	-667.8
4132.609	-661.8
4135.019	-704.8
4137.427	-702.8
4139.833	-697.8
4142.237	-700.8
