Data from 2018-2-7_conc=3_RamanShift_06.txt Node
Date: Tue Feb 13 12:22:44 IST 2018
User: aro
Spectrometer: QEPB0276
Trigger mode: 0
Integration Time (sec): 3.000000E1
Scans to average: 1
Electric dark correction enabled: true
Nonlinearity correction enabled: false
Boxcar width: 0
XAxis mode: Raman Shifts
Number of Pixels in Spectrum: 1044
>>>>>Begin Spectral Data<<<<<
160.701	-150.9
166.742	28.1
172.777	559.1
178.805	2201.1
184.826	6009.1
190.841	12426.1
196.849	19662.1
202.85	24720.1
208.845	26209.1
214.833	26071.1
220.815	25501.1
226.789	25307.1
232.758	25238.1
238.719	24978.1
244.674	24647.1
250.623	24211.1
256.565	23697.1
262.5	23215.1
268.429	22860.1
274.351	22473.1
280.267	22139.1
286.176	21893.1
292.079	21723.1
297.975	21490.1
303.865	21234.1
309.748	21156.1
315.625	20929.1
321.495	20809.1
327.359	20795.1
333.217	20789.1
339.068	20779.1
344.912	20801.1
350.751	20638.1
356.583	20610.1
362.408	20648.1
368.227	20618.1
374.04	20681.1
379.847	20696.1
385.647	20801.1
391.44	20931.1
397.228	20947.1
403.009	21060.1
408.784	21135.1
414.553	21224.1
420.315	21204.1
426.071	21269.1
431.821	21262.1
437.565	21175.1
443.302	21184.1
449.033	21122.1
454.758	21068.1
460.477	21065.1
466.189	21060.1
471.896	21001.1
477.596	20880.1
483.29	20880.1
488.978	20879.1
494.66	20746.1
500.335	20693.1
506.005	20437.1
511.668	20232.1
517.325	19999.1
522.977	19829.1
528.622	19692.1
534.261	19598.1
539.894	19536.1
545.521	19393.1
551.141	19303.1
556.756	19319.1
562.365	19209.1
567.968	19195.1
573.565	19096.1
579.155	19051.1
584.74	18951.1
590.319	18883.1
595.892	18806.1
601.459	18687.1
607.02	18654.1
612.575	18513.1
618.124	18429.1
623.667	18322.1
629.204	18240.1
634.735	18175.1
640.261	18142.1
645.781	18083.1
651.294	18035.1
656.802	18058.1
662.304	17991.1
667.8	17921.1
673.29	17949.1
678.775	17899.1
684.254	17864.1
689.726	17823.1
695.193	17697.1
700.655	17625.1
706.11	17558.1
711.56	17462.1
717.004	17357.1
722.442	17303.1
727.874	17237.1
733.301	17177.1
738.722	17196.1
744.137	17141.1
749.547	17143.1
754.951	17121.1
760.349	17158.1
765.741	17165.1
771.128	17171.1
776.509	17215.1
781.885	17174.1
787.254	17132.1
792.618	17022.1
797.977	16922.1
803.33	16805.1
808.677	16694.1
814.019	16624.1
819.355	16562.1
824.686	16509.1
830.011	16457.1
835.33	16466.1
840.644	16486.1
845.952	16499.1
851.255	16533.1
856.552	16553.1
861.844	16575.1
867.13	16526.1
872.41	16461.1
877.686	16347.1
882.955	16241.1
888.219	16083.1
893.478	15942.1
898.731	15726.1
903.979	15566.1
909.221	15526.1
914.458	15433.1
919.69	15464.1
924.916	15460.1
930.136	15525.1
935.351	15518.1
940.561	15572.1
945.766	15532.1
950.965	15457.1
956.158	15320.1
961.347	15209.1
966.529	14979.1
971.707	14774.1
976.879	14664.1
982.046	14564.1
987.208	14503.1
992.364	14532.1
997.515	14580.1
1002.66	14716.1
1007.801	14894.1
1012.936	15018.1
1018.066	14967.1
1023.19	14995.1
1028.309	14964.1
1033.423	14959.1
1038.532	14904.1
1043.636	14747.1
1048.734	14581.1
1053.827	14352.1
1058.915	14244.1
1063.998	14134.1
1069.075	14115.1
1074.147	14114.1
1079.214	14172.1
1084.276	14307.1
1089.333	14363.1
1094.385	14443.1
1099.431	14489.1
1104.472	14446.1
1109.509	14398.1
1114.54	14178.1
1119.565	14041.1
1124.586	13862.1
1129.602	13718.1
1134.613	13624.1
1139.618	13567.1
1144.619	13531.1
1149.614	13546.1
1154.604	13584.1
1159.589	13596.1
1164.57	13683.1
1169.545	13633.1
1174.515	13665.1
1179.48	13606.1
1184.44	13527.1
1189.395	13445.1
1194.345	13300.1
1199.29	13251.1
1204.23	13243.1
1209.165	13312.1
1214.095	13367.1
1219.021	13438.1
1223.941	13515.1
1228.856	13607.1
1233.766	13636.1
1238.672	13674.1
1243.572	13648.1
1248.467	13575.1
1253.358	13390.1
1258.244	13298.1
1263.124	13069.1
1268	12819.1
1272.871	12674.1
1277.737	12621.1
1282.599	12544.1
1287.455	12543.1
1292.306	12551.1
1297.153	12613.1
1301.995	12636.1
1306.832	12685.1
1311.664	12685.1
1316.491	12607.1
1321.314	12550.1
1326.132	12322.1
1330.945	12120.1
1335.753	11808.1
1340.556	11461.1
1345.354	11272.1
1350.148	11110.1
1354.937	11029.1
1359.722	10960.1
1364.501	11054.1
1369.276	11129.1
1374.046	11309.1
1378.811	11426.1
1383.572	11572.1
1388.327	11596.1
1393.079	11551.1
1397.825	11462.1
1402.567	11279.1
1407.304	11114.1
1412.036	11028.1
1416.764	10946.1
1421.487	10912.1
1426.205	10873.1
1430.919	10801.1
1435.628	10798.1
1440.333	10832.1
1445.032	10897.1
1449.727	10918.1
1454.418	10800.1
1459.104	10730.1
1463.785	10514.1
1468.462	10327.1
1473.134	10113.1
1477.802	9894.1
1482.465	9712.1
1487.123	9606.1
1491.777	9579.1
1496.426	9619.1
1501.071	9719.1
1505.711	9785.1
1510.347	9981.1
1514.978	10202.1
1519.604	10267.1
1524.226	10384.1
1528.844	10402.1
1533.457	10405.1
1538.065	10379.1
1542.669	10277.1
1547.269	10281.1
1551.864	10199.1
1556.454	10157.1
1561.041	10157.1
1565.622	10140.1
1570.199	10178.1
1574.772	10195.1
1579.34	10331.1
1583.904	10345.1
1588.464	10363.1
1593.019	10372.1
1597.569	10330.1
1602.115	10295.1
1606.657	10220.1
1611.195	10126.1
1615.728	10082.1
1620.256	10043.1
1624.78	10060.1
1629.3	10005.1
1633.816	10037.1
1638.327	10099.1
1642.834	10098.1
1647.336	10180.1
1651.834	10223.1
1656.328	10123.1
1660.817	10139.1
1665.302	9989.1
1669.783	9789.1
1674.259	9579.1
1678.732	9272.1
1683.199	9005.1
1687.663	8649.1
1692.122	8403.1
1696.577	8272.1
1701.028	8235.1
1705.474	8278.1
1709.917	8368.1
1714.355	8458.1
1718.788	8395.1
1723.218	8287.1
1727.643	8148.1
1732.064	8035.1
1736.481	7812.1
1740.893	7633.1
1745.301	7453.1
1749.705	7264.1
1754.105	7047.1
1758.501	6844.1
1762.893	6640.1
1767.28	6487.1
1771.663	6334.1
1776.042	6225.1
1780.417	6172.1
1784.787	6143.1
1789.154	6218.1
1793.516	6340.1
1797.874	6416.1
1802.228	6536.1
1806.578	6623.1
1810.924	6658.1
1815.266	6595.1
1819.603	6491.1
1823.937	6406.1
1828.266	6283.1
1832.591	6195.1
1836.913	6148.1
1841.23	6065.1
1845.543	6028.1
1849.852	6021.1
1854.156	6012.1
1858.457	5957.1
1862.754	5981.1
1867.047	5940.1
1871.335	5986.1
1875.62	5932.1
1879.9	5897.1
1884.177	5859.1
1888.449	5777.1
1892.718	5766.1
1896.982	5670.1
1901.243	5635.1
1905.499	5593.1
1909.752	5550.1
1914	5552.1
1918.245	5546.1
1922.485	5583.1
1926.722	5639.1
1930.954	5693.1
1935.183	5787.1
1939.408	5827.1
1943.628	5877.1
1947.845	5881.1
1952.058	5876.1
1956.267	5831.1
1960.472	5771.1
1964.673	5678.1
1968.87	5608.1
1973.063	5506.1
1977.252	5458.1
1981.438	5362.1
1985.619	5305.1
1989.797	5297.1
1993.971	5270.1
1998.14	5253.1
2002.306	5248.1
2006.469	5205.1
2010.627	5172.1
2014.781	5159.1
2018.932	5118.1
2023.078	5053.1
2027.221	4975.1
2031.36	4920.1
2035.495	4810.1
2039.627	4760.1
2043.754	4668.1
2047.878	4646.1
2051.998	4630.1
2056.114	4580.1
2060.226	4601.1
2064.334	4578.1
2068.439	4612.1
2072.54	4636.1
2076.637	4647.1
2080.73	4692.1
2084.82	4702.1
2088.906	4696.1
2092.988	4715.1
2097.066	4731.1
2101.14	4681.1
2105.211	4622.1
2109.278	4659.1
2113.342	4626.1
2117.401	4587.1
2121.457	4572.1
2125.509	4544.1
2129.558	4506.1
2133.602	4479.1
2137.643	4506.1
2141.681	4464.1
2145.714	4467.1
2149.744	4433.1
2153.77	4380.1
2157.793	4318.1
2161.812	4278.1
2165.827	4226.1
2169.838	4167.1
2173.846	4079.1
2177.851	4059.1
2181.851	3965.1
2185.848	3938.1
2189.841	3890.1
2193.831	3845.1
2197.817	3799.1
2201.799	3800.1
2205.778	3799.1
2209.753	3777.1
2213.725	3770.1
2217.693	3738.1
2221.657	3756.1
2225.618	3727.1
2229.575	3725.1
2233.529	3682.1
2237.479	3653.1
2241.425	3609.1
2245.368	3601.1
2249.307	3517.1
2253.243	3482.1
2257.175	3442.1
2261.104	3391.1
2265.029	3341.1
2268.95	3301.1
2272.868	3269.1
2276.783	3224.1
2280.694	3207.1
2284.601	3157.1
2288.505	3183.1
2292.405	3134.1
2296.302	3107.1
2300.195	3088.1
2304.085	3039.1
2307.971	2995.1
2311.854	2954.1
2315.734	2897.1
2319.609	2891.1
2323.482	2832.1
2327.351	2826.1
2331.216	2800.1
2335.078	2781.1
2338.937	2780.1
2342.792	2766.1
2346.643	2770.1
2350.492	2768.1
2354.336	2780.1
2358.178	2782.1
2362.015	2770.1
2365.85	2777.1
2369.681	2806.1
2373.508	2791.1
2377.333	2780.1
2381.153	2781.1
2384.971	2792.1
2388.785	2762.1
2392.595	2736.1
2396.402	2719.1
2400.206	2702.1
2404.007	2670.1
2407.804	2661.1
2411.597	2624.1
2415.388	2623.1
2419.174	2601.1
2422.958	2586.1
2426.738	2566.1
2430.515	2541.1
2434.289	2547.1
2438.059	2482.1
2441.825	2480.1
2445.589	2481.1
2449.349	2439.1
2453.106	2412.1
2456.859	2380.1
2460.61	2351.1
2464.356	2309.1
2468.1	2290.1
2471.84	2247.1
2475.577	2248.1
2479.311	2228.1
2483.041	2253.1
2486.768	2219.1
2490.492	2200.1
2494.213	2189.1
2497.93	2170.1
2501.644	2180.1
2505.355	2162.1
2509.062	2163.1
2512.766	2136.1
2516.467	2124.1
2520.165	2134.1
2523.859	2097.1
2527.551	2087.1
2531.239	2068.1
2534.923	2056.1
2538.605	2031.1
2542.283	2036.1
2545.958	2034.1
2549.63	2039.1
2553.299	2023.1
2556.964	2017.1
2560.626	2019.1
2564.285	2011.1
2567.941	2005.1
2571.594	1972.1
2575.243	1964.1
2578.89	1975.1
2582.533	1948.1
2586.173	1948.1
2589.809	1922.1
2593.443	1896.1
2597.073	1890.1
2600.701	1861.1
2604.325	1874.1
2607.946	1848.1
2611.564	1829.1
2615.178	1823.1
2618.79	1810.1
2622.398	1782.1
2626.004	1773.1
2629.606	1744.1
2633.205	1736.1
2636.801	1725.1
2640.394	1704.1
2643.983	1667.1
2647.57	1641.1
2651.153	1619.1
2654.734	1585.1
2658.311	1557.1
2661.885	1558.1
2665.456	1528.1
2669.025	1517.1
2672.589	1499.1
2676.151	1478.1
2679.71	1472.1
2683.266	1446.1
2686.819	1414.1
2690.368	1362.1
2693.915	1349.1
2697.458	1330.1
2700.999	1301.1
2704.536	1267.1
2708.071	1232.1
2711.602	1205.1
2715.13	1184.1
2718.656	1149.1
2722.178	1127.1
2725.697	1109.1
2729.214	1116.1
2732.727	1092.1
2736.237	1091.1
2739.744	1086.1
2743.249	1075.1
2746.75	1095.1
2750.248	1091.1
2753.743	1113.1
2757.236	1115.1
2760.725	1111.1
2764.211	1125.1
2767.695	1131.1
2771.175	1150.1
2774.652	1131.1
2778.127	1113.1
2781.598	1102.1
2785.067	1121.1
2788.532	1109.1
2791.995	1115.1
2795.455	1112.1
2798.911	1114.1
2802.365	1101.1
2805.816	1089.1
2809.264	1101.1
2812.709	1125.1
2816.151	1109.1
2819.59	1110.1
2823.026	1090.1
2826.46	1102.1
2829.89	1120.1
2833.318	1106.1
2836.742	1098.1
2840.164	1127.1
2843.583	1122.1
2846.999	1134.1
2850.412	1138.1
2853.822	1158.1
2857.229	1172.1
2860.634	1177.1
2864.035	1211.1
2867.434	1215.1
2870.83	1240.1
2874.223	1260.1
2877.613	1292.1
2881	1308.1
2884.385	1313.1
2887.766	1297.1
2891.145	1296.1
2894.521	1294.1
2897.894	1275.1
2901.264	1276.1
2904.631	1273.1
2907.996	1276.1
2911.358	1301.1
2914.717	1285.1
2918.073	1305.1
2921.426	1333.1
2924.777	1330.1
2928.124	1356.1
2931.469	1388.1
2934.811	1388.1
2938.15	1397.1
2941.487	1412.1
2944.821	1417.1
2948.152	1408.1
2951.48	1401.1
2954.805	1388.1
2958.128	1371.1
2961.447	1364.1
2964.765	1362.1
2968.079	1372.1
2971.39	1365.1
2974.699	1377.1
2978.005	1389.1
2981.308	1420.1
2984.609	1436.1
2987.907	1469.1
2991.202	1485.1
2994.494	1520.1
2997.784	1535.1
3001.07	1582.1
3004.355	1605.1
3007.636	1615.1
3010.915	1621.1
3014.191	1653.1
3017.464	1670.1
3020.734	1681.1
3024.002	1697.1
3027.267	1694.1
3030.53	1717.1
3033.789	1728.1
3037.046	1739.1
3040.301	1776.1
3043.552	1810.1
3046.801	1834.1
3050.048	1890.1
3053.291	1937.1
3056.532	1994.1
3059.771	2025.1
3063.006	2102.1
3066.239	2150.1
3069.469	2210.1
3072.697	2291.1
3075.922	2312.1
3079.144	2361.1
3082.364	2425.1
3085.581	2462.1
3088.795	2509.1
3092.007	2573.1
3095.216	2647.1
3098.423	2700.1
3101.627	2747.1
3104.828	2787.1
3108.026	2865.1
3111.222	2914.1
3114.416	3000.1
3117.607	3038.1
3120.795	3112.1
3123.98	3190.1
3127.163	3256.1
3130.344	3324.1
3133.521	3400.1
3136.696	3493.1
3139.869	3579.1
3143.039	3583.1
3146.206	3649.1
3149.371	3695.1
3152.533	3732.1
3155.693	3788.1
3158.85	3779.1
3162.005	3811.1
3165.157	3788.1
3168.306	3830.1
3171.453	3801.1
3174.597	3846.1
3177.739	3833.1
3180.878	3828.1
3184.014	3851.1
3187.149	3829.1
3190.28	3851.1
3193.409	3855.1
3196.536	3860.1
3199.659	3886.1
3202.781	3830.1
3205.9	3872.1
3209.016	3837.1
3212.13	3837.1
3215.241	3797.1
3218.35	3749.1
3221.456	3721.1
3224.56	3650.1
3227.661	3651.1
3230.76	3600.1
3233.856	3576.1
3236.95	3518.1
3240.041	3475.1
3243.13	3477.1
3246.216	3435.1
3249.3	3404.1
3252.382	3379.1
3255.46	3401.1
3258.537	3391.1
3261.611	3396.1
3264.682	3364.1
3267.751	3370.1
3270.818	3378.1
3273.882	3328.1
3276.943	3331.1
3280.002	3306.1
3283.059	3282.1
3286.113	3253.1
3289.165	3207.1
3292.214	3152.1
3295.261	3098.1
3298.306	3028.1
3301.348	2984.1
3304.387	2927.1
3307.425	2904.1
3310.459	2853.1
3313.492	2821.1
3316.521	2779.1
3319.549	2752.1
3322.574	2728.1
3325.597	2712.1
3328.617	2691.1
3331.635	2668.1
3334.65	2645.1
3337.663	2633.1
3340.674	2628.1
3343.682	2602.1
3346.688	2606.1
3349.691	2579.1
3352.692	2566.1
3355.691	2545.1
3358.687	2518.1
3361.681	2502.1
3364.673	2464.1
3367.662	2446.1
3370.649	2382.1
3373.633	2378.1
3376.615	2334.1
3379.595	2305.1
3382.572	2273.1
3385.547	2234.1
3388.52	2188.1
3391.49	2137.1
3394.458	2114.1
3397.424	2083.1
3400.387	2084.1
3403.348	2031.1
3406.307	1999.1
3409.263	2007.1
3412.217	1954.1
3415.168	1975.1
3418.118	1906.1
3421.065	1909.1
3424.009	1864.1
3426.951	1823.1
3429.891	1791.1
3432.829	1741.1
3435.764	1718.1
3438.697	1669.1
3441.628	1626.1
3444.557	1568.1
3447.483	1536.1
3450.407	1476.1
3453.328	1431.1
3456.247	1382.1
3459.164	1310.1
3462.079	1279.1
3464.991	1225.1
3467.902	1164.1
3470.809	1144.1
3473.715	1088.1
3476.618	1055.1
3479.519	1024.1
3482.418	996.1
3485.315	931.1
3488.209	885.1
3491.101	867.1
3493.99	820.1
3496.878	792.1
3499.763	770.1
3502.646	740.1
3505.527	716.1
3508.405	661.1
3511.281	620.1
3514.155	585.1
3517.027	561.1
3519.897	523.1
3522.764	476.1
3525.629	438.1
3528.492	397.1
3531.352	356.1
3534.211	335.1
3537.067	286.1
3539.921	262.1
3542.773	231.1
3545.622	193.1
3548.469	173.1
3551.315	138.1
3554.157	106.1
3556.998	89.1
3559.837	55.1
3562.673	46.1
3565.507	19.1
3568.339	3.1
3571.169	-12.9
3573.996	-40.9
3576.822	-56.9
3579.645	-68.9
3582.466	-95.9
3585.285	-104.9
3588.101	-113.9
3590.916	-152.9
3593.728	-159.9
3596.538	-188.9
3599.346	-195.9
3602.152	-211.9
3604.956	-227.9
3607.757	-249.9
3610.556	-255.9
3613.354	-269.9
3616.149	-279.9
3618.942	-287.9
3621.732	-312.9
3624.521	-312.9
3627.307	-319.9
3630.092	-329.9
3632.874	-340.9
3635.654	-351.9
3638.432	-349.9
3641.208	-358.9
3643.982	-369.9
3646.753	-375.9
3649.523	-386.9
3652.29	-395.9
3655.055	-403.9
3657.818	-418.9
3660.579	-436.9
3663.338	-434.9
3666.095	-439.9
3668.849	-451.9
3671.602	-462.9
3674.352	-464.9
3677.101	-472.9
3679.847	-487.9
3682.591	-482.9
3685.333	-489.9
3688.073	-494.9
3690.811	-496.9
3693.547	-510.9
3696.281	-514.9
3699.013	-510.9
3701.742	-520.9
3704.47	-522.9
3707.195	-526.9
3709.919	-532.9
3712.64	-535.9
3715.359	-541.9
3718.076	-544.9
3720.792	-551.9
3723.505	-547.9
3726.216	-553.9
3728.925	-556.9
3731.632	-560.9
3734.336	-563.9
3737.039	-565.9
3739.74	-566.9
3742.439	-561.9
3745.136	-576.9
3747.83	-570.9
3750.523	-574.9
3753.213	-578.9
3755.902	-582.9
3758.589	-578.9
3761.273	-577.9
3763.956	-589.9
3766.636	-590.9
3769.315	-587.9
3771.991	-599.9
3774.665	-591.9
3777.338	-596.9
3780.008	-590.9
3782.677	-596.9
3785.343	-595.9
3788.007	-593.9
3790.67	-593.9
3793.33	-599.9
3795.989	-600.9
3798.645	-601.9
3801.299	-604.9
3803.952	-608.9
3806.602	-607.9
3809.251	-615.9
3811.897	-600.9
3814.542	-603.9
3817.184	-610.9
3819.825	-610.9
3822.463	-610.9
3825.1	-615.9
3827.735	-619.9
3830.367	-615.9
3832.998	-618.9
3835.627	-615.9
3838.253	-617.9
3840.878	-609.9
3843.501	-618.9
3846.122	-617.9
3848.741	-615.9
3851.358	-624.9
3853.973	-620.9
3856.586	-619.9
3859.197	-626.9
3861.806	-621.9
3864.414	-617.9
3867.019	-616.9
3869.622	-627.9
3872.224	-620.9
3874.823	-603.9
3877.421	-594.9
3880.016	-576.9
3882.61	-541.9
3885.202	-544.9
3887.792	-559.9
3890.38	-594.9
3892.966	-606.9
3895.55	-614.9
3898.132	-621.9
3900.713	-633.9
3903.291	-632.9
3905.868	-631.9
3908.442	-633.9
3911.015	-633.9
3913.586	-633.9
3916.155	-634.9
3918.722	-633.9
3921.287	-634.9
3923.85	-629.9
3926.411	-633.9
3928.971	-638.9
3931.528	-632.9
3934.084	-633.9
3936.638	-637.9
3939.19	-635.9
3941.74	-636.9
3944.288	-638.9
3946.834	-634.9
3949.378	-638.9
3951.921	-638.9
3954.462	-634.9
3957	-632.9
3959.537	-632.9
3962.072	-629.9
3964.606	-628.9
3967.137	-634.9
3969.667	-635.9
3972.194	-638.9
3974.72	-634.9
3977.244	-629.9
3979.766	-627.9
3982.286	-625.9
3984.805	-621.9
3987.321	-620.9
3989.836	-620.9
3992.349	-619.9
3994.86	-619.9
3997.369	-633.9
3999.877	-618.9
4002.382	-619.9
4004.886	-627.9
4007.388	-624.9
4009.888	-624.9
4012.386	-622.9
4014.883	-624.9
4017.377	-624.9
4019.87	-622.9
4022.361	-624.9
4024.85	-623.9
4027.338	-627.9
4029.823	-619.9
4032.307	-623.9
4034.789	-629.9
4037.269	-630.9
4039.747	-635.9
4042.224	-621.9
4044.699	-622.9
4047.172	-628.9
4049.643	-625.9
4052.112	-629.9
4054.58	-626.9
4057.046	-636.9
4059.51	-628.9
4061.972	-636.9
4064.432	-629.9
4066.891	-622.9
4069.348	-628.9
4071.803	-628.9
4074.256	-624.9
4076.708	-619.9
4079.158	-618.9
4081.606	-619.9
4084.052	-624.9
4086.497	-629.9
4088.939	-621.9
4091.38	-623.9
4093.819	-627.9
4096.257	-656.9
4098.693	-659.9
4101.127	-657.9
4103.559	-663.9
4105.989	-393.9
4108.418	-380.9
4110.845	-354.9
4113.27	-331.9
4115.694	-281.9
4118.115	-236.9
4120.535	-624.9
4122.954	-633.9
4125.37	-627.9
4127.785	-621.9
4130.198	-629.9
4132.609	-622.9
4135.019	-661.9
4137.427	-661.9
4139.833	-655.9
4142.237	-657.9
