Data from 2018-2-7_conc=3_RamanShift_22.txt Node
Date: Tue Feb 13 12:37:44 IST 2018
User: aro
Spectrometer: QEPB0276
Trigger mode: 0
Integration Time (sec): 3.000000E1
Scans to average: 1
Electric dark correction enabled: true
Nonlinearity correction enabled: false
Boxcar width: 0
XAxis mode: Raman Shifts
Number of Pixels in Spectrum: 1044
>>>>>Begin Spectral Data<<<<<
160.701	-160.4
166.742	21.6
172.777	581.6
178.805	2255.6
184.826	6160.6
190.841	12697.6
196.849	20106.6
202.85	25244.6
208.845	26848.6
214.833	26552.6
220.815	26140.6
226.789	25983.6
232.758	25891.6
238.719	25757.6
244.674	25398.6
250.623	24940.6
256.565	24469.6
262.5	23951.6
268.429	23590.6
274.351	23226.6
280.267	22968.6
286.176	22751.6
292.079	22480.6
297.975	22346.6
303.865	22108.6
309.748	21945.6
315.625	21844.6
321.495	21725.6
327.359	21658.6
333.217	21573.6
339.068	21559.6
344.912	21561.6
350.751	21543.6
356.583	21472.6
362.408	21483.6
368.227	21462.6
374.04	21443.6
379.847	21496.6
385.647	21634.6
391.44	21680.6
397.228	21794.6
403.009	21838.6
408.784	21928.6
414.553	22003.6
420.315	22058.6
426.071	22049.6
431.821	22018.6
437.565	22103.6
443.302	22009.6
449.033	21971.6
454.758	21881.6
460.477	21906.6
466.189	21893.6
471.896	21866.6
477.596	21776.6
483.29	21753.6
488.978	21731.6
494.66	21659.6
500.335	21480.6
506.005	21296.6
511.668	20958.6
517.325	20801.6
522.977	20654.6
528.622	20500.6
534.261	20350.6
539.894	20316.6
545.521	20198.6
551.141	20155.6
556.756	20137.6
562.365	19999.6
567.968	19912.6
573.565	19886.6
579.155	19819.6
584.74	19737.6
590.319	19660.6
595.892	19618.6
601.459	19535.6
607.02	19492.6
612.575	19351.6
618.124	19161.6
623.667	19109.6
629.204	18979.6
634.735	18926.6
640.261	18857.6
645.781	18755.6
651.294	18734.6
656.802	18771.6
662.304	18719.6
667.8	18687.6
673.29	18694.6
678.775	18575.6
684.254	18562.6
689.726	18552.6
695.193	18427.6
700.655	18352.6
706.11	18237.6
711.56	18220.6
717.004	18067.6
722.442	18007.6
727.874	18010.6
733.301	17905.6
738.722	17856.6
744.137	17853.6
749.547	17828.6
754.951	17862.6
760.349	17802.6
765.741	17859.6
771.128	17910.6
776.509	17866.6
781.885	17869.6
787.254	17816.6
792.618	17727.6
797.977	17617.6
803.33	17455.6
808.677	17426.6
814.019	17350.6
819.355	17223.6
824.686	17140.6
830.011	17119.6
835.33	17185.6
840.644	17096.6
845.952	17193.6
851.255	17221.6
856.552	17218.6
861.844	17211.6
867.13	17202.6
872.41	17105.6
877.686	17032.6
882.955	16917.6
888.219	16792.6
893.478	16583.6
898.731	16367.6
903.979	16203.6
909.221	16103.6
914.458	16052.6
919.69	16041.6
924.916	16103.6
930.136	16174.6
935.351	16155.6
940.561	16221.6
945.766	16128.6
950.965	16106.6
956.158	15978.6
961.347	15780.6
966.529	15571.6
971.707	15365.6
976.879	15233.6
982.046	15148.6
987.208	15085.6
992.364	15107.6
997.515	15202.6
1002.66	15317.6
1007.801	15422.6
1012.936	15594.6
1018.066	15594.6
1023.19	15578.6
1028.309	15574.6
1033.423	15580.6
1038.532	15445.6
1043.636	15284.6
1048.734	15137.6
1053.827	14954.6
1058.915	14778.6
1063.998	14690.6
1069.075	14663.6
1074.147	14677.6
1079.214	14713.6
1084.276	14809.6
1089.333	14911.6
1094.385	14982.6
1099.431	15015.6
1104.472	14995.6
1109.509	14912.6
1114.54	14761.6
1119.565	14532.6
1124.586	14453.6
1129.602	14259.6
1134.613	14203.6
1139.618	14115.6
1144.619	14114.6
1149.614	14059.6
1154.604	14021.6
1159.589	14124.6
1164.57	14198.6
1169.545	14176.6
1174.515	14177.6
1179.48	14141.6
1184.44	13998.6
1189.395	13948.6
1194.345	13800.6
1199.29	13736.6
1204.23	13709.6
1209.165	13779.6
1214.095	13851.6
1219.021	13906.6
1223.941	14048.6
1228.856	14034.6
1233.766	14092.6
1238.672	14102.6
1243.572	14092.6
1248.467	14054.6
1253.358	13853.6
1258.244	13687.6
1263.124	13464.6
1268	13264.6
1272.871	13126.6
1277.737	12962.6
1282.599	12927.6
1287.455	12916.6
1292.306	12968.6
1297.153	13029.6
1301.995	13072.6
1306.832	13080.6
1311.664	13084.6
1316.491	13031.6
1321.314	12931.6
1326.132	12709.6
1330.945	12420.6
1335.753	12102.6
1340.556	11818.6
1345.354	11590.6
1350.148	11436.6
1354.937	11386.6
1359.722	11417.6
1364.501	11464.6
1369.276	11547.6
1374.046	11741.6
1378.811	11895.6
1383.572	12028.6
1388.327	12054.6
1393.079	11967.6
1397.825	11829.6
1402.567	11634.6
1407.304	11480.6
1412.036	11397.6
1416.764	11333.6
1421.487	11196.6
1426.205	11198.6
1430.919	11124.6
1435.628	11135.6
1440.333	11221.6
1445.032	11142.6
1449.727	11214.6
1454.418	11183.6
1459.104	11088.6
1463.785	10882.6
1468.462	10619.6
1473.134	10388.6
1477.802	10168.6
1482.465	10020.6
1487.123	9906.6
1491.777	9903.6
1496.426	9943.6
1501.071	10081.6
1505.711	10237.6
1510.347	10406.6
1514.978	10563.6
1519.604	10734.6
1524.226	10849.6
1528.844	10820.6
1533.457	10793.6
1538.065	10722.6
1542.669	10718.6
1547.269	10629.6
1551.864	10549.6
1556.454	10533.6
1561.041	10526.6
1565.622	10488.6
1570.199	10485.6
1574.772	10518.6
1579.34	10638.6
1583.904	10656.6
1588.464	10727.6
1593.019	10651.6
1597.569	10652.6
1602.115	10577.6
1606.657	10471.6
1611.195	10434.6
1615.728	10386.6
1620.256	10336.6
1624.78	10291.6
1629.3	10302.6
1633.816	10335.6
1638.327	10391.6
1642.834	10420.6
1647.336	10445.6
1651.834	10432.6
1656.328	10457.6
1660.817	10393.6
1665.302	10366.6
1669.783	10071.6
1674.259	9869.6
1678.732	9548.6
1683.199	9220.6
1687.663	8912.6
1692.122	8729.6
1696.577	8601.6
1701.028	8629.6
1705.474	8672.6
1709.917	8777.6
1714.355	8836.6
1718.788	8775.6
1723.218	8651.6
1727.643	8474.6
1732.064	8279.6
1736.481	8138.6
1740.893	7936.6
1745.301	7741.6
1749.705	7489.6
1754.105	7262.6
1758.501	7063.6
1762.893	6909.6
1767.28	6743.6
1771.663	6568.6
1776.042	6419.6
1780.417	6395.6
1784.787	6390.6
1789.154	6549.6
1793.516	6619.6
1797.874	6774.6
1802.228	6894.6
1806.578	6928.6
1810.924	6924.6
1815.266	6871.6
1819.603	6782.6
1823.937	6670.6
1828.266	6562.6
1832.591	6435.6
1836.913	6392.6
1841.23	6316.6
1845.543	6297.6
1849.852	6230.6
1854.156	6226.6
1858.457	6224.6
1862.754	6181.6
1867.047	6190.6
1871.335	6195.6
1875.62	6168.6
1879.9	6161.6
1884.177	6109.6
1888.449	6022.6
1892.718	5987.6
1896.982	5895.6
1901.243	5854.6
1905.499	5805.6
1909.752	5823.6
1914	5799.6
1918.245	5823.6
1922.485	5913.6
1926.722	5921.6
1930.954	5996.6
1935.183	6085.6
1939.408	6117.6
1943.628	6183.6
1947.845	6176.6
1952.058	6141.6
1956.267	6126.6
1960.472	6045.6
1964.673	5975.6
1968.87	5859.6
1973.063	5752.6
1977.252	5693.6
1981.438	5631.6
1985.619	5541.6
1989.797	5528.6
1993.971	5476.6
1998.14	5484.6
2002.306	5392.6
2006.469	5413.6
2010.627	5386.6
2014.781	5319.6
2018.932	5305.6
2023.078	5262.6
2027.221	5165.6
2031.36	5113.6
2035.495	5032.6
2039.627	4924.6
2043.754	4891.6
2047.878	4830.6
2051.998	4817.6
2056.114	4773.6
2060.226	4776.6
2064.334	4800.6
2068.439	4831.6
2072.54	4830.6
2076.637	4867.6
2080.73	4876.6
2084.82	4940.6
2088.906	4967.6
2092.988	4965.6
2097.066	4965.6
2101.14	4917.6
2105.211	4848.6
2109.278	4860.6
2113.342	4811.6
2117.401	4766.6
2121.457	4784.6
2125.509	4734.6
2129.558	4687.6
2133.602	4709.6
2137.643	4662.6
2141.681	4657.6
2145.714	4603.6
2149.744	4602.6
2153.77	4560.6
2157.793	4535.6
2161.812	4488.6
2165.827	4383.6
2169.838	4353.6
2173.846	4257.6
2177.851	4183.6
2181.851	4121.6
2185.848	4097.6
2189.841	4034.6
2193.831	3991.6
2197.817	3967.6
2201.799	3935.6
2205.778	3905.6
2209.753	3940.6
2213.725	3891.6
2217.693	3889.6
2221.657	3885.6
2225.618	3872.6
2229.575	3871.6
2233.529	3839.6
2237.479	3821.6
2241.425	3746.6
2245.368	3719.6
2249.307	3665.6
2253.243	3589.6
2257.175	3552.6
2261.104	3516.6
2265.029	3464.6
2268.95	3446.6
2272.868	3380.6
2276.783	3354.6
2280.694	3313.6
2284.601	3311.6
2288.505	3287.6
2292.405	3219.6
2296.302	3214.6
2300.195	3168.6
2304.085	3127.6
2307.971	3093.6
2311.854	3065.6
2315.734	3007.6
2319.609	2968.6
2323.482	2934.6
2327.351	2901.6
2331.216	2897.6
2335.078	2874.6
2338.937	2859.6
2342.792	2837.6
2346.643	2838.6
2350.492	2839.6
2354.336	2839.6
2358.178	2832.6
2362.015	2849.6
2365.85	2853.6
2369.681	2875.6
2373.508	2860.6
2377.333	2886.6
2381.153	2847.6
2384.971	2839.6
2388.785	2816.6
2392.595	2772.6
2396.402	2733.6
2400.206	2746.6
2404.007	2721.6
2407.804	2720.6
2411.597	2693.6
2415.388	2691.6
2419.174	2671.6
2422.958	2641.6
2426.738	2608.6
2430.515	2620.6
2434.289	2569.6
2438.059	2543.6
2441.825	2537.6
2445.589	2510.6
2449.349	2486.6
2453.106	2449.6
2456.859	2440.6
2460.61	2388.6
2464.356	2328.6
2468.1	2339.6
2471.84	2318.6
2475.577	2297.6
2479.311	2283.6
2483.041	2276.6
2486.768	2239.6
2490.492	2253.6
2494.213	2247.6
2497.93	2229.6
2501.644	2243.6
2505.355	2202.6
2509.062	2207.6
2512.766	2200.6
2516.467	2188.6
2520.165	2164.6
2523.859	2161.6
2527.551	2148.6
2531.239	2135.6
2534.923	2109.6
2538.605	2104.6
2542.283	2091.6
2545.958	2081.6
2549.63	2077.6
2553.299	2110.6
2556.964	2074.6
2560.626	2070.6
2564.285	2068.6
2567.941	2060.6
2571.594	2021.6
2575.243	2047.6
2578.89	2021.6
2582.533	2003.6
2586.173	2020.6
2589.809	1981.6
2593.443	1953.6
2597.073	1943.6
2600.701	1935.6
2604.325	1917.6
2607.946	1903.6
2611.564	1877.6
2615.178	1882.6
2618.79	1861.6
2622.398	1833.6
2626.004	1833.6
2629.606	1796.6
2633.205	1766.6
2636.801	1757.6
2640.394	1738.6
2643.983	1702.6
2647.57	1695.6
2651.153	1672.6
2654.734	1628.6
2658.311	1598.6
2661.885	1591.6
2665.456	1566.6
2669.025	1537.6
2672.589	1545.6
2676.151	1496.6
2679.71	1486.6
2683.266	1457.6
2686.819	1438.6
2690.368	1384.6
2693.915	1381.6
2697.458	1363.6
2700.999	1329.6
2704.536	1284.6
2708.071	1259.6
2711.602	1251.6
2715.13	1212.6
2718.656	1169.6
2722.178	1149.6
2725.697	1143.6
2729.214	1127.6
2732.727	1135.6
2736.237	1119.6
2739.744	1114.6
2743.249	1120.6
2746.75	1127.6
2750.248	1142.6
2753.743	1148.6
2757.236	1158.6
2760.725	1172.6
2764.211	1166.6
2767.695	1183.6
2771.175	1183.6
2774.652	1173.6
2778.127	1182.6
2781.598	1154.6
2785.067	1162.6
2788.532	1156.6
2791.995	1139.6
2795.455	1142.6
2798.911	1140.6
2802.365	1142.6
2805.816	1143.6
2809.264	1153.6
2812.709	1139.6
2816.151	1136.6
2819.59	1145.6
2823.026	1129.6
2826.46	1142.6
2829.89	1127.6
2833.318	1140.6
2836.742	1141.6
2840.164	1146.6
2843.583	1159.6
2846.999	1170.6
2850.412	1170.6
2853.822	1189.6
2857.229	1195.6
2860.634	1209.6
2864.035	1225.6
2867.434	1246.6
2870.83	1276.6
2874.223	1289.6
2877.613	1332.6
2881	1303.6
2884.385	1332.6
2887.766	1295.6
2891.145	1314.6
2894.521	1312.6
2897.894	1309.6
2901.264	1290.6
2904.631	1303.6
2907.996	1302.6
2911.358	1288.6
2914.717	1317.6
2918.073	1317.6
2921.426	1338.6
2924.777	1351.6
2928.124	1368.6
2931.469	1375.6
2934.811	1400.6
2938.15	1417.6
2941.487	1411.6
2944.821	1442.6
2948.152	1432.6
2951.48	1426.6
2954.805	1397.6
2958.128	1381.6
2961.447	1386.6
2964.765	1378.6
2968.079	1374.6
2971.39	1389.6
2974.699	1399.6
2978.005	1402.6
2981.308	1442.6
2984.609	1477.6
2987.907	1488.6
2991.202	1512.6
2994.494	1545.6
2997.784	1567.6
3001.07	1622.6
3004.355	1619.6
3007.636	1655.6
3010.915	1650.6
3014.191	1666.6
3017.464	1699.6
3020.734	1686.6
3024.002	1707.6
3027.267	1703.6
3030.53	1722.6
3033.789	1743.6
3037.046	1759.6
3040.301	1783.6
3043.552	1812.6
3046.801	1849.6
3050.048	1892.6
3053.291	1935.6
3056.532	1991.6
3059.771	2048.6
3063.006	2119.6
3066.239	2181.6
3069.469	2222.6
3072.697	2289.6
3075.922	2324.6
3079.144	2390.6
3082.364	2432.6
3085.581	2462.6
3088.795	2565.6
3092.007	2593.6
3095.216	2679.6
3098.423	2699.6
3101.627	2758.6
3104.828	2802.6
3108.026	2886.6
3111.222	2948.6
3114.416	2981.6
3117.607	3048.6
3120.795	3150.6
3123.98	3186.6
3127.163	3305.6
3130.344	3372.6
3133.521	3431.6
3136.696	3506.6
3139.869	3567.6
3143.039	3617.6
3146.206	3701.6
3149.371	3758.6
3152.533	3763.6
3155.693	3787.6
3158.85	3805.6
3162.005	3811.6
3165.157	3832.6
3168.306	3844.6
3171.453	3847.6
3174.597	3870.6
3177.739	3866.6
3180.878	3862.6
3184.014	3885.6
3187.149	3884.6
3190.28	3849.6
3193.409	3861.6
3196.536	3893.6
3199.659	3896.6
3202.781	3888.6
3205.9	3859.6
3209.016	3904.6
3212.13	3874.6
3215.241	3813.6
3218.35	3805.6
3221.456	3724.6
3224.56	3682.6
3227.661	3674.6
3230.76	3649.6
3233.856	3586.6
3236.95	3548.6
3240.041	3503.6
3243.13	3518.6
3246.216	3480.6
3249.3	3440.6
3252.382	3424.6
3255.46	3426.6
3258.537	3401.6
3261.611	3422.6
3264.682	3407.6
3267.751	3406.6
3270.818	3379.6
3273.882	3345.6
3276.943	3380.6
3280.002	3344.6
3283.059	3277.6
3286.113	3258.6
3289.165	3202.6
3292.214	3180.6
3295.261	3110.6
3298.306	3064.6
3301.348	3016.6
3304.387	2958.6
3307.425	2912.6
3310.459	2898.6
3313.492	2843.6
3316.521	2796.6
3319.549	2780.6
3322.574	2749.6
3325.597	2734.6
3328.617	2711.6
3331.635	2682.6
3334.65	2685.6
3337.663	2664.6
3340.674	2646.6
3343.682	2627.6
3346.688	2609.6
3349.691	2578.6
3352.692	2576.6
3355.691	2563.6
3358.687	2527.6
3361.681	2509.6
3364.673	2493.6
3367.662	2435.6
3370.649	2395.6
3373.633	2391.6
3376.615	2337.6
3379.595	2314.6
3382.572	2265.6
3385.547	2254.6
3388.52	2223.6
3391.49	2190.6
3394.458	2135.6
3397.424	2107.6
3400.387	2081.6
3403.348	2075.6
3406.307	2007.6
3409.263	1992.6
3412.217	1992.6
3415.168	1964.6
3418.118	1929.6
3421.065	1888.6
3424.009	1871.6
3426.951	1835.6
3429.891	1793.6
3432.829	1779.6
3435.764	1726.6
3438.697	1666.6
3441.628	1633.6
3444.557	1583.6
3447.483	1546.6
3450.407	1478.6
3453.328	1453.6
3456.247	1388.6
3459.164	1323.6
3462.079	1281.6
3464.991	1240.6
3467.902	1186.6
3470.809	1125.6
3473.715	1099.6
3476.618	1052.6
3479.519	1028.6
3482.418	984.6
3485.315	942.6
3488.209	887.6
3491.101	874.6
3493.99	835.6
3496.878	809.6
3499.763	777.6
3502.646	739.6
3505.527	711.6
3508.405	658.6
3511.281	638.6
3514.155	589.6
3517.027	548.6
3519.897	504.6
3522.764	478.6
3525.629	428.6
3528.492	402.6
3531.352	360.6
3534.211	317.6
3537.067	285.6
3539.921	246.6
3542.773	227.6
3545.622	196.6
3548.469	159.6
3551.315	131.6
3554.157	112.6
3556.998	75.6
3559.837	58.6
3562.673	30.6
3565.507	23.6
3568.339	5.6
3571.169	-23.4
3573.996	-37.4
3576.822	-63.4
3579.645	-86.4
3582.466	-93.4
3585.285	-118.4
3588.101	-127.4
3590.916	-151.4
3593.728	-174.4
3596.538	-187.4
3599.346	-204.4
3602.152	-214.4
3604.956	-227.4
3607.757	-250.4
3610.556	-264.4
3613.354	-279.4
3616.149	-283.4
3618.942	-293.4
3621.732	-320.4
3624.521	-321.4
3627.307	-337.4
3630.092	-341.4
3632.874	-348.4
3635.654	-356.4
3638.432	-363.4
3641.208	-379.4
3643.982	-393.4
3646.753	-389.4
3649.523	-398.4
3652.29	-410.4
3655.055	-411.4
3657.818	-422.4
3660.579	-430.4
3663.338	-441.4
3666.095	-450.4
3668.849	-475.4
3671.602	-468.4
3674.352	-483.4
3677.101	-480.4
3679.847	-498.4
3682.591	-491.4
3685.333	-501.4
3688.073	-513.4
3690.811	-521.4
3693.547	-514.4
3696.281	-522.4
3699.013	-528.4
3701.742	-529.4
3704.47	-539.4
3707.195	-549.4
3709.919	-548.4
3712.64	-550.4
3715.359	-549.4
3718.076	-553.4
3720.792	-560.4
3723.505	-560.4
3726.216	-570.4
3728.925	-562.4
3731.632	-589.4
3734.336	-576.4
3737.039	-585.4
3739.74	-582.4
3742.439	-583.4
3745.136	-584.4
3747.83	-587.4
3750.523	-584.4
3753.213	-593.4
3755.902	-597.4
3758.589	-593.4
3761.273	-594.4
3763.956	-602.4
3766.636	-594.4
3769.315	-603.4
3771.991	-604.4
3774.665	-611.4
3777.338	-606.4
3780.008	-602.4
3782.677	-604.4
3785.343	-611.4
3788.007	-602.4
3790.67	-606.4
3793.33	-617.4
3795.989	-613.4
3798.645	-621.4
3801.299	-612.4
3803.952	-624.4
3806.602	-620.4
3809.251	-623.4
3811.897	-620.4
3814.542	-616.4
3817.184	-624.4
3819.825	-619.4
3822.463	-622.4
3825.1	-623.4
3827.735	-634.4
3830.367	-634.4
3832.998	-626.4
3835.627	-635.4
3838.253	-630.4
3840.878	-629.4
3843.501	-632.4
3846.122	-630.4
3848.741	-628.4
3851.358	-636.4
3853.973	-630.4
3856.586	-630.4
3859.197	-638.4
3861.806	-631.4
3864.414	-632.4
3867.019	-628.4
3869.622	-633.4
3872.224	-633.4
3874.823	-620.4
3877.421	-601.4
3880.016	-590.4
3882.61	-557.4
3885.202	-562.4
3887.792	-582.4
3890.38	-606.4
3892.966	-626.4
3895.55	-632.4
3898.132	-639.4
3900.713	-643.4
3903.291	-643.4
3905.868	-648.4
3908.442	-646.4
3911.015	-646.4
3913.586	-647.4
3916.155	-651.4
3918.722	-643.4
3921.287	-646.4
3923.85	-642.4
3926.411	-648.4
3928.971	-653.4
3931.528	-649.4
3934.084	-643.4
3936.638	-647.4
3939.19	-651.4
3941.74	-655.4
3944.288	-649.4
3946.834	-653.4
3949.378	-655.4
3951.921	-655.4
3954.462	-652.4
3957	-648.4
3959.537	-643.4
3962.072	-642.4
3964.606	-640.4
3967.137	-652.4
3969.667	-646.4
3972.194	-644.4
3974.72	-648.4
3977.244	-633.4
3979.766	-633.4
3982.286	-642.4
3984.805	-629.4
3987.321	-637.4
3989.836	-638.4
3992.349	-633.4
3994.86	-630.4
3997.369	-642.4
3999.877	-632.4
4002.382	-631.4
4004.886	-639.4
4007.388	-641.4
4009.888	-634.4
4012.386	-638.4
4014.883	-635.4
4017.377	-638.4
4019.87	-641.4
4022.361	-637.4
4024.85	-637.4
4027.338	-636.4
4029.823	-637.4
4032.307	-640.4
4034.789	-640.4
4037.269	-643.4
4039.747	-641.4
4042.224	-634.4
4044.699	-642.4
4047.172	-640.4
4049.643	-635.4
4052.112	-640.4
4054.58	-633.4
4057.046	-642.4
4059.51	-642.4
4061.972	-646.4
4064.432	-640.4
4066.891	-638.4
4069.348	-641.4
4071.803	-640.4
4074.256	-636.4
4076.708	-642.4
4079.158	-635.4
4081.606	-636.4
4084.052	-630.4
4086.497	-633.4
4088.939	-630.4
4091.38	-630.4
4093.819	-632.4
4096.257	-669.4
4098.693	-672.4
4101.127	-671.4
4103.559	-674.4
4105.989	-406.4
4108.418	-388.4
4110.845	-361.4
4113.27	-335.4
4115.694	-294.4
4118.115	-248.4
4120.535	-631.4
4122.954	-641.4
4125.37	-632.4
4127.785	-636.4
4130.198	-643.4
4132.609	-635.4
4135.019	-675.4
4137.427	-674.4
4139.833	-675.4
4142.237	-673.4
