Data from 2018-2-7_conc=6_RamanShift_05.txt Node
Date: Tue Feb 13 14:29:13 IST 2018
User: aro
Spectrometer: QEPB0276
Trigger mode: 0
Integration Time (sec): 3.000000E1
Scans to average: 1
Electric dark correction enabled: true
Nonlinearity correction enabled: false
Boxcar width: 0
XAxis mode: Raman Shifts
Number of Pixels in Spectrum: 1044
>>>>>Begin Spectral Data<<<<<
160.701	-163.9
166.742	37.1
172.777	622.1
178.805	2399.1
184.826	6558.1
190.841	13514.1
196.849	21468.1
202.85	26990.1
208.845	28753.1
214.833	28465.1
220.815	27961.1
226.789	27679.1
232.758	27682.1
238.719	27510.1
244.674	27194.1
250.623	26752.1
256.565	26233.1
262.5	25663.1
268.429	25200.1
274.351	24819.1
280.267	24499.1
286.176	24286.1
292.079	24047.1
297.975	23887.1
303.865	23680.1
309.748	23483.1
315.625	23323.1
321.495	23217.1
327.359	23233.1
333.217	23167.1
339.068	23156.1
344.912	23044.1
350.751	23086.1
356.583	23051.1
362.408	23059.1
368.227	23055.1
374.04	23072.1
379.847	23090.1
385.647	23194.1
391.44	23286.1
397.228	23359.1
403.009	23444.1
408.784	23535.1
414.553	23563.1
420.315	23618.1
426.071	23686.1
431.821	23551.1
437.565	23644.1
443.302	23576.1
449.033	23586.1
454.758	23451.1
460.477	23459.1
466.189	23385.1
471.896	23284.1
477.596	23336.1
483.29	23277.1
488.978	23247.1
494.66	23174.1
500.335	22985.1
506.005	22734.1
511.668	22557.1
517.325	22278.1
522.977	22057.1
528.622	21923.1
534.261	21773.1
539.894	21684.1
545.521	21577.1
551.141	21553.1
556.756	21445.1
562.365	21381.1
567.968	21308.1
573.565	21170.1
579.155	21120.1
584.74	21041.1
590.319	20920.1
595.892	20886.1
601.459	20845.1
607.02	20720.1
612.575	20641.1
618.124	20455.1
623.667	20320.1
629.204	20202.1
634.735	20146.1
640.261	20150.1
645.781	19995.1
651.294	20017.1
656.802	19953.1
662.304	19962.1
667.8	19805.1
673.29	19879.1
678.775	19775.1
684.254	19649.1
689.726	19671.1
695.193	19636.1
700.655	19528.1
706.11	19400.1
711.56	19355.1
717.004	19237.1
722.442	19121.1
727.874	19062.1
733.301	19009.1
738.722	18932.1
744.137	18932.1
749.547	18890.1
754.951	18928.1
760.349	18945.1
765.741	18912.1
771.128	18892.1
776.509	18908.1
781.885	18906.1
787.254	18906.1
792.618	18840.1
797.977	18668.1
803.33	18558.1
808.677	18447.1
814.019	18370.1
819.355	18206.1
824.686	18177.1
830.011	18157.1
835.33	18100.1
840.644	18141.1
845.952	18145.1
851.255	18190.1
856.552	18239.1
861.844	18214.1
867.13	18153.1
872.41	18121.1
877.686	17952.1
882.955	17817.1
888.219	17755.1
893.478	17457.1
898.731	17241.1
903.979	17094.1
909.221	16987.1
914.458	16942.1
919.69	16887.1
924.916	16934.1
930.136	17043.1
935.351	17046.1
940.561	17037.1
945.766	16920.1
950.965	16989.1
956.158	16774.1
961.347	16576.1
966.529	16440.1
971.707	16188.1
976.879	15948.1
982.046	15829.1
987.208	15840.1
992.364	15828.1
997.515	15915.1
1002.66	16081.1
1007.801	16191.1
1012.936	16352.1
1018.066	16408.1
1023.19	16363.1
1028.309	16365.1
1033.423	16267.1
1038.532	16168.1
1043.636	16094.1
1048.734	15876.1
1053.827	15595.1
1058.915	15483.1
1063.998	15384.1
1069.075	15388.1
1074.147	15338.1
1079.214	15380.1
1084.276	15473.1
1089.333	15532.1
1094.385	15686.1
1099.431	15706.1
1104.472	15657.1
1109.509	15623.1
1114.54	15432.1
1119.565	15234.1
1124.586	15018.1
1129.602	14846.1
1134.613	14803.1
1139.618	14696.1
1144.619	14596.1
1149.614	14651.1
1154.604	14657.1
1159.589	14733.1
1164.57	14706.1
1169.545	14758.1
1174.515	14765.1
1179.48	14646.1
1184.44	14547.1
1189.395	14456.1
1194.345	14327.1
1199.29	14331.1
1204.23	14301.1
1209.165	14345.1
1214.095	14409.1
1219.021	14456.1
1223.941	14539.1
1228.856	14632.1
1233.766	14623.1
1238.672	14604.1
1243.572	14644.1
1248.467	14551.1
1253.358	14362.1
1258.244	14115.1
1263.124	13941.1
1268	13760.1
1272.871	13559.1
1277.737	13472.1
1282.599	13390.1
1287.455	13421.1
1292.306	13410.1
1297.153	13481.1
1301.995	13520.1
1306.832	13540.1
1311.664	13595.1
1316.491	13596.1
1321.314	13394.1
1326.132	13233.1
1330.945	12962.1
1335.753	12573.1
1340.556	12312.1
1345.354	12034.1
1350.148	11893.1
1354.937	11739.1
1359.722	11758.1
1364.501	11807.1
1369.276	11864.1
1374.046	12000.1
1378.811	12145.1
1383.572	12298.1
1388.327	12350.1
1393.079	12289.1
1397.825	12165.1
1402.567	12033.1
1407.304	11850.1
1412.036	11765.1
1416.764	11710.1
1421.487	11588.1
1426.205	11517.1
1430.919	11483.1
1435.628	11551.1
1440.333	11480.1
1445.032	11573.1
1449.727	11581.1
1454.418	11567.1
1459.104	11399.1
1463.785	11224.1
1468.462	10959.1
1473.134	10689.1
1477.802	10518.1
1482.465	10336.1
1487.123	10165.1
1491.777	10143.1
1496.426	10146.1
1501.071	10288.1
1505.711	10406.1
1510.347	10592.1
1514.978	10756.1
1519.604	10882.1
1524.226	11064.1
1528.844	11025.1
1533.457	11003.1
1538.065	10954.1
1542.669	10938.1
1547.269	10823.1
1551.864	10740.1
1556.454	10724.1
1561.041	10756.1
1565.622	10740.1
1570.199	10790.1
1574.772	10790.1
1579.34	10906.1
1583.904	10966.1
1588.464	10958.1
1593.019	10897.1
1597.569	10944.1
1602.115	10914.1
1606.657	10803.1
1611.195	10700.1
1615.728	10630.1
1620.256	10577.1
1624.78	10583.1
1629.3	10611.1
1633.816	10656.1
1638.327	10693.1
1642.834	10729.1
1647.336	10789.1
1651.834	10738.1
1656.328	10712.1
1660.817	10682.1
1665.302	10566.1
1669.783	10393.1
1674.259	10111.1
1678.732	9839.1
1683.199	9496.1
1687.663	9163.1
1692.122	8935.1
1696.577	8768.1
1701.028	8701.1
1705.474	8693.1
1709.917	8771.1
1714.355	8839.1
1718.788	8765.1
1723.218	8663.1
1727.643	8529.1
1732.064	8385.1
1736.481	8197.1
1740.893	8009.1
1745.301	7805.1
1749.705	7591.1
1754.105	7351.1
1758.501	7171.1
1762.893	6965.1
1767.28	6815.1
1771.663	6652.1
1776.042	6521.1
1780.417	6482.1
1784.787	6499.1
1789.154	6516.1
1793.516	6589.1
1797.874	6699.1
1802.228	6834.1
1806.578	6871.1
1810.924	6905.1
1815.266	6821.1
1819.603	6714.1
1823.937	6631.1
1828.266	6565.1
1832.591	6446.1
1836.913	6341.1
1841.23	6313.1
1845.543	6269.1
1849.852	6223.1
1854.156	6224.1
1858.457	6207.1
1862.754	6195.1
1867.047	6201.1
1871.335	6171.1
1875.62	6150.1
1879.9	6114.1
1884.177	6090.1
1888.449	6025.1
1892.718	5955.1
1896.982	5880.1
1901.243	5848.1
1905.499	5797.1
1909.752	5754.1
1914	5737.1
1918.245	5765.1
1922.485	5769.1
1926.722	5856.1
1930.954	5899.1
1935.183	5963.1
1939.408	6011.1
1943.628	6028.1
1947.845	6049.1
1952.058	6052.1
1956.267	6012.1
1960.472	5937.1
1964.673	5855.1
1968.87	5731.1
1973.063	5686.1
1977.252	5601.1
1981.438	5550.1
1985.619	5507.1
1989.797	5440.1
1993.971	5420.1
1998.14	5414.1
2002.306	5395.1
2006.469	5342.1
2010.627	5315.1
2014.781	5307.1
2018.932	5256.1
2023.078	5217.1
2027.221	5139.1
2031.36	5075.1
2035.495	4940.1
2039.627	4900.1
2043.754	4825.1
2047.878	4786.1
2051.998	4715.1
2056.114	4753.1
2060.226	4758.1
2064.334	4713.1
2068.439	4723.1
2072.54	4750.1
2076.637	4794.1
2080.73	4810.1
2084.82	4819.1
2088.906	4864.1
2092.988	4821.1
2097.066	4817.1
2101.14	4811.1
2105.211	4748.1
2109.278	4728.1
2113.342	4690.1
2117.401	4683.1
2121.457	4669.1
2125.509	4637.1
2129.558	4578.1
2133.602	4541.1
2137.643	4559.1
2141.681	4550.1
2145.714	4541.1
2149.744	4503.1
2153.77	4463.1
2157.793	4411.1
2161.812	4369.1
2165.827	4292.1
2169.838	4232.1
2173.846	4186.1
2177.851	4055.1
2181.851	4071.1
2185.848	4002.1
2189.841	3933.1
2193.831	3892.1
2197.817	3858.1
2201.799	3851.1
2205.778	3817.1
2209.753	3829.1
2213.725	3810.1
2217.693	3789.1
2221.657	3797.1
2225.618	3760.1
2229.575	3795.1
2233.529	3724.1
2237.479	3664.1
2241.425	3658.1
2245.368	3591.1
2249.307	3545.1
2253.243	3495.1
2257.175	3458.1
2261.104	3392.1
2265.029	3368.1
2268.95	3327.1
2272.868	3294.1
2276.783	3251.1
2280.694	3184.1
2284.601	3178.1
2288.505	3166.1
2292.405	3150.1
2296.302	3090.1
2300.195	3063.1
2304.085	3024.1
2307.971	3003.1
2311.854	2953.1
2315.734	2890.1
2319.609	2893.1
2323.482	2795.1
2327.351	2770.1
2331.216	2773.1
2335.078	2794.1
2338.937	2747.1
2342.792	2726.1
2346.643	2708.1
2350.492	2731.1
2354.336	2755.1
2358.178	2731.1
2362.015	2725.1
2365.85	2752.1
2369.681	2758.1
2373.508	2774.1
2377.333	2786.1
2381.153	2752.1
2384.971	2745.1
2388.785	2715.1
2392.595	2697.1
2396.402	2673.1
2400.206	2640.1
2404.007	2610.1
2407.804	2612.1
2411.597	2579.1
2415.388	2593.1
2419.174	2561.1
2422.958	2544.1
2426.738	2531.1
2430.515	2502.1
2434.289	2480.1
2438.059	2437.1
2441.825	2432.1
2445.589	2416.1
2449.349	2404.1
2453.106	2341.1
2456.859	2319.1
2460.61	2292.1
2464.356	2257.1
2468.1	2242.1
2471.84	2209.1
2475.577	2165.1
2479.311	2195.1
2483.041	2163.1
2486.768	2178.1
2490.492	2144.1
2494.213	2135.1
2497.93	2144.1
2501.644	2126.1
2505.355	2099.1
2509.062	2102.1
2512.766	2075.1
2516.467	2050.1
2520.165	2054.1
2523.859	2032.1
2527.551	2001.1
2531.239	2016.1
2534.923	1988.1
2538.605	1973.1
2542.283	1960.1
2545.958	1964.1
2549.63	1940.1
2553.299	1949.1
2556.964	1947.1
2560.626	1948.1
2564.285	1937.1
2567.941	1923.1
2571.594	1902.1
2575.243	1889.1
2578.89	1882.1
2582.533	1878.1
2586.173	1855.1
2589.809	1836.1
2593.443	1805.1
2597.073	1798.1
2600.701	1794.1
2604.325	1771.1
2607.946	1767.1
2611.564	1759.1
2615.178	1758.1
2618.79	1723.1
2622.398	1691.1
2626.004	1701.1
2629.606	1670.1
2633.205	1650.1
2636.801	1623.1
2640.394	1613.1
2643.983	1604.1
2647.57	1569.1
2651.153	1540.1
2654.734	1511.1
2658.311	1496.1
2661.885	1476.1
2665.456	1450.1
2669.025	1440.1
2672.589	1436.1
2676.151	1392.1
2679.71	1386.1
2683.266	1362.1
2686.819	1331.1
2690.368	1301.1
2693.915	1276.1
2697.458	1243.1
2700.999	1220.1
2704.536	1186.1
2708.071	1165.1
2711.602	1153.1
2715.13	1131.1
2718.656	1096.1
2722.178	1062.1
2725.697	1069.1
2729.214	1042.1
2732.727	1046.1
2736.237	1013.1
2739.744	1018.1
2743.249	1029.1
2746.75	1020.1
2750.248	1027.1
2753.743	1021.1
2757.236	1042.1
2760.725	1064.1
2764.211	1058.1
2767.695	1063.1
2771.175	1041.1
2774.652	1036.1
2778.127	1042.1
2781.598	1018.1
2785.067	1024.1
2788.532	1045.1
2791.995	1022.1
2795.455	1018.1
2798.911	1045.1
2802.365	1043.1
2805.816	1027.1
2809.264	1026.1
2812.709	1038.1
2816.151	1017.1
2819.59	1039.1
2823.026	1033.1
2826.46	1030.1
2829.89	1040.1
2833.318	1033.1
2836.742	1022.1
2840.164	1064.1
2843.583	1070.1
2846.999	1053.1
2850.412	1068.1
2853.822	1070.1
2857.229	1092.1
2860.634	1138.1
2864.035	1136.1
2867.434	1159.1
2870.83	1180.1
2874.223	1206.1
2877.613	1226.1
2881	1248.1
2884.385	1280.1
2887.766	1246.1
2891.145	1254.1
2894.521	1252.1
2897.894	1264.1
2901.264	1237.1
2904.631	1232.1
2907.996	1239.1
2911.358	1255.1
2914.717	1272.1
2918.073	1271.1
2921.426	1304.1
2924.777	1308.1
2928.124	1324.1
2931.469	1351.1
2934.811	1382.1
2938.15	1403.1
2941.487	1397.1
2944.821	1418.1
2948.152	1378.1
2951.48	1392.1
2954.805	1391.1
2958.128	1362.1
2961.447	1347.1
2964.765	1345.1
2968.079	1350.1
2971.39	1358.1
2974.699	1394.1
2978.005	1405.1
2981.308	1447.1
2984.609	1450.1
2987.907	1477.1
2991.202	1516.1
2994.494	1552.1
2997.784	1559.1
3001.07	1585.1
3004.355	1636.1
3007.636	1644.1
3010.915	1661.1
3014.191	1682.1
3017.464	1705.1
3020.734	1694.1
3024.002	1709.1
3027.267	1722.1
3030.53	1732.1
3033.789	1757.1
3037.046	1777.1
3040.301	1793.1
3043.552	1832.1
3046.801	1861.1
3050.048	1940.1
3053.291	1981.1
3056.532	2046.1
3059.771	2097.1
3063.006	2159.1
3066.239	2214.1
3069.469	2265.1
3072.697	2331.1
3075.922	2402.1
3079.144	2475.1
3082.364	2536.1
3085.581	2579.1
3088.795	2623.1
3092.007	2684.1
3095.216	2708.1
3098.423	2797.1
3101.627	2858.1
3104.828	2921.1
3108.026	3001.1
3111.222	3040.1
3114.416	3108.1
3117.607	3178.1
3120.795	3256.1
3123.98	3323.1
3127.163	3419.1
3130.344	3504.1
3133.521	3596.1
3136.696	3682.1
3139.869	3762.1
3143.039	3781.1
3146.206	3894.1
3149.371	3923.1
3152.533	3964.1
3155.693	3984.1
3158.85	4007.1
3162.005	4018.1
3165.157	4020.1
3168.306	4041.1
3171.453	4076.1
3174.597	4051.1
3177.739	4041.1
3180.878	4065.1
3184.014	4100.1
3187.149	4095.1
3190.28	4083.1
3193.409	4092.1
3196.536	4120.1
3199.659	4090.1
3202.781	4096.1
3205.9	4103.1
3209.016	4096.1
3212.13	4088.1
3215.241	4018.1
3218.35	4017.1
3221.456	3963.1
3224.56	3916.1
3227.661	3854.1
3230.76	3827.1
3233.856	3787.1
3236.95	3792.1
3240.041	3753.1
3243.13	3709.1
3246.216	3674.1
3249.3	3652.1
3252.382	3657.1
3255.46	3646.1
3258.537	3603.1
3261.611	3612.1
3264.682	3634.1
3267.751	3642.1
3270.818	3642.1
3273.882	3592.1
3276.943	3564.1
3280.002	3544.1
3283.059	3528.1
3286.113	3484.1
3289.165	3422.1
3292.214	3364.1
3295.261	3340.1
3298.306	3291.1
3301.348	3225.1
3304.387	3143.1
3307.425	3144.1
3310.459	3092.1
3313.492	3031.1
3316.521	2972.1
3319.549	2964.1
3322.574	2922.1
3325.597	2893.1
3328.617	2897.1
3331.635	2845.1
3334.65	2836.1
3337.663	2817.1
3340.674	2824.1
3343.682	2782.1
3346.688	2810.1
3349.691	2792.1
3352.692	2756.1
3355.691	2733.1
3358.687	2724.1
3361.681	2684.1
3364.673	2646.1
3367.662	2599.1
3370.649	2569.1
3373.633	2535.1
3376.615	2512.1
3379.595	2462.1
3382.572	2403.1
3385.547	2407.1
3388.52	2360.1
3391.49	2301.1
3394.458	2279.1
3397.424	2235.1
3400.387	2217.1
3403.348	2178.1
3406.307	2154.1
3409.263	2153.1
3412.217	2122.1
3415.168	2092.1
3418.118	2063.1
3421.065	2038.1
3424.009	1996.1
3426.951	1975.1
3429.891	1968.1
3432.829	1882.1
3435.764	1848.1
3438.697	1805.1
3441.628	1751.1
3444.557	1715.1
3447.483	1640.1
3450.407	1597.1
3453.328	1548.1
3456.247	1487.1
3459.164	1436.1
3462.079	1375.1
3464.991	1321.1
3467.902	1269.1
3470.809	1250.1
3473.715	1172.1
3476.618	1138.1
3479.519	1106.1
3482.418	1053.1
3485.315	1010.1
3488.209	966.1
3491.101	953.1
3493.99	905.1
3496.878	876.1
3499.763	839.1
3502.646	804.1
3505.527	761.1
3508.405	715.1
3511.281	668.1
3514.155	637.1
3517.027	603.1
3519.897	556.1
3522.764	517.1
3525.629	477.1
3528.492	437.1
3531.352	393.1
3534.211	356.1
3537.067	311.1
3539.921	271.1
3542.773	251.1
3545.622	203.1
3548.469	180.1
3551.315	147.1
3554.157	135.1
3556.998	94.1
3559.837	74.1
3562.673	43.1
3565.507	24.1
3568.339	3.1
3571.169	-15.9
3573.996	-34.9
3576.822	-56.9
3579.645	-89.9
3582.466	-98.9
3585.285	-119.9
3588.101	-129.9
3590.916	-165.9
3593.728	-184.9
3596.538	-199.9
3599.346	-207.9
3602.152	-233.9
3604.956	-234.9
3607.757	-266.9
3610.556	-263.9
3613.354	-297.9
3616.149	-307.9
3618.942	-315.9
3621.732	-323.9
3624.521	-349.9
3627.307	-356.9
3630.092	-360.9
3632.874	-381.9
3635.654	-382.9
3638.432	-381.9
3641.208	-401.9
3643.982	-411.9
3646.753	-413.9
3649.523	-435.9
3652.29	-439.9
3655.055	-448.9
3657.818	-455.9
3660.579	-463.9
3663.338	-474.9
3666.095	-491.9
3668.849	-502.9
3671.602	-507.9
3674.352	-506.9
3677.101	-524.9
3679.847	-531.9
3682.591	-529.9
3685.333	-544.9
3688.073	-551.9
3690.811	-552.9
3693.547	-557.9
3696.281	-572.9
3699.013	-568.9
3701.742	-573.9
3704.47	-579.9
3707.195	-596.9
3709.919	-590.9
3712.64	-590.9
3715.359	-594.9
3718.076	-602.9
3720.792	-608.9
3723.505	-605.9
3726.216	-606.9
3728.925	-609.9
3731.632	-625.9
3734.336	-621.9
3737.039	-633.9
3739.74	-631.9
3742.439	-627.9
3745.136	-631.9
3747.83	-630.9
3750.523	-630.9
3753.213	-639.9
3755.902	-642.9
3758.589	-636.9
3761.273	-642.9
3763.956	-647.9
3766.636	-655.9
3769.315	-655.9
3771.991	-652.9
3774.665	-651.9
3777.338	-651.9
3780.008	-653.9
3782.677	-654.9
3785.343	-662.9
3788.007	-651.9
3790.67	-658.9
3793.33	-663.9
3795.989	-664.9
3798.645	-665.9
3801.299	-667.9
3803.952	-670.9
3806.602	-667.9
3809.251	-669.9
3811.897	-666.9
3814.542	-663.9
3817.184	-671.9
3819.825	-672.9
3822.463	-665.9
3825.1	-673.9
3827.735	-684.9
3830.367	-682.9
3832.998	-678.9
3835.627	-682.9
3838.253	-681.9
3840.878	-678.9
3843.501	-680.9
3846.122	-677.9
3848.741	-682.9
3851.358	-686.9
3853.973	-680.9
3856.586	-679.9
3859.197	-684.9
3861.806	-681.9
3864.414	-674.9
3867.019	-680.9
3869.622	-684.9
3872.224	-672.9
3874.823	-665.9
3877.421	-646.9
3880.016	-631.9
3882.61	-580.9
3885.202	-582.9
3887.792	-613.9
3890.38	-639.9
3892.966	-663.9
3895.55	-678.9
3898.132	-679.9
3900.713	-696.9
3903.291	-700.9
3905.868	-693.9
3908.442	-692.9
3911.015	-692.9
3913.586	-693.9
3916.155	-693.9
3918.722	-691.9
3921.287	-693.9
3923.85	-696.9
3926.411	-697.9
3928.971	-696.9
3931.528	-695.9
3934.084	-685.9
3936.638	-698.9
3939.19	-698.9
3941.74	-708.9
3944.288	-701.9
3946.834	-707.9
3949.378	-700.9
3951.921	-697.9
3954.462	-703.9
3957	-700.9
3959.537	-693.9
3962.072	-697.9
3964.606	-693.9
3967.137	-695.9
3969.667	-694.9
3972.194	-693.9
3974.72	-692.9
3977.244	-686.9
3979.766	-690.9
3982.286	-689.9
3984.805	-680.9
3987.321	-687.9
3989.836	-683.9
3992.349	-679.9
3994.86	-679.9
3997.369	-691.9
3999.877	-679.9
4002.382	-681.9
4004.886	-689.9
4007.388	-688.9
4009.888	-680.9
4012.386	-686.9
4014.883	-682.9
4017.377	-686.9
4019.87	-681.9
4022.361	-684.9
4024.85	-686.9
4027.338	-684.9
4029.823	-678.9
4032.307	-685.9
4034.789	-684.9
4037.269	-692.9
4039.747	-696.9
4042.224	-682.9
4044.699	-687.9
4047.172	-688.9
4049.643	-685.9
4052.112	-687.9
4054.58	-683.9
4057.046	-689.9
4059.51	-690.9
4061.972	-693.9
4064.432	-687.9
4066.891	-683.9
4069.348	-690.9
4071.803	-691.9
4074.256	-683.9
4076.708	-688.9
4079.158	-679.9
4081.606	-679.9
4084.052	-683.9
4086.497	-688.9
4088.939	-678.9
4091.38	-676.9
4093.819	-676.9
4096.257	-724.9
4098.693	-720.9
4101.127	-724.9
4103.559	-723.9
4105.989	-430.9
4108.418	-403.9
4110.845	-382.9
4113.27	-359.9
4115.694	-298.9
4118.115	-246.9
4120.535	-682.9
4122.954	-691.9
4125.37	-680.9
4127.785	-682.9
4130.198	-686.9
4132.609	-679.9
4135.019	-726.9
4137.427	-722.9
4139.833	-722.9
4142.237	-721.9
