Data from 2018-2-7_conc=2_RamanShift_15.txt Node
Date: Tue Feb 13 11:54:14 IST 2018
User: aro
Spectrometer: QEPB0276
Trigger mode: 0
Integration Time (sec): 3.000000E1
Scans to average: 1
Electric dark correction enabled: true
Nonlinearity correction enabled: false
Boxcar width: 0
XAxis mode: Raman Shifts
Number of Pixels in Spectrum: 1044
>>>>>Begin Spectral Data<<<<<
160.701	-144.8
166.742	30.2
172.777	559.2
178.805	2127.2
184.826	5864.2
190.841	12067.2
196.849	19031.2
202.85	23789.2
208.845	25358.2
214.833	25008.2
220.815	24527.2
226.789	24346.2
232.758	24206.2
238.719	24008.2
244.674	23625.2
250.623	23214.2
256.565	22731.2
262.5	22167.2
268.429	21762.2
274.351	21374.2
280.267	21118.2
286.176	20846.2
292.079	20598.2
297.975	20452.2
303.865	20235.2
309.748	20053.2
315.625	19924.2
321.495	19805.2
327.359	19709.2
333.217	19641.2
339.068	19649.2
344.912	19606.2
350.751	19649.2
356.583	19635.2
362.408	19582.2
368.227	19567.2
374.04	19601.2
379.847	19643.2
385.647	19699.2
391.44	19727.2
397.228	19815.2
403.009	19955.2
408.784	20039.2
414.553	20097.2
420.315	20161.2
426.071	20168.2
431.821	20120.2
437.565	20126.2
443.302	20128.2
449.033	20033.2
454.758	19991.2
460.477	19977.2
466.189	19942.2
471.896	19849.2
477.596	19789.2
483.29	19706.2
488.978	19782.2
494.66	19671.2
500.335	19573.2
506.005	19366.2
511.668	19140.2
517.325	18888.2
522.977	18758.2
528.622	18594.2
534.261	18509.2
539.894	18335.2
545.521	18286.2
551.141	18255.2
556.756	18149.2
562.365	18134.2
567.968	18051.2
573.565	18005.2
579.155	17900.2
584.74	17823.2
590.319	17767.2
595.892	17731.2
601.459	17671.2
607.02	17587.2
612.575	17467.2
618.124	17356.2
623.667	17256.2
629.204	17195.2
634.735	17064.2
640.261	17015.2
645.781	16995.2
651.294	16887.2
656.802	16940.2
662.304	16860.2
667.8	16849.2
673.29	16842.2
678.775	16841.2
684.254	16713.2
689.726	16642.2
695.193	16616.2
700.655	16512.2
706.11	16446.2
711.56	16408.2
717.004	16296.2
722.442	16300.2
727.874	16181.2
733.301	16106.2
738.722	16075.2
744.137	16065.2
749.547	16076.2
754.951	16058.2
760.349	16126.2
765.741	16080.2
771.128	16089.2
776.509	16127.2
781.885	16047.2
787.254	16024.2
792.618	15979.2
797.977	15874.2
803.33	15803.2
808.677	15648.2
814.019	15643.2
819.355	15490.2
824.686	15422.2
830.011	15381.2
835.33	15385.2
840.644	15472.2
845.952	15490.2
851.255	15520.2
856.552	15521.2
861.844	15533.2
867.13	15500.2
872.41	15436.2
877.686	15308.2
882.955	15212.2
888.219	15100.2
893.478	14881.2
898.731	14708.2
903.979	14560.2
909.221	14465.2
914.458	14412.2
919.69	14423.2
924.916	14499.2
930.136	14560.2
935.351	14495.2
940.561	14492.2
945.766	14477.2
950.965	14430.2
956.158	14273.2
961.347	14195.2
966.529	13988.2
971.707	13835.2
976.879	13659.2
982.046	13562.2
987.208	13484.2
992.364	13566.2
997.515	13606.2
1002.66	13734.2
1007.801	13891.2
1012.936	13979.2
1018.066	13958.2
1023.19	13977.2
1028.309	13953.2
1033.423	13961.2
1038.532	13816.2
1043.636	13715.2
1048.734	13595.2
1053.827	13398.2
1058.915	13254.2
1063.998	13137.2
1069.075	13148.2
1074.147	13124.2
1079.214	13239.2
1084.276	13295.2
1089.333	13386.2
1094.385	13438.2
1099.431	13470.2
1104.472	13477.2
1109.509	13343.2
1114.54	13282.2
1119.565	13036.2
1124.586	12903.2
1129.602	12789.2
1134.613	12715.2
1139.618	12601.2
1144.619	12579.2
1149.614	12610.2
1154.604	12676.2
1159.589	12698.2
1164.57	12709.2
1169.545	12754.2
1174.515	12718.2
1179.48	12625.2
1184.44	12603.2
1189.395	12516.2
1194.345	12402.2
1199.29	12303.2
1204.23	12311.2
1209.165	12361.2
1214.095	12460.2
1219.021	12511.2
1223.941	12589.2
1228.856	12658.2
1233.766	12692.2
1238.672	12666.2
1243.572	12682.2
1248.467	12578.2
1253.358	12472.2
1258.244	12312.2
1263.124	12160.2
1268	11934.2
1272.871	11779.2
1277.737	11696.2
1282.599	11638.2
1287.455	11624.2
1292.306	11648.2
1297.153	11705.2
1301.995	11757.2
1306.832	11810.2
1311.664	11853.2
1316.491	11797.2
1321.314	11659.2
1326.132	11507.2
1330.945	11254.2
1335.753	10955.2
1340.556	10651.2
1345.354	10465.2
1350.148	10294.2
1354.937	10241.2
1359.722	10223.2
1364.501	10269.2
1369.276	10396.2
1374.046	10530.2
1378.811	10725.2
1383.572	10759.2
1388.327	10822.2
1393.079	10786.2
1397.825	10633.2
1402.567	10529.2
1407.304	10414.2
1412.036	10311.2
1416.764	10208.2
1421.487	10141.2
1426.205	10111.2
1430.919	10038.2
1435.628	10033.2
1440.333	10078.2
1445.032	10121.2
1449.727	10159.2
1454.418	10137.2
1459.104	9972.2
1463.785	9807.2
1468.462	9612.2
1473.134	9359.2
1477.802	9229.2
1482.465	9009.2
1487.123	8954.2
1491.777	8895.2
1496.426	8926.2
1501.071	9030.2
1505.711	9239.2
1510.347	9382.2
1514.978	9495.2
1519.604	9669.2
1524.226	9746.2
1528.844	9773.2
1533.457	9693.2
1538.065	9713.2
1542.669	9618.2
1547.269	9554.2
1551.864	9531.2
1556.454	9481.2
1561.041	9521.2
1565.622	9437.2
1570.199	9520.2
1574.772	9523.2
1579.34	9636.2
1583.904	9679.2
1588.464	9717.2
1593.019	9725.2
1597.569	9662.2
1602.115	9633.2
1606.657	9563.2
1611.195	9487.2
1615.728	9432.2
1620.256	9437.2
1624.78	9402.2
1629.3	9441.2
1633.816	9458.2
1638.327	9496.2
1642.834	9522.2
1647.336	9575.2
1651.834	9569.2
1656.328	9564.2
1660.817	9509.2
1665.302	9389.2
1669.783	9248.2
1674.259	8989.2
1678.732	8711.2
1683.199	8466.2
1687.663	8147.2
1692.122	7912.2
1696.577	7775.2
1701.028	7795.2
1705.474	7819.2
1709.917	7906.2
1714.355	7918.2
1718.788	7883.2
1723.218	7760.2
1727.643	7623.2
1732.064	7453.2
1736.481	7325.2
1740.893	7110.2
1745.301	6939.2
1749.705	6777.2
1754.105	6556.2
1758.501	6397.2
1762.893	6227.2
1767.28	6075.2
1771.663	5909.2
1776.042	5824.2
1780.417	5781.2
1784.787	5748.2
1789.154	5800.2
1793.516	5893.2
1797.874	5985.2
1802.228	6174.2
1806.578	6184.2
1810.924	6240.2
1815.266	6132.2
1819.603	6091.2
1823.937	5989.2
1828.266	5886.2
1832.591	5759.2
1836.913	5723.2
1841.23	5652.2
1845.543	5635.2
1849.852	5602.2
1854.156	5578.2
1858.457	5583.2
1862.754	5557.2
1867.047	5546.2
1871.335	5560.2
1875.62	5528.2
1879.9	5515.2
1884.177	5456.2
1888.449	5383.2
1892.718	5377.2
1896.982	5275.2
1901.243	5259.2
1905.499	5200.2
1909.752	5188.2
1914	5151.2
1918.245	5178.2
1922.485	5236.2
1926.722	5269.2
1930.954	5326.2
1935.183	5413.2
1939.408	5459.2
1943.628	5489.2
1947.845	5502.2
1952.058	5503.2
1956.267	5487.2
1960.472	5379.2
1964.673	5290.2
1968.87	5233.2
1973.063	5158.2
1977.252	5106.2
1981.438	5053.2
1985.619	4998.2
1989.797	4930.2
1993.971	4919.2
1998.14	4903.2
2002.306	4885.2
2006.469	4904.2
2010.627	4840.2
2014.781	4853.2
2018.932	4783.2
2023.078	4730.2
2027.221	4658.2
2031.36	4590.2
2035.495	4501.2
2039.627	4456.2
2043.754	4382.2
2047.878	4356.2
2051.998	4341.2
2056.114	4291.2
2060.226	4331.2
2064.334	4328.2
2068.439	4325.2
2072.54	4374.2
2076.637	4375.2
2080.73	4385.2
2084.82	4423.2
2088.906	4468.2
2092.988	4431.2
2097.066	4436.2
2101.14	4405.2
2105.211	4396.2
2109.278	4360.2
2113.342	4343.2
2117.401	4297.2
2121.457	4275.2
2125.509	4274.2
2129.558	4248.2
2133.602	4218.2
2137.643	4187.2
2141.681	4192.2
2145.714	4184.2
2149.744	4147.2
2153.77	4085.2
2157.793	4048.2
2161.812	4013.2
2165.827	3964.2
2169.838	3905.2
2173.846	3833.2
2177.851	3736.2
2181.851	3718.2
2185.848	3680.2
2189.841	3620.2
2193.831	3579.2
2197.817	3589.2
2201.799	3581.2
2205.778	3554.2
2209.753	3515.2
2213.725	3524.2
2217.693	3510.2
2221.657	3505.2
2225.618	3484.2
2229.575	3435.2
2233.529	3405.2
2237.479	3415.2
2241.425	3376.2
2245.368	3323.2
2249.307	3261.2
2253.243	3240.2
2257.175	3184.2
2261.104	3122.2
2265.029	3071.2
2268.95	3069.2
2272.868	3038.2
2276.783	3018.2
2280.694	2976.2
2284.601	2959.2
2288.505	2924.2
2292.405	2919.2
2296.302	2893.2
2300.195	2869.2
2304.085	2835.2
2307.971	2791.2
2311.854	2751.2
2315.734	2671.2
2319.609	2671.2
2323.482	2644.2
2327.351	2604.2
2331.216	2602.2
2335.078	2576.2
2338.937	2567.2
2342.792	2566.2
2346.643	2526.2
2350.492	2531.2
2354.336	2545.2
2358.178	2545.2
2362.015	2558.2
2365.85	2566.2
2369.681	2585.2
2373.508	2534.2
2377.333	2570.2
2381.153	2591.2
2384.971	2546.2
2388.785	2531.2
2392.595	2508.2
2396.402	2483.2
2400.206	2466.2
2404.007	2422.2
2407.804	2415.2
2411.597	2417.2
2415.388	2396.2
2419.174	2373.2
2422.958	2372.2
2426.738	2374.2
2430.515	2330.2
2434.289	2316.2
2438.059	2294.2
2441.825	2294.2
2445.589	2251.2
2449.349	2213.2
2453.106	2185.2
2456.859	2177.2
2460.61	2156.2
2464.356	2106.2
2468.1	2122.2
2471.84	2079.2
2475.577	2059.2
2479.311	2055.2
2483.041	2034.2
2486.768	2027.2
2490.492	2018.2
2494.213	2011.2
2497.93	1999.2
2501.644	1993.2
2505.355	1988.2
2509.062	1978.2
2512.766	1978.2
2516.467	1951.2
2520.165	1952.2
2523.859	1899.2
2527.551	1900.2
2531.239	1898.2
2534.923	1886.2
2538.605	1880.2
2542.283	1891.2
2545.958	1842.2
2549.63	1874.2
2553.299	1868.2
2556.964	1864.2
2560.626	1854.2
2564.285	1834.2
2567.941	1833.2
2571.594	1815.2
2575.243	1787.2
2578.89	1788.2
2582.533	1791.2
2586.173	1779.2
2589.809	1757.2
2593.443	1733.2
2597.073	1723.2
2600.701	1729.2
2604.325	1697.2
2607.946	1688.2
2611.564	1673.2
2615.178	1680.2
2618.79	1660.2
2622.398	1649.2
2626.004	1623.2
2629.606	1615.2
2633.205	1589.2
2636.801	1561.2
2640.394	1544.2
2643.983	1513.2
2647.57	1493.2
2651.153	1475.2
2654.734	1462.2
2658.311	1439.2
2661.885	1420.2
2665.456	1396.2
2669.025	1385.2
2672.589	1378.2
2676.151	1340.2
2679.71	1337.2
2683.266	1319.2
2686.819	1300.2
2690.368	1251.2
2693.915	1244.2
2697.458	1208.2
2700.999	1174.2
2704.536	1161.2
2708.071	1132.2
2711.602	1114.2
2715.13	1069.2
2718.656	1074.2
2722.178	1031.2
2725.697	1028.2
2729.214	1016.2
2732.727	1002.2
2736.237	1011.2
2739.744	982.2
2743.249	1001.2
2746.75	993.2
2750.248	1016.2
2753.743	1017.2
2757.236	1040.2
2760.725	1025.2
2764.211	1063.2
2767.695	1043.2
2771.175	1056.2
2774.652	1043.2
2778.127	1058.2
2781.598	1029.2
2785.067	1030.2
2788.532	1034.2
2791.995	1022.2
2795.455	1038.2
2798.911	1045.2
2802.365	1021.2
2805.816	1023.2
2809.264	1010.2
2812.709	1029.2
2816.151	1018.2
2819.59	1016.2
2823.026	1028.2
2826.46	1040.2
2829.89	1033.2
2833.318	1029.2
2836.742	1032.2
2840.164	1028.2
2843.583	1029.2
2846.999	1051.2
2850.412	1074.2
2853.822	1073.2
2857.229	1088.2
2860.634	1099.2
2864.035	1127.2
2867.434	1141.2
2870.83	1164.2
2874.223	1174.2
2877.613	1205.2
2881	1217.2
2884.385	1225.2
2887.766	1211.2
2891.145	1213.2
2894.521	1213.2
2897.894	1210.2
2901.264	1209.2
2904.631	1215.2
2907.996	1205.2
2911.358	1224.2
2914.717	1242.2
2918.073	1235.2
2921.426	1250.2
2924.777	1262.2
2928.124	1278.2
2931.469	1301.2
2934.811	1326.2
2938.15	1336.2
2941.487	1355.2
2944.821	1376.2
2948.152	1361.2
2951.48	1344.2
2954.805	1329.2
2958.128	1312.2
2961.447	1311.2
2964.765	1298.2
2968.079	1310.2
2971.39	1309.2
2974.699	1322.2
2978.005	1373.2
2981.308	1371.2
2984.609	1378.2
2987.907	1427.2
2991.202	1450.2
2994.494	1481.2
2997.784	1481.2
3001.07	1530.2
3004.355	1550.2
3007.636	1558.2
3010.915	1582.2
3014.191	1605.2
3017.464	1609.2
3020.734	1627.2
3024.002	1627.2
3027.267	1667.2
3030.53	1658.2
3033.789	1695.2
3037.046	1690.2
3040.301	1715.2
3043.552	1759.2
3046.801	1790.2
3050.048	1837.2
3053.291	1891.2
3056.532	1912.2
3059.771	1992.2
3063.006	2025.2
3066.239	2093.2
3069.469	2176.2
3072.697	2212.2
3075.922	2270.2
3079.144	2315.2
3082.364	2368.2
3085.581	2388.2
3088.795	2455.2
3092.007	2528.2
3095.216	2558.2
3098.423	2645.2
3101.627	2667.2
3104.828	2750.2
3108.026	2808.2
3111.222	2876.2
3114.416	2903.2
3117.607	2995.2
3120.795	3050.2
3123.98	3136.2
3127.163	3200.2
3130.344	3285.2
3133.521	3359.2
3136.696	3427.2
3139.869	3521.2
3143.039	3547.2
3146.206	3582.2
3149.371	3652.2
3152.533	3677.2
3155.693	3718.2
3158.85	3735.2
3162.005	3753.2
3165.157	3739.2
3168.306	3762.2
3171.453	3771.2
3174.597	3786.2
3177.739	3783.2
3180.878	3784.2
3184.014	3799.2
3187.149	3815.2
3190.28	3799.2
3193.409	3816.2
3196.536	3825.2
3199.659	3805.2
3202.781	3832.2
3205.9	3839.2
3209.016	3826.2
3212.13	3815.2
3215.241	3793.2
3218.35	3745.2
3221.456	3686.2
3224.56	3674.2
3227.661	3626.2
3230.76	3582.2
3233.856	3527.2
3236.95	3506.2
3240.041	3491.2
3243.13	3445.2
3246.216	3404.2
3249.3	3428.2
3252.382	3400.2
3255.46	3363.2
3258.537	3383.2
3261.611	3333.2
3264.682	3366.2
3267.751	3347.2
3270.818	3329.2
3273.882	3329.2
3276.943	3317.2
3280.002	3300.2
3283.059	3277.2
3286.113	3227.2
3289.165	3199.2
3292.214	3121.2
3295.261	3071.2
3298.306	3019.2
3301.348	2994.2
3304.387	2930.2
3307.425	2889.2
3310.459	2829.2
3313.492	2815.2
3316.521	2782.2
3319.549	2773.2
3322.574	2715.2
3325.597	2689.2
3328.617	2669.2
3331.635	2662.2
3334.65	2653.2
3337.663	2601.2
3340.674	2618.2
3343.682	2621.2
3346.688	2592.2
3349.691	2601.2
3352.692	2563.2
3355.691	2569.2
3358.687	2521.2
3361.681	2504.2
3364.673	2477.2
3367.662	2445.2
3370.649	2394.2
3373.633	2367.2
3376.615	2311.2
3379.595	2277.2
3382.572	2281.2
3385.547	2221.2
3388.52	2195.2
3391.49	2158.2
3394.458	2107.2
3397.424	2066.2
3400.387	2050.2
3403.348	2016.2
3406.307	2003.2
3409.263	2004.2
3412.217	1963.2
3415.168	1950.2
3418.118	1924.2
3421.065	1907.2
3424.009	1884.2
3426.951	1846.2
3429.891	1791.2
3432.829	1778.2
3435.764	1702.2
3438.697	1677.2
3441.628	1603.2
3444.557	1606.2
3447.483	1529.2
3450.407	1480.2
3453.328	1434.2
3456.247	1389.2
3459.164	1327.2
3462.079	1275.2
3464.991	1254.2
3467.902	1183.2
3470.809	1145.2
3473.715	1091.2
3476.618	1059.2
3479.519	1017.2
3482.418	996.2
3485.315	942.2
3488.209	903.2
3491.101	889.2
3493.99	842.2
3496.878	818.2
3499.763	787.2
3502.646	743.2
3505.527	713.2
3508.405	676.2
3511.281	628.2
3514.155	601.2
3517.027	570.2
3519.897	518.2
3522.764	485.2
3525.629	447.2
3528.492	422.2
3531.352	370.2
3534.211	341.2
3537.067	293.2
3539.921	270.2
3542.773	226.2
3545.622	193.2
3548.469	173.2
3551.315	155.2
3554.157	122.2
3556.998	98.2
3559.837	72.2
3562.673	62.2
3565.507	25.2
3568.339	24.2
3571.169	0.2
3573.996	-20.8
3576.822	-46.8
3579.645	-55.8
3582.466	-81.8
3585.285	-95.8
3588.101	-113.8
3590.916	-130.8
3593.728	-145.8
3596.538	-160.8
3599.346	-190.8
3602.152	-198.8
3604.956	-213.8
3607.757	-224.8
3610.556	-240.8
3613.354	-260.8
3616.149	-266.8
3618.942	-276.8
3621.732	-289.8
3624.521	-303.8
3627.307	-304.8
3630.092	-321.8
3632.874	-326.8
3635.654	-343.8
3638.432	-343.8
3641.208	-357.8
3643.982	-360.8
3646.753	-374.8
3649.523	-385.8
3652.29	-388.8
3655.055	-395.8
3657.818	-402.8
3660.579	-412.8
3663.338	-425.8
3666.095	-423.8
3668.849	-442.8
3671.602	-452.8
3674.352	-454.8
3677.101	-458.8
3679.847	-473.8
3682.591	-472.8
3685.333	-472.8
3688.073	-479.8
3690.811	-487.8
3693.547	-485.8
3696.281	-498.8
3699.013	-502.8
3701.742	-510.8
3704.47	-518.8
3707.195	-522.8
3709.919	-519.8
3712.64	-527.8
3715.359	-530.8
3718.076	-530.8
3720.792	-534.8
3723.505	-533.8
3726.216	-539.8
3728.925	-542.8
3731.632	-552.8
3734.336	-553.8
3737.039	-553.8
3739.74	-554.8
3742.439	-557.8
3745.136	-558.8
3747.83	-560.8
3750.523	-558.8
3753.213	-560.8
3755.902	-562.8
3758.589	-563.8
3761.273	-567.8
3763.956	-578.8
3766.636	-571.8
3769.315	-577.8
3771.991	-573.8
3774.665	-575.8
3777.338	-575.8
3780.008	-578.8
3782.677	-576.8
3785.343	-587.8
3788.007	-579.8
3790.67	-582.8
3793.33	-588.8
3795.989	-588.8
3798.645	-588.8
3801.299	-597.8
3803.952	-591.8
3806.602	-594.8
3809.251	-597.8
3811.897	-591.8
3814.542	-589.8
3817.184	-591.8
3819.825	-596.8
3822.463	-597.8
3825.1	-602.8
3827.735	-602.8
3830.367	-600.8
3832.998	-604.8
3835.627	-599.8
3838.253	-605.8
3840.878	-601.8
3843.501	-607.8
3846.122	-599.8
3848.741	-604.8
3851.358	-608.8
3853.973	-603.8
3856.586	-603.8
3859.197	-602.8
3861.806	-608.8
3864.414	-605.8
3867.019	-605.8
3869.622	-606.8
3872.224	-602.8
3874.823	-595.8
3877.421	-577.8
3880.016	-564.8
3882.61	-540.8
3885.202	-541.8
3887.792	-559.8
3890.38	-584.8
3892.966	-593.8
3895.55	-606.8
3898.132	-609.8
3900.713	-612.8
3903.291	-621.8
3905.868	-615.8
3908.442	-619.8
3911.015	-621.8
3913.586	-616.8
3916.155	-615.8
3918.722	-616.8
3921.287	-619.8
3923.85	-613.8
3926.411	-626.8
3928.971	-621.8
3931.528	-623.8
3934.084	-615.8
3936.638	-616.8
3939.19	-621.8
3941.74	-621.8
3944.288	-625.8
3946.834	-623.8
3949.378	-626.8
3951.921	-625.8
3954.462	-623.8
3957	-616.8
3959.537	-611.8
3962.072	-618.8
3964.606	-611.8
3967.137	-622.8
3969.667	-619.8
3972.194	-606.8
3974.72	-552.8
3977.244	-593.8
3979.766	-607.8
3982.286	-611.8
3984.805	-596.8
3987.321	-612.8
3989.836	-607.8
3992.349	-606.8
3994.86	-603.8
3997.369	-615.8
3999.877	-606.8
4002.382	-606.8
4004.886	-613.8
4007.388	-612.8
4009.888	-610.8
4012.386	-610.8
4014.883	-608.8
4017.377	-602.8
4019.87	-605.8
4022.361	-609.8
4024.85	-608.8
4027.338	-610.8
4029.823	-602.8
4032.307	-614.8
4034.789	-616.8
4037.269	-615.8
4039.747	-618.8
4042.224	-610.8
4044.699	-614.8
4047.172	-609.8
4049.643	-613.8
4052.112	-608.8
4054.58	-609.8
4057.046	-614.8
4059.51	-611.8
4061.972	-616.8
4064.432	-614.8
4066.891	-605.8
4069.348	-618.8
4071.803	-609.8
4074.256	-607.8
4076.708	-611.8
4079.158	-618.8
4081.606	-605.8
4084.052	-612.8
4086.497	-611.8
4088.939	-603.8
4091.38	-605.8
4093.819	-607.8
4096.257	-643.8
4098.693	-643.8
4101.127	-643.8
4103.559	-644.8
4105.989	-391.8
4108.418	-366.8
4110.845	-339.8
4113.27	-323.8
4115.694	-277.8
4118.115	-235.8
4120.535	-608.8
4122.954	-615.8
4125.37	-610.8
4127.785	-613.8
4130.198	-617.8
4132.609	-609.8
4135.019	-645.8
4137.427	-642.8
4139.833	-642.8
4142.237	-640.8
