Data from 2018-2-7_conc=4_RamanShift_26.txt Node
Date: Tue Feb 13 13:48:43 IST 2018
User: aro
Spectrometer: QEPB0276
Trigger mode: 0
Integration Time (sec): 3.000000E1
Scans to average: 1
Electric dark correction enabled: true
Nonlinearity correction enabled: false
Boxcar width: 0
XAxis mode: Raman Shifts
Number of Pixels in Spectrum: 1044
>>>>>Begin Spectral Data<<<<<
160.701	-171.1
166.742	21.9
172.777	608.9
178.805	2337.9
184.826	6380.9
190.841	13237.9
196.849	20823.9
202.85	26039.9
208.845	27597.9
214.833	27286.9
220.815	26784.9
226.789	26628.9
232.758	26450.9
238.719	26216.9
244.674	25861.9
250.623	25424.9
256.565	24898.9
262.5	24311.9
268.429	23889.9
274.351	23499.9
280.267	23192.9
286.176	22941.9
292.079	22720.9
297.975	22457.9
303.865	22266.9
309.748	22169.9
315.625	21928.9
321.495	21852.9
327.359	21821.9
333.217	21746.9
339.068	21682.9
344.912	21816.9
350.751	21661.9
356.583	21684.9
362.408	21605.9
368.227	21641.9
374.04	21689.9
379.847	21655.9
385.647	21782.9
391.44	21846.9
397.228	22005.9
403.009	22051.9
408.784	22101.9
414.553	22173.9
420.315	22241.9
426.071	22261.9
431.821	22268.9
437.565	22224.9
443.302	22098.9
449.033	22111.9
454.758	22049.9
460.477	22009.9
466.189	22050.9
471.896	21983.9
477.596	21896.9
483.29	21810.9
488.978	21769.9
494.66	21648.9
500.335	21546.9
506.005	21330.9
511.668	21082.9
517.325	20832.9
522.977	20632.9
528.622	20490.9
534.261	20424.9
539.894	20314.9
545.521	20232.9
551.141	20070.9
556.756	20091.9
562.365	19969.9
567.968	19894.9
573.565	19862.9
579.155	19743.9
584.74	19705.9
590.319	19603.9
595.892	19546.9
601.459	19449.9
607.02	19342.9
612.575	19239.9
618.124	19101.9
623.667	18940.9
629.204	18929.9
634.735	18835.9
640.261	18770.9
645.781	18695.9
651.294	18651.9
656.802	18657.9
662.304	18559.9
667.8	18541.9
673.29	18487.9
678.775	18497.9
684.254	18375.9
689.726	18396.9
695.193	18309.9
700.655	18226.9
706.11	18117.9
711.56	18056.9
717.004	17905.9
722.442	17907.9
727.874	17808.9
733.301	17741.9
738.722	17696.9
744.137	17693.9
749.547	17663.9
754.951	17645.9
760.349	17682.9
765.741	17679.9
771.128	17642.9
776.509	17677.9
781.885	17694.9
787.254	17563.9
792.618	17572.9
797.977	17424.9
803.33	17335.9
808.677	17235.9
814.019	17085.9
819.355	17027.9
824.686	16968.9
830.011	16916.9
835.33	16934.9
840.644	16935.9
845.952	16894.9
851.255	17013.9
856.552	17054.9
861.844	16998.9
867.13	16914.9
872.41	16798.9
877.686	16751.9
882.955	16649.9
888.219	16468.9
893.478	16306.9
898.731	16096.9
903.979	15969.9
909.221	15788.9
914.458	15772.9
919.69	15720.9
924.916	15823.9
930.136	15818.9
935.351	15872.9
940.561	15925.9
945.766	15838.9
950.965	15709.9
956.158	15669.9
961.347	15453.9
966.529	15301.9
971.707	15076.9
976.879	14934.9
982.046	14778.9
987.208	14755.9
992.364	14728.9
997.515	14844.9
1002.66	14938.9
1007.801	15133.9
1012.936	15260.9
1018.066	15239.9
1023.19	15229.9
1028.309	15300.9
1033.423	15180.9
1038.532	15100.9
1043.636	15028.9
1048.734	14816.9
1053.827	14683.9
1058.915	14439.9
1063.998	14378.9
1069.075	14298.9
1074.147	14367.9
1079.214	14377.9
1084.276	14480.9
1089.333	14552.9
1094.385	14617.9
1099.431	14619.9
1104.472	14650.9
1109.509	14561.9
1114.54	14397.9
1119.565	14224.9
1124.586	14051.9
1129.602	13900.9
1134.613	13820.9
1139.618	13709.9
1144.619	13702.9
1149.614	13691.9
1154.604	13718.9
1159.589	13767.9
1164.57	13821.9
1169.545	13838.9
1174.515	13824.9
1179.48	13738.9
1184.44	13618.9
1189.395	13531.9
1194.345	13404.9
1199.29	13346.9
1204.23	13332.9
1209.165	13432.9
1214.095	13500.9
1219.021	13534.9
1223.941	13599.9
1228.856	13704.9
1233.766	13709.9
1238.672	13785.9
1243.572	13733.9
1248.467	13640.9
1253.358	13485.9
1258.244	13300.9
1263.124	13052.9
1268	12916.9
1272.871	12708.9
1277.737	12636.9
1282.599	12596.9
1287.455	12567.9
1292.306	12567.9
1297.153	12597.9
1301.995	12683.9
1306.832	12751.9
1311.664	12726.9
1316.491	12673.9
1321.314	12544.9
1326.132	12412.9
1330.945	12129.9
1335.753	11824.9
1340.556	11561.9
1345.354	11330.9
1350.148	11161.9
1354.937	11101.9
1359.722	11048.9
1364.501	11080.9
1369.276	11163.9
1374.046	11318.9
1378.811	11475.9
1383.572	11582.9
1388.327	11616.9
1393.079	11565.9
1397.825	11430.9
1402.567	11254.9
1407.304	11148.9
1412.036	10995.9
1416.764	10969.9
1421.487	10887.9
1426.205	10838.9
1430.919	10801.9
1435.628	10817.9
1440.333	10835.9
1445.032	10851.9
1449.727	10918.9
1454.418	10842.9
1459.104	10810.9
1463.785	10534.9
1468.462	10347.9
1473.134	10116.9
1477.802	9896.9
1482.465	9749.9
1487.123	9644.9
1491.777	9600.9
1496.426	9658.9
1501.071	9717.9
1505.711	9874.9
1510.347	10014.9
1514.978	10193.9
1519.604	10360.9
1524.226	10423.9
1528.844	10385.9
1533.457	10390.9
1538.065	10350.9
1542.669	10299.9
1547.269	10209.9
1551.864	10143.9
1556.454	10155.9
1561.041	10168.9
1565.622	10155.9
1570.199	10144.9
1574.772	10205.9
1579.34	10311.9
1583.904	10364.9
1588.464	10402.9
1593.019	10364.9
1597.569	10363.9
1602.115	10317.9
1606.657	10258.9
1611.195	10134.9
1615.728	10116.9
1620.256	10063.9
1624.78	10063.9
1629.3	10104.9
1633.816	10112.9
1638.327	10190.9
1642.834	10245.9
1647.336	10293.9
1651.834	10330.9
1656.328	10260.9
1660.817	10205.9
1665.302	10071.9
1669.783	9883.9
1674.259	9635.9
1678.732	9375.9
1683.199	9065.9
1687.663	8788.9
1692.122	8511.9
1696.577	8434.9
1701.028	8298.9
1705.474	8352.9
1709.917	8418.9
1714.355	8424.9
1718.788	8359.9
1723.218	8215.9
1727.643	8081.9
1732.064	7984.9
1736.481	7750.9
1740.893	7577.9
1745.301	7384.9
1749.705	7182.9
1754.105	6970.9
1758.501	6771.9
1762.893	6621.9
1767.28	6494.9
1771.663	6296.9
1776.042	6165.9
1780.417	6172.9
1784.787	6184.9
1789.154	6239.9
1793.516	6324.9
1797.874	6420.9
1802.228	6520.9
1806.578	6541.9
1810.924	6560.9
1815.266	6529.9
1819.603	6404.9
1823.937	6315.9
1828.266	6231.9
1832.591	6102.9
1836.913	6045.9
1841.23	6005.9
1845.543	5958.9
1849.852	5906.9
1854.156	5904.9
1858.457	5922.9
1862.754	5892.9
1867.047	5906.9
1871.335	5885.9
1875.62	5860.9
1879.9	5828.9
1884.177	5821.9
1888.449	5743.9
1892.718	5654.9
1896.982	5645.9
1901.243	5587.9
1905.499	5536.9
1909.752	5534.9
1914	5519.9
1918.245	5566.9
1922.485	5554.9
1926.722	5624.9
1930.954	5669.9
1935.183	5724.9
1939.408	5761.9
1943.628	5812.9
1947.845	5805.9
1952.058	5792.9
1956.267	5729.9
1960.472	5684.9
1964.673	5610.9
1968.87	5498.9
1973.063	5431.9
1977.252	5382.9
1981.438	5305.9
1985.619	5216.9
1989.797	5199.9
1993.971	5210.9
1998.14	5123.9
2002.306	5128.9
2006.469	5122.9
2010.627	5083.9
2014.781	5059.9
2018.932	5007.9
2023.078	5004.9
2027.221	4896.9
2031.36	4839.9
2035.495	4751.9
2039.627	4697.9
2043.754	4654.9
2047.878	4577.9
2051.998	4551.9
2056.114	4551.9
2060.226	4560.9
2064.334	4565.9
2068.439	4557.9
2072.54	4586.9
2076.637	4624.9
2080.73	4613.9
2084.82	4657.9
2088.906	4644.9
2092.988	4699.9
2097.066	4659.9
2101.14	4613.9
2105.211	4575.9
2109.278	4562.9
2113.342	4540.9
2117.401	4510.9
2121.457	4462.9
2125.509	4464.9
2129.558	4454.9
2133.602	4408.9
2137.643	4406.9
2141.681	4355.9
2145.714	4339.9
2149.744	4313.9
2153.77	4283.9
2157.793	4270.9
2161.812	4174.9
2165.827	4112.9
2169.838	4052.9
2173.846	4010.9
2177.851	3949.9
2181.851	3894.9
2185.848	3825.9
2189.841	3779.9
2193.831	3744.9
2197.817	3719.9
2201.799	3670.9
2205.778	3688.9
2209.753	3683.9
2213.725	3667.9
2217.693	3640.9
2221.657	3622.9
2225.618	3623.9
2229.575	3584.9
2233.529	3577.9
2237.479	3560.9
2241.425	3482.9
2245.368	3462.9
2249.307	3405.9
2253.243	3340.9
2257.175	3320.9
2261.104	3280.9
2265.029	3230.9
2268.95	3187.9
2272.868	3168.9
2276.783	3123.9
2280.694	3078.9
2284.601	3043.9
2288.505	3024.9
2292.405	3000.9
2296.302	2957.9
2300.195	2928.9
2304.085	2917.9
2307.971	2844.9
2311.854	2815.9
2315.734	2772.9
2319.609	2740.9
2323.482	2679.9
2327.351	2671.9
2331.216	2660.9
2335.078	2628.9
2338.937	2638.9
2342.792	2596.9
2346.643	2602.9
2350.492	2580.9
2354.336	2602.9
2358.178	2584.9
2362.015	2613.9
2365.85	2606.9
2369.681	2617.9
2373.508	2595.9
2377.333	2620.9
2381.153	2610.9
2384.971	2589.9
2388.785	2565.9
2392.595	2539.9
2396.402	2531.9
2400.206	2483.9
2404.007	2502.9
2407.804	2474.9
2411.597	2438.9
2415.388	2445.9
2419.174	2447.9
2422.958	2414.9
2426.738	2399.9
2430.515	2376.9
2434.289	2364.9
2438.059	2327.9
2441.825	2314.9
2445.589	2304.9
2449.349	2270.9
2453.106	2227.9
2456.859	2200.9
2460.61	2168.9
2464.356	2153.9
2468.1	2123.9
2471.84	2095.9
2475.577	2076.9
2479.311	2081.9
2483.041	2056.9
2486.768	2045.9
2490.492	2025.9
2494.213	2042.9
2497.93	2020.9
2501.644	2012.9
2505.355	1999.9
2509.062	2006.9
2512.766	1996.9
2516.467	1980.9
2520.165	1978.9
2523.859	1953.9
2527.551	1938.9
2531.239	1925.9
2534.923	1891.9
2538.605	1875.9
2542.283	1865.9
2545.958	1873.9
2549.63	1873.9
2553.299	1865.9
2556.964	1870.9
2560.626	1843.9
2564.285	1844.9
2567.941	1841.9
2571.594	1811.9
2575.243	1786.9
2578.89	1816.9
2582.533	1784.9
2586.173	1784.9
2589.809	1745.9
2593.443	1754.9
2597.073	1740.9
2600.701	1686.9
2604.325	1681.9
2607.946	1676.9
2611.564	1670.9
2615.178	1662.9
2618.79	1646.9
2622.398	1643.9
2626.004	1634.9
2629.606	1603.9
2633.205	1565.9
2636.801	1555.9
2640.394	1525.9
2643.983	1496.9
2647.57	1518.9
2651.153	1485.9
2654.734	1437.9
2658.311	1420.9
2661.885	1412.9
2665.456	1393.9
2669.025	1364.9
2672.589	1355.9
2676.151	1340.9
2679.71	1308.9
2683.266	1274.9
2686.819	1264.9
2690.368	1245.9
2693.915	1227.9
2697.458	1203.9
2700.999	1147.9
2704.536	1128.9
2708.071	1107.9
2711.602	1095.9
2715.13	1078.9
2718.656	1063.9
2722.178	1030.9
2725.697	1005.9
2729.214	995.9
2732.727	1006.9
2736.237	984.9
2739.744	983.9
2743.249	988.9
2746.75	998.9
2750.248	1000.9
2753.743	1017.9
2757.236	1011.9
2760.725	1006.9
2764.211	1045.9
2767.695	1024.9
2771.175	1028.9
2774.652	992.9
2778.127	1012.9
2781.598	1006.9
2785.067	1011.9
2788.532	1006.9
2791.995	1027.9
2795.455	1008.9
2798.911	1005.9
2802.365	1016.9
2805.816	1007.9
2809.264	1008.9
2812.709	1017.9
2816.151	995.9
2819.59	1010.9
2823.026	1010.9
2826.46	993.9
2829.89	999.9
2833.318	1012.9
2836.742	1028.9
2840.164	1035.9
2843.583	1056.9
2846.999	1035.9
2850.412	1049.9
2853.822	1065.9
2857.229	1085.9
2860.634	1100.9
2864.035	1119.9
2867.434	1134.9
2870.83	1161.9
2874.223	1182.9
2877.613	1209.9
2881	1206.9
2884.385	1248.9
2887.766	1232.9
2891.145	1236.9
2894.521	1232.9
2897.894	1200.9
2901.264	1220.9
2904.631	1213.9
2907.996	1228.9
2911.358	1240.9
2914.717	1223.9
2918.073	1249.9
2921.426	1275.9
2924.777	1277.9
2928.124	1321.9
2931.469	1339.9
2934.811	1334.9
2938.15	1367.9
2941.487	1399.9
2944.821	1399.9
2948.152	1395.9
2951.48	1389.9
2954.805	1376.9
2958.128	1352.9
2961.447	1341.9
2964.765	1357.9
2968.079	1340.9
2971.39	1351.9
2974.699	1372.9
2978.005	1397.9
2981.308	1422.9
2984.609	1437.9
2987.907	1462.9
2991.202	1488.9
2994.494	1525.9
2997.784	1523.9
3001.07	1577.9
3004.355	1592.9
3007.636	1630.9
3010.915	1652.9
3014.191	1670.9
3017.464	1670.9
3020.734	1676.9
3024.002	1687.9
3027.267	1718.9
3030.53	1728.9
3033.789	1746.9
3037.046	1778.9
3040.301	1791.9
3043.552	1822.9
3046.801	1898.9
3050.048	1932.9
3053.291	1969.9
3056.532	2034.9
3059.771	2088.9
3063.006	2159.9
3066.239	2205.9
3069.469	2267.9
3072.697	2328.9
3075.922	2380.9
3079.144	2461.9
3082.364	2521.9
3085.581	2543.9
3088.795	2619.9
3092.007	2656.9
3095.216	2710.9
3098.423	2768.9
3101.627	2844.9
3104.828	2903.9
3108.026	2984.9
3111.222	3061.9
3114.416	3110.9
3117.607	3171.9
3120.795	3260.9
3123.98	3354.9
3127.163	3409.9
3130.344	3499.9
3133.521	3574.9
3136.696	3660.9
3139.869	3763.9
3143.039	3795.9
3146.206	3846.9
3149.371	3889.9
3152.533	3942.9
3155.693	3974.9
3158.85	3986.9
3162.005	4007.9
3165.157	4053.9
3168.306	3998.9
3171.453	4035.9
3174.597	4017.9
3177.739	4073.9
3180.878	4050.9
3184.014	4081.9
3187.149	4095.9
3190.28	4089.9
3193.409	4090.9
3196.536	4081.9
3199.659	4077.9
3202.781	4111.9
3205.9	4097.9
3209.016	4093.9
3212.13	4069.9
3215.241	4027.9
3218.35	4004.9
3221.456	3974.9
3224.56	3924.9
3227.661	3881.9
3230.76	3845.9
3233.856	3794.9
3236.95	3780.9
3240.041	3740.9
3243.13	3686.9
3246.216	3666.9
3249.3	3647.9
3252.382	3641.9
3255.46	3644.9
3258.537	3620.9
3261.611	3606.9
3264.682	3606.9
3267.751	3615.9
3270.818	3603.9
3273.882	3593.9
3276.943	3578.9
3280.002	3534.9
3283.059	3493.9
3286.113	3475.9
3289.165	3417.9
3292.214	3359.9
3295.261	3331.9
3298.306	3251.9
3301.348	3213.9
3304.387	3158.9
3307.425	3122.9
3310.459	3081.9
3313.492	3030.9
3316.521	2994.9
3319.549	2989.9
3322.574	2895.9
3325.597	2906.9
3328.617	2888.9
3331.635	2853.9
3334.65	2860.9
3337.663	2800.9
3340.674	2814.9
3343.682	2808.9
3346.688	2809.9
3349.691	2779.9
3352.692	2784.9
3355.691	2764.9
3358.687	2743.9
3361.681	2696.9
3364.673	2669.9
3367.662	2632.9
3370.649	2591.9
3373.633	2559.9
3376.615	2549.9
3379.595	2467.9
3382.572	2433.9
3385.547	2400.9
3388.52	2391.9
3391.49	2340.9
3394.458	2302.9
3397.424	2257.9
3400.387	2232.9
3403.348	2191.9
3406.307	2175.9
3409.263	2159.9
3412.217	2145.9
3415.168	2121.9
3418.118	2076.9
3421.065	2041.9
3424.009	2023.9
3426.951	2006.9
3429.891	1949.9
3432.829	1898.9
3435.764	1852.9
3438.697	1809.9
3441.628	1772.9
3444.557	1717.9
3447.483	1655.9
3450.407	1605.9
3453.328	1557.9
3456.247	1484.9
3459.164	1455.9
3462.079	1386.9
3464.991	1342.9
3467.902	1280.9
3470.809	1234.9
3473.715	1205.9
3476.618	1140.9
3479.519	1106.9
3482.418	1051.9
3485.315	1028.9
3488.209	982.9
3491.101	968.9
3493.99	927.9
3496.878	879.9
3499.763	843.9
3502.646	818.9
3505.527	766.9
3508.405	738.9
3511.281	699.9
3514.155	652.9
3517.027	608.9
3519.897	567.9
3522.764	543.9
3525.629	492.9
3528.492	442.9
3531.352	394.9
3534.211	360.9
3537.067	331.9
3539.921	288.9
3542.773	256.9
3545.622	222.9
3548.469	191.9
3551.315	154.9
3554.157	137.9
3556.998	124.9
3559.837	81.9
3562.673	67.9
3565.507	30.9
3568.339	9.9
3571.169	-4.1
3573.996	-30.1
3576.822	-52.1
3579.645	-54.1
3582.466	-82.1
3585.285	-101.1
3588.101	-116.1
3590.916	-143.1
3593.728	-173.1
3596.538	-177.1
3599.346	-199.1
3602.152	-209.1
3604.956	-234.1
3607.757	-244.1
3610.556	-256.1
3613.354	-277.1
3616.149	-286.1
3618.942	-307.1
3621.732	-315.1
3624.521	-327.1
3627.307	-333.1
3630.092	-354.1
3632.874	-361.1
3635.654	-376.1
3638.432	-375.1
3641.208	-383.1
3643.982	-397.1
3646.753	-404.1
3649.523	-411.1
3652.29	-424.1
3655.055	-426.1
3657.818	-444.1
3660.579	-451.1
3663.338	-462.1
3666.095	-464.1
3668.849	-483.1
3671.602	-488.1
3674.352	-492.1
3677.101	-503.1
3679.847	-514.1
3682.591	-512.1
3685.333	-522.1
3688.073	-532.1
3690.811	-528.1
3693.547	-533.1
3696.281	-548.1
3699.013	-552.1
3701.742	-556.1
3704.47	-556.1
3707.195	-566.1
3709.919	-566.1
3712.64	-569.1
3715.359	-572.1
3718.076	-571.1
3720.792	-586.1
3723.505	-588.1
3726.216	-592.1
3728.925	-591.1
3731.632	-606.1
3734.336	-607.1
3737.039	-613.1
3739.74	-602.1
3742.439	-607.1
3745.136	-614.1
3747.83	-613.1
3750.523	-608.1
3753.213	-621.1
3755.902	-616.1
3758.589	-620.1
3761.273	-615.1
3763.956	-628.1
3766.636	-622.1
3769.315	-625.1
3771.991	-632.1
3774.665	-633.1
3777.338	-628.1
3780.008	-625.1
3782.677	-632.1
3785.343	-635.1
3788.007	-634.1
3790.67	-639.1
3793.33	-641.1
3795.989	-639.1
3798.645	-648.1
3801.299	-655.1
3803.952	-648.1
3806.602	-650.1
3809.251	-653.1
3811.897	-644.1
3814.542	-647.1
3817.184	-651.1
3819.825	-643.1
3822.463	-647.1
3825.1	-651.1
3827.735	-658.1
3830.367	-654.1
3832.998	-658.1
3835.627	-659.1
3838.253	-659.1
3840.878	-663.1
3843.501	-660.1
3846.122	-655.1
3848.741	-658.1
3851.358	-656.1
3853.973	-657.1
3856.586	-658.1
3859.197	-662.1
3861.806	-660.1
3864.414	-657.1
3867.019	-658.1
3869.622	-662.1
3872.224	-655.1
3874.823	-643.1
3877.421	-626.1
3880.016	-605.1
3882.61	-575.1
3885.202	-573.1
3887.792	-604.1
3890.38	-629.1
3892.966	-647.1
3895.55	-666.1
3898.132	-663.1
3900.713	-669.1
3903.291	-674.1
3905.868	-668.1
3908.442	-667.1
3911.015	-669.1
3913.586	-673.1
3916.155	-670.1
3918.722	-668.1
3921.287	-674.1
3923.85	-674.1
3926.411	-670.1
3928.971	-675.1
3931.528	-677.1
3934.084	-668.1
3936.638	-675.1
3939.19	-678.1
3941.74	-683.1
3944.288	-678.1
3946.834	-677.1
3949.378	-683.1
3951.921	-680.1
3954.462	-684.1
3957	-673.1
3959.537	-674.1
3962.072	-672.1
3964.606	-666.1
3967.137	-677.1
3969.667	-673.1
3972.194	-671.1
3974.72	-673.1
3977.244	-666.1
3979.766	-667.1
3982.286	-665.1
3984.805	-657.1
3987.321	-661.1
3989.836	-659.1
3992.349	-659.1
3994.86	-658.1
3997.369	-661.1
3999.877	-660.1
4002.382	-665.1
4004.886	-660.1
4007.388	-664.1
4009.888	-658.1
4012.386	-663.1
4014.883	-661.1
4017.377	-664.1
4019.87	-658.1
4022.361	-661.1
4024.85	-668.1
4027.338	-665.1
4029.823	-661.1
4032.307	-668.1
4034.789	-666.1
4037.269	-669.1
4039.747	-675.1
4042.224	-664.1
4044.699	-669.1
4047.172	-664.1
4049.643	-664.1
4052.112	-666.1
4054.58	-654.1
4057.046	-672.1
4059.51	-662.1
4061.972	-669.1
4064.432	-662.1
4066.891	-661.1
4069.348	-665.1
4071.803	-665.1
4074.256	-667.1
4076.708	-661.1
4079.158	-668.1
4081.606	-658.1
4084.052	-661.1
4086.497	-665.1
4088.939	-661.1
4091.38	-657.1
4093.819	-661.1
4096.257	-694.1
4098.693	-698.1
4101.127	-700.1
4103.559	-703.1
4105.989	-421.1
4108.418	-394.1
4110.845	-386.1
4113.27	-352.1
4115.694	-307.1
4118.115	-260.1
4120.535	-663.1
4122.954	-670.1
4125.37	-663.1
4127.785	-668.1
4130.198	-668.1
4132.609	-663.1
4135.019	-702.1
4137.427	-697.1
4139.833	-699.1
4142.237	-699.1
