Data from 2018-2-7_conc=5_RamanShift_20.txt Node
Date: Tue Feb 13 14:11:13 IST 2018
User: aro
Spectrometer: QEPB0276
Trigger mode: 0
Integration Time (sec): 3.000000E1
Scans to average: 1
Electric dark correction enabled: true
Nonlinearity correction enabled: false
Boxcar width: 0
XAxis mode: Raman Shifts
Number of Pixels in Spectrum: 1044
>>>>>Begin Spectral Data<<<<<
160.701	-159.2
166.742	35.8
172.777	586.8
178.805	2250.8
184.826	6175.8
190.841	12769.8
196.849	20235.8
202.85	25253.8
208.845	26971.8
214.833	26620.8
220.815	26176.8
226.789	26030.8
232.758	25854.8
238.719	25679.8
244.674	25346.8
250.623	24807.8
256.565	24322.8
262.5	23820.8
268.429	23401.8
274.351	23083.8
280.267	22745.8
286.176	22527.8
292.079	22275.8
297.975	22129.8
303.865	21876.8
309.748	21779.8
315.625	21613.8
321.495	21461.8
327.359	21315.8
333.217	21353.8
339.068	21345.8
344.912	21303.8
350.751	21250.8
356.583	21295.8
362.408	21253.8
368.227	21243.8
374.04	21198.8
379.847	21265.8
385.647	21434.8
391.44	21493.8
397.228	21570.8
403.009	21621.8
408.784	21721.8
414.553	21755.8
420.315	21749.8
426.071	21834.8
431.821	21800.8
437.565	21808.8
443.302	21797.8
449.033	21666.8
454.758	21681.8
460.477	21633.8
466.189	21585.8
471.896	21560.8
477.596	21430.8
483.29	21492.8
488.978	21392.8
494.66	21337.8
500.335	21217.8
506.005	20985.8
511.668	20689.8
517.325	20491.8
522.977	20311.8
528.622	20141.8
534.261	20057.8
539.894	19952.8
545.521	19896.8
551.141	19805.8
556.756	19777.8
562.365	19638.8
567.968	19548.8
573.565	19536.8
579.155	19439.8
584.74	19382.8
590.319	19318.8
595.892	19205.8
601.459	19126.8
607.02	19062.8
612.575	18964.8
618.124	18852.8
623.667	18732.8
629.204	18578.8
634.735	18567.8
640.261	18479.8
645.781	18448.8
651.294	18371.8
656.802	18337.8
662.304	18317.8
667.8	18226.8
673.29	18273.8
678.775	18222.8
684.254	18160.8
689.726	18119.8
695.193	18020.8
700.655	17966.8
706.11	17861.8
711.56	17803.8
717.004	17712.8
722.442	17603.8
727.874	17494.8
733.301	17444.8
738.722	17401.8
744.137	17384.8
749.547	17459.8
754.951	17388.8
760.349	17435.8
765.741	17453.8
771.128	17420.8
776.509	17439.8
781.885	17435.8
787.254	17347.8
792.618	17315.8
797.977	17191.8
803.33	17130.8
808.677	16971.8
814.019	16883.8
819.355	16865.8
824.686	16756.8
830.011	16700.8
835.33	16765.8
840.644	16719.8
845.952	16752.8
851.255	16848.8
856.552	16823.8
861.844	16719.8
867.13	16725.8
872.41	16683.8
877.686	16657.8
882.955	16490.8
888.219	16295.8
893.478	16192.8
898.731	15968.8
903.979	15796.8
909.221	15630.8
914.458	15601.8
919.69	15550.8
924.916	15680.8
930.136	15691.8
935.351	15760.8
940.561	15750.8
945.766	15729.8
950.965	15613.8
956.158	15518.8
961.347	15340.8
966.529	15164.8
971.707	14965.8
976.879	14800.8
982.046	14681.8
987.208	14633.8
992.364	14649.8
997.515	14741.8
1002.66	14863.8
1007.801	15037.8
1012.936	15138.8
1018.066	15156.8
1023.19	15119.8
1028.309	15181.8
1033.423	15113.8
1038.532	14975.8
1043.636	14856.8
1048.734	14682.8
1053.827	14500.8
1058.915	14389.8
1063.998	14252.8
1069.075	14200.8
1074.147	14228.8
1079.214	14267.8
1084.276	14388.8
1089.333	14479.8
1094.385	14529.8
1099.431	14625.8
1104.472	14592.8
1109.509	14464.8
1114.54	14351.8
1119.565	14144.8
1124.586	13931.8
1129.602	13837.8
1134.613	13750.8
1139.618	13675.8
1144.619	13609.8
1149.614	13636.8
1154.604	13625.8
1159.589	13718.8
1164.57	13750.8
1169.545	13709.8
1174.515	13733.8
1179.48	13631.8
1184.44	13573.8
1189.395	13480.8
1194.345	13399.8
1199.29	13270.8
1204.23	13318.8
1209.165	13351.8
1214.095	13409.8
1219.021	13461.8
1223.941	13593.8
1228.856	13634.8
1233.766	13722.8
1238.672	13674.8
1243.572	13675.8
1248.467	13611.8
1253.358	13380.8
1258.244	13242.8
1263.124	13024.8
1268	12890.8
1272.871	12708.8
1277.737	12581.8
1282.599	12545.8
1287.455	12553.8
1292.306	12553.8
1297.153	12548.8
1301.995	12691.8
1306.832	12686.8
1311.664	12693.8
1316.491	12669.8
1321.314	12566.8
1326.132	12373.8
1330.945	12079.8
1335.753	11743.8
1340.556	11481.8
1345.354	11246.8
1350.148	11086.8
1354.937	10981.8
1359.722	10944.8
1364.501	11012.8
1369.276	11121.8
1374.046	11238.8
1378.811	11439.8
1383.572	11539.8
1388.327	11603.8
1393.079	11557.8
1397.825	11412.8
1402.567	11215.8
1407.304	11075.8
1412.036	10978.8
1416.764	10879.8
1421.487	10843.8
1426.205	10806.8
1430.919	10772.8
1435.628	10795.8
1440.333	10787.8
1445.032	10841.8
1449.727	10827.8
1454.418	10803.8
1459.104	10683.8
1463.785	10504.8
1468.462	10247.8
1473.134	10004.8
1477.802	9813.8
1482.465	9658.8
1487.123	9565.8
1491.777	9521.8
1496.426	9536.8
1501.071	9697.8
1505.711	9791.8
1510.347	10006.8
1514.978	10131.8
1519.604	10237.8
1524.226	10359.8
1528.844	10387.8
1533.457	10357.8
1538.065	10333.8
1542.669	10282.8
1547.269	10222.8
1551.864	10131.8
1556.454	10119.8
1561.041	10118.8
1565.622	10084.8
1570.199	10098.8
1574.772	10193.8
1579.34	10239.8
1583.904	10309.8
1588.464	10350.8
1593.019	10356.8
1597.569	10325.8
1602.115	10242.8
1606.657	10174.8
1611.195	10122.8
1615.728	10053.8
1620.256	10030.8
1624.78	9999.8
1629.3	10007.8
1633.816	10051.8
1638.327	10063.8
1642.834	10101.8
1647.336	10143.8
1651.834	10172.8
1656.328	10172.8
1660.817	10089.8
1665.302	9992.8
1669.783	9788.8
1674.259	9557.8
1678.732	9302.8
1683.199	8987.8
1687.663	8658.8
1692.122	8431.8
1696.577	8267.8
1701.028	8205.8
1705.474	8278.8
1709.917	8336.8
1714.355	8382.8
1718.788	8317.8
1723.218	8214.8
1727.643	8101.8
1732.064	7918.8
1736.481	7748.8
1740.893	7576.8
1745.301	7382.8
1749.705	7188.8
1754.105	6967.8
1758.501	6757.8
1762.893	6576.8
1767.28	6454.8
1771.663	6278.8
1776.042	6190.8
1780.417	6133.8
1784.787	6119.8
1789.154	6142.8
1793.516	6244.8
1797.874	6382.8
1802.228	6484.8
1806.578	6509.8
1810.924	6543.8
1815.266	6491.8
1819.603	6396.8
1823.937	6327.8
1828.266	6216.8
1832.591	6126.8
1836.913	6044.8
1841.23	6016.8
1845.543	5960.8
1849.852	5944.8
1854.156	5896.8
1858.457	5871.8
1862.754	5893.8
1867.047	5872.8
1871.335	5891.8
1875.62	5870.8
1879.9	5831.8
1884.177	5793.8
1888.449	5736.8
1892.718	5686.8
1896.982	5603.8
1901.243	5555.8
1905.499	5483.8
1909.752	5459.8
1914	5478.8
1918.245	5472.8
1922.485	5520.8
1926.722	5550.8
1930.954	5617.8
1935.183	5671.8
1939.408	5772.8
1943.628	5797.8
1947.845	5804.8
1952.058	5783.8
1956.267	5724.8
1960.472	5666.8
1964.673	5605.8
1968.87	5529.8
1973.063	5455.8
1977.252	5353.8
1981.438	5294.8
1985.619	5285.8
1989.797	5228.8
1993.971	5164.8
1998.14	5162.8
2002.306	5176.8
2006.469	5141.8
2010.627	5103.8
2014.781	5062.8
2018.932	5024.8
2023.078	4981.8
2027.221	4913.8
2031.36	4840.8
2035.495	4741.8
2039.627	4711.8
2043.754	4648.8
2047.878	4606.8
2051.998	4547.8
2056.114	4536.8
2060.226	4538.8
2064.334	4512.8
2068.439	4525.8
2072.54	4559.8
2076.637	4587.8
2080.73	4636.8
2084.82	4618.8
2088.906	4675.8
2092.988	4648.8
2097.066	4640.8
2101.14	4603.8
2105.211	4624.8
2109.278	4559.8
2113.342	4542.8
2117.401	4515.8
2121.457	4505.8
2125.509	4490.8
2129.558	4436.8
2133.602	4427.8
2137.643	4408.8
2141.681	4409.8
2145.714	4384.8
2149.744	4378.8
2153.77	4310.8
2157.793	4280.8
2161.812	4227.8
2165.827	4149.8
2169.838	4102.8
2173.846	4059.8
2177.851	3967.8
2181.851	3906.8
2185.848	3858.8
2189.841	3804.8
2193.831	3774.8
2197.817	3756.8
2201.799	3725.8
2205.778	3703.8
2209.753	3711.8
2213.725	3710.8
2217.693	3701.8
2221.657	3683.8
2225.618	3663.8
2229.575	3619.8
2233.529	3609.8
2237.479	3563.8
2241.425	3551.8
2245.368	3490.8
2249.307	3458.8
2253.243	3411.8
2257.175	3349.8
2261.104	3304.8
2265.029	3273.8
2268.95	3224.8
2272.868	3167.8
2276.783	3165.8
2280.694	3130.8
2284.601	3118.8
2288.505	3056.8
2292.405	3058.8
2296.302	3021.8
2300.195	3006.8
2304.085	2936.8
2307.971	2918.8
2311.854	2870.8
2315.734	2833.8
2319.609	2799.8
2323.482	2774.8
2327.351	2750.8
2331.216	2722.8
2335.078	2716.8
2338.937	2704.8
2342.792	2675.8
2346.643	2690.8
2350.492	2674.8
2354.336	2668.8
2358.178	2677.8
2362.015	2719.8
2365.85	2699.8
2369.681	2696.8
2373.508	2693.8
2377.333	2722.8
2381.153	2694.8
2384.971	2692.8
2388.785	2663.8
2392.595	2636.8
2396.402	2623.8
2400.206	2588.8
2404.007	2579.8
2407.804	2544.8
2411.597	2544.8
2415.388	2546.8
2419.174	2512.8
2422.958	2499.8
2426.738	2481.8
2430.515	2457.8
2434.289	2448.8
2438.059	2396.8
2441.825	2387.8
2445.589	2372.8
2449.349	2358.8
2453.106	2305.8
2456.859	2280.8
2460.61	2260.8
2464.356	2209.8
2468.1	2194.8
2471.84	2186.8
2475.577	2161.8
2479.311	2164.8
2483.041	2130.8
2486.768	2113.8
2490.492	2124.8
2494.213	2110.8
2497.93	2086.8
2501.644	2091.8
2505.355	2089.8
2509.062	2077.8
2512.766	2068.8
2516.467	2043.8
2520.165	2025.8
2523.859	2023.8
2527.551	1987.8
2531.239	2005.8
2534.923	1984.8
2538.605	1961.8
2542.283	1939.8
2545.958	1965.8
2549.63	1951.8
2553.299	1942.8
2556.964	1951.8
2560.626	1932.8
2564.285	1919.8
2567.941	1926.8
2571.594	1890.8
2575.243	1904.8
2578.89	1872.8
2582.533	1874.8
2586.173	1868.8
2589.809	1833.8
2593.443	1817.8
2597.073	1792.8
2600.701	1777.8
2604.325	1769.8
2607.946	1763.8
2611.564	1766.8
2615.178	1758.8
2618.79	1740.8
2622.398	1716.8
2626.004	1693.8
2629.606	1675.8
2633.205	1650.8
2636.801	1642.8
2640.394	1619.8
2643.983	1592.8
2647.57	1582.8
2651.153	1550.8
2654.734	1519.8
2658.311	1501.8
2661.885	1482.8
2665.456	1449.8
2669.025	1445.8
2672.589	1445.8
2676.151	1408.8
2679.71	1391.8
2683.266	1361.8
2686.819	1342.8
2690.368	1335.8
2693.915	1282.8
2697.458	1267.8
2700.999	1243.8
2704.536	1199.8
2708.071	1165.8
2711.602	1160.8
2715.13	1128.8
2718.656	1102.8
2722.178	1069.8
2725.697	1060.8
2729.214	1052.8
2732.727	1052.8
2736.237	1056.8
2739.744	1032.8
2743.249	1039.8
2746.75	1039.8
2750.248	1049.8
2753.743	1041.8
2757.236	1054.8
2760.725	1074.8
2764.211	1093.8
2767.695	1079.8
2771.175	1084.8
2774.652	1092.8
2778.127	1075.8
2781.598	1064.8
2785.067	1070.8
2788.532	1049.8
2791.995	1052.8
2795.455	1064.8
2798.911	1076.8
2802.365	1072.8
2805.816	1072.8
2809.264	1066.8
2812.709	1061.8
2816.151	1042.8
2819.59	1051.8
2823.026	1053.8
2826.46	1059.8
2829.89	1063.8
2833.318	1047.8
2836.742	1065.8
2840.164	1082.8
2843.583	1067.8
2846.999	1096.8
2850.412	1093.8
2853.822	1117.8
2857.229	1129.8
2860.634	1138.8
2864.035	1164.8
2867.434	1167.8
2870.83	1195.8
2874.223	1241.8
2877.613	1257.8
2881	1248.8
2884.385	1261.8
2887.766	1254.8
2891.145	1263.8
2894.521	1263.8
2897.894	1264.8
2901.264	1245.8
2904.631	1268.8
2907.996	1249.8
2911.358	1263.8
2914.717	1271.8
2918.073	1273.8
2921.426	1289.8
2924.777	1306.8
2928.124	1317.8
2931.469	1360.8
2934.811	1382.8
2938.15	1388.8
2941.487	1415.8
2944.821	1403.8
2948.152	1395.8
2951.48	1379.8
2954.805	1415.8
2958.128	1356.8
2961.447	1330.8
2964.765	1355.8
2968.079	1324.8
2971.39	1356.8
2974.699	1374.8
2978.005	1401.8
2981.308	1399.8
2984.609	1431.8
2987.907	1465.8
2991.202	1497.8
2994.494	1535.8
2997.784	1544.8
3001.07	1563.8
3004.355	1581.8
3007.636	1598.8
3010.915	1631.8
3014.191	1646.8
3017.464	1652.8
3020.734	1668.8
3024.002	1675.8
3027.267	1684.8
3030.53	1704.8
3033.789	1716.8
3037.046	1741.8
3040.301	1765.8
3043.552	1805.8
3046.801	1832.8
3050.048	1886.8
3053.291	1942.8
3056.532	2004.8
3059.771	2066.8
3063.006	2098.8
3066.239	2167.8
3069.469	2234.8
3072.697	2280.8
3075.922	2371.8
3079.144	2411.8
3082.364	2449.8
3085.581	2475.8
3088.795	2542.8
3092.007	2595.8
3095.216	2656.8
3098.423	2716.8
3101.627	2763.8
3104.828	2856.8
3108.026	2888.8
3111.222	2967.8
3114.416	3032.8
3117.607	3104.8
3120.795	3160.8
3123.98	3222.8
3127.163	3336.8
3130.344	3383.8
3133.521	3462.8
3136.696	3555.8
3139.869	3620.8
3143.039	3709.8
3146.206	3727.8
3149.371	3793.8
3152.533	3814.8
3155.693	3816.8
3158.85	3874.8
3162.005	3901.8
3165.157	3894.8
3168.306	3887.8
3171.453	3900.8
3174.597	3929.8
3177.739	3923.8
3180.878	3923.8
3184.014	3950.8
3187.149	3937.8
3190.28	3935.8
3193.409	3989.8
3196.536	3973.8
3199.659	3986.8
3202.781	4005.8
3205.9	3955.8
3209.016	3966.8
3212.13	3932.8
3215.241	3928.8
3218.35	3880.8
3221.456	3829.8
3224.56	3776.8
3227.661	3737.8
3230.76	3697.8
3233.856	3677.8
3236.95	3634.8
3240.041	3591.8
3243.13	3569.8
3246.216	3546.8
3249.3	3527.8
3252.382	3528.8
3255.46	3511.8
3258.537	3481.8
3261.611	3476.8
3264.682	3499.8
3267.751	3480.8
3270.818	3487.8
3273.882	3451.8
3276.943	3435.8
3280.002	3419.8
3283.059	3370.8
3286.113	3353.8
3289.165	3279.8
3292.214	3252.8
3295.261	3205.8
3298.306	3164.8
3301.348	3085.8
3304.387	3048.8
3307.425	3009.8
3310.459	2974.8
3313.492	2918.8
3316.521	2878.8
3319.549	2866.8
3322.574	2825.8
3325.597	2773.8
3328.617	2778.8
3331.635	2757.8
3334.65	2755.8
3337.663	2717.8
3340.674	2712.8
3343.682	2725.8
3346.688	2704.8
3349.691	2684.8
3352.692	2664.8
3355.691	2670.8
3358.687	2623.8
3361.681	2580.8
3364.673	2574.8
3367.662	2544.8
3370.649	2487.8
3373.633	2470.8
3376.615	2426.8
3379.595	2401.8
3382.572	2338.8
3385.547	2317.8
3388.52	2312.8
3391.49	2213.8
3394.458	2192.8
3397.424	2187.8
3400.387	2155.8
3403.348	2140.8
3406.307	2080.8
3409.263	2072.8
3412.217	2041.8
3415.168	2019.8
3418.118	1991.8
3421.065	1975.8
3424.009	1952.8
3426.951	1917.8
3429.891	1870.8
3432.829	1828.8
3435.764	1796.8
3438.697	1746.8
3441.628	1686.8
3444.557	1634.8
3447.483	1598.8
3450.407	1544.8
3453.328	1496.8
3456.247	1435.8
3459.164	1381.8
3462.079	1346.8
3464.991	1275.8
3467.902	1228.8
3470.809	1191.8
3473.715	1150.8
3476.618	1112.8
3479.519	1048.8
3482.418	1024.8
3485.315	1007.8
3488.209	953.8
3491.101	895.8
3493.99	890.8
3496.878	851.8
3499.763	817.8
3502.646	787.8
3505.527	756.8
3508.405	707.8
3511.281	659.8
3514.155	632.8
3517.027	586.8
3519.897	539.8
3522.764	508.8
3525.629	474.8
3528.492	417.8
3531.352	367.8
3534.211	350.8
3537.067	308.8
3539.921	277.8
3542.773	249.8
3545.622	208.8
3548.469	175.8
3551.315	146.8
3554.157	122.8
3556.998	104.8
3559.837	78.8
3562.673	55.8
3565.507	35.8
3568.339	15.8
3571.169	-9.2
3573.996	-26.2
3576.822	-52.2
3579.645	-65.2
3582.466	-93.2
3585.285	-105.2
3588.101	-120.2
3590.916	-146.2
3593.728	-168.2
3596.538	-183.2
3599.346	-204.2
3602.152	-214.2
3604.956	-231.2
3607.757	-246.2
3610.556	-260.2
3613.354	-266.2
3616.149	-290.2
3618.942	-290.2
3621.732	-313.2
3624.521	-318.2
3627.307	-334.2
3630.092	-335.2
3632.874	-345.2
3635.654	-351.2
3638.432	-363.2
3641.208	-360.2
3643.982	-382.2
3646.753	-387.2
3649.523	-406.2
3652.29	-403.2
3655.055	-418.2
3657.818	-424.2
3660.579	-426.2
3663.338	-444.2
3666.095	-455.2
3668.849	-470.2
3671.602	-471.2
3674.352	-479.2
3677.101	-490.2
3679.847	-499.2
3682.591	-499.2
3685.333	-511.2
3688.073	-507.2
3690.811	-517.2
3693.547	-516.2
3696.281	-530.2
3699.013	-528.2
3701.742	-537.2
3704.47	-541.2
3707.195	-554.2
3709.919	-545.2
3712.64	-554.2
3715.359	-553.2
3718.076	-553.2
3720.792	-568.2
3723.505	-562.2
3726.216	-568.2
3728.925	-568.2
3731.632	-587.2
3734.336	-574.2
3737.039	-586.2
3739.74	-584.2
3742.439	-587.2
3745.136	-592.2
3747.83	-592.2
3750.523	-593.2
3753.213	-599.2
3755.902	-597.2
3758.589	-592.2
3761.273	-597.2
3763.956	-608.2
3766.636	-600.2
3769.315	-607.2
3771.991	-611.2
3774.665	-607.2
3777.338	-612.2
3780.008	-609.2
3782.677	-609.2
3785.343	-615.2
3788.007	-604.2
3790.67	-617.2
3793.33	-617.2
3795.989	-619.2
3798.645	-627.2
3801.299	-626.2
3803.952	-625.2
3806.602	-626.2
3809.251	-630.2
3811.897	-627.2
3814.542	-624.2
3817.184	-627.2
3819.825	-629.2
3822.463	-624.2
3825.1	-631.2
3827.735	-634.2
3830.367	-634.2
3832.998	-636.2
3835.627	-635.2
3838.253	-640.2
3840.878	-640.2
3843.501	-637.2
3846.122	-630.2
3848.741	-634.2
3851.358	-639.2
3853.973	-641.2
3856.586	-639.2
3859.197	-638.2
3861.806	-639.2
3864.414	-630.2
3867.019	-631.2
3869.622	-637.2
3872.224	-630.2
3874.823	-615.2
3877.421	-599.2
3880.016	-585.2
3882.61	-547.2
3885.202	-539.2
3887.792	-571.2
3890.38	-601.2
3892.966	-618.2
3895.55	-633.2
3898.132	-642.2
3900.713	-649.2
3903.291	-650.2
3905.868	-652.2
3908.442	-653.2
3911.015	-649.2
3913.586	-649.2
3916.155	-655.2
3918.722	-650.2
3921.287	-651.2
3923.85	-654.2
3926.411	-653.2
3928.971	-652.2
3931.528	-656.2
3934.084	-645.2
3936.638	-649.2
3939.19	-654.2
3941.74	-655.2
3944.288	-657.2
3946.834	-656.2
3949.378	-657.2
3951.921	-651.2
3954.462	-652.2
3957	-650.2
3959.537	-643.2
3962.072	-645.2
3964.606	-645.2
3967.137	-656.2
3969.667	-653.2
3972.194	-649.2
3974.72	-649.2
3977.244	-646.2
3979.766	-643.2
3982.286	-644.2
3984.805	-632.2
3987.321	-642.2
3989.836	-643.2
3992.349	-639.2
3994.86	-636.2
3997.369	-645.2
3999.877	-639.2
4002.382	-635.2
4004.886	-646.2
4007.388	-640.2
4009.888	-643.2
4012.386	-638.2
4014.883	-633.2
4017.377	-643.2
4019.87	-631.2
4022.361	-636.2
4024.85	-637.2
4027.338	-643.2
4029.823	-640.2
4032.307	-640.2
4034.789	-644.2
4037.269	-645.2
4039.747	-645.2
4042.224	-638.2
4044.699	-644.2
4047.172	-647.2
4049.643	-640.2
4052.112	-640.2
4054.58	-641.2
4057.046	-653.2
4059.51	-646.2
4061.972	-648.2
4064.432	-639.2
4066.891	-647.2
4069.348	-646.2
4071.803	-645.2
4074.256	-641.2
4076.708	-642.2
4079.158	-638.2
4081.606	-633.2
4084.052	-637.2
4086.497	-642.2
4088.939	-634.2
4091.38	-636.2
4093.819	-639.2
4096.257	-673.2
4098.693	-676.2
4101.127	-676.2
4103.559	-673.2
4105.989	-399.2
4108.418	-395.2
4110.845	-370.2
4113.27	-346.2
4115.694	-293.2
4118.115	-241.2
4120.535	-644.2
4122.954	-647.2
4125.37	-644.2
4127.785	-639.2
4130.198	-648.2
4132.609	-642.2
4135.019	-678.2
4137.427	-677.2
4139.833	-678.2
4142.237	-680.2
