Data from 2018-2-7_conc=2_RamanShift_01.txt Node
Date: Tue Feb 13 11:42:14 IST 2018
User: aro
Spectrometer: QEPB0276
Trigger mode: 0
Integration Time (sec): 3.000000E1
Scans to average: 1
Electric dark correction enabled: true
Nonlinearity correction enabled: false
Boxcar width: 0
XAxis mode: Raman Shifts
Number of Pixels in Spectrum: 1044
>>>>>Begin Spectral Data<<<<<
160.701	-173.4
166.742	23.6
172.777	577.6
178.805	2232.6
184.826	6051.6
190.841	12465.6
196.849	19698.6
202.85	24710.6
208.845	26231.6
214.833	25955.6
220.815	25474.6
226.789	25351.6
232.758	25293.6
238.719	25081.6
244.674	24711.6
250.623	24241.6
256.565	23795.6
262.5	23283.6
268.429	22908.6
274.351	22540.6
280.267	22299.6
286.176	21979.6
292.079	21812.6
297.975	21591.6
303.865	21475.6
309.748	21284.6
315.625	21181.6
321.495	21007.6
327.359	21037.6
333.217	20946.6
339.068	20894.6
344.912	20875.6
350.751	20816.6
356.583	20823.6
362.408	20786.6
368.227	20835.6
374.04	20861.6
379.847	20881.6
385.647	20962.6
391.44	21004.6
397.228	21104.6
403.009	21202.6
408.784	21243.6
414.553	21338.6
420.315	21403.6
426.071	21444.6
431.821	21436.6
437.565	21402.6
443.302	21413.6
449.033	21311.6
454.758	21240.6
460.477	21214.6
466.189	21193.6
471.896	21122.6
477.596	21155.6
483.29	20993.6
488.978	20993.6
494.66	20932.6
500.335	20802.6
506.005	20659.6
511.668	20417.6
517.325	20127.6
522.977	20019.6
528.622	19812.6
534.261	19721.6
539.894	19652.6
545.521	19565.6
551.141	19502.6
556.756	19492.6
562.365	19322.6
567.968	19317.6
573.565	19232.6
579.155	19145.6
584.74	19033.6
590.319	19021.6
595.892	18945.6
601.459	18884.6
607.02	18789.6
612.575	18664.6
618.124	18569.6
623.667	18477.6
629.204	18391.6
634.735	18236.6
640.261	18210.6
645.781	18164.6
651.294	18187.6
656.802	18109.6
662.304	18043.6
667.8	18055.6
673.29	18056.6
678.775	18028.6
684.254	17928.6
689.726	17844.6
695.193	17789.6
700.655	17840.6
706.11	17658.6
711.56	17531.6
717.004	17506.6
722.442	17428.6
727.874	17342.6
733.301	17245.6
738.722	17238.6
744.137	17218.6
749.547	17227.6
754.951	17169.6
760.349	17191.6
765.741	17221.6
771.128	17188.6
776.509	17233.6
781.885	17213.6
787.254	17159.6
792.618	17095.6
797.977	16968.6
803.33	16814.6
808.677	16808.6
814.019	16662.6
819.355	16637.6
824.686	16558.6
830.011	16523.6
835.33	16522.6
840.644	16522.6
845.952	16565.6
851.255	16566.6
856.552	16556.6
861.844	16564.6
867.13	16593.6
872.41	16553.6
877.686	16421.6
882.955	16254.6
888.219	16100.6
893.478	15991.6
898.731	15767.6
903.979	15612.6
909.221	15449.6
914.458	15467.6
919.69	15460.6
924.916	15465.6
930.136	15519.6
935.351	15538.6
940.561	15527.6
945.766	15537.6
950.965	15443.6
956.158	15331.6
961.347	15167.6
966.529	14940.6
971.707	14822.6
976.879	14654.6
982.046	14546.6
987.208	14422.6
992.364	14458.6
997.515	14561.6
1002.66	14685.6
1007.801	14807.6
1012.936	14929.6
1018.066	14969.6
1023.19	14937.6
1028.309	14912.6
1033.423	14873.6
1038.532	14823.6
1043.636	14708.6
1048.734	14472.6
1053.827	14351.6
1058.915	14190.6
1063.998	14052.6
1069.075	14060.6
1074.147	14084.6
1079.214	14122.6
1084.276	14196.6
1089.333	14289.6
1094.385	14341.6
1099.431	14348.6
1104.472	14342.6
1109.509	14289.6
1114.54	14144.6
1119.565	13994.6
1124.586	13784.6
1129.602	13599.6
1134.613	13585.6
1139.618	13473.6
1144.619	13397.6
1149.614	13421.6
1154.604	13495.6
1159.589	13537.6
1164.57	13479.6
1169.545	13558.6
1174.515	13562.6
1179.48	13425.6
1184.44	13433.6
1189.395	13248.6
1194.345	13214.6
1199.29	13110.6
1204.23	13118.6
1209.165	13148.6
1214.095	13273.6
1219.021	13326.6
1223.941	13398.6
1228.856	13455.6
1233.766	13462.6
1238.672	13520.6
1243.572	13484.6
1248.467	13404.6
1253.358	13203.6
1258.244	13049.6
1263.124	12878.6
1268	12685.6
1272.871	12496.6
1277.737	12402.6
1282.599	12389.6
1287.455	12370.6
1292.306	12418.6
1297.153	12400.6
1301.995	12504.6
1306.832	12482.6
1311.664	12551.6
1316.491	12467.6
1321.314	12412.6
1326.132	12138.6
1330.945	11893.6
1335.753	11621.6
1340.556	11339.6
1345.354	11129.6
1350.148	10935.6
1354.937	10820.6
1359.722	10841.6
1364.501	10845.6
1369.276	10915.6
1374.046	11036.6
1378.811	11201.6
1383.572	11320.6
1388.327	11354.6
1393.079	11323.6
1397.825	11183.6
1402.567	11058.6
1407.304	10952.6
1412.036	10845.6
1416.764	10769.6
1421.487	10714.6
1426.205	10647.6
1430.919	10603.6
1435.628	10595.6
1440.333	10635.6
1445.032	10651.6
1449.727	10668.6
1454.418	10655.6
1459.104	10544.6
1463.785	10307.6
1468.462	10052.6
1473.134	9877.6
1477.802	9667.6
1482.465	9513.6
1487.123	9360.6
1491.777	9358.6
1496.426	9364.6
1501.071	9494.6
1505.711	9573.6
1510.347	9715.6
1514.978	9915.6
1519.604	10009.6
1524.226	10098.6
1528.844	10137.6
1533.457	10121.6
1538.065	10116.6
1542.669	10035.6
1547.269	9954.6
1551.864	9914.6
1556.454	9849.6
1561.041	9882.6
1565.622	9867.6
1570.199	9893.6
1574.772	9963.6
1579.34	10047.6
1583.904	10093.6
1588.464	10130.6
1593.019	10085.6
1597.569	10065.6
1602.115	10016.6
1606.657	9949.6
1611.195	9864.6
1615.728	9790.6
1620.256	9773.6
1624.78	9719.6
1629.3	9765.6
1633.816	9825.6
1638.327	9841.6
1642.834	9830.6
1647.336	9922.6
1651.834	9898.6
1656.328	9901.6
1660.817	9797.6
1665.302	9721.6
1669.783	9533.6
1674.259	9317.6
1678.732	9020.6
1683.199	8747.6
1687.663	8404.6
1692.122	8156.6
1696.577	7999.6
1701.028	7950.6
1705.474	7980.6
1709.917	8064.6
1714.355	8060.6
1718.788	8075.6
1723.218	7979.6
1727.643	7863.6
1732.064	7674.6
1736.481	7554.6
1740.893	7360.6
1745.301	7167.6
1749.705	6985.6
1754.105	6777.6
1758.501	6611.6
1762.893	6379.6
1767.28	6212.6
1771.663	6061.6
1776.042	6018.6
1780.417	5883.6
1784.787	5899.6
1789.154	5930.6
1793.516	6015.6
1797.874	6093.6
1802.228	6222.6
1806.578	6295.6
1810.924	6283.6
1815.266	6271.6
1819.603	6143.6
1823.937	6108.6
1828.266	5986.6
1832.591	5949.6
1836.913	5835.6
1841.23	5817.6
1845.543	5763.6
1849.852	5749.6
1854.156	5745.6
1858.457	5716.6
1862.754	5720.6
1867.047	5684.6
1871.335	5680.6
1875.62	5635.6
1879.9	5623.6
1884.177	5599.6
1888.449	5554.6
1892.718	5460.6
1896.982	5408.6
1901.243	5353.6
1905.499	5289.6
1909.752	5273.6
1914	5238.6
1918.245	5266.6
1922.485	5271.6
1926.722	5321.6
1930.954	5391.6
1935.183	5472.6
1939.408	5511.6
1943.628	5540.6
1947.845	5525.6
1952.058	5531.6
1956.267	5497.6
1960.472	5470.6
1964.673	5365.6
1968.87	5274.6
1973.063	5217.6
1977.252	5130.6
1981.438	5102.6
1985.619	5054.6
1989.797	5005.6
1993.971	4981.6
1998.14	4953.6
2002.306	4948.6
2006.469	4927.6
2010.627	4897.6
2014.781	4873.6
2018.932	4832.6
2023.078	4761.6
2027.221	4722.6
2031.36	4638.6
2035.495	4599.6
2039.627	4495.6
2043.754	4454.6
2047.878	4407.6
2051.998	4351.6
2056.114	4294.6
2060.226	4339.6
2064.334	4319.6
2068.439	4326.6
2072.54	4363.6
2076.637	4385.6
2080.73	4387.6
2084.82	4426.6
2088.906	4404.6
2092.988	4451.6
2097.066	4404.6
2101.14	4412.6
2105.211	4380.6
2109.278	4333.6
2113.342	4342.6
2117.401	4316.6
2121.457	4259.6
2125.509	4259.6
2129.558	4231.6
2133.602	4220.6
2137.643	4195.6
2141.681	4212.6
2145.714	4160.6
2149.744	4133.6
2153.77	4126.6
2157.793	4071.6
2161.812	4021.6
2165.827	3972.6
2169.838	3929.6
2173.846	3847.6
2177.851	3785.6
2181.851	3754.6
2185.848	3686.6
2189.841	3672.6
2193.831	3607.6
2197.817	3579.6
2201.799	3559.6
2205.778	3588.6
2209.753	3534.6
2213.725	3508.6
2217.693	3508.6
2221.657	3528.6
2225.618	3501.6
2229.575	3517.6
2233.529	3487.6
2237.479	3418.6
2241.425	3391.6
2245.368	3337.6
2249.307	3292.6
2253.243	3244.6
2257.175	3192.6
2261.104	3167.6
2265.029	3135.6
2268.95	3087.6
2272.868	3052.6
2276.783	3026.6
2280.694	3000.6
2284.601	2970.6
2288.505	2945.6
2292.405	2908.6
2296.302	2895.6
2300.195	2854.6
2304.085	2834.6
2307.971	2793.6
2311.854	2757.6
2315.734	2719.6
2319.609	2684.6
2323.482	2635.6
2327.351	2622.6
2331.216	2624.6
2335.078	2615.6
2338.937	2595.6
2342.792	2581.6
2346.643	2549.6
2350.492	2571.6
2354.336	2585.6
2358.178	2592.6
2362.015	2608.6
2365.85	2605.6
2369.681	2617.6
2373.508	2607.6
2377.333	2597.6
2381.153	2606.6
2384.971	2577.6
2388.785	2565.6
2392.595	2551.6
2396.402	2529.6
2400.206	2524.6
2404.007	2491.6
2407.804	2483.6
2411.597	2470.6
2415.388	2438.6
2419.174	2419.6
2422.958	2395.6
2426.738	2389.6
2430.515	2376.6
2434.289	2353.6
2438.059	2351.6
2441.825	2345.6
2445.589	2292.6
2449.349	2272.6
2453.106	2221.6
2456.859	2198.6
2460.61	2165.6
2464.356	2149.6
2468.1	2115.6
2471.84	2104.6
2475.577	2089.6
2479.311	2083.6
2483.041	2062.6
2486.768	2061.6
2490.492	2028.6
2494.213	2059.6
2497.93	2022.6
2501.644	2018.6
2505.355	1986.6
2509.062	1997.6
2512.766	1986.6
2516.467	1961.6
2520.165	1969.6
2523.859	1935.6
2527.551	1921.6
2531.239	1910.6
2534.923	1885.6
2538.605	1884.6
2542.283	1898.6
2545.958	1861.6
2549.63	1887.6
2553.299	1849.6
2556.964	1866.6
2560.626	1850.6
2564.285	1809.6
2567.941	1821.6
2571.594	1834.6
2575.243	1803.6
2578.89	1827.6
2582.533	1770.6
2586.173	1771.6
2589.809	1749.6
2593.443	1742.6
2597.073	1715.6
2600.701	1728.6
2604.325	1684.6
2607.946	1703.6
2611.564	1682.6
2615.178	1658.6
2618.79	1658.6
2622.398	1636.6
2626.004	1646.6
2629.606	1596.6
2633.205	1598.6
2636.801	1566.6
2640.394	1537.6
2643.983	1521.6
2647.57	1501.6
2651.153	1473.6
2654.734	1447.6
2658.311	1445.6
2661.885	1404.6
2665.456	1404.6
2669.025	1373.6
2672.589	1369.6
2676.151	1356.6
2679.71	1338.6
2683.266	1302.6
2686.819	1294.6
2690.368	1250.6
2693.915	1238.6
2697.458	1202.6
2700.999	1172.6
2704.536	1156.6
2708.071	1125.6
2711.602	1102.6
2715.13	1074.6
2718.656	1035.6
2722.178	1020.6
2725.697	1009.6
2729.214	993.6
2732.727	997.6
2736.237	974.6
2739.744	987.6
2743.249	959.6
2746.75	973.6
2750.248	991.6
2753.743	969.6
2757.236	999.6
2760.725	979.6
2764.211	1004.6
2767.695	1014.6
2771.175	1034.6
2774.652	1001.6
2778.127	986.6
2781.598	1007.6
2785.067	988.6
2788.532	990.6
2791.995	996.6
2795.455	1001.6
2798.911	984.6
2802.365	995.6
2805.816	991.6
2809.264	994.6
2812.709	1002.6
2816.151	977.6
2819.59	996.6
2823.026	981.6
2826.46	991.6
2829.89	1001.6
2833.318	995.6
2836.742	996.6
2840.164	1018.6
2843.583	994.6
2846.999	1032.6
2850.412	1038.6
2853.822	1067.6
2857.229	1078.6
2860.634	1079.6
2864.035	1106.6
2867.434	1108.6
2870.83	1145.6
2874.223	1162.6
2877.613	1180.6
2881	1189.6
2884.385	1195.6
2887.766	1207.6
2891.145	1191.6
2894.521	1190.6
2897.894	1172.6
2901.264	1167.6
2904.631	1184.6
2907.996	1171.6
2911.358	1191.6
2914.717	1190.6
2918.073	1201.6
2921.426	1228.6
2924.777	1212.6
2928.124	1235.6
2931.469	1269.6
2934.811	1290.6
2938.15	1314.6
2941.487	1324.6
2944.821	1336.6
2948.152	1316.6
2951.48	1332.6
2954.805	1281.6
2958.128	1266.6
2961.447	1272.6
2964.765	1267.6
2968.079	1261.6
2971.39	1273.6
2974.699	1287.6
2978.005	1302.6
2981.308	1314.6
2984.609	1360.6
2987.907	1365.6
2991.202	1399.6
2994.494	1419.6
2997.784	1468.6
3001.07	1474.6
3004.355	1490.6
3007.636	1517.6
3010.915	1538.6
3014.191	1566.6
3017.464	1578.6
3020.734	1577.6
3024.002	1604.6
3027.267	1599.6
3030.53	1615.6
3033.789	1647.6
3037.046	1655.6
3040.301	1682.6
3043.552	1733.6
3046.801	1764.6
3050.048	1810.6
3053.291	1853.6
3056.532	1881.6
3059.771	1957.6
3063.006	1994.6
3066.239	2066.6
3069.469	2144.6
3072.697	2195.6
3075.922	2238.6
3079.144	2288.6
3082.364	2327.6
3085.581	2375.6
3088.795	2449.6
3092.007	2479.6
3095.216	2532.6
3098.423	2599.6
3101.627	2631.6
3104.828	2711.6
3108.026	2776.6
3111.222	2820.6
3114.416	2921.6
3117.607	3006.6
3120.795	3031.6
3123.98	3119.6
3127.163	3163.6
3130.344	3256.6
3133.521	3336.6
3136.696	3413.6
3139.869	3486.6
3143.039	3538.6
3146.206	3574.6
3149.371	3638.6
3152.533	3664.6
3155.693	3705.6
3158.85	3707.6
3162.005	3734.6
3165.157	3725.6
3168.306	3736.6
3171.453	3744.6
3174.597	3746.6
3177.739	3743.6
3180.878	3777.6
3184.014	3782.6
3187.149	3757.6
3190.28	3751.6
3193.409	3782.6
3196.536	3778.6
3199.659	3785.6
3202.781	3790.6
3205.9	3770.6
3209.016	3767.6
3212.13	3740.6
3215.241	3719.6
3218.35	3702.6
3221.456	3637.6
3224.56	3605.6
3227.661	3545.6
3230.76	3528.6
3233.856	3472.6
3236.95	3429.6
3240.041	3414.6
3243.13	3365.6
3246.216	3378.6
3249.3	3341.6
3252.382	3304.6
3255.46	3312.6
3258.537	3299.6
3261.611	3316.6
3264.682	3299.6
3267.751	3277.6
3270.818	3291.6
3273.882	3273.6
3276.943	3232.6
3280.002	3216.6
3283.059	3201.6
3286.113	3169.6
3289.165	3106.6
3292.214	3063.6
3295.261	3030.6
3298.306	2962.6
3301.348	2941.6
3304.387	2865.6
3307.425	2835.6
3310.459	2802.6
3313.492	2752.6
3316.521	2711.6
3319.549	2690.6
3322.574	2668.6
3325.597	2638.6
3328.617	2615.6
3331.635	2608.6
3334.65	2616.6
3337.663	2564.6
3340.674	2560.6
3343.682	2555.6
3346.688	2541.6
3349.691	2555.6
3352.692	2525.6
3355.691	2521.6
3358.687	2503.6
3361.681	2456.6
3364.673	2394.6
3367.662	2415.6
3370.649	2339.6
3373.633	2309.6
3376.615	2276.6
3379.595	2241.6
3382.572	2193.6
3385.547	2192.6
3388.52	2136.6
3391.49	2106.6
3394.458	2080.6
3397.424	2015.6
3400.387	2020.6
3403.348	1984.6
3406.307	1970.6
3409.263	1963.6
3412.217	1909.6
3415.168	1920.6
3418.118	1876.6
3421.065	1831.6
3424.009	1827.6
3426.951	1772.6
3429.891	1766.6
3432.829	1722.6
3435.764	1656.6
3438.697	1636.6
3441.628	1581.6
3444.557	1545.6
3447.483	1494.6
3450.407	1443.6
3453.328	1378.6
3456.247	1330.6
3459.164	1285.6
3462.079	1229.6
3464.991	1208.6
3467.902	1130.6
3470.809	1095.6
3473.715	1055.6
3476.618	1033.6
3479.519	965.6
3482.418	951.6
3485.315	912.6
3488.209	857.6
3491.101	843.6
3493.99	802.6
3496.878	770.6
3499.763	736.6
3502.646	719.6
3505.527	677.6
3508.405	622.6
3511.281	589.6
3514.155	566.6
3517.027	537.6
3519.897	493.6
3522.764	461.6
3525.629	404.6
3528.492	376.6
3531.352	334.6
3534.211	308.6
3537.067	263.6
3539.921	243.6
3542.773	209.6
3545.622	156.6
3548.469	148.6
3551.315	115.6
3554.157	82.6
3556.998	71.6
3559.837	38.6
3562.673	18.6
3565.507	-4.4
3568.339	-12.4
3571.169	-32.4
3573.996	-50.4
3576.822	-58.4
3579.645	-88.4
3582.466	-112.4
3585.285	-130.4
3588.101	-143.4
3590.916	-160.4
3593.728	-190.4
3596.538	-189.4
3599.346	-218.4
3602.152	-230.4
3604.956	-248.4
3607.757	-256.4
3610.556	-264.4
3613.354	-282.4
3616.149	-296.4
3618.942	-312.4
3621.732	-315.4
3624.521	-318.4
3627.307	-332.4
3630.092	-348.4
3632.874	-360.4
3635.654	-367.4
3638.432	-369.4
3641.208	-376.4
3643.982	-394.4
3646.753	-395.4
3649.523	-407.4
3652.29	-417.4
3655.055	-419.4
3657.818	-426.4
3660.579	-435.4
3663.338	-446.4
3666.095	-456.4
3668.849	-461.4
3671.602	-476.4
3674.352	-468.4
3677.101	-490.4
3679.847	-499.4
3682.591	-493.4
3685.333	-494.4
3688.073	-503.4
3690.811	-511.4
3693.547	-514.4
3696.281	-528.4
3699.013	-524.4
3701.742	-532.4
3704.47	-534.4
3707.195	-544.4
3709.919	-541.4
3712.64	-547.4
3715.359	-553.4
3718.076	-556.4
3720.792	-557.4
3723.505	-560.4
3726.216	-561.4
3728.925	-557.4
3731.632	-567.4
3734.336	-565.4
3737.039	-579.4
3739.74	-577.4
3742.439	-578.4
3745.136	-584.4
3747.83	-585.4
3750.523	-581.4
3753.213	-589.4
3755.902	-586.4
3758.589	-585.4
3761.273	-588.4
3763.956	-595.4
3766.636	-588.4
3769.315	-594.4
3771.991	-598.4
3774.665	-597.4
3777.338	-594.4
3780.008	-599.4
3782.677	-595.4
3785.343	-600.4
3788.007	-599.4
3790.67	-603.4
3793.33	-605.4
3795.989	-610.4
3798.645	-611.4
3801.299	-617.4
3803.952	-612.4
3806.602	-615.4
3809.251	-624.4
3811.897	-614.4
3814.542	-615.4
3817.184	-616.4
3819.825	-613.4
3822.463	-613.4
3825.1	-619.4
3827.735	-620.4
3830.367	-624.4
3832.998	-622.4
3835.627	-629.4
3838.253	-623.4
3840.878	-630.4
3843.501	-625.4
3846.122	-631.4
3848.741	-629.4
3851.358	-629.4
3853.973	-626.4
3856.586	-625.4
3859.197	-629.4
3861.806	-626.4
3864.414	-623.4
3867.019	-623.4
3869.622	-628.4
3872.224	-623.4
3874.823	-617.4
3877.421	-602.4
3880.016	-590.4
3882.61	-567.4
3885.202	-564.4
3887.792	-591.4
3890.38	-600.4
3892.966	-621.4
3895.55	-629.4
3898.132	-634.4
3900.713	-635.4
3903.291	-638.4
3905.868	-639.4
3908.442	-635.4
3911.015	-635.4
3913.586	-641.4
3916.155	-639.4
3918.722	-637.4
3921.287	-635.4
3923.85	-640.4
3926.411	-641.4
3928.971	-645.4
3931.528	-643.4
3934.084	-637.4
3936.638	-649.4
3939.19	-648.4
3941.74	-644.4
3944.288	-647.4
3946.834	-649.4
3949.378	-644.4
3951.921	-643.4
3954.462	-640.4
3957	-637.4
3959.537	-635.4
3962.072	-633.4
3964.606	-635.4
3967.137	-642.4
3969.667	-642.4
3972.194	-636.4
3974.72	-640.4
3977.244	-637.4
3979.766	-636.4
3982.286	-631.4
3984.805	-624.4
3987.321	-628.4
3989.836	-630.4
3992.349	-627.4
3994.86	-628.4
3997.369	-635.4
3999.877	-628.4
4002.382	-625.4
4004.886	-628.4
4007.388	-627.4
4009.888	-625.4
4012.386	-630.4
4014.883	-630.4
4017.377	-632.4
4019.87	-629.4
4022.361	-627.4
4024.85	-628.4
4027.338	-634.4
4029.823	-628.4
4032.307	-635.4
4034.789	-629.4
4037.269	-635.4
4039.747	-638.4
4042.224	-626.4
4044.699	-634.4
4047.172	-637.4
4049.643	-631.4
4052.112	-630.4
4054.58	-630.4
4057.046	-636.4
4059.51	-633.4
4061.972	-637.4
4064.432	-636.4
4066.891	-632.4
4069.348	-635.4
4071.803	-633.4
4074.256	-631.4
4076.708	-630.4
4079.158	-629.4
4081.606	-626.4
4084.052	-627.4
4086.497	-631.4
4088.939	-625.4
4091.38	-624.4
4093.819	-625.4
4096.257	-663.4
4098.693	-666.4
4101.127	-664.4
4103.559	-665.4
4105.989	-403.4
4108.418	-384.4
4110.845	-354.4
4113.27	-335.4
4115.694	-298.4
4118.115	-243.4
4120.535	-624.4
4122.954	-638.4
4125.37	-634.4
4127.785	-634.4
4130.198	-635.4
4132.609	-627.4
4135.019	-669.4
4137.427	-663.4
4139.833	-663.4
4142.237	-664.4
