Data from 2018-2-7_conc=4_RamanShift_12.txt Node
Date: Tue Feb 13 13:36:43 IST 2018
User: aro
Spectrometer: QEPB0276
Trigger mode: 0
Integration Time (sec): 3.000000E1
Scans to average: 1
Electric dark correction enabled: true
Nonlinearity correction enabled: false
Boxcar width: 0
XAxis mode: Raman Shifts
Number of Pixels in Spectrum: 1044
>>>>>Begin Spectral Data<<<<<
160.701	-162.2
166.742	18.8
172.777	565.8
178.805	2175.8
184.826	5932.8
190.841	12192.8
196.849	19190.8
202.85	24016.8
208.845	25518.8
214.833	25241.8
220.815	24753.8
226.789	24517.8
232.758	24410.8
238.719	24149.8
244.674	23796.8
250.623	23402.8
256.565	22860.8
262.5	22411.8
268.429	21973.8
274.351	21555.8
280.267	21306.8
286.176	21006.8
292.079	20815.8
297.975	20539.8
303.865	20410.8
309.748	20243.8
315.625	20103.8
321.495	19992.8
327.359	19942.8
333.217	19876.8
339.068	19881.8
344.912	19880.8
350.751	19883.8
356.583	19771.8
362.408	19787.8
368.227	19765.8
374.04	19763.8
379.847	19877.8
385.647	19953.8
391.44	20019.8
397.228	20125.8
403.009	20190.8
408.784	20251.8
414.553	20297.8
420.315	20370.8
426.071	20309.8
431.821	20342.8
437.565	20317.8
443.302	20240.8
449.033	20231.8
454.758	20206.8
460.477	20171.8
466.189	20084.8
471.896	20076.8
477.596	20066.8
483.29	19971.8
488.978	19952.8
494.66	19837.8
500.335	19777.8
506.005	19559.8
511.668	19256.8
517.325	19116.8
522.977	18923.8
528.622	18805.8
534.261	18706.8
539.894	18559.8
545.521	18524.8
551.141	18407.8
556.756	18354.8
562.365	18277.8
567.968	18212.8
573.565	18104.8
579.155	18083.8
584.74	17940.8
590.319	17861.8
595.892	17754.8
601.459	17800.8
607.02	17679.8
612.575	17603.8
618.124	17466.8
623.667	17358.8
629.204	17273.8
634.735	17178.8
640.261	17142.8
645.781	17044.8
651.294	17014.8
656.802	17021.8
662.304	16970.8
667.8	16940.8
673.29	16920.8
678.775	16913.8
684.254	16840.8
689.726	16824.8
695.193	16694.8
700.655	16626.8
706.11	16516.8
711.56	16488.8
717.004	16341.8
722.442	16321.8
727.874	16240.8
733.301	16178.8
738.722	16126.8
744.137	16133.8
749.547	16093.8
754.951	16133.8
760.349	16099.8
765.741	16050.8
771.128	16102.8
776.509	16178.8
781.885	16122.8
787.254	16068.8
792.618	16004.8
797.977	15857.8
803.33	15783.8
808.677	15718.8
814.019	15621.8
819.355	15578.8
824.686	15483.8
830.011	15409.8
835.33	15436.8
840.644	15459.8
845.952	15442.8
851.255	15472.8
856.552	15492.8
861.844	15472.8
867.13	15411.8
872.41	15341.8
877.686	15250.8
882.955	15143.8
888.219	14994.8
893.478	14807.8
898.731	14611.8
903.979	14536.8
909.221	14394.8
914.458	14236.8
919.69	14322.8
924.916	14401.8
930.136	14403.8
935.351	14445.8
940.561	14460.8
945.766	14421.8
950.965	14325.8
956.158	14264.8
961.347	14043.8
966.529	13828.8
971.707	13732.8
976.879	13533.8
982.046	13436.8
987.208	13365.8
992.364	13426.8
997.515	13526.8
1002.66	13626.8
1007.801	13745.8
1012.936	13834.8
1018.066	13818.8
1023.19	13809.8
1028.309	13856.8
1033.423	13796.8
1038.532	13715.8
1043.636	13601.8
1048.734	13431.8
1053.827	13230.8
1058.915	13128.8
1063.998	13016.8
1069.075	12978.8
1074.147	13009.8
1079.214	13070.8
1084.276	13110.8
1089.333	13217.8
1094.385	13268.8
1099.431	13332.8
1104.472	13244.8
1109.509	13090.8
1114.54	13087.8
1119.565	12868.8
1124.586	12715.8
1129.602	12585.8
1134.613	12489.8
1139.618	12406.8
1144.619	12385.8
1149.614	12360.8
1154.604	12367.8
1159.589	12415.8
1164.57	12439.8
1169.545	12448.8
1174.515	12492.8
1179.48	12412.8
1184.44	12339.8
1189.395	12215.8
1194.345	12145.8
1199.29	12087.8
1204.23	12065.8
1209.165	12133.8
1214.095	12192.8
1219.021	12237.8
1223.941	12330.8
1228.856	12382.8
1233.766	12404.8
1238.672	12410.8
1243.572	12382.8
1248.467	12328.8
1253.358	12182.8
1258.244	12022.8
1263.124	11815.8
1268	11652.8
1272.871	11519.8
1277.737	11398.8
1282.599	11350.8
1287.455	11354.8
1292.306	11319.8
1297.153	11397.8
1301.995	11461.8
1306.832	11472.8
1311.664	11459.8
1316.491	11444.8
1321.314	11352.8
1326.132	11125.8
1330.945	10882.8
1335.753	10634.8
1340.556	10370.8
1345.354	10145.8
1350.148	10016.8
1354.937	9965.8
1359.722	9940.8
1364.501	9998.8
1369.276	10070.8
1374.046	10177.8
1378.811	10276.8
1383.572	10439.8
1388.327	10398.8
1393.079	10365.8
1397.825	10243.8
1402.567	10115.8
1407.304	10006.8
1412.036	9914.8
1416.764	9870.8
1421.487	9798.8
1426.205	9741.8
1430.919	9681.8
1435.628	9684.8
1440.333	9708.8
1445.032	9709.8
1449.727	9777.8
1454.418	9723.8
1459.104	9620.8
1463.785	9404.8
1468.462	9232.8
1473.134	8997.8
1477.802	8837.8
1482.465	8670.8
1487.123	8566.8
1491.777	8594.8
1496.426	8557.8
1501.071	8663.8
1505.711	8810.8
1510.347	8956.8
1514.978	9112.8
1519.604	9207.8
1524.226	9310.8
1528.844	9299.8
1533.457	9310.8
1538.065	9264.8
1542.669	9168.8
1547.269	9137.8
1551.864	9111.8
1556.454	9057.8
1561.041	9087.8
1565.622	9014.8
1570.199	9085.8
1574.772	9155.8
1579.34	9220.8
1583.904	9236.8
1588.464	9308.8
1593.019	9291.8
1597.569	9290.8
1602.115	9221.8
1606.657	9126.8
1611.195	9148.8
1615.728	9011.8
1620.256	9032.8
1624.78	9023.8
1629.3	9023.8
1633.816	9037.8
1638.327	9123.8
1642.834	9118.8
1647.336	9141.8
1651.834	9197.8
1656.328	9143.8
1660.817	9063.8
1665.302	8971.8
1669.783	8810.8
1674.259	8604.8
1678.732	8348.8
1683.199	8073.8
1687.663	7764.8
1692.122	7555.8
1696.577	7414.8
1701.028	7371.8
1705.474	7410.8
1709.917	7451.8
1714.355	7493.8
1718.788	7410.8
1723.218	7332.8
1727.643	7192.8
1732.064	7022.8
1736.481	6909.8
1740.893	6742.8
1745.301	6532.8
1749.705	6355.8
1754.105	6145.8
1758.501	6008.8
1762.893	5824.8
1767.28	5631.8
1771.663	5539.8
1776.042	5412.8
1780.417	5353.8
1784.787	5359.8
1789.154	5450.8
1793.516	5529.8
1797.874	5598.8
1802.228	5715.8
1806.578	5769.8
1810.924	5759.8
1815.266	5741.8
1819.603	5644.8
1823.937	5561.8
1828.266	5452.8
1832.591	5391.8
1836.913	5304.8
1841.23	5257.8
1845.543	5266.8
1849.852	5177.8
1854.156	5173.8
1858.457	5178.8
1862.754	5144.8
1867.047	5152.8
1871.335	5177.8
1875.62	5096.8
1879.9	5103.8
1884.177	5054.8
1888.449	5035.8
1892.718	4959.8
1896.982	4905.8
1901.243	4856.8
1905.499	4827.8
1909.752	4774.8
1914	4796.8
1918.245	4798.8
1922.485	4845.8
1926.722	4896.8
1930.954	4952.8
1935.183	4987.8
1939.408	5070.8
1943.628	5063.8
1947.845	5074.8
1952.058	5103.8
1956.267	5036.8
1960.472	4976.8
1964.673	4905.8
1968.87	4805.8
1973.063	4754.8
1977.252	4681.8
1981.438	4623.8
1985.619	4596.8
1989.797	4554.8
1993.971	4523.8
1998.14	4482.8
2002.306	4505.8
2006.469	4439.8
2010.627	4445.8
2014.781	4437.8
2018.932	4388.8
2023.078	4327.8
2027.221	4296.8
2031.36	4238.8
2035.495	4135.8
2039.627	4079.8
2043.754	4034.8
2047.878	3980.8
2051.998	3968.8
2056.114	3932.8
2060.226	3945.8
2064.334	3939.8
2068.439	3940.8
2072.54	3967.8
2076.637	4005.8
2080.73	4038.8
2084.82	4046.8
2088.906	4079.8
2092.988	4075.8
2097.066	4058.8
2101.14	4043.8
2105.211	4044.8
2109.278	3970.8
2113.342	3966.8
2117.401	3927.8
2121.457	3892.8
2125.509	3884.8
2129.558	3892.8
2133.602	3854.8
2137.643	3809.8
2141.681	3800.8
2145.714	3814.8
2149.744	3763.8
2153.77	3736.8
2157.793	3694.8
2161.812	3657.8
2165.827	3577.8
2169.838	3531.8
2173.846	3500.8
2177.851	3438.8
2181.851	3372.8
2185.848	3340.8
2189.841	3314.8
2193.831	3264.8
2197.817	3249.8
2201.799	3232.8
2205.778	3204.8
2209.753	3205.8
2213.725	3182.8
2217.693	3172.8
2221.657	3166.8
2225.618	3125.8
2229.575	3115.8
2233.529	3089.8
2237.479	3087.8
2241.425	3058.8
2245.368	2994.8
2249.307	2960.8
2253.243	2905.8
2257.175	2892.8
2261.104	2820.8
2265.029	2788.8
2268.95	2761.8
2272.868	2714.8
2276.783	2683.8
2280.694	2678.8
2284.601	2637.8
2288.505	2643.8
2292.405	2604.8
2296.302	2565.8
2300.195	2563.8
2304.085	2513.8
2307.971	2459.8
2311.854	2454.8
2315.734	2396.8
2319.609	2366.8
2323.482	2315.8
2327.351	2324.8
2331.216	2304.8
2335.078	2299.8
2338.937	2274.8
2342.792	2276.8
2346.643	2271.8
2350.492	2248.8
2354.336	2268.8
2358.178	2246.8
2362.015	2294.8
2365.85	2286.8
2369.681	2301.8
2373.508	2275.8
2377.333	2284.8
2381.153	2282.8
2384.971	2248.8
2388.785	2236.8
2392.595	2228.8
2396.402	2189.8
2400.206	2187.8
2404.007	2163.8
2407.804	2164.8
2411.597	2107.8
2415.388	2115.8
2419.174	2108.8
2422.958	2080.8
2426.738	2053.8
2430.515	2043.8
2434.289	2043.8
2438.059	1982.8
2441.825	2008.8
2445.589	1977.8
2449.349	1958.8
2453.106	1925.8
2456.859	1907.8
2460.61	1891.8
2464.356	1865.8
2468.1	1828.8
2471.84	1811.8
2475.577	1788.8
2479.311	1788.8
2483.041	1769.8
2486.768	1769.8
2490.492	1744.8
2494.213	1746.8
2497.93	1747.8
2501.644	1719.8
2505.355	1727.8
2509.062	1718.8
2512.766	1693.8
2516.467	1697.8
2520.165	1679.8
2523.859	1676.8
2527.551	1679.8
2531.239	1651.8
2534.923	1634.8
2538.605	1618.8
2542.283	1618.8
2545.958	1621.8
2549.63	1614.8
2553.299	1604.8
2556.964	1590.8
2560.626	1611.8
2564.285	1600.8
2567.941	1591.8
2571.594	1551.8
2575.243	1560.8
2578.89	1550.8
2582.533	1536.8
2586.173	1521.8
2589.809	1502.8
2593.443	1489.8
2597.073	1480.8
2600.701	1475.8
2604.325	1466.8
2607.946	1459.8
2611.564	1441.8
2615.178	1441.8
2618.79	1422.8
2622.398	1403.8
2626.004	1405.8
2629.606	1378.8
2633.205	1352.8
2636.801	1315.8
2640.394	1304.8
2643.983	1295.8
2647.57	1259.8
2651.153	1247.8
2654.734	1223.8
2658.311	1198.8
2661.885	1194.8
2665.456	1173.8
2669.025	1181.8
2672.589	1138.8
2676.151	1134.8
2679.71	1115.8
2683.266	1084.8
2686.819	1073.8
2690.368	1063.8
2693.915	1016.8
2697.458	1004.8
2700.999	998.8
2704.536	954.8
2708.071	925.8
2711.602	908.8
2715.13	897.8
2718.656	861.8
2722.178	851.8
2725.697	830.8
2729.214	829.8
2732.727	812.8
2736.237	820.8
2739.744	836.8
2743.249	805.8
2746.75	814.8
2750.248	847.8
2753.743	837.8
2757.236	844.8
2760.725	859.8
2764.211	862.8
2767.695	877.8
2771.175	878.8
2774.652	870.8
2778.127	853.8
2781.598	846.8
2785.067	840.8
2788.532	839.8
2791.995	831.8
2795.455	828.8
2798.911	841.8
2802.365	874.8
2805.816	856.8
2809.264	848.8
2812.709	841.8
2816.151	858.8
2819.59	853.8
2823.026	836.8
2826.46	845.8
2829.89	864.8
2833.318	860.8
2836.742	855.8
2840.164	881.8
2843.583	889.8
2846.999	882.8
2850.412	898.8
2853.822	904.8
2857.229	933.8
2860.634	926.8
2864.035	941.8
2867.434	971.8
2870.83	1003.8
2874.223	1024.8
2877.613	1034.8
2881	1064.8
2884.385	1073.8
2887.766	1051.8
2891.145	1053.8
2894.521	1061.8
2897.894	1052.8
2901.264	1060.8
2904.631	1062.8
2907.996	1065.8
2911.358	1069.8
2914.717	1077.8
2918.073	1094.8
2921.426	1107.8
2924.777	1129.8
2928.124	1136.8
2931.469	1139.8
2934.811	1197.8
2938.15	1191.8
2941.487	1223.8
2944.821	1227.8
2948.152	1207.8
2951.48	1193.8
2954.805	1191.8
2958.128	1194.8
2961.447	1154.8
2964.765	1179.8
2968.079	1177.8
2971.39	1180.8
2974.699	1202.8
2978.005	1242.8
2981.308	1242.8
2984.609	1278.8
2987.907	1292.8
2991.202	1309.8
2994.494	1347.8
2997.784	1372.8
3001.07	1410.8
3004.355	1427.8
3007.636	1451.8
3010.915	1453.8
3014.191	1474.8
3017.464	1502.8
3020.734	1503.8
3024.002	1530.8
3027.267	1522.8
3030.53	1537.8
3033.789	1577.8
3037.046	1567.8
3040.301	1596.8
3043.552	1650.8
3046.801	1690.8
3050.048	1734.8
3053.291	1773.8
3056.532	1793.8
3059.771	1878.8
3063.006	1940.8
3066.239	1976.8
3069.469	2050.8
3072.697	2101.8
3075.922	2160.8
3079.144	2227.8
3082.364	2268.8
3085.581	2284.8
3088.795	2359.8
3092.007	2420.8
3095.216	2467.8
3098.423	2538.8
3101.627	2590.8
3104.828	2654.8
3108.026	2698.8
3111.222	2771.8
3114.416	2830.8
3117.607	2884.8
3120.795	2956.8
3123.98	3043.8
3127.163	3106.8
3130.344	3182.8
3133.521	3294.8
3136.696	3340.8
3139.869	3394.8
3143.039	3450.8
3146.206	3509.8
3149.371	3544.8
3152.533	3585.8
3155.693	3619.8
3158.85	3628.8
3162.005	3640.8
3165.157	3667.8
3168.306	3676.8
3171.453	3672.8
3174.597	3683.8
3177.739	3697.8
3180.878	3698.8
3184.014	3727.8
3187.149	3730.8
3190.28	3709.8
3193.409	3730.8
3196.536	3737.8
3199.659	3737.8
3202.781	3730.8
3205.9	3724.8
3209.016	3754.8
3212.13	3695.8
3215.241	3685.8
3218.35	3667.8
3221.456	3622.8
3224.56	3579.8
3227.661	3541.8
3230.76	3496.8
3233.856	3489.8
3236.95	3440.8
3240.041	3397.8
3243.13	3379.8
3246.216	3349.8
3249.3	3319.8
3252.382	3315.8
3255.46	3293.8
3258.537	3296.8
3261.611	3292.8
3264.682	3290.8
3267.751	3256.8
3270.818	3282.8
3273.882	3262.8
3276.943	3239.8
3280.002	3233.8
3283.059	3177.8
3286.113	3152.8
3289.165	3118.8
3292.214	3064.8
3295.261	3034.8
3298.306	2950.8
3301.348	2916.8
3304.387	2850.8
3307.425	2852.8
3310.459	2788.8
3313.492	2757.8
3316.521	2724.8
3319.549	2689.8
3322.574	2684.8
3325.597	2636.8
3328.617	2623.8
3331.635	2612.8
3334.65	2601.8
3337.663	2590.8
3340.674	2585.8
3343.682	2567.8
3346.688	2547.8
3349.691	2567.8
3352.692	2517.8
3355.691	2476.8
3358.687	2494.8
3361.681	2429.8
3364.673	2415.8
3367.662	2400.8
3370.649	2362.8
3373.633	2338.8
3376.615	2277.8
3379.595	2269.8
3382.572	2220.8
3385.547	2190.8
3388.52	2140.8
3391.49	2104.8
3394.458	2083.8
3397.424	2063.8
3400.387	2026.8
3403.348	1997.8
3406.307	1978.8
3409.263	1970.8
3412.217	1947.8
3415.168	1927.8
3418.118	1903.8
3421.065	1839.8
3424.009	1828.8
3426.951	1795.8
3429.891	1773.8
3432.829	1738.8
3435.764	1695.8
3438.697	1656.8
3441.628	1591.8
3444.557	1544.8
3447.483	1493.8
3450.407	1442.8
3453.328	1390.8
3456.247	1348.8
3459.164	1295.8
3462.079	1256.8
3464.991	1219.8
3467.902	1161.8
3470.809	1122.8
3473.715	1068.8
3476.618	1044.8
3479.519	985.8
3482.418	969.8
3485.315	927.8
3488.209	899.8
3491.101	860.8
3493.99	824.8
3496.878	811.8
3499.763	752.8
3502.646	726.8
3505.527	682.8
3508.405	651.8
3511.281	615.8
3514.155	579.8
3517.027	535.8
3519.897	507.8
3522.764	470.8
3525.629	420.8
3528.492	387.8
3531.352	342.8
3534.211	313.8
3537.067	272.8
3539.921	252.8
3542.773	227.8
3545.622	199.8
3548.469	163.8
3551.315	128.8
3554.157	107.8
3556.998	87.8
3559.837	53.8
3562.673	37.8
3565.507	16.8
3568.339	-1.2
3571.169	-20.2
3573.996	-46.2
3576.822	-50.2
3579.645	-64.2
3582.466	-92.2
3585.285	-117.2
3588.101	-130.2
3590.916	-153.2
3593.728	-167.2
3596.538	-180.2
3599.346	-194.2
3602.152	-219.2
3604.956	-222.2
3607.757	-241.2
3610.556	-257.2
3613.354	-271.2
3616.149	-281.2
3618.942	-299.2
3621.732	-298.2
3624.521	-314.2
3627.307	-328.2
3630.092	-328.2
3632.874	-343.2
3635.654	-352.2
3638.432	-356.2
3641.208	-363.2
3643.982	-374.2
3646.753	-384.2
3649.523	-397.2
3652.29	-401.2
3655.055	-408.2
3657.818	-425.2
3660.579	-437.2
3663.338	-428.2
3666.095	-443.2
3668.849	-448.2
3671.602	-461.2
3674.352	-463.2
3677.101	-472.2
3679.847	-484.2
3682.591	-477.2
3685.333	-493.2
3688.073	-491.2
3690.811	-498.2
3693.547	-504.2
3696.281	-519.2
3699.013	-512.2
3701.742	-524.2
3704.47	-523.2
3707.195	-539.2
3709.919	-536.2
3712.64	-538.2
3715.359	-543.2
3718.076	-552.2
3720.792	-539.2
3723.505	-544.2
3726.216	-555.2
3728.925	-551.2
3731.632	-563.2
3734.336	-556.2
3737.039	-565.2
3739.74	-569.2
3742.439	-570.2
3745.136	-572.2
3747.83	-572.2
3750.523	-568.2
3753.213	-578.2
3755.902	-580.2
3758.589	-577.2
3761.273	-581.2
3763.956	-588.2
3766.636	-587.2
3769.315	-589.2
3771.991	-591.2
3774.665	-586.2
3777.338	-590.2
3780.008	-594.2
3782.677	-590.2
3785.343	-594.2
3788.007	-588.2
3790.67	-600.2
3793.33	-603.2
3795.989	-599.2
3798.645	-601.2
3801.299	-605.2
3803.952	-601.2
3806.602	-601.2
3809.251	-607.2
3811.897	-602.2
3814.542	-597.2
3817.184	-607.2
3819.825	-610.2
3822.463	-603.2
3825.1	-612.2
3827.735	-615.2
3830.367	-616.2
3832.998	-616.2
3835.627	-618.2
3838.253	-615.2
3840.878	-614.2
3843.501	-616.2
3846.122	-613.2
3848.741	-612.2
3851.358	-620.2
3853.973	-616.2
3856.586	-610.2
3859.197	-612.2
3861.806	-615.2
3864.414	-606.2
3867.019	-614.2
3869.622	-614.2
3872.224	-606.2
3874.823	-597.2
3877.421	-582.2
3880.016	-569.2
3882.61	-539.2
3885.202	-544.2
3887.792	-563.2
3890.38	-586.2
3892.966	-603.2
3895.55	-610.2
3898.132	-620.2
3900.713	-635.2
3903.291	-624.2
3905.868	-625.2
3908.442	-630.2
3911.015	-620.2
3913.586	-623.2
3916.155	-625.2
3918.722	-625.2
3921.287	-626.2
3923.85	-624.2
3926.411	-622.2
3928.971	-629.2
3931.528	-627.2
3934.084	-622.2
3936.638	-628.2
3939.19	-633.2
3941.74	-635.2
3944.288	-635.2
3946.834	-632.2
3949.378	-632.2
3951.921	-628.2
3954.462	-631.2
3957	-629.2
3959.537	-620.2
3962.072	-634.2
3964.606	-627.2
3967.137	-633.2
3969.667	-628.2
3972.194	-625.2
3974.72	-617.2
3977.244	-623.2
3979.766	-619.2
3982.286	-616.2
3984.805	-614.2
3987.321	-618.2
3989.836	-618.2
3992.349	-613.2
3994.86	-604.2
3997.369	-621.2
3999.877	-615.2
4002.382	-613.2
4004.886	-615.2
4007.388	-619.2
4009.888	-613.2
4012.386	-615.2
4014.883	-615.2
4017.377	-614.2
4019.87	-613.2
4022.361	-619.2
4024.85	-621.2
4027.338	-620.2
4029.823	-619.2
4032.307	-620.2
4034.789	-624.2
4037.269	-629.2
4039.747	-629.2
4042.224	-618.2
4044.699	-618.2
4047.172	-624.2
4049.643	-619.2
4052.112	-622.2
4054.58	-616.2
4057.046	-622.2
4059.51	-614.2
4061.972	-625.2
4064.432	-620.2
4066.891	-616.2
4069.348	-618.2
4071.803	-620.2
4074.256	-617.2
4076.708	-619.2
4079.158	-615.2
4081.606	-614.2
4084.052	-613.2
4086.497	-624.2
4088.939	-615.2
4091.38	-615.2
4093.819	-617.2
4096.257	-641.2
4098.693	-650.2
4101.127	-646.2
4103.559	-652.2
4105.989	-389.2
4108.418	-382.2
4110.845	-353.2
4113.27	-335.2
4115.694	-282.2
4118.115	-238.2
4120.535	-618.2
4122.954	-619.2
4125.37	-618.2
4127.785	-616.2
4130.198	-626.2
4132.609	-612.2
4135.019	-651.2
4137.427	-652.2
4139.833	-646.2
4142.237	-648.2
