Data from 2018-2-7_conc=02_RamanShift_07.txt Node
Date: Tue Feb 13 11:29:14 IST 2018
User: aro
Spectrometer: QEPB0276
Trigger mode: 0
Integration Time (sec): 3.000000E1
Scans to average: 1
Electric dark correction enabled: true
Nonlinearity correction enabled: false
Boxcar width: 0
XAxis mode: Raman Shifts
Number of Pixels in Spectrum: 1044
>>>>>Begin Spectral Data<<<<<
160.701	-157
166.742	22
172.777	575
178.805	2183
184.826	5973
190.841	12271
196.849	19384
202.85	24187
208.845	25685
214.833	25377
220.815	24872
226.789	24698
232.758	24632
238.719	24477
244.674	24116
250.623	23648
256.565	23138
262.5	22691
268.429	22263
274.351	21947
280.267	21574
286.176	21369
292.079	21185
297.975	20969
303.865	20768
309.748	20668
315.625	20472
321.495	20381
327.359	20389
333.217	20297
339.068	20258
344.912	20245
350.751	20303
356.583	20219
362.408	20175
368.227	20191
374.04	20159
379.847	20238
385.647	20331
391.44	20388
397.228	20474
403.009	20541
408.784	20634
414.553	20681
420.315	20721
426.071	20685
431.821	20730
437.565	20680
443.302	20673
449.033	20638
454.758	20569
460.477	20578
466.189	20489
471.896	20425
477.596	20442
483.29	20350
488.978	20330
494.66	20246
500.335	20122
506.005	19935
511.668	19668
517.325	19479
522.977	19258
528.622	19162
534.261	19038
539.894	18882
545.521	18815
551.141	18794
556.756	18700
562.365	18698
567.968	18678
573.565	18513
579.155	18464
584.74	18386
590.319	18378
595.892	18305
601.459	18157
607.02	18161
612.575	17969
618.124	17858
623.667	17726
629.204	17683
634.735	17621
640.261	17540
645.781	17537
651.294	17502
656.802	17496
662.304	17406
667.8	17392
673.29	17395
678.775	17348
684.254	17281
689.726	17214
695.193	17116
700.655	17071
706.11	16993
711.56	16920
717.004	16812
722.442	16741
727.874	16701
733.301	16643
738.722	16595
744.137	16618
749.547	16603
754.951	16542
760.349	16594
765.741	16614
771.128	16625
776.509	16622
781.885	16608
787.254	16499
792.618	16450
797.977	16369
803.33	16275
808.677	16244
814.019	16090
819.355	15995
824.686	15918
830.011	15938
835.33	15923
840.644	15937
845.952	15958
851.255	16075
856.552	16024
861.844	15969
867.13	15962
872.41	15893
877.686	15808
882.955	15705
888.219	15487
893.478	15382
898.731	15223
903.979	15078
909.221	14968
914.458	14893
919.69	14910
924.916	14959
930.136	14948
935.351	14987
940.561	14963
945.766	14961
950.965	14887
956.158	14807
961.347	14644
966.529	14472
971.707	14244
976.879	14105
982.046	13989
987.208	13936
992.364	13918
997.515	14064
1002.66	14142
1007.801	14310
1012.936	14487
1018.066	14447
1023.19	14468
1028.309	14432
1033.423	14406
1038.532	14322
1043.636	14220
1048.734	14017
1053.827	13838
1058.915	13719
1063.998	13589
1069.075	13601
1074.147	13625
1079.214	13623
1084.276	13695
1089.333	13771
1094.385	13880
1099.431	13898
1104.472	13873
1109.509	13803
1114.54	13644
1119.565	13489
1124.586	13296
1129.602	13240
1134.613	13125
1139.618	13011
1144.619	12970
1149.614	13020
1154.604	13015
1159.589	13057
1164.57	13062
1169.545	13127
1174.515	13083
1179.48	13042
1184.44	12975
1189.395	12827
1194.345	12723
1199.29	12657
1204.23	12719
1209.165	12730
1214.095	12845
1219.021	12873
1223.941	12968
1228.856	13030
1233.766	13065
1238.672	13032
1243.572	13058
1248.467	12951
1253.358	12838
1258.244	12612
1263.124	12435
1268	12280
1272.871	12099
1277.737	12032
1282.599	11969
1287.455	11981
1292.306	12005
1297.153	12049
1301.995	12080
1306.832	12116
1311.664	12064
1316.491	12052
1321.314	11979
1326.132	11792
1330.945	11576
1335.753	11235
1340.556	11010
1345.354	10781
1350.148	10692
1354.937	10581
1359.722	10562
1364.501	10682
1369.276	10757
1374.046	10872
1378.811	11006
1383.572	11098
1388.327	11154
1393.079	11075
1397.825	10913
1402.567	10784
1407.304	10648
1412.036	10595
1416.764	10501
1421.487	10407
1426.205	10394
1430.919	10327
1435.628	10327
1440.333	10333
1445.032	10357
1449.727	10381
1454.418	10388
1459.104	10248
1463.785	10064
1468.462	9854
1473.134	9696
1477.802	9443
1482.465	9352
1487.123	9270
1491.777	9243
1496.426	9287
1501.071	9381
1505.711	9531
1510.347	9694
1514.978	9854
1519.604	9922
1524.226	10032
1528.844	10059
1533.457	10004
1538.065	9981
1542.669	9899
1547.269	9835
1551.864	9818
1556.454	9739
1561.041	9747
1565.622	9698
1570.199	9772
1574.772	9793
1579.34	9872
1583.904	9907
1588.464	9913
1593.019	9927
1597.569	9871
1602.115	9814
1606.657	9735
1611.195	9715
1615.728	9666
1620.256	9595
1624.78	9584
1629.3	9622
1633.816	9665
1638.327	9708
1642.834	9778
1647.336	9817
1651.834	9773
1656.328	9788
1660.817	9746
1665.302	9623
1669.783	9455
1674.259	9243
1678.732	8970
1683.199	8694
1687.663	8409
1692.122	8171
1696.577	8035
1701.028	8050
1705.474	8098
1709.917	8154
1714.355	8210
1718.788	8121
1723.218	8017
1727.643	7848
1732.064	7772
1736.481	7534
1740.893	7373
1745.301	7195
1749.705	6973
1754.105	6767
1758.501	6591
1762.893	6375
1767.28	6243
1771.663	6126
1776.042	6040
1780.417	5974
1784.787	5990
1789.154	6061
1793.516	6130
1797.874	6277
1802.228	6397
1806.578	6431
1810.924	6470
1815.266	6382
1819.603	6330
1823.937	6185
1828.266	6082
1832.591	5988
1836.913	5920
1841.23	5846
1845.543	5818
1849.852	5768
1854.156	5797
1858.457	5757
1862.754	5751
1867.047	5755
1871.335	5743
1875.62	5726
1879.9	5672
1884.177	5667
1888.449	5607
1892.718	5525
1896.982	5493
1901.243	5423
1905.499	5389
1909.752	5392
1914	5381
1918.245	5435
1922.485	5461
1926.722	5538
1930.954	5590
1935.183	5636
1939.408	5690
1943.628	5740
1947.845	5729
1952.058	5728
1956.267	5673
1960.472	5583
1964.673	5481
1968.87	5423
1973.063	5336
1977.252	5273
1981.438	5200
1985.619	5189
1989.797	5079
1993.971	5073
1998.14	5059
2002.306	5018
2006.469	4993
2010.627	4965
2014.781	4946
2018.932	4940
2023.078	4867
2027.221	4765
2031.36	4720
2035.495	4696
2039.627	4594
2043.754	4519
2047.878	4513
2051.998	4463
2056.114	4460
2060.226	4447
2064.334	4467
2068.439	4466
2072.54	4506
2076.637	4526
2080.73	4561
2084.82	4590
2088.906	4585
2092.988	4599
2097.066	4572
2101.14	4550
2105.211	4555
2109.278	4514
2113.342	4505
2117.401	4454
2121.457	4453
2125.509	4386
2129.558	4366
2133.602	4330
2137.643	4319
2141.681	4291
2145.714	4268
2149.744	4239
2153.77	4220
2157.793	4175
2161.812	4144
2165.827	4058
2169.838	3990
2173.846	3949
2177.851	3872
2181.851	3851
2185.848	3769
2189.841	3750
2193.831	3696
2197.817	3652
2201.799	3654
2205.778	3629
2209.753	3610
2213.725	3603
2217.693	3577
2221.657	3556
2225.618	3590
2229.575	3555
2233.529	3532
2237.479	3493
2241.425	3452
2245.368	3388
2249.307	3378
2253.243	3307
2257.175	3279
2261.104	3220
2265.029	3175
2268.95	3174
2272.868	3124
2276.783	3080
2280.694	3058
2284.601	3026
2288.505	3008
2292.405	2993
2296.302	2954
2300.195	2909
2304.085	2879
2307.971	2837
2311.854	2798
2315.734	2750
2319.609	2720
2323.482	2702
2327.351	2661
2331.216	2638
2335.078	2628
2338.937	2646
2342.792	2618
2346.643	2594
2350.492	2610
2354.336	2600
2358.178	2611
2362.015	2623
2365.85	2640
2369.681	2629
2373.508	2629
2377.333	2617
2381.153	2649
2384.971	2605
2388.785	2589
2392.595	2575
2396.402	2531
2400.206	2490
2404.007	2508
2407.804	2489
2411.597	2467
2415.388	2467
2419.174	2442
2422.958	2408
2426.738	2394
2430.515	2376
2434.289	2353
2438.059	2359
2441.825	2318
2445.589	2326
2449.349	2292
2453.106	2257
2456.859	2211
2460.61	2181
2464.356	2183
2468.1	2148
2471.84	2096
2475.577	2113
2479.311	2095
2483.041	2074
2486.768	2074
2490.492	2072
2494.213	2060
2497.93	2045
2501.644	2036
2505.355	2045
2509.062	2019
2512.766	2005
2516.467	2013
2520.165	2006
2523.859	1971
2527.551	1943
2531.239	1947
2534.923	1945
2538.605	1909
2542.283	1909
2545.958	1918
2549.63	1888
2553.299	1922
2556.964	1890
2560.626	1885
2564.285	1888
2567.941	1883
2571.594	1865
2575.243	1851
2578.89	1866
2582.533	1810
2586.173	1819
2589.809	1781
2593.443	1786
2597.073	1758
2600.701	1783
2604.325	1718
2607.946	1735
2611.564	1711
2615.178	1708
2618.79	1689
2622.398	1675
2626.004	1665
2629.606	1626
2633.205	1596
2636.801	1565
2640.394	1575
2643.983	1549
2647.57	1522
2651.153	1486
2654.734	1483
2658.311	1439
2661.885	1452
2665.456	1419
2669.025	1415
2672.589	1407
2676.151	1350
2679.71	1348
2683.266	1334
2686.819	1317
2690.368	1273
2693.915	1269
2697.458	1224
2700.999	1186
2704.536	1168
2708.071	1150
2711.602	1123
2715.13	1091
2718.656	1068
2722.178	1050
2725.697	1051
2729.214	1034
2732.727	1047
2736.237	1010
2739.744	1009
2743.249	1004
2746.75	1019
2750.248	1021
2753.743	1029
2757.236	1046
2760.725	1059
2764.211	1069
2767.695	1087
2771.175	1063
2774.652	1065
2778.127	1053
2781.598	1039
2785.067	1037
2788.532	1037
2791.995	1059
2795.455	1047
2798.911	1037
2802.365	1033
2805.816	1039
2809.264	1026
2812.709	1034
2816.151	1020
2819.59	1044
2823.026	1025
2826.46	1021
2829.89	1031
2833.318	1044
2836.742	1049
2840.164	1053
2843.583	1057
2846.999	1060
2850.412	1065
2853.822	1081
2857.229	1109
2860.634	1113
2864.035	1138
2867.434	1136
2870.83	1180
2874.223	1194
2877.613	1200
2881	1204
2884.385	1235
2887.766	1212
2891.145	1219
2894.521	1212
2897.894	1220
2901.264	1192
2904.631	1203
2907.996	1194
2911.358	1219
2914.717	1224
2918.073	1224
2921.426	1243
2924.777	1259
2928.124	1268
2931.469	1265
2934.811	1321
2938.15	1322
2941.487	1336
2944.821	1341
2948.152	1331
2951.48	1320
2954.805	1307
2958.128	1300
2961.447	1282
2964.765	1290
2968.079	1303
2971.39	1294
2974.699	1305
2978.005	1347
2981.308	1349
2984.609	1390
2987.907	1404
2991.202	1434
2994.494	1467
2997.784	1492
3001.07	1489
3004.355	1542
3007.636	1559
3010.915	1573
3014.191	1594
3017.464	1589
3020.734	1606
3024.002	1603
3027.267	1625
3030.53	1660
3033.789	1656
3037.046	1671
3040.301	1730
3043.552	1713
3046.801	1763
3050.048	1799
3053.291	1854
3056.532	1890
3059.771	1946
3063.006	2014
3066.239	2042
3069.469	2133
3072.697	2164
3075.922	2223
3079.144	2297
3082.364	2343
3085.581	2352
3088.795	2450
3092.007	2466
3095.216	2526
3098.423	2587
3101.627	2625
3104.828	2721
3108.026	2764
3111.222	2832
3114.416	2897
3117.607	2949
3120.795	3026
3123.98	3076
3127.163	3166
3130.344	3235
3133.521	3309
3136.696	3408
3139.869	3446
3143.039	3502
3146.206	3544
3149.371	3589
3152.533	3613
3155.693	3658
3158.85	3654
3162.005	3702
3165.157	3728
3168.306	3709
3171.453	3720
3174.597	3744
3177.739	3709
3180.878	3738
3184.014	3736
3187.149	3733
3190.28	3744
3193.409	3754
3196.536	3738
3199.659	3781
3202.781	3762
3205.9	3759
3209.016	3756
3212.13	3714
3215.241	3733
3218.35	3667
3221.456	3615
3224.56	3574
3227.661	3523
3230.76	3526
3233.856	3487
3236.95	3466
3240.041	3418
3243.13	3404
3246.216	3380
3249.3	3351
3252.382	3351
3255.46	3321
3258.537	3325
3261.611	3316
3264.682	3296
3267.751	3304
3270.818	3314
3273.882	3315
3276.943	3343
3280.002	3275
3283.059	3226
3286.113	3191
3289.165	3156
3292.214	3100
3295.261	3055
3298.306	2961
3301.348	2941
3304.387	2904
3307.425	2843
3310.459	2815
3313.492	2770
3316.521	2718
3319.549	2712
3322.574	2675
3325.597	2656
3328.617	2639
3331.635	2639
3334.65	2599
3337.663	2570
3340.674	2574
3343.682	2553
3346.688	2525
3349.691	2531
3352.692	2500
3355.691	2502
3358.687	2449
3361.681	2435
3364.673	2416
3367.662	2392
3370.649	2350
3373.633	2317
3376.615	2293
3379.595	2240
3382.572	2218
3385.547	2189
3388.52	2161
3391.49	2108
3394.458	2075
3397.424	2048
3400.387	2019
3403.348	1995
3406.307	1969
3409.263	1941
3412.217	1934
3415.168	1911
3418.118	1876
3421.065	1864
3424.009	1821
3426.951	1804
3429.891	1761
3432.829	1725
3435.764	1685
3438.697	1632
3441.628	1614
3444.557	1556
3447.483	1487
3450.407	1452
3453.328	1402
3456.247	1339
3459.164	1289
3462.079	1257
3464.991	1208
3467.902	1146
3470.809	1106
3473.715	1064
3476.618	1030
3479.519	1007
3482.418	961
3485.315	905
3488.209	894
3491.101	859
3493.99	831
3496.878	778
3499.763	747
3502.646	724
3505.527	690
3508.405	669
3511.281	615
3514.155	583
3517.027	542
3519.897	508
3522.764	471
3525.629	433
3528.492	396
3531.352	360
3534.211	329
3537.067	282
3539.921	251
3542.773	223
3545.622	190
3548.469	166
3551.315	127
3554.157	108
3556.998	88
3559.837	59
3562.673	39
3565.507	12
3568.339	3
3571.169	-16
3573.996	-40
3576.822	-61
3579.645	-63
3582.466	-91
3585.285	-109
3588.101	-120
3590.916	-139
3593.728	-162
3596.538	-181
3599.346	-205
3602.152	-219
3604.956	-233
3607.757	-234
3610.556	-257
3613.354	-280
3616.149	-276
3618.942	-287
3621.732	-291
3624.521	-309
3627.307	-317
3630.092	-339
3632.874	-338
3635.654	-352
3638.432	-353
3641.208	-361
3643.982	-371
3646.753	-381
3649.523	-396
3652.29	-400
3655.055	-411
3657.818	-415
3660.579	-425
3663.338	-437
3666.095	-444
3668.849	-457
3671.602	-462
3674.352	-466
3677.101	-476
3679.847	-490
3682.591	-483
3685.333	-492
3688.073	-498
3690.811	-499
3693.547	-504
3696.281	-509
3699.013	-513
3701.742	-527
3704.47	-530
3707.195	-534
3709.919	-536
3712.64	-537
3715.359	-542
3718.076	-535
3720.792	-550
3723.505	-553
3726.216	-555
3728.925	-555
3731.632	-568
3734.336	-562
3737.039	-570
3739.74	-564
3742.439	-569
3745.136	-575
3747.83	-579
3750.523	-578
3753.213	-585
3755.902	-579
3758.589	-578
3761.273	-582
3763.956	-589
3766.636	-581
3769.315	-595
3771.991	-591
3774.665	-591
3777.338	-592
3780.008	-594
3782.677	-597
3785.343	-599
3788.007	-597
3790.67	-601
3793.33	-607
3795.989	-605
3798.645	-606
3801.299	-612
3803.952	-611
3806.602	-604
3809.251	-616
3811.897	-603
3814.542	-603
3817.184	-612
3819.825	-612
3822.463	-608
3825.1	-612
3827.735	-612
3830.367	-612
3832.998	-617
3835.627	-618
3838.253	-623
3840.878	-622
3843.501	-621
3846.122	-618
3848.741	-621
3851.358	-620
3853.973	-617
3856.586	-622
3859.197	-625
3861.806	-615
3864.414	-612
3867.019	-613
3869.622	-616
3872.224	-613
3874.823	-605
3877.421	-592
3880.016	-585
3882.61	-558
3885.202	-560
3887.792	-574
3890.38	-597
3892.966	-607
3895.55	-621
3898.132	-627
3900.713	-630
3903.291	-630
3905.868	-629
3908.442	-635
3911.015	-623
3913.586	-633
3916.155	-627
3918.722	-634
3921.287	-632
3923.85	-633
3926.411	-636
3928.971	-636
3931.528	-637
3934.084	-631
3936.638	-634
3939.19	-639
3941.74	-642
3944.288	-636
3946.834	-636
3949.378	-638
3951.921	-638
3954.462	-636
3957	-632
3959.537	-631
3962.072	-634
3964.606	-633
3967.137	-635
3969.667	-635
3972.194	-628
3974.72	-631
3977.244	-634
3979.766	-621
3982.286	-626
3984.805	-616
3987.321	-621
3989.836	-624
3992.349	-622
3994.86	-622
3997.369	-628
3999.877	-622
4002.382	-618
4004.886	-624
4007.388	-622
4009.888	-621
4012.386	-621
4014.883	-626
4017.377	-625
4019.87	-621
4022.361	-628
4024.85	-629
4027.338	-628
4029.823	-617
4032.307	-628
4034.789	-622
4037.269	-631
4039.747	-630
4042.224	-623
4044.699	-624
4047.172	-631
4049.643	-628
4052.112	-622
4054.58	-624
4057.046	-634
4059.51	-627
4061.972	-632
4064.432	-624
4066.891	-622
4069.348	-622
4071.803	-625
4074.256	-622
4076.708	-626
4079.158	-624
4081.606	-623
4084.052	-621
4086.497	-622
4088.939	-618
4091.38	-622
4093.819	-625
4096.257	-653
4098.693	-656
4101.127	-660
4103.559	-658
4105.989	-399
4108.418	-375
4110.845	-356
4113.27	-334
4115.694	-283
4118.115	-239
4120.535	-623
4122.954	-630
4125.37	-625
4127.785	-624
4130.198	-628
4132.609	-618
4135.019	-661
4137.427	-657
4139.833	-652
4142.237	-653
