Data from 2018-2-7_conc=2_RamanShift_03.txt Node
Date: Tue Feb 13 11:44:14 IST 2018
User: aro
Spectrometer: QEPB0276
Trigger mode: 0
Integration Time (sec): 3.000000E1
Scans to average: 1
Electric dark correction enabled: true
Nonlinearity correction enabled: false
Boxcar width: 0
XAxis mode: Raman Shifts
Number of Pixels in Spectrum: 1044
>>>>>Begin Spectral Data<<<<<
160.701	-172.2
166.742	25.8
172.777	597.8
178.805	2275.8
184.826	6232.8
190.841	12815.8
196.849	20218.8
202.85	25352.8
208.845	26945.8
214.833	26705.8
220.815	26214.8
226.789	26007.8
232.758	25895.8
238.719	25797.8
244.674	25367.8
250.623	24956.8
256.565	24417.8
262.5	23903.8
268.429	23480.8
274.351	23171.8
280.267	22831.8
286.176	22574.8
292.079	22357.8
297.975	22118.8
303.865	21926.8
309.748	21817.8
315.625	21655.8
321.495	21504.8
327.359	21439.8
333.217	21368.8
339.068	21395.8
344.912	21369.8
350.751	21299.8
356.583	21262.8
362.408	21294.8
368.227	21271.8
374.04	21294.8
379.847	21334.8
385.647	21426.8
391.44	21520.8
397.228	21598.8
403.009	21685.8
408.784	21739.8
414.553	21761.8
420.315	21868.8
426.071	21869.8
431.821	21857.8
437.565	21876.8
443.302	21832.8
449.033	21792.8
454.758	21792.8
460.477	21656.8
466.189	21652.8
471.896	21580.8
477.596	21516.8
483.29	21554.8
488.978	21443.8
494.66	21419.8
500.335	21264.8
506.005	21048.8
511.668	20811.8
517.325	20604.8
522.977	20407.8
528.622	20263.8
534.261	20106.8
539.894	20024.8
545.521	19927.8
551.141	19921.8
556.756	19831.8
562.365	19708.8
567.968	19718.8
573.565	19597.8
579.155	19583.8
584.74	19432.8
590.319	19336.8
595.892	19302.8
601.459	19232.8
607.02	19159.8
612.575	19027.8
618.124	18942.8
623.667	18826.8
629.204	18761.8
634.735	18673.8
640.261	18617.8
645.781	18584.8
651.294	18518.8
656.802	18532.8
662.304	18519.8
667.8	18483.8
673.29	18369.8
678.775	18404.8
684.254	18292.8
689.726	18204.8
695.193	18237.8
700.655	18092.8
706.11	18059.8
711.56	17971.8
717.004	17842.8
722.442	17819.8
727.874	17705.8
733.301	17593.8
738.722	17597.8
744.137	17544.8
749.547	17539.8
754.951	17611.8
760.349	17564.8
765.741	17641.8
771.128	17578.8
776.509	17599.8
781.885	17575.8
787.254	17497.8
792.618	17513.8
797.977	17392.8
803.33	17288.8
808.677	17156.8
814.019	17134.8
819.355	17044.8
824.686	16920.8
830.011	16864.8
835.33	16894.8
840.644	16925.8
845.952	16910.8
851.255	16989.8
856.552	17039.8
861.844	16967.8
867.13	16961.8
872.41	16873.8
877.686	16784.8
882.955	16646.8
888.219	16478.8
893.478	16306.8
898.731	16149.8
903.979	15936.8
909.221	15897.8
914.458	15840.8
919.69	15808.8
924.916	15868.8
930.136	15853.8
935.351	15911.8
940.561	15965.8
945.766	15856.8
950.965	15825.8
956.158	15703.8
961.347	15534.8
966.529	15327.8
971.707	15124.8
976.879	14975.8
982.046	14814.8
987.208	14788.8
992.364	14860.8
997.515	14934.8
1002.66	15084.8
1007.801	15192.8
1012.936	15324.8
1018.066	15295.8
1023.19	15312.8
1028.309	15343.8
1033.423	15329.8
1038.532	15212.8
1043.636	15111.8
1048.734	14928.8
1053.827	14687.8
1058.915	14538.8
1063.998	14459.8
1069.075	14413.8
1074.147	14399.8
1079.214	14530.8
1084.276	14621.8
1089.333	14662.8
1094.385	14702.8
1099.431	14809.8
1104.472	14806.8
1109.509	14632.8
1114.54	14487.8
1119.565	14350.8
1124.586	14152.8
1129.602	14047.8
1134.613	13949.8
1139.618	13881.8
1144.619	13837.8
1149.614	13823.8
1154.604	13833.8
1159.589	13909.8
1164.57	13918.8
1169.545	13927.8
1174.515	13941.8
1179.48	13856.8
1184.44	13760.8
1189.395	13641.8
1194.345	13562.8
1199.29	13484.8
1204.23	13505.8
1209.165	13553.8
1214.095	13631.8
1219.021	13706.8
1223.941	13781.8
1228.856	13876.8
1233.766	13905.8
1238.672	13934.8
1243.572	13924.8
1248.467	13833.8
1253.358	13641.8
1258.244	13467.8
1263.124	13227.8
1268	13069.8
1272.871	12937.8
1277.737	12823.8
1282.599	12789.8
1287.455	12771.8
1292.306	12781.8
1297.153	12861.8
1301.995	12904.8
1306.832	12915.8
1311.664	12930.8
1316.491	12887.8
1321.314	12749.8
1326.132	12568.8
1330.945	12323.8
1335.753	11991.8
1340.556	11709.8
1345.354	11453.8
1350.148	11273.8
1354.937	11213.8
1359.722	11212.8
1364.501	11274.8
1369.276	11362.8
1374.046	11515.8
1378.811	11633.8
1383.572	11750.8
1388.327	11821.8
1393.079	11771.8
1397.825	11681.8
1402.567	11509.8
1407.304	11358.8
1412.036	11240.8
1416.764	11158.8
1421.487	11104.8
1426.205	11049.8
1430.919	11006.8
1435.628	10990.8
1440.333	11056.8
1445.032	11045.8
1449.727	11098.8
1454.418	11045.8
1459.104	10929.8
1463.785	10702.8
1468.462	10468.8
1473.134	10263.8
1477.802	10050.8
1482.465	9909.8
1487.123	9718.8
1491.777	9736.8
1496.426	9757.8
1501.071	9838.8
1505.711	10021.8
1510.347	10183.8
1514.978	10331.8
1519.604	10478.8
1524.226	10585.8
1528.844	10597.8
1533.457	10575.8
1538.065	10575.8
1542.669	10493.8
1547.269	10381.8
1551.864	10346.8
1556.454	10310.8
1561.041	10332.8
1565.622	10286.8
1570.199	10334.8
1574.772	10386.8
1579.34	10419.8
1583.904	10513.8
1588.464	10526.8
1593.019	10536.8
1597.569	10472.8
1602.115	10443.8
1606.657	10321.8
1611.195	10344.8
1615.728	10198.8
1620.256	10178.8
1624.78	10205.8
1629.3	10192.8
1633.816	10219.8
1638.327	10280.8
1642.834	10222.8
1647.336	10364.8
1651.834	10354.8
1656.328	10303.8
1660.817	10258.8
1665.302	10092.8
1669.783	9953.8
1674.259	9711.8
1678.732	9394.8
1683.199	9095.8
1687.663	8805.8
1692.122	8510.8
1696.577	8393.8
1701.028	8386.8
1705.474	8442.8
1709.917	8532.8
1714.355	8582.8
1718.788	8487.8
1723.218	8428.8
1727.643	8267.8
1732.064	8060.8
1736.481	7907.8
1740.893	7728.8
1745.301	7536.8
1749.705	7315.8
1754.105	7146.8
1758.501	6920.8
1762.893	6748.8
1767.28	6563.8
1771.663	6432.8
1776.042	6293.8
1780.417	6289.8
1784.787	6226.8
1789.154	6274.8
1793.516	6347.8
1797.874	6535.8
1802.228	6665.8
1806.578	6732.8
1810.924	6712.8
1815.266	6700.8
1819.603	6570.8
1823.937	6450.8
1828.266	6390.8
1832.591	6286.8
1836.913	6208.8
1841.23	6154.8
1845.543	6113.8
1849.852	6063.8
1854.156	6055.8
1858.457	5981.8
1862.754	6057.8
1867.047	5998.8
1871.335	6011.8
1875.62	6012.8
1879.9	5971.8
1884.177	5914.8
1888.449	5881.8
1892.718	5807.8
1896.982	5739.8
1901.243	5656.8
1905.499	5610.8
1909.752	5580.8
1914	5595.8
1918.245	5587.8
1922.485	5659.8
1926.722	5703.8
1930.954	5762.8
1935.183	5814.8
1939.408	5896.8
1943.628	5936.8
1947.845	5953.8
1952.058	5908.8
1956.267	5901.8
1960.472	5816.8
1964.673	5750.8
1968.87	5655.8
1973.063	5565.8
1977.252	5526.8
1981.438	5446.8
1985.619	5381.8
1989.797	5317.8
1993.971	5322.8
1998.14	5282.8
2002.306	5296.8
2006.469	5251.8
2010.627	5254.8
2014.781	5183.8
2018.932	5124.8
2023.078	5092.8
2027.221	5023.8
2031.36	4936.8
2035.495	4824.8
2039.627	4791.8
2043.754	4736.8
2047.878	4689.8
2051.998	4641.8
2056.114	4626.8
2060.226	4633.8
2064.334	4633.8
2068.439	4627.8
2072.54	4662.8
2076.637	4674.8
2080.73	4737.8
2084.82	4738.8
2088.906	4745.8
2092.988	4768.8
2097.066	4741.8
2101.14	4723.8
2105.211	4718.8
2109.278	4664.8
2113.342	4635.8
2117.401	4584.8
2121.457	4582.8
2125.509	4571.8
2129.558	4539.8
2133.602	4529.8
2137.643	4510.8
2141.681	4494.8
2145.714	4466.8
2149.744	4423.8
2153.77	4381.8
2157.793	4359.8
2161.812	4299.8
2165.827	4246.8
2169.838	4199.8
2173.846	4123.8
2177.851	4052.8
2181.851	4006.8
2185.848	3956.8
2189.841	3917.8
2193.831	3889.8
2197.817	3830.8
2201.799	3816.8
2205.778	3811.8
2209.753	3783.8
2213.725	3791.8
2217.693	3760.8
2221.657	3754.8
2225.618	3750.8
2229.575	3718.8
2233.529	3714.8
2237.479	3648.8
2241.425	3624.8
2245.368	3567.8
2249.307	3538.8
2253.243	3477.8
2257.175	3445.8
2261.104	3397.8
2265.029	3344.8
2268.95	3314.8
2272.868	3306.8
2276.783	3239.8
2280.694	3221.8
2284.601	3215.8
2288.505	3172.8
2292.405	3132.8
2296.302	3092.8
2300.195	3079.8
2304.085	3036.8
2307.971	2994.8
2311.854	2950.8
2315.734	2927.8
2319.609	2871.8
2323.482	2825.8
2327.351	2814.8
2331.216	2799.8
2335.078	2792.8
2338.937	2770.8
2342.792	2763.8
2346.643	2742.8
2350.492	2741.8
2354.336	2750.8
2358.178	2772.8
2362.015	2778.8
2365.85	2774.8
2369.681	2758.8
2373.508	2805.8
2377.333	2794.8
2381.153	2774.8
2384.971	2763.8
2388.785	2788.8
2392.595	2739.8
2396.402	2693.8
2400.206	2701.8
2404.007	2665.8
2407.804	2649.8
2411.597	2633.8
2415.388	2617.8
2419.174	2609.8
2422.958	2584.8
2426.738	2579.8
2430.515	2523.8
2434.289	2537.8
2438.059	2483.8
2441.825	2459.8
2445.589	2465.8
2449.349	2445.8
2453.106	2396.8
2456.859	2366.8
2460.61	2343.8
2464.356	2303.8
2468.1	2311.8
2471.84	2259.8
2475.577	2243.8
2479.311	2249.8
2483.041	2208.8
2486.768	2222.8
2490.492	2215.8
2494.213	2190.8
2497.93	2176.8
2501.644	2182.8
2505.355	2173.8
2509.062	2157.8
2512.766	2149.8
2516.467	2140.8
2520.165	2116.8
2523.859	2103.8
2527.551	2081.8
2531.239	2058.8
2534.923	2048.8
2538.605	2047.8
2542.283	2029.8
2545.958	2030.8
2549.63	2001.8
2553.299	2027.8
2556.964	2013.8
2560.626	1983.8
2564.285	1986.8
2567.941	1996.8
2571.594	1974.8
2575.243	1972.8
2578.89	1944.8
2582.533	1952.8
2586.173	1917.8
2589.809	1927.8
2593.443	1880.8
2597.073	1886.8
2600.701	1848.8
2604.325	1842.8
2607.946	1837.8
2611.564	1815.8
2615.178	1823.8
2618.79	1799.8
2622.398	1792.8
2626.004	1774.8
2629.606	1738.8
2633.205	1727.8
2636.801	1691.8
2640.394	1705.8
2643.983	1658.8
2647.57	1640.8
2651.153	1627.8
2654.734	1600.8
2658.311	1567.8
2661.885	1538.8
2665.456	1519.8
2669.025	1512.8
2672.589	1491.8
2676.151	1475.8
2679.71	1451.8
2683.266	1423.8
2686.819	1407.8
2690.368	1379.8
2693.915	1353.8
2697.458	1315.8
2700.999	1283.8
2704.536	1267.8
2708.071	1232.8
2711.602	1198.8
2715.13	1182.8
2718.656	1153.8
2722.178	1124.8
2725.697	1118.8
2729.214	1097.8
2732.727	1084.8
2736.237	1089.8
2739.744	1064.8
2743.249	1056.8
2746.75	1077.8
2750.248	1079.8
2753.743	1086.8
2757.236	1110.8
2760.725	1123.8
2764.211	1132.8
2767.695	1127.8
2771.175	1123.8
2774.652	1127.8
2778.127	1138.8
2781.598	1113.8
2785.067	1111.8
2788.532	1118.8
2791.995	1098.8
2795.455	1099.8
2798.911	1109.8
2802.365	1106.8
2805.816	1103.8
2809.264	1093.8
2812.709	1104.8
2816.151	1097.8
2819.59	1108.8
2823.026	1115.8
2826.46	1101.8
2829.89	1090.8
2833.318	1113.8
2836.742	1110.8
2840.164	1131.8
2843.583	1128.8
2846.999	1147.8
2850.412	1144.8
2853.822	1163.8
2857.229	1177.8
2860.634	1187.8
2864.035	1217.8
2867.434	1211.8
2870.83	1241.8
2874.223	1266.8
2877.613	1268.8
2881	1285.8
2884.385	1316.8
2887.766	1307.8
2891.145	1293.8
2894.521	1299.8
2897.894	1288.8
2901.264	1301.8
2904.631	1271.8
2907.996	1272.8
2911.358	1276.8
2914.717	1286.8
2918.073	1315.8
2921.426	1312.8
2924.777	1333.8
2928.124	1348.8
2931.469	1354.8
2934.811	1392.8
2938.15	1389.8
2941.487	1421.8
2944.821	1408.8
2948.152	1403.8
2951.48	1419.8
2954.805	1400.8
2958.128	1372.8
2961.447	1381.8
2964.765	1362.8
2968.079	1389.8
2971.39	1377.8
2974.699	1400.8
2978.005	1419.8
2981.308	1430.8
2984.609	1453.8
2987.907	1468.8
2991.202	1505.8
2994.494	1533.8
2997.784	1552.8
3001.07	1599.8
3004.355	1619.8
3007.636	1641.8
3010.915	1669.8
3014.191	1659.8
3017.464	1674.8
3020.734	1697.8
3024.002	1699.8
3027.267	1735.8
3030.53	1724.8
3033.789	1739.8
3037.046	1751.8
3040.301	1785.8
3043.552	1817.8
3046.801	1877.8
3050.048	1910.8
3053.291	1948.8
3056.532	2006.8
3059.771	2053.8
3063.006	2125.8
3066.239	2193.8
3069.469	2237.8
3072.697	2299.8
3075.922	2353.8
3079.144	2386.8
3082.364	2450.8
3085.581	2505.8
3088.795	2571.8
3092.007	2626.8
3095.216	2679.8
3098.423	2727.8
3101.627	2770.8
3104.828	2854.8
3108.026	2895.8
3111.222	2951.8
3114.416	3016.8
3117.607	3104.8
3120.795	3185.8
3123.98	3273.8
3127.163	3322.8
3130.344	3434.8
3133.521	3480.8
3136.696	3551.8
3139.869	3613.8
3143.039	3683.8
3146.206	3738.8
3149.371	3774.8
3152.533	3804.8
3155.693	3841.8
3158.85	3852.8
3162.005	3867.8
3165.157	3886.8
3168.306	3885.8
3171.453	3879.8
3174.597	3889.8
3177.739	3946.8
3180.878	3919.8
3184.014	3937.8
3187.149	3925.8
3190.28	3903.8
3193.409	3937.8
3196.536	3932.8
3199.659	3929.8
3202.781	3938.8
3205.9	3977.8
3209.016	3943.8
3212.13	3896.8
3215.241	3873.8
3218.35	3859.8
3221.456	3789.8
3224.56	3763.8
3227.661	3708.8
3230.76	3683.8
3233.856	3617.8
3236.95	3613.8
3240.041	3581.8
3243.13	3525.8
3246.216	3552.8
3249.3	3497.8
3252.382	3496.8
3255.46	3481.8
3258.537	3466.8
3261.611	3458.8
3264.682	3461.8
3267.751	3445.8
3270.818	3458.8
3273.882	3406.8
3276.943	3429.8
3280.002	3391.8
3283.059	3331.8
3286.113	3309.8
3289.165	3260.8
3292.214	3209.8
3295.261	3152.8
3298.306	3116.8
3301.348	3052.8
3304.387	3022.8
3307.425	2974.8
3310.459	2934.8
3313.492	2884.8
3316.521	2838.8
3319.549	2811.8
3322.574	2773.8
3325.597	2767.8
3328.617	2759.8
3331.635	2717.8
3334.65	2713.8
3337.663	2682.8
3340.674	2697.8
3343.682	2702.8
3346.688	2658.8
3349.691	2655.8
3352.692	2613.8
3355.691	2620.8
3358.687	2571.8
3361.681	2571.8
3364.673	2513.8
3367.662	2457.8
3370.649	2468.8
3373.633	2438.8
3376.615	2382.8
3379.595	2333.8
3382.572	2317.8
3385.547	2289.8
3388.52	2267.8
3391.49	2193.8
3394.458	2156.8
3397.424	2116.8
3400.387	2112.8
3403.348	2065.8
3406.307	2052.8
3409.263	2036.8
3412.217	1985.8
3415.168	2006.8
3418.118	1959.8
3421.065	1908.8
3424.009	1913.8
3426.951	1867.8
3429.891	1827.8
3432.829	1810.8
3435.764	1751.8
3438.697	1713.8
3441.628	1643.8
3444.557	1617.8
3447.483	1559.8
3450.407	1498.8
3453.328	1471.8
3456.247	1409.8
3459.164	1366.8
3462.079	1286.8
3464.991	1256.8
3467.902	1220.8
3470.809	1167.8
3473.715	1109.8
3476.618	1082.8
3479.519	1048.8
3482.418	1006.8
3485.315	955.8
3488.209	937.8
3491.101	889.8
3493.99	871.8
3496.878	821.8
3499.763	795.8
3502.646	745.8
3505.527	715.8
3508.405	661.8
3511.281	647.8
3514.155	594.8
3517.027	570.8
3519.897	522.8
3522.764	484.8
3525.629	455.8
3528.492	419.8
3531.352	371.8
3534.211	337.8
3537.067	301.8
3539.921	269.8
3542.773	235.8
3545.622	200.8
3548.469	163.8
3551.315	144.8
3554.157	118.8
3556.998	89.8
3559.837	64.8
3562.673	50.8
3565.507	21.8
3568.339	8.8
3571.169	-8.2
3573.996	-36.2
3576.822	-52.2
3579.645	-63.2
3582.466	-97.2
3585.285	-113.2
3588.101	-121.2
3590.916	-153.2
3593.728	-170.2
3596.538	-187.2
3599.346	-210.2
3602.152	-225.2
3604.956	-236.2
3607.757	-262.2
3610.556	-264.2
3613.354	-271.2
3616.149	-288.2
3618.942	-298.2
3621.732	-311.2
3624.521	-312.2
3627.307	-320.2
3630.092	-339.2
3632.874	-348.2
3635.654	-354.2
3638.432	-369.2
3641.208	-377.2
3643.982	-390.2
3646.753	-391.2
3649.523	-416.2
3652.29	-417.2
3655.055	-415.2
3657.818	-429.2
3660.579	-438.2
3663.338	-446.2
3666.095	-459.2
3668.849	-472.2
3671.602	-476.2
3674.352	-479.2
3677.101	-490.2
3679.847	-498.2
3682.591	-503.2
3685.333	-510.2
3688.073	-503.2
3690.811	-518.2
3693.547	-517.2
3696.281	-530.2
3699.013	-530.2
3701.742	-542.2
3704.47	-543.2
3707.195	-544.2
3709.919	-544.2
3712.64	-552.2
3715.359	-557.2
3718.076	-558.2
3720.792	-563.2
3723.505	-568.2
3726.216	-567.2
3728.925	-572.2
3731.632	-581.2
3734.336	-594.2
3737.039	-591.2
3739.74	-587.2
3742.439	-586.2
3745.136	-585.2
3747.83	-593.2
3750.523	-584.2
3753.213	-596.2
3755.902	-595.2
3758.589	-590.2
3761.273	-599.2
3763.956	-604.2
3766.636	-599.2
3769.315	-609.2
3771.991	-612.2
3774.665	-612.2
3777.338	-611.2
3780.008	-614.2
3782.677	-614.2
3785.343	-617.2
3788.007	-611.2
3790.67	-625.2
3793.33	-618.2
3795.989	-621.2
3798.645	-625.2
3801.299	-629.2
3803.952	-625.2
3806.602	-625.2
3809.251	-633.2
3811.897	-623.2
3814.542	-626.2
3817.184	-629.2
3819.825	-629.2
3822.463	-630.2
3825.1	-631.2
3827.735	-637.2
3830.367	-633.2
3832.998	-635.2
3835.627	-640.2
3838.253	-638.2
3840.878	-635.2
3843.501	-634.2
3846.122	-636.2
3848.741	-639.2
3851.358	-641.2
3853.973	-641.2
3856.586	-632.2
3859.197	-645.2
3861.806	-645.2
3864.414	-640.2
3867.019	-634.2
3869.622	-644.2
3872.224	-637.2
3874.823	-624.2
3877.421	-615.2
3880.016	-591.2
3882.61	-565.2
3885.202	-573.2
3887.792	-593.2
3890.38	-604.2
3892.966	-634.2
3895.55	-637.2
3898.132	-646.2
3900.713	-652.2
3903.291	-654.2
3905.868	-652.2
3908.442	-656.2
3911.015	-655.2
3913.586	-652.2
3916.155	-649.2
3918.722	-649.2
3921.287	-651.2
3923.85	-651.2
3926.411	-654.2
3928.971	-652.2
3931.528	-658.2
3934.084	-645.2
3936.638	-657.2
3939.19	-661.2
3941.74	-662.2
3944.288	-665.2
3946.834	-661.2
3949.378	-664.2
3951.921	-656.2
3954.462	-657.2
3957	-652.2
3959.537	-652.2
3962.072	-653.2
3964.606	-648.2
3967.137	-658.2
3969.667	-655.2
3972.194	-646.2
3974.72	-645.2
3977.244	-654.2
3979.766	-647.2
3982.286	-646.2
3984.805	-641.2
3987.321	-643.2
3989.836	-644.2
3992.349	-644.2
3994.86	-640.2
3997.369	-645.2
3999.877	-641.2
4002.382	-634.2
4004.886	-643.2
4007.388	-640.2
4009.888	-638.2
4012.386	-642.2
4014.883	-635.2
4017.377	-639.2
4019.87	-645.2
4022.361	-644.2
4024.85	-643.2
4027.338	-648.2
4029.823	-641.2
4032.307	-647.2
4034.789	-649.2
4037.269	-653.2
4039.747	-654.2
4042.224	-644.2
4044.699	-646.2
4047.172	-648.2
4049.643	-645.2
4052.112	-638.2
4054.58	-638.2
4057.046	-648.2
4059.51	-642.2
4061.972	-646.2
4064.432	-644.2
4066.891	-645.2
4069.348	-650.2
4071.803	-648.2
4074.256	-646.2
4076.708	-650.2
4079.158	-647.2
4081.606	-647.2
4084.052	-638.2
4086.497	-644.2
4088.939	-640.2
4091.38	-636.2
4093.819	-642.2
4096.257	-677.2
4098.693	-680.2
4101.127	-680.2
4103.559	-682.2
4105.989	-402.2
4108.418	-388.2
4110.845	-368.2
4113.27	-341.2
4115.694	-297.2
4118.115	-246.2
4120.535	-640.2
4122.954	-646.2
4125.37	-642.2
4127.785	-644.2
4130.198	-649.2
4132.609	-638.2
4135.019	-683.2
4137.427	-682.2
4139.833	-681.2
4142.237	-680.2
