Data from 2018-2-7_conc=5_RamanShift_26.txt Node
Date: Tue Feb 13 14:16:13 IST 2018
User: aro
Spectrometer: QEPB0276
Trigger mode: 0
Integration Time (sec): 3.000000E1
Scans to average: 1
Electric dark correction enabled: true
Nonlinearity correction enabled: false
Boxcar width: 0
XAxis mode: Raman Shifts
Number of Pixels in Spectrum: 1044
>>>>>Begin Spectral Data<<<<<
160.701	-171.8
166.742	39.2
172.777	616.2
178.805	2312.2
184.826	6325.2
190.841	13061.2
196.849	20661.2
202.85	26003.2
208.845	27650.2
214.833	27384.2
220.815	26955.2
226.789	26720.2
232.758	26665.2
238.719	26507.2
244.674	26152.2
250.623	25696.2
256.565	25227.2
262.5	24718.2
268.429	24274.2
274.351	23968.2
280.267	23711.2
286.176	23486.2
292.079	23204.2
297.975	23068.2
303.865	22853.2
309.748	22791.2
315.625	22642.2
321.495	22471.2
327.359	22454.2
333.217	22322.2
339.068	22352.2
344.912	22405.2
350.751	22317.2
356.583	22319.2
362.408	22361.2
368.227	22285.2
374.04	22317.2
379.847	22425.2
385.647	22513.2
391.44	22594.2
397.228	22683.2
403.009	22728.2
408.784	22848.2
414.553	22863.2
420.315	22903.2
426.071	22954.2
431.821	22906.2
437.565	22882.2
443.302	22848.2
449.033	22765.2
454.758	22804.2
460.477	22757.2
466.189	22738.2
471.896	22594.2
477.596	22549.2
483.29	22511.2
488.978	22512.2
494.66	22372.2
500.335	22173.2
506.005	21975.2
511.668	21708.2
517.325	21488.2
522.977	21248.2
528.622	21060.2
534.261	20969.2
539.894	20885.2
545.521	20781.2
551.141	20684.2
556.756	20644.2
562.365	20572.2
567.968	20453.2
573.565	20362.2
579.155	20318.2
584.74	20212.2
590.319	20152.2
595.892	20088.2
601.459	19988.2
607.02	19926.2
612.575	19778.2
618.124	19674.2
623.667	19601.2
629.204	19451.2
634.735	19402.2
640.261	19312.2
645.781	19171.2
651.294	19187.2
656.802	19181.2
662.304	19121.2
667.8	19102.2
673.29	19072.2
678.775	19062.2
684.254	19010.2
689.726	18946.2
695.193	18850.2
700.655	18708.2
706.11	18634.2
711.56	18569.2
717.004	18427.2
722.442	18384.2
727.874	18322.2
733.301	18272.2
738.722	18197.2
744.137	18182.2
749.547	18186.2
754.951	18127.2
760.349	18108.2
765.741	18163.2
771.128	18160.2
776.509	18217.2
781.885	18200.2
787.254	18151.2
792.618	18039.2
797.977	17910.2
803.33	17837.2
808.677	17696.2
814.019	17650.2
819.355	17611.2
824.686	17466.2
830.011	17431.2
835.33	17449.2
840.644	17471.2
845.952	17512.2
851.255	17515.2
856.552	17522.2
861.844	17508.2
867.13	17451.2
872.41	17396.2
877.686	17296.2
882.955	17114.2
888.219	17036.2
893.478	16837.2
898.731	16583.2
903.979	16453.2
909.221	16353.2
914.458	16275.2
919.69	16243.2
924.916	16318.2
930.136	16344.2
935.351	16366.2
940.561	16392.2
945.766	16353.2
950.965	16230.2
956.158	16158.2
961.347	15999.2
966.529	15748.2
971.707	15550.2
976.879	15382.2
982.046	15260.2
987.208	15222.2
992.364	15215.2
997.515	15310.2
1002.66	15428.2
1007.801	15583.2
1012.936	15695.2
1018.066	15746.2
1023.19	15728.2
1028.309	15740.2
1033.423	15693.2
1038.532	15580.2
1043.636	15472.2
1048.734	15254.2
1053.827	15085.2
1058.915	14935.2
1063.998	14855.2
1069.075	14755.2
1074.147	14765.2
1079.214	14860.2
1084.276	15007.2
1089.333	15016.2
1094.385	15105.2
1099.431	15135.2
1104.472	15147.2
1109.509	15051.2
1114.54	14874.2
1119.565	14681.2
1124.586	14451.2
1129.602	14341.2
1134.613	14245.2
1139.618	14170.2
1144.619	14095.2
1149.614	14120.2
1154.604	14121.2
1159.589	14186.2
1164.57	14253.2
1169.545	14225.2
1174.515	14220.2
1179.48	14175.2
1184.44	13989.2
1189.395	13932.2
1194.345	13856.2
1199.29	13790.2
1204.23	13792.2
1209.165	13828.2
1214.095	13857.2
1219.021	13972.2
1223.941	14012.2
1228.856	14102.2
1233.766	14136.2
1238.672	14158.2
1243.572	14166.2
1248.467	14044.2
1253.358	13887.2
1258.244	13674.2
1263.124	13475.2
1268	13222.2
1272.871	13108.2
1277.737	13020.2
1282.599	12976.2
1287.455	12939.2
1292.306	12945.2
1297.153	12953.2
1301.995	13044.2
1306.832	13082.2
1311.664	13096.2
1316.491	13040.2
1321.314	12845.2
1326.132	12706.2
1330.945	12418.2
1335.753	12040.2
1340.556	11760.2
1345.354	11591.2
1350.148	11349.2
1354.937	11287.2
1359.722	11250.2
1364.501	11352.2
1369.276	11451.2
1374.046	11528.2
1378.811	11693.2
1383.572	11792.2
1388.327	11850.2
1393.079	11792.2
1397.825	11682.2
1402.567	11519.2
1407.304	11378.2
1412.036	11290.2
1416.764	11198.2
1421.487	11159.2
1426.205	11078.2
1430.919	11040.2
1435.628	11066.2
1440.333	11005.2
1445.032	11031.2
1449.727	11107.2
1454.418	11021.2
1459.104	10872.2
1463.785	10676.2
1468.462	10454.2
1473.134	10232.2
1477.802	10011.2
1482.465	9836.2
1487.123	9730.2
1491.777	9684.2
1496.426	9732.2
1501.071	9806.2
1505.711	9975.2
1510.347	10122.2
1514.978	10305.2
1519.604	10457.2
1524.226	10499.2
1528.844	10511.2
1533.457	10524.2
1538.065	10550.2
1542.669	10415.2
1547.269	10363.2
1551.864	10312.2
1556.454	10247.2
1561.041	10274.2
1565.622	10278.2
1570.199	10293.2
1574.772	10344.2
1579.34	10434.2
1583.904	10451.2
1588.464	10471.2
1593.019	10446.2
1597.569	10422.2
1602.115	10409.2
1606.657	10327.2
1611.195	10273.2
1615.728	10213.2
1620.256	10133.2
1624.78	10081.2
1629.3	10099.2
1633.816	10153.2
1638.327	10167.2
1642.834	10242.2
1647.336	10312.2
1651.834	10274.2
1656.328	10183.2
1660.817	10159.2
1665.302	10040.2
1669.783	9864.2
1674.259	9594.2
1678.732	9314.2
1683.199	8993.2
1687.663	8670.2
1692.122	8452.2
1696.577	8338.2
1701.028	8271.2
1705.474	8329.2
1709.917	8403.2
1714.355	8448.2
1718.788	8378.2
1723.218	8276.2
1727.643	8134.2
1732.064	8016.2
1736.481	7821.2
1740.893	7626.2
1745.301	7415.2
1749.705	7250.2
1754.105	7038.2
1758.501	6828.2
1762.893	6620.2
1767.28	6424.2
1771.663	6282.2
1776.042	6173.2
1780.417	6122.2
1784.787	6075.2
1789.154	6125.2
1793.516	6236.2
1797.874	6352.2
1802.228	6473.2
1806.578	6518.2
1810.924	6528.2
1815.266	6499.2
1819.603	6411.2
1823.937	6331.2
1828.266	6232.2
1832.591	6144.2
1836.913	6085.2
1841.23	6029.2
1845.543	5970.2
1849.852	5900.2
1854.156	5918.2
1858.457	5905.2
1862.754	5914.2
1867.047	5874.2
1871.335	5880.2
1875.62	5867.2
1879.9	5833.2
1884.177	5784.2
1888.449	5689.2
1892.718	5656.2
1896.982	5562.2
1901.243	5515.2
1905.499	5470.2
1909.752	5434.2
1914	5410.2
1918.245	5441.2
1922.485	5484.2
1926.722	5534.2
1930.954	5585.2
1935.183	5655.2
1939.408	5713.2
1943.628	5747.2
1947.845	5747.2
1952.058	5776.2
1956.267	5703.2
1960.472	5638.2
1964.673	5540.2
1968.87	5459.2
1973.063	5383.2
1977.252	5299.2
1981.438	5245.2
1985.619	5216.2
1989.797	5176.2
1993.971	5111.2
1998.14	5148.2
2002.306	5107.2
2006.469	5074.2
2010.627	5040.2
2014.781	5034.2
2018.932	4993.2
2023.078	4933.2
2027.221	4831.2
2031.36	4801.2
2035.495	4677.2
2039.627	4619.2
2043.754	4598.2
2047.878	4508.2
2051.998	4497.2
2056.114	4476.2
2060.226	4481.2
2064.334	4464.2
2068.439	4495.2
2072.54	4492.2
2076.637	4544.2
2080.73	4564.2
2084.82	4591.2
2088.906	4607.2
2092.988	4560.2
2097.066	4585.2
2101.14	4528.2
2105.211	4525.2
2109.278	4507.2
2113.342	4478.2
2117.401	4437.2
2121.457	4438.2
2125.509	4378.2
2129.558	4366.2
2133.602	4339.2
2137.643	4328.2
2141.681	4324.2
2145.714	4292.2
2149.744	4260.2
2153.77	4234.2
2157.793	4240.2
2161.812	4159.2
2165.827	4089.2
2169.838	4029.2
2173.846	3952.2
2177.851	3878.2
2181.851	3866.2
2185.848	3792.2
2189.841	3780.2
2193.831	3748.2
2197.817	3691.2
2201.799	3665.2
2205.778	3659.2
2209.753	3642.2
2213.725	3636.2
2217.693	3603.2
2221.657	3622.2
2225.618	3609.2
2229.575	3583.2
2233.529	3548.2
2237.479	3505.2
2241.425	3462.2
2245.368	3405.2
2249.307	3375.2
2253.243	3312.2
2257.175	3294.2
2261.104	3239.2
2265.029	3210.2
2268.95	3170.2
2272.868	3140.2
2276.783	3103.2
2280.694	3072.2
2284.601	3047.2
2288.505	3018.2
2292.405	2977.2
2296.302	2956.2
2300.195	2912.2
2304.085	2893.2
2307.971	2842.2
2311.854	2818.2
2315.734	2773.2
2319.609	2762.2
2323.482	2718.2
2327.351	2686.2
2331.216	2700.2
2335.078	2649.2
2338.937	2654.2
2342.792	2642.2
2346.643	2645.2
2350.492	2645.2
2354.336	2622.2
2358.178	2633.2
2362.015	2646.2
2365.85	2686.2
2369.681	2663.2
2373.508	2655.2
2377.333	2690.2
2381.153	2665.2
2384.971	2643.2
2388.785	2626.2
2392.595	2593.2
2396.402	2582.2
2400.206	2552.2
2404.007	2542.2
2407.804	2525.2
2411.597	2508.2
2415.388	2499.2
2419.174	2457.2
2422.958	2439.2
2426.738	2448.2
2430.515	2420.2
2434.289	2395.2
2438.059	2376.2
2441.825	2350.2
2445.589	2342.2
2449.349	2278.2
2453.106	2250.2
2456.859	2245.2
2460.61	2227.2
2464.356	2212.2
2468.1	2149.2
2471.84	2139.2
2475.577	2128.2
2479.311	2117.2
2483.041	2076.2
2486.768	2066.2
2490.492	2069.2
2494.213	2054.2
2497.93	2033.2
2501.644	2041.2
2505.355	2024.2
2509.062	2015.2
2512.766	2004.2
2516.467	1985.2
2520.165	2013.2
2523.859	1949.2
2527.551	1946.2
2531.239	1910.2
2534.923	1894.2
2538.605	1900.2
2542.283	1921.2
2545.958	1896.2
2549.63	1902.2
2553.299	1914.2
2556.964	1884.2
2560.626	1883.2
2564.285	1858.2
2567.941	1868.2
2571.594	1870.2
2575.243	1844.2
2578.89	1832.2
2582.533	1816.2
2586.173	1805.2
2589.809	1768.2
2593.443	1766.2
2597.073	1749.2
2600.701	1727.2
2604.325	1716.2
2607.946	1716.2
2611.564	1706.2
2615.178	1701.2
2618.79	1670.2
2622.398	1672.2
2626.004	1645.2
2629.606	1619.2
2633.205	1604.2
2636.801	1569.2
2640.394	1580.2
2643.983	1537.2
2647.57	1505.2
2651.153	1489.2
2654.734	1464.2
2658.311	1445.2
2661.885	1427.2
2665.456	1414.2
2669.025	1394.2
2672.589	1388.2
2676.151	1335.2
2679.71	1316.2
2683.266	1317.2
2686.819	1296.2
2690.368	1254.2
2693.915	1230.2
2697.458	1214.2
2700.999	1193.2
2704.536	1135.2
2708.071	1129.2
2711.602	1110.2
2715.13	1074.2
2718.656	1045.2
2722.178	1014.2
2725.697	1011.2
2729.214	999.2
2732.727	987.2
2736.237	966.2
2739.744	974.2
2743.249	965.2
2746.75	979.2
2750.248	988.2
2753.743	992.2
2757.236	1011.2
2760.725	1010.2
2764.211	1001.2
2767.695	1021.2
2771.175	1016.2
2774.652	996.2
2778.127	1012.2
2781.598	1005.2
2785.067	987.2
2788.532	1006.2
2791.995	989.2
2795.455	997.2
2798.911	1002.2
2802.365	1001.2
2805.816	996.2
2809.264	1003.2
2812.709	993.2
2816.151	982.2
2819.59	999.2
2823.026	999.2
2826.46	994.2
2829.89	999.2
2833.318	995.2
2836.742	993.2
2840.164	1022.2
2843.583	1004.2
2846.999	1016.2
2850.412	1031.2
2853.822	1054.2
2857.229	1058.2
2860.634	1095.2
2864.035	1102.2
2867.434	1129.2
2870.83	1161.2
2874.223	1172.2
2877.613	1190.2
2881	1224.2
2884.385	1188.2
2887.766	1212.2
2891.145	1210.2
2894.521	1186.2
2897.894	1193.2
2901.264	1185.2
2904.631	1206.2
2907.996	1183.2
2911.358	1219.2
2914.717	1204.2
2918.073	1219.2
2921.426	1228.2
2924.777	1250.2
2928.124	1286.2
2931.469	1293.2
2934.811	1305.2
2938.15	1309.2
2941.487	1352.2
2944.821	1343.2
2948.152	1333.2
2951.48	1318.2
2954.805	1300.2
2958.128	1284.2
2961.447	1268.2
2964.765	1276.2
2968.079	1285.2
2971.39	1285.2
2974.699	1311.2
2978.005	1333.2
2981.308	1344.2
2984.609	1354.2
2987.907	1379.2
2991.202	1413.2
2994.494	1448.2
2997.784	1488.2
3001.07	1496.2
3004.355	1525.2
3007.636	1531.2
3010.915	1551.2
3014.191	1586.2
3017.464	1595.2
3020.734	1582.2
3024.002	1609.2
3027.267	1610.2
3030.53	1636.2
3033.789	1654.2
3037.046	1674.2
3040.301	1709.2
3043.552	1724.2
3046.801	1762.2
3050.048	1806.2
3053.291	1859.2
3056.532	1910.2
3059.771	1952.2
3063.006	2014.2
3066.239	2106.2
3069.469	2154.2
3072.697	2220.2
3075.922	2255.2
3079.144	2327.2
3082.364	2364.2
3085.581	2405.2
3088.795	2477.2
3092.007	2516.2
3095.216	2566.2
3098.423	2610.2
3101.627	2708.2
3104.828	2741.2
3108.026	2785.2
3111.222	2881.2
3114.416	2935.2
3117.607	2986.2
3120.795	3043.2
3123.98	3138.2
3127.163	3224.2
3130.344	3306.2
3133.521	3390.2
3136.696	3462.2
3139.869	3501.2
3143.039	3578.2
3146.206	3607.2
3149.371	3659.2
3152.533	3695.2
3155.693	3700.2
3158.85	3767.2
3162.005	3752.2
3165.157	3782.2
3168.306	3768.2
3171.453	3802.2
3174.597	3796.2
3177.739	3815.2
3180.878	3801.2
3184.014	3787.2
3187.149	3811.2
3190.28	3818.2
3193.409	3861.2
3196.536	3838.2
3199.659	3837.2
3202.781	3837.2
3205.9	3836.2
3209.016	3844.2
3212.13	3832.2
3215.241	3773.2
3218.35	3744.2
3221.456	3714.2
3224.56	3662.2
3227.661	3653.2
3230.76	3611.2
3233.856	3510.2
3236.95	3535.2
3240.041	3474.2
3243.13	3438.2
3246.216	3405.2
3249.3	3402.2
3252.382	3383.2
3255.46	3382.2
3258.537	3354.2
3261.611	3355.2
3264.682	3349.2
3267.751	3355.2
3270.818	3378.2
3273.882	3338.2
3276.943	3328.2
3280.002	3303.2
3283.059	3273.2
3286.113	3247.2
3289.165	3211.2
3292.214	3153.2
3295.261	3090.2
3298.306	3055.2
3301.348	3001.2
3304.387	2973.2
3307.425	2900.2
3310.459	2873.2
3313.492	2811.2
3316.521	2800.2
3319.549	2758.2
3322.574	2723.2
3325.597	2698.2
3328.617	2681.2
3331.635	2662.2
3334.65	2663.2
3337.663	2631.2
3340.674	2638.2
3343.682	2629.2
3346.688	2634.2
3349.691	2594.2
3352.692	2589.2
3355.691	2580.2
3358.687	2571.2
3361.681	2526.2
3364.673	2477.2
3367.662	2454.2
3370.649	2392.2
3373.633	2366.2
3376.615	2333.2
3379.595	2298.2
3382.572	2257.2
3385.547	2246.2
3388.52	2184.2
3391.49	2157.2
3394.458	2144.2
3397.424	2070.2
3400.387	2056.2
3403.348	2050.2
3406.307	2013.2
3409.263	2011.2
3412.217	1977.2
3415.168	1948.2
3418.118	1921.2
3421.065	1901.2
3424.009	1859.2
3426.951	1820.2
3429.891	1835.2
3432.829	1751.2
3435.764	1727.2
3438.697	1691.2
3441.628	1633.2
3444.557	1591.2
3447.483	1524.2
3450.407	1468.2
3453.328	1413.2
3456.247	1377.2
3459.164	1308.2
3462.079	1274.2
3464.991	1220.2
3467.902	1162.2
3470.809	1122.2
3473.715	1082.2
3476.618	1043.2
3479.519	1006.2
3482.418	963.2
3485.315	949.2
3488.209	889.2
3491.101	842.2
3493.99	838.2
3496.878	778.2
3499.763	750.2
3502.646	731.2
3505.527	689.2
3508.405	659.2
3511.281	614.2
3514.155	575.2
3517.027	535.2
3519.897	491.2
3522.764	466.2
3525.629	407.2
3528.492	376.2
3531.352	339.2
3534.211	300.2
3537.067	270.2
3539.921	228.2
3542.773	211.2
3545.622	169.2
3548.469	133.2
3551.315	105.2
3554.157	88.2
3556.998	65.2
3559.837	44.2
3562.673	17.2
3565.507	-6.8
3568.339	-10.8
3571.169	-39.8
3573.996	-53.8
3576.822	-80.8
3579.645	-106.8
3582.466	-126.8
3585.285	-142.8
3588.101	-153.8
3590.916	-162.8
3593.728	-200.8
3596.538	-223.8
3599.346	-230.8
3602.152	-239.8
3604.956	-265.8
3607.757	-273.8
3610.556	-290.8
3613.354	-308.8
3616.149	-316.8
3618.942	-324.8
3621.732	-342.8
3624.521	-342.8
3627.307	-358.8
3630.092	-370.8
3632.874	-378.8
3635.654	-382.8
3638.432	-391.8
3641.208	-402.8
3643.982	-410.8
3646.753	-408.8
3649.523	-431.8
3652.29	-434.8
3655.055	-431.8
3657.818	-451.8
3660.579	-455.8
3663.338	-465.8
3666.095	-483.8
3668.849	-488.8
3671.602	-504.8
3674.352	-508.8
3677.101	-515.8
3679.847	-520.8
3682.591	-519.8
3685.333	-527.8
3688.073	-535.8
3690.811	-538.8
3693.547	-544.8
3696.281	-544.8
3699.013	-549.8
3701.742	-561.8
3704.47	-558.8
3707.195	-562.8
3709.919	-570.8
3712.64	-569.8
3715.359	-577.8
3718.076	-577.8
3720.792	-584.8
3723.505	-589.8
3726.216	-595.8
3728.925	-596.8
3731.632	-602.8
3734.336	-602.8
3737.039	-604.8
3739.74	-608.8
3742.439	-609.8
3745.136	-611.8
3747.83	-620.8
3750.523	-611.8
3753.213	-626.8
3755.902	-617.8
3758.589	-621.8
3761.273	-612.8
3763.956	-631.8
3766.636	-622.8
3769.315	-628.8
3771.991	-634.8
3774.665	-632.8
3777.338	-628.8
3780.008	-631.8
3782.677	-632.8
3785.343	-633.8
3788.007	-626.8
3790.67	-635.8
3793.33	-637.8
3795.989	-642.8
3798.645	-642.8
3801.299	-643.8
3803.952	-642.8
3806.602	-644.8
3809.251	-652.8
3811.897	-647.8
3814.542	-642.8
3817.184	-646.8
3819.825	-647.8
3822.463	-644.8
3825.1	-650.8
3827.735	-654.8
3830.367	-654.8
3832.998	-657.8
3835.627	-655.8
3838.253	-656.8
3840.878	-656.8
3843.501	-657.8
3846.122	-654.8
3848.741	-655.8
3851.358	-666.8
3853.973	-662.8
3856.586	-658.8
3859.197	-657.8
3861.806	-661.8
3864.414	-654.8
3867.019	-655.8
3869.622	-656.8
3872.224	-655.8
3874.823	-638.8
3877.421	-624.8
3880.016	-608.8
3882.61	-568.8
3885.202	-575.8
3887.792	-594.8
3890.38	-621.8
3892.966	-642.8
3895.55	-649.8
3898.132	-661.8
3900.713	-669.8
3903.291	-669.8
3905.868	-676.8
3908.442	-673.8
3911.015	-670.8
3913.586	-673.8
3916.155	-668.8
3918.722	-672.8
3921.287	-673.8
3923.85	-671.8
3926.411	-672.8
3928.971	-670.8
3931.528	-675.8
3934.084	-665.8
3936.638	-672.8
3939.19	-673.8
3941.74	-678.8
3944.288	-679.8
3946.834	-675.8
3949.378	-678.8
3951.921	-676.8
3954.462	-679.8
3957	-672.8
3959.537	-668.8
3962.072	-676.8
3964.606	-671.8
3967.137	-678.8
3969.667	-670.8
3972.194	-666.8
3974.72	-669.8
3977.244	-665.8
3979.766	-664.8
3982.286	-666.8
3984.805	-660.8
3987.321	-658.8
3989.836	-662.8
3992.349	-657.8
3994.86	-654.8
3997.369	-668.8
3999.877	-660.8
4002.382	-653.8
4004.886	-662.8
4007.388	-663.8
4009.888	-656.8
4012.386	-660.8
4014.883	-657.8
4017.377	-653.8
4019.87	-654.8
4022.361	-655.8
4024.85	-656.8
4027.338	-661.8
4029.823	-655.8
4032.307	-666.8
4034.789	-660.8
4037.269	-669.8
4039.747	-666.8
4042.224	-661.8
4044.699	-659.8
4047.172	-668.8
4049.643	-661.8
4052.112	-670.8
4054.58	-659.8
4057.046	-668.8
4059.51	-668.8
4061.972	-666.8
4064.432	-664.8
4066.891	-662.8
4069.348	-665.8
4071.803	-665.8
4074.256	-659.8
4076.708	-662.8
4079.158	-660.8
4081.606	-656.8
4084.052	-655.8
4086.497	-662.8
4088.939	-656.8
4091.38	-649.8
4093.819	-656.8
4096.257	-694.8
4098.693	-694.8
4101.127	-697.8
4103.559	-696.8
4105.989	-423.8
4108.418	-394.8
4110.845	-376.8
4113.27	-346.8
4115.694	-294.8
4118.115	-244.8
4120.535	-662.8
4122.954	-666.8
4125.37	-659.8
4127.785	-659.8
4130.198	-672.8
4132.609	-659.8
4135.019	-701.8
4137.427	-696.8
4139.833	-699.8
4142.237	-697.8
